SpectraSuite Data File
++++++++++++++++++++++++++++++++++++
Date: Wed May 13 16:49:34 PDT 2015
User: schluterlab
Dark Spectrum Present: Yes
Reference Spectrum Present: Yes
Number of Sampled Component Spectra: 1
Spectrometers: USB2E3373
Integration Time (usec): 3000 (USB2E3373)
Spectra Averaged: 3 (USB2E3373)
Boxcar Smoothing: 0 (USB2E3373)
Correct for Electrical Dark: No (USB2E3373)
Strobe/Lamp Enabled: No (USB2E3373)
Correct for Detector Non-linearity: No (USB2E3373)
Correct for Stray Light: No (USB2E3373)
Number of Pixels in Processed Spectrum: 2048
>>>>>Begin Processed Spectral Data<<<<<
178.53	0.000
178.91	-1450.000
179.29	-1175.000
179.67	-250.000
180.04	-1300.000
180.42	2300.000
180.80	1100.000
181.18	-975.000
181.56	700.000
181.94	0.000
182.31	-685.714
182.69	1733.333
183.07	-562.500
183.45	-466.667
183.83	509.091
184.20	-390.000
184.58	1850.000
184.96	4700.000
185.34	-1040.000
185.72	-537.500
186.09	-1950.000
186.47	2600.000
186.85	2300.000
187.23	4100.000
187.61	-1833.333
187.98	1300.000
188.36	545.455
188.74	472.727
189.12	-780.000
189.49	600.000
189.87	-4200.000
190.25	-1200.000
190.63	471.429
191.00	415.385
191.38	833.333
191.76	-1175.000
192.14	1400.000
192.51	525.000
192.89	916.667
193.27	625.000
193.65	-1300.000
194.02	450.000
194.40	1000.000
194.78	500.000
195.15	566.667
195.53	620.000
195.91	-1700.000
196.29	343.750
196.66	284.211
197.04	-360.000
197.42	0.000
197.79	630.000
198.17	-3900.000
198.55	542.857
198.92	687.500
199.30	800.000
199.68	0.000
200.05	316.667
200.43	771.429
200.81	4800.000
201.18	1533.333
201.56	-1400.000
201.94	633.333
202.31	511.111
202.69	416.667
203.07	540.000
203.44	0.000
203.82	1150.000
204.19	771.429
204.57	378.571
204.95	675.000
205.32	1533.333
205.70	545.455
206.08	371.429
206.45	2650.000
206.83	306.250
207.20	900.000
207.58	740.000
207.96	322.222
208.33	675.000
208.71	-816.667
209.08	771.429
209.46	544.444
209.84	436.364
210.21	-1800.000
210.59	1375.000
210.96	-512.500
211.34	2200.000
211.71	580.000
212.09	833.333
212.46	0.000
212.84	1500.000
213.22	1175.000
213.59	-3900.000
213.97	883.333
214.34	742.857
214.72	581.818
215.09	1180.000
215.47	-1850.000
215.84	-2400.000
216.22	1333.333
216.59	335.714
216.97	1425.000
217.34	454.545
217.72	-683.333
218.09	0.000
218.47	-4600.000
218.84	666.667
219.22	800.000
219.59	1700.000
219.97	-600.000
220.34	1020.000
220.72	-1866.667
221.09	392.857
221.47	1525.000
221.84	-983.333
222.22	0.000
222.59	1200.000
222.97	-2300.000
223.34	1060.000
223.72	384.615
224.09	960.000
224.46	2450.000
224.84	-3800.000
225.21	-1060.000
225.59	-4700.000
225.96	720.000
226.34	305.000
226.71	2600.000
227.08	625.000
227.46	400.000
227.83	-1200.000
228.21	-2350.000
228.58	622.222
228.95	-1950.000
229.33	-2600.000
229.70	1333.333
230.08	671.429
230.45	-800.000
230.82	416.667
231.20	883.333
231.57	642.857
231.95	466.667
232.32	281.818
232.69	290.909
233.07	542.857
233.44	361.538
233.81	-1533.333
234.19	252.632
234.56	383.333
234.93	350.000
235.31	445.455
235.68	330.769
236.05	285.714
236.43	163.636
236.80	231.579
237.17	4000.000
237.55	247.619
237.92	153.571
238.29	209.524
238.67	177.419
239.04	193.103
239.41	125.000
239.79	97.826
240.16	116.667
240.53	134.091
240.91	88.235
241.28	86.000
241.65	90.000
242.02	76.812
242.40	74.194
242.77	95.000
243.14	61.290
243.51	62.921
243.89	64.706
244.26	54.444
244.63	53.763
245.00	46.809
245.38	40.594
245.75	44.860
246.12	41.284
246.49	40.876
246.87	48.000
247.24	54.615
247.61	43.571
247.98	43.791
248.36	33.784
248.73	33.121
249.10	31.847
249.47	32.203
249.84	35.294
250.22	27.807
250.59	31.953
250.96	33.838
251.33	30.332
251.70	30.198
252.08	30.000
252.45	25.112
252.82	22.609
253.19	26.383
253.56	26.275
253.94	30.705
254.31	23.047
254.68	25.000
255.05	23.247
255.42	23.984
255.79	23.897
256.16	26.354
256.54	19.435
256.91	22.420
257.28	17.266
257.65	20.132
258.02	22.050
258.39	22.713
258.76	17.391
259.14	20.536
259.51	20.061
259.88	18.012
260.25	20.242
260.62	15.029
260.99	16.770
261.36	17.417
261.73	18.052
262.10	18.023
262.47	18.028
262.85	15.042
263.22	11.396
263.59	18.234
263.96	17.857
264.33	16.710
264.70	17.105
265.07	18.159
265.44	15.657
265.81	15.085
266.18	12.814
266.55	15.122
266.92	15.479
267.29	15.741
267.66	14.679
268.03	15.682
268.40	17.056
268.77	15.036
269.14	14.189
269.51	15.801
269.88	15.152
270.25	13.770
270.62	13.933
270.99	16.774
271.36	15.665
271.73	15.187
272.10	13.261
272.47	16.129
272.84	14.069
273.21	15.514
273.58	13.974
273.95	13.208
274.32	13.636
274.69	12.848
275.06	13.780
275.43	14.043
275.80	14.830
276.17	13.035
276.54	14.553
276.91	15.810
277.28	13.477
277.65	13.926
278.02	12.422
278.39	13.086
278.76	14.000
279.13	13.019
279.50	13.408
279.87	13.546
280.23	13.174
280.60	13.346
280.97	12.754
281.34	12.743
281.71	13.818
282.08	13.820
282.45	11.818
282.82	11.012
283.19	11.230
283.56	12.982
283.92	12.352
284.29	12.169
284.66	11.071
285.03	11.212
285.40	11.444
285.77	11.616
286.14	12.263
286.51	13.333
286.87	12.479
287.24	12.704
287.61	12.520
287.98	11.526
288.35	12.678
288.72	10.903
289.08	11.111
289.45	10.708
289.82	10.894
290.19	9.733
290.56	9.954
290.93	9.215
291.29	12.577
291.66	12.389
292.03	14.680
292.40	13.363
292.77	11.391
293.13	11.940
293.50	11.516
293.87	12.444
294.24	12.148
294.60	9.753
294.97	10.465
295.34	13.117
295.71	11.364
296.08	10.399
296.44	10.729
296.81	10.832
297.18	10.976
297.55	8.971
297.91	10.818
298.28	13.119
298.65	12.141
299.02	13.043
299.38	8.632
299.75	8.760
300.12	8.557
300.48	10.625
300.85	10.974
301.22	9.682
301.59	10.227
301.95	12.343
302.32	10.655
302.69	10.633
303.05	11.636
303.42	10.123
303.79	10.985
304.15	9.324
304.52	8.806
304.89	9.872
305.25	10.093
305.62	10.079
305.99	10.153
306.35	10.515
306.72	10.762
307.09	11.210
307.45	11.712
307.82	8.705
308.19	11.258
308.55	11.866
308.92	10.311
309.29	10.348
309.65	9.968
310.02	10.782
310.38	10.645
310.75	11.299
311.12	11.259
311.48	11.599
311.85	11.426
312.22	11.134
312.58	11.435
312.95	10.243
313.31	10.971
313.68	11.642
314.05	12.327
314.41	11.658
314.78	11.279
315.14	12.016
315.51	12.667
315.87	11.782
316.24	11.321
316.61	12.183
316.97	11.252
317.34	11.350
317.70	12.715
318.07	12.127
318.43	12.329
318.80	12.840
319.16	12.335
319.53	12.101
319.89	12.857
320.26	12.600
320.62	13.393
320.99	13.030
321.35	12.424
321.72	12.628
322.08	13.623
322.45	14.527
322.81	14.147
323.18	14.451
323.54	13.544
323.91	14.340
324.27	13.862
324.64	13.700
325.00	14.067
325.37	15.378
325.73	16.158
326.10	15.446
326.46	14.158
326.83	16.911
327.19	16.055
327.56	14.634
327.92	14.611
328.29	16.327
328.65	16.206
329.01	15.614
329.38	16.004
329.74	15.974
330.11	17.059
330.47	16.162
330.84	17.188
331.20	15.301
331.56	15.596
331.93	16.296
332.29	17.036
332.66	16.726
333.02	17.002
333.38	15.357
333.75	16.578
334.11	16.726
334.48	15.794
334.84	15.901
335.20	16.455
335.57	15.775
335.93	16.161
336.29	16.026
336.66	16.050
337.02	15.475
337.38	16.389
337.75	15.062
338.11	15.398
338.47	16.483
338.84	15.949
339.20	15.229
339.56	17.336
339.93	15.727
340.29	16.214
340.65	15.954
341.02	16.579
341.38	15.658
341.74	16.053
342.11	16.419
342.47	15.859
342.83	16.695
343.20	16.970
343.56	16.007
343.92	14.912
344.28	15.731
344.65	15.649
345.01	15.741
345.37	14.837
345.73	15.059
346.10	15.516
346.46	15.847
346.82	16.310
347.19	15.288
347.55	15.271
347.91	16.828
348.27	15.941
348.63	15.385
349.00	16.424
349.36	14.368
349.72	15.638
350.08	14.992
350.45	14.890
350.81	15.678
351.17	15.802
351.53	15.397
351.89	14.769
352.26	15.706
352.62	15.477
352.98	15.559
353.34	16.598
353.70	13.666
354.07	15.000
354.43	15.635
354.79	14.883
355.15	14.924
355.51	16.227
355.87	16.082
356.24	14.984
356.60	14.435
356.96	14.722
357.32	15.372
357.68	14.803
358.04	15.914
358.40	15.994
358.77	15.806
359.13	15.312
359.49	15.529
359.85	13.492
360.21	15.152
360.57	16.031
360.93	16.000
361.29	15.646
361.66	15.557
362.02	15.224
362.38	15.437
362.74	15.699
363.10	14.508
363.46	15.701
363.82	14.361
364.18	15.492
364.54	16.419
364.90	15.652
365.26	15.735
365.62	15.997
365.98	14.901
366.35	14.542
366.71	15.546
367.07	15.295
367.43	15.602
367.79	15.774
368.15	16.595
368.51	15.625
368.87	15.989
369.23	15.069
369.59	15.713
369.95	15.368
370.31	15.954
370.67	15.580
371.03	16.404
371.39	14.796
371.75	16.618
372.11	15.078
372.47	16.129
372.83	16.715
373.19	15.101
373.55	16.482
373.91	17.231
374.27	15.808
374.63	15.782
374.99	16.879
375.35	15.073
375.71	16.175
376.07	16.187
376.42	17.194
376.78	17.230
377.14	16.621
377.50	16.556
377.86	16.024
378.22	16.877
378.58	16.792
378.94	17.033
379.30	15.840
379.66	16.878
380.02	16.032
380.38	15.665
380.74	16.987
381.09	16.198
381.45	17.210
381.81	17.998
382.17	17.070
382.53	17.610
382.89	17.716
383.25	16.385
383.61	19.145
383.97	16.385
384.32	17.342
384.68	17.224
385.04	17.025
385.40	17.895
385.76	16.462
386.12	18.005
386.48	17.181
386.83	17.062
387.19	18.738
387.55	17.687
387.91	17.473
388.27	17.535
388.62	18.869
388.98	17.998
389.34	18.899
389.70	19.191
390.06	18.504
390.42	18.872
390.77	18.384
391.13	18.507
391.49	19.480
391.85	18.587
392.20	17.666
392.56	18.119
392.92	18.246
393.28	17.811
393.64	18.465
393.99	17.715
394.35	18.486
394.71	18.256
395.07	18.629
395.42	18.232
395.78	18.257
396.14	18.746
396.50	18.734
396.85	18.945
397.21	17.879
397.57	18.599
397.92	18.209
398.28	17.993
398.64	17.742
399.00	17.571
399.35	17.597
399.71	17.535
400.07	19.219
400.42	19.141
400.78	18.758
401.14	17.866
401.49	18.507
401.85	17.544
402.21	18.323
402.57	17.952
402.92	18.789
403.28	19.176
403.63	19.245
403.99	18.089
404.35	18.909
404.70	18.465
405.06	17.414
405.42	18.777
405.77	18.571
406.13	18.792
406.49	18.332
406.84	19.019
407.20	17.730
407.55	18.571
407.91	18.600
408.27	18.698
408.62	18.904
408.98	18.137
409.34	18.020
409.69	18.323
410.05	17.658
410.40	17.798
410.76	18.757
411.11	19.059
411.47	18.083
411.83	18.632
412.18	17.749
412.54	18.991
412.89	19.157
413.25	18.241
413.60	17.665
413.96	17.851
414.31	18.348
414.67	19.392
415.03	17.682
415.38	18.621
415.74	17.942
416.09	18.811
416.45	16.867
416.80	19.365
417.16	19.504
417.51	19.642
417.87	17.213
418.22	18.738
418.58	19.561
418.93	18.673
419.29	18.842
419.64	18.640
420.00	18.293
420.35	18.145
420.71	19.008
421.06	17.542
421.42	18.713
421.77	19.170
422.12	17.574
422.48	17.917
422.83	18.870
423.19	18.398
423.54	18.282
423.90	18.261
424.25	18.705
424.61	18.512
424.96	18.659
425.31	18.217
425.67	18.034
426.02	18.571
426.38	18.987
426.73	17.905
427.09	18.541
427.44	18.516
427.79	18.689
428.15	18.571
428.50	19.134
428.85	18.713
429.21	18.609
429.56	18.196
429.92	17.765
430.27	18.272
430.62	18.280
430.98	18.630
431.33	18.196
431.68	18.115
432.04	18.158
432.39	18.504
432.74	18.791
433.10	18.846
433.45	19.125
433.80	18.681
434.16	18.750
434.51	17.842
434.86	18.358
435.22	18.232
435.57	18.176
435.92	18.549
436.28	18.861
436.63	19.205
436.98	18.832
437.34	19.499
437.69	19.253
438.04	17.931
438.39	18.925
438.75	18.652
439.10	18.324
439.45	18.831
439.81	18.671
440.16	18.012
440.51	18.629
440.86	19.398
441.22	18.576
441.57	18.418
441.92	18.475
442.27	18.676
442.63	18.220
442.98	19.268
443.33	19.348
443.68	18.689
444.03	18.546
444.39	18.647
444.74	18.182
445.09	18.868
445.44	19.081
445.79	18.605
446.15	19.005
446.50	18.309
446.85	18.602
447.20	18.919
447.55	18.760
447.91	18.864
448.26	18.587
448.61	18.655
448.96	19.269
449.31	19.629
449.66	18.514
450.02	17.994
450.37	18.424
450.72	18.218
451.07	18.647
451.42	18.480
451.77	19.495
452.12	19.342
452.47	19.403
452.83	18.765
453.18	19.193
453.53	19.048
453.88	18.724
454.23	19.904
454.58	19.322
454.93	20.598
455.28	19.015
455.63	19.175
455.98	20.119
456.34	18.216
456.69	19.161
457.04	19.195
457.39	18.644
457.74	20.023
458.09	19.609
458.44	19.327
458.79	18.764
459.14	19.244
459.49	19.498
459.84	19.003
460.19	18.680
460.54	19.097
460.89	19.309
461.24	18.579
461.59	19.930
461.94	18.804
462.29	20.000
462.64	18.826
462.99	19.063
463.34	20.333
463.69	19.262
464.04	19.826
464.39	18.377
464.74	18.598
465.09	19.119
465.44	19.612
465.79	18.065
466.14	18.774
466.49	18.966
466.84	18.214
467.19	19.191
467.54	19.062
467.89	19.568
468.24	19.372
468.59	20.085
468.94	18.815
469.29	19.087
469.64	19.679
469.99	19.486
470.34	19.089
470.68	20.115
471.03	19.728
471.38	20.848
471.73	19.654
472.08	19.803
472.43	19.786
472.78	19.289
473.13	20.218
473.48	19.476
473.83	19.573
474.17	18.668
474.52	19.603
474.87	19.381
475.22	20.023
475.57	18.753
475.92	18.534
476.27	19.278
476.61	19.415
476.96	18.747
477.31	18.891
477.66	18.873
478.01	18.662
478.36	18.773
478.70	17.861
479.05	18.956
479.40	18.782
479.75	18.709
480.10	18.042
480.45	18.229
480.79	18.729
481.14	18.738
481.49	18.225
481.84	18.153
482.19	18.401
482.53	18.394
482.88	19.172
483.23	19.159
483.58	18.517
483.92	18.416
484.27	17.037
484.62	18.103
484.97	17.698
485.31	18.664
485.66	16.962
486.01	16.139
486.36	15.533
486.70	15.282
487.05	15.945
487.40	16.318
487.75	17.059
488.09	17.774
488.44	17.445
488.79	18.011
489.13	18.526
489.48	18.760
489.83	18.515
490.17	18.720
490.52	18.113
490.87	18.001
491.22	17.781
491.56	18.132
491.91	17.915
492.26	18.190
492.60	18.295
492.95	17.914
493.30	18.224
493.64	18.525
493.99	18.338
494.34	18.501
494.68	19.185
495.03	17.810
495.37	18.195
495.72	18.226
496.07	18.840
496.41	17.743
496.76	17.942
497.11	18.685
497.45	17.839
497.80	18.954
498.14	18.357
498.49	18.927
498.84	19.223
499.18	18.571
499.53	18.851
499.87	18.500
500.22	18.606
500.56	18.932
500.91	18.077
501.26	18.350
501.60	19.506
501.95	18.653
502.29	18.557
502.64	18.901
502.98	18.093
503.33	18.419
503.67	18.561
504.02	18.054
504.36	18.577
504.71	19.052
505.06	19.325
505.40	18.862
505.75	18.081
506.09	18.707
506.44	18.944
506.78	18.850
507.13	18.778
507.47	19.343
507.82	19.706
508.16	19.352
508.51	19.330
508.85	18.570
509.19	19.286
509.54	18.929
509.88	18.959
510.23	18.458
510.57	19.866
510.92	18.591
511.26	19.065
511.61	18.672
511.95	18.633
512.30	18.876
512.64	19.076
512.98	20.418
513.33	19.700
513.67	18.997
514.02	18.723
514.36	18.951
514.70	19.590
515.05	19.130
515.39	19.798
515.74	18.863
516.08	19.788
516.42	19.367
516.77	19.788
517.11	19.589
517.46	20.090
517.80	20.093
518.14	18.703
518.49	20.828
518.83	19.602
519.17	19.284
519.52	19.242
519.86	19.452
520.20	20.116
520.55	20.706
520.89	20.438
521.23	20.748
521.58	20.108
521.92	19.841
522.26	19.341
522.61	19.751
522.95	20.258
523.29	19.781
523.64	19.939
523.98	20.887
524.32	19.723
524.66	19.302
525.01	20.282
525.35	20.756
525.69	19.828
526.04	20.748
526.38	20.317
526.72	20.123
527.06	20.339
527.41	18.626
527.75	20.450
528.09	20.745
528.43	20.013
528.78	20.344
529.12	20.364
529.46	19.963
529.80	20.545
530.15	20.623
530.49	20.123
530.83	20.190
531.17	20.561
531.51	21.077
531.86	20.839
532.20	20.535
532.54	20.884
532.88	20.347
533.22	19.113
533.57	19.753
533.91	19.928
534.25	20.413
534.59	19.402
534.93	19.929
535.27	19.433
535.62	20.147
535.96	19.648
536.30	19.962
536.64	20.412
536.98	20.703
537.32	20.145
537.66	20.467
538.01	20.540
538.35	20.427
538.69	20.421
539.03	20.468
539.37	19.425
539.71	19.119
540.05	20.196
540.39	20.399
540.73	20.116
541.07	20.182
541.42	20.809
541.76	20.387
542.10	20.893
542.44	20.265
542.78	21.410
543.12	20.026
543.46	20.984
543.80	20.429
544.14	18.485
544.48	20.825
544.82	19.756
545.16	20.169
545.50	19.280
545.84	19.892
546.18	20.337
546.52	21.060
546.86	20.893
547.20	20.432
547.54	20.508
547.88	21.173
548.22	19.676
548.56	19.811
548.90	19.334
549.24	20.808
549.58	21.146
549.92	21.291
550.26	20.099
550.60	21.508
550.94	20.915
551.28	20.337
551.62	21.711
551.96	21.333
552.30	21.160
552.64	20.352
552.98	20.610
553.32	21.308
553.66	21.268
554.00	20.796
554.34	21.118
554.68	21.388
555.02	20.592
555.36	20.738
555.69	20.433
556.03	21.063
556.37	20.737
556.71	20.123
557.05	19.678
557.39	20.574
557.73	20.819
558.07	20.740
558.41	20.478
558.75	21.528
559.08	21.775
559.42	20.862
559.76	21.103
560.10	20.414
560.44	20.825
560.78	20.625
561.12	21.108
561.45	20.795
561.79	20.699
562.13	21.462
562.47	20.902
562.81	21.339
563.15	20.669
563.48	21.088
563.82	20.352
564.16	20.144
564.50	20.508
564.84	20.607
565.17	20.142
565.51	20.575
565.85	20.431
566.19	19.411
566.52	19.633
566.86	19.952
567.20	20.991
567.54	19.977
567.88	18.685
568.21	19.735
568.55	19.363
568.89	19.066
569.23	19.340
569.56	18.583
569.90	18.075
570.24	17.761
570.57	17.375
570.91	17.130
571.25	17.449
571.59	17.408
571.92	17.224
572.26	17.649
572.60	17.958
572.93	17.301
573.27	17.332
573.61	17.560
573.95	17.933
574.28	17.060
574.62	17.007
574.96	16.440
575.29	16.489
575.63	16.692
575.97	17.027
576.30	17.313
576.64	17.134
576.98	17.137
577.31	16.959
577.65	16.895
577.98	16.787
578.32	16.620
578.66	16.499
578.99	16.686
579.33	17.139
579.67	16.955
580.00	17.022
580.34	17.181
580.67	17.017
581.01	17.248
581.35	16.895
581.68	16.831
582.02	16.565
582.35	16.239
582.69	16.506
583.02	16.468
583.36	17.178
583.70	17.433
584.03	17.685
584.37	17.628
584.70	17.685
585.04	17.759
585.37	17.008
585.71	17.552
586.04	17.178
586.38	17.816
586.72	17.896
587.05	17.305
587.39	16.860
587.72	17.650
588.06	17.102
588.39	17.641
588.73	17.336
589.06	18.355
589.40	18.182
589.73	18.198
590.07	17.794
590.40	17.939
590.73	18.579
591.07	19.495
591.40	18.262
591.74	19.091
592.07	18.455
592.41	18.189
592.74	18.240
593.08	17.655
593.41	17.779
593.75	17.520
594.08	17.801
594.41	17.851
594.75	17.745
595.08	18.862
595.42	18.179
595.75	18.020
596.09	18.551
596.42	18.821
596.75	19.249
597.09	19.091
597.42	18.845
597.75	18.844
598.09	19.043
598.42	18.514
598.76	18.727
599.09	17.864
599.42	18.013
599.76	18.155
600.09	17.778
600.42	18.115
600.76	18.250
601.09	18.142
601.42	18.037
601.76	18.027
602.09	18.498
602.42	19.268
602.76	18.581
603.09	18.765
603.42	18.704
603.76	17.988
604.09	18.302
604.42	18.793
604.76	19.275
605.09	19.091
605.42	18.897
605.75	18.171
606.09	18.625
606.42	18.063
606.75	18.623
607.09	19.046
607.42	18.699
607.75	17.595
608.08	18.411
608.42	18.646
608.75	18.575
609.08	18.316
609.41	18.991
609.75	19.057
610.08	19.746
610.41	18.762
610.74	19.395
611.07	19.417
611.41	19.087
611.74	19.658
612.07	19.358
612.40	19.622
612.73	19.000
613.07	19.881
613.40	19.273
613.73	19.612
614.06	19.086
614.39	19.402
614.72	19.000
615.06	19.485
615.39	19.427
615.72	19.785
616.05	19.192
616.38	19.844
616.71	20.487
617.05	20.730
617.38	20.265
617.71	19.940
618.04	20.192
618.37	20.343
618.70	20.597
619.03	20.855
619.36	21.453
619.69	20.915
620.03	21.016
620.36	21.390
620.69	22.329
621.02	21.091
621.35	21.535
621.68	20.717
622.01	21.672
622.34	20.726
622.67	21.521
623.00	19.736
623.33	20.443
623.66	20.801
623.99	21.208
624.32	20.613
624.65	21.540
624.99	19.405
625.32	20.565
625.65	20.887
625.98	21.599
626.31	21.540
626.64	21.388
626.97	21.862
627.30	21.280
627.63	22.724
627.96	22.456
628.29	22.572
628.62	22.598
628.95	23.868
629.28	21.898
629.61	23.098
629.94	24.095
630.26	22.212
630.59	22.116
630.92	23.276
631.25	21.816
