SpectraSuite Data File
++++++++++++++++++++++++++++++++++++
Date: Wed May 13 16:22:53 PDT 2015
User: schluterlab
Dark Spectrum Present: Yes
Reference Spectrum Present: Yes
Number of Sampled Component Spectra: 1
Spectrometers: USB2E3373
Integration Time (usec): 3000 (USB2E3373)
Spectra Averaged: 3 (USB2E3373)
Boxcar Smoothing: 0 (USB2E3373)
Correct for Electrical Dark: No (USB2E3373)
Strobe/Lamp Enabled: No (USB2E3373)
Correct for Detector Non-linearity: No (USB2E3373)
Correct for Stray Light: No (USB2E3373)
Number of Pixels in Processed Spectrum: 2048
>>>>>Begin Processed Spectral Data<<<<<
178.53	0.000
178.91	-1225.000
179.29	-1325.000
179.67	-216.667
180.04	-1150.000
180.42	2300.000
180.80	1200.000
181.18	-950.000
181.56	728.571
181.94	0.000
182.31	-714.286
182.69	1333.333
183.07	-600.000
183.45	-422.222
183.83	490.909
184.20	-350.000
184.58	2400.000
184.96	6400.000
185.34	-800.000
185.72	-562.500
186.09	-2750.000
186.47	2450.000
186.85	2400.000
187.23	4800.000
187.61	-1533.333
187.98	1275.000
188.36	609.091
188.74	409.091
189.12	-920.000
189.49	480.000
189.87	-4300.000
190.25	-1325.000
190.63	385.714
191.00	369.231
191.38	1000.000
191.76	-1375.000
192.14	1675.000
192.51	625.000
192.89	1033.333
193.27	550.000
193.65	-1275.000
194.02	500.000
194.40	920.000
194.78	520.000
195.15	408.333
195.53	550.000
195.91	-1900.000
196.29	306.250
196.66	263.158
197.04	-370.000
197.42	0.000
197.79	650.000
198.17	-4100.000
198.55	685.714
198.92	550.000
199.30	760.000
199.68	0.000
200.05	327.778
200.43	685.714
200.81	3900.000
201.18	1333.333
201.56	-1500.000
201.94	566.667
202.31	533.333
202.69	358.333
203.07	500.000
203.44	0.000
203.82	1125.000
204.19	771.429
204.57	400.000
204.95	662.500
205.32	1700.000
205.70	554.545
206.08	357.143
206.45	2200.000
206.83	362.500
207.20	750.000
207.58	640.000
207.96	344.444
208.33	650.000
208.71	-800.000
209.08	857.143
209.46	555.556
209.84	436.364
210.21	-1300.000
210.59	1325.000
210.96	-450.000
211.34	2050.000
211.71	530.000
212.09	750.000
212.46	0.000
212.84	1300.000
213.22	1400.000
213.59	-4000.000
213.97	800.000
214.34	785.714
214.72	509.091
215.09	980.000
215.47	-2000.000
215.84	-2550.000
216.22	1733.333
216.59	335.714
216.97	1250.000
217.34	490.909
217.72	-683.333
218.09	0.000
218.47	-4800.000
218.84	577.778
219.22	814.286
219.59	1766.667
219.97	-542.857
220.34	880.000
220.72	-1733.333
221.09	378.571
221.47	1650.000
221.84	-816.667
222.22	0.000
222.59	1250.000
222.97	-2700.000
223.34	1020.000
223.72	346.154
224.09	1000.000
224.46	2150.000
224.84	-3200.000
225.21	-820.000
225.59	-5100.000
225.96	590.000
226.34	280.000
226.71	2300.000
227.08	662.500
227.46	580.000
227.83	-850.000
228.21	-2200.000
228.58	488.889
228.95	-1900.000
229.33	-2200.000
229.70	1600.000
230.08	642.857
230.45	-840.000
230.82	391.667
231.20	766.667
231.57	642.857
231.95	391.667
232.32	213.636
232.69	445.455
233.07	600.000
233.44	346.154
233.81	-1733.333
234.19	273.684
234.56	475.000
234.93	316.667
235.31	400.000
235.68	330.769
236.05	314.286
236.43	175.758
236.80	300.000
237.17	4100.000
237.55	185.714
237.92	192.857
238.29	242.857
238.67	122.581
239.04	186.207
239.41	144.444
239.79	97.826
240.16	123.810
240.53	111.364
240.91	101.961
241.28	94.000
241.65	108.000
242.02	73.913
242.40	88.710
242.77	75.000
243.14	72.043
243.51	68.539
243.89	65.882
244.26	55.556
244.63	62.366
245.00	65.957
245.38	57.426
245.75	51.402
246.12	55.046
246.49	56.934
246.87	68.000
247.24	54.615
247.61	47.857
247.98	48.366
248.36	45.946
248.73	39.490
249.10	48.408
249.47	46.893
249.84	44.920
250.22	36.364
250.59	46.154
250.96	45.960
251.33	39.810
251.70	39.109
252.08	34.762
252.45	39.462
252.82	38.696
253.19	37.447
253.56	39.216
253.94	36.515
254.31	33.984
254.68	34.231
255.05	33.579
255.42	35.366
255.79	30.147
256.16	33.213
256.54	29.682
256.91	34.875
257.28	30.576
257.65	28.713
258.02	31.988
258.39	30.915
258.76	29.097
259.14	32.738
259.51	29.179
259.88	30.745
260.25	28.097
260.62	27.746
260.99	27.019
261.36	29.129
261.73	26.648
262.10	24.419
262.47	29.577
262.85	25.070
263.22	27.066
263.59	29.630
263.96	27.198
264.33	30.026
264.70	31.842
265.07	29.412
265.44	26.768
265.81	25.791
266.18	28.392
266.55	25.854
266.92	26.781
267.29	28.704
267.66	27.752
268.03	25.909
268.40	25.234
268.77	26.730
269.14	26.351
269.51	26.862
269.88	27.972
270.25	24.379
270.62	24.719
270.99	28.387
271.36	26.180
271.73	24.299
272.10	23.478
272.47	26.452
272.84	25.758
273.21	25.367
273.58	22.489
273.95	23.270
274.32	23.347
274.69	25.482
275.06	22.047
275.43	25.745
275.80	25.651
276.17	25.662
276.54	26.403
276.91	23.518
277.28	22.852
277.65	23.791
278.02	22.774
278.39	26.367
278.76	24.000
279.13	23.019
279.50	21.974
279.87	24.104
280.23	24.351
280.60	23.404
280.97	20.333
281.34	23.540
281.71	22.182
282.08	25.720
282.45	21.091
282.82	23.268
283.19	19.430
283.56	22.456
283.92	23.519
284.29	21.869
284.66	20.871
285.03	20.253
285.40	19.190
285.77	22.896
286.14	20.898
286.51	21.333
286.87	24.786
287.24	23.616
287.61	21.830
287.98	22.727
288.35	20.919
288.72	21.184
289.08	21.753
289.45	21.252
289.82	20.813
290.19	20.408
290.56	20.521
290.93	18.731
291.29	19.939
291.66	19.322
292.03	21.512
292.40	20.117
292.77	20.266
293.13	19.254
293.50	21.720
293.87	18.222
294.24	18.370
294.60	18.049
294.97	18.169
295.34	19.464
295.71	18.608
296.08	18.091
296.44	18.707
296.81	17.569
297.18	17.209
297.55	17.414
297.91	17.150
298.28	16.734
298.65	19.060
299.02	18.577
299.38	17.663
299.75	16.038
300.12	17.880
300.48	17.250
300.85	17.386
301.22	17.070
301.59	16.414
301.95	16.373
302.32	17.073
302.69	16.368
303.05	16.364
303.42	16.296
303.79	17.101
304.15	15.035
304.52	16.454
304.89	13.937
305.25	15.197
305.62	14.723
305.99	17.237
306.35	14.430
306.72	15.247
307.09	16.537
307.45	17.793
307.82	13.951
308.19	16.115
308.55	16.181
308.92	15.467
309.29	13.939
309.65	14.316
310.02	15.751
310.38	14.731
310.75	15.945
311.12	15.353
311.48	14.838
311.85	14.465
312.22	15.817
312.58	14.241
312.95	16.262
313.31	14.660
313.68	16.424
314.05	18.245
314.41	15.276
314.78	15.005
315.14	14.598
315.51	15.448
315.87	14.950
316.24	14.697
316.61	14.522
316.97	15.558
317.34	14.775
317.70	15.392
318.07	14.052
318.43	14.384
318.80	16.026
319.16	15.066
319.53	14.447
319.89	15.143
320.26	15.200
320.62	15.377
320.99	14.949
321.35	13.838
321.72	14.579
322.08	15.400
322.45	16.418
322.81	15.988
323.18	14.740
323.54	15.399
323.91	13.679
324.27	14.245
324.64	13.793
325.00	14.337
325.37	16.106
325.73	15.260
326.10	14.828
326.46	13.530
326.83	15.876
327.19	14.688
327.56	14.373
327.92	15.048
328.29	14.818
328.65	14.549
329.01	14.440
329.38	12.951
329.74	14.220
330.11	16.023
330.47	14.141
330.84	14.798
331.20	13.479
331.56	14.587
331.93	13.889
332.29	15.262
332.66	14.867
333.02	14.808
333.38	14.544
333.75	15.152
334.11	15.036
334.48	15.705
334.84	14.430
335.20	14.455
335.57	14.597
335.93	13.125
336.29	13.278
336.66	14.788
337.02	13.756
337.38	15.648
337.75	13.815
338.11	14.414
338.47	13.628
338.84	15.032
339.20	14.220
339.56	14.599
339.93	14.182
340.29	13.768
340.65	13.815
341.02	15.009
341.38	13.612
341.74	13.596
342.11	13.886
342.47	13.392
342.83	15.154
343.20	15.325
343.56	13.395
343.92	14.298
344.28	14.116
344.65	13.672
345.01	13.384
345.37	12.693
345.73	13.198
346.10	13.640
346.46	12.966
346.82	13.344
347.19	12.531
347.55	13.300
347.91	13.754
348.27	13.722
348.63	14.047
349.00	12.379
349.36	13.218
349.72	13.312
350.08	13.128
350.45	13.019
350.81	13.404
351.17	12.885
351.53	13.759
351.89	13.284
352.26	14.049
352.62	13.873
352.98	12.642
353.34	13.887
353.70	11.784
354.07	12.823
354.43	12.937
354.79	12.309
355.15	13.408
355.51	13.349
355.87	12.653
356.24	13.844
356.60	13.873
356.96	13.274
357.32	13.328
357.68	12.441
358.04	13.143
358.40	13.302
358.77	12.754
359.13	12.391
359.49	13.569
359.85	12.540
360.21	12.520
360.57	12.996
360.93	12.154
361.29	12.698
361.66	12.152
362.02	12.537
362.38	12.548
362.74	12.946
363.10	11.399
363.46	13.206
363.82	11.338
364.18	12.628
364.54	13.596
364.90	13.031
365.26	11.471
365.62	12.564
365.98	12.199
366.35	11.891
366.71	11.786
367.07	12.819
367.43	12.917
367.79	12.991
368.15	13.578
368.51	11.846
368.87	11.563
369.23	12.436
369.59	12.962
369.95	10.588
370.31	11.895
370.67	12.391
371.03	12.659
371.39	13.630
371.75	11.912
372.11	12.233
372.47	12.537
372.83	12.608
373.19	12.789
373.55	11.899
373.91	12.813
374.27	12.371
374.63	12.145
374.99	12.994
375.35	10.816
375.71	12.406
376.07	13.169
376.42	12.036
376.78	12.525
377.14	12.415
377.50	11.987
377.86	12.500
378.22	12.263
378.58	11.341
378.94	10.937
379.30	11.578
379.66	11.802
380.02	12.101
380.38	11.658
380.74	11.645
381.09	12.531
381.45	12.293
381.81	12.285
382.17	12.548
382.53	12.013
382.89	12.840
383.25	11.194
383.61	12.268
383.97	11.945
384.32	11.790
384.68	12.515
385.04	11.371
385.40	11.827
385.76	11.794
386.12	11.528
386.48	12.649
386.83	11.802
387.19	12.740
387.55	11.812
387.91	12.213
388.27	12.078
388.62	11.678
388.98	11.671
389.34	12.265
389.70	12.385
390.06	13.435
390.42	12.322
390.77	12.659
391.13	12.508
391.49	12.690
391.85	11.712
392.20	11.672
392.56	12.563
392.92	11.242
393.28	11.006
393.64	12.290
393.99	12.401
394.35	11.725
394.71	12.045
395.07	12.274
395.42	11.928
395.78	13.041
396.14	12.663
396.50	12.155
396.85	12.206
397.21	11.591
397.57	12.399
397.92	11.959
398.28	10.650
398.64	12.485
399.00	12.255
399.35	11.844
399.71	11.690
400.07	12.596
400.42	12.577
400.78	11.761
401.14	12.012
401.49	12.597
401.85	11.555
402.21	11.198
402.57	11.598
402.92	12.295
403.28	12.180
403.63	11.819
403.99	11.656
404.35	12.545
404.70	11.930
405.06	11.415
405.42	11.728
405.77	11.143
406.13	12.133
406.49	11.946
406.84	11.931
407.20	11.584
407.55	11.551
407.91	12.400
408.27	12.125
408.62	11.860
408.98	11.826
409.34	12.854
409.69	12.645
410.05	11.400
410.40	11.682
410.76	11.589
411.11	12.485
411.47	11.885
411.83	12.523
412.18	11.688
412.54	12.516
412.89	12.711
413.25	12.220
413.60	12.044
413.96	12.325
414.31	11.847
414.67	12.738
415.03	12.053
415.38	12.371
415.74	12.154
416.09	11.822
416.45	11.580
416.80	11.699
417.16	12.802
417.51	12.807
417.87	12.588
418.22	12.871
418.58	12.847
418.93	12.285
419.29	13.049
419.64	12.657
420.00	11.890
420.35	12.290
420.71	13.210
421.06	11.874
421.42	11.930
421.77	12.556
422.12	12.128
422.48	12.142
422.83	11.881
423.19	11.878
423.54	11.027
423.90	12.174
424.25	12.954
424.61	12.083
424.96	11.778
425.31	12.458
425.67	11.742
426.02	12.514
426.38	13.065
426.73	11.937
427.09	12.036
427.44	11.501
427.79	12.363
428.15	12.500
428.50	11.878
428.85	12.992
429.21	12.203
429.56	11.975
429.92	11.928
430.27	11.569
430.62	11.316
430.98	11.728
431.33	12.062
431.68	11.832
432.04	12.194
432.39	11.136
432.74	12.567
433.10	12.337
433.45	12.128
433.80	11.863
434.16	12.607
434.51	11.895
434.86	12.771
435.22	11.673
435.57	12.219
435.92	12.639
436.28	12.811
436.63	12.583
436.98	11.963
437.34	11.747
437.69	12.602
438.04	12.872
438.39	12.597
438.75	12.841
439.10	12.235
439.45	12.397
439.81	11.722
440.16	12.479
440.51	12.771
440.86	12.913
441.22	12.291
441.57	12.420
441.92	12.231
442.27	12.271
442.63	12.006
442.98	13.239
443.33	11.739
443.68	12.597
444.03	12.299
444.39	11.392
444.74	11.851
445.09	12.399
445.44	12.083
445.79	12.073
446.15	13.287
446.50	12.547
446.85	11.871
447.20	12.647
447.55	11.725
447.91	11.528
448.26	12.465
448.61	12.606
448.96	12.292
449.31	12.823
449.66	12.606
450.02	12.033
450.37	12.018
450.72	12.239
451.07	12.675
451.42	12.766
451.77	13.271
452.12	12.644
452.47	12.438
452.83	12.354
453.18	12.164
453.53	12.801
453.88	13.349
454.23	13.030
454.58	13.810
454.93	13.414
455.28	12.406
455.63	13.410
455.98	13.869
456.34	12.626
456.69	12.837
457.04	12.384
457.39	13.092
457.74	12.826
458.09	13.629
458.44	12.144
458.79	12.636
459.14	13.318
459.49	12.551
459.84	12.299
460.19	11.844
460.54	12.384
460.89	12.617
461.24	12.933
461.59	14.236
461.94	12.762
462.29	13.116
462.64	12.253
462.99	11.906
463.34	14.333
463.69	12.883
464.04	13.449
464.39	13.333
464.74	12.537
465.09	12.545
465.44	12.188
465.79	12.919
466.14	12.425
466.49	12.570
466.84	12.551
467.19	13.156
467.54	13.750
467.89	13.745
468.24	13.554
468.59	13.736
468.94	12.706
469.29	12.725
469.64	14.056
469.99	13.396
470.34	12.880
470.68	13.147
471.03	14.014
471.38	13.482
471.73	13.724
472.08	13.816
472.43	13.003
472.78	13.298
473.13	13.671
473.48	13.483
473.83	14.146
474.17	12.383
474.52	13.089
474.87	12.901
475.22	13.755
475.57	13.219
475.92	12.852
476.27	13.247
476.61	13.238
476.96	12.259
477.31	12.716
477.66	13.621
478.01	12.128
478.36	13.221
478.70	12.565
479.05	12.993
479.40	13.664
479.75	12.506
480.10	12.724
480.45	12.232
480.79	12.327
481.14	12.622
481.49	12.720
481.84	12.209
482.19	12.449
482.53	12.477
482.88	12.843
483.23	12.477
483.58	12.784
483.92	12.559
484.27	11.808
484.62	12.414
484.97	11.431
485.31	12.397
485.66	10.497
486.01	9.985
486.36	9.716
486.70	9.773
487.05	10.352
487.40	10.802
487.75	11.090
488.09	11.920
488.44	11.975
488.79	12.767
489.13	12.796
489.48	12.806
489.83	11.739
490.17	12.801
490.52	12.267
490.87	12.347
491.22	12.688
491.56	12.164
491.91	12.192
492.26	11.989
492.60	12.535
492.95	11.833
493.30	12.991
493.64	12.599
493.99	12.396
494.34	12.905
494.68	12.592
495.03	13.017
495.37	12.517
495.72	12.768
496.07	12.575
496.41	11.814
496.76	12.049
497.11	12.562
497.45	12.436
497.80	12.908
498.14	11.981
498.49	13.122
498.84	12.800
499.18	12.286
499.53	12.678
499.87	12.721
500.22	12.906
500.56	13.204
500.91	12.596
501.26	12.565
501.60	13.336
501.95	12.466
502.29	13.355
502.64	12.803
502.98	12.529
503.33	12.706
503.67	12.622
504.02	12.956
504.36	12.307
504.71	12.946
505.06	13.398
505.40	13.126
505.75	12.874
506.09	12.731
506.44	12.876
506.78	12.567
507.13	12.973
507.47	13.333
507.82	13.222
508.16	12.513
508.51	13.445
508.85	13.406
509.19	12.500
509.54	12.908
509.88	12.571
510.23	12.853
510.57	13.932
510.92	13.413
511.26	14.029
511.61	13.745
511.95	12.578
512.30	13.309
512.64	13.649
512.98	12.755
513.33	14.026
513.67	12.807
514.02	13.420
514.36	13.654
514.70	12.950
515.05	13.385
515.39	13.517
515.74	13.514
516.08	13.527
516.42	13.818
516.77	14.827
517.11	13.097
517.46	14.278
517.80	14.866
518.14	13.202
518.49	13.711
518.83	13.636
519.17	13.857
519.52	15.110
519.86	14.375
520.20	14.393
520.55	15.081
520.89	13.929
521.23	14.897
521.58	13.986
521.92	14.085
522.26	13.789
522.61	13.520
522.95	14.180
523.29	14.486
523.64	14.390
523.98	14.418
524.32	14.837
524.66	14.251
525.01	15.012
525.35	13.197
525.69	14.224
526.04	13.956
526.38	14.399
526.72	14.049
527.06	14.501
527.41	13.923
527.75	14.598
528.09	14.387
528.43	14.978
528.78	15.181
529.12	14.061
529.46	14.268
529.80	14.975
530.15	14.081
530.49	14.031
530.83	15.000
531.17	15.274
531.51	15.499
531.86	15.032
532.20	14.928
532.54	15.054
532.88	14.955
533.22	14.991
533.57	14.012
533.91	14.389
534.25	14.885
534.59	14.765
534.93	14.575
535.27	14.001
535.62	14.164
535.96	15.380
536.30	14.240
536.64	15.068
536.98	13.935
537.32	14.022
537.66	15.467
538.01	15.273
538.35	14.932
538.69	15.826
539.03	14.230
539.37	13.419
539.71	12.897
540.05	14.641
540.39	14.419
540.73	14.489
541.07	14.471
541.42	14.220
541.76	15.097
542.10	15.136
542.44	14.238
542.78	14.822
543.12	13.564
543.46	15.738
543.80	14.444
544.14	13.479
544.48	14.603
544.82	14.176
545.16	13.988
545.50	14.010
545.84	14.516
546.18	14.882
546.52	15.692
546.86	14.708
547.20	15.644
547.54	14.830
547.88	15.561
548.22	13.948
548.56	14.088
548.90	14.020
549.24	14.613
549.58	15.484
549.92	14.698
550.26	15.412
550.60	14.869
550.94	15.070
551.28	14.704
551.62	14.306
551.96	14.035
552.30	15.358
552.64	14.875
552.98	14.915
553.32	15.307
553.66	14.860
554.00	15.443
554.34	14.631
554.68	15.522
555.02	15.656
555.36	14.892
555.69	14.885
556.03	15.007
556.37	14.734
556.71	15.280
557.05	14.356
557.39	14.416
557.73	15.314
558.07	16.099
558.41	14.761
558.75	15.062
559.08	15.063
559.42	15.344
559.76	15.294
560.10	14.847
560.44	15.094
560.78	14.172
561.12	15.303
561.45	14.407
561.79	15.030
562.13	15.426
562.47	15.027
562.81	14.854
563.15	14.783
563.48	15.053
563.82	15.134
564.16	14.192
564.50	14.518
564.84	14.159
565.17	13.449
565.51	13.802
565.85	14.721
566.19	13.838
566.52	15.073
566.86	12.899
567.20	14.623
567.54	13.984
567.88	13.525
568.21	13.915
568.55	13.397
568.89	13.619
569.23	12.745
569.56	12.551
569.90	12.340
570.24	11.877
570.57	11.901
570.91	11.506
571.25	11.396
571.59	11.487
571.92	11.751
572.26	11.410
572.60	12.222
572.93	11.694
573.27	12.304
573.61	12.032
573.95	11.886
574.28	11.432
574.62	11.613
574.96	11.207
575.29	11.372
575.63	11.636
575.97	11.794
576.30	11.843
576.64	11.600
576.98	11.716
577.31	11.368
577.65	10.923
577.98	10.957
578.32	10.882
578.66	11.132
578.99	11.253
579.33	11.184
579.67	10.995
580.00	11.220
580.34	11.391
580.67	11.699
581.01	11.986
581.35	10.882
581.68	10.973
582.02	10.652
582.35	10.904
582.69	10.858
583.02	10.965
583.36	11.552
583.70	11.713
584.03	12.095
584.37	12.385
584.70	12.121
585.04	11.937
585.37	11.929
585.71	11.725
586.04	11.380
586.38	11.782
586.72	12.124
587.05	11.926
587.39	11.161
587.72	11.827
588.06	11.499
588.39	12.016
588.73	12.262
589.06	12.434
589.40	12.391
589.73	13.059
590.07	12.989
590.40	12.824
590.73	13.076
591.07	13.472
591.40	12.990
591.74	13.593
592.07	14.005
592.41	13.270
592.74	12.584
593.08	12.258
593.41	12.053
593.75	11.868
594.08	12.571
594.41	12.372
594.75	12.126
595.08	12.706
595.42	12.329
595.75	12.536
596.09	13.293
596.42	13.242
596.75	13.592
597.09	13.723
597.42	13.280
597.75	12.850
598.09	13.261
598.42	13.273
598.76	12.566
599.09	12.315
599.42	12.191
599.76	12.335
600.09	12.277
600.42	12.710
600.76	12.250
601.09	12.350
601.42	12.481
601.76	12.106
602.09	12.806
602.42	12.978
602.76	12.858
603.09	13.061
603.42	13.081
603.76	12.538
604.09	12.214
604.42	12.760
604.76	13.328
605.09	13.543
605.42	13.339
605.75	12.873
606.09	12.363
606.42	12.301
606.75	13.148
607.09	13.604
607.42	13.094
607.75	12.869
608.08	12.462
608.42	13.492
608.75	13.075
609.08	13.090
609.41	13.470
609.75	13.435
610.08	13.525
610.41	13.361
610.74	13.482
611.07	12.994
611.41	13.199
611.74	14.329
612.07	13.561
612.40	14.428
612.73	13.263
613.07	14.817
613.40	13.481
613.73	13.372
614.06	13.495
614.39	14.106
614.72	13.947
615.06	13.445
615.39	13.057
615.72	13.906
616.05	12.812
616.38	14.119
616.71	13.955
617.05	14.252
617.38	14.853
617.71	14.474
618.04	13.822
618.37	14.902
618.70	14.561
619.03	14.013
619.36	15.207
619.69	14.507
620.03	15.041
620.36	14.840
620.69	15.205
621.02	15.560
621.35	15.897
621.68	15.109
622.01	14.861
622.34	14.977
622.67	15.133
623.00	14.747
623.33	14.010
623.66	15.583
623.99	14.654
624.32	14.979
624.65	15.184
624.99	14.164
625.32	14.699
625.65	15.026
625.98	15.296
626.31	16.019
626.64	16.327
626.97	16.126
627.30	14.630
627.63	17.309
627.96	15.812
628.29	17.235
628.62	17.566
628.95	17.925
629.28	16.150
629.61	17.232
629.94	17.333
630.26	16.873
630.59	16.206
630.92	17.720
