SpectraSuite Data File
++++++++++++++++++++++++++++++++++++
Date: Wed May 13 16:20:17 PDT 2015
User: schluterlab
Dark Spectrum Present: Yes
Reference Spectrum Present: Yes
Number of Sampled Component Spectra: 1
Spectrometers: USB2E3373
Integration Time (usec): 3000 (USB2E3373)
Spectra Averaged: 3 (USB2E3373)
Boxcar Smoothing: 0 (USB2E3373)
Correct for Electrical Dark: No (USB2E3373)
Strobe/Lamp Enabled: No (USB2E3373)
Correct for Detector Non-linearity: No (USB2E3373)
Correct for Stray Light: No (USB2E3373)
Number of Pixels in Processed Spectrum: 2048
>>>>>Begin Processed Spectral Data<<<<<
178.53	0.000
178.91	-1100.000
179.29	-1275.000
179.67	-222.222
180.04	-1375.000
180.42	2550.000
180.80	900.000
181.18	-975.000
181.56	628.571
181.94	0.000
182.31	-600.000
182.69	1633.333
183.07	-462.500
183.45	-444.444
183.83	463.636
184.20	-300.000
184.58	1850.000
184.96	4300.000
185.34	-880.000
185.72	-562.500
186.09	-2350.000
186.47	2600.000
186.85	2050.000
187.23	4400.000
187.61	-1466.667
187.98	1100.000
188.36	490.909
188.74	554.545
189.12	-600.000
189.49	490.000
189.87	-4300.000
190.25	-1275.000
190.63	342.857
191.00	476.923
191.38	783.333
191.76	-925.000
192.14	1200.000
192.51	600.000
192.89	666.667
193.27	500.000
193.65	-850.000
194.02	490.000
194.40	880.000
194.78	570.000
195.15	400.000
195.53	540.000
195.91	-2050.000
196.29	368.750
196.66	284.211
197.04	-280.000
197.42	0.000
197.79	580.000
198.17	-4400.000
198.55	600.000
198.92	700.000
199.30	740.000
199.68	0.000
200.05	288.889
200.43	728.571
200.81	3900.000
201.18	1600.000
201.56	-1366.667
201.94	422.222
202.31	577.778
202.69	425.000
203.07	520.000
203.44	0.000
203.82	1150.000
204.19	714.286
204.57	400.000
204.95	562.500
205.32	1266.667
205.70	409.091
206.08	314.286
206.45	2500.000
206.83	275.000
207.20	666.667
207.58	700.000
207.96	261.111
208.33	712.500
208.71	-750.000
209.08	728.571
209.46	611.111
209.84	390.909
210.21	-1300.000
210.59	1225.000
210.96	-412.500
211.34	2100.000
211.71	440.000
212.09	733.333
212.46	0.000
212.84	1566.667
213.22	1075.000
213.59	-3800.000
213.97	633.333
214.34	842.857
214.72	536.364
215.09	800.000
215.47	-1800.000
215.84	-1950.000
216.22	1433.333
216.59	264.286
216.97	1275.000
217.34	481.818
217.72	-716.667
218.09	0.000
218.47	-4600.000
218.84	555.556
219.22	857.143
219.59	1700.000
219.97	-514.286
220.34	760.000
220.72	-1800.000
221.09	385.714
221.47	1500.000
221.84	-866.667
222.22	0.000
222.59	1350.000
222.97	-2350.000
223.34	1060.000
223.72	300.000
224.09	960.000
224.46	1900.000
224.84	-4000.000
225.21	-940.000
225.59	-4500.000
225.96	570.000
226.34	275.000
226.71	2950.000
227.08	500.000
227.46	440.000
227.83	-1000.000
228.21	-1850.000
228.58	422.222
228.95	-1900.000
229.33	-2300.000
229.70	1533.333
230.08	528.571
230.45	-740.000
230.82	441.667
231.20	750.000
231.57	542.857
231.95	458.333
232.32	168.182
232.69	272.727
233.07	685.714
233.44	261.538
233.81	-1400.000
234.19	263.158
234.56	458.333
234.93	233.333
235.31	409.091
235.68	246.154
236.05	300.000
236.43	163.636
236.80	231.579
237.17	2500.000
237.55	209.524
237.92	142.857
238.29	190.476
238.67	151.613
239.04	175.862
239.41	155.556
239.79	106.522
240.16	123.810
240.53	81.818
240.91	90.196
241.28	98.000
241.65	62.000
242.02	79.710
242.40	64.516
242.77	68.333
243.14	58.065
243.51	69.663
243.89	65.882
244.26	55.556
244.63	55.914
245.00	58.511
245.38	42.574
245.75	42.056
246.12	45.872
246.49	54.015
246.87	52.000
247.24	50.000
247.61	40.000
247.98	42.484
248.36	39.865
248.73	33.121
249.10	38.217
249.47	40.678
249.84	36.898
250.22	39.037
250.59	31.361
250.96	38.889
251.33	42.654
251.70	36.634
252.08	32.857
252.45	32.735
252.82	31.739
253.19	30.638
253.56	28.627
253.94	29.046
254.31	32.812
254.68	29.231
255.05	28.782
255.42	26.016
255.79	30.515
256.16	26.715
256.54	27.915
256.91	26.690
257.28	24.820
257.65	27.063
258.02	27.950
258.39	26.183
258.76	26.421
259.14	24.405
259.51	24.924
259.88	19.876
260.25	25.076
260.62	25.723
260.99	22.671
261.36	24.925
261.73	24.928
262.10	22.674
262.47	26.479
262.85	25.627
263.22	19.943
263.59	22.792
263.96	23.077
264.33	24.021
264.70	21.053
265.07	21.995
265.44	24.495
265.81	22.141
266.18	25.126
266.55	19.512
266.92	24.570
267.29	22.454
267.66	21.101
268.03	22.500
268.40	24.299
268.77	18.377
269.14	20.270
269.51	21.896
269.88	24.009
270.25	20.993
270.62	21.798
270.99	20.430
271.36	19.528
271.73	19.393
272.10	21.739
272.47	22.366
272.84	20.779
273.21	21.384
273.58	17.249
273.95	21.174
274.32	19.628
274.69	21.842
275.06	18.898
275.43	20.213
275.80	19.439
276.17	19.756
276.54	21.830
276.91	20.553
277.28	18.945
277.65	18.762
278.02	18.841
278.39	19.336
278.76	19.455
279.13	20.000
279.50	19.181
279.87	20.319
280.23	20.758
280.60	18.956
280.97	17.190
281.34	20.885
281.71	20.364
282.08	21.113
282.45	17.455
282.82	18.650
283.19	16.578
283.56	18.596
283.92	21.320
284.29	18.695
284.66	18.330
285.03	19.892
285.40	18.838
285.77	17.508
286.14	16.580
286.51	20.000
286.87	18.120
287.24	19.218
287.61	18.459
287.98	19.481
288.35	16.482
288.72	19.003
289.08	17.840
289.45	18.287
289.82	16.911
290.19	16.797
290.56	16.998
290.93	14.955
291.29	17.791
291.66	16.667
292.03	17.733
292.40	19.090
292.77	17.308
293.13	17.164
293.50	15.452
293.87	16.741
294.24	15.259
294.60	15.575
294.97	15.698
295.34	17.207
295.71	14.915
296.08	14.387
296.44	16.369
296.81	14.267
297.18	15.989
297.55	12.665
297.91	15.567
298.28	17.001
298.65	15.274
299.02	15.415
299.38	15.936
299.75	12.938
300.12	14.815
300.48	14.250
300.85	15.660
301.22	14.268
301.59	14.646
301.95	15.743
302.32	15.148
302.69	13.501
303.05	14.182
303.42	15.926
303.79	14.723
304.15	13.403
304.52	14.948
304.89	13.240
305.25	13.573
305.62	14.609
305.99	16.529
306.35	14.094
306.72	15.359
307.09	16.537
307.45	15.428
307.82	13.616
308.19	14.018
308.55	15.965
308.92	15.252
309.29	14.678
309.65	14.846
310.02	15.222
310.38	14.731
310.75	14.784
311.12	15.455
311.48	15.674
311.85	15.723
312.22	15.401
312.58	15.073
312.95	16.579
313.31	16.117
313.68	15.177
314.05	17.751
314.41	16.281
314.78	15.710
315.14	16.187
315.51	15.139
315.87	16.337
316.24	16.187
316.61	17.057
316.97	15.362
317.34	16.341
317.70	16.635
318.07	16.651
318.43	17.319
318.80	17.901
319.16	17.985
319.53	16.979
319.89	17.714
320.26	19.300
320.62	18.353
320.99	18.283
321.35	18.485
321.72	18.789
322.08	19.447
322.45	20.398
322.81	18.895
323.18	20.135
323.54	19.481
323.91	19.623
324.27	20.076
324.64	19.199
325.00	19.567
325.37	19.927
325.73	21.544
326.10	20.653
326.46	21.595
326.83	22.088
327.19	21.264
327.56	21.516
327.92	22.135
328.29	22.804
328.65	21.547
329.01	21.119
329.38	21.554
329.74	22.345
330.11	22.526
330.47	21.763
330.84	22.886
331.20	21.858
331.56	21.743
331.93	22.593
332.29	22.538
332.66	23.363
333.02	22.212
333.38	22.493
333.75	22.549
334.11	22.776
334.48	22.005
334.84	23.437
335.20	23.273
335.57	22.031
335.93	21.250
336.29	22.436
336.66	24.076
337.02	22.262
337.38	23.241
337.75	22.549
338.11	23.098
338.47	22.099
338.84	23.831
339.20	22.569
339.56	23.723
339.93	24.545
340.29	23.279
340.65	22.816
341.02	22.949
341.38	23.932
341.74	22.895
342.11	23.843
342.47	23.877
342.83	22.774
343.20	23.463
343.56	22.999
343.92	22.632
344.28	22.789
344.65	23.302
345.01	23.316
345.37	22.727
345.73	22.927
346.10	23.529
346.46	23.390
346.82	22.900
347.19	23.058
347.55	23.317
347.91	22.816
348.27	23.665
348.63	23.077
349.00	22.977
349.36	22.578
349.72	23.176
350.08	22.042
350.45	23.190
350.81	23.152
351.17	22.771
351.53	23.751
351.89	21.782
352.26	24.073
352.62	24.459
352.98	23.582
353.34	23.500
353.70	22.831
354.07	23.065
354.43	23.413
354.79	23.170
355.15	23.304
355.51	25.020
355.87	24.327
356.24	25.081
356.60	23.657
356.96	24.216
357.32	23.794
357.68	24.961
358.04	23.515
358.40	24.228
358.77	23.944
359.13	23.362
359.49	23.922
359.85	23.095
360.21	24.242
360.57	24.125
360.93	24.462
361.29	24.414
361.66	23.916
362.02	23.955
362.38	24.106
362.74	24.851
363.10	23.390
363.46	23.258
363.82	23.734
364.18	24.670
364.54	25.483
364.90	24.788
365.26	24.044
365.62	23.886
365.98	23.740
366.35	23.496
366.71	24.801
367.07	24.545
367.43	24.020
367.79	25.625
368.15	25.359
368.51	25.000
368.87	25.054
369.23	25.677
369.59	24.692
369.95	24.779
370.31	24.858
370.67	24.783
371.03	26.891
371.39	25.802
371.75	25.956
372.11	25.320
372.47	26.466
372.83	26.153
373.19	25.650
373.55	25.647
373.91	26.657
374.27	24.880
374.63	25.891
374.99	27.048
375.35	26.099
375.71	25.908
376.07	25.995
376.42	26.960
376.78	26.044
377.14	27.205
377.50	27.947
377.86	26.197
378.22	27.244
378.58	26.441
378.94	25.896
379.30	26.209
379.66	27.538
380.02	27.273
380.38	27.080
380.74	27.851
381.09	28.117
381.45	28.273
381.81	28.133
382.17	28.025
382.53	27.673
382.89	28.580
383.25	27.892
383.61	27.633
383.97	28.018
384.32	28.759
384.68	27.571
385.04	29.072
385.40	28.978
385.76	28.931
386.12	29.469
386.48	29.075
386.83	30.019
387.19	29.561
387.55	29.314
387.91	28.658
388.27	28.878
388.62	29.502
388.98	28.317
389.34	29.850
389.70	29.798
390.06	30.292
390.42	30.091
390.77	30.025
391.13	29.930
391.49	29.695
391.85	28.644
392.20	29.653
392.56	30.429
392.92	29.959
393.28	28.580
393.64	29.616
393.99	29.811
394.35	28.908
394.71	29.925
395.07	29.221
395.42	30.532
395.78	29.898
396.14	29.547
396.50	30.952
396.85	31.087
397.21	29.716
397.57	29.758
397.92	30.950
398.28	29.596
398.64	30.406
399.00	30.162
399.35	29.498
399.71	30.613
400.07	29.273
400.42	30.307
400.78	30.398
401.14	30.305
401.49	29.373
401.85	28.796
402.21	29.341
402.57	30.167
402.92	30.265
403.28	29.669
403.63	30.446
403.99	30.000
404.35	28.667
404.70	29.616
405.06	29.179
405.42	30.131
405.77	28.914
406.13	29.345
406.49	29.687
406.84	29.120
407.20	28.723
407.55	29.994
407.91	29.667
408.27	29.228
408.62	29.380
408.98	29.167
409.34	29.336
409.69	29.419
410.05	28.996
410.40	28.991
410.76	29.211
411.11	29.795
411.47	28.882
411.83	28.894
412.18	29.004
412.54	28.954
412.89	28.795
413.25	28.571
413.60	29.092
413.96	28.172
414.31	28.615
414.67	29.341
415.03	28.808
415.38	29.253
415.74	29.068
416.09	28.870
416.45	28.380
416.80	28.553
417.16	30.094
417.51	28.799
417.87	28.131
418.22	28.959
418.58	28.535
418.93	29.730
419.29	29.726
419.64	30.101
420.00	29.268
420.35	28.986
420.71	29.528
421.06	28.938
421.42	28.947
421.77	28.195
422.12	27.906
422.48	27.577
422.83	28.305
423.19	27.790
423.54	28.903
423.90	28.812
424.25	28.085
424.61	28.095
424.96	28.338
425.31	27.630
425.67	26.854
426.02	27.714
426.38	28.388
426.73	27.501
427.09	27.416
427.44	27.315
427.79	28.005
428.15	28.393
428.50	27.501
428.85	28.427
429.21	27.112
429.56	27.320
429.92	27.076
430.27	27.607
430.62	26.882
430.98	27.556
431.33	27.216
431.68	27.749
432.04	27.050
432.39	27.870
432.74	27.050
433.10	27.731
433.45	27.522
433.80	26.718
434.16	26.335
434.51	26.421
434.86	27.822
435.22	27.071
435.57	28.085
435.92	27.150
436.28	27.521
436.63	27.539
436.98	26.789
437.34	27.013
437.69	26.838
438.04	27.600
438.39	26.806
438.75	27.600
439.10	27.486
439.45	27.273
439.81	27.251
440.16	26.256
440.51	27.241
440.86	27.446
441.22	26.363
441.57	26.911
441.92	27.636
442.27	26.911
442.63	27.067
442.98	27.944
443.33	26.522
443.68	27.775
444.03	26.891
444.39	25.901
444.74	27.219
445.09	26.577
445.44	26.463
445.79	26.274
446.15	26.522
446.50	26.710
446.85	26.259
447.20	26.364
447.55	26.410
447.91	26.696
448.26	26.099
448.61	25.947
448.96	26.855
449.31	25.984
449.66	25.999
450.02	25.905
450.37	25.907
450.72	26.565
451.07	26.325
451.42	26.018
451.77	26.541
452.12	25.808
452.47	25.498
452.83	27.389
453.18	26.222
453.53	26.840
453.88	25.399
454.23	26.121
454.58	26.772
454.93	27.146
455.28	25.748
455.63	26.942
455.98	26.667
456.34	26.131
456.69	26.612
457.04	26.687
457.39	26.300
457.74	26.175
458.09	26.452
458.44	26.112
458.79	25.217
459.14	27.088
459.49	25.978
459.84	25.263
460.19	25.810
460.54	25.810
460.89	25.782
461.24	26.351
461.59	26.089
461.94	25.586
462.29	26.350
462.64	25.399
462.99	25.569
463.34	26.333
463.69	26.141
464.04	26.493
464.39	25.623
464.74	25.015
465.09	25.694
465.44	24.820
465.79	25.280
466.14	24.959
466.49	24.082
466.84	24.752
467.19	25.709
467.54	25.125
467.89	24.430
468.24	25.015
468.59	26.435
468.94	24.618
469.29	25.064
469.64	26.238
469.99	25.846
470.34	24.505
470.68	26.580
471.03	25.374
471.38	26.546
471.73	25.316
472.08	25.197
472.43	25.377
472.78	25.675
473.13	26.187
473.48	25.718
473.83	25.366
474.17	24.642
474.52	24.566
474.87	25.044
475.22	24.840
475.57	24.664
475.92	24.376
476.27	24.352
476.61	24.766
476.96	23.914
477.31	23.496
477.66	24.836
478.01	24.307
478.36	24.643
478.70	23.416
479.05	24.654
479.40	24.719
479.75	24.657
480.10	24.056
480.45	23.084
480.79	23.507
481.14	24.364
481.49	23.873
481.84	23.548
482.19	23.989
482.53	23.440
482.88	24.151
483.23	24.112
483.58	23.612
483.92	23.336
484.27	22.179
484.62	22.845
484.97	22.389
485.31	23.253
485.66	22.394
486.01	21.168
486.36	20.400
486.70	19.619
487.05	20.794
487.40	21.527
487.75	21.331
488.09	21.929
488.44	21.614
488.79	22.676
489.13	22.383
489.48	23.532
489.83	22.400
490.17	23.498
490.52	22.498
490.87	22.614
491.22	22.874
491.56	22.460
491.91	22.987
492.26	23.105
492.60	23.041
492.95	23.152
493.30	22.617
493.64	22.538
493.99	22.098
494.34	22.387
494.68	23.214
495.03	23.872
495.37	22.057
495.72	22.758
496.07	22.367
496.41	21.903
496.76	22.647
497.11	22.287
497.45	21.938
497.80	22.265
498.14	22.271
498.49	22.927
498.84	22.531
499.18	22.286
499.53	21.842
499.87	22.600
500.22	22.138
500.56	22.670
500.91	22.260
501.26	22.523
501.60	23.161
501.95	21.769
502.29	22.446
502.64	21.788
502.98	22.066
503.33	21.435
503.67	21.578
504.02	21.749
504.36	21.666
504.71	21.739
505.06	22.602
505.40	22.217
505.75	22.276
506.09	22.255
506.44	22.447
506.78	22.163
507.13	22.362
507.47	22.727
507.82	21.986
508.16	22.543
508.51	23.338
508.85	22.195
509.19	21.684
509.54	21.888
509.88	22.617
510.23	21.594
510.57	23.168
510.92	22.009
511.26	21.840
511.61	22.873
511.95	21.347
512.30	21.686
512.64	21.870
512.98	22.079
513.33	22.645
513.67	21.878
514.02	21.591
514.36	22.556
514.70	21.693
515.05	22.142
515.39	23.331
515.74	22.917
516.08	22.806
516.42	22.752
516.77	21.851
517.11	22.253
517.46	22.686
517.80	23.287
518.14	22.293
518.49	22.112
518.83	22.784
519.17	22.575
519.52	21.788
519.86	22.419
520.20	22.832
520.55	22.861
520.89	22.871
521.23	23.100
521.58	22.989
521.92	23.209
522.26	22.270
522.61	22.118
522.95	22.406
523.29	22.581
523.64	23.720
523.98	22.551
524.32	22.437
524.66	22.369
525.01	22.672
525.35	22.739
525.69	22.722
526.04	23.240
526.38	22.087
526.72	21.656
527.06	22.913
527.41	20.730
527.75	23.215
528.09	22.864
528.43	22.690
528.78	22.250
529.12	22.182
529.46	22.290
529.80	21.473
530.15	21.682
530.49	21.600
530.83	21.899
531.17	23.107
531.51	22.698
531.86	22.194
532.20	22.947
532.54	22.998
532.88	22.593
533.22	22.111
533.57	21.667
533.91	21.734
534.25	22.053
534.59	21.293
534.93	21.535
535.27	21.666
535.62	21.673
535.96	21.657
536.30	21.233
536.64	22.601
536.98	21.699
537.32	21.593
537.66	22.800
538.01	21.132
538.35	22.883
538.69	22.080
539.03	21.248
539.37	20.319
539.71	20.544
540.05	21.242
540.39	21.462
540.73	21.928
541.07	21.999
541.42	21.396
541.76	22.710
542.10	21.863
542.44	21.457
542.78	22.530
543.12	20.218
543.46	22.164
543.80	21.861
544.14	21.502
544.48	21.714
544.82	21.103
545.16	21.535
545.50	20.630
545.84	21.573
546.18	21.684
546.52	21.817
546.86	21.375
547.20	21.376
547.54	20.908
547.88	21.747
548.22	20.859
548.56	21.447
548.90	21.127
549.24	20.000
549.58	20.668
549.92	21.978
550.26	21.236
550.60	21.162
550.94	21.620
551.28	21.507
551.62	21.423
551.96	21.123
552.30	22.594
552.64	21.636
552.98	21.898
553.32	21.510
553.66	21.813
554.00	21.345
554.34	21.877
554.68	21.316
555.02	21.227
555.36	20.738
555.69	20.568
556.03	20.323
556.37	20.873
556.71	20.532
557.05	21.078
557.39	21.414
557.73	21.242
558.07	21.392
558.41	21.129
558.75	21.014
559.08	21.849
559.42	22.071
559.76	21.250
560.10	21.556
560.44	21.034
560.78	20.027
561.12	20.778
561.45	22.034
561.79	20.501
562.13	20.389
562.47	21.038
562.81	21.130
563.15	20.201
563.48	20.623
563.82	19.961
564.16	20.275
564.50	19.792
564.84	20.480
565.17	20.399
565.51	20.319
565.85	20.368
566.19	20.225
566.52	19.633
566.86	19.831
567.20	20.932
567.54	18.721
567.88	18.903
568.21	19.312
568.55	18.857
568.89	17.996
569.23	18.182
569.56	17.571
569.90	17.358
570.24	17.582
570.57	17.273
570.91	16.807
571.25	16.831
571.59	17.261
571.92	16.878
572.26	17.187
572.60	16.997
572.93	16.612
573.27	16.859
573.61	16.778
573.95	16.563
574.28	16.533
574.62	16.108
574.96	16.081
575.29	15.786
575.63	15.981
575.97	16.428
576.30	16.622
576.64	16.376
576.98	16.091
577.31	16.104
577.65	16.308
577.98	15.661
578.32	15.310
578.66	15.597
578.99	15.910
579.33	15.977
579.67	15.909
580.00	15.991
580.34	16.303
580.67	16.285
581.01	16.303
581.35	15.279
581.68	15.548
582.02	15.445
582.35	15.624
582.69	15.444
583.02	15.547
583.36	15.817
583.70	15.959
584.03	16.301
584.37	16.495
584.70	16.092
585.04	16.071
585.37	15.960
585.71	15.719
586.04	16.212
586.38	16.040
586.72	16.294
587.05	16.110
587.39	15.937
587.72	15.486
588.06	15.688
588.39	16.269
588.73	15.752
589.06	16.391
589.40	16.734
589.73	16.473
590.07	16.726
590.40	16.807
590.73	17.057
591.07	16.606
591.40	17.124
591.74	17.489
592.07	17.103
592.41	17.115
592.74	16.142
593.08	16.522
593.41	16.387
593.75	15.896
594.08	15.890
594.41	16.154
594.75	15.896
595.08	16.321
595.42	16.532
595.75	16.275
596.09	16.598
596.42	17.171
596.75	16.927
597.09	17.359
597.42	16.610
597.75	16.990
598.09	16.739
598.42	17.139
598.76	16.336
599.09	16.230
599.42	15.830
599.76	16.288
600.09	15.665
600.42	16.326
600.76	16.143
601.09	16.102
601.42	16.362
601.76	16.319
602.09	16.364
602.42	16.919
602.76	17.130
603.09	16.247
603.42	17.103
603.76	16.349
604.09	16.363
604.42	16.429
604.76	17.334
605.09	16.994
605.42	16.888
605.75	16.929
606.09	15.779
606.42	16.142
606.75	16.549
607.09	16.953
607.42	16.132
607.75	16.034
608.08	16.283
608.42	16.898
608.75	16.637
609.08	16.975
609.41	16.564
609.75	17.008
610.08	17.248
610.41	16.201
610.74	16.840
611.07	17.787
611.41	17.566
611.74	16.792
612.07	16.925
612.40	17.524
612.73	16.842
613.07	16.918
613.40	17.483
613.73	16.938
614.06	16.882
614.39	16.466
614.72	17.000
615.06	17.595
615.39	16.189
615.72	16.820
616.05	16.162
616.38	17.065
616.71	17.280
617.05	18.198
617.38	17.739
617.71	18.619
618.04	17.969
618.37	17.800
618.70	18.108
619.03	18.224
619.36	18.873
619.69	18.310
620.03	17.995
620.36	18.650
620.69	18.973
621.02	18.584
621.35	19.264
621.68	18.069
622.01	19.892
622.34	17.700
622.67	18.023
623.00	17.828
623.33	18.728
623.66	19.228
623.99	18.925
624.32	18.260
624.65	18.644
624.99	17.280
625.32	18.320
625.65	19.234
625.98	19.293
626.31	19.362
626.64	19.265
626.97	19.950
627.30	18.371
627.63	18.950
627.96	20.606
628.29	20.385
628.62	21.500
628.95	22.075
629.28	20.347
629.61	20.073
629.94	20.476
630.26	20.782
630.59	20.114
630.92	21.360
631.25	20.928
