SpectraSuite Data File
++++++++++++++++++++++++++++++++++++
Date: Wed May 13 16:36:59 PDT 2015
User: schluterlab
Dark Spectrum Present: Yes
Reference Spectrum Present: Yes
Number of Sampled Component Spectra: 1
Spectrometers: USB2E3373
Integration Time (usec): 3000 (USB2E3373)
Spectra Averaged: 3 (USB2E3373)
Boxcar Smoothing: 0 (USB2E3373)
Correct for Electrical Dark: No (USB2E3373)
Strobe/Lamp Enabled: No (USB2E3373)
Correct for Detector Non-linearity: No (USB2E3373)
Correct for Stray Light: No (USB2E3373)
Number of Pixels in Processed Spectrum: 2048
>>>>>Begin Processed Spectral Data<<<<<
178.53	0.000
178.91	-1350.000
179.29	-1350.000
179.67	-244.444
180.04	-1000.000
180.42	2500.000
180.80	1160.000
181.18	-1225.000
181.56	714.286
181.94	0.000
182.31	-657.143
182.69	1566.667
183.07	-612.500
183.45	-500.000
183.83	581.818
184.20	-380.000
184.58	1950.000
184.96	5400.000
185.34	-920.000
185.72	-600.000
186.09	-2150.000
186.47	2600.000
186.85	1950.000
187.23	5200.000
187.61	-1833.333
187.98	1275.000
188.36	536.364
188.74	536.364
189.12	-920.000
189.49	620.000
189.87	-4700.000
190.25	-950.000
190.63	421.429
191.00	376.923
191.38	733.333
191.76	-1025.000
192.14	1350.000
192.51	600.000
192.89	900.000
193.27	575.000
193.65	-1000.000
194.02	560.000
194.40	880.000
194.78	530.000
195.15	475.000
195.53	640.000
195.91	-1950.000
196.29	337.500
196.66	310.526
197.04	-360.000
197.42	0.000
197.79	620.000
198.17	-4600.000
198.55	614.286
198.92	700.000
199.30	840.000
199.68	0.000
200.05	350.000
200.43	685.714
200.81	4300.000
201.18	1633.333
201.56	-1533.333
201.94	577.778
202.31	555.556
202.69	383.333
203.07	510.000
203.44	0.000
203.82	1225.000
204.19	714.286
204.57	457.143
204.95	550.000
205.32	1466.667
205.70	463.636
206.08	421.429
206.45	2500.000
206.83	350.000
207.20	783.333
207.58	940.000
207.96	327.778
208.33	662.500
208.71	-933.333
209.08	714.286
209.46	533.333
209.84	481.818
210.21	-1533.333
210.59	1500.000
210.96	-512.500
211.34	2450.000
211.71	640.000
212.09	800.000
212.46	0.000
212.84	1500.000
213.22	1375.000
213.59	-4500.000
213.97	816.667
214.34	671.429
214.72	581.818
215.09	1040.000
215.47	-2450.000
215.84	-1750.000
216.22	1833.333
216.59	350.000
216.97	1175.000
217.34	518.182
217.72	-700.000
218.09	0.000
218.47	-4900.000
218.84	666.667
219.22	728.571
219.59	1700.000
219.97	-585.714
220.34	1020.000
220.72	-1433.333
221.09	428.571
221.47	1500.000
221.84	-883.333
222.22	0.000
222.59	1225.000
222.97	-2550.000
223.34	1080.000
223.72	453.846
224.09	1260.000
224.46	2400.000
224.84	-4800.000
225.21	-1120.000
225.59	-5100.000
225.96	690.000
226.34	315.000
226.71	2600.000
227.08	600.000
227.46	530.000
227.83	-1125.000
228.21	-2850.000
228.58	611.111
228.95	-2300.000
229.33	-2100.000
229.70	2000.000
230.08	742.857
230.45	-900.000
230.82	366.667
231.20	950.000
231.57	600.000
231.95	516.667
232.32	254.545
232.69	309.091
233.07	628.571
233.44	330.769
233.81	-1666.667
234.19	284.211
234.56	433.333
234.93	391.667
235.31	409.091
235.68	276.923
236.05	350.000
236.43	172.727
236.80	284.211
237.17	4700.000
237.55	276.190
237.92	232.143
238.29	271.429
238.67	164.516
239.04	217.241
239.41	152.778
239.79	130.435
240.16	171.429
240.53	145.455
240.91	111.765
241.28	144.000
241.65	102.000
242.02	107.246
242.40	95.161
242.77	118.333
243.14	76.344
243.51	83.146
243.89	84.706
244.26	81.111
244.63	76.344
245.00	67.021
245.38	70.297
245.75	67.290
246.12	71.560
246.49	68.613
246.87	69.600
247.24	73.077
247.61	62.857
247.98	60.784
248.36	59.459
248.73	60.510
249.10	62.420
249.47	52.542
249.84	52.941
250.22	50.802
250.59	59.172
250.96	54.545
251.33	53.555
251.70	55.941
252.08	54.286
252.45	48.430
252.82	47.391
253.19	46.809
253.56	49.804
253.94	53.527
254.31	49.219
254.68	42.692
255.05	48.708
255.42	46.341
255.79	45.956
256.16	48.014
256.54	44.523
256.91	41.993
257.28	42.446
257.65	50.165
258.02	42.857
258.39	43.533
258.76	45.485
259.14	44.345
259.51	43.161
259.88	43.168
260.25	42.296
260.62	41.329
260.99	41.615
261.36	45.045
261.73	41.834
262.10	42.733
262.47	44.507
262.85	40.947
263.22	39.886
263.59	43.020
263.96	42.857
264.33	38.381
264.70	43.158
265.07	38.875
265.44	39.899
265.81	34.307
266.18	41.206
266.55	39.268
266.92	39.066
267.29	38.657
267.66	36.009
268.03	40.227
268.40	39.019
268.77	39.618
269.14	37.387
269.51	36.343
269.88	41.725
270.25	36.343
270.62	39.101
270.99	36.559
271.36	38.197
271.73	36.449
272.10	36.957
272.47	40.645
272.84	36.797
273.21	37.317
273.58	35.371
273.95	35.849
274.32	35.331
274.69	36.403
275.06	34.252
275.43	36.383
275.80	37.675
276.17	37.271
276.54	37.422
276.91	36.561
277.28	33.203
277.65	34.623
278.02	36.232
278.39	37.500
278.76	35.273
279.13	37.736
279.50	35.568
279.87	36.255
280.23	37.725
280.60	34.236
280.97	33.087
281.34	36.991
281.71	35.091
282.08	36.852
282.45	33.091
282.82	34.458
283.19	32.086
283.56	34.386
283.92	34.518
284.29	32.451
284.66	33.575
285.03	32.550
285.40	32.570
285.77	33.165
286.14	33.161
286.51	34.833
286.87	33.675
287.24	33.876
287.61	31.300
287.98	31.169
288.35	30.745
288.72	31.153
289.08	30.829
289.45	31.137
289.82	32.358
290.19	30.769
290.56	29.709
290.93	30.060
291.29	32.055
291.66	29.499
292.03	31.395
292.40	30.543
292.77	29.290
293.13	30.597
293.50	29.592
293.87	29.185
294.24	28.296
294.60	27.656
294.97	29.215
295.34	28.773
295.71	28.551
296.08	28.632
296.44	27.923
296.81	27.213
297.18	28.726
297.55	24.934
297.91	26.649
298.28	27.979
298.65	26.893
299.02	28.327
299.38	26.959
299.75	25.472
300.12	26.564
300.48	26.375
300.85	26.141
301.22	26.497
301.59	25.253
301.95	25.567
302.32	25.032
302.69	25.806
303.05	25.818
303.42	24.444
303.79	24.122
304.15	24.126
304.52	23.291
304.89	25.087
305.25	24.130
305.62	25.595
305.99	23.849
306.35	23.937
306.72	23.991
307.09	24.750
307.45	26.014
307.82	23.214
308.19	23.731
308.55	24.272
308.92	23.845
309.29	22.281
309.65	22.694
310.02	24.101
310.38	23.548
310.75	24.498
311.12	24.565
311.48	23.302
311.85	23.585
312.22	23.517
312.58	24.012
312.95	24.393
313.31	21.553
313.68	24.948
314.05	25.838
314.41	23.819
314.78	22.457
315.14	23.436
315.51	22.863
315.87	23.762
316.24	23.337
316.61	22.612
316.97	22.211
317.34	22.505
317.70	23.518
318.07	23.099
318.43	23.483
318.80	23.336
319.16	23.258
319.53	21.764
319.89	24.190
320.26	24.700
320.62	23.115
320.99	22.929
321.35	24.040
321.72	24.127
322.08	22.014
322.45	24.677
322.81	23.837
323.18	23.892
323.54	23.840
323.91	23.396
324.27	23.040
324.64	22.833
325.00	22.994
325.37	22.930
325.73	23.070
326.10	21.801
326.46	22.133
326.83	22.519
327.19	21.862
327.56	23.258
327.92	22.485
328.29	22.538
328.65	21.915
329.01	22.924
329.38	21.462
329.74	21.976
330.11	22.714
330.47	23.232
330.84	23.529
331.20	22.860
331.56	21.927
331.93	22.222
332.29	21.562
332.66	23.451
333.02	21.846
333.38	22.313
333.75	21.658
334.11	22.687
334.48	21.917
334.84	22.610
335.20	21.818
335.57	21.487
335.93	20.446
336.29	21.429
336.66	22.633
337.02	20.724
337.38	22.870
337.75	21.658
338.11	21.307
338.47	20.350
338.84	22.548
339.20	21.009
339.56	22.354
339.93	20.909
340.29	21.739
340.65	21.569
341.02	22.251
341.38	21.886
341.74	20.614
342.11	21.572
342.47	20.529
342.83	21.404
343.20	20.866
343.56	21.820
343.92	21.754
344.28	23.044
344.65	21.926
345.01	21.128
345.37	19.726
345.73	20.728
346.10	21.313
346.46	21.610
346.82	20.593
347.19	20.635
347.55	20.608
347.91	20.631
348.27	20.789
348.63	21.488
349.00	20.307
349.36	20.443
349.72	20.289
350.08	20.502
350.45	21.318
350.81	20.146
351.17	20.665
351.53	19.738
351.89	19.884
352.26	20.521
352.62	20.209
352.98	19.773
353.34	20.707
353.70	20.131
354.07	20.161
354.43	19.841
354.79	19.389
355.15	20.112
355.51	20.943
355.87	20.571
356.24	20.195
356.60	19.166
356.96	19.871
357.32	19.706
357.68	20.315
358.04	19.477
358.40	20.348
358.77	19.953
359.13	19.968
359.49	19.529
359.85	19.444
360.21	19.697
360.57	20.156
360.93	19.462
361.29	19.652
361.66	18.885
362.02	19.627
362.38	20.608
362.74	19.420
363.10	18.579
363.46	19.149
363.82	19.274
364.18	20.044
364.54	20.579
364.90	20.326
365.26	18.750
365.62	20.672
365.98	18.700
366.35	18.481
366.71	20.390
367.07	18.864
367.43	19.013
367.79	19.986
368.15	19.971
368.51	18.895
368.87	18.986
369.23	18.069
369.59	19.696
369.95	19.706
370.31	19.587
370.67	18.333
371.03	19.625
371.39	19.679
371.75	19.044
372.11	19.346
372.47	19.282
372.83	20.029
373.19	18.208
373.55	19.217
373.91	18.925
374.27	18.625
374.63	18.909
374.99	18.573
375.35	18.353
375.71	19.945
376.07	18.724
376.42	19.739
376.78	18.754
377.14	18.385
377.50	19.669
377.86	18.019
378.22	19.785
378.58	18.546
378.94	17.662
379.30	17.875
379.66	18.591
380.02	18.182
380.38	18.094
380.74	18.908
381.09	18.399
381.45	19.053
381.81	19.042
382.17	19.045
382.53	17.358
382.89	19.815
383.25	19.199
383.61	19.083
383.97	18.574
384.32	18.653
384.68	18.463
385.04	18.685
385.40	18.514
385.76	18.366
386.12	18.523
386.48	18.817
386.83	19.179
387.19	19.419
387.55	19.109
387.91	17.896
388.27	17.597
388.62	19.176
388.98	18.120
389.34	19.212
389.70	17.474
390.06	18.378
390.42	17.964
390.77	19.656
391.13	19.017
391.49	18.401
391.85	18.205
392.20	17.855
392.56	17.677
392.92	18.187
393.28	17.633
393.64	19.005
393.99	18.693
394.35	17.804
394.71	18.319
395.07	17.072
395.42	17.985
395.78	18.639
396.14	18.187
396.50	19.298
396.85	18.309
397.21	17.509
397.57	19.095
397.92	17.668
398.28	17.769
398.64	17.622
399.00	18.467
399.35	17.033
399.71	17.766
400.07	18.628
400.42	18.160
400.78	17.612
401.14	18.232
401.49	18.269
401.85	17.423
402.21	17.844
402.57	17.520
402.92	17.654
403.28	18.301
403.63	18.255
403.99	18.025
404.35	18.121
404.70	17.626
405.06	17.997
405.42	18.091
405.77	18.229
406.13	18.002
406.49	17.623
406.84	17.484
407.20	17.553
407.55	17.613
407.91	18.667
408.27	17.805
408.62	17.881
408.98	16.850
409.34	17.466
409.69	18.258
410.05	17.720
410.40	17.859
410.76	18.160
411.11	18.275
411.47	17.444
411.83	18.448
412.18	18.244
412.54	17.995
412.89	17.771
413.25	18.359
413.60	18.468
413.96	17.972
414.31	18.104
414.67	18.758
415.03	18.344
415.38	18.750
415.74	17.749
416.09	18.419
416.45	17.871
416.80	18.506
417.16	19.437
417.51	19.177
417.87	18.112
418.22	18.297
418.58	18.722
418.93	17.813
419.29	18.014
419.64	19.018
420.00	16.951
420.35	17.797
420.71	18.649
421.06	18.019
421.42	17.018
421.77	18.217
422.12	17.631
422.48	16.892
422.83	18.404
423.19	18.232
423.54	17.818
423.90	17.855
424.25	18.314
424.61	17.619
424.96	17.143
425.31	17.719
425.67	17.303
426.02	17.314
426.38	18.132
426.73	17.028
427.09	17.508
427.44	17.711
427.79	17.251
428.15	18.333
428.50	18.256
428.85	18.594
429.21	16.952
429.56	16.848
429.92	17.011
430.27	17.279
430.62	16.999
430.98	17.177
431.33	17.629
431.68	17.382
432.04	16.826
432.39	17.304
432.74	17.774
433.10	17.431
433.45	17.901
433.80	17.905
434.16	17.575
434.51	17.632
434.86	18.187
435.22	17.788
435.57	17.933
435.92	17.788
436.28	18.505
436.63	18.322
436.98	17.401
437.34	17.651
437.69	17.911
438.04	16.920
438.39	17.373
438.75	17.838
439.10	18.045
439.45	18.005
439.81	18.127
440.16	18.351
440.51	17.692
440.86	18.008
441.22	18.076
441.57	17.516
441.92	17.605
442.27	17.653
442.63	16.956
442.98	18.423
443.33	18.533
443.68	17.553
444.03	17.277
444.39	16.748
444.74	17.749
445.09	18.005
445.44	17.168
445.79	17.714
446.15	17.575
446.50	17.501
446.85	16.906
447.20	17.134
447.55	17.644
447.91	17.540
448.26	17.474
448.61	16.902
448.96	18.051
449.31	17.942
449.66	18.233
450.02	17.549
450.37	17.574
450.72	17.879
451.07	17.124
451.42	16.900
451.77	18.321
452.12	17.898
452.47	18.408
452.83	18.240
453.18	17.971
453.53	17.934
453.88	17.661
454.23	18.231
454.58	18.595
454.93	17.800
455.28	18.267
455.63	18.629
455.98	18.869
456.34	18.279
456.69	18.096
457.04	18.204
457.39	17.300
457.74	18.340
458.09	18.459
458.44	18.187
458.79	17.787
459.14	17.777
459.49	18.039
459.84	18.172
460.19	17.914
460.54	18.461
460.89	18.102
461.24	19.186
461.59	18.594
461.94	18.866
462.29	18.754
462.64	18.762
462.99	18.478
463.34	19.133
463.69	18.574
464.04	18.493
464.39	18.377
464.74	18.063
465.09	17.853
465.44	18.116
465.79	17.673
466.14	17.406
466.49	17.631
466.84	17.980
467.19	19.191
467.54	19.000
467.89	18.848
468.24	18.965
468.59	18.376
468.94	18.082
469.29	18.316
469.64	19.076
469.99	19.553
470.34	18.758
470.68	18.894
471.03	18.980
471.38	18.763
471.73	19.054
472.08	18.816
472.43	18.593
472.78	19.750
473.13	19.961
473.48	19.226
473.83	18.476
474.17	17.610
474.52	19.107
474.87	18.914
475.22	19.327
475.57	18.055
475.92	18.269
476.27	18.151
476.61	18.753
476.96	17.757
477.31	18.106
477.66	18.490
478.01	18.035
478.36	17.927
478.70	18.588
479.05	17.838
479.40	18.014
479.75	18.658
480.10	18.042
480.45	17.706
480.79	17.630
481.14	18.346
481.49	18.320
481.84	18.153
482.19	18.037
482.53	18.257
482.88	17.729
483.23	18.271
483.58	18.244
483.92	17.901
484.27	17.691
484.62	18.233
484.97	17.264
485.31	17.534
485.66	16.396
486.01	14.996
486.36	14.728
486.70	14.348
487.05	15.065
487.40	15.577
487.75	16.210
488.09	15.863
488.44	16.378
488.79	17.685
489.13	17.762
489.48	17.945
489.83	17.782
490.17	17.887
490.52	17.405
490.87	18.634
491.22	18.372
491.56	17.768
491.91	18.381
492.26	18.052
492.60	18.525
492.95	17.633
493.30	17.523
493.64	18.152
493.99	17.595
494.34	18.316
494.68	18.086
495.03	18.280
495.37	18.474
495.72	19.201
496.07	18.747
496.41	17.832
496.76	18.162
497.11	17.785
497.45	18.398
497.80	18.138
498.14	18.744
498.49	18.098
498.84	18.840
499.18	17.810
499.53	17.854
499.87	18.360
500.22	18.135
500.56	19.369
500.91	18.221
501.26	18.208
501.60	18.652
501.95	18.515
502.29	18.604
502.64	18.343
502.98	18.420
503.33	18.419
503.67	18.794
504.02	18.382
504.36	19.186
504.71	17.782
505.06	18.217
505.40	18.279
505.75	18.322
506.09	18.465
506.44	18.698
506.78	19.289
507.13	18.576
507.47	19.141
507.82	19.149
508.16	18.744
508.51	18.975
508.85	18.918
509.19	19.133
509.54	19.235
509.88	18.341
510.23	19.280
510.57	19.453
510.92	18.591
511.26	19.116
511.61	19.346
511.95	19.050
512.30	18.611
512.64	19.452
512.98	19.346
513.33	19.218
513.67	19.157
514.02	19.156
514.36	19.934
514.70	18.926
515.05	20.190
515.39	19.966
515.74	19.538
516.08	19.732
516.42	20.144
516.77	19.955
517.11	18.812
517.46	20.260
517.80	20.093
518.14	19.861
518.49	20.070
518.83	20.057
519.17	19.977
519.52	19.468
519.86	19.909
520.20	20.751
520.55	21.424
520.89	21.168
521.23	20.507
521.58	20.108
521.92	20.514
522.26	20.378
522.61	20.997
522.95	19.951
523.29	20.329
523.64	21.098
523.98	20.887
524.32	20.989
524.66	20.746
525.01	20.343
525.35	21.499
525.69	20.135
526.04	20.935
526.38	20.439
526.72	20.552
527.06	21.469
527.41	20.050
527.75	20.965
528.09	21.002
528.43	21.096
528.78	20.774
529.12	20.667
529.46	20.882
529.80	20.359
530.15	21.246
530.49	19.569
530.83	21.139
531.17	21.802
531.51	21.920
531.86	20.839
532.20	21.708
532.54	21.012
532.88	20.347
533.22	20.050
533.57	21.173
533.91	20.048
534.25	20.109
534.59	20.073
534.93	20.286
535.27	20.640
535.62	20.208
535.96	21.092
536.30	19.263
536.64	21.378
536.98	20.969
537.32	21.132
537.66	21.667
538.01	20.671
538.35	20.168
538.69	21.123
539.03	19.623
539.37	19.489
539.71	19.572
540.05	20.850
540.39	20.066
540.73	20.634
541.07	21.025
541.42	19.896
541.76	21.355
542.10	20.569
542.44	20.199
542.78	21.212
543.12	19.258
543.46	21.508
543.80	20.299
544.14	19.384
544.48	20.952
544.82	19.628
545.16	20.364
545.50	19.730
545.84	20.161
546.18	20.404
546.52	20.716
546.86	20.550
547.20	21.038
547.54	21.042
547.88	21.173
548.22	19.427
548.56	19.748
548.90	19.590
549.24	19.865
549.58	21.010
549.92	20.742
550.26	21.520
550.60	20.401
550.94	20.915
551.28	20.775
551.62	21.280
551.96	20.491
552.30	21.229
552.64	21.636
552.98	21.220
553.32	20.769
553.66	20.245
554.00	21.345
554.34	20.704
554.68	21.102
555.02	21.932
555.36	21.294
555.69	21.583
556.03	21.265
556.37	20.191
556.71	21.760
557.05	20.518
557.39	21.134
557.73	20.113
558.07	21.175
558.41	21.491
558.75	21.087
559.08	20.358
559.42	21.013
559.76	21.985
560.10	21.413
560.44	21.314
560.78	19.694
561.12	20.449
561.45	20.404
561.79	20.237
562.13	20.523
562.47	20.970
562.81	20.363
563.15	20.468
563.48	19.828
563.82	20.287
564.16	20.471
564.50	20.182
564.84	19.343
565.17	19.820
565.51	19.744
565.85	20.178
566.19	20.476
566.52	20.583
566.86	18.807
567.20	20.401
567.54	19.463
567.88	19.555
568.21	19.524
568.55	18.453
568.89	18.239
569.23	17.781
569.56	17.895
569.90	17.132
570.24	17.151
570.57	16.797
570.91	16.484
571.25	16.059
571.59	15.935
571.92	15.927
572.26	16.262
572.60	16.276
572.93	15.832
573.27	16.060
573.61	16.192
573.95	15.659
574.28	15.704
574.62	15.500
574.96	15.269
575.29	15.470
575.63	15.396
575.97	15.543
576.30	15.905
576.64	15.618
576.98	15.338
577.31	15.157
577.65	14.528
577.98	15.018
578.32	14.496
578.66	14.612
578.99	15.042
579.33	15.057
579.67	14.717
580.00	15.008
580.34	15.377
580.67	15.103
581.01	15.404
581.35	15.034
581.68	14.525
582.02	14.466
582.35	14.611
582.69	14.705
583.02	14.940
583.36	15.149
583.70	15.609
584.03	15.334
584.37	15.942
584.70	15.569
585.04	15.313
585.37	15.331
585.71	15.461
586.04	15.632
586.38	15.674
586.72	16.045
587.05	14.697
587.39	15.435
587.72	15.563
588.06	15.368
588.39	15.528
588.73	15.283
589.06	15.799
589.40	16.195
589.73	16.508
590.07	16.690
590.40	15.930
590.73	16.784
591.07	18.234
591.40	17.841
591.74	18.095
592.07	17.452
592.41	17.611
592.74	16.742
593.08	16.322
593.41	16.704
593.75	15.959
594.08	15.991
594.41	16.119
594.75	16.118
595.08	16.178
595.42	16.357
595.75	16.061
596.09	16.598
596.42	17.289
596.75	17.138
597.09	17.965
597.42	16.821
597.75	17.594
598.09	17.478
598.42	17.268
598.76	16.173
599.09	16.306
599.42	16.157
599.76	16.362
600.09	16.248
600.42	15.997
600.76	16.036
601.09	16.503
601.42	16.591
601.76	16.888
602.09	16.759
602.42	17.118
602.76	17.574
603.09	17.034
603.42	16.986
603.76	17.073
604.09	16.712
604.42	16.429
604.76	17.503
605.09	17.388
605.42	17.101
605.75	16.929
606.09	16.023
606.42	17.123
606.75	17.420
607.09	17.999
607.42	16.688
607.75	16.034
608.08	17.282
608.42	17.884
608.75	17.087
609.08	17.900
609.41	17.087
609.75	17.294
610.08	17.578
610.41	17.551
610.74	16.887
611.07	17.984
611.41	18.253
611.74	18.100
612.07	18.219
612.40	18.363
612.73	18.421
613.07	18.804
613.40	18.589
613.73	17.672
614.06	18.011
614.39	19.245
614.72	17.842
615.06	18.487
615.39	17.675
615.72	18.047
616.05	17.491
616.38	18.399
616.71	18.705
617.05	19.199
617.38	19.002
617.71	19.039
618.04	19.111
618.37	18.628
618.70	19.166
619.03	20.592
619.36	19.891
619.69	20.211
620.03	20.742
620.36	20.722
620.69	21.164
621.02	19.912
621.35	20.908
621.68	20.093
622.01	20.046
622.34	20.802
622.67	20.760
623.00	19.809
623.33	20.372
623.66	20.300
623.99	20.692
624.32	20.685
624.65	20.339
624.99	19.334
625.32	19.479
625.65	20.436
625.98	21.368
626.31	21.384
626.64	22.694
626.97	21.530
627.30	22.111
627.63	21.985
627.96	22.288
628.29	22.485
628.62	22.324
628.95	24.151
629.28	23.175
629.61	22.640
629.94	22.476
630.26	22.307
630.59	24.214
630.92	21.743
