SpectraSuite Data File
++++++++++++++++++++++++++++++++++++
Date: Wed May 13 16:15:17 PDT 2015
User: schluterlab
Dark Spectrum Present: Yes
Reference Spectrum Present: Yes
Number of Sampled Component Spectra: 1
Spectrometers: USB2E3373
Integration Time (usec): 3000 (USB2E3373)
Spectra Averaged: 3 (USB2E3373)
Boxcar Smoothing: 0 (USB2E3373)
Correct for Electrical Dark: No (USB2E3373)
Strobe/Lamp Enabled: No (USB2E3373)
Correct for Detector Non-linearity: No (USB2E3373)
Correct for Stray Light: No (USB2E3373)
Number of Pixels in Processed Spectrum: 2048
>>>>>Begin Processed Spectral Data<<<<<
178.53	0.000
178.91	-1025.000
179.29	-950.000
179.67	-111.111
180.04	-1025.000
180.42	1450.000
180.80	900.000
181.18	-850.000
181.56	628.571
181.94	0.000
182.31	-500.000
182.69	1466.667
183.07	-437.500
183.45	-466.667
183.83	372.727
184.20	-390.000
184.58	1500.000
184.96	4200.000
185.34	-460.000
185.72	-312.500
186.09	-1700.000
186.47	2450.000
186.85	2150.000
187.23	4100.000
187.61	-1600.000
187.98	950.000
188.36	481.818
188.74	436.364
189.12	-620.000
189.49	470.000
189.87	-3900.000
190.25	-825.000
190.63	307.143
191.00	346.154
191.38	750.000
191.76	-750.000
192.14	1225.000
192.51	575.000
192.89	1000.000
193.27	425.000
193.65	-750.000
194.02	350.000
194.40	600.000
194.78	420.000
195.15	408.333
195.53	480.000
195.91	-1800.000
196.29	268.750
196.66	236.842
197.04	-290.000
197.42	0.000
197.79	550.000
198.17	-3300.000
198.55	671.429
198.92	712.500
199.30	800.000
199.68	0.000
200.05	261.111
200.43	685.714
200.81	3700.000
201.18	1366.667
201.56	-1166.667
201.94	411.111
202.31	466.667
202.69	391.667
203.07	480.000
203.44	0.000
203.82	1125.000
204.19	571.429
204.57	292.857
204.95	525.000
205.32	1266.667
205.70	400.000
206.08	242.857
206.45	2150.000
206.83	293.750
207.20	766.667
207.58	680.000
207.96	272.222
208.33	537.500
208.71	-600.000
209.08	671.429
209.46	522.222
209.84	409.091
210.21	-1200.000
210.59	950.000
210.96	-375.000
211.34	2250.000
211.71	480.000
212.09	650.000
212.46	0.000
212.84	1533.333
213.22	1075.000
213.59	-4200.000
213.97	566.667
214.34	685.714
214.72	518.182
215.09	660.000
215.47	-1850.000
215.84	-1600.000
216.22	1366.667
216.59	314.286
216.97	1000.000
217.34	354.545
217.72	-450.000
218.09	0.000
218.47	-3500.000
218.84	466.667
219.22	771.429
219.59	1666.667
219.97	-400.000
220.34	820.000
220.72	-1133.333
221.09	350.000
221.47	1025.000
221.84	-716.667
222.22	0.000
222.59	1075.000
222.97	-1750.000
223.34	900.000
223.72	323.077
224.09	800.000
224.46	1650.000
224.84	-3900.000
225.21	-800.000
225.59	-3700.000
225.96	530.000
226.34	230.000
226.71	2300.000
227.08	550.000
227.46	380.000
227.83	-775.000
228.21	-1650.000
228.58	477.778
228.95	-1700.000
229.33	-2100.000
229.70	1266.667
230.08	585.714
230.45	-740.000
230.82	333.333
231.20	566.667
231.57	485.714
231.95	375.000
232.32	172.727
232.69	354.545
233.07	471.429
233.44	292.308
233.81	-1300.000
234.19	184.211
234.56	366.667
234.93	358.333
235.31	436.364
235.68	176.923
236.05	164.286
236.43	127.273
236.80	189.474
237.17	2200.000
237.55	214.286
237.92	142.857
238.29	180.952
238.67	148.387
239.04	106.897
239.41	105.556
239.79	73.913
240.16	83.333
240.53	104.545
240.91	72.549
241.28	72.000
241.65	82.000
242.02	60.870
242.40	56.452
242.77	46.667
243.14	55.914
243.51	50.562
243.89	40.000
244.26	32.222
244.63	31.183
245.00	40.426
245.38	29.703
245.75	31.776
246.12	35.780
246.49	36.496
246.87	43.200
247.24	34.615
247.61	32.143
247.98	28.758
248.36	18.243
248.73	19.745
249.10	28.662
249.47	26.554
249.84	22.995
250.22	18.717
250.59	19.527
250.96	19.192
251.33	22.275
251.70	18.317
252.08	19.048
252.45	17.937
252.82	20.435
253.19	18.298
253.56	13.333
253.94	19.087
254.31	19.922
254.68	18.077
255.05	12.546
255.42	14.634
255.79	15.441
256.16	14.440
256.54	12.721
256.91	16.370
257.28	11.871
257.65	10.561
258.02	12.422
258.39	10.726
258.76	12.375
259.14	15.774
259.51	12.766
259.88	9.938
260.25	12.085
260.62	10.116
260.99	12.733
261.36	14.414
261.73	10.888
262.10	10.174
262.47	10.986
262.85	11.142
263.22	8.547
263.59	17.664
263.96	10.165
264.33	10.183
264.70	7.895
265.07	10.230
265.44	11.869
265.81	10.219
266.18	11.558
266.55	8.293
266.92	11.548
267.29	11.806
267.66	10.321
268.03	9.545
268.40	12.150
268.77	8.353
269.14	6.757
269.51	11.738
269.88	7.692
270.25	7.675
270.62	8.315
270.99	10.968
271.36	10.086
271.73	7.243
272.10	8.696
272.47	10.323
272.84	8.225
273.21	9.434
273.58	5.895
273.95	7.757
274.32	8.264
274.69	9.636
275.06	7.677
275.43	7.872
275.80	9.018
276.17	9.980
276.54	9.356
276.91	8.696
277.28	7.422
277.65	9.478
278.02	2.899
278.39	8.203
278.76	9.636
279.13	8.679
279.50	8.752
279.87	8.566
280.23	7.984
280.60	7.350
280.97	4.251
281.34	7.611
281.71	8.545
282.08	8.253
282.45	6.727
282.82	8.526
283.19	6.239
283.56	7.368
283.92	7.107
284.29	8.289
284.66	8.167
285.03	5.787
285.40	7.042
285.77	6.734
286.14	7.081
286.51	8.333
286.87	7.009
287.24	7.655
287.61	6.742
287.98	5.519
288.35	7.448
288.72	5.296
289.08	6.729
289.45	6.755
289.82	7.805
290.19	5.338
290.56	5.972
290.93	7.704
291.29	6.135
291.66	7.227
292.03	7.849
292.40	6.608
292.77	6.805
293.13	5.672
293.50	5.831
293.87	5.926
294.24	5.333
294.60	5.095
294.97	5.959
295.34	7.475
295.71	6.108
296.08	4.986
296.44	4.952
296.81	5.020
297.18	7.182
297.55	4.354
297.91	5.013
298.28	5.087
298.65	6.136
299.02	4.743
299.38	5.312
299.75	3.100
300.12	4.342
300.48	4.875
300.85	5.055
301.22	4.586
301.59	3.409
301.95	5.038
302.32	5.392
302.69	5.257
303.05	4.727
303.42	5.062
303.79	4.983
304.15	4.545
304.52	4.171
304.89	3.833
305.25	5.104
305.62	4.983
305.99	4.368
306.35	4.586
306.72	5.830
307.09	4.661
307.45	4.955
307.82	3.237
308.19	4.857
308.55	5.394
308.92	3.974
309.29	4.224
309.65	3.712
310.02	5.074
310.38	4.624
310.75	4.329
311.12	5.015
311.48	3.866
311.85	4.507
312.22	4.891
312.58	4.782
312.95	4.963
313.31	4.272
313.68	4.366
314.05	6.509
314.41	4.824
314.78	4.330
315.14	4.667
315.51	4.634
315.87	5.149
316.24	3.376
316.61	4.288
316.97	4.110
317.34	3.327
317.70	5.641
318.07	4.812
318.43	3.718
318.80	5.342
319.16	5.085
319.53	4.128
319.89	5.238
320.26	5.300
320.62	5.159
320.99	5.354
321.35	4.949
321.72	5.236
322.08	5.232
322.45	5.871
322.81	5.329
323.18	5.588
323.54	5.751
323.91	5.000
324.27	4.780
324.64	4.380
325.00	4.599
325.37	5.096
325.73	5.566
326.10	4.325
326.46	3.674
326.83	5.436
327.19	4.868
327.56	4.268
327.92	4.549
328.29	4.969
328.65	5.157
329.01	5.596
329.38	4.255
329.74	4.340
330.11	4.336
330.47	4.867
330.84	6.250
331.20	4.372
331.56	5.505
331.93	4.815
332.29	5.235
332.66	5.841
333.02	4.753
333.38	5.330
333.75	5.526
334.11	4.537
334.48	5.413
334.84	5.239
335.20	5.818
335.57	4.986
335.93	3.929
336.29	4.579
336.66	5.410
337.02	4.706
337.38	5.370
337.75	4.100
338.11	4.029
338.47	5.157
338.84	5.225
339.20	4.128
339.56	4.745
339.93	5.091
340.29	4.710
340.65	4.635
341.02	4.799
341.38	5.160
341.74	5.000
342.11	4.978
342.47	4.317
342.83	5.394
343.20	5.974
343.56	4.549
343.92	5.351
344.28	5.442
344.65	6.019
345.01	4.966
345.37	3.859
345.73	4.738
346.10	4.177
346.46	5.169
346.82	5.601
347.19	4.177
347.55	4.762
347.91	4.612
348.27	4.601
348.63	4.348
349.00	4.369
349.36	3.695
349.72	4.812
350.08	4.538
350.45	5.126
350.81	4.630
351.17	4.214
351.53	4.013
351.89	4.950
352.26	5.683
352.62	4.571
352.98	4.862
353.34	5.259
353.70	3.601
354.07	4.839
354.43	4.762
354.79	4.264
355.15	4.629
355.51	5.915
355.87	4.245
356.24	4.642
356.60	5.052
356.96	4.988
357.32	4.824
357.68	4.803
358.04	5.146
358.40	4.830
358.77	4.617
359.13	3.946
359.49	4.627
359.85	3.254
360.21	3.987
360.57	3.969
360.93	4.846
361.29	4.233
361.66	4.644
362.02	4.851
362.38	4.183
362.74	4.167
363.10	3.627
363.46	4.549
363.82	4.006
364.18	4.405
364.54	5.646
364.90	4.674
365.26	4.044
365.62	4.748
365.98	4.456
366.35	4.011
366.71	4.700
367.07	3.569
367.43	4.354
367.79	5.282
368.15	6.106
368.51	3.561
368.87	4.925
369.23	4.170
369.59	4.996
369.95	3.309
370.31	5.057
370.67	4.565
371.03	5.169
371.39	4.009
371.75	5.000
372.11	4.552
372.47	4.472
372.83	5.836
373.19	5.058
373.55	4.656
373.91	4.860
374.27	4.880
374.63	4.145
374.99	5.014
375.35	3.908
375.71	4.044
376.07	5.418
376.42	3.851
376.78	5.302
377.14	4.817
377.50	4.967
377.86	4.455
378.22	5.120
378.58	4.010
378.94	4.337
379.30	4.008
379.66	5.393
380.02	5.283
380.38	4.250
380.74	4.862
381.09	5.012
381.45	4.610
381.81	5.897
382.17	4.395
382.53	4.088
382.89	5.370
383.25	4.565
383.61	5.948
383.97	5.191
384.32	4.803
384.68	5.204
385.04	4.364
385.40	4.582
385.76	4.730
386.12	5.117
386.48	6.042
386.83	5.516
387.19	5.009
387.55	5.133
387.91	5.200
388.27	5.457
388.62	5.224
388.98	5.037
389.34	5.882
389.70	5.825
390.06	5.767
390.42	4.929
390.77	5.980
391.13	6.318
391.49	5.711
391.85	5.411
392.20	5.552
392.56	5.556
392.92	5.121
393.28	4.201
393.64	6.055
393.99	5.864
394.35	5.645
394.71	5.270
395.07	4.798
395.42	5.562
395.78	5.789
396.14	5.897
396.50	6.203
396.85	5.658
397.21	5.980
397.57	6.200
397.92	5.409
398.28	4.484
398.64	6.153
399.00	4.701
399.35	5.076
399.71	5.613
400.07	5.559
400.42	5.583
400.78	5.850
401.14	5.305
401.49	5.493
401.85	5.868
402.21	5.269
402.57	5.737
402.92	5.738
403.28	5.122
403.63	5.198
403.99	5.032
404.35	6.182
404.70	5.935
405.06	5.533
405.42	6.425
405.77	5.143
406.13	4.853
406.49	5.618
406.84	5.907
407.20	5.437
407.55	5.297
407.91	5.333
408.27	5.169
408.62	6.623
408.98	5.637
409.34	5.658
409.69	5.871
410.05	5.762
410.40	5.688
410.76	5.974
411.11	6.333
411.47	5.942
411.83	5.620
412.18	5.504
412.54	6.040
412.89	6.145
413.25	5.667
413.60	5.497
413.96	5.586
414.31	5.650
414.67	6.084
415.03	6.291
415.38	6.443
415.74	5.916
416.09	6.009
416.45	5.422
416.80	5.354
417.16	6.233
417.51	5.773
417.87	5.780
418.22	6.183
418.58	7.166
418.93	6.081
419.29	6.047
419.64	6.171
420.00	5.793
420.35	6.609
420.71	6.276
421.06	5.370
421.42	5.673
421.77	6.446
422.12	5.109
422.48	5.289
422.83	5.882
423.19	5.912
423.54	5.630
423.90	5.623
424.25	6.030
424.61	5.893
424.96	5.248
425.31	5.869
425.67	5.787
426.02	5.943
426.38	6.532
426.73	5.559
427.09	5.653
427.44	5.635
427.79	5.348
428.15	6.071
428.50	5.968
428.85	6.675
429.21	5.964
429.56	5.391
429.92	5.435
430.27	5.263
430.62	5.735
430.98	5.086
431.33	5.876
431.68	5.445
432.04	6.337
432.39	5.654
432.74	5.805
433.10	5.716
433.45	5.656
433.80	5.599
434.16	5.769
434.51	5.842
434.86	5.701
435.22	5.225
435.57	6.261
435.92	5.383
436.28	6.168
436.63	6.402
436.98	5.323
437.34	5.725
437.69	6.126
438.04	5.396
438.39	6.090
438.75	6.450
439.10	6.089
439.45	6.198
439.81	5.801
440.16	5.929
440.51	6.385
440.86	5.327
441.22	6.229
441.57	6.582
441.92	5.783
442.27	5.544
442.63	5.529
442.98	5.803
443.33	6.087
443.68	5.834
444.03	5.710
444.39	4.674
444.74	5.411
445.09	5.337
445.44	5.850
445.79	5.888
446.15	6.353
446.50	5.385
446.85	5.858
447.20	5.507
447.55	5.304
447.91	5.405
448.26	5.787
448.61	5.596
448.96	6.091
449.31	6.243
449.66	6.528
450.02	5.070
450.37	6.236
450.72	5.922
451.07	6.277
451.42	5.897
451.77	6.929
452.12	6.236
452.47	6.157
452.83	5.769
453.18	6.418
453.53	6.679
453.88	5.434
454.23	6.455
454.58	6.239
454.93	6.675
455.28	5.673
455.63	4.854
455.98	7.560
456.34	6.093
456.69	6.512
457.04	6.254
457.39	6.195
457.74	6.036
458.09	6.153
458.44	5.929
458.79	5.531
459.14	6.377
459.49	6.188
459.84	5.928
460.19	6.128
460.54	5.961
460.89	6.144
461.24	6.618
461.59	7.612
461.94	5.857
462.29	6.231
462.64	5.999
462.99	5.791
463.34	7.067
463.69	6.316
464.04	6.377
464.39	6.435
464.74	5.942
465.09	5.609
465.44	5.928
465.79	5.537
466.14	5.966
466.49	6.897
466.84	6.188
467.19	6.457
467.54	6.813
467.89	5.762
468.24	7.039
468.59	6.716
468.94	5.925
469.29	6.684
469.64	7.631
469.99	6.428
470.34	5.878
470.68	7.040
471.03	5.986
471.38	6.671
471.73	6.596
472.08	7.763
472.43	6.219
472.78	5.925
473.13	6.418
473.48	6.180
473.83	6.829
474.17	5.663
474.52	7.258
474.87	7.122
475.22	6.500
475.57	5.857
475.92	5.151
476.27	6.426
476.61	5.736
476.96	6.707
477.31	5.704
477.66	5.525
478.01	5.698
478.36	6.187
478.70	5.815
479.05	6.124
479.40	6.346
479.75	6.304
480.10	5.119
480.45	5.712
480.79	5.447
481.14	6.311
481.49	5.838
481.84	5.304
482.19	5.543
482.53	5.550
482.88	5.724
483.23	5.701
483.58	5.778
483.92	5.483
484.27	5.577
484.62	5.560
484.97	5.006
485.31	5.616
485.66	4.646
486.01	4.514
486.36	4.222
486.70	4.063
487.05	4.465
487.40	4.571
487.75	4.710
488.09	4.823
488.44	4.870
488.79	5.208
489.13	4.889
489.48	6.077
489.83	5.568
490.17	6.050
490.52	4.960
490.87	5.518
491.22	5.639
491.56	5.148
491.91	5.537
492.26	5.788
492.60	5.668
492.95	5.051
493.30	5.187
493.64	5.320
493.99	5.850
494.34	5.689
494.68	5.861
495.03	5.733
495.37	6.235
495.72	6.092
496.07	5.522
496.41	5.000
496.76	6.069
497.11	5.898
497.45	5.869
497.80	6.046
498.14	5.411
498.49	5.268
498.84	5.801
499.18	5.667
499.53	5.698
499.87	5.825
500.22	6.218
500.56	5.971
500.91	5.481
501.26	5.642
501.60	6.407
501.95	5.454
502.29	6.045
502.64	6.052
502.98	6.078
503.33	5.347
503.67	5.800
504.02	6.034
504.36	5.943
504.71	5.765
505.06	6.361
505.40	5.688
505.75	5.641
506.09	5.977
506.44	5.624
506.78	6.283
507.13	5.856
507.47	6.263
507.82	6.535
508.16	6.079
508.51	5.784
508.85	6.157
509.19	5.357
509.54	5.816
509.88	5.822
510.23	5.398
510.57	6.605
510.92	6.059
511.26	6.372
511.61	6.172
511.95	6.315
512.30	5.938
512.64	5.696
512.98	5.895
513.33	6.585
513.67	5.763
514.02	5.519
514.36	5.953
514.70	6.032
515.05	6.135
515.39	6.057
515.74	6.306
516.08	6.596
516.42	7.325
516.77	7.358
517.11	6.326
517.46	6.828
517.80	6.214
518.14	5.964
518.49	6.476
518.83	6.477
519.17	6.467
519.52	6.621
519.86	6.161
520.20	7.110
520.55	6.643
520.89	6.752
521.23	7.660
521.58	6.663
521.92	6.552
522.26	6.223
522.61	6.231
522.95	5.463
523.29	6.999
523.64	7.195
523.98	6.285
524.32	6.634
524.66	7.697
525.01	7.782
525.35	6.815
525.69	7.020
526.04	6.916
526.38	6.894
526.72	7.362
527.06	6.780
527.41	6.498
527.75	7.074
528.09	6.872
528.43	7.330
528.78	7.376
529.12	6.848
529.46	7.410
529.80	6.869
530.15	6.667
530.49	7.015
530.83	7.532
531.17	7.572
531.51	7.523
531.86	6.968
532.20	7.562
532.54	7.751
532.88	7.638
533.22	6.933
533.57	7.469
533.91	6.984
534.25	6.804
534.59	7.077
534.93	7.198
535.27	6.759
535.62	7.937
535.96	7.031
536.30	7.120
536.64	7.405
536.98	6.835
537.32	7.373
537.66	6.867
538.01	8.097
538.35	7.369
538.69	7.913
539.03	7.083
539.37	6.645
539.71	6.222
540.05	7.190
540.39	7.043
540.73	7.309
541.07	7.917
541.42	6.588
541.76	8.258
542.10	7.891
542.44	6.821
542.78	7.576
543.12	6.974
543.46	7.344
543.80	7.547
544.14	6.996
544.48	7.238
544.82	6.671
545.16	7.938
545.50	7.134
545.84	7.124
546.18	6.061
546.52	7.915
546.86	7.423
547.20	7.215
547.54	7.548
547.88	7.781
548.22	7.908
548.56	7.736
548.90	6.722
549.24	5.926
549.58	8.186
549.92	7.486
550.26	7.244
550.60	7.331
550.94	7.817
551.28	6.218
551.62	7.549
551.96	7.158
552.30	8.464
552.64	7.776
552.98	7.254
553.32	8.361
553.66	7.635
554.00	8.511
554.34	7.522
554.68	7.511
555.02	7.616
555.36	8.072
555.69	6.766
556.03	7.133
556.37	7.503
556.71	6.889
557.05	7.703
557.39	8.188
557.73	6.563
558.07	7.324
558.41	7.453
558.75	6.539
559.08	7.681
559.42	8.012
559.76	7.941
560.10	7.066
560.44	6.778
560.78	6.919
561.12	7.322
561.45	7.757
561.79	6.856
562.13	7.042
562.47	7.309
562.81	6.764
563.15	7.492
563.48	6.764
563.82	6.849
564.16	6.867
564.50	6.055
564.84	7.269
565.17	6.692
565.51	7.093
565.85	7.170
566.19	7.138
566.52	6.460
566.86	6.570
567.20	6.899
567.54	6.507
567.88	6.518
568.21	6.561
568.55	6.522
568.89	6.469
569.23	6.417
569.56	5.870
569.90	5.887
570.24	5.813
570.57	5.304
570.91	5.268
571.25	5.405
571.59	5.508
571.92	5.415
572.26	5.084
572.60	5.225
572.93	5.307
573.27	5.797
573.61	5.248
573.95	5.194
574.28	5.075
574.62	4.956
574.96	5.233
575.29	4.631
575.63	5.132
575.97	5.025
576.30	5.523
576.64	5.206
576.98	5.080
577.31	4.921
577.65	4.821
577.98	4.725
578.32	4.746
578.66	4.906
578.99	4.999
579.33	4.769
579.67	4.768
580.00	5.011
580.34	5.173
580.67	5.105
581.01	5.284
581.35	4.909
581.68	4.928
582.02	4.775
582.35	4.828
582.69	4.889
583.02	4.520
583.36	5.234
583.70	5.245
584.03	4.833
584.37	5.375
584.70	4.963
585.04	5.382
585.37	4.939
585.71	5.028
586.04	4.977
586.38	5.251
586.72	5.413
587.05	4.890
587.39	4.934
587.72	4.973
588.06	4.883
588.39	5.103
588.73	5.221
589.06	5.235
589.40	5.556
589.73	5.421
590.07	5.730
590.40	5.882
590.73	5.816
591.07	5.942
591.40	5.905
591.74	6.407
592.07	5.716
592.41	5.498
592.74	5.618
593.08	5.263
593.41	5.694
593.75	5.621
594.08	5.431
594.41	5.479
594.75	5.508
595.08	5.548
595.42	5.744
595.75	5.698
596.09	5.858
596.42	6.012
596.75	6.163
597.09	6.190
597.42	5.607
597.75	5.563
598.09	5.826
598.42	5.756
598.76	5.513
599.09	5.169
599.42	5.313
599.76	5.747
600.09	5.209
600.42	5.625
600.76	5.571
601.09	5.428
601.42	5.327
601.76	5.617
602.09	6.008
602.42	5.334
602.76	5.885
603.09	5.350
603.42	5.740
603.76	5.450
604.09	5.351
604.42	5.055
604.76	5.905
605.09	5.374
605.42	6.199
605.75	5.546
606.09	5.490
606.42	5.067
606.75	6.014
607.09	5.944
607.42	6.076
607.75	5.359
608.08	5.601
608.42	6.006
608.75	6.132
609.08	5.550
609.41	5.569
609.75	5.908
610.08	5.844
610.41	5.168
610.74	5.535
611.07	6.028
611.41	5.888
611.74	6.486
612.07	6.004
612.40	5.876
612.73	6.368
613.07	6.088
613.40	6.372
613.73	5.611
614.06	6.022
614.39	6.293
614.72	6.368
615.06	5.935
615.39	5.414
615.72	6.033
616.05	5.529
616.38	5.503
616.71	6.413
617.05	6.655
617.38	5.953
617.71	6.366
618.04	6.010
618.37	6.387
618.70	6.036
619.03	6.842
619.36	6.721
619.69	7.113
620.03	6.456
620.36	6.417
620.69	7.808
621.02	6.932
621.35	6.735
621.68	6.698
622.01	6.734
622.34	7.716
622.67	6.768
623.00	6.383
623.33	6.219
623.66	5.432
623.99	6.554
624.32	7.275
624.65	7.062
624.99	6.303
625.32	6.227
625.65	6.311
625.98	7.302
626.31	7.543
626.64	7.347
626.97	7.066
627.30	6.484
627.63	7.547
627.96	7.738
628.29	7.437
628.62	8.417
628.95	8.868
629.28	7.391
629.61	8.158
629.94	7.048
630.26	7.531
630.59	8.580
630.92	7.950
631.25	6.022
631.58	7.307
631.91	6.795
632.24	6.646
632.57	6.716
632.90	7.895
633.23	8.725
633.56	8.927
633.89	8.267
634.22	8.854
634.55	8.757
634.88	7.186
635.20	8.841
635.53	8.554
635.86	8.416
636.19	8.353
636.52	7.497
636.85	8.133
637.18	8.986
637.51	10.165
637.83	6.412
638.16	9.974
638.49	8.942
638.82	8.723
639.15	8.250
639.48	10.349
639.81	7.909
640.13	10.156
640.46	9.664
640.79	10.040
641.12	6.190
641.45	8.240
641.77	9.573
642.10	9.503
642.43	7.958
642.76	8.824
643.09	8.589
643.41	9.105
643.74	9.722
644.07	8.537
644.40	11.350
644.73	11.654
645.05	11.252
645.38	9.479
645.71	11.755
646.04	11.296
646.36	12.354
646.69	10.033
647.02	9.184
647.35	11.340
647.67	9.912
648.00	11.057
648.33	10.726
648.66	11.212
648.98	9.895
649.31	8.819
649.64	8.969
649.96	10.134
650.29	9.321
650.62	8.414
650.94	11.183
651.27	11.486
651.60	9.817
651.92	10.703
652.25	8.632
652.58	11.838
652.90	10.111
653.23	7.088
653.56	10.394
653.88	10.935
654.21	10.585
654.54	10.231
654.86	8.567
