SpectraSuite Data File
++++++++++++++++++++++++++++++++++++
Date: Wed May 13 16:34:11 PDT 2015
User: schluterlab
Dark Spectrum Present: Yes
Reference Spectrum Present: Yes
Number of Sampled Component Spectra: 1
Spectrometers: USB2E3373
Integration Time (usec): 3000 (USB2E3373)
Spectra Averaged: 3 (USB2E3373)
Boxcar Smoothing: 0 (USB2E3373)
Correct for Electrical Dark: No (USB2E3373)
Strobe/Lamp Enabled: No (USB2E3373)
Correct for Detector Non-linearity: No (USB2E3373)
Correct for Stray Light: No (USB2E3373)
Number of Pixels in Processed Spectrum: 2048
>>>>>Begin Processed Spectral Data<<<<<
178.53	0.000
178.91	-1075.000
179.29	-1350.000
179.67	-200.000
180.04	-1225.000
180.42	2700.000
180.80	920.000
181.18	-1175.000
181.56	557.143
181.94	0.000
182.31	-600.000
182.69	1466.667
183.07	-537.500
183.45	-455.556
183.83	481.818
184.20	-370.000
184.58	2550.000
184.96	5700.000
185.34	-680.000
185.72	-512.500
186.09	-1800.000
186.47	2650.000
186.85	1950.000
187.23	4400.000
187.61	-1833.333
187.98	1175.000
188.36	518.182
188.74	436.364
189.12	-760.000
189.49	540.000
189.87	-4000.000
190.25	-1150.000
190.63	314.286
191.00	423.077
191.38	700.000
191.76	-1150.000
192.14	1350.000
192.51	700.000
192.89	966.667
193.27	462.500
193.65	-1225.000
194.02	500.000
194.40	940.000
194.78	500.000
195.15	533.333
195.53	630.000
195.91	-1850.000
196.29	306.250
196.66	305.263
197.04	-310.000
197.42	0.000
197.79	650.000
198.17	-4600.000
198.55	585.714
198.92	512.500
199.30	880.000
199.68	0.000
200.05	283.333
200.43	614.286
200.81	4600.000
201.18	1633.333
201.56	-1233.333
201.94	366.667
202.31	500.000
202.69	366.667
203.07	520.000
203.44	0.000
203.82	1050.000
204.19	771.429
204.57	435.714
204.95	675.000
205.32	1533.333
205.70	454.545
206.08	378.571
206.45	2600.000
206.83	331.250
207.20	933.333
207.58	660.000
207.96	272.222
208.33	675.000
208.71	-816.667
209.08	742.857
209.46	533.333
209.84	563.636
210.21	-1133.333
210.59	1075.000
210.96	-362.500
211.34	2550.000
211.71	650.000
212.09	700.000
212.46	0.000
212.84	1866.667
213.22	1300.000
213.59	-4200.000
213.97	816.667
214.34	671.429
214.72	500.000
215.09	940.000
215.47	-2250.000
215.84	-2250.000
216.22	1500.000
216.59	357.143
216.97	1100.000
217.34	509.091
217.72	-766.667
218.09	0.000
218.47	-3400.000
218.84	611.111
219.22	600.000
219.59	1333.333
219.97	-514.286
220.34	1040.000
220.72	-1466.667
221.09	371.429
221.47	1250.000
221.84	-783.333
222.22	0.000
222.59	1275.000
222.97	-2250.000
223.34	1020.000
223.72	461.538
224.09	1020.000
224.46	1900.000
224.84	-5000.000
225.21	-840.000
225.59	-3800.000
225.96	590.000
226.34	295.000
226.71	2300.000
227.08	537.500
227.46	520.000
227.83	-1000.000
228.21	-1850.000
228.58	555.556
228.95	-2450.000
229.33	-2300.000
229.70	1933.333
230.08	728.571
230.45	-920.000
230.82	466.667
231.20	650.000
231.57	542.857
231.95	408.333
232.32	245.455
232.69	363.636
233.07	600.000
233.44	346.154
233.81	-1466.667
234.19	284.211
234.56	341.667
234.93	391.667
235.31	409.091
235.68	330.769
236.05	264.286
236.43	169.697
236.80	242.105
237.17	4100.000
237.55	185.714
237.92	167.857
238.29	228.571
238.67	174.194
239.04	165.517
239.41	127.778
239.79	100.000
240.16	116.667
240.53	118.182
240.91	68.627
241.28	90.000
241.65	116.000
242.02	76.812
242.40	83.871
242.77	83.333
243.14	75.269
243.51	66.292
243.89	69.412
244.26	52.222
244.63	59.140
245.00	55.319
245.38	48.515
245.75	44.860
246.12	39.450
246.49	55.474
246.87	49.600
247.24	50.769
247.61	42.857
247.98	37.908
248.36	33.784
248.73	40.764
249.10	42.675
249.47	36.158
249.84	38.503
250.22	32.086
250.59	31.361
250.96	34.343
251.33	34.597
251.70	35.644
252.08	27.619
252.45	29.596
252.82	21.739
253.19	28.936
253.56	29.804
253.94	31.950
254.31	28.906
254.68	28.077
255.05	29.889
255.42	27.642
255.79	27.941
256.16	25.993
256.54	21.908
256.91	24.199
257.28	23.381
257.65	25.743
258.02	25.466
258.39	21.767
258.76	21.739
259.14	24.107
259.51	24.316
259.88	19.876
260.25	22.659
260.62	23.410
260.99	22.360
261.36	25.225
261.73	21.203
262.10	21.802
262.47	24.225
262.85	21.448
263.22	19.658
263.59	24.786
263.96	23.352
264.33	21.932
264.70	19.737
265.07	19.693
265.44	21.212
265.81	19.708
266.18	21.357
266.55	20.000
266.92	19.656
267.29	21.296
267.66	18.349
268.03	19.091
268.40	19.393
268.77	19.332
269.14	18.018
269.51	22.122
269.88	19.814
270.25	18.962
270.62	15.955
270.99	21.935
271.36	19.313
271.73	20.327
272.10	18.696
272.47	17.849
272.84	20.563
273.21	19.497
273.58	17.904
273.95	17.191
274.32	15.702
274.69	18.630
275.06	16.732
275.43	18.511
275.80	15.431
276.17	16.293
276.54	19.127
276.91	17.984
277.28	16.016
277.65	17.602
278.02	15.735
278.39	19.922
278.76	17.818
279.13	17.925
279.50	18.808
279.87	15.339
280.23	16.966
280.60	16.054
280.97	15.342
281.34	16.991
281.71	18.364
282.08	19.578
282.45	16.000
282.82	16.163
283.19	13.725
283.56	17.719
283.92	16.413
284.29	17.108
284.66	17.604
285.03	15.009
285.40	14.965
285.77	14.815
286.14	15.199
286.51	17.500
286.87	14.872
287.24	18.404
287.61	16.051
287.98	16.558
288.35	16.165
288.72	15.265
289.08	15.493
289.45	14.662
289.82	16.585
290.19	13.501
290.56	14.548
290.93	13.444
291.29	14.417
291.66	14.897
292.03	16.860
292.40	15.272
292.77	12.426
293.13	14.478
293.50	16.472
293.87	13.333
294.24	14.370
294.60	13.683
294.97	14.390
295.34	15.374
295.71	14.205
296.08	14.530
296.44	13.893
296.81	13.871
297.18	13.550
297.55	12.533
297.91	12.665
298.28	13.521
298.65	14.360
299.02	13.175
299.38	12.218
299.75	10.377
300.12	13.282
300.48	12.625
300.85	14.057
301.22	12.739
301.59	11.616
301.95	13.476
302.32	13.094
302.69	14.098
303.05	11.879
303.42	12.099
303.79	13.250
304.15	12.238
304.52	12.399
304.89	11.731
305.25	11.717
305.62	12.797
305.99	13.577
306.35	12.975
306.72	12.108
307.09	12.653
307.45	13.401
307.82	13.393
308.19	12.472
308.55	12.837
308.92	13.534
309.29	12.777
309.65	12.725
310.02	12.896
310.38	12.366
310.75	12.883
311.12	13.408
311.48	13.898
311.85	14.570
312.22	11.759
312.58	12.474
312.95	13.833
313.31	13.398
313.68	13.617
314.05	14.990
314.41	12.663
314.78	12.790
315.14	13.406
315.51	13.594
315.87	13.564
316.24	13.307
316.61	13.060
316.97	12.916
317.34	13.601
317.70	13.671
318.07	13.667
318.43	13.699
318.80	14.058
319.16	13.465
319.53	13.039
319.89	13.905
320.26	13.700
320.62	14.187
320.99	13.535
321.35	14.040
321.72	15.400
322.08	15.005
322.45	16.219
322.81	14.826
323.18	16.185
323.54	15.492
323.91	14.906
324.27	15.201
324.64	13.607
325.00	14.157
325.37	16.197
325.73	15.889
326.10	16.240
326.46	15.323
326.83	16.307
327.19	15.286
327.56	15.418
327.92	15.398
328.29	16.415
328.65	16.759
329.01	16.426
329.38	16.466
329.74	16.713
330.11	16.965
330.47	17.906
330.84	17.831
331.20	16.302
331.56	17.339
331.93	16.667
332.29	16.681
332.66	16.372
333.02	16.362
333.38	16.893
333.75	17.023
334.11	16.548
334.48	16.415
334.84	16.544
335.20	16.818
335.57	15.322
335.93	16.071
336.29	16.392
336.66	15.960
337.02	16.018
337.38	16.481
337.75	16.221
338.11	15.667
338.47	17.127
338.84	16.315
339.20	15.505
339.56	17.974
339.93	17.273
340.29	16.304
340.65	15.954
341.02	16.841
341.38	17.438
341.74	16.930
342.11	16.681
342.47	16.828
342.83	16.695
343.20	16.450
343.56	16.007
343.92	15.789
344.28	17.092
344.65	16.509
345.01	16.498
345.37	15.437
345.73	15.651
346.10	17.391
346.46	16.780
346.82	15.568
347.19	16.040
347.55	16.092
347.91	16.424
348.27	17.256
348.63	16.639
349.00	16.262
349.36	16.420
349.72	16.359
350.08	16.045
350.45	16.111
350.81	16.816
351.17	16.288
351.53	16.462
351.89	15.677
352.26	17.364
352.62	17.161
352.98	16.451
353.34	16.434
353.70	15.139
354.07	16.532
354.43	16.032
354.79	16.090
355.15	15.323
355.51	17.106
355.87	17.796
356.24	16.042
356.60	15.958
356.96	16.090
357.32	16.435
357.68	16.850
358.04	17.023
358.40	16.706
358.77	17.058
359.13	16.338
359.49	16.784
359.85	15.397
360.21	16.348
360.57	17.198
360.93	16.462
361.29	16.251
361.66	16.022
362.02	16.716
362.38	17.643
362.74	16.964
363.10	16.728
363.46	16.654
363.82	16.100
364.18	16.226
364.54	17.088
364.90	16.997
365.26	16.544
365.62	16.581
365.98	15.632
366.35	15.759
366.71	16.341
367.07	16.970
367.43	17.852
367.79	17.059
368.15	17.170
368.51	16.134
368.87	17.488
369.23	17.337
369.59	17.813
369.95	16.985
370.31	17.379
370.67	16.522
371.03	17.678
371.39	17.274
371.75	16.912
372.11	16.856
372.47	18.035
372.83	18.516
373.19	17.269
373.55	17.738
373.91	18.336
374.27	17.801
374.63	17.018
374.99	18.079
375.35	17.306
375.71	17.204
376.07	18.313
376.42	17.882
376.78	18.754
377.14	18.250
377.50	18.874
377.86	17.420
378.22	17.826
378.58	16.855
378.94	17.662
379.30	18.066
379.66	17.322
380.02	18.366
380.38	17.426
380.74	18.307
381.09	18.949
381.45	18.746
381.81	18.735
382.17	18.535
382.53	18.553
382.89	18.395
383.25	18.386
383.61	18.959
383.97	18.386
384.32	18.216
384.68	17.906
385.04	18.254
385.40	18.452
385.76	18.857
386.12	17.746
386.48	19.132
386.83	19.692
387.19	18.677
387.55	18.800
387.91	18.622
388.27	19.191
388.62	19.914
388.98	17.690
389.34	19.274
389.70	18.884
390.06	19.708
390.42	19.909
390.77	19.784
391.13	18.762
391.49	18.909
391.85	19.032
392.20	18.423
392.56	19.003
392.92	19.776
393.28	19.231
393.64	19.365
393.99	19.120
394.35	20.099
394.71	19.009
395.07	19.938
395.42	19.901
395.78	20.293
396.14	19.988
396.50	19.925
396.85	20.089
397.21	19.482
397.57	19.653
397.92	20.373
398.28	18.498
398.64	19.952
399.00	19.810
399.35	19.853
399.71	18.981
400.07	20.047
400.42	19.939
400.78	20.326
401.14	19.451
401.49	20.299
401.85	19.177
402.21	19.880
402.57	19.926
402.92	21.564
403.28	19.863
403.63	19.678
403.99	20.318
404.35	19.515
404.70	19.365
405.06	19.336
405.42	19.963
405.77	19.714
406.13	19.413
406.49	20.343
406.84	19.965
407.20	19.799
407.55	19.911
407.91	20.467
408.27	20.102
408.62	19.988
408.98	19.118
409.34	19.803
409.69	20.581
410.05	19.145
410.40	19.755
410.76	19.176
411.11	20.326
411.47	20.128
411.83	20.586
412.18	19.604
412.54	20.423
412.89	21.024
413.25	19.717
413.60	19.642
413.96	19.672
414.31	20.778
414.67	20.025
415.03	20.397
415.38	20.168
415.74	19.871
416.09	21.097
416.45	20.482
416.80	21.150
417.16	20.710
417.51	20.637
417.87	20.039
418.22	20.505
418.58	20.594
418.93	20.946
419.29	20.496
419.64	20.277
420.00	19.756
420.35	20.812
420.71	19.785
421.06	19.630
421.42	20.468
421.77	20.460
422.12	18.978
422.48	18.672
422.83	20.151
423.19	20.387
423.54	20.023
423.90	20.580
424.25	20.436
424.61	19.821
424.96	20.058
425.31	20.155
425.67	19.326
426.02	20.229
426.38	20.269
426.73	20.129
427.09	20.122
427.44	20.127
427.79	19.609
428.15	19.762
428.50	19.193
428.85	19.964
429.21	19.382
429.56	19.025
429.92	20.332
430.27	19.215
430.62	19.150
430.98	19.616
431.33	19.433
431.68	19.895
432.04	19.382
432.39	19.874
432.74	20.227
433.10	20.147
433.45	20.000
433.80	19.290
434.16	19.872
434.51	19.789
434.86	19.669
435.22	19.288
435.57	20.061
435.92	19.953
436.28	20.641
436.63	20.475
436.98	19.805
437.34	20.274
437.69	20.187
438.04	19.899
438.39	20.179
438.75	19.930
439.10	20.335
439.45	20.071
439.81	20.181
440.16	19.706
440.51	20.562
440.86	20.266
441.22	19.744
441.57	20.435
441.92	19.857
442.27	19.806
442.63	19.168
442.98	19.718
443.33	19.946
443.68	19.308
444.03	19.912
444.39	19.669
444.74	19.048
445.09	19.838
445.44	19.902
445.79	19.941
446.15	20.593
446.50	19.332
446.85	19.733
447.20	20.041
447.55	19.821
447.91	19.912
448.26	19.588
448.61	19.955
448.96	19.989
449.31	19.685
449.66	19.921
450.02	19.109
450.37	18.934
450.72	19.628
451.07	19.561
451.42	19.210
451.77	20.258
452.12	19.688
452.47	19.279
452.83	19.872
453.18	20.293
453.53	20.779
453.88	20.260
454.23	19.426
454.58	19.624
454.93	20.407
455.28	20.012
455.63	20.995
455.98	20.536
456.34	20.226
456.69	19.349
457.04	20.248
457.39	20.397
457.74	19.675
458.09	19.666
458.44	19.384
458.79	19.197
459.14	20.147
459.49	19.965
459.84	20.388
460.19	19.387
460.54	19.444
460.89	19.473
461.24	20.219
461.59	20.744
461.94	19.852
462.29	20.475
462.64	20.038
462.99	19.974
463.34	20.733
463.69	20.075
464.04	19.942
464.39	19.652
464.74	19.430
465.09	19.723
465.44	19.557
465.79	19.295
466.14	19.595
466.49	18.576
466.84	19.907
467.19	20.640
467.54	20.500
467.89	20.108
468.24	20.070
468.59	20.269
468.94	19.609
469.29	19.859
469.64	21.285
469.99	20.704
470.34	20.343
470.68	20.474
471.03	20.000
471.38	21.126
471.73	20.720
472.08	20.724
472.43	20.289
472.78	19.750
473.13	19.961
473.48	20.100
473.83	20.549
474.17	19.415
474.52	20.285
474.87	19.673
475.22	19.733
475.57	19.721
475.92	19.862
476.27	19.729
476.61	19.470
476.96	19.626
477.31	19.571
477.66	20.350
478.01	19.237
478.36	20.201
478.70	19.782
479.05	19.329
479.40	19.703
479.75	19.115
480.10	19.185
480.45	19.181
480.79	18.538
481.14	19.814
481.49	19.459
481.84	19.479
482.19	19.945
482.53	19.725
482.88	18.660
483.23	18.832
483.58	19.199
483.92	18.697
484.27	18.257
484.62	18.276
484.97	18.368
485.31	18.322
485.66	17.085
486.01	16.323
486.36	15.646
486.70	15.648
487.05	16.419
487.40	17.288
487.75	17.360
488.09	18.047
488.44	17.979
488.79	18.770
489.13	19.328
489.48	18.964
489.83	19.422
490.17	19.421
490.52	18.468
490.87	18.996
491.22	19.645
491.56	17.995
491.91	19.823
492.26	18.833
492.60	19.171
492.95	18.335
493.30	19.112
493.64	18.945
493.99	18.570
494.34	19.334
494.68	19.277
495.03	19.502
495.37	19.311
495.72	19.006
496.07	19.443
496.41	17.965
496.76	18.118
497.11	19.316
497.45	19.190
497.80	19.434
498.14	18.841
498.49	19.610
498.84	19.319
499.18	19.143
499.53	19.183
499.87	19.851
500.22	19.218
500.56	19.515
500.91	18.990
501.26	19.393
501.60	20.028
501.95	19.386
502.29	19.447
502.64	18.715
502.98	18.467
503.33	18.510
503.67	19.072
504.02	18.803
504.36	19.279
504.71	19.492
505.06	19.566
505.40	19.251
505.75	18.852
506.09	18.950
506.44	18.994
506.78	20.166
507.13	19.687
507.47	20.152
507.82	19.554
508.16	19.807
508.51	20.345
508.85	19.712
509.19	19.592
509.54	19.898
509.88	19.629
510.23	19.640
510.57	20.588
510.92	19.679
511.26	19.168
511.61	20.436
511.95	19.259
512.30	20.414
512.64	20.742
512.98	19.721
513.33	20.557
513.67	20.011
514.02	19.751
514.36	20.481
514.70	20.642
515.05	19.911
515.39	20.415
515.74	20.608
516.08	20.291
516.42	21.143
516.77	21.628
517.11	20.477
517.46	20.993
517.80	20.557
518.14	19.803
518.49	21.120
518.83	20.398
519.17	20.612
519.52	20.600
519.86	20.821
520.20	21.329
520.55	22.023
520.89	21.837
521.23	22.014
521.58	21.489
521.92	21.494
522.26	21.293
522.61	21.994
522.95	21.731
523.29	21.668
523.64	21.585
523.98	21.442
524.32	21.532
524.66	21.828
525.01	21.936
525.35	20.260
525.69	21.429
526.04	21.931
526.38	21.599
526.72	20.798
527.06	21.908
527.41	20.668
527.75	22.058
528.09	21.259
528.43	22.371
528.78	22.004
529.12	21.091
529.46	21.678
529.80	21.906
530.15	21.620
530.49	21.477
530.83	22.405
531.17	22.585
531.51	23.281
531.86	21.419
532.20	22.816
532.54	21.781
532.88	22.721
533.22	20.862
533.57	21.914
533.91	21.674
534.25	21.324
534.59	21.293
534.93	20.405
535.27	21.786
535.62	21.429
535.96	22.599
536.30	21.297
536.64	22.279
536.98	21.632
537.32	21.396
537.66	22.067
538.01	21.988
538.35	22.107
538.69	22.591
539.03	20.728
539.37	21.086
539.71	20.804
540.05	21.503
540.39	22.658
540.73	21.410
541.07	22.064
541.42	22.048
541.76	22.194
542.10	21.410
542.44	21.523
542.78	22.596
543.12	20.729
543.46	22.230
543.80	22.186
544.14	21.053
544.48	21.905
544.82	20.911
545.16	21.601
545.50	21.594
545.84	22.110
546.18	21.077
546.52	21.748
546.86	22.199
547.20	22.724
547.54	20.908
547.88	22.066
548.22	21.420
548.56	21.195
548.90	21.447
549.24	21.347
549.58	21.965
549.92	22.321
550.26	21.804
550.60	21.024
550.94	22.465
551.28	21.726
551.62	22.717
551.96	22.035
552.30	22.730
552.64	21.569
552.98	22.576
553.32	22.117
553.66	21.745
554.00	21.139
554.34	21.325
554.68	22.389
555.02	22.003
555.36	21.434
555.69	21.448
556.03	20.861
556.37	21.896
556.71	21.692
557.05	21.218
557.39	22.113
557.73	22.442
558.07	22.190
558.41	22.431
558.75	22.337
559.08	22.148
559.42	22.676
559.76	21.765
560.10	21.699
560.44	22.292
560.78	20.692
561.12	21.174
561.45	21.643
561.79	20.831
562.13	21.127
562.47	22.336
562.81	21.269
563.15	21.405
563.48	21.154
563.82	21.200
564.16	20.340
564.50	21.159
564.84	20.796
565.17	20.399
565.51	21.725
565.85	20.114
566.19	19.975
566.52	21.153
566.86	20.555
567.20	21.108
567.54	20.833
567.88	19.826
568.21	21.164
568.55	19.262
568.89	19.698
569.23	18.984
569.56	18.381
569.90	18.528
570.24	18.048
570.57	17.273
570.91	17.292
571.25	17.387
571.59	17.084
571.92	16.820
572.26	17.100
572.60	17.628
572.93	17.601
573.27	17.657
573.61	17.951
573.95	17.209
574.28	17.035
574.62	17.153
574.96	16.679
575.29	16.562
575.63	17.099
575.97	16.897
576.30	17.233
576.64	16.502
576.98	16.966
577.31	16.821
577.65	16.591
577.98	16.345
578.32	15.945
578.66	16.667
578.99	16.115
579.33	16.945
579.67	16.882
580.00	17.310
580.34	16.730
580.67	16.615
581.01	16.933
581.35	16.281
581.68	16.347
582.02	15.638
582.35	15.931
582.69	16.392
583.02	16.468
583.36	16.763
583.70	17.058
584.03	17.450
584.37	17.576
584.70	16.980
585.04	16.830
585.37	16.962
585.71	16.847
586.04	16.502
586.38	17.163
586.72	17.316
587.05	16.436
587.39	16.570
587.72	16.594
588.06	16.756
588.39	17.586
588.73	17.072
589.06	17.763
589.40	18.283
589.73	17.951
590.07	17.829
590.40	18.085
590.73	18.306
591.07	18.356
591.40	18.895
591.74	18.571
592.07	18.630
592.41	18.355
592.74	17.940
593.08	17.288
593.41	17.305
593.75	16.490
594.08	17.432
594.41	18.134
594.75	17.560
595.08	18.039
595.42	17.513
595.75	17.450
596.09	18.438
596.42	18.978
596.75	18.489
597.09	19.351
597.42	18.086
597.75	18.672
598.09	18.565
598.42	17.912
598.76	18.079
599.09	17.408
599.42	17.613
599.76	17.387
600.09	16.976
600.42	17.385
600.76	17.500
601.09	17.377
601.42	17.314
601.76	17.571
602.09	17.431
602.42	18.193
602.76	18.662
603.09	18.057
603.42	18.391
603.76	16.921
604.09	17.526
604.42	17.489
604.76	17.883
605.09	18.654
605.42	17.828
605.75	18.212
606.09	17.690
606.42	17.818
606.75	17.752
607.09	18.418
607.42	18.143
607.75	17.131
608.08	18.063
608.42	18.736
608.75	18.124
609.08	17.391
609.41	18.896
609.75	18.485
610.08	18.520
610.41	18.017
610.74	18.307
611.07	18.775
611.41	19.038
611.74	18.803
612.07	19.255
612.40	19.098
612.73	18.263
613.07	19.073
613.40	19.431
613.73	18.091
614.06	18.495
614.39	19.088
614.72	19.105
615.06	18.803
615.39	17.887
615.72	18.149
616.05	18.607
616.38	18.399
616.71	19.240
617.05	19.376
617.38	19.784
617.71	20.120
618.04	20.252
618.37	19.515
618.70	19.540
619.03	20.592
619.36	20.502
619.69	20.423
620.03	20.261
620.36	19.452
620.69	20.479
621.02	21.165
621.35	21.300
621.68	20.249
622.01	19.659
622.34	21.483
622.67	20.837
623.00	20.176
623.33	20.086
623.66	20.443
623.99	20.839
624.32	20.328
624.65	20.268
624.99	18.980
625.32	20.130
625.65	20.887
625.98	20.830
626.31	21.851
626.64	22.776
626.97	21.613
627.30	21.446
627.63	21.493
627.96	21.951
628.29	21.697
628.62	22.964
628.95	21.792
629.28	23.358
629.61	23.190
629.94	22.857
630.26	21.735
630.59	21.735
630.92	22.126
