SpectraSuite Data File
++++++++++++++++++++++++++++++++++++
Date: Wed May 13 16:22:48 PDT 2015
User: schluterlab
Dark Spectrum Present: Yes
Reference Spectrum Present: Yes
Number of Sampled Component Spectra: 1
Spectrometers: USB2E3373
Integration Time (usec): 3000 (USB2E3373)
Spectra Averaged: 3 (USB2E3373)
Boxcar Smoothing: 0 (USB2E3373)
Correct for Electrical Dark: No (USB2E3373)
Strobe/Lamp Enabled: No (USB2E3373)
Correct for Detector Non-linearity: No (USB2E3373)
Correct for Stray Light: No (USB2E3373)
Number of Pixels in Processed Spectrum: 2048
>>>>>Begin Processed Spectral Data<<<<<
178.53	0.000
178.91	-1225.000
179.29	-1225.000
179.67	-166.667
180.04	-1000.000
180.42	2550.000
180.80	1080.000
181.18	-875.000
181.56	685.714
181.94	0.000
182.31	-614.286
182.69	1733.333
183.07	-512.500
183.45	-500.000
183.83	518.182
184.20	-330.000
184.58	2100.000
184.96	5300.000
185.34	-820.000
185.72	-537.500
186.09	-2300.000
186.47	2100.000
186.85	2350.000
187.23	4300.000
187.61	-1266.667
187.98	1050.000
188.36	509.091
188.74	490.909
189.12	-900.000
189.49	510.000
189.87	-5200.000
190.25	-1050.000
190.63	364.286
191.00	384.615
191.38	833.333
191.76	-1125.000
192.14	1350.000
192.51	500.000
192.89	733.333
193.27	462.500
193.65	-1000.000
194.02	520.000
194.40	880.000
194.78	540.000
195.15	433.333
195.53	670.000
195.91	-1900.000
196.29	325.000
196.66	242.105
197.04	-340.000
197.42	0.000
197.79	580.000
198.17	-3700.000
198.55	671.429
198.92	675.000
199.30	840.000
199.68	0.000
200.05	400.000
200.43	728.571
200.81	4800.000
201.18	1466.667
201.56	-1366.667
201.94	400.000
202.31	488.889
202.69	391.667
203.07	490.000
203.44	0.000
203.82	875.000
204.19	657.143
204.57	371.429
204.95	575.000
205.32	1400.000
205.70	500.000
206.08	392.857
206.45	2050.000
206.83	300.000
207.20	800.000
207.58	520.000
207.96	311.111
208.33	662.500
208.71	-800.000
209.08	657.143
209.46	566.667
209.84	363.636
210.21	-1366.667
210.59	1350.000
210.96	-512.500
211.34	2250.000
211.71	530.000
212.09	650.000
212.46	0.000
212.84	1633.333
213.22	1275.000
213.59	-4800.000
213.97	850.000
214.34	714.286
214.72	518.182
215.09	1140.000
215.47	-1950.000
215.84	-2250.000
216.22	1633.333
216.59	342.857
216.97	1125.000
217.34	390.909
217.72	-666.667
218.09	0.000
218.47	-4800.000
218.84	666.667
219.22	657.143
219.59	1366.667
219.97	-642.857
220.34	980.000
220.72	-1466.667
221.09	335.714
221.47	1175.000
221.84	-833.333
222.22	0.000
222.59	1475.000
222.97	-2050.000
223.34	940.000
223.72	423.077
224.09	1020.000
224.46	2050.000
224.84	-3500.000
225.21	-880.000
225.59	-4300.000
225.96	590.000
226.34	265.000
226.71	2250.000
227.08	550.000
227.46	510.000
227.83	-1025.000
228.21	-2450.000
228.58	555.556
228.95	-2200.000
229.33	-2050.000
229.70	1700.000
230.08	685.714
230.45	-760.000
230.82	400.000
231.20	916.667
231.57	614.286
231.95	416.667
232.32	263.636
232.69	381.818
233.07	614.286
233.44	407.692
233.81	-1666.667
234.19	252.632
234.56	408.333
234.93	283.333
235.31	390.909
235.68	292.308
236.05	314.286
236.43	139.394
236.80	273.684
237.17	3900.000
237.55	138.095
237.92	164.286
238.29	195.238
238.67	135.484
239.04	144.828
239.41	116.667
239.79	84.783
240.16	107.143
240.53	104.545
240.91	66.667
241.28	86.000
241.65	74.000
242.02	91.304
242.40	62.903
242.77	66.667
243.14	56.989
243.51	66.292
243.89	51.765
244.26	44.444
244.63	48.387
245.00	43.617
245.38	48.515
245.75	43.925
246.12	22.018
246.49	45.255
246.87	40.000
247.24	42.308
247.61	29.286
247.98	34.641
248.36	32.432
248.73	30.573
249.10	36.306
249.47	28.814
249.84	31.551
250.22	26.738
250.59	25.444
250.96	28.788
251.33	26.066
251.70	24.257
252.08	24.762
252.45	21.076
252.82	19.130
253.19	24.681
253.56	18.824
253.94	27.386
254.31	23.437
254.68	21.538
255.05	21.033
255.42	16.667
255.79	20.221
256.16	21.661
256.54	17.668
256.91	21.352
257.28	16.547
257.65	17.162
258.02	19.565
258.39	19.558
258.76	16.054
259.14	16.071
259.51	14.286
259.88	14.907
260.25	17.523
260.62	16.185
260.99	15.839
261.36	15.916
261.73	17.192
262.10	12.500
262.47	17.183
262.85	14.763
263.22	15.385
263.59	14.530
263.96	13.187
264.33	14.621
264.70	13.158
265.07	16.113
265.44	15.404
265.81	12.165
266.18	14.573
266.55	16.341
266.92	14.251
267.29	15.509
267.66	14.679
268.03	16.364
268.40	11.682
268.77	11.456
269.14	13.514
269.51	13.093
269.88	13.287
270.25	12.415
270.62	12.809
270.99	15.484
271.36	13.305
271.73	11.449
272.10	12.826
272.47	15.484
272.84	15.368
273.21	13.627
273.58	9.389
273.95	11.321
274.32	11.364
274.69	11.777
275.06	10.039
275.43	12.553
275.80	11.022
276.17	10.794
276.54	9.979
276.91	10.474
277.28	12.891
277.65	10.445
278.02	11.387
278.39	12.891
278.76	11.818
279.13	12.075
279.50	11.359
279.87	11.554
280.23	11.178
280.60	9.671
280.97	11.460
281.34	12.212
281.71	13.455
282.08	13.052
282.45	9.636
282.82	11.368
283.19	9.626
283.56	10.526
283.92	10.998
284.29	11.287
284.66	10.163
285.03	8.499
285.40	9.331
285.77	9.596
286.14	8.808
286.51	10.500
286.87	11.282
287.24	12.378
287.61	10.594
287.98	11.201
288.35	9.826
288.72	10.436
289.08	10.955
289.45	8.896
289.82	10.569
290.19	7.692
290.56	10.873
290.93	9.517
291.29	9.356
291.66	9.440
292.03	9.738
292.40	9.251
292.77	9.024
293.13	11.194
293.50	8.601
293.87	8.741
294.24	8.889
294.60	7.715
294.97	9.593
295.34	10.578
295.71	8.665
296.08	8.405
296.44	7.428
296.81	7.398
297.18	9.485
297.55	6.992
297.91	8.443
298.28	8.969
298.65	9.399
299.02	8.564
299.38	6.507
299.75	7.412
300.12	7.280
300.48	8.875
300.85	7.768
301.22	7.643
301.59	7.071
301.95	7.179
302.32	6.675
302.69	8.124
303.05	6.909
303.42	6.420
303.79	8.381
304.15	6.410
304.52	7.532
304.89	7.085
305.25	6.497
305.62	9.173
305.99	8.028
306.35	7.494
306.72	7.848
307.09	7.547
307.45	7.658
307.82	5.804
308.19	8.057
308.55	7.659
308.92	7.411
309.29	7.181
309.65	5.302
310.02	7.188
310.38	7.957
310.75	8.237
311.12	7.369
311.48	7.315
311.85	7.757
312.22	7.284
312.58	6.965
312.95	7.392
313.31	6.893
313.68	7.069
314.05	9.270
314.41	6.633
314.78	6.848
315.14	7.349
315.51	7.518
315.87	8.515
316.24	6.852
316.61	6.530
316.97	7.045
317.34	6.556
317.70	8.222
318.07	6.930
318.43	6.654
318.80	7.216
319.16	6.874
319.53	6.379
319.89	7.429
320.26	8.400
320.62	6.250
320.99	7.273
321.35	8.182
321.72	8.624
322.08	8.095
322.45	9.154
322.81	7.752
323.18	8.092
323.54	8.905
323.91	7.358
324.27	6.692
324.64	7.363
325.00	6.763
325.37	7.370
325.73	8.079
326.10	7.855
326.46	7.258
326.83	7.938
327.19	7.771
327.56	7.578
327.92	7.699
328.29	8.962
328.65	7.182
329.01	7.762
329.38	6.568
329.74	6.833
330.11	7.823
330.47	8.356
330.84	8.548
331.20	7.923
331.56	7.706
331.93	7.130
332.29	7.897
332.66	8.319
333.02	7.495
333.38	7.588
333.75	7.665
334.11	7.651
334.48	8.075
334.84	8.088
335.20	7.909
335.57	7.253
335.93	7.143
336.29	6.685
336.66	8.115
337.02	6.063
337.38	7.315
337.75	6.595
338.11	7.431
338.47	6.630
338.84	7.149
339.20	5.413
339.56	7.664
339.93	6.273
340.29	6.522
340.65	6.952
341.02	7.853
341.38	6.584
341.74	6.316
342.11	6.987
342.47	7.048
342.83	7.449
343.20	7.532
343.56	6.655
343.92	6.491
344.28	6.718
344.65	6.793
345.01	6.987
345.37	6.003
345.73	6.853
346.10	6.479
346.46	6.525
346.82	7.166
347.19	6.182
347.55	6.814
347.91	7.605
348.27	7.477
348.63	6.355
349.00	6.553
349.36	7.225
349.72	7.137
350.08	5.592
350.45	6.103
350.81	6.905
351.17	6.402
351.53	6.388
351.89	6.023
352.26	8.445
352.62	6.335
352.98	6.807
353.34	6.491
353.70	6.547
354.07	6.774
354.43	6.508
354.79	6.516
355.15	6.145
355.51	7.434
355.87	6.939
356.24	6.678
356.60	6.656
356.96	4.907
357.32	6.705
357.68	5.984
358.04	6.255
358.40	7.205
358.77	6.886
359.13	6.551
359.49	7.137
359.85	4.841
360.21	6.300
360.57	6.615
360.93	7.538
361.29	6.727
361.66	5.882
362.02	6.642
362.38	7.300
362.74	5.952
363.10	5.774
363.46	5.943
363.82	5.745
364.18	6.167
364.54	6.315
364.90	6.799
365.26	5.956
365.62	5.917
365.98	5.844
366.35	5.946
366.71	6.074
367.07	6.118
367.43	6.096
367.79	6.638
368.15	6.609
368.51	6.177
368.87	6.424
369.23	5.925
369.59	6.372
369.95	5.294
370.31	7.123
370.67	6.304
371.03	6.966
371.39	5.977
371.75	5.882
372.11	5.405
372.47	6.452
372.83	6.340
373.19	5.780
373.55	5.691
373.91	6.333
374.27	6.254
374.63	5.091
374.99	6.285
375.35	5.652
375.71	6.374
376.07	6.927
376.42	6.259
376.78	6.494
377.14	5.834
377.50	6.026
377.86	4.920
378.22	6.953
378.58	5.388
378.94	6.034
379.30	5.407
379.66	6.218
380.02	5.897
380.38	5.343
380.74	6.303
381.09	6.296
381.45	5.839
381.81	6.880
382.17	6.561
382.53	6.478
382.89	5.988
383.25	6.066
383.61	6.010
383.97	7.192
384.32	6.862
384.68	6.196
385.04	6.269
385.40	5.263
385.76	6.020
386.12	6.153
386.48	6.104
386.83	6.607
387.19	6.988
387.55	6.184
387.91	5.865
388.27	5.947
388.62	7.007
388.98	6.757
389.34	6.884
389.70	5.763
390.06	7.098
390.42	6.226
390.77	7.570
391.13	6.063
391.49	6.726
391.85	6.620
392.20	5.804
392.56	6.566
392.92	6.651
393.28	5.562
393.64	6.894
393.99	6.536
394.35	6.203
394.71	7.089
395.07	5.794
395.42	5.871
395.78	6.807
396.14	6.890
396.50	6.454
396.85	6.802
397.21	7.213
397.57	6.200
397.92	6.911
398.28	6.334
398.64	7.228
399.00	5.988
399.35	5.866
399.71	6.366
400.07	6.919
400.42	6.258
400.78	6.996
401.14	5.427
401.49	6.866
401.85	5.989
402.21	6.168
402.57	5.799
402.92	5.927
403.28	6.246
403.63	6.559
403.99	5.669
404.35	6.242
404.70	5.396
405.06	6.115
405.42	6.301
405.77	6.057
406.13	6.038
406.49	6.032
406.84	7.206
407.20	5.378
407.55	6.765
407.91	6.600
408.27	6.318
408.62	7.044
408.98	6.495
409.34	6.396
409.69	6.645
410.05	5.824
410.40	6.422
410.76	6.750
411.11	7.238
411.47	6.645
411.83	7.514
412.18	6.617
412.54	6.164
412.89	6.807
413.25	6.257
413.60	6.547
413.96	6.800
414.31	6.197
414.67	6.781
415.03	6.755
415.38	7.281
415.74	6.559
416.09	6.989
416.45	6.024
416.80	6.147
417.16	7.373
417.51	7.167
417.87	5.909
418.22	6.625
418.58	7.037
418.93	6.757
419.29	7.066
419.64	7.997
420.00	6.829
420.35	6.493
420.71	7.412
421.06	6.026
421.42	6.491
421.77	7.119
422.12	6.008
422.48	5.613
422.83	6.698
423.19	6.519
423.54	6.558
423.90	6.841
424.25	7.370
424.61	6.250
424.96	6.531
425.31	6.423
425.67	6.348
426.02	6.457
426.38	7.082
426.73	6.554
427.09	6.383
427.44	6.440
427.79	6.325
428.15	7.083
428.50	6.905
428.85	6.496
429.21	6.350
429.56	5.962
429.92	6.039
430.27	6.107
430.62	6.042
430.98	6.798
431.33	6.495
431.68	6.911
432.04	7.082
432.39	6.225
432.74	6.463
433.10	6.508
433.45	6.414
433.80	6.319
434.16	6.303
434.51	6.211
434.86	6.613
435.22	5.670
435.57	5.714
435.92	6.612
436.28	6.821
436.63	7.616
436.98	6.068
437.34	7.335
437.69	6.884
438.04	6.071
438.39	6.866
438.75	6.043
439.10	6.927
439.45	6.257
439.81	6.344
440.16	6.776
440.51	7.147
440.86	6.485
441.22	5.729
441.57	6.635
441.92	6.653
442.27	6.835
442.63	6.056
442.98	7.042
443.33	6.576
443.68	6.866
444.03	6.442
444.39	5.696
444.74	6.331
445.09	5.984
445.44	6.452
445.79	6.828
446.15	7.200
446.50	6.139
446.85	6.064
447.20	6.272
447.55	6.365
447.91	6.619
448.26	6.678
448.61	6.557
448.96	6.921
449.31	7.705
449.66	6.134
450.02	6.184
450.37	6.689
450.72	6.204
451.07	6.886
451.42	6.383
451.77	7.692
452.12	7.275
452.47	6.405
452.83	7.226
453.18	6.540
453.53	7.236
453.88	6.438
454.23	7.472
454.58	7.026
454.93	6.675
455.28	6.983
455.63	6.857
455.98	7.619
456.34	7.098
456.69	6.951
457.04	7.059
457.39	6.838
457.74	6.152
458.09	7.246
458.44	6.784
458.79	5.803
459.14	6.546
459.49	7.297
459.84	6.648
460.19	6.659
460.54	6.771
460.89	6.199
461.24	6.982
461.59	7.263
461.94	7.028
462.29	7.300
462.64	7.084
462.99	6.962
463.34	7.800
463.69	7.192
464.04	6.957
464.39	7.536
464.74	6.417
465.09	6.755
465.44	5.928
465.79	6.488
466.14	6.240
466.49	7.119
466.84	7.414
467.19	7.423
467.54	7.312
467.89	7.023
468.24	6.864
468.59	8.059
468.94	6.842
469.29	7.905
469.64	7.631
469.99	7.240
470.34	6.407
470.68	7.759
471.03	7.551
471.38	7.714
471.73	6.795
472.08	8.026
472.43	6.847
472.78	7.834
473.13	7.125
473.48	6.929
473.83	7.378
474.17	6.783
474.52	7.568
474.87	7.589
475.22	7.023
475.57	7.039
475.92	6.160
476.27	6.652
476.61	6.398
476.96	6.157
477.31	6.175
477.66	6.674
478.01	6.482
478.36	6.875
478.70	6.127
479.05	7.135
479.40	6.704
479.75	6.507
480.10	5.765
480.45	6.378
480.79	6.068
481.14	6.262
481.49	6.455
481.84	6.310
482.19	6.043
482.53	6.101
482.88	6.329
483.23	5.514
483.58	7.416
483.92	6.560
484.27	5.490
484.62	6.207
484.97	5.912
485.31	5.753
485.66	5.261
486.01	4.403
486.36	4.173
486.70	4.319
487.05	4.804
487.40	5.184
487.75	5.093
488.09	5.611
488.44	5.504
488.79	5.606
489.13	6.188
489.48	5.628
489.83	5.395
490.17	5.962
490.52	5.846
490.87	5.834
491.22	5.821
491.56	5.558
491.91	5.817
492.26	6.155
492.60	6.129
492.95	5.613
493.30	6.449
493.64	5.646
493.99	5.385
494.34	6.290
494.68	6.593
495.03	6.814
495.37	6.701
495.72	5.750
496.07	6.543
496.41	5.487
496.76	6.508
497.11	6.394
497.45	6.102
497.80	6.382
498.14	5.749
498.49	6.098
498.84	6.280
499.18	6.238
499.53	5.888
499.87	5.825
500.22	6.547
500.56	6.942
500.91	5.817
501.26	6.449
501.60	6.692
501.95	6.279
502.29	6.186
502.64	6.192
502.98	6.031
503.33	5.987
503.67	6.497
504.02	5.847
504.36	6.411
504.71	6.693
505.06	6.361
505.40	6.174
505.75	6.461
506.09	5.928
506.44	5.723
506.78	6.040
507.13	5.856
507.47	6.970
507.82	7.143
508.16	6.940
508.51	6.900
508.85	6.207
509.19	5.969
509.54	6.173
509.88	6.285
510.23	6.375
510.57	6.966
510.92	6.318
511.26	6.578
511.61	6.795
511.95	6.420
512.30	6.310
512.64	6.556
512.98	6.377
513.33	6.906
513.67	6.403
514.02	6.548
514.36	7.264
514.70	6.475
515.05	6.748
515.39	6.730
515.74	7.264
516.08	7.546
516.42	7.603
516.77	7.302
517.11	6.215
517.46	6.941
517.80	7.201
518.14	6.659
518.49	6.768
518.83	7.841
519.17	6.755
519.52	7.074
519.86	7.473
520.20	7.803
520.55	6.703
520.89	7.664
521.23	7.479
521.58	7.383
521.92	7.287
522.26	7.077
522.61	7.040
522.95	6.875
523.29	7.121
523.64	7.256
523.98	7.702
524.32	6.876
524.66	7.817
525.01	7.353
525.35	7.311
525.69	7.820
526.04	6.916
526.38	7.077
526.72	7.914
527.06	7.721
527.41	6.312
527.75	7.460
528.09	7.450
528.43	7.648
528.78	7.621
529.12	7.273
529.46	6.920
529.80	7.364
530.15	8.162
530.49	7.077
530.83	7.468
531.17	7.963
531.51	8.042
531.86	7.161
532.20	8.214
532.54	7.431
532.88	7.895
533.22	6.683
533.57	7.160
533.91	6.502
534.25	7.230
534.59	7.261
534.93	7.912
535.27	7.302
535.62	7.631
535.96	7.345
536.30	7.311
536.64	7.212
536.98	8.626
537.32	7.176
537.66	7.267
538.01	8.032
538.35	8.145
538.69	7.722
539.03	7.212
539.37	6.326
539.71	6.481
540.05	6.797
540.39	7.309
540.73	7.309
541.07	7.917
541.42	7.828
541.76	8.581
542.10	7.245
542.44	6.887
542.78	8.235
543.12	7.358
543.46	7.934
543.80	7.677
544.14	6.932
544.48	7.302
544.82	6.928
545.16	7.027
545.50	7.648
545.84	7.325
546.18	6.869
546.52	7.708
546.86	7.354
547.20	7.620
547.54	7.682
547.88	8.355
548.22	7.410
548.56	7.673
548.90	6.594
549.24	7.071
549.58	7.572
549.92	7.692
550.26	8.097
550.60	7.607
550.94	7.746
551.28	6.950
551.62	7.692
551.96	8.421
552.30	7.986
552.64	7.640
552.98	7.322
553.32	7.889
553.66	8.044
554.00	8.579
554.34	7.660
554.68	8.083
555.02	7.687
555.36	8.072
555.69	7.578
556.03	7.672
556.37	7.844
556.71	7.572
557.05	7.913
557.39	7.628
557.73	8.116
558.07	7.397
558.41	8.394
558.75	8.450
559.08	8.576
559.42	7.559
559.76	8.235
560.10	7.852
560.44	7.128
560.78	6.919
561.12	7.916
561.45	8.214
561.79	7.185
562.13	7.243
562.47	8.402
562.81	7.531
563.15	8.027
563.48	7.759
563.82	7.893
564.16	7.194
564.50	6.771
564.84	7.080
565.17	7.207
565.51	7.284
565.85	7.995
566.19	7.264
566.52	7.283
566.86	6.269
567.20	8.432
567.54	6.792
567.88	5.921
568.21	7.566
568.55	6.673
568.89	6.420
569.23	6.061
569.56	5.668
569.90	5.811
570.24	5.454
570.57	5.406
570.91	5.204
571.25	5.312
571.59	5.390
571.92	5.213
572.26	5.286
572.60	5.315
572.93	5.037
573.27	5.413
573.61	5.248
573.95	5.116
574.28	5.151
574.62	4.859
574.96	4.898
575.29	4.995
575.63	4.903
575.97	4.738
576.30	5.337
576.64	5.029
576.98	4.740
577.31	4.621
577.65	5.038
577.98	4.865
578.32	4.627
578.66	4.864
578.99	4.839
579.33	5.059
579.67	4.427
580.00	4.843
580.34	4.865
580.67	5.129
581.01	4.880
581.35	4.827
581.68	4.854
582.02	4.443
582.35	4.882
582.69	4.813
583.02	4.708
583.36	5.050
583.70	5.195
584.03	5.068
584.37	5.534
584.70	4.937
585.04	5.528
585.37	5.149
585.71	5.005
586.04	5.025
586.38	5.094
586.72	5.689
587.05	5.243
587.39	5.040
587.72	5.411
588.06	4.883
588.39	5.240
588.73	4.987
589.06	5.422
589.40	5.488
589.73	5.667
590.07	5.836
590.40	5.261
590.73	5.972
591.07	6.064
591.40	6.158
591.74	6.580
592.07	6.108
592.41	6.366
592.74	5.730
593.08	5.630
593.41	5.441
593.75	5.153
594.08	5.598
594.41	6.186
594.75	5.397
595.08	5.941
595.42	6.165
595.75	5.627
596.09	5.708
596.42	6.090
596.75	6.036
597.09	6.970
597.42	5.607
597.75	6.598
598.09	6.304
598.42	5.713
598.76	5.878
599.09	5.511
599.42	5.349
599.76	5.930
600.09	5.282
600.42	5.953
600.76	5.536
601.09	5.574
601.42	5.936
601.76	5.655
602.09	6.245
602.42	6.011
602.76	6.207
603.09	6.058
603.42	6.209
603.76	5.450
604.09	5.584
604.42	5.748
604.76	6.495
605.09	6.073
605.42	6.071
605.75	6.002
606.09	5.327
606.42	5.762
606.75	6.346
607.09	6.446
607.42	6.205
607.75	5.654
608.08	6.426
608.42	6.365
608.75	6.087
609.08	6.337
609.41	6.997
609.75	6.193
610.08	7.352
610.41	5.866
610.74	5.913
611.07	6.324
611.41	6.379
611.74	6.536
612.07	6.729
612.40	7.293
612.73	6.526
613.07	6.950
613.40	6.372
613.73	6.450
614.06	6.452
614.39	6.607
614.72	7.000
615.06	6.933
615.39	6.476
615.72	6.646
616.05	6.273
616.38	6.948
616.71	6.888
617.05	7.126
617.38	6.194
617.71	6.547
618.04	6.370
618.37	7.215
618.70	7.094
619.03	8.026
619.36	7.671
619.69	7.183
620.03	8.242
620.36	7.152
620.69	8.219
621.02	7.596
621.35	7.831
621.68	7.632
622.01	8.514
622.34	8.018
622.67	7.909
623.00	7.483
623.33	7.291
623.66	8.506
623.99	7.437
624.32	7.703
624.65	7.627
624.99	6.516
625.32	6.734
625.65	8.189
625.98	8.071
626.31	9.020
626.64	8.163
626.97	8.894
627.30	7.398
627.63	9.106
627.96	8.915
628.29	9.274
628.62	9.790
628.95	10.000
629.28	8.942
629.61	10.082
629.94	10.286
630.26	9.247
630.59	8.484
630.92	9.483
631.25	8.687
631.58	9.109
631.91	8.418
632.24	9.072
632.57	9.864
632.90	8.882
633.23	9.843
633.56	10.282
633.89	9.626
634.22	9.762
634.55	10.414
634.88	9.461
635.20	10.992
635.53	8.916
635.86	9.158
636.19	9.059
636.52	8.997
636.85	9.737
637.18	9.793
637.51	11.348
637.83	8.508
638.16	10.614
638.49	11.209
638.82	10.619
639.15	11.625
639.48	10.723
639.81	10.322
640.13	11.458
640.46	9.933
640.79	11.625
641.12	10.041
641.45	10.335
641.77	10.604
642.10	11.404
642.43	9.910
642.76	11.610
643.09	11.963
643.41	10.926
643.74	13.580
644.07	11.433
644.40	12.423
644.73	13.228
645.05	13.788
645.38	12.796
645.71	11.272
646.04	11.628
646.36	14.023
646.69	14.883
647.02	12.415
647.35	11.512
647.67	12.035
648.00	13.821
648.33	11.881
648.66	12.273
648.98	13.343
649.31	10.015
649.64	10.463
649.96	10.432
650.29	11.216
650.62	10.680
650.94	13.290
651.27	13.176
651.60	13.478
651.92	14.696
652.25	11.889
652.58	12.617
652.90	13.428
