SpectraSuite Data File
++++++++++++++++++++++++++++++++++++
Date: Wed May 13 16:21:43 PDT 2015
User: schluterlab
Dark Spectrum Present: Yes
Reference Spectrum Present: Yes
Number of Sampled Component Spectra: 1
Spectrometers: USB2E3373
Integration Time (usec): 3000 (USB2E3373)
Spectra Averaged: 3 (USB2E3373)
Boxcar Smoothing: 0 (USB2E3373)
Correct for Electrical Dark: No (USB2E3373)
Strobe/Lamp Enabled: No (USB2E3373)
Correct for Detector Non-linearity: No (USB2E3373)
Correct for Stray Light: No (USB2E3373)
Number of Pixels in Processed Spectrum: 2048
>>>>>Begin Processed Spectral Data<<<<<
178.53	0.000
178.91	-1475.000
179.29	-1150.000
179.67	-211.111
180.04	-1250.000
180.42	2350.000
180.80	880.000
181.18	-800.000
181.56	700.000
181.94	0.000
182.31	-571.429
182.69	1600.000
183.07	-487.500
183.45	-400.000
183.83	490.909
184.20	-340.000
184.58	2400.000
184.96	5400.000
185.34	-820.000
185.72	-587.500
186.09	-1900.000
186.47	2300.000
186.85	2450.000
187.23	4700.000
187.61	-1700.000
187.98	1225.000
188.36	418.182
188.74	463.636
189.12	-740.000
189.49	510.000
189.87	-4300.000
190.25	-950.000
190.63	414.286
191.00	307.692
191.38	916.667
191.76	-1025.000
192.14	1125.000
192.51	587.500
192.89	833.333
193.27	400.000
193.65	-875.000
194.02	470.000
194.40	820.000
194.78	450.000
195.15	383.333
195.53	550.000
195.91	-1800.000
196.29	318.750
196.66	278.947
197.04	-300.000
197.42	0.000
197.79	610.000
198.17	-4600.000
198.55	757.143
198.92	650.000
199.30	840.000
199.68	0.000
200.05	333.333
200.43	657.143
200.81	3600.000
201.18	1466.667
201.56	-1433.333
201.94	477.778
202.31	522.222
202.69	391.667
203.07	530.000
203.44	0.000
203.82	1300.000
204.19	714.286
204.57	392.857
204.95	625.000
205.32	1500.000
205.70	445.455
206.08	342.857
206.45	2550.000
206.83	350.000
207.20	766.667
207.58	740.000
207.96	272.222
208.33	737.500
208.71	-833.333
209.08	628.571
209.46	511.111
209.84	381.818
210.21	-1500.000
210.59	1250.000
210.96	-475.000
211.34	2250.000
211.71	580.000
212.09	700.000
212.46	0.000
212.84	1600.000
213.22	1250.000
213.59	-4000.000
213.97	816.667
214.34	742.857
214.72	527.273
215.09	900.000
215.47	-2250.000
215.84	-2450.000
216.22	1366.667
216.59	335.714
216.97	1325.000
217.34	354.545
217.72	-716.667
218.09	0.000
218.47	-4300.000
218.84	588.889
219.22	614.286
219.59	1466.667
219.97	-428.571
220.34	820.000
220.72	-1633.333
221.09	378.571
221.47	1625.000
221.84	-850.000
222.22	0.000
222.59	1250.000
222.97	-2250.000
223.34	1020.000
223.72	423.077
224.09	1000.000
224.46	1850.000
224.84	-3900.000
225.21	-780.000
225.59	-5000.000
225.96	550.000
226.34	235.000
226.71	2600.000
227.08	537.500
227.46	460.000
227.83	-775.000
228.21	-2350.000
228.58	544.444
228.95	-1850.000
229.33	-2250.000
229.70	1533.333
230.08	685.714
230.45	-820.000
230.82	416.667
231.20	883.333
231.57	500.000
231.95	433.333
232.32	195.455
232.69	400.000
233.07	671.429
233.44	307.692
233.81	-1466.667
234.19	278.947
234.56	458.333
234.93	341.667
235.31	390.909
235.68	300.000
236.05	314.286
236.43	145.455
236.80	194.737
237.17	3500.000
237.55	180.952
237.92	167.857
238.29	190.476
238.67	170.968
239.04	168.966
239.41	127.778
239.79	97.826
240.16	126.190
240.53	106.818
240.91	76.471
241.28	94.000
241.65	78.000
242.02	72.464
242.40	64.516
242.77	73.333
243.14	56.989
243.51	70.787
243.89	57.647
244.26	43.333
244.63	52.688
245.00	40.426
245.38	45.545
245.75	42.991
246.12	45.872
246.49	52.555
246.87	49.600
247.24	39.231
247.61	38.571
247.98	35.948
248.36	29.730
248.73	33.121
249.10	35.669
249.47	29.379
249.84	29.947
250.22	31.016
250.59	25.444
250.96	27.273
251.33	30.332
251.70	28.713
252.08	26.190
252.45	22.870
252.82	26.522
253.19	25.106
253.56	30.588
253.94	27.386
254.31	22.656
254.68	24.615
255.05	23.616
255.42	23.577
255.79	23.897
256.16	22.022
256.54	18.021
256.91	25.267
257.28	17.626
257.65	19.802
258.02	21.118
258.39	16.088
258.76	16.722
259.14	17.857
259.51	18.541
259.88	16.770
260.25	18.731
260.62	15.607
260.99	19.565
261.36	18.018
261.73	19.771
262.10	16.570
262.47	18.310
262.85	17.827
263.22	13.675
263.59	18.519
263.96	16.758
264.33	15.666
264.70	19.474
265.07	18.414
265.44	16.919
265.81	14.842
266.18	16.834
266.55	14.146
266.92	16.462
267.29	17.593
267.66	15.596
268.03	16.591
268.40	12.850
268.77	14.081
269.14	14.189
269.51	16.930
269.88	15.152
270.25	18.059
270.62	15.955
270.99	17.849
271.36	16.524
271.73	14.953
272.10	15.000
272.47	18.710
272.84	16.017
273.21	16.143
273.58	13.537
273.95	13.627
274.32	13.843
274.69	15.203
275.06	15.354
275.43	15.106
275.80	15.631
276.17	13.035
276.54	14.345
276.91	14.229
277.28	14.062
277.65	14.507
278.02	13.665
278.39	14.453
278.76	13.455
279.13	16.038
279.50	12.663
279.87	14.343
280.23	12.575
280.60	13.346
280.97	13.309
281.34	13.805
281.71	16.727
282.08	14.587
282.45	12.364
282.82	13.854
283.19	10.695
283.56	13.158
283.92	13.029
284.29	10.758
284.66	11.252
285.03	12.116
285.40	13.556
285.77	12.458
286.14	12.263
286.51	13.667
286.87	13.333
287.24	14.821
287.61	12.520
287.98	11.526
288.35	13.154
288.72	12.150
289.08	14.085
289.45	12.026
289.82	13.496
290.19	10.675
290.56	11.945
290.93	9.215
291.29	11.810
291.66	11.652
292.03	14.244
292.40	11.454
292.77	10.355
293.13	11.343
293.50	12.245
293.87	9.778
294.24	10.370
294.60	10.335
294.97	11.192
295.34	11.425
295.71	10.511
296.08	10.256
296.44	10.041
296.81	10.832
297.18	12.331
297.55	8.443
297.91	10.290
298.28	10.576
298.65	11.097
299.02	10.935
299.38	9.960
299.75	8.356
300.12	9.195
300.48	10.000
300.85	9.001
301.22	9.045
301.59	8.207
301.95	9.068
302.32	10.013
302.69	10.394
303.05	9.818
303.42	8.395
303.79	9.400
304.15	7.343
304.52	8.343
304.89	8.943
305.25	9.049
305.62	8.381
305.99	9.445
306.35	7.606
306.72	8.744
307.09	8.990
307.45	10.473
307.82	8.929
308.19	9.492
308.55	9.385
308.92	8.163
309.29	7.920
309.65	7.953
310.02	9.408
310.38	8.817
310.75	9.293
311.12	9.110
311.48	8.150
311.85	9.644
312.22	8.325
312.58	8.524
312.95	8.976
313.31	7.476
313.68	8.420
314.05	10.059
314.41	7.538
314.78	8.056
315.14	8.739
315.51	9.475
315.87	8.812
316.24	8.640
316.61	8.869
316.97	8.708
317.34	7.241
317.70	8.509
318.07	8.470
318.43	9.393
318.80	9.278
319.16	8.475
319.53	8.630
319.89	8.952
320.26	10.000
320.62	8.631
320.99	9.495
321.35	9.394
321.72	9.651
322.08	9.279
322.45	10.746
322.81	9.302
323.18	10.694
323.54	10.204
323.91	9.434
324.27	10.038
324.64	8.760
325.00	9.648
325.37	11.010
325.73	9.874
326.10	10.238
326.46	8.602
326.83	10.958
327.19	11.443
327.56	10.627
327.92	10.586
328.29	12.067
328.65	11.418
329.01	11.191
329.38	11.286
329.74	11.357
330.11	11.404
330.47	12.672
330.84	12.868
331.20	11.566
331.56	13.303
331.93	13.056
332.29	13.310
332.66	13.451
333.02	12.888
333.38	13.369
333.75	13.012
334.11	14.947
334.48	13.398
334.84	13.051
335.20	13.364
335.57	13.871
335.93	12.946
336.29	13.462
336.66	14.247
337.02	11.946
337.38	14.722
337.75	13.458
338.11	14.772
338.47	13.904
338.84	14.482
339.20	12.752
339.56	14.507
339.93	14.182
340.29	13.587
340.65	13.815
341.02	15.183
341.38	14.146
341.74	12.807
342.11	14.061
342.47	14.097
342.83	14.384
343.20	14.978
343.56	13.901
343.92	13.947
344.28	14.286
344.65	15.047
345.01	13.721
345.37	13.894
345.73	13.959
346.10	14.066
346.46	13.644
346.82	14.580
347.19	14.202
347.55	13.793
347.91	14.078
348.27	13.476
348.63	14.214
349.00	14.806
349.36	13.629
349.72	14.996
350.08	14.749
350.45	14.727
350.81	13.647
351.17	13.695
351.53	13.186
351.89	14.604
352.26	14.365
352.62	14.354
352.98	14.506
353.34	14.051
353.70	12.766
354.07	14.032
354.43	13.730
354.79	13.274
355.15	13.887
355.51	14.708
355.87	13.224
356.24	14.007
356.60	14.354
356.96	15.286
357.32	14.636
357.68	14.724
358.04	14.014
358.40	14.568
358.77	14.085
359.13	12.076
359.49	15.216
359.85	13.016
360.21	14.593
360.57	15.253
360.93	13.538
361.29	14.512
361.66	13.854
362.02	15.000
362.38	14.677
362.74	14.583
363.10	14.508
363.46	14.160
363.82	14.286
364.18	14.831
364.54	15.230
364.90	14.943
365.26	14.338
365.62	15.340
365.98	15.047
366.35	13.467
366.71	14.895
367.07	14.202
367.43	14.151
367.79	14.561
368.15	15.302
368.51	14.535
368.87	15.061
369.23	14.484
369.59	15.568
369.95	14.044
370.31	14.957
370.67	13.913
371.03	16.180
371.39	15.087
371.75	15.294
372.11	15.505
372.47	15.323
372.83	16.282
373.19	14.451
373.55	15.373
373.91	15.906
374.27	14.364
374.63	14.182
374.99	15.678
375.35	15.771
375.71	15.764
376.07	16.118
376.42	14.924
376.78	15.971
377.14	15.400
377.50	15.762
377.86	14.827
378.22	16.182
378.58	15.038
378.94	15.713
379.30	15.840
379.66	15.799
380.02	15.663
380.38	15.422
380.74	16.086
381.09	15.892
381.45	16.595
381.81	16.585
382.17	16.242
382.53	16.667
382.89	16.111
383.25	15.947
383.61	16.481
383.97	16.135
384.32	16.032
384.68	17.100
385.04	16.718
385.40	16.037
385.76	16.646
386.12	16.904
386.48	16.803
386.83	16.549
387.19	17.687
387.55	16.883
387.91	16.566
388.27	16.922
388.62	16.902
388.98	16.278
389.34	17.960
389.70	17.106
390.06	17.110
390.42	17.964
390.77	17.875
391.13	16.975
391.49	17.386
391.85	16.359
392.20	16.845
392.56	16.604
392.92	17.716
393.28	15.976
393.64	17.206
393.99	17.654
394.35	17.246
394.71	17.440
395.07	16.822
395.42	17.058
395.78	17.684
396.14	17.877
396.50	17.356
396.85	17.165
397.21	16.584
397.57	17.545
397.92	16.947
398.28	16.648
398.64	18.877
399.00	17.124
399.35	17.033
399.71	17.072
400.07	17.031
400.42	17.607
400.78	17.672
401.14	17.378
401.49	18.030
401.85	16.576
402.21	17.246
402.57	16.841
402.92	17.844
403.28	17.489
403.63	17.017
403.99	18.217
404.35	18.000
404.70	17.746
405.06	17.006
405.42	17.280
405.77	16.457
406.13	16.422
406.49	17.800
406.84	17.425
407.20	16.844
407.55	17.869
407.91	17.733
408.27	16.592
408.62	17.279
408.98	16.544
409.34	17.282
409.69	17.742
410.05	17.472
410.40	17.370
410.76	17.443
411.11	17.551
411.47	18.019
411.83	17.776
412.18	16.698
412.54	17.870
412.89	17.169
413.25	16.470
413.60	17.851
413.96	16.697
414.31	17.618
414.67	17.047
415.03	17.086
415.38	17.912
415.74	17.299
416.09	18.354
416.45	17.202
416.80	17.184
417.16	17.493
417.51	17.784
417.87	17.726
418.22	18.675
418.58	17.818
418.93	17.322
419.29	17.759
419.64	17.569
420.00	17.805
420.35	17.101
420.71	16.975
421.06	17.124
421.42	17.602
421.77	17.769
422.12	16.732
422.48	16.460
422.83	17.589
423.19	17.348
423.54	18.050
423.90	18.377
424.25	17.644
424.61	17.619
424.96	17.901
425.31	18.439
425.67	17.022
426.02	17.314
426.38	18.620
426.73	17.145
427.09	17.812
427.44	17.136
427.79	17.424
428.15	18.095
428.50	17.379
428.85	18.236
429.21	17.338
429.56	17.004
429.92	17.363
430.27	17.627
430.62	17.102
430.98	17.436
431.33	17.680
431.68	17.435
432.04	17.252
432.39	17.990
432.74	17.654
433.10	18.053
433.45	18.601
433.80	17.406
434.16	17.094
434.51	17.842
434.86	17.389
435.22	17.454
435.57	17.994
435.92	17.905
436.28	18.327
436.63	18.267
436.98	17.573
437.34	18.306
437.69	19.137
438.04	18.381
438.39	17.731
438.75	18.245
439.10	18.659
439.45	17.887
439.81	18.127
440.16	17.674
440.51	17.692
440.86	18.529
441.22	17.909
441.57	17.781
441.92	18.475
442.27	17.653
442.63	18.167
442.98	18.535
443.33	19.348
443.68	17.914
444.03	18.790
444.39	18.160
444.74	17.911
445.09	18.221
445.44	18.480
445.79	18.308
446.15	18.581
446.50	18.309
446.85	18.191
447.20	18.511
447.55	18.872
447.91	18.809
448.26	18.364
448.61	18.259
448.96	19.324
449.31	18.673
449.66	18.796
450.02	17.772
450.37	18.707
450.72	18.387
451.07	17.733
451.42	17.751
451.77	19.084
452.12	18.764
452.47	18.470
452.83	19.114
453.18	18.888
453.53	19.295
453.88	19.079
454.23	19.725
454.58	19.927
454.93	19.644
455.28	18.329
455.63	18.932
455.98	19.821
456.34	18.719
456.69	18.723
457.04	19.381
457.39	18.819
457.74	19.037
458.09	18.919
458.44	19.270
458.79	18.384
459.14	18.679
459.49	19.731
459.84	18.615
460.19	18.091
460.54	19.560
460.89	18.541
461.24	19.429
461.59	20.046
461.94	18.742
462.29	20.119
462.64	18.953
462.99	19.388
463.34	19.667
463.69	19.637
464.04	19.826
464.39	19.014
464.74	19.548
465.09	18.999
465.44	19.446
465.79	19.239
466.14	18.938
466.49	18.966
466.84	19.206
467.19	19.252
467.54	19.375
467.89	18.487
468.24	19.139
468.59	18.742
468.94	19.792
469.29	20.308
469.64	20.214
469.99	19.959
470.34	19.221
470.68	19.253
471.03	20.680
471.38	20.570
471.73	20.520
472.08	20.592
472.43	19.849
472.78	19.684
473.13	19.705
473.48	19.476
473.83	19.146
474.17	19.913
474.52	20.782
474.87	19.556
475.22	19.269
475.57	19.130
475.92	19.012
476.27	19.448
476.61	19.360
476.96	19.406
477.31	19.885
477.66	20.131
478.01	19.864
478.36	19.566
478.70	18.536
479.05	19.595
479.40	19.038
479.75	19.115
480.10	18.936
480.45	19.229
480.79	18.777
481.14	18.885
481.49	19.744
481.84	19.159
482.19	19.128
482.53	18.853
482.88	18.753
483.23	18.832
483.58	19.336
483.92	19.213
484.27	18.519
484.62	18.233
484.97	18.881
485.31	18.596
485.66	17.822
486.01	17.207
486.36	15.888
486.70	16.197
487.05	16.712
487.40	17.365
487.75	17.689
488.09	18.623
488.44	18.212
488.79	19.168
489.13	19.442
489.48	18.923
489.83	19.206
490.17	19.728
490.52	19.088
490.87	18.589
491.22	19.554
491.56	18.132
491.91	18.939
492.26	18.833
492.60	19.171
492.95	18.616
493.30	19.065
493.64	18.712
493.99	18.895
494.34	18.548
494.68	19.505
495.03	19.784
495.37	19.311
495.72	18.957
496.07	19.814
496.41	18.673
496.76	18.997
497.11	18.640
497.45	19.748
497.80	19.914
498.14	19.179
498.49	19.073
498.84	19.511
499.18	19.048
499.53	18.661
499.87	19.525
500.22	19.077
500.56	20.049
500.91	19.471
501.26	19.109
501.60	20.551
501.95	19.661
502.29	20.619
502.64	19.739
502.98	20.196
503.33	19.698
503.67	19.490
504.02	19.036
504.36	20.028
504.71	19.834
505.06	19.759
505.40	19.640
505.75	18.901
506.09	19.728
506.44	19.931
506.78	19.581
507.13	20.949
507.47	20.606
507.82	20.770
508.16	20.162
508.51	20.700
508.85	20.209
509.19	20.153
509.54	19.490
509.88	20.299
510.23	20.463
510.57	21.311
510.92	20.818
511.26	20.812
511.61	19.969
511.95	20.459
512.30	20.891
512.64	20.903
512.98	20.847
513.33	20.289
513.67	20.384
514.02	19.535
514.36	21.628
514.70	21.804
515.05	21.249
515.39	20.864
515.74	20.946
516.08	21.968
516.42	21.143
516.77	22.129
517.11	21.310
517.46	21.332
517.80	20.790
518.14	21.367
518.49	21.937
518.83	21.534
519.17	21.074
519.52	21.279
519.86	21.221
520.20	22.717
520.55	22.621
520.89	21.472
521.23	22.738
521.58	21.969
521.92	21.617
522.26	21.232
522.61	22.118
522.95	22.222
523.29	22.824
523.64	22.622
523.98	21.811
524.32	22.557
524.66	22.730
525.01	22.549
525.35	21.375
525.69	20.998
526.04	22.741
526.38	23.002
526.72	21.718
527.06	22.662
527.41	22.401
527.75	23.280
528.09	21.965
528.43	22.945
528.78	22.926
529.12	22.242
529.46	23.209
529.80	22.092
530.15	22.181
530.49	21.969
530.83	23.481
531.17	22.977
531.51	23.476
531.86	22.258
532.20	23.598
532.54	23.511
532.88	22.336
533.22	22.548
533.57	22.469
533.91	22.757
534.25	22.114
534.59	21.965
534.93	22.249
535.27	22.752
535.62	22.894
535.96	22.473
536.30	22.187
536.64	23.310
536.98	23.358
537.32	22.251
537.66	23.200
538.01	23.173
538.35	22.754
538.69	23.740
539.03	22.157
539.37	22.045
539.71	21.517
540.05	22.222
540.39	23.189
540.73	21.669
541.07	22.777
541.42	23.222
541.76	23.161
542.10	22.510
542.44	23.179
542.78	23.913
543.12	22.649
543.46	22.098
543.80	22.967
544.14	21.951
544.48	23.302
544.82	23.477
545.16	23.097
545.50	21.594
545.84	22.917
546.18	22.492
546.52	23.331
546.86	22.887
547.20	23.871
547.54	23.781
547.88	23.788
548.22	23.288
548.56	22.390
548.90	21.831
549.24	23.030
549.58	23.533
549.92	22.459
550.26	23.793
550.60	22.061
550.94	23.592
551.28	22.751
551.62	22.933
551.96	22.526
552.30	23.072
552.64	23.327
552.98	23.390
553.32	23.466
553.66	23.517
554.00	23.610
554.34	21.808
554.68	23.677
555.02	21.932
555.36	22.477
555.69	23.410
556.03	22.611
556.37	23.806
556.71	22.510
557.05	22.759
557.39	22.743
557.73	22.371
558.07	23.423
558.41	22.576
558.75	23.218
559.08	23.415
559.42	23.507
559.76	23.603
560.10	22.912
560.44	22.781
560.78	21.224
561.12	23.153
561.45	22.621
561.79	22.347
562.13	22.938
562.47	23.566
562.81	22.734
563.15	22.207
563.48	22.546
563.82	21.918
564.16	22.629
564.50	22.135
564.84	22.819
565.17	21.622
565.51	22.300
565.85	22.652
566.19	22.104
566.52	22.926
566.86	22.423
567.20	21.698
567.54	21.176
567.88	20.695
568.21	21.481
568.55	20.880
568.89	20.477
569.23	20.766
569.56	19.474
569.90	20.226
570.24	19.699
570.57	18.905
570.91	19.683
571.25	18.777
571.59	18.763
571.92	18.836
572.26	18.660
572.60	19.129
572.93	18.951
573.27	19.166
573.61	19.291
573.95	18.682
574.28	18.417
574.62	18.294
574.96	18.280
575.29	18.453
575.63	18.064
575.97	18.771
576.30	19.118
576.64	18.271
576.98	18.255
577.31	18.276
577.65	18.545
577.98	17.933
578.32	17.693
578.66	18.050
578.99	18.055
579.33	18.422
579.67	18.268
580.00	18.461
580.34	18.889
580.67	18.341
581.01	18.597
581.35	18.020
581.68	17.761
582.02	16.827
582.35	17.269
582.69	17.775
583.02	17.514
583.36	18.561
583.70	18.506
584.03	18.600
584.37	19.183
584.70	18.391
585.04	19.154
585.37	17.964
585.71	19.008
586.04	18.314
586.38	18.548
586.72	18.890
587.05	18.337
587.39	18.443
587.72	18.578
588.06	18.543
588.39	18.464
588.73	18.950
589.06	18.791
589.40	19.091
589.73	19.430
590.07	19.431
590.40	19.547
590.73	19.945
591.07	19.780
591.40	19.949
591.74	20.390
592.07	20.419
592.41	20.587
592.74	19.625
593.08	18.854
593.41	18.190
593.75	17.770
594.08	18.840
594.41	19.866
594.75	18.965
595.08	19.005
595.42	18.809
595.75	19.124
596.09	20.128
596.42	19.921
596.75	20.093
597.09	20.693
597.42	18.845
597.75	20.009
598.09	20.435
598.42	19.287
598.76	19.051
599.09	18.510
599.42	18.486
599.76	18.704
600.09	19.126
600.42	18.262
600.76	19.179
601.09	18.871
601.42	19.597
601.76	19.431
602.09	19.091
602.42	18.869
602.76	19.307
603.09	19.158
603.42	19.328
603.76	18.483
604.09	18.728
604.42	19.242
604.76	19.696
605.09	19.091
605.42	19.324
605.75	19.454
606.09	18.707
606.42	19.330
606.75	18.872
607.09	19.674
607.42	18.956
607.75	18.397
608.08	18.758
608.42	20.036
608.75	19.252
609.08	19.519
609.41	19.419
609.75	19.200
610.08	20.217
610.41	19.832
610.74	18.921
611.07	20.208
611.41	20.314
611.74	19.960
612.07	20.911
612.40	19.622
612.73	19.737
613.07	20.097
613.40	20.432
613.73	19.192
614.06	19.677
614.39	20.084
614.72	19.842
615.06	20.536
615.39	19.745
615.72	19.530
616.05	19.564
616.38	20.067
616.71	21.437
617.05	20.495
617.38	20.505
617.71	21.381
618.04	19.832
618.37	20.284
618.70	20.535
619.03	21.776
619.36	21.792
619.69	21.620
620.03	22.047
620.36	20.655
620.69	22.534
621.02	22.345
621.35	21.378
621.68	21.417
622.01	21.130
622.34	21.256
622.67	21.293
623.00	20.983
623.33	20.372
623.66	21.301
623.99	21.429
624.32	20.756
624.65	21.610
624.99	21.388
625.32	21.361
625.65	22.239
625.98	22.214
626.31	22.162
626.64	22.612
626.97	22.610
627.30	22.693
627.63	22.477
627.96	23.129
628.29	22.310
628.62	22.964
628.95	24.811
629.28	23.266
629.61	23.098
629.94	22.667
630.26	23.070
630.59	22.593
630.92	22.605
631.25	22.902
631.58	23.023
631.91	24.037
632.24	23.101
632.57	23.505
