SpectraSuite Data File
++++++++++++++++++++++++++++++++++++
Date: Wed May 13 16:55:53 PDT 2015
User: schluterlab
Dark Spectrum Present: Yes
Reference Spectrum Present: Yes
Number of Sampled Component Spectra: 1
Spectrometers: USB2E3373
Integration Time (usec): 3000 (USB2E3373)
Spectra Averaged: 3 (USB2E3373)
Boxcar Smoothing: 0 (USB2E3373)
Correct for Electrical Dark: No (USB2E3373)
Strobe/Lamp Enabled: No (USB2E3373)
Correct for Detector Non-linearity: No (USB2E3373)
Correct for Stray Light: No (USB2E3373)
Number of Pixels in Processed Spectrum: 2048
>>>>>Begin Processed Spectral Data<<<<<
178.53	0.000
178.91	-1300.000
179.29	-1200.000
179.67	-266.667
180.04	-1450.000
180.42	2800.000
180.80	1240.000
181.18	-1025.000
181.56	885.714
181.94	0.000
182.31	-742.857
182.69	1500.000
183.07	-550.000
183.45	-455.556
183.83	600.000
184.20	-350.000
184.58	2200.000
184.96	4600.000
185.34	-740.000
185.72	-637.500
186.09	-2400.000
186.47	2600.000
186.85	2550.000
187.23	5500.000
187.61	-1766.667
187.98	1250.000
188.36	572.727
188.74	445.455
189.12	-920.000
189.49	470.000
189.87	-5200.000
190.25	-1350.000
190.63	414.286
191.00	476.923
191.38	783.333
191.76	-1300.000
192.14	1425.000
192.51	662.500
192.89	950.000
193.27	612.500
193.65	-1300.000
194.02	560.000
194.40	1000.000
194.78	570.000
195.15	458.333
195.53	700.000
195.91	-2500.000
196.29	356.250
196.66	289.474
197.04	-340.000
197.42	0.000
197.79	650.000
198.17	-5000.000
198.55	642.857
198.92	712.500
199.30	940.000
199.68	0.000
200.05	361.111
200.43	828.571
200.81	4000.000
201.18	1633.333
201.56	-1733.333
201.94	511.111
202.31	511.111
202.69	483.333
203.07	590.000
203.44	0.000
203.82	1200.000
204.19	785.714
204.57	378.571
204.95	600.000
205.32	1600.000
205.70	454.545
206.08	378.571
206.45	2650.000
206.83	343.750
207.20	933.333
207.58	880.000
207.96	372.222
208.33	662.500
208.71	-966.667
209.08	657.143
209.46	500.000
209.84	445.455
210.21	-1500.000
210.59	1450.000
210.96	-487.500
211.34	2500.000
211.71	550.000
212.09	650.000
212.46	0.000
212.84	1666.667
213.22	1425.000
213.59	-4400.000
213.97	750.000
214.34	842.857
214.72	581.818
215.09	1180.000
215.47	-1900.000
215.84	-2350.000
216.22	1733.333
216.59	421.429
216.97	1300.000
217.34	509.091
217.72	-566.667
218.09	0.000
218.47	-4900.000
218.84	688.889
219.22	685.714
219.59	2133.333
219.97	-585.714
220.34	1080.000
220.72	-1800.000
221.09	385.714
221.47	1350.000
221.84	-966.667
222.22	0.000
222.59	1225.000
222.97	-2550.000
223.34	1100.000
223.72	361.538
224.09	920.000
224.46	2500.000
224.84	-4600.000
225.21	-900.000
225.59	-4500.000
225.96	510.000
226.34	295.000
226.71	2500.000
227.08	762.500
227.46	520.000
227.83	-1000.000
228.21	-2450.000
228.58	600.000
228.95	-2250.000
229.33	-2900.000
229.70	1733.333
230.08	714.286
230.45	-960.000
230.82	416.667
231.20	783.333
231.57	571.429
231.95	433.333
232.32	227.273
232.69	345.455
233.07	714.286
233.44	423.077
233.81	-1466.667
234.19	252.632
234.56	391.667
234.93	350.000
235.31	454.545
235.68	223.077
236.05	342.857
236.43	175.758
236.80	226.316
237.17	4800.000
237.55	228.571
237.92	207.143
238.29	200.000
238.67	151.613
239.04	182.759
239.41	133.333
239.79	91.304
240.16	135.714
240.53	100.000
240.91	88.235
241.28	84.000
241.65	96.000
242.02	98.551
242.40	91.935
242.77	80.000
243.14	66.667
243.51	79.775
243.89	52.941
244.26	67.778
244.63	50.538
245.00	57.447
245.38	58.416
245.75	51.402
246.12	45.872
246.49	49.635
246.87	52.800
247.24	45.385
247.61	51.429
247.98	35.294
248.36	33.784
248.73	37.580
249.10	39.490
249.47	29.944
249.84	35.294
250.22	29.412
250.59	29.586
250.96	30.808
251.33	31.280
251.70	37.624
252.08	26.190
252.45	25.112
252.82	27.826
253.19	26.809
253.56	25.490
253.94	25.726
254.31	26.172
254.68	25.000
255.05	22.140
255.42	23.577
255.79	20.588
256.16	26.354
256.54	20.848
256.91	24.911
257.28	20.863
257.65	23.762
258.02	22.360
258.39	20.820
258.76	19.398
259.14	20.536
259.51	20.061
259.88	16.770
260.25	22.054
260.62	17.341
260.99	20.186
261.36	23.123
261.73	16.905
262.10	14.535
262.47	20.563
262.85	22.563
263.22	16.524
263.59	21.937
263.96	16.209
264.33	22.715
264.70	19.211
265.07	20.972
265.44	18.687
265.81	18.491
266.18	16.834
266.55	19.024
266.92	17.199
267.29	18.519
267.66	18.349
268.03	16.136
268.40	18.224
268.77	16.229
269.14	15.315
269.51	16.704
269.88	19.114
270.25	16.253
270.62	16.854
270.99	15.914
271.36	17.382
271.73	16.355
272.10	15.652
272.47	17.634
272.84	14.286
273.21	18.449
273.58	14.629
273.95	13.836
274.32	14.876
274.69	14.561
275.06	14.173
275.43	14.894
275.80	14.629
276.17	14.053
276.54	14.137
276.91	12.253
277.28	12.305
277.65	16.054
278.02	15.528
278.39	14.062
278.76	15.636
279.13	15.283
279.50	16.946
279.87	13.147
280.23	14.970
280.60	15.280
280.97	15.527
281.34	15.752
281.71	14.545
282.08	14.012
282.45	15.273
282.82	14.032
283.19	13.369
283.56	12.982
283.92	13.536
284.29	13.051
284.66	13.430
285.03	14.286
285.40	13.380
285.77	11.279
286.14	12.781
286.51	15.000
286.87	14.701
287.24	15.798
287.61	12.199
287.98	13.961
288.35	13.312
288.72	13.707
289.08	13.302
289.45	12.191
289.82	13.333
290.19	11.460
290.56	11.639
290.93	11.027
291.29	13.037
291.66	11.504
292.03	13.663
292.40	14.097
292.77	11.243
293.13	13.731
293.50	13.411
293.87	11.852
294.24	11.111
294.60	10.626
294.97	11.483
295.34	12.694
295.71	13.068
296.08	10.114
296.44	9.216
296.81	11.493
297.18	11.518
297.55	9.103
297.91	10.422
298.28	11.245
298.65	11.358
299.02	12.385
299.38	9.695
299.75	9.030
300.12	8.940
300.48	10.750
300.85	10.481
301.22	9.554
301.59	8.965
301.95	11.713
302.32	10.398
302.69	10.275
303.05	9.939
303.42	9.383
303.79	11.099
304.15	8.508
304.52	10.660
304.89	9.175
305.25	10.441
305.62	9.740
305.99	9.209
306.35	9.732
306.72	11.547
307.09	10.877
307.45	10.923
307.82	9.598
308.19	10.486
308.55	10.248
308.92	10.419
309.29	9.820
309.65	8.484
310.02	9.619
310.38	10.215
310.75	11.088
311.12	10.747
311.48	10.658
311.85	10.273
312.22	8.845
312.58	9.875
312.95	10.982
313.31	10.583
313.68	9.771
314.05	11.933
314.41	10.452
314.78	11.380
315.14	10.725
315.51	10.402
315.87	10.495
316.24	11.420
316.61	10.136
316.97	11.448
317.34	10.078
317.70	11.759
318.07	10.972
318.43	11.350
318.80	12.371
319.16	10.923
319.53	10.882
319.89	11.905
320.26	12.000
320.62	12.004
320.99	12.222
321.35	12.020
321.72	13.142
322.08	12.241
322.45	13.532
322.81	12.791
323.18	13.295
323.54	12.894
323.91	13.302
324.27	12.906
324.64	11.556
325.00	13.075
325.37	12.830
325.73	14.542
326.10	13.504
326.46	12.814
326.83	13.460
327.19	13.834
327.56	12.892
327.92	13.561
328.29	14.996
328.65	13.076
329.01	13.809
329.38	12.951
329.74	13.573
330.11	13.478
330.47	14.509
330.84	15.257
331.20	13.388
331.56	13.945
331.93	13.704
332.29	13.310
332.66	14.336
333.02	14.351
333.38	15.628
333.75	14.617
334.11	13.968
334.48	14.197
334.84	13.787
335.20	13.091
335.57	12.874
335.93	13.036
336.29	13.095
336.66	14.518
337.02	13.665
337.38	13.704
337.75	12.745
338.11	13.608
338.47	13.720
338.84	14.024
339.20	13.303
339.56	15.511
339.93	13.182
340.29	13.949
340.65	13.102
341.02	13.874
341.38	13.167
341.74	13.684
342.11	14.934
342.47	12.952
342.83	14.041
343.20	14.545
343.56	13.395
343.92	14.561
344.28	13.946
344.65	14.101
345.01	12.795
345.37	12.350
345.73	14.129
346.10	13.896
346.46	14.068
346.82	13.674
347.19	13.784
347.55	13.875
347.91	13.188
348.27	13.804
348.63	14.799
349.00	13.916
349.36	13.957
349.72	14.836
350.08	13.857
350.45	14.890
350.81	13.160
351.17	14.911
351.53	13.350
351.89	13.036
352.26	14.601
352.62	14.435
352.98	14.344
353.34	13.887
353.70	13.993
354.07	13.548
354.43	14.444
354.79	13.677
355.15	14.366
355.51	15.108
355.87	14.204
356.24	14.902
356.60	13.793
356.96	13.918
357.32	13.737
357.68	14.882
358.04	15.044
358.40	14.173
358.77	14.241
359.13	13.575
359.49	13.098
359.85	12.937
360.21	12.839
360.57	14.630
360.93	13.308
361.29	13.530
361.66	13.854
362.02	13.731
362.38	14.373
362.74	14.062
363.10	14.064
363.46	14.894
363.82	13.228
364.18	13.803
364.54	14.190
364.90	14.943
365.26	13.603
365.62	14.098
365.98	14.463
366.35	14.327
366.71	15.474
367.07	13.984
367.43	13.570
367.79	14.989
368.15	15.014
368.51	14.099
368.87	14.276
369.23	13.972
369.59	15.424
369.95	15.074
370.31	14.316
370.67	14.710
371.03	15.131
371.39	16.108
371.75	15.147
372.11	15.007
372.47	16.202
372.83	14.697
373.19	15.462
373.55	15.595
373.91	15.096
374.27	14.502
374.63	15.418
374.99	15.537
375.35	15.562
375.71	15.490
376.07	16.255
376.42	15.406
376.78	15.838
377.14	15.332
377.50	16.159
377.86	16.356
378.22	15.929
378.58	15.602
378.94	15.588
379.30	15.967
379.66	16.244
380.02	17.260
380.38	16.393
380.74	16.567
381.09	16.504
381.45	16.964
381.81	17.383
382.17	17.134
382.53	16.981
382.89	16.852
383.25	16.886
383.61	16.605
383.97	17.386
384.32	17.779
384.68	17.534
385.04	17.271
385.40	17.585
385.76	18.612
386.12	17.811
386.48	17.936
386.83	18.281
387.19	18.800
387.55	18.553
387.91	18.259
388.27	18.823
388.62	18.254
388.98	17.690
389.34	19.462
389.70	18.455
390.06	19.645
390.42	18.158
390.77	18.702
391.13	19.272
391.49	18.845
391.85	18.269
392.20	18.423
392.56	19.003
392.92	17.952
393.28	18.402
393.64	18.645
393.99	19.059
394.35	18.734
394.71	18.946
395.07	19.065
395.42	19.530
395.78	19.593
396.14	19.305
396.50	20.238
396.85	19.580
397.21	19.236
397.57	20.149
397.92	20.312
398.28	18.610
398.64	20.490
399.00	20.145
399.35	19.120
399.71	19.155
400.07	20.284
400.42	20.245
400.78	20.567
401.14	20.000
401.49	18.985
401.85	19.238
402.21	19.641
402.57	19.679
402.92	19.735
403.28	21.549
403.63	20.111
403.99	20.191
404.35	20.788
404.70	20.384
405.06	19.627
405.42	20.399
405.77	20.057
406.13	19.131
406.49	20.757
406.84	20.496
407.20	20.449
407.55	20.996
407.91	20.867
408.27	21.251
408.62	20.409
408.98	20.098
409.34	20.357
409.69	20.387
410.05	20.508
410.40	20.917
410.76	20.490
411.11	19.903
411.47	20.703
411.83	20.464
412.18	20.284
412.54	21.295
412.89	20.843
413.25	20.779
413.60	21.495
413.96	20.340
414.31	20.778
414.67	20.849
415.03	20.795
415.38	21.392
415.74	20.900
416.09	21.163
416.45	21.285
416.80	21.348
417.16	20.241
417.51	21.168
417.87	20.360
418.22	21.073
418.58	22.466
418.93	21.007
419.29	21.451
419.64	21.222
420.00	21.220
420.35	21.159
420.71	21.399
421.06	20.167
421.42	21.345
421.77	20.964
422.12	19.764
422.48	19.698
422.83	20.559
423.19	20.608
423.54	20.778
423.90	20.638
424.25	20.603
424.61	20.476
424.96	21.166
425.31	21.041
425.67	20.562
426.02	21.086
426.38	21.184
426.73	20.831
427.09	20.912
427.44	21.219
427.79	21.162
428.15	21.071
428.50	20.480
428.85	21.395
429.21	20.486
429.56	20.321
429.92	20.483
430.27	19.960
430.62	19.611
430.98	20.394
431.33	20.515
431.68	20.942
432.04	20.927
432.39	20.674
432.74	20.227
433.10	20.996
433.45	21.283
433.80	21.619
434.16	20.940
434.51	20.158
434.86	20.639
435.22	20.901
435.57	20.790
435.92	20.889
436.28	21.234
436.63	21.799
436.98	21.065
437.34	21.467
437.69	21.645
438.04	20.067
438.39	21.373
438.75	20.569
439.10	20.168
439.45	21.251
439.81	20.604
440.16	20.610
440.51	21.383
440.86	20.845
441.22	20.578
441.57	20.223
441.92	20.829
442.27	20.721
442.63	21.169
442.98	21.239
443.33	20.707
443.68	21.218
444.03	20.351
444.39	19.718
444.74	20.455
445.09	20.863
445.44	20.339
445.79	20.188
446.15	20.805
446.50	20.302
446.85	20.658
447.20	20.857
447.55	21.106
447.91	20.463
448.26	20.312
448.61	20.464
448.96	20.875
449.31	21.485
449.66	20.653
450.02	19.944
450.37	21.032
450.72	20.587
451.07	20.414
451.42	19.271
451.77	20.904
452.12	20.381
452.47	20.522
452.83	20.455
453.18	20.293
453.53	21.150
453.88	20.732
454.23	20.741
454.58	21.078
454.93	21.424
455.28	20.574
455.63	21.299
455.98	21.607
456.34	20.477
456.69	20.664
457.04	20.557
457.39	20.339
457.74	20.662
458.09	20.874
458.44	20.468
458.79	19.577
459.14	21.388
459.49	20.140
459.84	20.222
460.19	20.566
460.54	19.502
460.89	20.625
461.24	20.340
461.59	21.325
461.94	20.900
462.29	21.543
462.64	20.485
462.99	20.820
463.34	22.600
463.69	20.263
464.04	21.043
464.39	20.696
464.74	20.143
465.09	20.627
465.44	19.945
465.79	19.855
466.14	20.307
466.49	19.410
466.84	20.315
467.19	20.519
467.54	21.062
467.89	19.928
468.24	21.001
468.59	21.429
468.94	19.853
469.29	21.658
469.64	21.084
469.99	20.771
470.34	20.211
470.68	21.121
471.03	20.816
471.38	21.126
471.73	20.386
472.08	20.987
472.43	20.729
472.78	20.540
473.13	20.732
473.48	20.037
473.83	20.366
474.17	20.037
474.52	21.030
474.87	20.607
475.22	19.675
475.57	20.419
475.92	20.234
476.27	20.011
476.61	19.912
476.96	19.736
477.31	19.885
477.66	20.186
478.01	20.125
478.36	20.360
478.70	19.418
479.05	19.436
479.40	20.215
479.75	19.573
480.10	18.986
480.45	19.419
480.79	19.207
481.14	19.863
481.49	19.554
481.84	19.707
482.19	19.446
482.53	19.266
482.88	19.172
483.23	19.579
483.58	19.427
483.92	19.306
484.27	18.475
484.62	18.664
484.97	18.762
485.31	18.938
485.66	17.601
486.01	16.599
486.36	16.113
486.70	15.758
487.05	16.441
487.40	17.492
487.75	17.853
488.09	18.502
488.44	18.112
488.79	19.783
489.13	19.060
489.48	18.760
489.83	18.731
490.17	19.553
490.52	18.645
490.87	19.584
491.22	18.781
491.56	18.360
491.91	19.079
492.26	18.787
492.60	19.124
492.95	18.756
493.30	18.645
493.64	18.805
493.99	18.245
494.34	18.825
494.68	18.910
495.03	19.126
495.37	19.591
495.72	18.616
496.07	18.840
496.41	18.274
496.76	18.777
497.11	18.325
497.45	19.236
497.80	19.242
498.14	18.599
498.49	18.293
498.84	18.888
499.18	18.524
499.53	19.041
499.87	18.826
500.22	18.417
500.56	19.466
500.91	18.317
501.26	18.872
501.60	19.459
501.95	18.515
502.29	19.213
502.64	18.855
502.98	18.513
503.33	18.601
503.67	19.165
504.02	18.896
504.36	18.811
504.71	19.199
505.06	19.084
505.40	18.619
505.75	17.936
506.09	18.707
506.44	18.648
506.78	18.656
507.13	18.879
507.47	19.394
507.82	19.757
508.16	18.338
508.51	19.178
508.85	18.471
509.19	18.980
509.54	18.827
509.88	18.753
510.23	18.972
510.57	19.608
510.92	18.954
511.26	18.654
511.61	19.969
511.95	18.894
512.30	18.611
512.64	19.882
512.98	19.936
513.33	19.593
513.67	18.570
514.02	18.561
514.36	19.880
514.70	19.258
515.05	19.409
515.39	19.069
515.74	19.876
516.08	19.508
516.42	19.589
516.77	19.955
517.11	18.812
517.46	19.470
517.80	20.093
518.14	19.514
518.49	19.137
518.83	19.773
519.17	20.323
519.52	19.298
519.86	19.852
520.20	20.867
520.55	19.928
520.89	20.377
521.23	19.903
521.58	20.768
521.92	21.188
522.26	20.073
522.61	19.813
522.95	19.521
523.29	20.146
523.64	20.122
523.98	19.963
524.32	20.024
524.66	19.904
525.01	19.608
525.35	20.508
525.69	19.397
526.04	19.688
526.38	20.561
526.72	20.368
527.06	19.962
527.41	19.616
527.75	20.514
528.09	20.617
528.43	20.395
528.78	19.852
529.12	19.152
529.46	20.269
529.80	20.050
530.15	20.374
530.49	20.369
530.83	20.823
531.17	20.496
531.51	21.336
531.86	20.065
532.20	21.447
532.54	20.884
532.88	20.603
533.22	20.175
533.57	20.247
533.91	19.807
534.25	19.745
534.59	19.829
534.93	19.869
535.27	19.855
535.62	19.780
535.96	20.213
536.30	19.771
536.64	21.120
536.98	20.703
537.32	20.276
537.66	20.800
538.01	19.552
538.35	20.750
538.69	20.421
539.03	19.883
539.37	20.000
539.71	19.183
540.05	20.392
540.39	21.329
540.73	19.922
541.07	20.117
541.42	20.678
541.76	20.968
542.10	21.087
542.44	20.397
542.78	20.817
543.12	20.090
543.46	20.328
543.80	20.494
544.14	19.320
544.48	19.492
544.82	19.885
545.16	19.844
545.50	20.437
545.84	20.363
546.18	20.000
546.52	20.716
546.86	19.656
547.20	21.106
547.54	20.107
547.88	20.791
548.22	19.178
548.56	19.748
548.90	20.423
549.24	19.529
549.58	20.737
549.92	20.467
550.26	20.952
550.60	20.747
550.94	21.197
551.28	19.971
551.62	20.417
551.96	20.000
552.30	20.614
552.64	20.554
552.98	20.746
553.32	20.027
553.66	20.654
554.00	20.865
554.34	19.462
554.68	21.173
555.02	21.298
555.36	19.833
555.69	19.486
556.03	20.054
556.37	20.600
556.71	19.031
557.05	19.958
557.39	20.994
557.73	20.042
558.07	20.740
558.41	20.405
558.75	20.353
559.08	20.507
559.42	21.013
559.76	19.191
560.10	19.557
560.44	19.706
560.78	19.627
561.12	20.712
561.45	20.404
561.79	19.578
562.13	19.785
562.47	19.877
562.81	20.223
563.15	19.398
563.48	20.159
563.82	19.896
564.16	19.817
564.50	19.206
564.84	19.532
565.17	19.305
565.51	19.489
565.85	19.924
566.19	18.723
566.52	20.013
566.86	19.108
567.20	19.517
567.54	18.664
567.88	18.142
568.21	18.836
568.55	18.655
568.89	17.656
569.23	17.914
569.56	17.490
569.90	17.019
570.24	16.828
570.57	16.797
570.91	16.387
571.25	16.337
571.59	16.259
571.92	16.244
572.26	16.262
572.60	16.757
572.93	16.312
573.27	16.711
573.61	16.723
573.95	16.434
574.28	15.879
574.62	16.059
574.96	15.699
575.29	15.955
575.63	15.727
575.97	15.855
576.30	16.357
576.64	15.972
576.98	15.800
577.31	15.642
577.65	15.570
577.98	15.702
578.32	15.369
578.66	15.451
578.99	15.544
579.33	15.928
579.67	15.641
580.00	16.231
580.34	15.662
580.67	15.954
581.01	15.786
581.35	15.484
581.68	15.306
582.02	14.728
582.35	15.027
582.69	15.558
583.02	15.610
583.36	15.864
583.70	16.009
584.03	16.014
584.37	16.812
584.70	16.301
585.04	15.607
585.37	15.820
585.71	16.259
586.04	15.656
586.38	16.014
586.72	16.874
587.05	15.838
587.39	15.989
587.72	15.975
588.06	15.768
588.39	16.022
588.73	16.104
589.06	16.204
589.40	16.835
589.73	17.423
590.07	17.082
590.40	16.624
590.73	17.174
591.07	17.705
591.40	17.461
591.74	17.273
592.07	17.757
592.41	17.363
592.74	16.442
593.08	16.689
593.41	15.976
593.75	15.428
594.08	15.890
594.41	16.472
594.75	16.044
595.08	16.500
595.42	16.322
595.75	16.168
596.09	16.861
596.42	17.132
596.75	17.813
597.09	17.706
597.42	16.400
597.75	16.774
598.09	17.130
598.42	16.581
598.76	16.295
599.09	16.268
599.42	16.412
599.76	16.179
600.09	15.811
600.42	15.851
600.76	16.000
601.09	15.738
601.42	16.667
601.76	16.053
602.09	16.166
602.42	16.640
602.76	17.453
603.09	17.034
603.42	16.322
603.76	16.082
604.09	16.789
604.42	16.673
604.76	16.997
605.09	16.994
605.42	16.759
605.75	16.515
606.09	16.063
606.42	16.714
606.75	16.342
607.09	17.204
607.42	16.645
607.75	16.667
608.08	16.717
608.42	17.436
608.75	16.772
609.08	16.605
609.41	16.611
609.75	16.770
610.08	17.531
610.41	16.480
610.74	16.935
611.07	16.206
611.41	17.812
611.74	17.597
612.07	17.495
612.40	17.576
612.73	17.684
613.07	17.403
613.40	18.273
613.73	16.361
614.06	17.204
614.39	17.200
614.72	18.053
615.06	18.120
615.39	16.720
615.72	17.025
616.05	16.693
616.38	17.343
616.71	18.230
617.05	17.903
617.38	17.980
617.71	17.838
618.04	17.428
618.37	17.800
618.70	18.979
619.03	18.816
619.36	18.669
619.69	19.296
620.03	18.544
620.36	19.184
620.69	19.247
621.02	18.879
621.35	18.246
621.68	19.081
622.01	19.272
622.34	19.440
622.67	19.163
623.00	18.048
623.33	18.156
623.66	17.441
623.99	18.630
624.32	18.973
624.65	18.008
624.99	17.635
625.32	18.392
625.65	18.933
625.98	19.216
626.31	20.062
626.64	18.449
626.97	19.534
627.30	19.036
627.63	19.770
627.96	20.437
628.29	19.773
628.62	20.037
628.95	20.283
629.28	21.624
629.61	21.357
629.94	20.381
630.26	22.116
630.59	19.733
630.92	19.636
631.25	20.434
631.58	20.320
