SpectraSuite Data File
++++++++++++++++++++++++++++++++++++
Date: Wed May 13 16:23:25 PDT 2015
User: schluterlab
Dark Spectrum Present: Yes
Reference Spectrum Present: Yes
Number of Sampled Component Spectra: 1
Spectrometers: USB2E3373
Integration Time (usec): 3000 (USB2E3373)
Spectra Averaged: 3 (USB2E3373)
Boxcar Smoothing: 0 (USB2E3373)
Correct for Electrical Dark: No (USB2E3373)
Strobe/Lamp Enabled: No (USB2E3373)
Correct for Detector Non-linearity: No (USB2E3373)
Correct for Stray Light: No (USB2E3373)
Number of Pixels in Processed Spectrum: 2048
>>>>>Begin Processed Spectral Data<<<<<
178.53	0.000
178.91	-1300.000
179.29	-1100.000
179.67	-233.333
180.04	-1150.000
180.42	2550.000
180.80	800.000
181.18	-975.000
181.56	571.429
181.94	0.000
182.31	-671.429
182.69	1966.667
183.07	-400.000
183.45	-377.778
183.83	472.727
184.20	-350.000
184.58	2150.000
184.96	6800.000
185.34	-760.000
185.72	-475.000
186.09	-2200.000
186.47	2650.000
186.85	2500.000
187.23	5000.000
187.61	-1733.333
187.98	1200.000
188.36	445.455
188.74	463.636
189.12	-960.000
189.49	540.000
189.87	-5100.000
190.25	-1100.000
190.63	428.571
191.00	407.692
191.38	816.667
191.76	-1050.000
192.14	1350.000
192.51	562.500
192.89	1016.667
193.27	512.500
193.65	-1200.000
194.02	460.000
194.40	940.000
194.78	480.000
195.15	508.333
195.53	610.000
195.91	-2300.000
196.29	287.500
196.66	331.579
197.04	-270.000
197.42	0.000
197.79	580.000
198.17	-4800.000
198.55	528.571
198.92	537.500
199.30	720.000
199.68	0.000
200.05	294.444
200.43	700.000
200.81	5300.000
201.18	1533.333
201.56	-1500.000
201.94	544.444
202.31	488.889
202.69	425.000
203.07	470.000
203.44	0.000
203.82	950.000
204.19	842.857
204.57	457.143
204.95	650.000
205.32	1566.667
205.70	500.000
206.08	342.857
206.45	2500.000
206.83	393.750
207.20	983.333
207.58	800.000
207.96	350.000
208.33	775.000
208.71	-700.000
209.08	800.000
209.46	533.333
209.84	472.727
210.21	-1466.667
210.59	1475.000
210.96	-412.500
211.34	2350.000
211.71	580.000
212.09	750.000
212.46	0.000
212.84	1600.000
213.22	1350.000
213.59	-4800.000
213.97	766.667
214.34	871.429
214.72	563.636
215.09	980.000
215.47	-2500.000
215.84	-2150.000
216.22	1666.667
216.59	378.571
216.97	1225.000
217.34	481.818
217.72	-583.333
218.09	0.000
218.47	-4000.000
218.84	588.889
219.22	771.429
219.59	1733.333
219.97	-514.286
220.34	1020.000
220.72	-1766.667
221.09	464.286
221.47	1375.000
221.84	-950.000
222.22	0.000
222.59	1425.000
222.97	-2350.000
223.34	1060.000
223.72	430.769
224.09	1240.000
224.46	2200.000
224.84	-4300.000
225.21	-820.000
225.59	-4100.000
225.96	640.000
226.34	290.000
226.71	2550.000
227.08	612.500
227.46	570.000
227.83	-1125.000
228.21	-2300.000
228.58	622.222
228.95	-2500.000
229.33	-2050.000
229.70	1733.333
230.08	785.714
230.45	-860.000
230.82	358.333
231.20	750.000
231.57	657.143
231.95	525.000
232.32	263.636
232.69	427.273
233.07	657.143
233.44	400.000
233.81	-1733.333
234.19	331.579
234.56	466.667
234.93	308.333
235.31	600.000
235.68	323.077
236.05	378.571
236.43	169.697
236.80	278.947
237.17	4500.000
237.55	261.905
237.92	271.429
238.29	271.429
238.67	187.097
239.04	241.379
239.41	172.222
239.79	147.826
240.16	180.952
240.53	163.636
240.91	162.745
241.28	128.000
241.65	164.000
242.02	121.739
242.40	120.968
242.77	125.000
243.14	98.925
243.51	105.618
243.89	97.647
244.26	100.000
244.63	102.151
245.00	84.043
245.38	89.109
245.75	101.869
246.12	80.734
246.49	83.212
246.87	92.000
247.24	97.692
247.61	87.143
247.98	73.856
248.36	72.297
248.73	78.981
249.10	84.076
249.47	75.706
249.84	73.262
250.22	68.449
250.59	75.148
250.96	73.737
251.33	72.038
251.70	75.248
252.08	72.381
252.45	67.713
252.82	68.696
253.19	66.383
253.56	64.706
253.94	68.465
254.31	68.359
254.68	71.154
255.05	69.004
255.42	67.480
255.79	68.750
256.16	69.314
256.54	59.717
256.91	62.278
257.28	65.468
257.65	64.026
258.02	63.975
258.39	59.621
258.76	61.538
259.14	61.012
259.51	57.447
259.88	61.801
260.25	59.517
260.62	60.983
260.99	64.907
261.36	61.862
261.73	61.318
262.10	62.791
262.47	62.254
262.85	59.331
263.22	56.125
263.59	61.823
263.96	59.341
264.33	57.180
264.70	61.053
265.07	60.358
265.44	60.859
265.81	54.015
266.18	58.040
266.55	59.268
266.92	60.197
267.29	57.407
267.66	57.569
268.03	59.091
268.40	56.308
268.77	55.370
269.14	54.730
269.51	56.659
269.88	60.606
270.25	57.111
270.62	58.202
270.99	55.269
271.36	54.936
271.73	59.579
272.10	56.522
272.47	58.710
272.84	57.143
273.21	58.700
273.58	55.677
273.95	54.088
274.32	52.273
274.69	55.246
275.06	52.756
275.43	57.872
275.80	56.313
276.17	55.193
276.54	55.925
276.91	54.941
277.28	52.539
277.65	55.513
278.02	57.557
278.39	56.641
278.76	53.818
279.13	53.774
279.50	52.142
279.87	54.980
280.23	53.293
280.60	56.480
280.97	54.529
281.34	54.159
281.71	55.636
282.08	51.056
282.45	52.727
282.82	52.575
283.19	52.406
283.56	53.333
283.92	51.777
284.29	49.383
284.66	53.721
285.03	52.622
285.40	51.761
285.77	53.030
286.14	49.741
286.51	53.000
286.87	50.940
287.24	50.489
287.61	49.599
287.98	49.513
288.35	49.604
288.72	48.754
289.08	48.200
289.45	49.918
289.82	47.317
290.19	49.765
290.56	47.933
290.93	44.109
291.29	47.853
291.66	47.345
292.03	46.657
292.40	45.668
292.77	45.414
293.13	45.075
293.50	47.230
293.87	42.370
294.24	44.296
294.60	43.814
294.97	45.349
295.34	44.993
295.71	45.313
296.08	44.729
296.44	43.604
296.81	41.612
297.18	44.309
297.55	41.425
297.91	41.425
298.28	44.043
298.65	42.167
299.02	41.765
299.38	41.434
299.75	40.701
300.12	40.996
300.48	39.750
300.85	41.307
301.22	41.911
301.59	39.899
301.95	40.176
302.32	40.308
302.69	40.263
303.05	40.485
303.42	39.136
303.79	39.864
304.15	38.811
304.52	39.513
304.89	40.418
305.25	38.863
305.62	39.751
305.99	40.850
306.35	39.597
306.72	39.126
307.09	41.065
307.45	41.104
307.82	39.397
308.19	40.287
308.55	40.777
308.92	40.172
309.29	40.549
309.65	40.403
310.02	39.746
310.38	39.892
310.75	40.444
311.12	39.406
311.48	40.857
311.85	42.243
312.22	40.895
312.58	42.308
312.95	42.239
313.31	40.388
313.68	43.035
314.05	43.984
314.41	42.915
314.78	43.202
315.14	42.800
315.51	44.696
315.87	42.475
316.24	42.701
316.61	44.152
316.97	44.227
317.34	43.933
317.70	46.176
318.07	46.679
318.43	47.358
318.80	45.923
319.16	47.834
319.53	46.998
319.89	48.381
320.26	49.500
320.62	49.107
320.99	50.505
321.35	51.717
321.72	51.129
322.08	51.728
322.45	54.627
322.81	55.039
323.18	53.757
323.54	55.380
323.91	56.509
324.27	58.604
324.64	58.062
325.00	58.611
325.37	61.146
325.73	62.029
326.10	62.401
326.46	62.007
326.83	65.315
327.19	63.535
327.56	66.638
327.92	66.842
328.29	67.436
328.65	67.772
329.01	68.231
329.38	69.658
329.74	68.790
330.11	70.782
330.47	68.687
330.84	69.945
331.20	70.036
331.56	70.550
331.93	71.759
332.29	71.074
332.66	72.035
333.02	70.110
333.38	72.448
333.75	71.569
334.11	71.886
334.48	70.275
334.84	72.978
335.20	73.636
335.57	73.345
335.93	71.518
336.29	74.725
336.66	73.760
337.02	71.041
337.38	73.796
337.75	72.193
338.11	72.695
338.47	75.691
338.84	73.511
339.20	73.945
339.56	75.639
339.93	74.273
340.29	72.917
340.65	73.173
341.02	72.862
341.38	74.822
341.74	73.509
342.11	74.061
342.47	75.154
342.83	72.603
343.20	75.238
343.56	73.463
343.92	74.474
344.28	73.639
344.65	75.666
345.01	72.391
345.37	72.127
345.73	73.519
346.10	74.084
346.46	74.068
346.82	72.817
347.19	73.350
347.55	71.593
347.91	74.272
348.27	73.788
348.63	73.411
349.00	72.977
349.36	73.399
349.72	72.815
350.08	72.285
350.45	73.149
350.81	73.436
351.17	73.258
351.53	74.038
351.89	73.185
352.26	72.534
352.62	73.617
352.98	72.204
353.34	75.185
353.70	73.077
354.07	73.629
354.43	71.349
354.79	74.256
355.15	72.227
355.51	73.941
355.87	74.939
356.24	73.860
356.60	73.376
356.96	74.014
357.32	74.816
357.68	74.252
358.04	72.842
358.40	73.159
358.77	72.379
359.13	71.507
359.49	73.176
359.85	73.413
360.21	77.113
360.57	74.319
360.93	74.154
361.29	74.754
361.66	73.916
362.02	73.433
362.38	73.840
362.74	73.810
363.10	73.575
363.46	73.294
363.82	74.452
364.18	72.394
364.54	74.963
364.90	73.442
365.26	74.779
365.62	74.945
365.98	75.383
366.35	73.424
366.71	73.391
367.07	73.999
367.43	74.891
367.79	75.446
368.15	75.862
368.51	74.855
368.87	74.732
369.23	74.689
369.59	74.584
369.95	73.603
370.31	74.288
370.67	72.101
371.03	74.757
371.39	76.312
371.75	74.926
372.11	72.617
372.47	74.927
372.83	77.233
373.19	73.844
373.55	76.571
373.91	75.847
374.27	74.089
374.63	76.073
374.99	75.071
375.35	76.064
375.71	74.572
376.07	75.789
376.42	77.166
376.78	76.673
377.14	75.645
377.50	76.026
377.86	75.532
378.22	76.612
378.58	74.060
378.94	76.870
379.30	76.336
379.66	76.332
380.02	76.044
380.38	74.803
380.74	76.471
381.09	76.528
381.45	77.935
381.81	76.290
382.17	76.624
382.53	76.918
382.89	77.160
383.25	75.985
383.61	77.447
383.97	76.798
384.32	77.480
384.68	76.580
385.04	76.951
385.40	75.913
385.76	75.737
386.12	77.591
386.48	78.099
386.83	79.602
387.19	79.035
387.55	76.190
387.91	77.146
388.27	77.315
388.62	76.460
388.98	75.983
389.34	77.096
389.70	76.763
390.06	77.503
390.42	77.367
390.77	76.718
391.13	77.218
391.49	77.919
391.85	76.639
392.20	76.278
392.56	78.220
392.92	76.516
393.28	75.976
393.64	77.698
393.99	74.649
394.35	76.675
394.71	76.412
395.07	75.265
395.42	76.329
395.78	75.954
396.14	77.095
396.50	78.133
396.85	77.114
397.21	75.894
397.57	77.557
397.92	77.404
398.28	75.617
398.64	75.687
399.00	74.426
399.35	75.522
399.71	76.042
400.07	74.039
400.42	75.706
400.78	76.055
401.14	75.610
401.49	75.284
401.85	76.286
402.21	74.311
402.57	75.817
402.92	75.914
403.28	76.640
403.63	75.619
403.99	76.115
404.35	75.515
404.70	74.760
405.06	74.490
405.42	76.606
405.77	74.057
406.13	73.928
406.49	75.340
406.84	73.952
407.20	74.350
407.55	74.665
407.91	76.533
408.27	74.474
408.62	74.955
408.98	74.203
409.34	74.354
409.69	74.452
410.05	74.721
410.40	74.006
410.76	73.238
411.11	74.005
411.47	73.674
411.83	74.893
412.18	72.789
412.54	72.914
412.89	74.337
413.25	74.262
413.60	74.120
413.96	72.556
414.31	73.694
414.67	75.222
415.03	72.318
415.38	74.227
415.74	74.084
416.09	76.355
416.45	74.163
416.80	73.364
417.16	75.067
417.51	74.784
417.87	72.640
418.22	74.132
418.58	73.660
418.93	73.342
419.29	74.475
419.64	73.804
420.00	73.415
420.35	72.638
420.71	74.895
421.06	73.091
421.42	73.567
421.77	72.534
422.12	72.880
422.48	72.531
422.83	73.733
423.19	73.149
423.54	73.535
423.90	74.203
424.25	72.641
424.61	73.214
424.96	75.044
425.31	73.200
425.67	71.236
426.02	72.971
426.38	74.359
426.73	73.435
427.09	74.468
427.44	74.411
427.79	72.513
428.15	74.226
428.50	74.137
428.85	73.361
429.21	73.330
429.56	74.598
429.92	74.132
430.27	73.635
430.62	72.709
430.98	72.704
431.33	71.649
431.68	74.555
432.04	71.672
432.39	75.157
432.74	73.549
433.10	74.816
433.45	75.044
433.80	74.169
434.16	73.504
434.51	72.368
434.86	75.200
435.22	74.653
435.57	75.866
435.92	73.786
436.28	75.682
436.63	72.406
436.98	74.871
437.34	74.419
437.69	75.146
438.04	74.817
438.39	75.164
438.75	75.770
439.10	74.581
439.45	75.089
439.81	75.045
440.16	75.212
440.51	74.927
440.86	77.070
441.22	74.416
441.57	74.522
441.92	73.644
442.27	74.919
442.63	75.092
442.98	75.662
443.33	73.261
443.68	73.774
444.03	74.475
444.39	74.197
444.74	73.539
445.09	73.369
445.44	73.975
445.79	73.825
446.15	73.584
446.50	74.044
446.85	75.437
447.20	73.279
447.55	74.707
447.91	74.407
448.26	74.624
448.61	75.410
448.96	75.581
449.31	75.478
449.66	73.832
450.02	72.981
450.37	73.583
450.72	75.127
451.07	73.736
451.42	73.495
451.77	74.985
452.12	74.423
452.47	73.321
452.83	75.350
453.18	74.450
453.53	75.263
453.88	73.774
454.23	73.939
454.58	74.621
454.93	76.605
455.28	74.688
455.63	73.908
455.98	76.726
456.34	74.623
456.69	75.454
457.04	76.594
457.39	73.933
457.74	73.302
458.09	73.663
458.44	75.485
458.79	73.861
459.14	73.928
459.49	74.489
459.84	73.130
460.19	74.779
460.54	72.569
460.89	73.286
461.24	74.317
461.59	72.865
461.94	72.565
462.29	74.955
462.64	72.878
462.99	73.845
463.34	74.600
463.69	74.484
464.04	74.551
464.39	71.884
464.74	73.916
465.09	73.824
465.44	72.632
465.79	72.204
466.14	71.100
466.49	71.635
466.84	71.687
467.19	72.480
467.54	73.688
467.89	72.689
468.24	71.786
468.59	74.176
468.94	71.594
469.29	73.393
469.64	73.762
469.99	74.696
470.34	74.108
470.68	73.779
471.03	71.905
471.38	76.095
471.73	72.685
472.08	73.553
472.43	72.550
472.78	72.811
473.13	73.556
473.48	72.347
473.83	72.866
474.17	73.491
474.52	72.829
474.87	73.905
475.22	71.503
475.57	71.736
475.92	71.747
476.27	71.590
476.61	71.373
476.96	72.622
477.31	71.272
477.66	72.429
478.01	71.145
478.36	71.814
478.70	71.340
479.05	71.832
479.40	72.467
479.75	71.886
480.10	71.670
480.45	70.300
480.79	70.043
481.14	71.771
481.49	70.622
481.84	71.788
482.19	71.286
482.53	69.817
482.88	69.428
483.23	71.215
483.58	70.974
483.92	71.134
484.27	69.194
484.62	70.216
484.97	70.122
485.31	71.644
485.66	71.460
486.01	67.741
486.36	64.518
486.70	62.354
487.05	64.321
487.40	65.909
487.75	66.813
488.09	68.668
488.44	68.379
488.79	70.271
489.13	70.512
489.48	70.636
489.83	69.789
490.17	70.627
490.52	70.018
490.87	70.375
491.22	69.941
491.56	68.975
491.91	69.753
492.26	68.902
492.60	69.954
492.95	68.288
493.30	67.570
493.64	69.389
493.99	69.266
494.34	69.334
494.68	70.330
495.03	69.126
495.37	69.055
495.72	70.906
496.07	70.255
496.41	67.965
496.76	68.734
497.11	68.483
497.45	68.701
497.80	69.242
498.14	69.372
498.49	70.341
498.84	68.217
499.18	69.333
499.53	69.136
499.87	69.152
500.22	68.676
500.56	69.223
500.91	68.173
501.26	69.132
501.60	69.340
501.95	68.698
502.29	69.400
502.64	68.575
502.98	68.957
503.33	67.367
503.67	67.935
504.02	68.990
504.36	67.805
504.71	68.051
505.06	68.578
505.40	66.310
505.75	67.310
506.09	68.270
506.44	69.314
506.78	68.583
507.13	68.248
507.47	67.273
507.82	68.338
508.16	69.402
508.51	68.798
508.85	67.726
509.19	68.622
509.54	67.755
509.88	67.955
510.23	68.792
510.57	69.143
510.92	68.358
511.26	67.215
511.61	67.583
511.95	67.850
512.30	68.240
512.64	67.652
512.98	67.149
513.33	68.201
513.67	66.649
514.02	67.803
514.36	68.542
514.70	68.456
515.05	68.935
515.39	68.480
515.74	67.962
516.08	69.368
516.42	68.036
516.77	69.398
517.11	67.758
517.46	67.946
517.80	68.931
518.14	68.095
518.49	69.078
518.83	68.182
519.17	68.187
519.52	67.459
519.86	67.598
520.20	67.630
520.55	69.958
520.89	70.499
521.23	69.059
521.58	68.127
521.92	68.096
522.26	66.992
522.61	68.660
522.95	68.508
523.29	67.681
523.64	68.415
523.98	68.269
524.32	67.913
524.66	66.867
525.01	67.034
525.35	67.472
525.69	65.702
526.04	68.287
526.38	66.931
526.72	67.178
527.06	68.362
527.41	66.275
527.75	67.331
528.09	69.364
528.43	69.280
528.78	67.425
529.12	67.394
529.46	67.177
529.80	67.698
530.15	67.664
530.49	65.785
530.83	67.658
531.17	70.039
531.51	69.520
531.86	67.871
532.20	67.340
532.54	67.136
532.88	68.549
533.22	65.334
533.57	65.926
533.91	65.683
534.25	66.282
534.59	66.260
534.93	65.794
535.27	66.204
535.62	66.850
535.96	66.792
536.30	66.052
536.64	66.259
536.98	65.959
537.32	66.228
537.66	67.333
538.01	67.742
538.35	65.223
538.69	67.454
539.03	65.302
539.37	64.601
539.71	64.420
540.05	66.928
540.39	65.648
540.73	63.972
541.07	66.515
541.42	66.471
541.76	65.935
542.10	65.589
542.44	65.497
542.78	67.260
543.12	64.107
543.46	64.984
543.80	65.582
544.14	64.955
544.48	64.254
544.82	66.325
545.16	66.884
545.50	63.817
545.84	64.583
546.18	66.734
546.52	66.621
546.86	65.636
547.20	67.633
547.54	66.065
547.88	66.135
548.22	64.384
548.56	63.585
548.90	64.085
549.24	64.983
549.58	64.802
549.92	64.835
550.26	66.477
550.60	63.970
550.94	64.718
551.28	65.033
551.62	66.427
551.96	65.474
552.30	65.051
552.64	65.247
552.98	65.220
553.32	64.464
553.66	64.826
554.00	65.683
554.34	64.665
554.68	65.808
555.02	64.739
555.36	65.623
555.69	64.141
556.03	64.872
556.37	64.461
556.71	63.302
557.05	64.286
557.39	63.891
557.73	62.668
558.07	65.990
558.41	64.616
558.75	66.128
559.08	65.324
559.42	66.969
559.76	64.926
560.10	64.454
560.44	64.081
560.78	62.741
561.12	62.929
561.45	63.885
561.79	61.964
562.13	63.716
562.47	64.959
562.81	65.202
563.15	64.615
563.48	63.594
563.82	62.688
564.16	63.898
564.50	63.932
564.84	63.654
565.17	64.672
565.51	63.770
565.85	62.690
566.19	63.494
566.52	63.838
566.86	62.749
567.20	63.090
567.54	63.185
567.88	61.597
568.21	62.063
568.55	62.336
568.89	61.187
569.23	60.205
569.56	59.838
569.90	59.472
570.24	58.378
570.57	59.504
570.91	57.046
571.25	58.122
571.59	58.174
571.92	57.748
572.26	58.001
572.60	58.078
572.93	57.781
573.27	57.971
573.61	58.264
573.95	57.855
574.28	57.236
574.62	56.633
574.96	56.177
575.29	56.571
575.63	57.622
575.97	56.131
576.30	56.824
576.64	57.215
576.98	57.025
577.31	57.763
577.65	57.199
577.98	56.393
578.32	55.699
578.66	55.283
578.99	55.946
579.33	56.306
579.67	55.534
580.00	56.749
580.34	57.167
580.67	56.961
581.01	57.185
581.35	56.883
581.68	56.463
582.02	55.991
582.35	55.335
582.69	55.581
583.02	55.723
583.36	56.076
583.70	57.018
584.03	56.923
584.37	57.866
584.70	57.341
585.04	56.311
585.37	56.897
585.71	56.391
586.04	55.811
586.38	57.315
586.72	57.526
587.05	55.447
587.39	55.620
587.72	56.351
588.06	56.483
588.39	56.324
588.73	57.084
589.06	57.121
589.40	58.081
589.73	57.621
590.07	58.078
590.40	58.020
590.73	59.407
591.07	58.608
591.40	58.794
591.74	59.221
592.07	57.461
592.41	58.247
592.74	58.052
593.08	55.963
593.41	57.229
593.75	56.184
594.08	55.850
594.41	57.582
594.75	58.041
595.08	56.192
595.42	57.023
595.75	56.481
596.09	57.754
596.42	57.053
596.75	57.535
597.09	58.788
597.42	56.619
597.75	58.473
598.09	56.870
598.42	57.302
598.76	57.154
599.09	56.632
599.42	55.895
599.76	57.247
600.09	56.976
600.42	55.807
600.76	55.429
601.09	56.175
601.42	56.164
601.76	56.509
602.09	57.431
602.42	56.967
602.76	57.840
603.09	57.238
603.42	57.126
603.76	56.745
604.09	55.758
604.42	57.644
604.76	56.727
605.09	57.274
605.42	56.135
605.75	57.616
606.09	56.202
606.42	56.968
606.75	55.952
607.09	56.300
607.42	57.082
607.75	56.624
608.08	56.318
608.42	57.687
608.75	56.492
609.08	56.337
609.41	57.306
609.75	57.122
610.08	57.964
610.41	58.101
610.74	57.143
611.07	58.794
611.41	57.017
611.74	58.321
612.07	57.816
612.40	58.604
612.73	57.000
613.07	58.244
613.40	57.820
613.73	57.001
614.06	57.419
614.39	57.001
614.72	57.211
615.06	58.718
615.39	56.635
615.72	56.135
616.05	57.363
616.38	58.032
616.71	58.254
617.05	59.482
617.38	58.148
617.71	58.979
618.04	58.594
618.37	58.250
618.70	59.925
619.03	59.145
619.36	59.335
619.69	60.986
620.03	59.066
620.36	59.693
620.69	59.452
621.02	59.882
621.35	59.906
621.68	59.657
622.01	60.913
622.34	59.682
622.67	59.392
623.00	58.547
623.33	59.543
623.66	60.758
623.99	60.236
624.32	60.842
624.65	59.040
624.99	58.499
625.32	59.522
625.65	60.180
625.98	61.414
626.31	60.420
626.64	61.143
626.97	61.762
627.30	60.100
627.63	61.690
627.96	60.892
628.29	60.017
628.62	61.116
628.95	62.075
629.28	61.223
629.61	61.137
629.94	62.762
630.26	61.392
630.59	62.345
630.92	62.835
