SpectraSuite Data File
++++++++++++++++++++++++++++++++++++
Date: Wed May 13 16:38:06 PDT 2015
User: schluterlab
Dark Spectrum Present: Yes
Reference Spectrum Present: Yes
Number of Sampled Component Spectra: 1
Spectrometers: USB2E3373
Integration Time (usec): 3000 (USB2E3373)
Spectra Averaged: 3 (USB2E3373)
Boxcar Smoothing: 0 (USB2E3373)
Correct for Electrical Dark: No (USB2E3373)
Strobe/Lamp Enabled: No (USB2E3373)
Correct for Detector Non-linearity: No (USB2E3373)
Correct for Stray Light: No (USB2E3373)
Number of Pixels in Processed Spectrum: 2048
>>>>>Begin Processed Spectral Data<<<<<
178.53	0.000
178.91	-1500.000
179.29	-1375.000
179.67	-238.889
180.04	-1325.000
180.42	2450.000
180.80	1140.000
181.18	-1200.000
181.56	842.857
181.94	0.000
182.31	-828.571
182.69	1700.000
183.07	-600.000
183.45	-533.333
183.83	536.364
184.20	-450.000
184.58	2000.000
184.96	4800.000
185.34	-680.000
185.72	-575.000
186.09	-2850.000
186.47	2700.000
186.85	2450.000
187.23	4300.000
187.61	-1933.333
187.98	1325.000
188.36	509.091
188.74	500.000
189.12	-1120.000
189.49	580.000
189.87	-4400.000
190.25	-1350.000
190.63	421.429
191.00	392.308
191.38	916.667
191.76	-1125.000
192.14	1375.000
192.51	675.000
192.89	1016.667
193.27	562.500
193.65	-1325.000
194.02	480.000
194.40	980.000
194.78	540.000
195.15	466.667
195.53	590.000
195.91	-2250.000
196.29	375.000
196.66	278.947
197.04	-430.000
197.42	0.000
197.79	680.000
198.17	-4800.000
198.55	700.000
198.92	775.000
199.30	900.000
199.68	0.000
200.05	322.222
200.43	785.714
200.81	4600.000
201.18	1666.667
201.56	-1633.333
201.94	533.333
202.31	555.556
202.69	425.000
203.07	610.000
203.44	0.000
203.82	1325.000
204.19	800.000
204.57	442.857
204.95	737.500
205.32	1733.333
205.70	518.182
206.08	328.571
206.45	2700.000
206.83	393.750
207.20	816.667
207.58	740.000
207.96	333.333
208.33	825.000
208.71	-833.333
209.08	757.143
209.46	522.222
209.84	500.000
210.21	-1866.667
210.59	1425.000
210.96	-525.000
211.34	2600.000
211.71	520.000
212.09	700.000
212.46	0.000
212.84	1900.000
213.22	1350.000
213.59	-4500.000
213.97	916.667
214.34	757.143
214.72	527.273
215.09	1060.000
215.47	-1950.000
215.84	-2150.000
216.22	1433.333
216.59	400.000
216.97	1275.000
217.34	472.727
217.72	-800.000
218.09	0.000
218.47	-4600.000
218.84	566.667
219.22	685.714
219.59	1533.333
219.97	-528.571
220.34	860.000
220.72	-1733.333
221.09	364.286
221.47	1475.000
221.84	-933.333
222.22	0.000
222.59	1225.000
222.97	-2550.000
223.34	1240.000
223.72	423.077
224.09	1020.000
224.46	2300.000
224.84	-4200.000
225.21	-760.000
225.59	-4600.000
225.96	630.000
226.34	285.000
226.71	2950.000
227.08	737.500
227.46	570.000
227.83	-1100.000
228.21	-2150.000
228.58	577.778
228.95	-2600.000
229.33	-2500.000
229.70	1633.333
230.08	771.429
230.45	-700.000
230.82	383.333
231.20	816.667
231.57	700.000
231.95	441.667
232.32	254.545
232.69	354.545
233.07	700.000
233.44	346.154
233.81	-1466.667
234.19	273.684
234.56	383.333
234.93	450.000
235.31	536.364
235.68	330.769
236.05	400.000
236.43	166.667
236.80	263.158
237.17	4200.000
237.55	223.810
237.92	150.000
238.29	233.333
238.67	164.516
239.04	210.345
239.41	136.111
239.79	104.348
240.16	123.810
240.53	125.000
240.91	84.314
241.28	108.000
241.65	94.000
242.02	82.609
242.40	74.194
242.77	85.000
243.14	56.989
243.51	69.663
243.89	63.529
244.26	45.556
244.63	53.763
245.00	46.809
245.38	47.525
245.75	42.991
246.12	44.037
246.49	51.095
246.87	44.000
247.24	40.769
247.61	46.429
247.98	31.373
248.36	35.135
248.73	31.847
249.10	35.032
249.47	29.944
249.84	36.898
250.22	30.481
250.59	26.627
250.96	32.323
251.33	27.962
251.70	35.149
252.08	23.810
252.45	21.973
252.82	24.783
253.19	28.511
253.56	24.314
253.94	28.631
254.31	21.094
254.68	24.231
255.05	23.985
255.42	20.325
255.79	22.426
256.16	20.939
256.54	19.788
256.91	22.064
257.28	14.748
257.65	19.142
258.02	23.913
258.39	18.927
258.76	16.388
259.14	19.345
259.51	19.149
259.88	13.354
260.25	19.033
260.62	18.786
260.99	15.839
261.36	16.216
261.73	16.905
262.10	16.279
262.47	16.901
262.85	14.763
263.22	15.100
263.59	19.658
263.96	15.934
264.33	18.538
264.70	14.474
265.07	18.159
265.44	14.646
265.81	15.572
266.18	15.578
266.55	14.146
266.92	14.988
267.29	16.667
267.66	16.743
268.03	15.000
268.40	15.187
268.77	16.229
269.14	16.216
269.51	14.447
269.88	15.618
270.25	13.770
270.62	13.034
270.99	15.914
271.36	16.524
271.73	15.654
272.10	13.913
272.47	15.269
272.84	14.286
273.21	15.514
273.58	13.319
273.95	12.369
274.32	9.711
274.69	13.704
275.06	12.992
275.43	15.106
275.80	12.425
276.17	13.442
276.54	13.306
276.91	11.858
277.28	12.109
277.65	13.733
278.02	13.872
278.39	13.867
278.76	14.364
279.13	12.453
279.50	13.594
279.87	13.546
280.23	14.571
280.60	11.799
280.97	12.384
281.34	13.628
281.71	14.545
282.08	13.820
282.45	12.364
282.82	13.144
283.19	8.734
283.56	12.456
283.92	13.367
284.29	11.111
284.66	11.071
285.03	9.946
285.40	11.092
285.77	11.616
286.14	11.054
286.51	12.333
286.87	11.624
287.24	12.378
287.61	9.952
287.98	12.662
288.35	11.094
288.72	12.773
289.08	11.737
289.45	12.026
289.82	10.569
290.19	11.146
290.56	11.179
290.93	11.027
291.29	11.656
291.66	10.619
292.03	11.628
292.40	11.160
292.77	9.763
293.13	10.597
293.50	10.787
293.87	10.370
294.24	9.333
294.60	9.898
294.97	9.884
295.34	10.437
295.71	10.653
296.08	10.114
296.44	10.316
296.81	9.379
297.18	10.027
297.55	8.839
297.91	8.575
298.28	10.174
298.65	11.227
299.02	10.540
299.38	9.296
299.75	6.469
300.12	8.557
300.48	9.250
300.85	9.125
301.22	9.172
301.59	8.460
301.95	9.194
302.32	9.114
302.69	9.558
303.05	7.879
303.42	9.506
303.79	8.947
304.15	8.159
304.52	7.300
304.89	8.479
305.25	8.353
305.62	9.060
305.99	7.910
306.35	8.389
306.72	9.529
307.09	8.657
307.45	8.896
307.82	6.473
308.19	8.499
308.55	10.356
308.92	8.915
309.29	8.448
309.65	8.378
310.02	8.985
310.38	8.495
310.75	8.342
311.12	8.495
311.48	8.777
311.85	7.966
312.22	9.365
312.58	7.277
312.95	8.553
313.31	8.252
313.68	8.732
314.05	9.566
314.41	8.543
314.78	8.560
315.14	8.242
315.51	9.166
315.87	9.109
316.24	8.937
316.61	7.797
316.97	7.534
317.34	7.436
317.70	9.465
318.07	8.277
318.43	7.828
318.80	8.529
319.16	9.322
319.53	9.006
319.89	9.048
320.26	9.300
320.62	9.425
320.99	9.697
321.35	9.495
321.72	10.062
322.08	9.477
322.45	10.149
322.81	10.368
323.18	9.152
323.54	10.297
323.91	10.377
324.27	9.656
324.64	8.667
325.00	8.386
325.37	8.098
325.73	9.515
326.10	8.914
326.46	8.781
326.83	9.750
327.19	8.967
327.56	8.188
327.92	8.836
328.29	9.228
328.65	8.564
329.01	9.747
329.38	8.233
329.74	9.695
330.11	8.200
330.47	8.999
330.84	9.926
331.20	9.290
331.56	8.716
331.93	9.259
332.29	9.494
332.66	8.761
333.02	9.415
333.38	9.304
333.75	9.715
334.11	9.964
334.48	8.607
334.84	8.640
335.20	8.727
335.57	8.160
335.93	8.304
336.29	7.509
336.66	8.837
337.02	7.873
337.38	8.333
337.75	8.556
338.11	8.147
338.47	8.564
338.84	8.799
339.20	8.532
339.56	9.307
339.93	8.273
340.29	8.696
340.65	7.843
341.02	9.162
341.38	9.164
341.74	7.982
342.11	9.083
342.47	8.899
342.83	8.476
343.20	9.091
343.56	8.677
343.92	7.719
344.28	7.738
344.65	9.114
345.01	8.081
345.37	8.062
345.73	8.122
346.10	8.525
346.46	8.305
346.82	8.320
347.19	7.602
347.55	7.143
347.91	8.576
348.27	8.628
348.63	8.027
349.00	7.282
349.36	7.471
349.72	7.538
350.08	7.618
350.45	9.357
350.81	8.448
351.17	8.347
351.53	7.617
351.89	7.838
352.26	8.840
352.62	8.581
352.98	7.212
353.34	7.888
353.70	7.119
354.07	7.984
354.43	8.413
354.79	7.241
355.15	8.380
355.51	8.473
355.87	8.327
356.24	8.632
356.60	6.816
356.96	7.804
357.32	6.868
357.68	7.953
358.04	7.284
358.40	8.630
358.77	8.529
359.13	6.630
359.49	7.843
359.85	5.794
360.21	7.018
360.57	7.938
360.93	7.692
361.29	7.256
361.66	7.585
362.02	8.209
362.38	7.681
362.74	7.812
363.10	6.514
363.46	8.070
363.82	6.878
364.18	7.856
364.54	8.098
364.90	7.932
365.26	6.985
365.62	7.451
365.98	7.378
366.35	6.948
366.71	7.954
367.07	7.720
367.43	7.620
367.79	7.780
368.15	8.118
368.51	6.541
368.87	8.494
369.23	7.608
369.59	7.893
369.95	6.838
370.31	8.974
370.67	6.739
371.03	8.315
371.39	7.362
371.75	7.206
372.11	7.468
372.47	8.065
372.83	8.934
373.19	7.442
373.55	6.726
373.91	8.984
374.27	7.835
374.63	6.618
374.99	7.415
375.35	7.467
375.71	7.334
376.07	8.299
376.42	7.015
376.78	7.687
377.14	7.191
377.50	8.278
377.86	7.646
378.22	7.965
378.58	6.454
378.94	7.731
379.30	6.679
379.66	7.741
380.02	7.801
380.38	7.043
380.74	7.443
381.09	7.457
381.45	8.359
381.81	8.231
382.17	7.771
382.53	7.233
382.89	7.901
383.25	7.567
383.61	7.187
383.97	7.317
384.32	8.297
384.68	7.373
385.04	7.744
385.40	7.740
385.76	7.862
386.12	8.031
386.48	8.055
386.83	8.210
387.19	8.844
387.55	7.854
387.91	7.799
388.27	8.645
388.62	8.297
388.98	7.801
389.34	8.448
389.70	7.664
390.06	8.365
390.42	8.366
390.77	7.634
391.13	7.913
391.49	7.931
391.85	7.957
392.20	7.256
392.56	7.513
392.92	7.593
393.28	6.923
393.64	7.614
393.99	8.369
394.35	7.382
394.71	7.967
395.07	7.788
395.42	8.158
395.78	8.270
396.14	8.318
396.50	8.521
396.85	8.328
397.21	8.015
397.57	8.184
397.92	8.534
398.28	7.848
398.64	8.303
399.00	7.555
399.35	7.389
399.71	7.581
400.07	7.983
400.42	7.730
400.78	8.806
401.14	7.378
401.49	7.403
401.85	7.078
402.21	7.605
402.57	7.341
402.92	7.692
403.28	8.495
403.63	7.364
403.99	7.134
404.35	7.576
404.70	7.014
405.06	7.338
405.42	8.110
405.77	7.314
406.13	7.675
406.49	7.629
406.84	7.147
407.20	7.329
407.55	8.105
407.91	8.000
408.27	7.020
408.62	7.164
408.98	7.108
409.34	7.626
409.69	7.871
410.05	7.993
410.40	7.278
410.76	7.527
411.11	7.961
411.47	7.859
411.83	7.269
412.18	7.792
412.54	6.725
412.89	7.651
413.25	7.615
413.60	7.659
413.96	7.529
414.31	7.959
414.67	7.985
415.03	6.954
415.38	8.505
415.74	8.360
416.09	8.361
416.45	7.564
416.80	7.138
417.16	8.646
417.51	8.096
417.87	7.450
418.22	7.634
418.58	8.005
418.93	8.231
419.29	8.084
419.64	8.060
420.00	8.354
420.35	8.116
420.71	7.950
421.06	7.578
421.42	7.778
421.77	7.960
422.12	6.794
422.48	6.854
422.83	7.746
423.19	7.624
423.54	7.777
423.90	8.058
424.25	7.873
424.61	7.738
424.96	7.813
425.31	7.586
425.67	7.528
426.02	8.114
426.38	8.120
426.73	7.665
427.09	8.328
427.44	7.476
427.79	7.303
428.15	7.857
428.50	7.782
428.85	8.462
429.21	7.620
429.56	7.413
429.92	7.247
430.27	7.249
430.62	7.015
430.98	7.421
431.33	7.113
431.68	7.801
432.04	7.455
432.39	7.481
432.74	7.181
433.10	7.753
433.45	7.930
433.80	7.095
434.16	7.853
434.51	7.842
434.86	7.925
435.22	7.393
435.57	7.964
435.92	7.373
436.28	8.185
436.63	8.223
436.98	8.185
437.34	8.766
437.69	8.285
438.04	7.589
438.39	7.642
438.75	8.425
439.10	7.821
439.45	8.028
439.81	7.553
440.16	7.115
440.51	7.791
440.86	8.743
441.22	7.898
441.57	8.121
441.92	7.830
442.27	7.266
442.63	7.425
442.98	8.620
443.33	7.935
443.68	7.796
444.03	7.272
444.39	6.962
444.74	7.522
445.09	8.086
445.44	7.654
445.79	7.521
446.15	8.576
446.50	7.270
446.85	7.760
447.20	7.598
447.55	7.873
447.91	7.998
448.26	7.735
448.61	7.688
448.96	9.025
449.31	8.268
449.66	7.878
450.02	7.855
450.37	8.050
450.72	7.727
451.07	7.983
451.42	7.781
451.77	8.749
452.12	7.794
452.47	8.893
452.83	7.751
453.18	8.741
453.53	8.411
453.88	7.974
454.23	8.368
454.58	8.904
454.93	9.154
455.28	7.419
455.63	8.617
455.98	8.690
456.34	7.726
456.69	8.391
457.04	8.607
457.39	7.832
457.74	7.951
458.09	8.453
458.44	8.267
458.79	7.592
459.14	8.747
459.49	7.998
459.84	7.258
460.19	8.014
460.54	7.581
460.89	8.502
461.24	8.379
461.59	8.948
461.94	8.076
462.29	8.546
462.64	8.424
462.99	9.044
463.34	9.333
463.69	8.443
464.04	8.754
464.39	9.275
464.74	8.794
465.09	8.685
465.44	7.756
465.79	7.215
466.14	8.758
466.49	7.731
466.84	9.282
467.19	9.294
467.54	8.750
467.89	8.403
468.24	8.551
468.59	8.791
468.94	7.514
469.29	8.226
469.64	9.505
469.99	8.187
470.34	8.454
470.68	8.836
471.03	9.388
471.38	8.478
471.73	9.061
472.08	9.211
472.43	8.794
472.78	8.361
473.13	8.729
473.48	8.801
473.83	8.598
474.17	8.090
474.52	9.367
474.87	9.340
475.22	8.880
475.57	8.168
475.92	8.444
476.27	8.625
476.61	8.163
476.96	7.916
477.31	7.797
477.66	8.534
478.01	7.841
478.36	8.355
478.70	7.321
479.05	8.040
479.40	7.830
479.75	7.880
480.10	7.555
480.45	7.901
480.79	7.740
481.14	7.877
481.49	7.879
481.84	7.956
482.19	8.133
482.53	7.982
482.88	8.004
483.23	8.037
483.58	8.326
483.92	7.966
484.27	7.146
484.62	8.060
484.97	7.844
485.31	7.568
485.66	7.153
486.01	6.301
486.36	5.849
486.70	5.930
487.05	6.405
487.40	6.818
487.75	6.818
488.09	6.915
488.44	7.138
488.79	7.740
489.13	8.136
489.48	7.586
489.83	7.337
490.17	7.935
490.52	7.662
490.87	7.734
491.22	7.731
491.56	7.563
491.91	8.236
492.26	8.176
492.60	8.249
492.95	7.671
493.30	8.178
493.64	7.606
493.99	7.614
494.34	7.956
494.68	8.333
495.03	8.271
495.37	8.469
495.72	8.674
496.07	8.677
496.41	7.566
496.76	7.872
497.11	8.149
497.45	8.291
497.80	8.301
498.14	7.778
498.49	8.098
498.84	8.581
499.18	7.905
499.53	8.072
499.87	8.434
500.22	8.620
500.56	8.544
500.91	7.596
501.26	8.013
501.60	9.018
501.95	8.341
502.29	8.903
502.64	7.775
502.98	8.602
503.33	8.044
503.67	8.121
504.02	7.951
504.36	8.470
504.71	7.865
505.06	8.578
505.40	8.508
505.75	8.293
506.09	8.309
506.44	7.795
506.78	8.329
507.13	8.531
507.47	8.939
507.82	8.713
508.16	8.612
508.51	8.676
508.85	8.491
509.19	8.827
509.54	9.133
509.88	8.655
510.23	8.329
510.57	9.649
510.92	9.011
511.26	8.684
511.61	8.766
511.95	8.351
512.30	8.431
512.64	9.404
512.98	8.628
513.33	9.636
513.67	8.431
514.02	8.496
514.36	9.121
514.70	9.186
515.05	8.756
515.39	9.534
515.74	9.009
516.08	9.503
516.42	9.267
516.77	9.532
517.11	8.768
517.46	9.650
517.80	9.466
518.14	8.686
518.49	9.335
518.83	9.432
519.17	9.353
519.52	9.394
519.86	9.298
520.20	9.306
520.55	10.114
520.89	9.732
521.23	9.530
521.58	10.564
521.92	10.104
522.26	9.213
522.61	9.969
522.95	9.147
523.29	9.677
523.64	10.000
523.98	9.365
524.32	10.193
524.66	9.862
525.01	9.620
525.35	9.665
525.69	9.729
526.04	9.844
526.38	9.945
526.72	10.061
527.06	9.605
527.41	9.530
527.75	10.096
528.09	10.212
528.43	10.389
528.78	9.834
529.12	9.636
529.46	9.859
529.80	9.715
530.15	10.467
530.49	8.615
530.83	10.063
531.17	9.987
531.51	10.960
531.86	9.806
532.20	10.300
532.54	9.865
532.88	10.141
533.22	9.994
533.57	10.370
533.91	9.753
534.25	10.207
534.59	10.189
534.93	10.173
535.27	10.139
535.62	9.951
535.96	9.730
536.30	10.490
536.64	10.431
536.98	10.617
537.32	10.138
537.66	10.467
538.01	9.809
538.35	10.407
538.69	10.913
539.03	10.136
539.37	10.288
539.71	8.944
540.05	9.608
540.39	9.502
540.73	9.832
541.07	11.551
541.42	9.850
541.76	11.226
542.10	10.414
542.44	10.132
542.78	10.211
543.12	9.853
543.46	10.885
543.80	10.540
544.14	10.013
544.48	10.349
544.82	9.365
545.16	11.061
545.50	10.219
545.84	10.551
546.18	9.832
546.52	10.599
546.86	10.309
547.20	10.789
547.54	10.554
547.88	11.416
548.22	10.149
548.56	9.623
548.90	9.731
549.24	9.832
549.58	10.641
549.92	10.165
550.26	10.014
550.60	10.927
550.94	10.493
551.28	10.168
551.62	10.568
551.96	10.246
552.30	11.468
552.64	10.953
552.98	10.644
553.32	10.722
553.66	10.498
554.00	10.913
554.34	10.766
554.68	11.230
555.02	11.072
555.36	10.717
555.69	10.284
556.03	9.892
556.37	10.368
556.71	9.754
557.05	10.924
557.39	11.127
557.73	10.939
558.07	11.095
558.41	10.420
558.75	11.389
559.08	11.111
559.42	10.884
559.76	11.103
560.10	10.421
560.44	11.181
560.78	9.514
561.12	10.158
561.45	11.082
561.79	10.349
562.13	10.463
562.47	10.724
562.81	10.460
563.15	10.769
563.48	11.008
563.82	10.568
564.16	10.203
564.50	10.221
564.84	10.051
565.17	9.846
565.51	9.776
565.85	10.723
566.19	10.081
566.52	10.956
566.86	9.946
567.20	10.318
567.54	10.160
567.88	9.506
568.21	10.212
568.55	10.061
568.89	8.998
569.23	8.913
569.56	8.907
569.90	8.642
570.24	8.611
570.57	8.399
570.91	7.983
571.25	8.122
571.59	8.719
571.92	7.748
572.26	8.203
572.60	8.108
572.93	8.066
573.27	8.548
573.61	8.124
573.95	8.243
574.28	7.462
574.62	7.702
574.96	7.933
575.29	7.832
575.63	7.444
575.97	7.706
576.30	7.966
576.64	8.062
576.98	7.730
577.31	7.486
577.65	7.600
577.98	7.579
578.32	7.208
578.66	7.400
578.99	7.875
579.33	7.432
579.67	7.662
580.00	8.032
580.34	7.784
580.67	7.776
581.01	7.870
581.35	7.507
581.68	7.644
582.02	7.294
582.35	6.980
582.69	7.201
583.02	7.261
583.36	7.793
583.70	7.792
584.03	8.124
584.37	8.248
584.70	7.863
585.04	7.926
585.37	7.759
585.71	8.106
586.04	7.731
586.38	8.098
586.72	8.699
587.05	7.905
587.39	7.546
587.72	7.962
588.06	7.951
588.39	7.929
588.73	8.126
589.06	8.445
589.40	8.384
589.73	8.237
590.07	8.577
590.40	8.440
590.73	8.782
591.07	9.605
591.40	9.026
591.74	9.740
592.07	9.511
592.41	9.632
592.74	8.464
593.08	8.594
593.41	8.637
593.75	7.995
594.08	8.314
594.41	8.731
594.75	8.725
595.08	9.091
595.42	8.897
595.75	8.689
596.09	9.012
596.42	9.430
596.75	9.202
597.09	9.654
597.42	8.769
597.75	9.444
598.09	9.652
598.42	9.278
598.76	8.877
599.09	8.514
599.42	8.479
599.76	8.419
600.09	8.415
600.42	8.181
600.76	8.536
601.09	8.306
601.42	8.752
601.76	9.070
602.09	8.854
602.42	8.838
602.76	9.472
603.09	9.087
603.42	9.098
603.76	8.727
604.09	8.298
604.42	9.172
604.76	9.026
605.09	8.606
605.42	8.764
605.75	8.651
606.09	8.459
606.42	9.031
606.75	9.000
607.09	9.669
607.42	8.815
607.75	8.819
608.08	9.205
608.42	9.727
608.75	9.288
609.08	9.019
609.41	9.995
609.75	9.100
610.08	10.273
610.41	8.473
610.74	9.177
611.07	9.091
611.41	9.127
611.74	9.854
612.07	9.265
612.40	9.759
612.73	8.842
613.07	9.644
613.40	10.163
613.73	9.072
614.06	9.570
614.39	9.334
614.72	9.947
615.06	10.084
615.39	8.758
615.72	9.560
616.05	9.197
616.38	9.894
616.71	9.620
617.05	10.365
617.38	9.681
617.71	9.790
618.04	10.276
618.37	10.171
618.70	10.392
619.03	10.855
619.36	10.794
619.69	10.141
620.03	10.852
620.36	11.029
620.69	11.301
621.02	10.693
621.35	10.807
621.68	10.514
622.01	10.449
622.34	10.893
622.67	9.962
623.00	9.831
623.33	10.865
623.66	11.079
623.99	9.720
624.32	11.341
624.65	9.816
624.99	10.198
625.32	10.862
625.65	11.119
625.98	11.760
626.31	11.275
626.64	12.082
626.97	12.386
627.30	11.222
627.63	11.403
627.96	11.438
628.29	12.073
628.62	11.436
628.95	13.113
629.28	11.679
629.61	12.924
629.94	11.619
630.26	12.011
630.59	11.630
630.92	12.644
631.25	12.340
631.58	12.613
631.91	12.475
632.24	12.131
632.57	12.802
632.90	12.939
633.23	12.081
633.56	13.672
633.89	13.477
634.22	13.280
634.55	13.491
634.88	12.455
635.20	14.098
635.53	14.458
635.86	12.748
636.19	13.412
636.52	13.610
636.85	13.288
637.18	11.175
637.51	13.121
637.83	10.851
638.16	13.171
638.49	15.239
638.82	15.044
639.15	13.625
639.48	14.713
639.81	13.405
640.13	15.755
640.46	14.497
640.79	15.588
641.12	12.792
641.45	13.687
641.77	15.169
642.10	14.474
642.43	13.964
642.76	13.932
643.09	15.031
643.41	13.809
643.74	16.512
644.07	15.396
644.40	15.184
644.73	16.378
645.05	17.274
645.38	14.850
645.71	15.298
646.04	16.611
646.36	17.362
646.69	15.886
647.02	16.327
647.35	15.636
647.67	16.991
648.00	14.797
648.33	15.677
648.66	15.152
648.98	15.742
