SpectraSuite Data File
++++++++++++++++++++++++++++++++++++
Date: Wed May 13 16:03:47 PDT 2015
User: schluterlab
Dark Spectrum Present: Yes
Reference Spectrum Present: Yes
Number of Sampled Component Spectra: 1
Spectrometers: USB2E3373
Integration Time (usec): 3000 (USB2E3373)
Spectra Averaged: 3 (USB2E3373)
Boxcar Smoothing: 0 (USB2E3373)
Correct for Electrical Dark: No (USB2E3373)
Strobe/Lamp Enabled: No (USB2E3373)
Correct for Detector Non-linearity: No (USB2E3373)
Correct for Stray Light: No (USB2E3373)
Number of Pixels in Processed Spectrum: 2048
>>>>>Begin Processed Spectral Data<<<<<
178.53	0.000
178.91	-625.000
179.29	-550.000
179.67	-105.556
180.04	-675.000
180.42	1550.000
180.80	500.000
181.18	-300.000
181.56	342.857
181.94	0.000
182.31	-242.857
182.69	900.000
183.07	-287.500
183.45	-155.556
183.83	327.273
184.20	-180.000
184.58	850.000
184.96	3100.000
185.34	-320.000
185.72	-262.500
186.09	-1000.000
186.47	1350.000
186.85	1400.000
187.23	2200.000
187.61	-1033.333
187.98	550.000
188.36	363.636
188.74	290.909
189.12	-240.000
189.49	260.000
189.87	-2200.000
190.25	-500.000
190.63	242.857
191.00	238.462
191.38	416.667
191.76	-650.000
192.14	575.000
192.51	462.500
192.89	350.000
193.27	250.000
193.65	-675.000
194.02	260.000
194.40	440.000
194.78	270.000
195.15	300.000
195.53	370.000
195.91	-650.000
196.29	181.250
196.66	168.421
197.04	-50.000
197.42	0.000
197.79	440.000
198.17	-1800.000
198.55	328.571
198.92	362.500
199.30	540.000
199.68	0.000
200.05	211.111
200.43	285.714
200.81	2000.000
201.18	966.667
201.56	-933.333
201.94	211.111
202.31	344.444
202.69	216.667
203.07	300.000
203.44	0.000
203.82	650.000
204.19	271.429
204.57	171.429
204.95	375.000
205.32	1000.000
205.70	245.455
206.08	192.857
206.45	1200.000
206.83	206.250
207.20	566.667
207.58	200.000
207.96	150.000
208.33	337.500
208.71	-416.667
209.08	471.429
209.46	311.111
209.84	190.909
210.21	-500.000
210.59	550.000
210.96	-162.500
211.34	1250.000
211.71	300.000
212.09	116.667
212.46	0.000
212.84	733.333
213.22	700.000
213.59	-2000.000
213.97	483.333
214.34	500.000
214.72	290.909
215.09	540.000
215.47	-600.000
215.84	-1200.000
216.22	733.333
216.59	157.143
216.97	625.000
217.34	172.727
217.72	-350.000
218.09	0.000
218.47	-2300.000
218.84	377.778
219.22	414.286
219.59	1100.000
219.97	-257.143
220.34	320.000
220.72	-766.667
221.09	178.571
221.47	800.000
221.84	-283.333
222.22	0.000
222.59	675.000
222.97	-800.000
223.34	600.000
223.72	215.385
224.09	380.000
224.46	1050.000
224.84	-2900.000
225.21	-480.000
225.59	-1600.000
225.96	370.000
226.34	130.000
226.71	700.000
227.08	162.500
227.46	220.000
227.83	-275.000
228.21	-1050.000
228.58	222.222
228.95	-1000.000
229.33	-900.000
229.70	866.667
230.08	228.571
230.45	-300.000
230.82	258.333
231.20	250.000
231.57	285.714
231.95	291.667
232.32	122.727
232.69	172.727
233.07	285.714
233.44	115.385
233.81	-600.000
234.19	131.579
234.56	241.667
234.93	91.667
235.31	245.455
235.68	115.385
236.05	135.714
236.43	87.879
236.80	121.053
237.17	1500.000
237.55	128.571
237.92	121.429
238.29	157.143
238.67	41.935
239.04	62.069
239.41	33.333
239.79	47.826
240.16	47.619
240.53	43.182
240.91	21.569
241.28	44.000
241.65	38.000
242.02	36.232
242.40	33.871
242.77	20.000
243.14	34.409
243.51	24.719
243.89	20.000
244.26	32.222
244.63	25.806
245.00	24.468
245.38	21.782
245.75	21.495
246.12	18.349
246.49	32.847
246.87	28.800
247.24	17.692
247.61	17.857
247.98	23.529
248.36	6.081
248.73	10.828
249.10	16.561
249.47	17.514
249.84	13.369
250.22	17.112
250.59	14.201
250.96	14.141
251.33	17.536
251.70	9.901
252.08	12.857
252.45	12.556
252.82	7.826
253.19	13.191
253.56	7.843
253.94	11.203
254.31	12.891
254.68	11.923
255.05	11.439
255.42	9.756
255.79	8.456
256.16	10.469
256.54	8.481
256.91	8.897
257.28	5.755
257.65	9.241
258.02	11.180
258.39	10.410
258.76	10.033
259.14	11.012
259.51	7.903
259.88	5.901
260.25	9.063
260.62	8.671
260.99	5.280
261.36	9.610
261.73	4.585
262.10	4.360
262.47	9.014
262.85	4.457
263.22	3.989
263.59	9.402
263.96	6.044
264.33	6.789
264.70	7.368
265.07	9.463
265.44	9.343
265.81	7.786
266.18	7.286
266.55	4.146
266.92	7.371
267.29	5.556
267.66	5.505
268.03	5.000
268.40	7.009
268.77	5.489
269.14	6.982
269.51	5.869
269.88	7.925
270.25	7.449
270.62	3.820
270.99	9.462
271.36	7.082
271.73	3.271
272.10	5.870
272.47	7.097
272.84	6.710
273.21	8.386
273.58	5.022
273.95	5.031
274.32	5.165
274.69	6.638
275.06	5.709
275.43	5.106
275.80	6.814
276.17	3.870
276.54	4.574
276.91	5.731
277.28	4.492
277.65	5.609
278.02	1.863
278.39	5.664
278.76	5.455
279.13	5.849
279.50	5.028
279.87	3.785
280.23	5.589
280.60	4.836
280.97	4.621
281.34	4.425
281.71	6.364
282.08	5.758
282.45	4.545
282.82	5.684
283.19	3.743
283.56	5.088
283.92	6.430
284.29	4.762
284.66	2.722
285.03	3.617
285.40	4.401
285.77	4.040
286.14	5.181
286.51	6.500
286.87	6.838
287.24	7.492
287.61	5.618
287.98	4.545
288.35	5.547
288.72	3.427
289.08	6.416
289.45	4.119
289.82	5.528
290.19	3.454
290.56	3.063
290.93	3.625
291.29	2.914
291.66	4.867
292.03	7.122
292.40	6.314
292.77	5.917
293.13	4.478
293.50	2.624
293.87	5.778
294.24	3.259
294.60	3.202
294.97	4.651
295.34	5.642
295.71	5.256
296.08	4.274
296.44	3.439
296.81	3.435
297.18	5.149
297.55	3.958
297.91	4.354
298.28	5.489
298.65	4.961
299.02	3.953
299.38	3.851
299.75	3.235
300.12	2.554
300.48	3.750
300.85	3.329
301.22	5.223
301.59	3.662
301.95	4.786
302.32	4.108
302.69	4.421
303.05	3.636
303.42	3.333
303.79	4.757
304.15	3.380
304.52	2.665
304.89	3.717
305.25	3.132
305.62	4.870
305.99	3.424
306.35	3.468
306.72	3.812
307.09	5.105
307.45	3.829
307.82	2.679
308.19	4.636
308.55	4.207
308.92	4.619
309.29	4.646
309.65	4.878
310.02	3.805
310.38	3.548
310.75	5.280
311.12	4.811
311.48	4.911
311.85	4.612
312.22	4.787
312.58	3.742
312.95	4.541
313.31	3.495
313.68	4.470
314.05	5.819
314.41	5.126
314.78	4.230
315.14	5.362
315.51	4.531
315.87	4.059
316.24	4.071
316.61	3.801
316.97	4.501
317.34	3.816
317.70	5.449
318.07	4.524
318.43	3.131
318.80	5.061
319.16	4.331
319.53	3.752
319.89	4.381
320.26	5.400
320.62	4.067
320.99	4.747
321.35	4.848
321.72	4.825
322.08	5.627
322.45	5.473
322.81	5.620
323.18	5.202
323.54	5.288
323.91	5.849
324.27	5.545
324.64	4.287
325.00	4.779
325.37	6.005
325.73	5.476
326.10	4.678
326.46	4.839
326.83	5.867
327.19	5.124
327.56	4.791
327.92	4.112
328.29	4.880
328.65	5.157
329.01	5.596
329.38	4.533
329.74	4.432
330.11	6.221
330.47	6.520
330.84	6.158
331.20	5.647
331.56	5.688
331.93	4.352
332.29	4.969
332.66	6.283
333.02	5.027
333.38	5.330
333.75	5.615
334.11	5.249
334.48	5.235
334.84	4.779
335.20	6.000
335.57	5.077
335.93	4.821
336.29	3.938
336.66	4.779
337.02	4.796
337.38	5.556
337.75	4.278
338.11	4.476
338.47	3.959
338.84	4.400
339.20	3.945
339.56	5.201
339.93	4.273
340.29	3.895
340.65	4.367
341.02	4.363
341.38	4.804
341.74	5.439
342.11	4.803
342.47	4.581
342.83	4.538
343.20	5.281
343.56	5.139
343.92	3.947
344.28	4.932
344.65	5.675
345.01	4.882
345.37	3.516
345.73	4.399
346.10	4.518
346.46	4.746
346.82	3.871
347.19	4.344
347.55	3.941
347.91	4.935
348.27	5.588
348.63	5.017
349.00	5.016
349.36	4.598
349.72	5.934
350.08	5.105
350.45	4.882
350.81	4.143
351.17	4.700
351.53	4.259
351.89	4.538
352.26	5.525
352.62	4.651
352.98	4.295
353.34	3.862
353.70	3.355
354.07	5.242
354.43	4.365
354.79	4.344
355.15	3.911
355.51	5.116
355.87	4.163
356.24	4.072
356.60	4.651
356.96	4.827
357.32	3.925
357.68	4.724
358.04	4.751
358.40	5.542
358.77	4.382
359.13	3.788
359.49	5.176
359.85	2.937
360.21	3.349
360.57	5.136
360.93	4.231
361.29	3.930
361.66	4.412
362.02	4.254
362.38	4.639
362.74	5.134
363.10	4.293
363.46	4.035
363.82	4.384
364.18	5.140
364.54	4.681
364.90	5.382
365.26	4.559
365.62	4.456
365.98	3.944
366.35	4.011
366.71	4.845
367.07	3.350
367.43	3.846
367.79	4.497
368.15	5.244
368.51	4.797
368.87	5.282
369.23	4.389
369.59	4.634
369.95	4.412
370.31	5.199
370.67	4.348
371.03	4.944
371.39	3.863
371.75	4.412
372.11	4.054
372.47	5.279
372.83	4.323
373.19	3.757
373.55	4.952
373.91	4.566
374.27	4.674
374.63	3.418
374.99	4.802
375.35	3.908
375.71	4.455
376.07	4.458
376.42	4.195
376.78	5.235
377.14	4.817
377.50	4.040
377.86	4.322
378.22	4.867
378.58	3.571
378.94	5.217
379.30	4.198
379.66	4.695
380.02	4.668
380.38	4.007
380.74	5.222
381.09	5.257
381.45	5.040
381.81	5.590
382.17	5.159
382.53	4.780
382.89	5.000
383.25	4.190
383.61	5.081
383.97	5.066
384.32	5.365
384.68	4.771
385.04	4.610
385.40	4.396
385.76	5.221
386.12	5.311
386.48	5.223
386.83	4.618
387.19	5.195
387.55	4.762
387.91	5.018
388.27	4.476
388.62	6.146
388.98	5.037
389.34	5.882
389.70	5.886
390.06	5.640
390.42	5.188
390.77	6.107
391.13	5.105
391.49	5.901
391.85	4.647
392.20	4.669
392.56	5.051
392.92	5.709
393.28	4.260
393.64	5.815
393.99	5.315
394.35	5.459
394.71	5.583
395.07	5.670
395.42	5.192
395.78	5.662
396.14	5.525
396.50	6.203
396.85	5.531
397.21	5.487
397.57	5.952
397.92	5.589
398.28	5.213
398.64	5.376
399.00	5.484
399.35	5.584
399.71	5.498
400.07	5.973
400.42	5.951
400.78	5.971
401.14	5.427
401.49	5.433
401.85	5.263
402.21	5.689
402.57	5.490
402.92	5.485
403.28	6.808
403.63	5.507
403.99	4.777
404.35	6.364
404.70	5.396
405.06	4.718
405.42	5.864
405.77	5.314
406.13	5.135
406.49	5.736
406.84	6.261
407.20	5.437
407.55	5.488
407.91	6.200
408.27	5.552
408.62	5.840
408.98	5.331
409.34	5.843
409.69	5.806
410.05	5.390
410.40	5.627
410.76	6.033
411.11	6.031
411.47	6.134
411.83	6.048
412.18	5.751
412.54	6.102
412.89	5.843
413.25	5.785
413.60	6.115
413.96	5.343
414.31	5.589
414.67	5.957
415.03	5.166
415.38	6.314
415.74	5.916
416.09	6.140
416.45	6.024
416.80	5.354
417.16	7.105
417.51	5.839
417.87	5.652
418.22	5.804
418.58	6.649
418.93	6.143
419.29	5.538
419.64	6.675
420.00	5.976
420.35	6.609
420.71	6.037
421.06	5.131
421.42	5.614
421.77	6.726
422.12	5.446
422.48	4.965
422.83	5.649
423.19	6.243
423.54	5.862
423.90	6.087
424.25	5.974
424.61	5.833
424.96	5.364
425.31	6.257
425.67	5.506
426.02	5.600
426.38	6.349
426.73	5.617
427.09	6.201
427.44	5.808
427.79	5.808
428.15	6.131
428.50	5.734
428.85	6.496
429.21	5.798
429.56	5.495
429.92	6.744
430.27	5.561
430.62	5.786
430.98	5.916
431.33	6.340
431.68	5.759
432.04	6.443
432.39	6.054
432.74	6.164
433.10	5.942
433.45	6.239
433.80	6.486
434.16	6.464
434.51	6.211
434.86	6.784
435.22	6.281
435.57	6.869
435.92	6.378
436.28	6.880
436.63	6.954
436.98	5.438
437.34	6.082
437.69	6.534
438.04	5.790
438.39	6.090
438.75	6.508
439.10	6.145
439.45	6.139
439.81	6.526
440.16	6.324
440.51	5.800
440.86	6.717
441.22	5.840
441.57	6.423
441.92	6.192
442.27	5.705
442.63	5.687
442.98	7.380
443.33	6.087
443.68	6.350
444.03	6.393
444.39	6.134
444.74	6.277
445.09	6.631
445.44	6.397
445.79	6.482
446.15	6.776
446.50	5.654
446.85	5.858
447.20	6.374
447.55	6.086
447.91	6.343
448.26	6.678
448.61	6.614
448.96	6.921
449.31	7.087
449.66	6.640
450.02	5.738
450.37	6.803
450.72	6.148
451.07	6.338
451.42	6.565
451.77	6.753
452.12	6.697
452.47	6.405
452.83	5.653
453.18	6.846
453.53	6.617
453.88	5.198
454.23	6.396
454.58	6.118
454.93	6.675
455.28	5.860
455.63	6.189
455.98	7.440
456.34	6.093
456.69	6.512
457.04	6.687
457.39	6.195
457.74	6.094
458.09	7.246
458.44	6.670
458.79	5.586
459.14	6.546
459.49	6.421
459.84	6.094
460.19	6.011
460.54	6.250
460.89	6.802
461.24	6.618
461.59	7.728
461.94	6.535
462.29	7.062
462.64	6.765
462.99	5.205
463.34	7.333
463.69	5.879
464.04	6.551
464.39	6.725
464.74	6.061
465.09	5.911
465.44	6.814
465.79	6.152
466.14	6.678
466.49	7.008
466.84	6.421
467.19	7.061
467.54	7.688
467.89	7.143
468.24	7.563
468.59	7.570
468.94	7.086
469.29	6.427
469.64	7.296
469.99	6.766
470.34	6.011
470.68	6.968
471.03	6.667
471.38	6.185
471.73	7.262
472.08	7.697
472.43	6.533
472.78	7.307
473.13	6.932
473.48	7.428
473.83	6.646
474.17	6.658
474.52	6.700
474.87	7.647
475.22	6.674
475.57	6.341
475.92	6.267
476.27	6.595
476.61	6.784
476.96	6.377
477.31	6.593
477.66	6.291
478.01	7.057
478.36	6.399
478.70	6.594
479.05	6.443
479.40	6.704
479.75	6.558
480.10	5.865
480.45	7.139
480.79	5.781
481.14	6.605
481.49	7.119
481.84	6.219
482.19	7.179
482.53	5.963
482.88	6.654
483.23	6.121
483.58	7.279
483.92	6.373
484.27	5.882
484.62	6.422
484.97	6.622
485.31	6.644
485.66	5.801
486.01	5.564
486.36	5.350
486.70	5.216
487.05	5.728
487.40	5.950
487.75	5.723
488.09	5.945
488.44	5.804
488.79	6.112
489.13	6.341
489.48	6.403
489.83	5.913
490.17	6.576
490.52	6.466
490.87	6.242
491.22	6.503
491.56	5.695
491.91	6.422
492.26	6.293
492.60	6.267
492.95	5.847
493.30	6.495
493.64	6.066
493.99	5.942
494.34	6.846
494.68	7.051
495.03	7.143
495.37	6.608
495.72	6.823
496.07	6.636
496.41	5.841
496.76	6.157
497.11	6.799
497.45	6.241
497.80	6.430
498.14	6.184
498.49	6.634
498.84	7.191
499.18	6.381
499.53	6.220
499.87	6.151
500.22	6.830
500.56	6.699
500.91	6.923
501.26	6.449
501.60	6.265
501.95	6.187
502.29	6.888
502.64	6.611
502.98	6.452
503.33	6.581
503.67	6.543
504.02	6.548
504.36	7.347
504.71	6.497
505.06	6.988
505.40	7.535
505.75	6.075
506.09	6.900
506.44	6.709
506.78	6.624
507.13	7.118
507.47	7.071
507.82	7.345
508.16	6.940
508.51	7.458
508.85	6.902
509.19	6.633
509.54	7.092
509.88	6.131
510.23	6.838
510.57	7.895
510.92	6.991
511.26	7.246
511.61	7.417
511.95	6.576
512.30	6.628
512.64	7.362
512.98	7.074
513.33	6.799
513.67	6.937
514.02	6.115
514.36	7.373
514.70	7.194
515.05	6.693
515.39	7.572
515.74	7.095
516.08	7.714
516.42	7.769
516.77	8.027
517.11	6.826
517.46	7.957
517.80	7.666
518.14	6.775
518.49	7.468
518.83	8.068
519.17	7.159
519.52	8.149
519.86	7.359
520.20	7.630
520.55	8.199
520.89	7.847
521.23	8.082
521.58	8.223
521.92	7.655
522.26	6.894
522.61	7.227
522.95	6.753
523.29	7.304
523.64	8.171
523.98	8.318
524.32	8.142
524.66	7.637
525.01	7.108
525.35	7.807
525.69	7.389
526.04	7.290
526.38	7.688
526.72	7.730
527.06	7.219
527.41	7.178
527.75	7.653
528.09	8.157
528.43	7.457
528.78	8.052
529.12	7.636
529.46	8.267
529.80	8.045
530.15	8.037
530.49	7.446
530.83	7.848
531.17	7.572
531.51	8.495
531.86	7.548
532.20	8.214
532.54	7.751
532.88	7.831
533.22	7.121
533.57	7.654
533.91	7.766
534.25	8.262
534.59	7.444
534.93	7.674
535.27	7.906
535.62	8.242
535.96	8.600
536.30	7.629
536.64	7.727
536.98	7.366
537.32	6.715
537.66	7.600
538.01	8.295
538.35	7.886
538.69	8.232
539.03	7.537
539.37	7.157
539.71	6.870
540.05	7.974
540.39	7.907
540.73	7.503
541.07	8.761
541.42	8.089
541.76	8.258
542.10	7.956
542.44	7.616
542.78	8.762
543.12	6.974
543.46	8.590
543.80	8.068
544.14	7.702
544.48	7.746
544.82	7.954
545.16	6.897
545.50	7.648
545.84	8.602
546.18	7.677
546.52	7.983
546.86	7.766
547.20	8.496
547.54	8.083
547.88	8.737
548.22	8.593
548.56	7.799
548.90	6.786
549.24	7.340
549.58	7.844
549.92	7.555
550.26	8.310
550.60	8.299
550.94	7.958
551.28	7.388
551.62	8.339
551.96	7.860
552.30	8.669
552.64	8.316
552.98	7.797
553.32	8.429
553.66	8.384
554.00	9.197
554.34	7.937
554.68	9.084
555.02	8.039
555.36	8.629
555.69	8.119
556.03	8.345
556.37	7.572
556.71	8.322
557.05	7.983
557.39	8.188
557.73	8.045
558.07	7.977
558.41	7.742
558.75	8.229
559.08	8.576
559.42	8.012
559.76	8.750
560.10	7.994
560.44	8.246
560.78	7.186
561.12	8.047
561.45	9.126
561.79	8.174
562.13	7.780
562.47	7.787
562.81	8.020
563.15	9.298
563.48	8.422
563.82	8.480
564.16	7.521
564.50	7.357
564.84	7.712
565.17	7.979
565.51	8.051
565.85	7.805
566.19	7.765
566.52	7.536
566.86	8.017
567.20	8.196
567.54	7.363
567.88	7.061
568.21	8.148
568.55	7.583
568.89	6.809
569.23	7.576
569.56	7.166
569.90	7.170
570.24	7.069
570.57	6.936
570.91	6.626
571.25	6.856
571.59	6.598
571.92	6.394
572.26	6.297
572.60	6.697
572.93	6.507
573.27	6.714
573.61	6.672
573.95	6.615
574.28	6.080
574.62	6.001
574.96	6.284
575.29	6.256
575.63	6.377
575.97	6.144
576.30	7.037
576.64	6.267
576.98	5.639
577.31	6.446
577.65	6.406
577.98	6.152
578.32	6.076
578.66	6.268
578.99	6.300
579.33	5.786
579.67	6.033
580.00	6.114
580.34	6.360
580.67	6.405
581.01	6.701
581.35	6.075
581.68	6.305
582.02	5.965
582.35	5.949
582.69	5.931
583.02	6.236
583.36	6.226
583.70	6.419
584.03	6.531
584.37	6.561
584.70	6.191
585.04	6.409
585.37	6.314
585.71	6.227
586.04	6.306
586.38	6.217
586.72	6.628
587.05	6.112
587.39	6.016
587.72	6.081
588.06	6.190
588.39	6.447
588.73	6.043
589.06	6.731
589.40	6.465
589.73	6.512
590.07	6.299
590.40	6.650
590.73	6.635
591.07	7.407
591.40	6.833
591.74	7.273
592.07	7.373
592.41	6.904
592.74	6.667
593.08	6.729
593.41	6.422
593.75	6.652
594.08	6.805
594.41	7.034
594.75	6.543
595.08	6.836
595.42	6.130
595.75	6.838
596.09	6.910
596.42	6.994
596.75	7.007
597.09	7.749
597.42	6.661
597.75	7.417
598.09	7.087
598.42	7.131
598.76	6.931
599.09	6.765
599.42	6.441
599.76	6.808
600.09	6.667
600.42	6.063
600.76	6.536
601.09	6.667
601.42	6.583
601.76	6.565
602.09	6.324
602.42	7.086
602.76	6.812
603.09	6.452
603.42	6.911
603.76	6.631
604.09	6.553
604.42	6.237
604.76	7.339
605.09	7.077
605.42	6.370
605.75	6.540
606.09	6.791
606.42	6.253
606.75	6.678
607.09	6.865
607.42	6.675
607.75	7.004
608.08	6.774
608.42	7.082
608.75	7.214
609.08	6.475
609.41	7.139
609.75	7.051
610.08	7.116
610.41	6.564
610.74	6.812
611.07	7.213
611.41	6.771
611.74	7.642
612.07	7.195
612.40	6.978
612.73	6.895
613.07	7.004
613.40	7.214
613.73	6.555
614.06	6.505
614.39	6.869
614.72	7.263
615.06	7.668
615.39	6.476
615.72	7.106
616.05	7.018
616.38	7.004
616.71	6.770
617.05	7.362
617.38	7.156
617.71	7.207
618.04	7.873
618.37	6.919
618.70	7.530
619.03	8.158
619.36	7.264
619.69	8.310
620.03	7.761
620.36	7.754
620.69	8.562
621.02	8.407
621.35	7.596
621.68	7.165
622.01	8.127
622.34	8.018
622.67	7.148
623.00	6.383
623.33	7.648
623.66	7.291
623.99	7.511
624.32	7.775
624.65	7.345
624.99	6.020
625.32	6.807
625.65	7.513
625.98	7.917
626.31	7.854
626.64	7.755
626.97	7.980
627.30	7.398
627.63	9.106
627.96	8.999
628.29	7.612
628.62	9.058
628.95	9.245
629.28	7.847
629.61	9.349
629.94	8.095
630.26	7.340
630.59	8.389
630.92	8.142
631.25	8.786
631.58	8.108
631.91	8.316
632.24	8.439
632.57	8.080
632.90	8.224
633.23	8.277
633.56	9.718
633.89	9.287
634.22	9.308
634.55	8.402
634.88	7.904
635.20	9.558
635.53	9.036
635.86	8.911
636.19	8.588
636.52	9.458
636.85	8.591
637.18	7.604
637.51	8.983
637.83	6.535
638.16	7.801
638.49	9.194
638.82	10.367
639.15	9.625
639.48	8.728
639.81	9.249
640.13	9.896
640.46	8.859
640.79	9.775
641.12	8.116
641.45	9.637
641.77	9.131
642.10	9.795
642.43	7.357
642.76	8.669
643.09	9.356
643.41	9.560
643.74	9.722
644.07	9.756
644.40	11.350
644.73	11.024
645.05	10.143
645.38	9.795
645.71	11.111
646.04	9.967
646.36	10.351
646.69	11.204
647.02	8.844
647.35	8.247
647.67	11.504
648.00	10.081
648.33	9.736
648.66	9.091
648.98	10.045
649.31	8.371
649.64	9.716
649.96	9.687
650.29	9.005
650.62	8.091
650.94	11.183
651.27	11.318
651.60	10.815
651.92	12.300
652.25	9.283
652.58	10.592
652.90	10.585
653.23	8.783
653.56	7.874
653.88	10.777
654.21	12.006
654.54	9.076
654.86	8.255
655.19	8.243
655.52	6.157
655.84	4.990
656.17	6.088
656.49	8.129
