SpectraSuite Data File
++++++++++++++++++++++++++++++++++++
Date: Wed May 13 16:34:02 PDT 2015
User: schluterlab
Dark Spectrum Present: Yes
Reference Spectrum Present: Yes
Number of Sampled Component Spectra: 1
Spectrometers: USB2E3373
Integration Time (usec): 3000 (USB2E3373)
Spectra Averaged: 3 (USB2E3373)
Boxcar Smoothing: 0 (USB2E3373)
Correct for Electrical Dark: No (USB2E3373)
Strobe/Lamp Enabled: No (USB2E3373)
Correct for Detector Non-linearity: No (USB2E3373)
Correct for Stray Light: No (USB2E3373)
Number of Pixels in Processed Spectrum: 2048
>>>>>Begin Processed Spectral Data<<<<<
178.53	0.000
178.91	-1250.000
179.29	-1300.000
179.67	-266.667
180.04	-1000.000
180.42	2700.000
180.80	1040.000
181.18	-1125.000
181.56	671.429
181.94	0.000
182.31	-614.286
182.69	1700.000
183.07	-437.500
183.45	-533.333
183.83	454.545
184.20	-450.000
184.58	2450.000
184.96	5800.000
185.34	-780.000
185.72	-612.500
186.09	-2350.000
186.47	2150.000
186.85	2100.000
187.23	4300.000
187.61	-1566.667
187.98	1100.000
188.36	527.273
188.74	409.091
189.12	-880.000
189.49	520.000
189.87	-4400.000
190.25	-1075.000
190.63	350.000
191.00	400.000
191.38	833.333
191.76	-1225.000
192.14	1200.000
192.51	612.500
192.89	966.667
193.27	575.000
193.65	-950.000
194.02	470.000
194.40	860.000
194.78	570.000
195.15	450.000
195.53	560.000
195.91	-1550.000
196.29	350.000
196.66	257.895
197.04	-340.000
197.42	0.000
197.79	520.000
198.17	-4900.000
198.55	657.143
198.92	575.000
199.30	880.000
199.68	0.000
200.05	316.667
200.43	628.571
200.81	4700.000
201.18	1966.667
201.56	-1766.667
201.94	477.778
202.31	633.333
202.69	391.667
203.07	470.000
203.44	0.000
203.82	975.000
204.19	757.143
204.57	378.571
204.95	562.500
205.32	1500.000
205.70	500.000
206.08	371.429
206.45	2500.000
206.83	325.000
207.20	983.333
207.58	740.000
207.96	355.556
208.33	662.500
208.71	-766.667
209.08	614.286
209.46	622.222
209.84	436.364
210.21	-1633.333
210.59	1250.000
210.96	-437.500
211.34	1950.000
211.71	500.000
212.09	783.333
212.46	0.000
212.84	1566.667
213.22	1250.000
213.59	-4100.000
213.97	816.667
214.34	771.429
214.72	518.182
215.09	960.000
215.47	-2300.000
215.84	-1850.000
216.22	1633.333
216.59	421.429
216.97	1300.000
217.34	436.364
217.72	-650.000
218.09	0.000
218.47	-3900.000
218.84	611.111
219.22	542.857
219.59	1666.667
219.97	-442.857
220.34	840.000
220.72	-2033.333
221.09	450.000
221.47	1375.000
221.84	-866.667
222.22	0.000
222.59	1225.000
222.97	-2500.000
223.34	1020.000
223.72	453.846
224.09	1040.000
224.46	1950.000
224.84	-5300.000
225.21	-840.000
225.59	-4800.000
225.96	540.000
226.34	215.000
226.71	2850.000
227.08	575.000
227.46	500.000
227.83	-875.000
228.21	-1750.000
228.58	511.111
228.95	-2400.000
229.33	-2100.000
229.70	1400.000
230.08	785.714
230.45	-560.000
230.82	366.667
231.20	683.333
231.57	471.429
231.95	408.333
232.32	204.545
232.69	372.727
233.07	471.429
233.44	338.462
233.81	-1400.000
234.19	257.895
234.56	416.667
234.93	350.000
235.31	427.273
235.68	230.769
236.05	328.571
236.43	154.545
236.80	247.368
237.17	3800.000
237.55	223.810
237.92	185.714
238.29	195.238
238.67	164.516
239.04	179.310
239.41	147.222
239.79	93.478
240.16	109.524
240.53	109.091
240.91	90.196
241.28	64.000
241.65	68.000
242.02	63.768
242.40	72.581
242.77	73.333
243.14	58.065
243.51	50.562
243.89	55.294
244.26	42.222
244.63	43.011
245.00	44.681
245.38	40.594
245.75	40.187
246.12	38.532
246.49	45.255
246.87	37.600
247.24	48.462
247.61	34.286
247.98	31.373
248.36	30.405
248.73	32.484
249.10	28.025
249.47	33.898
249.84	29.412
250.22	22.460
250.59	23.669
250.96	28.788
251.33	26.540
251.70	29.703
252.08	25.238
252.45	25.561
252.82	22.174
253.19	23.404
253.56	19.608
253.94	21.992
254.31	21.484
254.68	22.308
255.05	18.819
255.42	21.545
255.79	18.015
256.16	21.661
256.54	19.435
256.91	22.776
257.28	14.388
257.65	14.851
258.02	17.391
258.39	15.457
258.76	15.050
259.14	18.155
259.51	15.805
259.88	14.907
260.25	16.314
260.62	15.029
260.99	17.081
261.36	17.417
261.73	14.327
262.10	13.372
262.47	15.775
262.85	15.599
263.22	11.681
263.59	18.519
263.96	14.835
264.33	15.144
264.70	13.947
265.07	14.578
265.44	14.141
265.81	12.652
266.18	14.070
266.55	13.659
266.92	13.268
267.29	12.269
267.66	11.697
268.03	15.909
268.40	11.682
268.77	9.308
269.14	11.712
269.51	13.770
269.88	13.986
270.25	11.738
270.62	10.562
270.99	14.409
271.36	14.378
271.73	13.084
272.10	11.739
272.47	11.613
272.84	11.255
273.21	12.998
273.58	11.135
273.95	10.063
274.32	11.777
274.69	10.707
275.06	9.646
275.43	12.766
275.80	10.822
276.17	10.998
276.54	11.227
276.91	10.870
277.28	10.352
277.65	10.058
278.02	8.489
278.39	12.305
278.76	12.000
279.13	10.377
279.50	11.732
279.87	10.558
280.23	9.780
280.60	8.511
280.97	10.351
281.34	10.088
281.71	11.818
282.08	10.940
282.45	8.909
282.82	9.414
283.19	8.378
283.56	10.175
283.92	11.168
284.29	9.877
284.66	9.256
285.03	8.861
285.40	10.035
285.77	10.269
286.14	8.808
286.51	10.167
286.87	10.085
287.24	8.795
287.61	10.112
287.98	11.039
288.35	10.301
288.72	9.969
289.08	9.703
289.45	9.885
289.82	10.894
290.19	8.477
290.56	9.342
290.93	8.006
291.29	8.896
291.66	7.965
292.03	10.029
292.40	9.104
292.77	7.692
293.13	9.254
293.50	8.601
293.87	10.519
294.24	8.593
294.60	6.696
294.97	8.285
295.34	9.168
295.71	7.102
296.08	7.407
296.44	7.703
296.81	9.115
297.18	9.214
297.55	5.805
297.91	7.916
298.28	8.166
298.65	8.225
299.02	6.719
299.38	7.835
299.75	6.065
300.12	7.152
300.48	8.375
300.85	7.522
301.22	6.752
301.59	7.323
301.95	8.312
302.32	8.858
302.69	8.363
303.05	7.879
303.42	8.148
303.79	7.701
304.15	6.410
304.52	6.721
304.89	6.969
305.25	6.729
305.62	7.814
305.99	7.320
306.35	6.935
306.72	8.744
307.09	8.546
307.45	8.108
307.82	6.808
308.19	7.064
308.55	7.767
308.92	7.734
309.29	7.814
309.65	6.893
310.02	7.188
310.38	7.312
310.75	7.603
311.12	6.755
311.48	8.673
311.85	9.015
312.22	8.741
312.58	6.965
312.95	7.392
313.31	7.282
313.68	6.965
314.05	8.580
314.41	6.734
314.78	7.855
315.14	8.838
315.51	8.239
315.87	7.921
316.24	8.441
316.61	7.212
316.97	8.513
317.34	7.632
317.70	8.126
318.07	9.336
318.43	8.219
318.80	7.779
319.16	8.851
319.53	7.880
319.89	8.286
320.26	9.400
320.62	8.929
320.99	9.798
321.35	9.192
321.72	8.008
322.08	9.477
322.45	9.353
322.81	9.205
323.18	9.730
323.54	9.555
323.91	9.340
324.27	8.700
324.64	8.481
325.00	9.107
325.37	10.100
325.73	9.605
326.10	8.914
326.46	8.333
326.83	10.440
327.19	9.394
327.56	9.756
327.92	10.499
328.29	10.293
328.65	9.761
329.01	9.747
329.38	9.898
329.74	8.495
330.11	9.519
330.47	10.193
330.84	11.949
331.20	9.563
331.56	10.275
331.93	10.648
332.29	10.115
332.66	11.239
333.02	9.872
333.38	10.027
333.75	10.250
334.11	10.320
334.48	11.180
334.84	9.743
335.20	10.000
335.57	9.610
335.93	8.482
336.29	9.432
336.66	9.648
337.02	10.045
337.38	10.093
337.75	9.626
338.11	10.474
338.47	8.748
338.84	10.266
339.20	8.532
339.56	11.588
339.93	9.273
340.29	9.058
340.65	10.071
341.02	9.860
341.38	10.320
341.74	8.947
342.11	9.607
342.47	9.692
342.83	9.675
343.20	10.043
343.56	9.604
343.92	9.825
344.28	9.354
344.65	9.888
345.01	9.596
345.37	8.576
345.73	9.983
346.10	9.974
346.46	8.983
346.82	9.473
347.19	8.605
347.55	9.852
347.91	8.819
348.27	9.696
348.63	9.615
349.00	8.981
349.36	9.688
349.72	10.265
350.08	8.914
350.45	9.439
350.81	9.180
351.17	10.130
351.53	8.927
351.89	8.416
352.26	9.866
352.62	9.864
352.98	9.076
353.34	9.449
353.70	8.511
354.07	8.790
354.43	9.206
354.79	9.413
355.15	9.018
355.51	9.432
355.87	8.082
356.24	8.958
356.60	9.543
356.96	9.895
357.32	9.321
357.68	8.583
358.04	9.105
358.40	9.422
358.77	9.468
359.13	8.761
359.49	9.647
359.85	8.175
360.21	9.330
360.57	9.494
360.93	8.615
361.29	9.070
361.66	8.591
362.02	9.104
362.38	9.506
362.74	9.301
363.10	7.772
363.46	9.098
363.82	8.692
364.18	8.811
364.54	9.435
364.90	10.057
365.26	9.265
365.62	8.473
365.98	9.423
366.35	8.668
366.71	9.038
367.07	8.521
367.43	10.087
367.79	10.635
368.15	10.129
368.51	8.503
368.87	8.351
369.23	9.217
369.59	9.558
369.95	8.897
370.31	9.615
370.67	8.986
371.03	9.738
371.39	9.913
371.75	8.824
372.11	9.388
372.47	10.630
372.83	9.942
373.19	9.249
373.55	9.830
373.91	10.088
374.27	9.416
374.63	8.655
374.99	9.746
375.35	9.142
375.71	9.321
376.07	9.671
376.42	9.147
376.78	9.609
377.14	9.973
377.50	9.735
377.86	8.910
378.22	10.051
378.58	9.085
378.94	8.862
379.30	9.160
379.66	10.279
380.02	9.582
380.38	9.350
380.74	9.544
381.09	10.269
381.45	10.695
381.81	9.767
382.17	10.573
382.53	9.937
382.89	10.370
383.25	9.443
383.61	10.595
383.97	9.381
384.32	10.543
384.68	10.409
385.04	9.957
385.40	9.659
385.76	9.828
386.12	9.456
386.48	10.887
386.83	10.263
387.19	11.565
387.55	10.513
387.91	10.459
388.27	10.546
388.62	10.510
388.98	9.767
389.34	11.640
389.70	9.933
390.06	10.076
390.42	11.154
390.77	10.941
391.13	11.232
391.49	11.168
391.85	10.376
392.20	9.842
392.56	10.417
392.92	10.948
393.28	9.882
393.64	10.312
393.99	10.751
394.35	10.856
394.71	10.979
395.07	10.467
395.42	10.136
395.78	10.560
396.14	10.925
396.50	11.028
396.85	10.744
397.21	10.173
397.57	10.849
397.92	10.577
398.28	9.585
398.64	11.350
399.00	11.192
399.35	10.152
399.71	10.417
400.07	11.059
400.42	10.982
400.78	10.615
401.14	10.427
401.49	10.567
401.85	10.345
402.21	10.539
402.57	9.685
402.92	10.845
403.28	11.243
403.63	11.139
403.99	10.318
404.35	10.727
404.70	10.552
405.06	10.309
405.42	10.356
405.77	10.514
406.13	10.497
406.49	10.822
406.84	10.219
407.20	9.870
407.55	11.040
407.91	11.267
408.27	10.083
408.62	10.476
408.98	9.865
409.34	10.148
409.69	11.032
410.05	9.665
410.40	11.131
410.76	10.454
411.11	10.977
411.47	10.224
411.83	10.629
412.18	10.204
412.54	10.710
412.89	10.904
413.25	9.504
413.60	10.377
413.96	11.111
414.31	10.632
414.67	10.963
415.03	10.530
415.38	11.405
415.74	10.418
416.09	11.039
416.45	10.710
416.80	11.170
417.16	11.193
417.51	10.750
417.87	10.597
418.22	10.662
418.58	10.846
418.93	10.627
419.29	11.330
419.64	11.209
420.00	10.610
420.35	11.536
420.71	10.998
421.06	10.561
421.42	10.234
421.77	10.650
422.12	10.051
422.48	9.660
422.83	10.483
423.19	10.552
423.54	9.402
423.90	10.783
424.25	10.329
424.61	10.714
424.96	10.204
425.31	10.133
425.67	10.169
426.02	10.343
426.38	10.562
426.73	9.830
427.09	10.638
427.44	10.408
427.79	11.213
428.15	11.071
428.50	10.474
428.85	10.369
429.21	10.326
429.56	10.005
429.92	9.663
430.27	10.328
430.62	9.165
430.98	10.275
431.33	9.897
431.68	10.157
432.04	9.904
432.39	9.652
432.74	9.575
433.10	10.696
433.45	10.612
433.80	10.310
434.16	10.363
434.51	10.211
434.86	10.433
435.22	9.783
435.57	10.274
435.92	9.889
436.28	9.905
436.63	10.927
436.98	9.445
437.34	10.912
437.69	10.735
438.04	10.118
438.39	10.090
438.75	10.691
439.10	10.056
439.45	9.917
439.81	9.909
440.16	9.938
440.51	10.193
440.86	10.133
441.22	10.178
441.57	9.501
441.92	10.184
442.27	10.065
442.63	9.321
442.98	9.915
443.33	10.435
443.68	10.222
444.03	9.956
444.39	8.812
444.74	9.740
445.09	9.811
445.44	10.388
445.79	9.896
446.15	10.005
446.50	9.747
446.85	9.866
447.20	9.536
447.55	10.329
447.91	9.763
448.26	10.351
448.61	9.497
448.96	9.856
449.31	10.630
449.66	10.017
450.02	9.805
450.37	9.580
450.72	10.265
451.07	9.445
451.42	10.152
451.77	9.513
452.12	10.277
452.47	10.821
452.83	10.082
453.18	9.719
453.53	10.266
453.88	9.451
454.23	9.564
454.58	10.842
454.93	10.680
455.28	9.227
455.63	10.680
455.98	10.893
456.34	10.239
456.69	10.394
457.04	9.721
457.39	10.286
457.74	10.099
458.09	10.811
458.44	9.635
458.79	9.707
459.14	10.327
459.49	9.632
459.84	9.861
460.19	9.075
460.54	9.317
460.89	10.038
461.24	10.140
461.59	11.621
461.94	9.618
462.29	10.504
462.64	10.402
462.99	10.540
463.34	10.533
463.69	10.569
464.04	11.130
464.39	10.145
464.74	10.636
465.09	9.530
465.44	9.474
465.79	9.396
466.14	10.235
466.49	9.900
466.84	10.566
467.19	11.044
467.54	10.000
467.89	9.724
468.24	10.122
468.59	10.684
468.94	9.896
469.29	10.283
469.64	11.446
469.99	10.555
470.34	10.502
470.68	10.057
471.03	10.816
471.38	9.937
471.73	10.593
472.08	11.382
472.43	9.862
472.78	10.467
473.13	10.783
473.48	10.050
473.83	10.305
474.17	10.143
474.52	10.360
474.87	10.683
475.22	10.273
475.57	9.726
475.92	9.294
476.27	10.485
476.61	10.149
476.96	9.181
477.31	10.152
477.66	9.519
478.01	9.932
478.36	9.889
478.70	9.190
479.05	10.224
479.40	10.287
479.75	9.354
480.10	9.145
480.45	9.376
480.79	9.699
481.14	8.904
481.49	9.729
481.84	8.825
482.19	8.996
482.53	9.587
482.88	9.772
483.23	9.019
483.58	9.554
483.92	9.606
484.27	9.368
484.62	9.052
484.97	8.829
485.31	8.973
485.66	7.989
486.01	7.535
486.36	7.267
486.70	7.193
487.05	7.645
487.40	7.814
487.75	8.160
488.09	8.584
488.44	8.039
488.79	8.644
489.13	9.282
489.48	8.687
489.83	8.675
490.17	9.294
490.52	8.990
490.87	8.412
491.22	9.231
491.56	8.656
491.91	9.214
492.26	9.187
492.60	8.940
492.95	8.466
493.30	9.813
493.64	9.379
493.99	9.099
494.34	9.066
494.68	9.112
495.03	9.070
495.37	9.539
495.72	9.064
496.07	8.631
496.41	8.230
496.76	9.499
497.11	9.410
497.45	9.548
497.80	9.021
498.14	8.986
498.49	9.024
498.84	9.636
499.18	9.143
499.53	8.927
499.87	9.459
500.22	9.515
500.56	9.320
500.91	8.606
501.26	8.772
501.60	9.587
501.95	9.074
502.29	9.700
502.64	9.963
502.98	9.116
503.33	9.415
503.67	9.374
504.02	9.308
504.36	9.546
504.71	9.428
505.06	9.590
505.40	9.334
505.75	8.727
506.09	8.941
506.44	8.831
506.78	9.450
507.13	9.238
507.47	9.545
507.82	10.182
508.16	9.676
508.51	9.792
508.85	9.335
509.19	9.643
509.54	9.388
509.88	8.449
510.23	9.357
510.57	10.062
510.92	9.684
511.26	9.147
511.61	10.010
511.95	9.395
512.30	9.438
512.64	9.618
512.98	10.021
513.33	9.582
513.67	9.872
514.02	9.632
514.36	9.885
514.70	9.408
515.05	9.426
515.39	10.151
515.74	9.178
516.08	10.844
516.42	10.266
516.77	10.201
517.11	9.600
517.46	9.763
517.80	10.221
518.14	9.554
518.49	10.268
518.83	10.511
519.17	9.815
519.52	10.187
519.86	10.211
520.20	11.329
520.55	10.652
520.89	10.219
521.23	10.736
521.58	9.964
521.92	10.594
522.26	9.457
522.61	10.280
522.95	10.313
523.29	10.590
523.64	11.037
523.98	10.598
524.32	9.710
524.66	10.283
525.01	10.846
525.35	10.223
525.69	10.037
526.04	10.467
526.38	10.372
526.72	10.184
527.06	10.672
527.41	9.530
527.75	10.032
528.09	9.955
528.43	10.707
528.78	10.817
529.12	9.939
529.46	10.900
529.80	10.272
530.15	10.903
530.49	10.585
530.83	10.823
531.17	11.162
531.51	11.219
531.86	9.548
532.20	11.017
532.54	11.147
532.88	10.976
533.22	10.806
533.57	11.358
533.91	9.874
534.25	10.267
534.59	10.494
534.93	10.232
535.27	11.044
535.62	10.806
535.96	10.169
536.30	10.172
536.64	11.204
536.98	10.750
537.32	10.533
537.66	10.000
538.01	10.402
538.35	11.118
538.69	11.104
539.03	9.812
539.37	9.968
539.71	9.462
540.05	10.523
540.39	10.233
540.73	10.026
541.07	10.448
541.42	10.111
541.76	10.839
542.10	11.061
542.44	10.464
542.78	10.804
543.12	9.661
543.46	11.016
543.80	10.800
544.14	9.628
544.48	10.730
544.82	11.033
545.16	10.280
545.50	9.833
545.84	10.618
546.18	9.764
546.52	10.323
546.86	10.790
547.20	10.587
547.54	10.421
547.88	10.523
548.22	10.336
548.56	9.811
548.90	10.435
549.24	10.303
549.58	10.573
549.92	10.920
550.26	10.511
550.60	10.443
550.94	10.352
551.28	9.876
551.62	10.424
551.96	10.246
552.30	11.468
552.64	10.818
552.98	11.119
553.32	10.991
553.66	11.452
554.00	11.599
554.34	9.869
554.68	10.730
555.02	11.283
555.36	11.273
555.69	9.405
556.03	10.834
556.37	10.505
556.71	10.778
557.05	10.154
557.39	10.847
557.73	11.080
558.07	10.950
558.41	10.564
558.75	10.287
559.08	11.111
559.42	10.733
559.76	10.588
560.10	9.993
560.44	9.853
560.78	9.847
561.12	9.960
561.45	11.082
561.79	10.613
562.13	10.731
562.47	9.768
562.81	10.251
563.15	10.167
563.48	11.008
563.82	10.959
564.16	9.287
564.50	9.896
564.84	10.556
565.17	9.588
565.51	9.968
565.85	10.723
566.19	8.954
566.52	10.450
566.86	9.584
567.20	9.552
567.54	9.418
567.88	9.451
568.21	10.476
568.55	9.707
568.89	8.901
569.23	9.225
569.56	8.704
569.90	8.302
570.24	8.145
570.57	8.194
570.91	7.854
571.25	8.400
571.59	7.452
571.92	7.776
572.26	7.741
572.60	7.988
572.93	7.976
573.27	7.779
573.61	8.236
573.95	8.062
574.28	7.714
574.62	7.264
574.96	7.288
575.29	7.226
575.63	7.749
575.97	7.810
576.30	7.939
576.64	7.253
576.98	7.414
577.31	7.348
577.65	7.166
577.98	7.378
578.32	7.288
578.66	7.484
578.99	7.624
579.33	7.601
579.67	7.395
580.00	7.384
580.34	7.594
580.67	7.563
581.01	7.668
581.35	7.323
581.68	7.049
582.02	6.822
582.35	7.089
582.69	7.106
583.02	7.198
583.36	7.655
583.70	7.443
584.03	7.550
584.37	7.852
584.70	7.315
585.04	7.681
585.37	7.456
585.71	7.425
586.04	7.321
586.38	7.706
586.72	8.147
587.05	7.607
587.39	7.256
587.72	7.550
588.06	7.471
588.39	8.066
588.73	7.891
589.06	8.133
589.40	8.047
589.73	7.849
590.07	8.185
590.40	8.148
590.73	8.392
591.07	8.791
591.40	8.688
591.74	8.874
592.07	8.464
592.41	8.681
592.74	8.277
593.08	8.494
593.41	8.352
593.75	8.026
594.08	8.314
594.41	8.342
594.75	7.800
595.08	8.840
595.42	8.021
595.75	8.084
596.09	8.674
596.42	8.212
596.75	8.527
597.09	9.437
597.42	8.516
597.75	8.409
598.09	8.609
598.42	8.033
598.76	8.188
599.09	8.248
599.42	8.006
599.76	7.943
600.09	7.978
600.42	8.181
600.76	8.036
601.09	7.723
601.42	7.991
601.76	8.501
602.09	7.984
602.42	8.519
602.76	8.787
603.09	8.379
603.42	8.083
603.76	8.079
604.09	8.298
604.42	8.194
604.76	8.773
605.09	8.694
605.42	7.781
605.75	8.444
606.09	7.483
606.42	8.418
606.75	8.212
607.09	8.581
607.42	7.959
607.75	8.186
608.08	8.076
608.42	9.278
608.75	8.341
609.08	8.326
609.41	8.853
609.75	8.766
610.08	8.718
610.41	8.473
610.74	8.184
611.07	8.449
611.41	8.979
611.74	9.402
612.07	9.110
612.40	9.601
612.73	8.842
613.07	9.159
613.40	9.373
613.73	8.810
614.06	8.710
614.39	9.544
614.72	9.158
615.06	8.876
615.39	8.917
615.72	8.845
616.05	8.612
616.38	8.560
616.71	9.739
617.05	9.541
617.38	9.741
617.71	9.369
618.04	9.315
618.37	9.107
618.70	9.459
619.03	10.066
619.36	9.980
619.69	9.648
620.03	10.440
620.36	9.826
620.69	10.068
621.02	10.767
621.35	10.572
621.68	9.735
622.01	10.604
622.34	10.817
622.67	10.342
623.00	9.611
623.33	9.864
623.66	9.507
623.99	9.499
624.32	10.057
624.65	10.805
624.99	9.136
625.32	9.558
625.65	10.819
625.98	9.992
626.31	10.342
626.64	10.286
626.97	10.474
627.30	10.474
627.63	10.747
627.96	11.270
628.29	10.849
628.62	10.613
628.95	13.396
629.28	10.036
629.61	11.916
629.94	10.476
630.26	11.439
630.59	11.344
630.92	11.973
631.25	10.661
631.58	11.411
631.91	11.156
632.24	10.232
632.57	12.277
632.90	12.171
633.23	12.528
633.56	12.090
633.89	12.118
634.22	12.713
634.55	12.189
634.88	12.695
635.20	13.740
635.53	13.373
635.86	12.624
636.19	13.176
636.52	13.841
636.85	11.226
637.18	11.751
637.51	14.539
637.83	12.207
638.16	12.916
638.49	12.594
638.82	13.274
639.15	13.125
639.48	14.838
639.81	12.735
640.13	14.063
640.46	11.275
640.79	13.078
641.12	12.655
641.45	13.268
641.77	13.697
642.10	14.912
642.43	13.213
642.76	13.932
643.09	13.037
643.41	13.809
643.74	15.278
644.07	13.262
644.40	15.951
