SpectraSuite Data File
++++++++++++++++++++++++++++++++++++
Date: Wed May 13 16:51:29 PDT 2015
User: schluterlab
Dark Spectrum Present: Yes
Reference Spectrum Present: Yes
Number of Sampled Component Spectra: 1
Spectrometers: USB2E3373
Integration Time (usec): 3000 (USB2E3373)
Spectra Averaged: 3 (USB2E3373)
Boxcar Smoothing: 0 (USB2E3373)
Correct for Electrical Dark: No (USB2E3373)
Strobe/Lamp Enabled: No (USB2E3373)
Correct for Detector Non-linearity: No (USB2E3373)
Correct for Stray Light: No (USB2E3373)
Number of Pixels in Processed Spectrum: 2048
>>>>>Begin Processed Spectral Data<<<<<
178.53	0.000
178.91	-1275.000
179.29	-900.000
179.67	-183.333
180.04	-1350.000
180.42	2600.000
180.80	1060.000
181.18	-1175.000
181.56	728.571
181.94	0.000
182.31	-442.857
182.69	1400.000
183.07	-512.500
183.45	-522.222
183.83	536.364
184.20	-400.000
184.58	2800.000
184.96	6100.000
185.34	-940.000
185.72	-512.500
186.09	-2250.000
186.47	2150.000
186.85	2250.000
187.23	4200.000
187.61	-1666.667
187.98	1350.000
188.36	509.091
188.74	518.182
189.12	-980.000
189.49	570.000
189.87	-5300.000
190.25	-1050.000
190.63	342.857
191.00	384.615
191.38	800.000
191.76	-975.000
192.14	1250.000
192.51	587.500
192.89	816.667
193.27	562.500
193.65	-1050.000
194.02	460.000
194.40	1000.000
194.78	470.000
195.15	450.000
195.53	620.000
195.91	-2400.000
196.29	387.500
196.66	342.105
197.04	-320.000
197.42	0.000
197.79	500.000
198.17	-4000.000
198.55	614.286
198.92	662.500
199.30	920.000
199.68	0.000
200.05	355.556
200.43	771.429
200.81	3900.000
201.18	1766.667
201.56	-1600.000
201.94	577.778
202.31	644.444
202.69	433.333
203.07	640.000
203.44	0.000
203.82	950.000
204.19	914.286
204.57	485.714
204.95	662.500
205.32	1266.667
205.70	581.818
206.08	421.429
206.45	2450.000
206.83	356.250
207.20	966.667
207.58	860.000
207.96	327.778
208.33	762.500
208.71	-850.000
209.08	800.000
209.46	611.111
209.84	527.273
210.21	-1833.333
210.59	1425.000
210.96	-412.500
211.34	2800.000
211.71	550.000
212.09	800.000
212.46	0.000
212.84	1600.000
213.22	1025.000
213.59	-4200.000
213.97	950.000
214.34	728.571
214.72	545.455
215.09	960.000
215.47	-2500.000
215.84	-2350.000
216.22	1766.667
216.59	407.143
216.97	1450.000
217.34	454.545
217.72	-900.000
218.09	0.000
218.47	-4000.000
218.84	611.111
219.22	785.714
219.59	1566.667
219.97	-542.857
220.34	960.000
220.72	-1633.333
221.09	407.143
221.47	1625.000
221.84	-766.667
222.22	0.000
222.59	1375.000
222.97	-2150.000
223.34	1160.000
223.72	407.692
224.09	1060.000
224.46	2200.000
224.84	-5200.000
225.21	-1020.000
225.59	-3800.000
225.96	650.000
226.34	300.000
226.71	2650.000
227.08	687.500
227.46	500.000
227.83	-925.000
228.21	-2300.000
228.58	544.444
228.95	-2150.000
229.33	-2250.000
229.70	1633.333
230.08	728.571
230.45	-740.000
230.82	416.667
231.20	916.667
231.57	585.714
231.95	408.333
232.32	218.182
232.69	345.455
233.07	571.429
233.44	323.077
233.81	-1666.667
234.19	268.421
234.56	441.667
234.93	358.333
235.31	354.545
235.68	346.154
236.05	321.429
236.43	184.848
236.80	263.158
237.17	4000.000
237.55	147.619
237.92	207.143
238.29	247.619
238.67	170.968
239.04	158.621
239.41	130.556
239.79	102.174
240.16	119.048
240.53	118.182
240.91	84.314
241.28	92.000
241.65	90.000
242.02	81.159
242.40	64.516
242.77	81.667
243.14	59.140
243.51	67.416
243.89	56.471
244.26	57.778
244.63	60.215
245.00	42.553
245.38	36.634
245.75	42.056
246.12	41.284
246.49	40.146
246.87	48.000
247.24	37.692
247.61	38.571
247.98	37.255
248.36	33.108
248.73	33.758
249.10	32.484
249.47	33.333
249.84	32.086
250.22	33.690
250.59	24.260
250.96	31.818
251.33	24.171
251.70	30.198
252.08	25.238
252.45	23.767
252.82	20.870
253.19	20.426
253.56	23.529
253.94	29.876
254.31	21.484
254.68	25.000
255.05	23.247
255.42	22.764
255.79	21.691
256.16	22.744
256.54	16.254
256.91	20.641
257.28	14.748
257.65	20.462
258.02	21.739
258.39	20.505
258.76	14.716
259.14	17.857
259.51	20.973
259.88	13.975
260.25	14.804
260.62	18.497
260.99	17.081
261.36	21.622
261.73	15.473
262.10	14.826
262.47	17.465
262.85	15.320
263.22	12.536
263.59	17.094
263.96	16.209
264.33	15.927
264.70	15.000
265.07	15.601
265.44	13.889
265.81	11.922
266.18	14.573
266.55	13.659
266.92	14.988
267.29	14.583
267.66	12.615
268.03	14.318
268.40	14.720
268.77	11.933
269.14	12.838
269.51	14.221
269.88	13.287
270.25	14.221
270.62	13.258
270.99	16.774
271.36	13.948
271.73	13.084
272.10	11.304
272.47	13.333
272.84	14.286
273.21	13.836
273.58	13.100
273.95	12.788
274.32	12.810
274.69	14.775
275.06	11.811
275.43	11.277
275.80	13.226
276.17	11.813
276.54	11.435
276.91	11.858
277.28	12.695
277.65	11.219
278.02	12.008
278.39	13.086
278.76	11.636
279.13	11.321
279.50	12.477
279.87	12.151
280.23	12.575
280.60	12.573
280.97	12.384
281.34	11.858
281.71	12.909
282.08	14.395
282.45	10.545
282.82	10.835
283.19	9.447
283.56	10.702
283.92	12.183
284.29	11.817
284.66	11.071
285.03	9.403
285.40	10.739
285.77	11.616
286.14	8.636
286.51	11.500
286.87	10.256
287.24	11.726
287.61	11.236
287.98	11.039
288.35	10.935
288.72	9.657
289.08	10.172
289.45	9.061
289.82	11.057
290.19	10.518
290.56	8.882
290.93	9.215
291.29	9.969
291.66	8.997
292.03	11.047
292.40	11.747
292.77	10.651
293.13	10.149
293.50	10.058
293.87	9.037
294.24	7.852
294.60	9.025
294.97	7.994
295.34	11.566
295.71	10.085
296.08	10.826
296.44	9.216
296.81	8.983
297.18	9.350
297.55	7.124
297.91	9.103
298.28	8.969
298.65	8.616
299.02	9.618
299.38	9.031
299.75	6.199
300.12	7.918
300.48	9.125
300.85	8.261
301.22	8.662
301.59	7.576
301.95	9.320
302.32	9.114
302.69	9.080
303.05	6.667
303.42	9.383
303.79	8.154
304.15	8.508
304.52	8.575
304.89	7.898
305.25	8.237
305.62	10.419
305.99	9.209
306.35	7.606
306.72	8.408
307.09	10.100
307.45	10.135
307.82	7.366
308.19	9.161
308.55	8.954
308.92	9.452
309.29	9.398
309.65	8.271
310.02	10.359
310.38	8.495
310.75	9.715
311.12	11.157
311.48	9.718
311.85	11.426
312.22	10.406
312.58	10.395
312.95	11.088
313.31	10.388
313.68	11.331
314.05	12.426
314.41	11.457
314.78	11.883
315.14	11.817
315.51	12.667
315.87	12.079
316.24	12.612
316.61	12.476
316.97	11.937
317.34	13.307
317.70	14.532
318.07	14.629
318.43	14.579
318.80	14.152
319.16	15.725
319.53	14.916
319.89	15.810
320.26	17.100
320.62	14.683
320.99	17.576
321.35	17.677
321.72	18.583
322.08	19.447
322.45	20.000
322.81	18.992
323.18	19.461
323.54	19.944
323.91	21.038
324.27	22.275
324.64	20.224
325.00	21.371
325.37	22.202
325.73	24.057
326.10	23.477
326.46	22.670
326.83	24.763
327.19	24.509
327.56	24.390
327.92	25.809
328.29	27.152
328.65	27.808
329.01	27.708
329.38	26.735
329.74	27.239
330.11	27.333
330.47	27.181
330.84	28.493
331.20	28.415
331.56	27.431
331.93	28.333
332.29	29.104
332.66	27.876
333.02	28.245
333.38	28.636
333.75	28.342
334.11	28.559
334.48	28.128
334.84	28.676
335.20	29.636
335.57	28.830
335.93	28.571
336.29	28.114
336.66	29.757
337.02	28.416
337.38	28.796
337.75	28.431
338.11	29.006
338.47	29.466
338.84	29.789
339.20	29.266
339.56	29.106
339.93	29.000
340.29	29.167
340.65	28.788
341.02	29.058
341.38	30.694
341.74	28.772
342.11	29.694
342.47	28.722
342.83	28.938
343.20	31.169
343.56	28.812
343.92	29.123
344.28	30.527
344.65	29.837
345.01	29.125
345.37	28.473
345.73	30.541
346.10	28.900
346.46	29.915
346.82	29.077
347.19	29.073
347.55	29.475
347.91	30.097
348.27	30.649
348.63	30.017
349.00	30.178
349.36	30.049
349.72	29.270
350.08	30.146
350.45	30.431
350.81	29.732
351.17	30.146
351.53	30.057
351.89	29.290
352.26	31.097
352.62	30.072
352.98	29.254
353.34	29.992
353.70	29.542
354.07	29.919
354.43	29.365
354.79	28.801
355.15	30.806
355.51	30.296
355.87	30.367
356.24	30.537
356.60	28.869
356.96	29.686
357.32	30.989
357.68	31.102
358.04	30.800
358.40	30.008
358.77	30.908
359.13	30.466
359.49	29.569
359.85	29.762
360.21	28.947
360.57	31.051
360.93	30.769
361.29	30.385
361.66	30.031
362.02	30.373
362.38	29.582
362.74	30.208
363.10	29.756
363.46	30.301
363.82	31.141
364.18	30.323
364.54	31.649
364.90	30.099
365.26	30.735
365.62	30.679
365.98	29.876
366.35	30.731
366.71	30.658
367.07	31.245
367.43	31.277
367.79	31.834
368.15	31.897
368.51	31.105
368.87	31.763
369.23	32.114
369.59	31.354
369.95	31.985
370.31	31.980
370.67	31.739
371.03	31.685
371.39	31.851
371.75	31.176
372.11	31.508
372.47	31.891
372.83	32.277
373.19	32.298
373.55	32.742
373.91	33.432
374.27	31.615
374.63	32.655
374.99	32.698
375.35	32.031
375.71	32.557
376.07	32.853
376.42	33.494
376.78	33.267
377.14	32.157
377.50	33.113
377.86	32.380
378.22	32.743
378.58	31.266
378.94	32.558
379.30	33.588
379.66	33.629
380.02	33.661
380.38	32.908
380.74	32.893
381.09	33.007
381.45	33.989
381.81	33.292
382.17	34.395
382.53	33.899
382.89	34.444
383.25	34.271
383.61	34.882
383.97	34.647
384.32	33.125
384.68	33.643
385.04	34.173
385.40	32.384
385.76	34.029
386.12	34.780
386.48	34.172
386.83	34.766
387.19	35.374
387.55	34.694
387.91	34.160
388.27	35.071
388.62	34.972
388.98	34.275
389.34	34.856
389.70	34.457
390.06	35.995
390.42	35.084
390.77	35.369
391.13	35.609
391.49	35.152
391.85	35.391
392.20	34.574
392.56	34.280
392.92	33.961
393.28	34.320
393.64	34.892
393.99	34.270
394.35	34.429
394.71	34.128
395.07	34.081
395.42	35.352
395.78	34.860
396.14	34.513
396.50	36.216
396.85	35.029
397.21	33.970
397.57	34.842
397.92	35.036
398.28	33.184
398.64	34.588
399.00	33.352
399.35	33.785
399.71	33.912
400.07	35.482
400.42	35.031
400.78	33.896
401.14	34.512
401.49	34.866
401.85	32.849
402.21	33.653
402.57	34.423
402.92	35.246
403.28	34.603
403.63	34.839
403.99	34.140
404.35	34.061
404.70	34.412
405.06	32.848
405.42	34.124
405.77	33.600
406.13	32.393
406.49	33.412
406.84	33.963
407.20	32.506
407.55	33.376
407.91	33.133
408.27	32.802
408.62	33.474
408.98	33.272
409.34	33.333
409.69	34.194
410.05	33.457
410.40	33.394
410.76	34.827
411.11	32.509
411.47	33.099
411.83	33.354
412.18	32.962
412.54	33.437
412.89	33.373
413.25	32.999
413.60	33.354
413.96	32.119
414.31	33.597
414.67	33.333
415.03	32.715
415.38	34.343
415.74	32.990
416.09	32.920
416.45	34.070
416.80	33.708
417.16	34.048
417.51	33.444
417.87	32.755
418.22	33.249
418.58	34.022
418.93	32.801
419.29	33.355
419.64	33.438
420.00	33.232
420.35	33.101
420.71	33.293
421.06	32.160
421.42	33.626
421.77	33.352
422.12	32.566
422.48	32.650
422.83	34.188
423.19	33.315
423.54	32.966
423.90	32.580
424.25	32.663
424.61	33.333
424.96	33.353
425.31	33.112
425.67	32.416
426.02	32.971
426.38	33.089
426.73	32.124
427.09	32.644
427.44	34.963
427.79	32.605
428.15	32.619
428.50	32.768
428.85	33.373
429.21	32.413
429.56	33.437
429.92	33.065
430.27	33.217
430.62	32.668
430.98	32.693
431.33	32.113
431.68	32.827
432.04	32.428
432.39	32.267
432.74	32.555
433.10	32.994
433.45	32.420
433.80	32.871
434.16	32.212
434.51	32.000
434.86	32.668
435.22	33.130
435.57	33.313
435.92	32.709
436.28	33.749
436.63	32.561
436.98	32.570
437.34	33.154
437.69	33.022
438.04	33.165
438.39	32.239
438.75	33.585
439.10	32.570
439.45	32.940
439.81	32.568
440.16	32.806
440.51	32.396
440.86	32.484
441.22	33.148
441.57	32.325
441.92	33.112
442.27	32.454
442.63	32.649
442.98	33.408
443.33	33.370
443.68	32.370
444.03	32.699
444.39	31.938
444.74	32.630
445.09	31.375
445.44	32.039
445.79	31.865
446.15	32.345
446.50	32.256
446.85	32.220
447.20	32.534
447.55	32.998
447.91	32.653
448.26	33.111
448.61	32.561
448.96	33.056
449.31	33.015
449.66	32.696
450.02	31.253
450.37	31.463
450.72	32.431
451.07	31.993
451.42	31.611
451.77	33.353
452.12	31.755
452.47	32.276
452.83	32.401
453.18	31.785
453.53	32.653
453.88	32.073
454.23	31.680
454.58	32.950
454.93	32.804
455.28	30.736
455.63	32.039
455.98	33.512
456.34	31.910
456.69	32.498
457.04	32.693
457.39	31.444
457.74	32.327
458.09	31.972
458.44	32.440
458.79	30.043
459.14	32.280
459.49	32.224
459.84	30.914
460.19	31.762
460.54	30.845
460.89	32.090
461.24	32.665
461.59	33.120
461.94	31.443
462.29	32.641
462.64	32.227
462.99	32.010
463.34	32.400
463.69	31.645
464.04	31.710
464.39	31.072
464.74	31.907
465.09	31.785
465.44	30.637
465.79	30.313
466.14	30.870
466.49	30.701
466.84	31.524
467.19	30.779
467.54	31.375
467.89	31.032
468.24	31.763
468.59	32.051
468.94	30.971
469.29	32.326
469.64	32.463
469.99	31.800
470.34	31.176
470.68	32.328
471.03	31.361
471.38	31.411
471.73	32.112
472.08	32.434
472.43	31.407
472.78	30.612
473.13	31.194
473.48	32.022
473.83	30.610
474.17	30.989
474.52	31.203
474.87	31.349
475.22	31.109
475.57	29.608
475.92	29.952
476.27	30.496
476.61	29.730
476.96	30.511
477.31	30.665
477.66	30.142
478.01	29.744
478.36	30.936
478.70	30.633
479.05	30.032
479.40	29.939
479.75	29.588
480.10	30.368
480.45	29.319
480.79	29.240
481.14	30.724
481.49	29.521
481.84	29.081
482.19	29.396
482.53	29.817
482.88	29.642
483.23	29.252
483.58	29.117
483.92	28.960
484.27	28.671
484.62	28.793
484.97	28.577
485.31	30.308
485.66	28.884
486.01	27.856
486.36	26.603
486.70	25.604
487.05	26.387
487.40	26.890
487.75	27.108
488.09	27.540
488.44	27.318
488.79	28.463
489.13	28.113
489.48	28.793
489.83	28.269
490.17	29.242
490.52	28.344
490.87	28.810
491.22	26.739
491.56	27.745
491.91	28.060
492.26	28.250
492.60	27.880
492.95	27.689
493.30	28.178
493.64	28.698
493.99	28.041
494.34	28.677
494.68	27.656
495.03	28.853
495.37	27.594
495.72	28.070
496.07	27.610
496.41	26.991
496.76	26.957
497.11	26.880
497.45	27.247
497.80	27.207
498.14	26.957
498.49	27.220
498.84	27.948
499.18	27.048
499.53	27.540
499.87	27.726
500.22	26.990
500.56	27.233
500.91	27.500
501.26	27.738
501.60	27.954
501.95	27.085
502.29	27.554
502.64	27.142
502.98	27.583
503.33	26.005
503.67	27.425
504.02	26.848
504.36	26.439
504.71	26.429
505.06	27.566
505.40	26.835
505.75	26.615
506.09	26.482
506.44	27.035
506.78	26.790
507.13	26.805
507.47	27.323
507.82	26.950
508.16	26.596
508.51	27.549
508.85	26.216
509.19	26.939
509.54	26.480
509.88	27.048
510.23	26.581
510.57	26.883
510.92	26.774
511.26	26.670
511.61	27.178
511.95	26.409
512.30	25.928
512.64	26.545
512.98	26.956
513.33	26.392
513.67	24.973
514.02	26.136
514.36	26.761
514.70	26.065
515.05	25.321
515.39	26.697
515.74	26.239
516.08	26.328
516.42	26.360
516.77	26.087
517.11	24.362
517.46	26.354
517.80	26.597
518.14	25.651
518.49	26.429
518.83	26.364
519.17	25.115
519.52	26.372
519.86	26.070
520.20	26.705
520.55	27.349
520.89	26.886
521.23	26.719
521.58	25.930
521.92	26.761
522.26	25.320
522.61	25.857
522.95	26.151
523.29	25.015
523.64	25.915
523.98	26.741
524.32	25.513
524.66	24.895
525.01	25.674
525.35	25.960
525.69	24.754
526.04	24.735
526.38	25.808
526.72	25.706
527.06	24.984
527.41	24.134
527.75	25.466
528.09	25.819
528.43	25.621
528.78	26.060
529.12	24.727
529.46	24.985
529.80	25.000
530.15	25.670
530.49	24.492
530.83	26.076
531.17	25.457
531.51	26.135
531.86	25.226
532.20	25.619
532.54	24.920
532.88	24.968
533.22	24.735
533.57	25.556
533.91	24.383
534.25	24.423
534.59	24.527
534.93	24.152
535.27	25.166
535.62	24.420
535.96	24.796
536.30	24.730
536.64	24.726
536.98	25.680
537.32	25.477
537.66	24.800
538.01	24.951
538.35	25.145
538.69	25.016
539.03	24.366
539.37	23.898
539.71	22.942
540.05	24.575
540.39	23.987
540.73	24.644
541.07	24.075
541.42	24.723
541.76	25.161
542.10	24.321
542.44	23.974
542.78	24.835
543.12	22.841
543.46	24.721
543.80	23.748
544.14	24.069
544.48	24.127
544.82	23.797
545.16	23.227
545.50	23.843
545.84	24.126
546.18	23.569
546.52	24.295
546.86	23.643
547.20	23.533
547.54	24.449
547.88	24.426
548.22	23.973
548.56	22.956
548.90	23.367
549.24	23.771
549.58	24.216
549.92	23.764
550.26	24.077
550.60	23.651
550.94	23.451
551.28	23.336
551.62	23.796
551.96	23.228
552.30	24.778
552.64	23.191
552.98	24.136
553.32	22.589
553.66	23.722
554.00	23.610
554.34	23.671
554.68	23.677
555.02	22.355
555.36	23.243
555.69	22.192
556.03	22.275
556.37	23.192
556.71	22.510
557.05	23.319
557.39	22.533
557.73	21.454
558.07	22.770
558.41	23.444
558.75	22.777
559.08	22.968
559.42	23.885
559.76	23.235
560.10	22.555
560.44	23.340
560.78	21.823
561.12	21.966
561.45	22.816
561.79	22.544
562.13	21.797
562.47	22.404
562.81	22.524
563.15	22.074
563.48	22.016
563.82	21.526
564.16	21.910
564.50	20.703
564.84	21.681
565.17	21.815
565.51	21.661
565.85	22.335
566.19	21.102
566.52	22.546
566.86	21.218
567.20	21.639
567.54	22.546
567.88	21.076
568.21	21.481
568.55	21.082
568.89	21.012
569.23	20.722
569.56	20.202
569.90	19.849
570.24	20.093
570.57	20.095
570.91	19.586
571.25	19.796
571.59	19.175
571.92	19.268
572.26	19.209
572.60	19.550
572.93	18.471
573.27	19.284
573.61	20.045
573.95	19.380
574.28	18.920
574.62	18.780
574.96	18.829
575.29	18.453
575.63	18.725
575.97	18.953
576.30	19.012
576.64	18.524
576.98	18.741
577.31	18.554
577.65	18.675
577.98	18.737
578.32	18.249
578.66	18.532
578.99	18.306
579.33	18.276
579.67	18.511
580.00	18.629
580.34	18.533
580.67	17.892
581.01	18.642
581.35	18.163
581.68	18.412
582.02	17.789
582.35	17.794
582.69	18.078
583.02	18.246
583.36	18.238
583.70	18.207
584.03	18.339
584.37	19.025
584.70	18.574
585.04	18.346
585.37	18.453
585.71	18.210
586.04	18.483
586.38	18.260
586.72	18.641
587.05	18.120
587.39	18.285
587.72	18.707
588.06	18.223
588.39	18.436
588.73	18.187
589.06	18.573
589.40	18.485
589.73	18.726
590.07	18.968
590.40	18.560
590.73	19.243
591.07	19.740
591.40	19.570
591.74	19.307
592.07	18.848
592.41	19.471
592.74	19.064
593.08	18.188
593.41	18.507
593.75	18.270
594.08	18.639
594.41	18.487
594.75	18.447
595.08	18.540
595.42	18.179
595.75	17.984
596.09	18.438
596.42	19.175
596.75	19.080
597.09	19.221
597.42	18.002
597.75	18.370
598.09	18.609
598.42	18.299
598.76	17.957
599.09	17.978
599.42	17.431
599.76	17.826
600.09	17.996
600.42	17.750
600.76	17.286
601.09	17.923
601.42	18.341
601.76	17.875
602.09	18.261
602.42	18.551
602.76	18.541
603.09	18.883
603.42	18.626
603.76	18.140
604.09	18.030
604.42	18.100
604.76	19.359
605.09	18.261
605.42	18.598
605.75	18.046
606.09	17.731
606.42	17.613
606.75	18.291
607.09	18.418
607.42	17.929
607.75	17.300
608.08	17.325
608.42	18.826
608.75	17.854
609.08	18.640
609.41	18.134
609.75	18.866
610.08	18.285
610.41	18.296
610.74	18.543
611.07	18.824
611.41	19.087
611.74	18.753
612.07	18.789
612.40	19.203
612.73	18.105
613.07	19.504
613.40	18.747
613.73	18.039
614.06	18.817
614.39	18.458
614.72	18.316
615.06	18.540
615.39	18.206
615.72	18.047
616.05	17.544
616.38	18.510
616.71	19.181
617.05	18.787
617.38	18.942
617.71	18.318
618.04	18.990
618.37	18.924
618.70	19.415
619.03	19.605
619.36	19.552
619.69	18.944
620.03	19.505
620.36	18.650
620.69	20.068
621.02	18.879
621.35	17.463
621.68	19.159
622.01	19.969
622.34	19.213
622.67	19.924
623.00	18.562
623.33	18.370
623.66	19.157
623.99	19.219
624.32	20.043
624.65	18.644
624.99	17.847
625.32	18.755
625.65	19.159
625.98	19.370
626.31	19.673
626.64	19.184
626.97	20.615
627.30	18.454
627.63	19.196
627.96	19.596
628.29	19.598
628.62	20.037
628.95	20.660
629.28	20.347
629.61	19.523
629.94	20.476
630.26	18.875
630.59	19.447
630.92	19.349
631.25	19.743
631.58	20.521
631.91	19.675
632.24	19.620
