SpectraSuite Data File
++++++++++++++++++++++++++++++++++++
Date: Wed May 13 16:46:32 PDT 2015
User: schluterlab
Dark Spectrum Present: Yes
Reference Spectrum Present: Yes
Number of Sampled Component Spectra: 1
Spectrometers: USB2E3373
Integration Time (usec): 3000 (USB2E3373)
Spectra Averaged: 3 (USB2E3373)
Boxcar Smoothing: 0 (USB2E3373)
Correct for Electrical Dark: No (USB2E3373)
Strobe/Lamp Enabled: No (USB2E3373)
Correct for Detector Non-linearity: No (USB2E3373)
Correct for Stray Light: No (USB2E3373)
Number of Pixels in Processed Spectrum: 2048
>>>>>Begin Processed Spectral Data<<<<<
178.53	0.000
178.91	-1200.000
179.29	-1325.000
179.67	-244.444
180.04	-1200.000
180.42	3050.000
180.80	1020.000
181.18	-1225.000
181.56	628.571
181.94	0.000
182.31	-614.286
182.69	1366.667
183.07	-525.000
183.45	-577.778
183.83	536.364
184.20	-420.000
184.58	2350.000
184.96	5000.000
185.34	-1040.000
185.72	-587.500
186.09	-2150.000
186.47	2850.000
186.85	2300.000
187.23	4000.000
187.61	-1800.000
187.98	1275.000
188.36	490.909
188.74	481.818
189.12	-740.000
189.49	530.000
189.87	-4200.000
190.25	-1350.000
190.63	378.571
191.00	438.462
191.38	716.667
191.76	-1050.000
192.14	1400.000
192.51	600.000
192.89	783.333
193.27	537.500
193.65	-1150.000
194.02	420.000
194.40	880.000
194.78	470.000
195.15	550.000
195.53	530.000
195.91	-1700.000
196.29	393.750
196.66	342.105
197.04	-300.000
197.42	0.000
197.79	550.000
198.17	-5200.000
198.55	557.143
198.92	662.500
199.30	960.000
199.68	0.000
200.05	300.000
200.43	700.000
200.81	3600.000
201.18	1500.000
201.56	-1700.000
201.94	544.444
202.31	577.778
202.69	341.667
203.07	500.000
203.44	0.000
203.82	1125.000
204.19	614.286
204.57	400.000
204.95	600.000
205.32	1466.667
205.70	518.182
206.08	350.000
206.45	2350.000
206.83	293.750
207.20	883.333
207.58	660.000
207.96	283.333
208.33	637.500
208.71	-816.667
209.08	842.857
209.46	577.778
209.84	472.727
210.21	-1066.667
210.59	1275.000
210.96	-400.000
211.34	1900.000
211.71	460.000
212.09	733.333
212.46	0.000
212.84	1466.667
213.22	1375.000
213.59	-4700.000
213.97	716.667
214.34	757.143
214.72	554.545
215.09	940.000
215.47	-2150.000
215.84	-2500.000
216.22	1666.667
216.59	335.714
216.97	1250.000
217.34	490.909
217.72	-783.333
218.09	0.000
218.47	-4700.000
218.84	577.778
219.22	742.857
219.59	1466.667
219.97	-614.286
220.34	1040.000
220.72	-1466.667
221.09	371.429
221.47	1325.000
221.84	-833.333
222.22	0.000
222.59	1250.000
222.97	-2500.000
223.34	900.000
223.72	415.385
224.09	800.000
224.46	1950.000
224.84	-4000.000
225.21	-860.000
225.59	-4600.000
225.96	520.000
226.34	320.000
226.71	2700.000
227.08	612.500
227.46	490.000
227.83	-975.000
228.21	-2550.000
228.58	666.667
228.95	-2600.000
229.33	-1850.000
229.70	1466.667
230.08	657.143
230.45	-820.000
230.82	433.333
231.20	833.333
231.57	657.143
231.95	433.333
232.32	236.364
232.69	390.909
233.07	671.429
233.44	361.538
233.81	-1666.667
234.19	315.789
234.56	458.333
234.93	325.000
235.31	445.455
235.68	369.231
236.05	278.571
236.43	145.455
236.80	236.842
237.17	3400.000
237.55	195.238
237.92	164.286
238.29	176.190
238.67	164.516
239.04	175.862
239.41	125.000
239.79	82.609
240.16	109.524
240.53	102.273
240.91	80.392
241.28	88.000
241.65	72.000
242.02	78.261
242.40	69.355
242.77	81.667
243.14	59.140
243.51	59.551
243.89	45.882
244.26	45.556
244.63	45.161
245.00	44.681
245.38	36.634
245.75	43.925
246.12	44.954
246.49	43.066
246.87	47.200
247.24	43.077
247.61	34.286
247.98	33.333
248.36	25.000
248.73	29.936
249.10	28.025
249.47	28.249
249.84	35.294
250.22	25.668
250.59	24.260
250.96	24.242
251.33	27.962
251.70	27.228
252.08	26.190
252.45	20.628
252.82	20.435
253.19	21.702
253.56	23.529
253.94	24.896
254.31	24.219
254.68	22.692
255.05	20.295
255.42	20.732
255.79	21.691
256.16	17.329
256.54	18.021
256.91	20.641
257.28	10.791
257.65	15.842
258.02	13.043
258.39	15.457
258.76	15.050
259.14	16.964
259.51	16.413
259.88	15.839
260.25	16.012
260.62	14.162
260.99	13.975
261.36	16.517
261.73	15.759
262.10	13.953
262.47	17.746
262.85	15.042
263.22	9.972
263.59	15.954
263.96	12.637
264.33	12.010
264.70	14.211
265.07	10.742
265.44	13.636
265.81	13.139
266.18	12.814
266.55	10.488
266.92	12.039
267.29	15.278
267.66	12.844
268.03	12.955
268.40	12.617
268.77	10.501
269.14	10.811
269.51	10.835
269.88	12.587
270.25	11.287
270.62	10.337
270.99	15.914
271.36	14.378
271.73	8.645
272.10	11.304
272.47	12.473
272.84	12.987
273.21	11.950
273.58	9.170
273.95	9.644
274.32	11.157
274.69	13.704
275.06	8.858
275.43	11.064
275.80	10.822
276.17	11.202
276.54	10.811
276.91	10.079
277.28	9.570
277.65	9.671
278.02	9.524
278.39	11.914
278.76	10.545
279.13	10.000
279.50	12.291
279.87	10.159
280.23	8.383
280.60	9.865
280.97	8.503
281.34	10.796
281.71	11.818
282.08	9.597
282.45	8.909
282.82	11.012
283.19	9.626
283.56	9.649
283.92	10.660
284.29	9.171
284.66	9.982
285.03	7.414
285.40	8.275
285.77	11.279
286.14	8.636
286.51	10.167
286.87	10.085
287.24	11.075
287.61	10.594
287.98	8.929
288.35	8.558
288.72	8.100
289.08	9.233
289.45	9.390
289.82	9.919
290.19	7.849
290.56	9.495
290.93	7.855
291.29	7.975
291.66	8.260
292.03	9.593
292.40	9.545
292.77	8.136
293.13	8.657
293.50	9.329
293.87	8.889
294.24	8.444
294.60	8.006
294.97	8.285
295.34	10.155
295.71	8.381
296.08	7.123
296.44	7.840
296.81	7.398
297.18	8.672
297.55	6.728
297.91	8.047
298.28	8.434
298.65	9.530
299.02	8.037
299.38	7.570
299.75	5.121
300.12	7.024
300.48	6.875
300.85	7.891
301.22	7.006
301.59	5.808
301.95	8.690
302.32	7.959
302.69	8.005
303.05	7.030
303.42	7.407
303.79	7.588
304.15	6.527
304.52	6.141
304.89	7.317
305.25	7.193
305.62	9.287
305.99	8.146
306.35	6.488
306.72	7.287
307.09	7.658
307.45	7.883
307.82	7.254
308.19	7.726
308.55	8.198
308.92	6.445
309.29	6.758
309.65	5.726
310.02	8.245
310.38	7.419
310.75	6.653
311.12	8.393
311.48	7.001
311.85	7.547
312.22	6.764
312.58	6.757
312.95	6.653
313.31	6.505
313.68	6.549
314.05	8.679
314.41	7.337
314.78	5.740
315.14	6.753
315.51	7.209
315.87	7.129
316.24	7.646
316.61	6.238
316.97	6.654
317.34	5.969
317.70	7.266
318.07	7.507
318.43	6.458
318.80	7.685
319.16	7.815
319.53	6.191
319.89	7.333
320.26	7.200
320.62	7.837
320.99	7.576
321.35	7.677
321.72	7.290
322.08	8.292
322.45	9.055
322.81	8.043
323.18	7.418
323.54	8.627
323.91	8.962
324.27	7.744
324.64	7.363
325.00	6.492
325.37	7.734
325.73	8.079
326.10	7.944
326.46	6.631
326.83	8.283
327.19	8.284
327.56	6.794
327.92	7.962
328.29	8.252
328.65	8.656
329.01	7.130
329.38	7.586
329.74	7.110
330.11	6.126
330.47	6.795
330.84	9.283
331.20	7.468
331.56	7.798
331.93	7.593
332.29	7.365
332.66	8.407
333.02	6.856
333.38	8.040
333.75	7.754
334.11	8.630
334.48	7.098
334.84	8.915
335.20	7.455
335.57	7.797
335.93	6.518
336.29	7.326
336.66	7.394
337.02	5.792
337.38	7.593
337.75	6.150
338.11	6.625
338.47	6.169
338.84	8.066
339.20	7.523
339.56	7.938
339.93	6.455
340.29	6.703
340.65	7.219
341.02	7.592
341.38	7.117
341.74	7.105
342.11	6.900
342.47	7.225
342.83	7.620
343.20	8.312
343.56	6.234
343.92	6.930
344.28	7.398
344.65	7.567
345.01	6.650
345.37	6.003
345.73	7.022
346.10	6.905
346.46	7.797
346.82	7.249
347.19	6.516
347.55	7.061
347.91	6.553
348.27	6.984
348.63	7.358
349.00	6.068
349.36	6.322
349.72	8.260
350.08	6.564
350.45	7.404
350.81	7.717
351.17	6.969
351.53	6.061
351.89	6.436
352.26	8.208
352.62	6.897
352.98	6.888
353.34	6.820
353.70	5.646
354.07	7.419
354.43	6.429
354.79	5.953
355.15	6.305
355.51	7.834
355.87	6.449
356.24	6.840
356.60	5.774
356.96	6.034
357.32	5.642
357.68	7.323
358.04	7.126
358.40	7.363
358.77	6.886
359.13	5.762
359.49	5.333
359.85	4.444
360.21	6.220
360.57	6.226
360.93	6.769
361.29	5.518
361.66	6.192
362.02	6.716
362.38	7.072
362.74	6.994
363.10	6.440
363.46	6.310
363.82	6.198
364.18	6.975
364.54	7.727
364.90	7.153
365.26	5.882
365.62	7.232
365.98	5.990
366.35	5.946
366.71	6.074
367.07	6.555
367.43	6.313
367.79	7.566
368.15	6.897
368.51	6.323
368.87	6.638
369.23	5.925
369.59	7.458
369.95	7.426
370.31	6.980
370.67	7.246
371.03	7.266
371.39	6.778
371.75	6.691
372.11	7.255
372.47	7.038
372.83	6.988
373.19	7.081
373.55	6.282
373.91	7.511
374.27	6.873
374.63	5.673
374.99	6.921
375.35	6.001
375.71	6.648
376.07	7.819
376.42	6.878
376.78	7.820
377.14	7.191
377.50	7.086
377.86	6.316
378.22	7.143
378.58	5.827
378.94	6.600
379.30	6.489
379.66	5.964
380.02	7.310
380.38	6.800
380.74	7.263
381.09	7.090
381.45	6.884
381.81	6.695
382.17	7.516
382.53	6.730
382.89	7.222
383.25	6.379
383.61	6.815
383.97	7.317
384.32	6.613
384.68	7.125
385.04	6.761
385.40	6.440
385.76	7.064
386.12	6.930
386.48	8.055
386.83	7.377
387.19	8.101
387.55	7.359
387.91	6.953
388.27	7.357
388.62	7.560
388.98	6.265
389.34	7.947
389.70	7.603
390.06	6.907
390.42	7.263
390.77	8.270
391.13	7.849
391.49	7.805
391.85	7.002
392.20	6.751
392.56	7.955
392.92	7.004
393.28	6.095
393.64	7.254
393.99	7.330
394.35	6.824
394.71	7.277
395.07	7.539
395.42	7.046
395.78	6.679
396.14	7.573
396.50	8.271
396.85	8.137
397.21	7.768
397.57	7.130
397.92	7.452
398.28	7.007
398.64	7.288
399.00	7.555
399.35	6.486
399.71	7.407
400.07	7.747
400.42	7.423
400.78	7.961
401.14	7.256
401.49	7.403
401.85	7.018
402.21	6.946
402.57	7.094
402.92	7.251
403.28	6.871
403.63	7.302
403.99	7.452
404.35	7.758
404.70	7.314
405.06	7.513
405.42	6.987
405.77	7.200
406.13	7.393
406.49	7.629
406.84	6.970
407.20	6.442
407.55	7.594
407.91	7.733
408.27	6.382
408.62	7.104
408.98	6.556
409.34	7.196
409.69	7.419
410.05	6.568
410.40	6.667
410.76	7.049
411.11	7.298
411.47	7.540
411.83	7.208
412.18	7.050
412.54	7.036
412.89	8.133
413.25	7.143
413.60	7.412
413.96	7.043
414.31	7.412
414.67	7.541
415.03	6.821
415.38	7.861
415.74	7.460
416.09	7.577
416.45	7.296
416.80	6.940
417.16	8.043
417.51	7.366
417.87	7.001
418.22	7.823
418.58	7.618
418.93	7.002
419.29	7.257
419.64	8.186
420.00	7.744
420.35	7.768
420.71	6.874
421.06	7.637
421.42	7.193
421.77	7.623
422.12	7.468
422.48	6.044
422.83	6.756
423.19	7.514
423.54	6.616
423.90	7.304
424.25	6.756
424.61	6.905
424.96	6.706
425.31	7.641
425.67	6.292
426.02	6.857
426.38	7.204
426.73	5.793
427.09	6.809
427.44	6.613
427.79	7.188
428.15	7.381
428.50	7.022
428.85	7.092
429.21	6.626
429.56	6.273
429.92	6.694
430.27	6.703
430.62	6.144
430.98	6.487
431.33	7.526
431.68	6.702
432.04	6.869
432.39	6.396
432.74	7.121
433.10	7.357
433.45	7.114
433.80	6.208
434.16	6.731
434.51	6.737
434.86	6.385
435.22	7.059
435.57	6.687
435.92	6.671
436.28	6.880
436.63	7.230
436.98	6.983
437.34	7.454
437.69	6.534
438.04	6.802
438.39	6.448
438.75	7.496
439.10	6.704
439.45	6.257
439.81	7.009
440.16	6.606
440.51	6.678
440.86	6.427
441.22	6.897
441.57	6.529
441.92	7.011
442.27	7.104
442.63	6.424
442.98	7.155
443.33	7.174
443.68	6.144
444.03	6.686
444.39	5.794
444.74	7.035
445.09	6.792
445.44	7.217
445.79	6.977
446.15	6.988
446.50	6.462
446.85	6.783
447.20	6.680
447.55	6.756
447.91	7.005
448.26	6.566
448.61	6.840
448.96	6.811
449.31	7.199
449.66	7.091
450.02	6.630
450.37	6.633
450.72	6.317
451.07	6.581
451.42	6.809
451.77	7.046
452.12	7.275
452.47	6.654
452.83	6.935
453.18	6.724
453.53	6.803
453.88	7.147
454.23	7.233
454.58	6.723
454.93	6.739
455.28	6.858
455.63	7.221
455.98	7.679
456.34	6.972
456.69	7.514
457.04	6.997
457.39	7.189
457.74	6.965
458.09	6.498
458.44	6.328
458.79	6.020
459.14	7.336
459.49	7.122
459.84	6.870
460.19	6.423
460.54	7.002
460.89	6.857
461.24	6.861
461.59	7.438
461.94	7.398
462.29	7.478
462.64	6.701
462.99	6.506
463.34	7.933
463.69	6.879
464.04	7.768
464.39	7.536
464.74	7.130
465.09	6.273
465.44	6.814
465.79	6.208
466.14	6.951
466.49	6.897
466.84	7.239
467.19	7.061
467.54	7.375
467.89	7.383
468.24	6.864
468.59	7.387
468.94	7.025
469.29	6.877
469.64	7.430
469.99	6.631
470.34	6.341
470.68	7.399
471.03	7.143
471.38	7.505
471.73	6.862
472.08	7.368
472.43	7.161
472.78	7.176
473.13	7.638
473.48	7.366
473.83	7.195
474.17	6.907
474.52	7.258
474.87	7.414
475.22	6.907
475.57	6.932
475.92	6.691
476.27	7.272
476.61	6.067
476.96	6.212
477.31	5.913
477.66	6.947
478.01	6.639
478.36	6.557
478.70	5.971
479.05	6.496
479.40	6.090
479.75	6.609
480.10	6.511
480.45	6.092
480.79	6.020
481.14	6.458
481.49	6.739
481.84	5.990
482.19	6.179
482.53	6.835
482.88	6.003
483.23	6.449
483.58	7.097
483.92	6.139
484.27	5.839
484.62	6.638
484.97	5.518
485.31	5.479
485.66	5.261
486.01	4.679
486.36	4.512
486.70	4.447
487.05	4.871
487.40	4.928
487.75	5.340
488.09	5.490
488.44	5.103
488.79	5.967
489.13	5.882
489.48	5.424
489.83	5.697
490.17	5.699
490.52	5.802
490.87	5.744
491.22	6.276
491.56	5.239
491.91	6.003
492.26	5.558
492.60	6.083
492.95	5.613
493.30	6.215
493.64	5.646
493.99	5.757
494.34	6.013
494.68	6.136
495.03	6.156
495.37	6.375
495.72	5.897
496.07	5.708
496.41	5.133
496.76	6.201
497.11	6.078
497.45	6.055
497.80	6.142
498.14	5.942
498.49	6.439
498.84	6.424
499.18	6.238
499.53	5.888
499.87	5.918
500.22	5.841
500.56	5.971
500.91	5.962
501.26	5.642
501.60	6.265
501.95	5.958
502.29	6.326
502.64	6.378
502.98	5.797
503.33	5.804
503.67	6.450
504.02	5.847
504.36	6.785
504.71	5.765
505.06	6.024
505.40	5.931
505.75	6.268
506.09	6.414
506.44	6.019
506.78	6.235
507.13	5.856
507.47	6.414
507.82	6.586
508.16	5.826
508.51	6.088
508.85	5.760
509.19	6.071
509.54	5.918
509.88	6.285
510.23	5.758
510.57	6.966
510.92	6.422
511.26	6.218
511.61	6.950
511.95	6.472
512.30	6.628
512.64	7.200
512.98	7.181
513.33	7.227
513.67	6.510
514.02	6.656
514.36	7.100
514.70	6.475
515.05	6.302
515.39	7.347
515.74	6.532
516.08	6.931
516.42	7.214
516.77	6.745
517.11	6.493
517.46	6.659
517.80	6.736
518.14	6.601
518.49	7.176
518.83	6.591
519.17	6.640
519.52	6.678
519.86	6.560
520.20	7.052
520.55	7.121
520.89	7.178
521.23	7.298
521.58	6.963
521.92	7.348
522.26	6.467
522.61	7.040
522.95	6.998
523.29	6.878
523.64	7.256
523.98	6.408
524.32	7.177
524.66	6.915
525.01	7.169
525.35	6.691
525.69	6.281
526.04	6.978
526.38	7.077
526.72	7.055
527.06	6.654
527.41	6.250
527.75	7.203
528.09	7.001
528.43	7.457
528.78	7.130
529.12	6.727
529.46	7.226
529.80	7.735
530.15	7.477
530.49	6.892
530.83	7.532
531.17	6.789
531.51	7.912
531.86	7.032
532.20	8.735
532.54	8.136
532.88	6.996
533.22	6.558
533.57	7.099
533.91	6.803
534.25	6.987
534.59	7.261
534.93	7.079
535.27	6.518
535.62	6.777
535.96	6.466
536.30	6.548
536.64	7.405
536.98	7.100
537.32	7.176
537.66	7.133
538.01	8.361
538.35	7.563
538.69	7.849
539.03	6.888
539.37	6.198
539.71	5.703
540.05	6.340
540.39	6.711
540.73	7.115
541.07	7.592
541.42	7.436
541.76	7.677
542.10	7.374
542.44	6.556
542.78	7.576
543.12	6.654
543.46	7.213
543.80	7.482
544.14	6.162
544.48	7.619
544.82	6.671
545.16	7.092
545.50	6.555
545.84	7.527
546.18	7.475
546.52	7.295
546.86	6.529
547.20	7.080
547.54	6.880
547.88	7.717
548.22	7.347
548.56	6.855
548.90	6.146
549.24	6.397
549.58	7.981
549.92	7.212
550.26	7.741
550.60	7.607
550.94	7.394
551.28	6.730
551.62	7.620
551.96	6.596
552.30	7.304
552.64	7.640
552.98	6.712
553.32	7.350
553.66	7.975
554.00	7.481
554.34	6.694
554.68	7.368
555.02	7.052
555.36	6.472
555.69	6.766
556.03	7.066
556.37	7.503
556.71	6.617
557.05	7.283
557.39	7.138
557.73	7.763
558.07	7.469
558.41	7.308
558.75	7.274
559.08	7.755
559.42	7.029
559.76	7.941
560.10	7.138
560.44	7.757
560.78	5.855
561.12	6.926
561.45	7.040
561.79	6.790
562.13	6.707
562.47	7.309
562.81	6.834
563.15	7.425
563.48	7.493
563.82	5.740
564.16	6.148
564.50	5.404
564.84	6.700
565.17	6.885
565.51	7.029
565.85	6.853
566.19	6.262
566.52	6.713
566.86	6.510
567.20	6.840
567.54	6.849
567.88	6.084
568.21	6.614
568.55	6.016
568.89	5.982
569.23	5.838
569.56	5.709
569.90	5.585
570.24	5.705
570.57	5.508
570.91	5.333
571.25	5.281
571.59	5.479
571.92	5.012
572.26	5.142
572.60	4.985
572.93	5.307
573.27	5.206
573.61	5.137
573.95	4.651
574.28	4.573
574.62	4.835
574.96	4.588
575.29	4.680
575.63	4.675
575.97	4.738
576.30	5.178
576.64	4.751
576.98	4.545
577.31	4.575
577.65	4.864
577.98	4.483
578.32	4.448
578.66	4.570
578.99	4.862
579.33	4.793
579.67	4.670
580.00	4.435
580.34	4.722
580.67	4.798
581.01	4.925
581.35	4.684
581.68	4.612
582.02	4.443
582.35	4.286
582.69	4.775
583.02	4.394
583.36	4.727
583.70	4.820
584.03	4.676
584.37	4.980
584.70	5.068
585.04	4.990
585.37	4.846
585.71	5.028
586.04	4.929
586.38	4.807
586.72	5.220
587.05	4.890
587.39	4.908
587.72	4.896
588.06	4.642
588.39	4.883
588.73	5.192
589.06	5.453
589.40	5.286
589.73	5.280
590.07	5.267
590.40	5.298
590.73	5.386
591.07	5.535
591.40	5.736
591.74	5.887
592.07	6.152
592.41	5.746
592.74	5.243
593.08	5.396
593.41	5.315
593.75	5.028
594.08	5.330
594.41	5.161
594.75	5.323
595.08	5.440
595.42	5.429
595.75	5.662
596.09	5.821
596.42	6.326
596.75	5.867
597.09	6.537
597.42	5.776
597.75	5.563
598.09	5.783
598.42	5.713
598.76	5.310
599.09	5.549
599.42	5.459
599.76	5.564
600.09	5.209
600.42	5.661
600.76	5.286
601.09	5.246
601.42	5.594
601.76	5.655
602.09	5.771
602.42	5.852
602.76	6.368
603.09	5.232
603.42	6.052
603.76	5.488
604.09	5.118
604.42	5.381
604.76	6.158
605.09	5.548
605.42	5.729
605.75	5.629
606.09	5.409
606.42	6.089
606.75	5.848
607.09	6.362
607.42	6.162
607.75	5.274
608.08	5.515
608.42	6.634
608.75	6.132
609.08	5.967
609.41	5.950
609.75	6.003
610.08	6.126
610.41	5.540
610.74	5.771
611.07	5.830
611.41	5.937
611.74	5.933
612.07	6.004
612.40	6.768
612.73	6.000
613.07	6.358
613.40	7.109
613.73	5.558
614.06	6.720
614.39	6.345
614.72	6.895
615.06	6.513
615.39	6.051
615.72	6.442
616.05	6.220
616.38	6.726
616.71	6.829
617.05	6.360
617.38	6.013
617.71	6.426
618.04	7.091
618.37	6.919
618.70	7.218
619.03	6.908
619.36	7.739
619.69	6.901
620.03	7.349
620.36	7.955
620.69	7.877
621.02	7.596
621.35	7.126
621.68	6.854
622.01	7.508
622.34	7.564
622.67	7.529
623.00	6.530
623.33	6.719
623.66	6.934
623.99	6.406
624.32	7.347
624.65	6.285
624.99	6.516
625.32	6.662
625.65	7.213
625.98	7.533
626.31	8.398
626.64	8.245
626.97	7.232
627.30	6.983
627.63	7.301
627.96	8.410
628.29	7.787
628.62	8.600
628.95	9.245
629.28	8.485
629.61	8.524
629.94	8.190
630.26	7.245
630.59	8.675
630.92	8.525
631.25	7.601
631.58	9.510
631.91	8.316
632.24	7.278
632.57	8.185
632.90	7.895
633.23	9.172
633.56	9.605
633.89	9.966
634.22	9.535
634.55	10.059
634.88	7.904
635.20	10.275
635.53	9.398
635.86	8.292
636.19	9.059
636.52	9.919
636.85	9.278
637.18	7.604
637.51	10.284
637.83	7.152
638.16	8.440
638.49	9.446
638.82	10.367
639.15	10.625
639.48	10.474
639.81	9.651
640.13	9.896
640.46	10.604
640.79	11.096
641.12	8.528
641.45	9.358
641.77	11.782
642.10	10.380
642.43	9.910
642.76	10.836
643.09	9.663
643.41	10.926
643.74	11.574
644.07	10.061
644.40	12.117
644.73	14.173
645.05	12.361
645.38	12.006
645.71	10.306
646.04	12.292
646.36	11.519
646.69	11.538
647.02	10.034
647.35	12.715
647.67	12.920
648.00	13.171
648.33	9.736
648.66	10.606
648.98	10.795
649.31	8.670
649.64	10.762
649.96	12.668
650.29	10.111
650.62	11.165
650.94	10.535
651.27	11.993
651.60	12.146
651.92	12.300
652.25	10.098
652.58	10.748
652.90	12.164
653.23	10.169
653.56	8.661
