SpectraSuite Data File
++++++++++++++++++++++++++++++++++++
Date: Wed May 13 16:04:39 PDT 2015
User: schluterlab
Dark Spectrum Present: Yes
Reference Spectrum Present: Yes
Number of Sampled Component Spectra: 1
Spectrometers: USB2E3373
Integration Time (usec): 3000 (USB2E3373)
Spectra Averaged: 3 (USB2E3373)
Boxcar Smoothing: 0 (USB2E3373)
Correct for Electrical Dark: No (USB2E3373)
Strobe/Lamp Enabled: No (USB2E3373)
Correct for Detector Non-linearity: No (USB2E3373)
Correct for Stray Light: No (USB2E3373)
Number of Pixels in Processed Spectrum: 2048
>>>>>Begin Processed Spectral Data<<<<<
178.53	0.000
178.91	-500.000
179.29	-625.000
179.67	-72.222
180.04	-750.000
180.42	1500.000
180.80	440.000
181.18	-600.000
181.56	300.000
181.94	0.000
182.31	-214.286
182.69	1100.000
183.07	-275.000
183.45	-188.889
183.83	354.545
184.20	-220.000
184.58	600.000
184.96	2100.000
185.34	-360.000
185.72	-250.000
186.09	-700.000
186.47	1550.000
186.85	1250.000
187.23	1900.000
187.61	-1033.333
187.98	800.000
188.36	354.545
188.74	263.636
189.12	-460.000
189.49	300.000
189.87	-2900.000
190.25	-875.000
190.63	278.571
191.00	261.538
191.38	616.667
191.76	-425.000
192.14	875.000
192.51	300.000
192.89	450.000
193.27	337.500
193.65	-450.000
194.02	290.000
194.40	400.000
194.78	310.000
195.15	233.333
195.53	390.000
195.91	-950.000
196.29	193.750
196.66	205.263
197.04	-170.000
197.42	0.000
197.79	420.000
198.17	-900.000
198.55	385.714
198.92	350.000
199.30	600.000
199.68	0.000
200.05	227.778
200.43	385.714
200.81	2300.000
201.18	933.333
201.56	-966.667
201.94	322.222
202.31	333.333
202.69	216.667
203.07	420.000
203.44	0.000
203.82	550.000
204.19	400.000
204.57	285.714
204.95	287.500
205.32	800.000
205.70	309.091
206.08	150.000
206.45	1600.000
206.83	206.250
207.20	600.000
207.58	340.000
207.96	222.222
208.33	362.500
208.71	-383.333
209.08	342.857
209.46	311.111
209.84	327.273
210.21	-766.667
210.59	725.000
210.96	-175.000
211.34	1200.000
211.71	360.000
212.09	416.667
212.46	0.000
212.84	700.000
213.22	775.000
213.59	-2700.000
213.97	533.333
214.34	414.286
214.72	381.818
215.09	580.000
215.47	-1150.000
215.84	-1500.000
216.22	966.667
216.59	192.857
216.97	700.000
217.34	254.545
217.72	-400.000
218.09	0.000
218.47	-3000.000
218.84	355.556
219.22	528.571
219.59	1100.000
219.97	-442.857
220.34	460.000
220.72	-500.000
221.09	221.429
221.47	850.000
221.84	-550.000
222.22	0.000
222.59	675.000
222.97	-1200.000
223.34	740.000
223.72	238.462
224.09	700.000
224.46	900.000
224.84	-2900.000
225.21	-520.000
225.59	-2400.000
225.96	460.000
226.34	175.000
226.71	1600.000
227.08	312.500
227.46	280.000
227.83	-550.000
228.21	-1400.000
228.58	433.333
228.95	-1000.000
229.33	-1200.000
229.70	600.000
230.08	371.429
230.45	-360.000
230.82	225.000
231.20	450.000
231.57	385.714
231.95	333.333
232.32	122.727
232.69	145.455
233.07	414.286
233.44	169.231
233.81	-966.667
234.19	194.737
234.56	308.333
234.93	275.000
235.31	372.727
235.68	146.154
236.05	292.857
236.43	139.394
236.80	189.474
237.17	3600.000
237.55	228.571
237.92	196.429
238.29	185.714
238.67	174.194
239.04	186.207
239.41	161.111
239.79	115.217
240.16	159.524
240.53	125.000
240.91	103.922
241.28	120.000
241.65	124.000
242.02	102.899
242.40	129.032
242.77	126.667
243.14	98.925
243.51	94.382
243.89	95.294
244.26	106.667
244.63	95.699
245.00	97.872
245.38	96.040
245.75	100.000
246.12	91.743
246.49	100.000
246.87	96.800
247.24	100.769
247.61	89.286
247.98	85.621
248.36	90.541
248.73	85.987
249.10	91.720
249.47	87.006
249.84	92.513
250.22	85.027
250.59	87.574
250.96	76.768
251.33	72.986
251.70	87.129
252.08	88.571
252.45	79.372
252.82	76.957
253.19	84.255
253.56	80.784
253.94	77.178
254.31	78.906
254.68	77.308
255.05	79.705
255.42	77.642
255.79	79.779
256.16	84.116
256.54	75.618
256.91	77.580
257.28	75.180
257.65	74.917
258.02	76.398
258.39	73.186
258.76	77.926
259.14	73.512
259.51	75.684
259.88	73.292
260.25	77.039
260.62	72.832
260.99	76.708
261.36	76.877
261.73	73.926
262.10	75.291
262.47	80.282
262.85	75.487
263.22	71.795
263.59	75.499
263.96	71.703
264.33	71.540
264.70	72.895
265.07	73.657
265.44	73.232
265.81	72.506
266.18	77.387
266.55	73.902
266.92	75.184
267.29	73.380
267.66	69.495
268.03	73.636
268.40	72.196
268.77	69.928
269.14	72.973
269.51	72.912
269.88	72.261
270.25	69.526
270.62	74.831
270.99	70.753
271.36	68.884
271.73	75.234
272.10	72.174
272.47	72.688
272.84	71.645
273.21	70.650
273.58	71.616
273.95	70.021
274.32	68.388
274.69	70.450
275.06	68.701
275.43	73.404
275.80	67.936
276.17	68.839
276.54	69.023
276.91	70.158
277.28	66.406
277.65	66.151
278.02	68.530
278.39	69.531
278.76	66.727
279.13	67.547
279.50	67.412
279.87	69.124
280.23	70.259
280.60	70.213
280.97	68.022
281.34	67.080
281.71	67.636
282.08	67.562
282.45	68.182
282.82	64.831
283.19	65.597
283.56	65.439
283.92	66.836
284.29	66.138
284.66	65.154
285.03	65.280
285.40	65.493
285.77	65.993
286.14	65.630
286.51	65.333
286.87	64.103
287.24	65.472
287.61	61.958
287.98	62.175
288.35	62.282
288.72	60.280
289.08	63.380
289.45	61.614
289.82	60.976
290.19	60.283
290.56	59.571
290.93	58.157
291.29	61.196
291.66	58.997
292.03	58.866
292.40	59.325
292.77	56.509
293.13	56.716
293.50	56.706
293.87	56.000
294.24	56.593
294.60	54.294
294.97	54.070
295.34	55.007
295.71	54.261
296.08	53.419
296.44	53.232
296.81	53.369
297.18	55.014
297.55	52.639
297.91	52.639
298.28	56.225
298.65	50.783
299.02	52.042
299.38	52.988
299.75	50.539
300.12	51.086
300.48	50.750
300.85	49.568
301.22	51.338
301.59	51.389
301.95	51.259
302.32	50.706
302.69	49.223
303.05	50.667
303.42	51.728
303.79	48.811
304.15	48.601
304.52	48.088
304.89	48.316
305.25	47.564
305.62	47.565
305.99	50.767
306.35	47.987
306.72	51.121
307.09	49.057
307.45	49.775
307.82	47.991
308.19	49.117
308.55	49.730
308.92	47.476
309.29	46.463
309.65	47.932
310.02	48.309
310.38	48.710
310.75	49.208
311.12	48.516
311.48	50.261
311.85	51.363
312.22	47.659
312.58	47.401
312.95	49.630
313.31	46.893
313.68	51.247
314.05	51.085
314.41	49.347
314.78	49.547
315.14	47.964
315.51	50.257
315.87	48.614
316.24	49.156
316.61	48.246
316.97	49.706
317.34	50.685
317.70	50.956
318.07	50.626
318.43	53.033
318.80	50.422
319.16	49.153
319.53	50.094
319.89	52.952
320.26	51.600
320.62	51.389
320.99	50.707
321.35	51.414
321.72	51.232
322.08	52.517
322.45	54.129
322.81	53.101
323.18	54.335
323.54	52.412
323.91	51.509
324.27	53.346
324.64	52.377
325.00	53.201
325.37	53.321
325.73	54.578
326.10	53.663
326.46	53.853
326.83	55.047
327.19	54.910
327.56	55.314
327.92	55.031
328.29	54.570
328.65	54.604
329.01	54.513
329.38	56.614
329.74	54.940
330.11	54.854
330.47	57.668
330.84	55.607
331.20	55.191
331.56	55.321
331.93	56.296
332.29	55.723
332.66	54.867
333.02	55.027
333.38	56.188
333.75	55.080
334.11	53.737
334.48	54.925
334.84	55.699
335.20	54.818
335.57	54.125
335.93	52.679
336.29	54.945
336.66	55.906
337.02	54.570
337.38	54.074
337.75	54.724
338.11	55.953
338.47	56.722
338.84	55.912
339.20	54.220
339.56	56.022
339.93	54.909
340.29	55.525
340.65	54.635
341.02	54.625
341.38	54.804
341.74	54.386
342.11	55.633
342.47	56.123
342.83	55.308
343.20	56.190
343.56	53.749
343.92	55.702
344.28	55.867
344.65	54.772
345.01	52.357
345.37	54.288
345.73	55.161
346.10	55.669
346.46	54.492
346.82	55.189
347.19	53.634
347.55	54.433
347.91	54.693
348.27	54.971
348.63	55.100
349.00	53.479
349.36	53.366
349.72	54.771
350.08	53.647
350.45	55.167
350.81	53.371
351.17	54.133
351.53	54.464
351.89	53.383
352.26	53.433
352.62	54.370
352.98	54.619
353.34	54.889
353.70	52.946
354.07	54.032
354.43	54.444
354.79	54.224
355.15	54.270
355.51	56.835
355.87	54.449
356.24	54.886
356.60	53.970
356.96	54.143
357.32	56.010
357.68	54.331
358.04	55.028
358.40	55.661
358.77	53.834
359.13	54.380
359.49	55.137
359.85	54.444
360.21	56.778
360.57	55.253
360.93	57.692
361.29	55.026
361.66	53.870
362.02	56.045
362.38	56.350
362.74	55.804
363.10	54.922
363.46	56.787
363.82	54.044
364.18	55.580
364.54	56.612
364.90	56.941
365.26	55.368
365.62	57.122
365.98	55.734
366.35	54.441
366.71	56.255
367.07	56.591
367.43	56.531
367.79	57.459
368.15	56.897
368.51	55.233
368.87	59.529
369.23	57.937
369.59	56.988
369.95	57.353
370.31	57.835
370.67	57.029
371.03	57.154
371.39	56.924
371.75	56.544
372.11	56.970
372.47	58.504
372.83	58.069
373.19	55.925
373.55	59.645
373.91	59.941
374.27	57.320
374.63	58.691
374.99	58.898
375.35	57.362
375.71	59.082
376.07	58.230
376.42	59.285
376.78	60.371
377.14	60.312
377.50	59.139
377.86	59.508
378.22	58.534
378.58	58.647
378.94	59.648
379.30	61.196
379.66	61.231
380.02	59.521
380.38	59.381
380.74	60.864
381.09	59.780
381.45	60.971
381.81	61.425
382.17	61.146
382.53	61.761
382.89	62.901
383.25	61.914
383.61	63.321
383.97	62.039
384.32	62.133
384.68	61.896
385.04	62.876
385.40	62.910
385.76	62.592
386.12	62.630
386.48	64.254
386.83	64.785
387.19	64.626
387.55	64.688
387.91	63.059
388.27	62.845
388.62	64.413
388.98	62.715
389.34	63.329
389.70	63.090
390.06	64.639
390.42	63.943
390.77	63.995
391.13	64.646
391.49	64.975
391.85	64.990
392.20	65.110
392.56	65.593
392.92	64.921
393.28	65.148
393.64	65.468
393.99	64.081
394.35	63.462
394.71	64.492
395.07	64.486
395.42	64.462
395.78	64.631
396.14	64.804
396.50	65.789
396.85	66.052
397.21	64.550
397.57	64.414
397.92	65.986
398.28	64.182
398.64	64.755
399.00	65.641
399.35	64.580
399.71	66.319
400.07	64.755
400.42	64.908
400.78	65.682
401.14	65.183
401.49	65.970
401.85	65.457
402.21	64.311
402.57	66.749
402.92	66.141
403.28	65.209
403.63	65.223
403.99	65.796
404.35	64.667
404.70	65.947
405.06	63.716
405.42	65.752
405.77	63.543
406.13	63.149
406.49	65.109
406.84	64.442
407.20	64.480
407.55	65.539
407.91	65.267
408.27	66.305
408.62	64.238
408.98	65.135
409.34	64.453
409.69	65.613
410.05	64.312
410.40	64.220
410.76	64.815
411.11	64.355
411.47	64.601
411.83	64.692
412.18	63.884
412.54	65.006
412.89	63.313
413.25	64.581
413.60	63.620
413.96	62.781
414.31	63.913
414.67	65.526
415.03	64.901
415.38	64.433
415.74	63.408
416.09	64.925
416.45	65.395
416.80	63.979
417.16	64.410
417.51	64.964
417.87	63.841
418.22	64.984
418.58	64.364
418.93	64.373
419.29	64.099
419.64	64.484
420.00	63.415
420.35	63.420
420.71	64.256
421.06	64.081
421.42	63.392
421.77	65.527
422.12	64.065
422.48	63.842
422.83	66.104
423.19	63.149
423.54	63.842
423.90	63.710
424.25	64.489
424.61	63.988
424.96	64.665
425.31	64.341
425.67	63.371
426.02	64.114
426.38	65.018
426.73	63.604
427.09	63.769
427.44	64.117
427.79	64.002
428.15	64.107
428.50	63.253
428.85	64.958
429.21	64.771
429.56	63.245
429.92	63.362
430.27	63.357
430.62	62.775
430.98	62.999
431.33	62.835
431.68	64.293
432.04	63.845
432.39	63.849
432.74	64.871
433.10	64.403
433.45	63.382
433.80	64.302
434.16	62.821
434.51	63.579
434.86	63.740
435.22	63.813
435.57	63.891
435.92	64.950
436.28	63.760
436.63	62.638
436.98	63.080
437.34	63.387
437.69	65.169
438.04	63.125
438.39	64.179
438.75	63.916
439.10	63.017
439.45	64.286
439.81	64.713
440.16	63.862
440.51	63.445
440.86	64.910
441.22	63.904
441.57	64.278
441.92	63.613
442.27	64.370
442.63	62.770
442.98	64.789
443.33	62.663
443.68	63.345
444.03	63.055
444.39	63.729
444.74	64.286
445.09	62.965
445.44	62.165
445.79	62.395
446.15	63.102
446.50	63.436
446.85	63.001
447.20	63.080
447.55	64.154
447.91	63.100
448.26	62.604
448.61	62.691
448.96	63.234
449.31	63.555
449.66	62.859
450.02	63.008
450.37	62.415
450.72	63.508
451.07	62.706
451.42	61.945
451.77	61.950
452.12	61.952
452.47	62.376
452.83	62.821
453.18	62.592
453.53	62.338
453.88	62.434
454.23	62.343
454.58	64.204
454.93	64.081
455.28	61.222
455.63	61.590
455.98	63.631
456.34	62.312
456.69	62.430
457.04	63.344
457.39	60.316
457.74	61.927
458.09	61.875
458.44	61.403
458.79	61.768
459.14	61.795
459.49	61.588
459.84	61.496
460.19	61.638
460.54	59.896
460.89	61.327
461.24	61.991
461.59	61.825
461.94	59.433
462.29	61.899
462.64	59.860
462.99	60.377
463.34	60.733
463.69	60.851
464.04	60.986
464.39	59.188
464.74	60.428
465.09	60.374
465.44	60.997
465.79	60.515
466.14	59.825
466.49	59.566
466.84	60.362
467.19	59.867
467.54	60.500
467.89	59.544
468.24	60.558
468.59	59.524
468.94	58.705
469.29	60.154
469.64	60.710
469.99	61.231
470.34	59.445
470.68	60.057
471.03	57.891
471.38	60.320
471.73	57.828
472.08	59.803
472.43	58.668
472.78	58.394
473.13	59.114
473.48	58.739
473.83	60.061
474.17	58.494
474.52	58.437
474.87	58.786
475.22	58.503
475.57	58.517
475.92	58.046
476.27	58.005
476.61	58.411
476.96	58.769
477.31	57.561
477.66	59.519
478.01	56.194
478.36	57.853
478.70	56.594
479.05	58.040
479.40	58.086
479.75	57.804
480.10	58.101
480.45	56.782
480.79	56.856
481.14	58.023
481.49	56.763
481.84	57.019
482.19	57.474
482.53	56.376
482.88	56.864
483.23	57.944
483.58	57.052
483.92	56.514
484.27	55.643
484.62	55.948
484.97	56.918
485.31	58.733
485.66	58.923
486.01	57.443
486.36	55.301
486.70	54.941
487.05	55.210
487.40	56.384
487.75	56.681
488.09	57.022
488.44	56.604
488.79	57.939
489.13	58.060
489.48	56.852
489.83	56.107
490.17	56.072
490.52	55.049
490.87	55.495
491.22	54.388
491.56	54.715
491.91	54.072
492.26	55.260
492.60	54.885
492.95	54.022
493.30	54.579
493.64	55.343
493.99	54.318
494.34	55.227
494.68	55.815
495.03	54.370
495.37	53.886
495.72	55.117
496.07	55.035
496.41	53.628
496.76	54.090
497.11	54.705
497.45	54.728
497.80	54.271
498.14	53.961
498.49	54.195
498.84	53.787
499.18	53.048
499.53	54.321
499.87	54.101
500.22	53.462
500.56	54.078
500.91	54.087
501.26	53.864
501.60	54.722
501.95	52.750
502.29	54.217
502.64	53.724
502.98	52.828
503.33	52.605
503.67	52.622
504.02	53.321
504.36	52.270
504.71	53.298
505.06	52.675
505.40	52.212
505.75	52.170
506.09	52.624
506.44	52.886
506.78	52.070
507.13	52.953
507.47	52.879
507.82	53.191
508.16	52.634
508.51	52.867
508.85	52.085
509.19	51.888
509.54	52.296
509.88	52.241
510.23	52.545
510.57	53.096
510.92	52.512
511.26	51.901
511.61	51.556
511.95	51.409
512.30	51.909
512.64	52.015
512.98	51.447
513.33	51.338
513.67	50.534
514.02	50.487
514.36	51.611
514.70	52.131
515.05	51.199
515.39	50.925
515.74	50.000
516.08	50.307
516.42	52.442
516.77	50.836
517.11	50.610
517.46	51.411
517.80	51.800
518.14	49.739
518.49	50.817
518.83	50.625
519.17	50.404
519.52	50.934
519.86	49.857
520.20	50.636
520.55	51.346
520.89	50.426
521.23	51.206
521.58	50.240
521.92	49.969
522.26	48.566
522.61	50.156
522.95	49.601
523.29	49.909
523.64	50.488
523.98	51.386
524.32	49.216
524.66	49.970
525.01	50.551
525.35	48.327
525.69	48.276
526.04	49.408
526.38	49.542
526.72	48.344
527.06	48.901
527.41	47.896
527.75	51.061
528.09	49.133
528.43	48.757
528.78	48.986
529.12	48.424
529.46	49.908
529.80	49.814
530.15	48.847
530.49	47.323
530.83	49.494
531.17	50.065
531.51	49.676
531.86	49.484
532.20	49.348
532.54	49.584
532.88	48.010
533.22	47.658
533.57	48.889
533.91	47.803
534.25	48.420
534.59	48.627
534.93	47.650
535.27	48.521
535.62	48.901
535.96	48.901
536.30	49.142
536.64	49.517
536.98	48.573
537.32	48.124
537.66	48.800
538.01	48.387
538.35	48.546
538.69	48.309
539.03	48.733
539.37	46.581
539.71	46.533
540.05	48.366
540.39	49.037
540.73	46.054
541.07	49.578
541.42	48.728
541.76	49.226
542.10	48.383
542.44	48.013
542.78	48.287
543.12	46.321
543.46	48.787
543.80	47.755
544.14	46.855
544.48	47.619
544.82	48.172
545.16	48.016
545.50	47.558
545.84	48.454
546.18	47.475
546.52	47.970
546.86	47.423
547.20	48.213
547.54	47.295
547.88	47.640
548.22	46.451
548.56	47.673
548.90	45.839
549.24	47.542
549.58	47.203
549.92	46.360
550.26	47.727
550.60	46.058
550.94	47.324
551.28	45.647
551.62	47.304
551.96	47.649
552.30	48.532
552.64	47.532
552.98	47.864
553.32	46.730
553.66	47.035
554.00	47.083
554.34	47.274
554.68	47.282
555.02	46.333
555.36	45.303
555.69	46.549
556.03	47.106
556.37	46.112
556.71	46.317
557.05	46.499
557.39	46.536
557.73	45.872
558.07	46.555
558.41	46.816
558.75	46.510
559.08	46.682
559.42	46.410
559.76	46.324
560.10	45.468
560.44	45.353
560.78	45.243
561.12	46.636
561.45	46.675
561.79	46.078
562.13	45.875
562.47	45.833
562.81	46.583
563.15	44.816
563.48	46.286
563.82	46.902
564.16	46.436
564.50	45.052
564.84	46.144
565.17	46.010
565.51	46.134
565.85	46.320
566.19	45.523
566.52	47.118
566.86	45.750
567.20	46.580
567.54	46.518
567.88	45.356
568.21	46.296
568.55	46.764
568.89	47.422
569.23	46.390
569.56	45.628
569.90	46.377
570.24	46.537
570.57	46.651
570.91	46.122
571.25	46.232
571.59	46.598
571.92	46.573
572.26	46.736
572.60	46.817
572.93	45.967
573.27	46.495
573.61	46.762
573.95	47.235
574.28	46.307
574.62	46.696
574.96	46.404
575.29	46.193
575.63	46.138
575.97	46.160
576.30	46.893
576.64	46.576
576.98	46.816
577.31	46.765
577.65	46.884
577.98	47.004
578.32	46.029
578.66	46.059
578.99	46.770
579.33	46.260
579.67	45.853
580.00	47.159
580.34	45.895
580.67	46.774
581.01	46.503
581.35	47.188
581.68	47.294
582.02	46.318
582.35	46.166
582.69	46.352
583.02	45.951
583.36	46.737
583.70	46.678
584.03	46.578
584.37	47.484
584.70	46.656
585.04	47.040
585.37	46.202
585.71	46.123
586.04	45.615
586.38	46.682
586.72	46.506
587.05	46.455
587.39	46.042
587.72	46.328
588.06	46.451
588.39	46.063
588.73	46.231
589.06	46.931
589.40	46.532
589.73	46.639
590.07	46.512
590.40	45.670
590.73	45.667
591.07	46.602
591.40	46.310
591.74	46.494
592.07	45.942
592.41	45.556
592.74	45.169
593.08	45.370
593.41	45.207
593.75	43.785
594.08	44.888
594.41	45.634
594.75	46.137
595.08	45.884
595.42	45.464
595.75	45.442
596.09	46.526
596.42	46.090
596.75	45.082
597.09	45.974
597.42	44.983
597.75	45.192
598.09	45.435
598.42	44.459
598.76	43.899
599.09	44.280
599.42	44.214
599.76	44.876
600.09	44.080
600.42	43.937
600.76	43.536
601.09	44.590
601.42	44.787
601.76	44.896
602.09	44.783
602.42	45.263
602.76	45.385
603.09	44.807
603.42	45.295
603.76	44.245
604.09	44.242
604.42	44.435
604.76	45.086
605.09	44.037
605.42	44.592
605.75	44.205
606.09	44.652
606.42	44.503
606.75	43.509
607.09	44.537
607.42	44.673
607.75	43.882
608.08	43.769
608.42	44.420
608.75	43.643
609.08	43.895
609.41	43.408
609.75	43.830
610.08	45.570
610.41	43.855
610.74	43.945
611.07	44.960
611.41	43.474
611.74	44.193
612.07	44.099
612.40	44.753
612.73	43.368
613.07	43.966
613.40	44.497
613.73	42.790
614.06	43.011
614.39	43.576
614.72	43.105
615.06	43.120
615.39	43.259
615.72	42.843
616.05	43.860
616.38	43.135
616.71	43.824
617.05	43.816
617.38	43.476
617.71	44.565
618.04	44.772
618.37	43.820
618.70	42.564
619.03	42.763
619.36	43.245
619.69	43.944
620.03	43.887
620.36	43.316
620.69	43.493
621.02	42.699
621.35	42.208
621.68	41.822
622.01	41.641
622.34	42.663
622.67	43.726
623.00	41.673
623.33	42.459
623.66	42.316
623.99	42.047
624.32	42.582
624.65	42.726
624.99	41.856
625.32	41.709
625.65	42.149
625.98	42.121
626.31	41.602
626.64	42.204
626.97	42.643
627.30	41.313
627.63	42.248
627.96	42.304
628.29	42.695
628.62	40.714
628.95	43.585
629.28	42.792
629.61	41.338
629.94	42.762
630.26	41.277
630.59	41.373
630.92	40.134
631.25	40.474
631.58	41.441
