SpectraSuite Data File
++++++++++++++++++++++++++++++++++++
Date: Wed May 13 16:49:53 PDT 2015
User: schluterlab
Dark Spectrum Present: Yes
Reference Spectrum Present: Yes
Number of Sampled Component Spectra: 1
Spectrometers: USB2E3373
Integration Time (usec): 3000 (USB2E3373)
Spectra Averaged: 3 (USB2E3373)
Boxcar Smoothing: 0 (USB2E3373)
Correct for Electrical Dark: No (USB2E3373)
Strobe/Lamp Enabled: No (USB2E3373)
Correct for Detector Non-linearity: No (USB2E3373)
Correct for Stray Light: No (USB2E3373)
Number of Pixels in Processed Spectrum: 2048
>>>>>Begin Processed Spectral Data<<<<<
178.53	0.000
178.91	-1125.000
179.29	-1225.000
179.67	-222.222
180.04	-1425.000
180.42	2400.000
180.80	1020.000
181.18	-1025.000
181.56	500.000
181.94	0.000
182.31	-642.857
182.69	1700.000
183.07	-500.000
183.45	-455.556
183.83	509.091
184.20	-260.000
184.58	2250.000
184.96	5300.000
185.34	-1020.000
185.72	-475.000
186.09	-2000.000
186.47	3000.000
186.85	2400.000
187.23	4600.000
187.61	-1600.000
187.98	1225.000
188.36	581.818
188.74	454.545
189.12	-820.000
189.49	560.000
189.87	-4400.000
190.25	-1050.000
190.63	421.429
191.00	430.769
191.38	933.333
191.76	-1125.000
192.14	1375.000
192.51	625.000
192.89	850.000
193.27	562.500
193.65	-1200.000
194.02	480.000
194.40	880.000
194.78	530.000
195.15	491.667
195.53	600.000
195.91	-2050.000
196.29	281.250
196.66	305.263
197.04	-230.000
197.42	0.000
197.79	530.000
198.17	-4600.000
198.55	728.571
198.92	675.000
199.30	780.000
199.68	0.000
200.05	288.889
200.43	757.143
200.81	4300.000
201.18	1466.667
201.56	-1366.667
201.94	588.889
202.31	577.778
202.69	391.667
203.07	530.000
203.44	0.000
203.82	1225.000
204.19	828.571
204.57	428.571
204.95	600.000
205.32	1233.333
205.70	527.273
206.08	378.571
206.45	1900.000
206.83	356.250
207.20	833.333
207.58	700.000
207.96	350.000
208.33	800.000
208.71	-666.667
209.08	757.143
209.46	444.444
209.84	381.818
210.21	-1666.667
210.59	1425.000
210.96	-337.500
211.34	2600.000
211.71	600.000
212.09	766.667
212.46	0.000
212.84	1400.000
213.22	1250.000
213.59	-3900.000
213.97	633.333
214.34	785.714
214.72	527.273
215.09	960.000
215.47	-2300.000
215.84	-2250.000
216.22	1700.000
216.59	392.857
216.97	1400.000
217.34	381.818
217.72	-733.333
218.09	0.000
218.47	-4500.000
218.84	633.333
219.22	657.143
219.59	1400.000
219.97	-514.286
220.34	1040.000
220.72	-1700.000
221.09	371.429
221.47	1275.000
221.84	-900.000
222.22	0.000
222.59	1275.000
222.97	-2450.000
223.34	1060.000
223.72	392.308
224.09	1200.000
224.46	2400.000
224.84	-4400.000
225.21	-940.000
225.59	-4400.000
225.96	530.000
226.34	270.000
226.71	2300.000
227.08	600.000
227.46	610.000
227.83	-900.000
228.21	-2050.000
228.58	522.222
228.95	-2400.000
229.33	-2250.000
229.70	1766.667
230.08	885.714
230.45	-880.000
230.82	383.333
231.20	833.333
231.57	614.286
231.95	458.333
232.32	245.455
232.69	345.455
233.07	657.143
233.44	330.769
233.81	-1533.333
234.19	278.947
234.56	425.000
234.93	441.667
235.31	445.455
235.68	292.308
236.05	371.429
236.43	172.727
236.80	194.737
237.17	3000.000
237.55	185.714
237.92	175.000
238.29	238.095
238.67	122.581
239.04	155.172
239.41	136.111
239.79	110.870
240.16	126.190
240.53	113.636
240.91	66.667
241.28	76.000
241.65	74.000
242.02	95.652
242.40	66.129
242.77	68.333
243.14	58.065
243.51	65.169
243.89	54.118
244.26	45.556
244.63	58.065
245.00	34.043
245.38	45.545
245.75	49.533
246.12	36.697
246.49	37.956
246.87	42.400
247.24	34.615
247.61	30.000
247.98	38.562
248.36	34.459
248.73	28.025
249.10	31.210
249.47	31.638
249.84	34.759
250.22	24.599
250.59	27.219
250.96	28.788
251.33	23.223
251.70	28.713
252.08	24.286
252.45	19.283
252.82	19.130
253.19	20.000
253.56	24.706
253.94	21.992
254.31	22.266
254.68	22.692
255.05	24.723
255.42	19.919
255.79	23.529
256.16	18.412
256.54	15.194
256.91	18.505
257.28	15.468
257.65	16.832
258.02	18.323
258.39	18.297
258.76	13.378
259.14	16.071
259.51	16.109
259.88	17.081
260.25	16.616
260.62	15.896
260.99	14.286
261.36	16.216
261.73	13.467
262.10	13.081
262.47	14.930
262.85	13.370
263.22	12.536
263.59	15.385
263.96	12.912
264.33	16.971
264.70	15.263
265.07	13.555
265.44	12.121
265.81	11.922
266.18	10.804
266.55	12.927
266.92	14.251
267.29	15.972
267.66	13.532
268.03	14.318
268.40	11.916
268.77	15.513
269.14	11.937
269.51	13.995
269.88	15.152
270.25	13.318
270.62	12.135
270.99	13.548
271.36	12.017
271.73	12.383
272.10	12.609
272.47	13.333
272.84	11.905
273.21	11.950
273.58	11.790
273.95	12.369
274.32	12.603
274.69	12.420
275.06	11.024
275.43	11.702
275.80	11.623
276.17	11.405
276.54	11.850
276.91	9.881
277.28	9.375
277.65	11.605
278.02	11.594
278.39	11.523
278.76	11.455
279.13	9.811
279.50	11.173
279.87	11.155
280.23	11.776
280.60	9.478
280.97	9.797
281.34	9.204
281.71	10.727
282.08	10.365
282.45	7.273
282.82	9.591
283.19	7.665
283.56	10.000
283.92	12.521
284.29	9.171
284.66	11.071
285.03	9.584
285.40	10.739
285.77	9.933
286.14	8.808
286.51	11.833
286.87	10.940
287.24	11.075
287.61	9.310
287.98	10.227
288.35	8.875
288.72	9.190
289.08	9.703
289.45	8.896
289.82	8.455
290.19	7.535
290.56	8.576
290.93	8.006
291.29	8.589
291.66	7.670
292.03	11.483
292.40	9.398
292.77	6.509
293.13	9.104
293.50	7.434
293.87	7.704
294.24	6.519
294.60	6.550
294.97	9.157
295.34	10.155
295.71	9.233
296.08	8.120
296.44	7.565
296.81	7.266
297.18	9.756
297.55	6.069
297.91	7.256
298.28	7.898
298.65	7.180
299.02	8.564
299.38	7.703
299.75	7.143
300.12	7.152
300.48	7.625
300.85	7.891
301.22	7.389
301.59	6.566
301.95	8.438
302.32	7.702
302.69	8.483
303.05	6.667
303.42	7.160
303.79	6.908
304.15	6.993
304.52	6.257
304.89	6.969
305.25	7.077
305.62	8.154
305.99	7.674
306.35	7.159
306.72	6.614
307.09	7.325
307.45	9.009
307.82	6.585
308.19	8.389
308.55	8.198
308.92	6.767
309.29	6.125
309.65	7.741
310.02	8.668
310.38	7.419
310.75	6.547
311.12	7.369
311.48	8.568
311.85	7.652
312.22	7.284
312.58	7.173
312.95	7.603
313.31	7.184
313.68	7.796
314.05	9.566
314.41	8.241
314.78	6.949
315.14	8.143
315.51	8.754
315.87	7.822
316.24	8.838
316.61	7.895
316.97	6.947
317.34	7.339
317.70	7.457
318.07	7.796
318.43	7.730
318.80	8.435
319.16	8.757
319.53	8.255
319.89	8.762
320.26	7.900
320.62	8.433
320.99	9.293
321.35	7.879
321.72	9.446
322.08	7.799
322.45	9.950
322.81	8.236
323.18	8.092
323.54	10.111
323.91	9.717
324.27	9.369
324.64	8.760
325.00	9.288
325.37	10.100
325.73	9.874
326.10	8.738
326.46	8.154
326.83	8.542
327.19	8.540
327.56	8.537
327.92	8.836
328.29	9.760
328.65	9.208
329.01	9.296
329.38	8.696
329.74	9.141
330.11	8.860
330.47	9.183
330.84	10.294
331.20	9.199
331.56	9.541
331.93	8.426
332.29	9.139
332.66	9.735
333.02	8.501
333.38	10.388
333.75	9.537
334.11	8.897
334.48	9.849
334.84	9.099
335.20	8.727
335.57	7.978
335.93	8.214
336.29	8.059
336.66	8.115
337.02	8.778
337.38	10.278
337.75	9.358
338.11	7.789
338.47	8.379
338.84	8.708
339.20	7.156
339.56	9.307
339.93	7.364
340.29	7.699
340.65	8.824
341.02	7.941
341.38	9.609
341.74	8.246
342.11	9.432
342.47	8.722
342.83	8.562
343.20	8.831
343.56	7.919
343.92	8.246
344.28	7.908
344.65	8.426
345.01	7.828
345.37	6.690
345.73	8.460
346.10	8.440
346.46	8.390
346.82	8.731
347.19	7.853
347.55	8.292
347.91	9.142
348.27	8.546
348.63	8.612
349.00	8.495
349.36	7.635
349.72	8.340
350.08	8.185
350.45	7.486
350.81	7.311
351.17	8.104
351.53	7.371
351.89	8.086
352.26	8.682
352.62	9.062
352.98	7.780
353.34	7.888
353.70	6.792
354.07	8.065
354.43	7.698
354.79	8.286
355.15	7.901
355.51	8.473
355.87	7.429
356.24	8.388
356.60	8.180
356.96	7.884
357.32	7.032
357.68	8.031
358.04	8.709
358.40	8.234
358.77	8.451
359.13	7.261
359.49	7.843
359.85	7.143
360.21	6.380
360.57	7.704
360.93	7.923
361.29	7.785
361.66	7.895
362.02	8.657
362.38	7.833
362.74	7.440
363.10	7.402
363.46	7.997
363.82	7.256
364.18	7.856
364.54	8.395
364.90	8.357
365.26	7.132
365.62	8.254
365.98	7.012
366.35	7.092
366.71	7.158
367.07	8.230
367.43	7.329
367.79	8.565
368.15	8.836
368.51	7.267
368.87	8.494
369.23	7.608
369.59	8.545
369.95	7.868
370.31	8.974
370.67	8.261
371.03	8.614
371.39	8.090
371.75	8.382
372.11	7.681
372.47	8.871
372.83	9.222
373.19	7.948
373.55	7.761
373.91	8.321
374.27	7.835
374.63	7.127
374.99	8.898
375.35	7.258
375.71	8.705
376.07	8.985
376.42	8.391
376.78	8.681
377.14	8.480
377.50	8.808
377.86	8.112
378.22	8.217
378.58	7.895
378.94	8.862
379.30	8.461
379.66	8.947
380.02	8.907
380.38	8.500
380.74	9.184
381.09	8.619
381.45	8.789
381.81	9.091
382.17	8.790
382.53	8.868
382.89	9.259
383.25	9.068
383.61	9.789
383.97	8.568
384.32	8.734
384.68	8.798
385.04	8.236
385.40	8.978
385.76	9.705
386.12	9.391
386.48	9.943
386.83	8.980
387.19	10.328
387.55	10.142
387.91	9.976
388.27	9.013
388.62	9.896
388.98	9.214
389.34	10.576
389.70	9.933
390.06	10.456
390.42	10.311
390.77	10.560
391.13	9.828
391.49	10.343
391.85	9.612
392.20	9.274
392.56	9.280
392.92	10.124
393.28	9.408
393.64	10.072
393.99	10.202
394.35	9.305
394.71	10.226
395.07	10.031
395.42	9.703
395.78	10.178
396.14	10.366
396.50	10.088
396.85	10.299
397.21	10.173
397.57	9.671
397.92	10.457
398.28	10.034
398.64	10.096
399.00	9.569
399.35	9.419
399.71	10.127
400.07	10.171
400.42	10.920
400.78	11.218
401.14	9.939
401.49	10.209
401.85	9.679
402.21	9.940
402.57	9.624
402.92	9.773
403.28	9.869
403.63	9.715
403.99	9.745
404.35	10.242
404.70	9.353
405.06	9.959
405.42	10.356
405.77	9.543
406.13	9.424
406.49	10.112
406.84	10.927
407.20	9.220
407.55	9.253
407.91	10.200
408.27	10.147
408.62	10.415
408.98	10.355
409.34	9.594
409.69	10.065
410.05	9.727
410.40	9.725
410.76	9.498
411.11	9.891
411.47	9.968
411.83	10.018
412.18	9.029
412.54	10.461
412.89	10.241
413.25	9.504
413.60	9.512
413.96	10.322
414.31	9.964
414.67	10.076
415.03	9.205
415.38	10.631
415.74	9.775
416.09	9.993
416.45	9.973
416.80	9.253
417.16	10.121
417.51	10.020
417.87	9.698
418.22	9.085
418.58	9.748
418.93	10.258
419.29	10.121
419.64	9.824
420.00	9.573
420.35	10.087
420.71	9.683
421.06	9.308
421.42	8.947
421.77	9.585
422.12	8.591
422.48	8.365
422.83	9.260
423.19	8.950
423.54	9.170
423.90	9.275
424.25	9.715
424.61	8.869
424.96	9.155
425.31	9.468
425.67	9.045
426.02	8.914
426.38	9.524
426.73	9.070
427.09	8.875
427.44	9.143
427.79	9.028
428.15	9.286
428.50	9.245
428.85	9.654
429.21	9.442
429.56	8.917
429.92	9.059
430.27	8.640
430.62	8.756
430.98	9.185
431.33	8.247
431.68	8.953
432.04	9.531
432.39	8.852
432.74	9.216
433.10	9.055
433.45	8.688
433.80	8.814
434.16	9.081
434.51	8.842
434.86	7.982
435.22	8.227
435.57	8.693
435.92	8.777
436.28	9.312
436.63	10.320
436.98	8.472
437.34	9.362
437.69	9.102
438.04	8.938
438.39	9.493
438.75	9.297
439.10	9.218
439.45	9.150
439.81	8.580
440.16	9.260
440.51	9.373
440.86	9.033
441.22	8.676
441.57	8.333
441.92	9.570
442.27	8.773
442.63	9.321
442.98	10.085
443.33	9.511
443.68	9.241
444.03	8.687
444.39	8.763
444.74	8.550
445.09	9.380
445.44	9.076
445.79	9.352
446.15	9.211
446.50	8.454
446.85	8.684
447.20	8.771
447.55	9.324
447.91	9.708
448.26	9.293
448.61	9.271
448.96	9.856
449.31	9.786
449.66	9.736
450.02	8.858
450.37	8.730
450.72	8.347
451.07	9.202
451.42	8.693
451.77	9.689
452.12	9.353
452.47	9.639
452.83	8.916
453.18	9.597
453.53	10.080
453.88	9.333
454.23	9.803
454.58	9.691
454.93	10.299
455.28	8.915
455.63	9.102
455.98	10.000
456.34	9.548
456.69	9.142
457.04	9.350
457.39	8.708
457.74	9.286
458.09	9.776
458.44	9.065
458.79	8.785
459.14	8.860
459.49	9.924
459.84	8.753
460.19	8.721
460.54	9.375
460.89	9.325
461.24	9.897
461.59	10.169
461.94	8.446
462.29	9.733
462.64	8.934
462.99	8.913
463.34	9.933
463.69	9.193
464.04	9.739
464.39	9.565
464.74	9.566
465.09	8.987
465.44	9.418
465.79	8.725
466.14	8.812
466.49	9.177
466.84	8.581
467.19	9.113
467.54	9.438
467.89	9.424
468.24	9.017
468.59	9.341
468.94	9.041
469.29	9.576
469.64	9.973
469.99	9.540
470.34	9.247
470.68	9.626
471.03	9.320
471.38	9.521
471.73	9.727
472.08	9.539
472.43	8.857
472.78	8.756
473.13	9.692
473.48	9.426
473.83	9.634
474.17	8.152
474.52	10.174
474.87	8.523
475.22	9.692
475.57	8.705
475.92	8.656
476.27	8.286
476.61	8.549
476.96	8.906
477.31	8.425
477.66	8.370
478.01	8.468
478.36	8.884
478.70	8.515
479.05	9.159
479.40	8.802
479.75	8.897
480.10	8.250
480.45	8.520
480.79	8.170
481.14	8.366
481.49	8.116
481.84	8.505
482.19	8.269
482.53	8.624
482.88	9.027
483.23	8.131
483.58	8.508
483.92	8.903
484.27	7.451
484.62	7.845
484.97	7.450
485.31	7.842
485.66	6.908
486.01	6.595
486.36	6.155
486.70	6.497
487.05	6.721
487.40	7.099
487.75	7.147
488.09	7.552
488.44	7.505
488.79	7.957
489.13	7.678
489.48	7.341
489.83	8.071
490.17	8.242
490.52	7.839
490.87	7.960
491.22	8.186
491.56	7.062
491.91	8.143
492.26	8.039
492.60	8.065
492.95	7.203
493.30	8.037
493.64	7.746
493.99	7.428
494.34	8.048
494.68	8.104
495.03	8.553
495.37	7.585
495.72	8.431
496.07	7.842
496.41	7.832
496.76	7.872
497.11	7.654
497.45	7.639
497.80	7.821
498.14	7.440
498.49	7.707
498.84	8.054
499.18	7.476
499.53	7.692
499.87	7.642
500.22	7.631
500.56	8.204
500.91	7.067
501.26	7.681
501.60	7.594
501.95	7.654
502.29	7.919
502.64	7.775
502.98	7.106
503.33	8.227
503.67	7.935
504.02	7.905
504.36	8.236
504.71	7.963
505.06	7.855
505.40	7.681
505.75	6.991
506.09	7.143
506.44	7.844
506.78	8.037
507.13	7.320
507.47	8.838
507.82	8.156
508.16	7.700
508.51	8.016
508.85	7.498
509.19	7.908
509.54	7.602
509.88	7.986
510.23	7.249
510.57	8.514
510.92	8.545
511.26	7.708
511.61	8.299
511.95	7.933
512.30	8.112
512.64	7.953
512.98	8.521
513.33	8.565
513.67	8.431
514.02	7.846
514.36	8.575
514.70	8.080
515.05	7.752
515.39	8.581
515.74	8.559
516.08	8.273
516.42	8.213
516.77	8.974
517.11	7.769
517.46	8.521
517.80	8.885
518.14	8.107
518.49	8.460
518.83	8.523
519.17	8.083
519.52	8.263
519.86	8.671
520.20	9.191
520.55	8.438
520.89	8.637
521.23	8.806
521.58	8.463
521.92	8.757
522.26	7.749
522.61	9.346
522.95	8.656
523.29	8.217
523.64	8.720
523.98	8.256
524.32	8.504
524.66	8.358
525.01	8.578
525.35	8.240
525.69	9.052
526.04	9.283
526.38	8.542
526.72	8.466
527.06	8.977
527.41	6.931
527.75	8.746
528.09	8.799
528.43	8.668
528.78	9.342
529.12	8.364
529.46	8.389
529.80	9.530
530.15	9.283
530.49	8.677
530.83	8.734
531.17	8.812
531.51	10.506
531.86	8.581
532.20	8.996
532.54	8.520
532.88	9.243
533.22	9.119
533.57	8.395
533.91	8.910
534.25	8.202
534.59	8.664
534.93	8.269
535.27	8.751
535.62	8.547
535.96	8.349
536.30	8.392
536.64	9.079
536.98	8.626
537.32	7.900
537.66	8.733
538.01	9.085
538.35	9.050
538.69	9.445
539.03	7.667
539.37	8.562
539.71	6.935
540.05	7.712
540.39	8.106
540.73	7.827
541.07	8.631
541.42	8.871
541.76	9.097
542.10	8.862
542.44	7.483
542.78	9.091
543.12	7.869
543.46	9.180
543.80	8.653
544.14	7.702
544.48	8.825
544.82	8.275
545.16	8.068
545.50	8.226
545.84	9.274
546.18	8.620
546.52	7.983
546.86	7.698
547.20	8.429
547.54	8.884
547.88	9.566
548.22	8.032
548.56	8.428
548.90	9.027
549.24	7.542
549.58	8.458
549.92	8.242
550.26	8.026
550.60	8.714
550.94	8.451
551.28	8.047
551.62	8.411
551.96	8.000
552.30	8.805
552.64	8.993
552.98	8.949
553.32	9.103
553.66	8.793
554.00	8.579
554.34	8.696
554.68	9.442
555.02	8.815
555.36	8.699
555.69	8.187
556.03	9.152
556.37	8.390
556.71	8.117
557.05	7.773
557.39	8.887
557.73	8.469
558.07	8.920
558.41	8.249
558.75	9.258
559.08	8.799
559.42	7.710
559.76	8.676
560.10	8.779
560.44	8.176
560.78	7.319
561.12	8.377
561.45	8.475
561.79	8.042
562.13	8.920
562.47	8.470
562.81	8.647
563.15	8.227
563.48	8.687
563.82	7.436
564.16	8.175
564.50	7.487
564.84	8.091
565.17	8.687
565.51	8.626
565.85	8.122
566.19	7.827
566.52	8.550
566.86	7.776
567.20	8.078
567.54	7.820
567.88	7.279
568.21	7.884
568.55	7.331
568.89	7.004
569.23	7.709
569.56	6.559
569.90	6.717
570.24	6.602
570.57	6.902
570.91	6.432
571.25	6.208
571.59	6.686
571.92	6.365
572.26	6.384
572.60	6.667
572.93	6.057
573.27	6.655
573.61	6.505
573.95	6.408
574.28	6.106
574.62	5.928
574.96	5.926
575.29	6.183
575.63	5.767
575.97	6.014
576.30	6.028
576.64	5.762
576.98	6.004
577.31	5.799
577.65	5.950
577.98	5.871
578.32	5.679
578.66	5.933
578.99	5.889
579.33	5.786
579.67	5.692
580.00	5.994
580.34	6.051
580.67	5.980
581.01	6.206
581.35	5.707
581.68	5.598
582.02	5.527
582.35	5.515
582.69	5.742
583.02	5.629
583.36	6.087
583.70	6.169
584.03	6.243
584.37	6.719
584.70	6.243
585.04	6.262
585.37	5.848
585.71	5.898
586.04	6.016
586.38	6.008
586.72	6.324
587.05	6.303
587.39	5.778
587.72	6.339
588.06	6.003
588.39	6.173
588.73	6.219
589.06	6.357
589.40	6.094
589.73	6.899
590.07	6.441
590.40	6.430
590.73	6.284
591.07	7.570
591.40	7.128
591.74	7.576
592.07	7.417
592.41	6.986
592.74	6.667
593.08	6.562
593.41	6.643
593.75	6.059
594.08	6.504
594.41	6.999
594.75	6.211
595.08	6.442
595.42	6.865
595.75	6.624
596.09	6.797
596.42	7.348
596.75	7.303
597.09	7.749
597.42	6.703
597.75	7.245
598.09	7.174
598.42	7.259
598.76	6.526
599.09	6.461
599.42	6.732
599.76	6.735
600.09	6.193
600.42	6.501
600.76	6.143
601.09	6.521
601.42	6.925
601.76	6.679
602.09	6.126
602.42	7.245
602.76	6.933
603.09	6.609
603.42	6.872
603.76	6.822
604.09	6.320
604.42	6.319
604.76	7.296
605.09	6.772
605.42	6.755
605.75	6.788
606.09	6.547
606.42	6.620
606.75	6.927
607.09	7.535
607.42	6.504
607.75	6.414
608.08	6.644
608.42	6.992
608.75	6.943
609.08	7.262
609.41	7.615
609.75	7.051
610.08	7.304
610.41	6.564
610.74	6.906
611.07	7.213
611.41	7.311
611.74	7.039
612.07	7.143
612.40	7.608
612.73	7.211
613.07	7.812
613.40	7.846
613.73	6.765
614.06	7.366
614.39	7.866
614.72	7.947
615.06	7.668
615.39	6.635
615.72	6.902
616.05	7.230
616.38	7.504
616.71	7.482
617.05	7.951
617.38	7.637
617.71	7.568
618.04	7.512
618.37	8.102
618.70	8.276
619.03	8.224
619.36	8.690
619.69	7.817
620.03	8.036
620.36	8.757
620.69	8.493
621.02	7.965
621.35	8.457
621.68	7.710
622.01	8.359
622.34	8.472
622.67	9.278
623.00	7.190
623.33	8.006
623.66	8.220
623.99	7.879
624.32	8.345
624.65	8.263
624.99	7.649
625.32	7.820
625.65	9.016
625.98	8.532
626.31	9.642
626.64	9.143
626.97	9.476
627.30	8.562
627.63	8.860
627.96	8.915
628.29	9.711
628.62	10.522
628.95	10.189
629.28	8.850
629.61	10.449
629.94	8.952
630.26	9.152
630.59	9.724
630.92	10.057
631.25	8.095
631.58	9.309
631.91	10.446
632.24	9.494
632.57	10.388
632.90	8.553
633.23	10.403
633.56	10.395
633.89	10.419
634.22	10.443
634.55	9.822
634.88	10.299
635.20	10.872
635.53	11.687
635.86	9.901
636.19	10.000
636.52	10.496
636.85	11.684
637.18	10.484
637.51	10.165
637.83	8.261
638.16	9.847
638.49	10.453
638.82	11.378
639.15	10.750
639.48	11.970
639.81	10.590
640.13	12.630
640.46	11.007
640.79	12.021
641.12	10.316
641.45	12.291
641.77	10.604
642.10	11.988
642.43	10.511
642.76	12.074
643.09	12.577
643.41	13.050
643.74	11.111
644.07	11.433
644.40	12.730
644.73	14.331
645.05	16.165
645.38	12.322
645.71	11.433
646.04	13.455
646.36	14.858
646.69	14.047
647.02	11.565
647.35	12.887
647.67	12.566
648.00	13.171
648.33	12.376
648.66	11.970
648.98	12.144
649.31	10.762
649.64	11.958
649.96	11.923
650.29	11.058
650.62	10.518
650.94	13.938
651.27	15.203
651.60	15.141
