SpectraSuite Data File
++++++++++++++++++++++++++++++++++++
Date: Wed May 13 16:10:09 PDT 2015
User: schluterlab
Dark Spectrum Present: Yes
Reference Spectrum Present: Yes
Number of Sampled Component Spectra: 1
Spectrometers: USB2E3373
Integration Time (usec): 3000 (USB2E3373)
Spectra Averaged: 3 (USB2E3373)
Boxcar Smoothing: 0 (USB2E3373)
Correct for Electrical Dark: No (USB2E3373)
Strobe/Lamp Enabled: No (USB2E3373)
Correct for Detector Non-linearity: No (USB2E3373)
Correct for Stray Light: No (USB2E3373)
Number of Pixels in Processed Spectrum: 2048
>>>>>Begin Processed Spectral Data<<<<<
178.53	0.000
178.91	-1125.000
179.29	-950.000
179.67	-166.667
180.04	-750.000
180.42	1500.000
180.80	800.000
181.18	-625.000
181.56	457.143
181.94	0.000
182.31	-471.429
182.69	1066.667
183.07	-425.000
183.45	-344.444
183.83	381.818
184.20	-240.000
184.58	1750.000
184.96	4000.000
185.34	-720.000
185.72	-487.500
186.09	-1500.000
186.47	2000.000
186.85	1750.000
187.23	3700.000
187.61	-1300.000
187.98	1075.000
188.36	427.273
188.74	490.909
189.12	-660.000
189.49	530.000
189.87	-2800.000
190.25	-950.000
190.63	314.286
191.00	315.385
191.38	716.667
191.76	-825.000
192.14	1050.000
192.51	575.000
192.89	666.667
193.27	387.500
193.65	-1175.000
194.02	410.000
194.40	840.000
194.78	340.000
195.15	408.333
195.53	510.000
195.91	-1550.000
196.29	250.000
196.66	184.211
197.04	-230.000
197.42	0.000
197.79	430.000
198.17	-4100.000
198.55	500.000
198.92	450.000
199.30	640.000
199.68	0.000
200.05	238.889
200.43	471.429
200.81	3200.000
201.18	900.000
201.56	-1166.667
201.94	533.333
202.31	488.889
202.69	333.333
203.07	440.000
203.44	0.000
203.82	1200.000
204.19	585.714
204.57	307.143
204.95	475.000
205.32	1000.000
205.70	463.636
206.08	328.571
206.45	1800.000
206.83	300.000
207.20	733.333
207.58	500.000
207.96	255.556
208.33	550.000
208.71	-533.333
209.08	557.143
209.46	366.667
209.84	345.455
210.21	-1200.000
210.59	1225.000
210.96	-362.500
211.34	1900.000
211.71	340.000
212.09	616.667
212.46	0.000
212.84	1133.333
213.22	900.000
213.59	-3400.000
213.97	566.667
214.34	585.714
214.72	427.273
215.09	660.000
215.47	-1300.000
215.84	-1800.000
216.22	1033.333
216.59	314.286
216.97	925.000
217.34	290.909
217.72	-500.000
218.09	0.000
218.47	-3700.000
218.84	511.111
219.22	671.429
219.59	1133.333
219.97	-528.571
220.34	740.000
220.72	-1300.000
221.09	292.857
221.47	1225.000
221.84	-650.000
222.22	0.000
222.59	825.000
222.97	-2050.000
223.34	940.000
223.72	346.154
224.09	1100.000
224.46	1750.000
224.84	-3700.000
225.21	-660.000
225.59	-3400.000
225.96	440.000
226.34	275.000
226.71	2300.000
227.08	537.500
227.46	360.000
227.83	-950.000
228.21	-1700.000
228.58	466.667
228.95	-2050.000
229.33	-1600.000
229.70	1600.000
230.08	542.857
230.45	-620.000
230.82	308.333
231.20	550.000
231.57	500.000
231.95	266.667
232.32	159.091
232.69	309.091
233.07	542.857
233.44	246.154
233.81	-1066.667
234.19	247.368
234.56	400.000
234.93	308.333
235.31	254.545
235.68	253.846
236.05	214.286
236.43	136.364
236.80	247.368
237.17	3400.000
237.55	152.381
237.92	182.143
238.29	223.810
238.67	116.129
239.04	162.069
239.41	147.222
239.79	113.043
240.16	135.714
240.53	118.182
240.91	100.000
241.28	104.000
241.65	88.000
242.02	84.058
242.40	98.387
242.77	91.667
243.14	79.570
243.51	82.022
243.89	72.941
244.26	66.667
244.63	73.118
245.00	68.085
245.38	78.218
245.75	58.879
246.12	59.633
246.49	67.153
246.87	60.800
247.24	64.615
247.61	59.286
247.98	60.784
248.36	54.730
248.73	53.503
249.10	57.325
249.47	52.542
249.84	54.545
250.22	55.080
250.59	53.254
250.96	55.556
251.33	55.450
251.70	52.970
252.08	48.571
252.45	44.395
252.82	47.826
253.19	53.617
253.56	50.588
253.94	54.357
254.31	49.609
254.68	53.462
255.05	50.185
255.42	50.000
255.79	48.162
256.16	48.014
256.54	47.350
256.91	48.043
257.28	42.806
257.65	47.855
258.02	43.789
258.39	45.110
258.76	44.147
259.14	44.048
259.51	44.985
259.88	40.683
260.25	43.505
260.62	46.821
260.99	43.789
261.36	45.345
261.73	42.407
262.10	44.477
262.47	47.324
262.85	42.618
263.22	42.165
263.59	46.724
263.96	39.835
264.33	40.209
264.70	39.474
265.07	41.688
265.44	40.152
265.81	38.443
266.18	40.452
266.55	40.488
266.92	41.278
267.29	40.046
267.66	38.761
268.03	42.045
268.40	39.486
268.77	40.573
269.14	39.414
269.51	39.052
269.88	42.424
270.25	41.309
270.62	40.899
270.99	42.151
271.36	40.558
271.73	40.421
272.10	37.609
272.47	41.935
272.84	39.610
273.21	40.671
273.58	39.738
273.95	38.574
274.32	38.430
274.69	39.829
275.06	36.811
275.43	38.511
275.80	38.878
276.17	38.900
276.54	40.956
276.91	40.909
277.28	38.281
277.65	36.944
278.02	39.959
278.39	41.602
278.76	36.909
279.13	35.472
279.50	38.547
279.87	37.649
280.23	37.325
280.60	38.104
280.97	37.338
281.34	38.761
281.71	36.727
282.08	38.004
282.45	35.818
282.82	36.767
283.19	37.433
283.56	36.316
283.92	36.210
284.29	35.802
284.66	36.116
285.03	35.986
285.40	36.268
285.77	35.185
286.14	35.924
286.51	36.333
286.87	33.675
287.24	36.645
287.61	33.387
287.98	35.552
288.35	34.231
288.72	33.489
289.08	33.803
289.45	34.102
289.82	35.610
290.19	31.240
290.56	31.240
290.93	30.363
291.29	34.356
291.66	32.301
292.03	34.593
292.40	33.627
292.77	31.509
293.13	31.493
293.50	30.466
293.87	31.556
294.24	32.000
294.60	30.277
294.97	29.651
295.34	31.735
295.71	31.392
296.08	29.487
296.44	30.124
296.81	29.855
297.18	30.759
297.55	26.517
297.91	29.288
298.28	29.719
298.65	28.068
299.02	30.171
299.38	28.287
299.75	28.167
300.12	28.352
300.48	28.500
300.85	28.483
301.22	27.261
301.59	27.904
301.95	26.952
302.32	28.626
302.69	27.718
303.05	27.030
303.42	27.407
303.79	27.293
304.15	27.622
304.52	25.724
304.89	27.294
305.25	27.958
305.62	27.973
305.99	28.217
306.35	27.517
306.72	27.130
307.09	28.635
307.45	28.716
307.82	26.562
308.19	27.042
308.55	28.587
308.92	27.390
309.29	26.822
309.65	27.996
310.02	26.850
310.38	27.204
310.75	27.983
311.12	27.738
311.48	27.377
311.85	27.673
312.22	28.616
312.58	26.091
312.95	28.617
313.31	26.893
313.68	28.898
314.05	30.178
314.41	27.940
314.78	28.298
315.14	27.507
315.51	29.248
315.87	29.505
316.24	29.394
316.61	30.214
316.97	28.669
317.34	28.963
317.70	30.019
318.07	29.933
318.43	29.843
318.80	31.490
319.16	31.733
319.53	29.644
319.89	30.571
320.26	31.600
320.62	30.159
320.99	30.101
321.35	31.010
321.72	29.877
322.08	31.293
322.45	33.532
322.81	32.849
323.18	34.104
323.54	32.282
323.91	32.453
324.27	33.652
324.64	32.339
325.00	31.470
325.37	33.940
325.73	33.393
326.10	33.892
326.46	34.409
326.83	35.030
327.19	34.159
327.56	35.540
327.92	34.121
328.29	35.404
328.65	35.543
329.01	34.928
329.38	34.783
329.74	34.811
330.11	35.156
330.47	34.986
330.84	36.029
331.20	34.335
331.56	35.963
331.93	35.648
332.29	34.871
332.66	37.168
333.02	35.558
333.38	36.134
333.75	35.651
334.11	34.964
334.48	36.114
334.84	35.294
335.20	35.545
335.57	35.358
335.93	32.679
336.29	35.531
336.66	34.806
337.02	34.299
337.38	34.722
337.75	34.046
338.11	35.363
338.47	35.820
338.84	36.205
339.20	34.037
339.56	37.226
339.93	34.636
340.29	33.152
340.65	34.046
341.02	35.253
341.38	36.566
341.74	35.526
342.11	36.245
342.47	35.154
342.83	33.562
343.20	35.844
343.56	34.120
343.92	34.737
344.28	34.184
344.65	35.512
345.01	34.007
345.37	32.933
345.73	34.433
346.10	35.124
346.46	34.237
346.82	33.937
347.19	35.422
347.55	33.908
347.91	34.466
348.27	34.675
348.63	34.114
349.00	33.657
349.36	34.483
349.72	34.804
350.08	34.765
350.45	35.476
350.81	34.444
351.17	34.927
351.53	35.627
351.89	34.323
352.26	36.622
352.62	35.365
352.98	34.360
353.34	35.168
353.70	33.961
354.07	35.484
354.43	33.810
354.79	34.191
355.15	33.998
355.51	35.252
355.87	35.102
356.24	34.691
356.60	33.921
356.96	34.916
357.32	35.568
357.68	34.961
358.04	34.679
358.40	36.817
358.77	34.977
359.13	34.491
359.49	35.373
359.85	34.683
360.21	34.848
360.57	35.720
360.93	35.538
361.29	34.392
361.66	35.139
362.02	36.119
362.38	35.894
362.74	34.301
363.10	34.345
363.46	34.996
363.82	35.072
364.18	35.536
364.54	35.067
364.90	35.694
365.26	35.074
365.62	35.866
365.98	34.843
366.35	34.885
366.71	34.707
367.07	34.377
367.43	35.631
367.79	36.188
368.15	36.782
368.51	35.974
368.87	36.046
369.23	37.015
369.59	36.640
369.95	35.735
370.31	36.325
370.67	35.870
371.03	38.052
371.39	37.682
371.75	36.250
372.11	36.486
372.47	38.050
372.83	37.896
373.19	36.777
373.55	36.881
373.91	37.850
374.27	37.045
374.63	36.727
374.99	38.347
375.35	37.823
375.71	38.177
376.07	37.380
376.42	37.827
376.78	38.038
377.14	37.381
377.50	38.675
377.86	38.098
378.22	37.800
378.58	38.910
378.94	38.843
379.30	39.567
379.66	39.277
380.02	39.558
380.38	38.373
380.74	39.796
381.09	39.181
381.45	40.504
381.81	40.172
382.17	40.000
382.53	40.629
382.89	41.235
383.25	39.775
383.61	41.512
383.97	41.088
384.32	39.800
384.68	41.140
385.04	42.532
385.40	40.495
385.76	41.278
386.12	40.026
386.48	42.857
386.83	42.976
387.19	42.610
387.55	41.991
387.91	41.898
388.27	41.324
388.62	42.963
388.98	42.076
389.34	43.554
389.70	42.244
390.06	43.599
390.42	43.645
390.77	42.939
391.13	43.906
391.49	42.893
391.85	43.285
392.20	43.659
392.56	43.308
392.92	44.379
393.28	42.367
393.64	43.165
393.99	43.555
394.35	43.672
394.71	44.166
395.07	42.928
395.42	44.808
395.78	44.529
396.14	44.382
396.50	44.987
396.85	45.073
397.21	43.403
397.57	44.265
397.92	44.772
398.28	43.330
398.64	44.026
399.00	44.096
399.35	44.162
399.71	44.907
400.07	44.944
400.42	46.503
400.78	45.597
401.14	45.000
401.49	45.672
401.85	44.162
402.21	44.910
402.57	45.466
402.92	45.965
403.28	45.472
403.63	45.421
403.99	45.541
404.35	46.485
404.70	45.324
405.06	44.846
405.42	45.290
405.77	45.371
406.13	45.655
406.49	44.352
406.84	45.186
407.20	44.976
407.55	45.884
407.91	46.800
408.27	47.415
408.62	45.816
408.98	46.324
409.34	45.387
409.69	46.323
410.05	45.477
410.40	46.239
410.76	45.639
411.11	45.838
411.47	45.751
411.83	45.632
412.18	45.516
412.54	46.451
412.89	45.181
413.25	46.517
413.60	45.522
413.96	43.959
414.31	45.626
414.67	45.817
415.03	44.702
415.38	46.198
415.74	47.588
416.09	46.310
416.45	46.452
416.80	45.671
417.16	46.314
417.51	46.450
417.87	45.793
418.22	46.183
418.58	46.482
418.93	46.007
419.29	46.467
419.64	46.096
420.00	46.280
420.35	46.957
420.71	46.145
421.06	45.764
421.42	46.433
421.77	46.637
422.12	45.255
422.48	45.062
422.83	46.418
423.19	46.022
423.54	46.431
423.90	46.029
424.25	46.790
424.61	46.190
424.96	45.131
425.31	45.847
425.67	45.562
426.02	46.057
426.38	47.680
426.73	45.758
427.09	46.991
427.44	46.348
427.79	46.578
428.15	46.548
428.50	45.933
428.85	46.841
429.21	46.052
429.56	45.464
429.92	45.747
430.27	45.730
430.62	45.622
430.98	45.252
431.33	45.206
431.68	45.602
432.04	44.941
432.39	46.602
432.74	46.320
433.10	46.463
433.45	47.930
433.80	47.395
434.16	46.421
434.51	46.526
434.86	47.377
435.22	46.804
435.57	45.897
435.92	47.221
436.28	47.568
436.63	46.247
436.98	46.136
437.34	47.823
437.69	47.666
438.04	46.037
438.39	47.881
438.75	47.763
439.10	47.039
439.45	47.344
439.81	46.828
440.16	46.584
440.51	46.749
440.86	48.292
441.22	47.219
441.57	47.665
441.92	47.595
442.27	47.201
442.63	46.340
442.98	47.042
443.33	46.141
443.68	46.928
444.03	46.608
444.39	46.397
444.74	47.294
445.09	47.062
445.44	46.528
445.79	45.819
446.15	45.315
446.50	46.150
446.85	46.403
447.20	46.915
447.55	48.074
447.91	46.553
448.26	47.078
448.61	46.637
448.96	46.678
449.31	46.738
449.66	46.820
450.02	46.295
450.37	45.805
450.72	46.757
451.07	45.887
451.42	45.836
451.77	47.211
452.12	46.305
452.47	47.077
452.83	46.503
453.18	46.271
453.53	46.939
453.88	46.722
454.23	45.906
454.58	45.790
454.93	48.697
455.28	46.758
455.63	47.512
455.98	48.393
456.34	46.545
456.69	48.528
457.04	46.997
457.39	46.698
457.74	47.591
458.09	47.039
458.44	46.351
458.79	45.174
459.14	47.122
459.49	47.169
459.84	46.759
460.19	46.671
460.54	45.197
460.89	47.230
461.24	47.298
461.59	47.066
461.94	45.129
462.29	46.825
462.64	46.969
462.99	45.153
463.34	47.867
463.69	46.842
464.04	46.667
464.39	46.725
464.74	46.583
465.09	46.019
465.44	46.260
465.79	45.861
466.14	45.375
466.49	45.606
466.84	45.184
467.19	46.470
467.54	46.437
467.89	45.918
468.24	45.899
468.59	47.192
468.94	46.243
469.29	46.979
469.64	46.854
469.99	48.173
470.34	47.424
470.68	48.060
471.03	46.667
471.38	47.116
471.73	46.835
472.08	48.355
472.43	46.734
472.78	47.070
473.13	46.406
473.48	47.316
473.83	46.829
474.17	45.364
474.52	46.588
474.87	46.818
475.22	45.792
475.57	45.298
475.92	46.150
476.27	45.490
476.61	45.394
476.96	45.629
477.31	43.851
477.66	46.444
478.01	44.381
478.36	45.373
478.70	45.898
479.05	45.261
479.40	46.366
479.75	45.094
480.10	44.384
480.45	44.693
480.79	44.912
481.14	45.254
481.49	44.993
481.84	45.405
482.19	45.343
482.53	44.633
482.88	45.556
483.23	45.374
483.58	44.950
483.92	45.033
484.27	43.181
484.62	44.353
484.97	45.014
485.31	45.137
485.66	43.830
486.01	43.147
486.36	41.170
486.70	39.660
487.05	41.385
487.40	42.314
487.75	42.278
488.09	43.100
488.44	43.362
488.79	43.942
489.13	44.118
489.48	44.494
489.83	44.195
490.17	44.717
490.52	43.623
490.87	44.188
491.22	44.475
491.56	43.918
491.91	44.020
492.26	42.995
492.60	44.424
492.95	44.107
493.30	44.299
493.64	44.517
493.99	43.965
494.34	43.340
494.68	44.505
495.03	43.938
495.37	43.834
495.72	44.981
496.07	44.594
496.41	43.363
496.76	44.371
497.11	43.539
497.45	43.549
497.80	43.666
498.14	44.300
498.49	43.512
498.84	45.062
499.18	44.190
499.53	44.349
499.87	43.989
500.22	43.759
500.56	45.243
500.91	44.087
501.26	44.239
501.60	44.518
501.95	42.805
502.29	43.533
502.64	43.855
502.98	43.852
503.33	42.276
503.67	44.037
504.02	43.873
504.36	43.098
504.71	42.941
505.06	44.771
505.40	43.899
505.75	43.732
506.09	43.975
506.44	44.450
506.78	43.790
507.13	44.725
507.47	44.394
507.82	45.390
508.16	44.428
508.51	44.647
508.85	43.595
509.19	44.235
509.54	43.827
509.88	43.895
510.23	43.496
510.57	45.562
510.92	44.692
511.26	44.039
511.61	44.502
511.95	43.841
512.30	43.796
512.64	44.546
512.98	44.319
513.33	44.325
513.67	43.650
514.02	45.130
514.36	45.330
514.70	44.162
515.05	44.116
515.39	44.924
515.74	45.158
516.08	44.606
516.42	45.560
516.77	44.816
517.11	44.395
517.46	45.147
517.80	45.587
518.14	44.354
518.49	44.574
518.83	44.091
519.17	45.497
519.52	44.595
519.86	45.009
520.20	45.838
520.55	45.123
520.89	45.864
521.23	45.597
521.58	44.958
521.92	45.070
522.26	43.502
522.61	45.607
522.95	44.751
523.29	44.614
523.64	45.549
523.98	45.287
524.32	45.115
524.66	44.979
525.01	44.485
525.35	44.238
525.69	44.581
526.04	44.735
526.38	45.027
526.72	43.804
527.06	46.139
527.41	43.502
527.75	45.723
528.09	45.279
528.43	44.869
528.78	43.762
529.12	44.242
529.46	45.377
529.80	45.050
530.15	44.798
530.49	44.308
530.83	44.241
531.17	46.018
531.51	46.174
531.86	44.387
532.20	44.720
532.54	44.523
532.88	46.341
533.22	43.285
533.57	43.889
533.91	43.769
534.25	45.079
534.59	43.868
534.93	43.843
535.27	43.512
535.62	43.895
535.96	44.884
536.30	43.547
536.64	45.074
536.98	43.862
537.32	44.240
537.66	44.267
538.01	45.820
538.35	45.120
538.69	45.501
539.03	44.444
539.37	43.706
539.71	42.255
540.05	45.163
540.39	44.518
540.73	43.014
541.07	44.322
541.42	44.879
541.76	44.258
542.10	43.855
542.44	44.305
542.78	44.664
543.12	42.802
543.46	43.213
543.80	45.218
544.14	43.261
544.48	43.683
544.82	42.976
545.16	43.917
545.50	43.380
545.84	42.809
546.18	43.636
546.52	43.772
546.86	44.192
547.20	45.246
547.54	43.754
547.88	44.069
548.22	42.653
548.56	43.333
548.90	43.214
549.24	43.434
549.58	43.929
549.92	43.475
550.26	43.537
550.60	43.292
550.94	44.085
551.28	43.307
551.62	44.357
551.96	43.088
552.30	43.686
552.64	43.408
552.98	43.525
553.32	44.572
553.66	43.354
554.00	44.063
554.34	43.892
554.68	44.278
555.02	43.653
555.36	43.911
555.69	42.558
556.03	42.194
556.37	43.179
556.71	42.633
557.05	43.277
557.39	42.897
557.73	42.978
558.07	44.743
558.41	43.198
558.75	44.306
559.08	44.146
559.42	43.613
559.76	42.868
560.10	42.612
560.44	43.187
560.78	41.450
561.12	42.480
561.45	43.025
561.79	42.320
562.13	42.388
562.47	43.169
562.81	43.166
563.15	42.742
563.48	43.568
563.82	42.661
564.16	44.212
564.50	43.034
564.84	42.351
565.17	42.535
565.51	42.812
565.85	42.069
566.19	42.267
566.52	42.812
566.86	40.928
567.20	43.160
567.54	42.808
567.88	42.042
568.21	42.381
568.55	41.456
568.89	41.148
569.23	41.310
569.56	39.757
569.90	39.283
570.24	39.505
570.57	39.442
570.91	37.686
571.25	38.573
571.59	38.233
571.92	37.932
572.26	38.793
572.60	39.129
572.93	38.441
573.27	38.480
573.61	38.526
573.95	38.630
574.28	38.141
574.62	38.144
574.96	37.754
575.29	37.633
575.63	38.618
575.97	38.375
576.30	38.184
576.64	38.337
576.98	38.065
577.31	38.401
577.65	37.676
577.98	38.118
578.32	37.331
578.66	37.044
578.99	37.754
579.33	36.771
579.67	36.804
580.00	37.761
580.34	38.348
580.67	37.532
581.01	37.733
581.35	38.188
581.68	37.456
582.02	37.205
582.35	37.034
582.69	37.085
583.02	37.079
583.36	37.537
583.70	38.611
584.03	38.401
584.37	38.920
584.70	38.297
585.04	37.549
585.37	37.232
585.71	37.735
586.04	37.110
586.38	37.879
586.72	38.249
587.05	37.164
587.39	37.757
587.72	37.593
588.06	38.100
588.39	37.997
588.73	38.076
589.06	38.174
589.40	38.384
589.73	39.106
590.07	38.292
590.40	38.875
590.73	39.266
591.07	39.113
591.40	39.350
591.74	40.390
592.07	39.311
592.41	38.942
592.74	38.689
593.08	38.807
593.41	38.152
593.75	37.477
594.08	37.613
594.41	38.600
594.75	38.669
595.08	37.795
595.42	38.634
595.75	38.177
596.09	38.979
596.42	38.625
596.75	38.455
597.09	39.264
597.42	38.617
597.75	39.327
598.09	40.043
598.42	38.660
598.76	38.306
599.09	38.540
599.42	37.846
599.76	37.921
600.09	38.106
600.42	37.290
600.76	37.321
601.09	37.486
601.42	37.938
601.76	38.178
602.09	38.419
602.42	38.854
602.76	38.412
603.09	38.867
603.42	39.438
603.76	37.957
604.09	38.736
604.42	37.709
604.76	38.043
605.09	38.139
605.42	38.050
605.75	39.156
606.09	39.284
606.42	38.333
606.75	37.951
607.09	38.301
607.42	38.639
607.75	38.228
608.08	37.950
608.42	38.906
608.75	38.188
609.08	37.789
609.41	38.458
609.75	38.971
610.08	39.020
610.41	37.384
610.74	38.458
611.07	39.279
611.41	38.763
611.74	39.517
612.07	39.286
612.40	40.031
612.73	39.842
613.07	39.817
613.40	40.021
613.73	38.437
614.06	39.409
614.39	38.647
614.72	39.526
615.06	38.971
615.39	38.588
615.72	38.548
616.05	38.118
616.38	39.689
616.71	40.321
617.05	40.989
617.38	39.808
617.71	40.120
618.04	40.325
618.37	40.035
618.70	40.075
619.03	40.592
619.36	40.801
619.69	40.352
620.03	40.453
620.36	40.040
620.69	41.027
621.02	41.667
621.35	40.564
621.68	40.576
622.01	41.796
622.34	40.696
622.67	40.989
623.00	40.279
623.33	39.528
623.66	40.315
623.99	42.342
624.32	41.583
624.65	41.314
624.99	40.085
625.32	40.478
625.65	40.721
625.98	42.583
626.31	41.835
626.64	41.796
626.97	42.643
627.30	41.563
627.63	42.166
627.96	41.884
628.29	41.907
628.62	42.177
628.95	43.962
629.28	43.522
629.61	43.905
629.94	44.952
630.26	41.849
630.59	42.803
630.92	42.337
631.25	41.066
