SpectraSuite Data File
++++++++++++++++++++++++++++++++++++
Date: Wed May 13 16:44:53 PDT 2015
User: schluterlab
Dark Spectrum Present: Yes
Reference Spectrum Present: Yes
Number of Sampled Component Spectra: 1
Spectrometers: USB2E3373
Integration Time (usec): 3000 (USB2E3373)
Spectra Averaged: 3 (USB2E3373)
Boxcar Smoothing: 0 (USB2E3373)
Correct for Electrical Dark: No (USB2E3373)
Strobe/Lamp Enabled: No (USB2E3373)
Correct for Detector Non-linearity: No (USB2E3373)
Correct for Stray Light: No (USB2E3373)
Number of Pixels in Processed Spectrum: 2048
>>>>>Begin Processed Spectral Data<<<<<
178.53	0.000
178.91	-1200.000
179.29	-1500.000
179.67	-222.222
180.04	-1525.000
180.42	2350.000
180.80	1080.000
181.18	-1000.000
181.56	685.714
181.94	0.000
182.31	-571.429
182.69	1633.333
183.07	-587.500
183.45	-533.333
183.83	545.455
184.20	-350.000
184.58	2450.000
184.96	5000.000
185.34	-720.000
185.72	-625.000
186.09	-2200.000
186.47	2850.000
186.85	2400.000
187.23	4700.000
187.61	-1800.000
187.98	1325.000
188.36	536.364
188.74	518.182
189.12	-840.000
189.49	580.000
189.87	-3600.000
190.25	-1175.000
190.63	421.429
191.00	438.462
191.38	900.000
191.76	-1150.000
192.14	1375.000
192.51	700.000
192.89	883.333
193.27	537.500
193.65	-1375.000
194.02	460.000
194.40	1000.000
194.78	600.000
195.15	516.667
195.53	620.000
195.91	-1950.000
196.29	343.750
196.66	305.263
197.04	-430.000
197.42	0.000
197.79	540.000
198.17	-5400.000
198.55	785.714
198.92	850.000
199.30	920.000
199.68	0.000
200.05	383.333
200.43	685.714
200.81	4800.000
201.18	1700.000
201.56	-1600.000
201.94	555.556
202.31	555.556
202.69	425.000
203.07	520.000
203.44	0.000
203.82	1325.000
204.19	757.143
204.57	421.429
204.95	650.000
205.32	1866.667
205.70	509.091
206.08	364.286
206.45	2500.000
206.83	368.750
207.20	833.333
207.58	720.000
207.96	272.222
208.33	637.500
208.71	-833.333
209.08	842.857
209.46	644.444
209.84	563.636
210.21	-1566.667
210.59	1350.000
210.96	-350.000
211.34	2500.000
211.71	570.000
212.09	750.000
212.46	0.000
212.84	1566.667
213.22	1500.000
213.59	-3800.000
213.97	1000.000
214.34	714.286
214.72	572.727
215.09	940.000
215.47	-2550.000
215.84	-2550.000
216.22	1566.667
216.59	321.429
216.97	1350.000
217.34	481.818
217.72	-700.000
218.09	0.000
218.47	-5400.000
218.84	700.000
219.22	742.857
219.59	1933.333
219.97	-657.143
220.34	940.000
220.72	-1733.333
221.09	421.429
221.47	1425.000
221.84	-666.667
222.22	0.000
222.59	1350.000
222.97	-2550.000
223.34	1240.000
223.72	469.231
224.09	1020.000
224.46	2150.000
224.84	-5000.000
225.21	-1000.000
225.59	-5000.000
225.96	600.000
226.34	310.000
226.71	2500.000
227.08	725.000
227.46	510.000
227.83	-1075.000
228.21	-1600.000
228.58	600.000
228.95	-2700.000
229.33	-2100.000
229.70	1566.667
230.08	685.714
230.45	-640.000
230.82	341.667
231.20	716.667
231.57	671.429
231.95	508.333
232.32	259.091
232.69	354.545
233.07	742.857
233.44	353.846
233.81	-1333.333
234.19	242.105
234.56	400.000
234.93	383.333
235.31	409.091
235.68	276.923
236.05	300.000
236.43	169.697
236.80	305.263
237.17	3500.000
237.55	233.333
237.92	150.000
238.29	209.524
238.67	164.516
239.04	193.103
239.41	133.333
239.79	106.522
240.16	130.952
240.53	113.636
240.91	98.039
241.28	102.000
241.65	92.000
242.02	86.957
242.40	75.806
242.77	98.333
243.14	63.441
243.51	66.292
243.89	64.706
244.26	48.889
244.63	51.613
245.00	47.872
245.38	48.515
245.75	42.991
246.12	34.862
246.49	47.445
246.87	58.400
247.24	44.615
247.61	32.143
247.98	41.176
248.36	36.486
248.73	35.032
249.10	39.490
249.47	34.463
249.84	36.898
250.22	29.947
250.59	33.136
250.96	25.758
251.33	36.019
251.70	30.693
252.08	27.619
252.45	27.803
252.82	25.217
253.19	29.787
253.56	27.059
253.94	30.705
254.31	25.781
254.68	26.923
255.05	24.354
255.42	22.358
255.79	23.897
256.16	31.047
256.54	21.555
256.91	22.776
257.28	17.986
257.65	22.772
258.02	21.118
258.39	22.713
258.76	22.742
259.14	21.726
259.51	23.404
259.88	18.944
260.25	22.356
260.62	19.653
260.99	22.671
261.36	20.721
261.73	20.057
262.10	19.767
262.47	21.127
262.85	19.220
263.22	20.798
263.59	21.083
263.96	19.231
264.33	19.582
264.70	22.368
265.07	21.739
265.44	17.677
265.81	16.545
266.18	19.598
266.55	16.341
266.92	17.690
267.29	18.519
267.66	17.431
268.03	17.955
268.40	17.056
268.77	16.468
269.14	17.117
269.51	19.187
269.88	17.483
270.25	16.930
270.62	17.753
270.99	18.280
271.36	17.811
271.73	15.654
272.10	17.609
272.47	19.140
272.84	16.017
273.21	17.820
273.58	15.066
273.95	13.627
274.32	17.149
274.69	17.345
275.06	17.126
275.43	17.660
275.80	15.832
276.17	15.682
276.54	17.048
276.91	17.391
277.28	14.062
277.65	16.054
278.02	14.700
278.39	16.602
278.76	15.455
279.13	15.094
279.50	16.946
279.87	16.733
280.23	13.972
280.60	16.054
280.97	15.342
281.34	16.460
281.71	16.182
282.08	15.355
282.45	14.364
282.82	14.742
283.19	12.478
283.56	14.561
283.92	14.044
284.29	12.522
284.66	14.156
285.03	13.743
285.40	13.028
285.77	13.131
286.14	13.472
286.51	14.167
286.87	15.385
287.24	15.635
287.61	13.965
287.98	13.474
288.35	15.214
288.72	13.863
289.08	14.554
289.45	14.662
289.82	14.146
290.19	11.774
290.56	11.792
290.93	11.329
291.29	13.037
291.66	11.652
292.03	15.407
292.40	14.978
292.77	11.982
293.13	14.627
293.50	12.974
293.87	11.556
294.24	10.963
294.60	10.626
294.97	12.500
295.34	13.117
295.71	12.784
296.08	11.538
296.44	11.417
296.81	11.757
297.18	12.466
297.55	10.422
297.91	10.158
298.28	13.119
298.65	12.794
299.02	11.858
299.38	10.624
299.75	10.782
300.12	10.983
300.48	10.875
300.85	10.604
301.22	10.573
301.59	11.237
301.95	11.335
302.32	10.911
302.69	10.633
303.05	11.515
303.42	10.617
303.79	12.684
304.15	9.091
304.52	11.240
304.89	10.453
305.25	10.325
305.62	11.665
305.99	12.043
306.35	11.074
306.72	10.426
307.09	10.433
307.45	11.824
307.82	10.826
308.19	10.927
308.55	11.111
308.92	10.956
309.29	11.404
309.65	11.029
310.02	11.522
310.38	10.323
310.75	11.827
311.12	12.078
311.48	11.494
311.85	11.950
312.22	10.614
312.58	11.123
312.95	11.510
313.31	10.971
313.68	12.162
314.05	13.807
314.41	12.563
314.78	11.480
315.14	11.122
315.51	12.358
315.87	13.069
316.24	12.512
316.61	12.476
316.97	11.937
317.34	10.568
317.70	13.193
318.07	13.090
318.43	13.112
318.80	13.215
319.16	14.030
319.53	12.852
319.89	14.095
320.26	15.800
320.62	14.980
320.99	15.253
321.35	14.242
321.72	16.016
322.08	16.979
322.45	16.418
322.81	16.085
323.18	16.378
323.54	17.347
323.91	15.943
324.27	17.017
324.64	16.869
325.00	17.133
325.37	18.744
325.73	18.223
326.10	18.447
326.46	18.100
326.83	19.154
327.19	18.617
327.56	18.554
327.92	19.073
328.29	21.029
328.65	19.521
329.01	20.217
329.38	21.647
329.74	21.699
330.11	21.678
330.47	21.671
330.84	23.713
331.20	20.765
331.56	22.018
331.93	22.222
332.29	23.070
332.66	22.301
333.02	23.035
333.38	23.848
333.75	23.708
334.11	24.199
334.48	22.272
334.84	23.437
335.20	23.182
335.57	22.031
335.93	23.125
336.29	24.084
336.66	23.354
337.02	23.710
337.38	23.611
337.75	22.816
338.11	23.098
338.47	23.112
338.84	24.840
339.20	22.569
339.56	24.179
339.93	23.000
340.29	23.370
340.65	22.816
341.02	23.909
341.38	23.665
341.74	23.070
342.11	23.406
342.47	22.115
342.83	23.716
343.20	23.983
343.56	22.241
343.92	22.456
344.28	22.449
344.65	23.990
345.01	22.306
345.37	22.384
345.73	23.689
346.10	23.615
346.46	21.949
346.82	22.982
347.19	22.891
347.55	22.332
347.91	23.058
348.27	23.254
348.63	22.659
349.00	22.977
349.36	22.660
349.72	21.572
350.08	21.718
350.45	22.783
350.81	21.933
351.17	23.420
351.53	22.932
351.89	22.195
352.26	23.599
352.62	22.855
352.98	23.177
353.34	23.336
353.70	21.768
354.07	23.710
354.43	22.222
354.79	22.928
355.15	22.825
355.51	25.020
355.87	22.694
356.24	23.046
356.60	21.171
356.96	22.928
357.32	22.322
357.68	23.386
358.04	23.515
358.40	23.120
358.77	22.926
359.13	22.099
359.49	22.824
359.85	21.905
360.21	22.488
360.57	23.268
360.93	24.000
361.29	21.391
361.66	21.594
362.02	22.687
362.38	23.726
362.74	22.917
363.10	22.058
363.46	22.671
363.82	21.920
364.18	22.981
364.54	23.923
364.90	22.663
365.26	21.912
365.62	23.009
365.98	22.060
366.35	21.777
366.71	22.560
367.07	22.724
367.43	22.496
367.79	23.126
368.15	23.348
368.51	22.892
368.87	23.697
369.23	22.751
369.59	23.751
369.95	23.235
370.31	22.792
370.67	23.406
371.03	24.120
371.39	22.813
371.75	23.456
372.11	22.760
372.47	23.754
372.83	24.135
373.19	22.616
373.55	23.503
373.91	24.890
374.27	23.780
374.63	23.200
374.99	23.799
375.35	22.959
375.71	22.892
376.07	24.623
376.42	24.553
376.78	23.923
377.14	23.541
377.50	23.510
377.86	23.205
378.22	23.578
378.58	23.559
378.94	23.947
379.30	23.282
379.66	24.683
380.02	24.509
380.38	23.983
380.74	24.310
381.09	25.000
381.45	24.831
381.81	24.079
382.17	23.885
382.53	24.151
382.89	24.938
383.25	24.703
383.61	25.155
383.97	24.515
384.32	24.766
384.68	24.040
385.04	24.032
385.40	24.830
385.76	23.956
386.12	24.352
386.48	24.481
386.83	25.465
387.19	26.098
387.55	24.861
387.91	25.272
388.27	25.077
388.62	25.323
388.98	24.140
389.34	24.781
389.70	25.261
390.06	25.032
390.42	24.449
390.77	24.873
391.13	25.271
391.49	24.746
391.85	25.525
392.20	23.912
392.56	24.432
392.92	24.544
393.28	24.260
393.64	25.120
393.99	24.985
394.35	24.876
394.71	24.529
395.07	24.361
395.42	24.722
395.78	24.173
396.14	24.953
396.50	24.812
396.85	25.556
397.21	24.168
397.57	25.232
397.92	24.700
398.28	23.430
398.64	24.313
399.00	25.126
399.35	25.155
399.71	24.190
400.07	23.891
400.42	24.724
400.78	25.271
401.14	24.451
401.49	25.612
401.85	24.501
402.21	23.892
402.57	23.566
402.92	24.527
403.28	24.547
403.63	24.196
403.99	24.140
404.35	24.727
404.70	24.041
405.06	23.413
405.42	24.142
405.77	23.543
406.13	23.533
406.49	23.714
406.84	24.690
407.20	23.582
407.55	24.505
407.91	24.000
408.27	23.867
408.62	23.600
408.98	23.713
409.34	23.186
409.69	24.839
410.05	23.792
410.40	23.303
410.76	23.775
411.11	24.246
411.47	23.834
411.83	24.374
412.18	23.500
412.54	24.408
412.89	24.337
413.25	23.554
413.60	23.471
413.96	23.740
414.31	23.937
414.67	24.018
415.03	23.709
415.38	24.420
415.74	23.023
416.09	23.057
416.45	23.427
416.80	24.190
417.16	24.330
417.51	23.955
417.87	24.085
418.22	23.533
418.58	24.145
418.93	23.710
419.29	24.825
419.64	23.741
420.00	24.390
420.35	23.594
420.71	24.925
421.06	23.031
421.42	24.678
421.77	23.318
422.12	22.684
422.48	23.152
422.83	24.578
423.19	23.315
423.54	23.041
423.90	23.652
424.25	23.283
424.61	23.988
424.96	23.149
425.31	22.924
425.67	22.921
426.02	23.486
426.38	24.542
426.73	23.523
427.09	24.073
427.44	23.864
427.79	24.152
428.15	23.631
428.50	23.640
428.85	24.195
429.21	23.854
429.56	23.536
429.92	23.050
430.27	22.642
430.62	22.376
430.98	22.782
431.33	22.577
431.68	24.136
432.04	23.855
432.39	24.557
432.74	24.117
433.10	24.618
433.45	24.431
433.80	23.780
434.16	24.412
434.51	23.421
434.86	24.686
435.22	24.680
435.57	25.106
435.92	23.932
436.28	24.614
436.63	24.338
436.98	24.156
437.34	25.104
437.69	24.387
438.04	24.058
438.39	24.179
438.75	25.160
439.10	24.972
439.45	24.144
439.81	24.290
440.16	24.337
440.51	25.542
440.86	25.304
441.22	25.306
441.57	25.053
441.92	25.691
442.27	25.188
442.63	24.961
442.98	26.592
443.33	25.435
443.68	25.194
444.03	25.671
444.39	24.732
444.74	25.703
445.09	26.199
445.44	25.369
445.79	25.334
446.15	26.469
446.50	25.794
446.85	26.002
447.20	25.548
447.55	26.298
447.91	26.089
448.26	27.156
448.61	26.908
448.96	26.966
449.31	26.828
449.66	25.774
450.02	26.240
450.37	26.361
450.72	27.580
451.07	26.935
451.42	25.897
451.77	27.187
452.12	27.194
452.47	28.234
452.83	26.340
453.18	27.323
453.53	28.077
453.88	26.639
454.23	26.599
454.58	27.498
454.93	28.862
455.28	27.805
455.63	27.549
455.98	28.512
456.34	28.078
456.69	27.176
457.04	27.492
457.39	27.937
457.74	26.872
458.09	28.062
458.44	26.511
458.79	26.247
459.14	28.047
459.49	27.671
459.84	28.144
460.19	27.637
460.54	27.025
460.89	27.208
461.24	28.112
461.59	28.588
461.94	27.682
462.29	28.309
462.64	27.505
462.99	27.261
463.34	27.600
463.69	27.892
464.04	28.754
464.39	28.232
464.74	28.223
465.09	28.166
465.44	27.978
465.79	28.188
466.14	27.258
466.49	28.532
466.84	29.597
467.19	28.727
467.54	28.688
467.89	27.971
468.24	28.098
468.59	28.632
468.94	28.894
469.29	28.599
469.64	30.388
469.99	29.973
470.34	28.534
470.68	29.741
471.03	28.571
471.38	29.812
471.73	28.714
472.08	28.882
472.43	28.832
472.78	29.098
473.13	28.883
473.48	29.401
473.83	29.695
474.17	29.247
474.52	29.529
474.87	29.714
475.22	28.497
475.57	27.620
475.92	28.890
476.27	28.467
476.61	28.682
476.96	28.642
477.31	28.362
477.66	29.759
478.01	29.482
478.36	29.244
478.70	27.674
479.05	29.446
479.40	29.222
479.75	28.012
480.10	28.280
480.45	29.462
480.79	28.046
481.14	29.354
481.49	28.619
481.84	29.035
482.19	29.350
482.53	28.853
482.88	28.758
483.23	29.019
483.58	29.117
483.92	29.335
484.27	28.410
484.62	28.707
484.97	28.301
485.31	28.733
485.66	27.925
486.01	26.769
486.36	25.572
486.70	25.439
487.05	26.161
487.40	26.864
487.75	26.807
488.09	28.238
488.44	27.752
488.79	28.788
489.13	29.030
489.48	28.630
489.83	29.132
490.17	29.417
490.52	28.167
490.87	29.625
491.22	29.013
491.56	28.428
491.91	29.316
492.26	29.306
492.60	29.401
492.95	29.093
493.30	29.673
493.64	29.211
493.99	29.294
494.34	29.695
494.68	29.853
495.03	29.699
495.37	29.362
495.72	29.825
496.07	30.394
496.41	29.248
496.76	29.112
497.11	29.176
497.45	29.297
497.80	29.750
498.14	29.469
498.49	30.098
498.84	30.489
499.18	29.905
499.53	29.677
499.87	29.916
500.22	29.392
500.56	30.777
500.91	30.144
501.26	29.919
501.60	29.948
501.95	30.247
502.29	30.037
502.64	31.238
502.98	30.482
503.33	30.027
503.67	30.394
504.02	30.168
504.36	29.808
504.71	30.630
505.06	29.590
505.40	29.947
505.75	29.990
506.09	30.126
506.44	30.587
506.78	30.346
507.13	31.095
507.47	31.010
507.82	31.408
508.16	31.256
508.51	31.659
508.85	31.380
509.19	30.867
509.54	31.327
509.88	31.376
510.23	30.643
510.57	31.321
510.92	30.968
511.26	31.757
511.61	32.054
511.95	31.054
512.30	31.071
512.64	31.596
512.98	32.101
513.33	32.173
513.67	31.857
514.02	31.602
514.36	32.277
514.70	31.710
515.05	31.009
515.39	32.417
515.74	31.644
516.08	32.644
516.42	32.741
516.77	33.166
517.11	32.852
517.46	32.449
517.80	32.869
518.14	31.500
518.49	33.664
518.83	32.500
519.17	32.621
519.52	32.711
519.86	32.059
520.20	33.353
520.55	33.513
520.89	33.333
521.23	33.293
521.58	33.073
521.92	34.415
522.26	32.886
522.61	33.458
522.95	34.316
523.29	33.597
523.64	33.354
523.98	34.011
524.32	33.776
524.66	33.554
525.01	33.211
525.35	33.829
525.69	33.313
526.04	33.209
526.38	33.801
526.72	33.681
527.06	34.275
527.41	32.426
527.75	33.955
528.09	34.361
528.43	33.461
528.78	33.620
529.12	33.576
529.46	35.640
529.80	33.911
530.15	34.455
530.49	32.985
530.83	34.810
531.17	34.856
531.51	34.436
531.86	34.516
532.20	34.941
532.54	34.337
532.88	34.788
533.22	33.167
533.57	34.136
533.91	33.353
534.25	33.597
534.59	34.045
534.93	33.551
535.27	34.037
535.62	33.761
535.96	33.333
536.30	34.329
536.64	34.707
536.98	33.776
537.32	33.772
537.66	34.467
538.01	34.760
538.35	35.100
538.69	34.078
539.03	34.113
539.37	34.313
539.71	33.441
540.05	34.444
540.39	34.751
540.73	34.670
541.07	34.458
541.42	34.768
541.76	35.355
542.10	34.605
542.44	35.033
542.78	35.375
543.12	34.165
543.46	34.754
543.80	35.133
544.14	34.082
544.48	34.857
544.82	34.894
545.16	35.329
545.50	35.604
545.84	35.954
546.18	34.343
546.52	35.719
546.86	35.464
547.20	36.345
547.54	34.603
547.88	35.842
548.22	34.807
548.56	34.340
548.90	34.187
549.24	34.478
549.58	34.447
549.92	34.409
550.26	35.866
550.60	35.408
550.94	35.563
551.28	35.406
551.62	35.155
551.96	34.947
552.30	34.949
552.64	35.362
552.98	36.000
553.32	36.480
553.66	35.242
554.00	35.827
554.34	35.128
554.68	34.835
555.02	34.979
555.36	35.212
555.69	34.303
556.03	34.993
556.37	35.130
556.71	34.993
557.05	34.944
557.39	35.829
557.73	36.274
558.07	36.693
558.41	36.686
558.75	35.709
559.08	36.614
559.42	35.979
559.76	36.250
560.10	35.974
560.44	35.500
560.78	34.331
561.12	34.631
561.45	36.506
561.79	34.015
562.13	35.345
562.47	35.246
562.81	35.007
563.15	34.783
563.48	34.350
563.82	34.964
564.16	35.448
564.50	35.286
564.84	34.829
565.17	35.071
565.51	36.486
565.85	35.533
566.19	34.690
566.52	35.529
566.86	35.564
567.20	35.436
567.54	35.388
567.88	33.732
568.21	34.709
568.55	34.277
568.89	34.728
569.23	33.913
569.56	33.603
569.90	33.585
570.24	33.190
570.57	32.064
570.91	31.965
571.25	32.211
571.59	31.576
571.92	32.344
572.26	31.716
572.60	32.342
572.93	31.874
573.27	32.623
573.61	32.133
573.95	31.912
574.28	31.859
574.62	31.584
574.96	31.685
575.29	30.965
575.63	31.682
575.97	31.346
576.30	32.050
576.64	32.044
576.98	31.478
577.31	31.816
577.65	31.422
577.98	31.464
578.32	31.037
578.66	31.237
578.99	31.431
579.33	31.397
579.67	31.404
580.00	31.503
580.34	32.202
580.67	31.789
581.01	32.291
581.35	32.133
581.68	31.691
582.02	31.433
582.35	31.736
582.69	31.798
583.02	31.408
583.36	32.326
583.70	32.617
584.03	32.550
584.37	33.123
584.70	32.471
585.04	32.387
585.37	32.479
585.71	32.143
586.04	32.834
586.38	32.315
586.72	32.974
587.05	32.301
587.39	32.454
587.72	32.801
588.06	32.978
588.39	32.483
588.73	32.825
589.06	33.842
589.40	33.906
589.73	33.861
590.07	34.413
590.40	33.102
590.73	33.841
591.07	34.107
591.40	34.416
591.74	35.325
592.07	33.901
592.41	34.188
592.74	34.307
593.08	33.111
593.41	33.249
593.75	33.354
594.08	33.490
594.41	34.146
594.75	33.789
595.08	33.500
595.42	33.905
595.75	33.476
596.09	34.585
596.42	34.499
596.75	33.643
597.09	35.844
597.42	34.570
597.75	34.929
598.09	34.957
598.42	34.751
598.76	34.860
599.09	34.284
599.42	34.061
599.76	34.517
600.09	34.863
600.42	33.966
600.76	33.714
601.09	33.880
601.42	34.855
601.76	33.738
602.09	34.545
602.42	34.594
602.76	35.429
603.09	35.405
603.42	35.025
603.76	34.604
604.09	34.354
604.42	35.141
604.76	35.091
605.09	35.256
605.42	34.929
605.75	34.685
606.09	34.770
606.42	34.287
606.75	34.799
607.09	34.826
607.42	34.745
607.75	34.599
608.08	34.260
608.42	35.365
608.75	33.859
609.08	34.089
609.41	35.650
609.75	35.112
610.08	35.438
610.41	35.708
610.74	35.809
611.07	36.512
611.41	34.838
611.74	36.400
612.07	36.801
612.40	36.516
612.73	36.579
613.07	37.069
613.40	36.177
613.73	36.707
614.06	36.237
614.39	36.235
614.72	36.158
615.06	35.819
615.39	35.403
615.72	35.174
616.05	35.779
616.38	35.909
616.71	37.114
617.05	37.691
617.38	37.102
617.71	36.757
618.04	38.582
618.37	36.487
618.70	37.461
619.03	37.303
619.36	37.610
619.69	38.169
620.03	37.500
620.36	37.968
620.69	37.740
621.02	39.159
621.35	37.745
621.68	38.240
622.01	39.009
622.34	38.351
622.67	39.620
623.00	36.757
623.33	38.813
623.66	36.526
623.99	37.555
624.32	37.589
624.65	38.630
624.99	37.040
625.32	38.595
625.65	39.068
625.98	38.816
626.31	38.802
626.64	38.204
626.97	39.152
627.30	38.404
627.63	39.541
627.96	39.613
628.29	40.070
628.62	40.165
628.95	41.509
629.28	40.420
629.61	41.705
629.94	40.857
630.26	39.561
630.59	40.801
630.92	39.272
