SpectraSuite Data File
++++++++++++++++++++++++++++++++++++
Date: Wed May 13 16:49:59 PDT 2015
User: schluterlab
Dark Spectrum Present: Yes
Reference Spectrum Present: Yes
Number of Sampled Component Spectra: 1
Spectrometers: USB2E3373
Integration Time (usec): 3000 (USB2E3373)
Spectra Averaged: 3 (USB2E3373)
Boxcar Smoothing: 0 (USB2E3373)
Correct for Electrical Dark: No (USB2E3373)
Strobe/Lamp Enabled: No (USB2E3373)
Correct for Detector Non-linearity: No (USB2E3373)
Correct for Stray Light: No (USB2E3373)
Number of Pixels in Processed Spectrum: 2048
>>>>>Begin Processed Spectral Data<<<<<
178.53	0.000
178.91	-1125.000
179.29	-1400.000
179.67	-222.222
180.04	-1275.000
180.42	2300.000
180.80	1080.000
181.18	-1075.000
181.56	657.143
181.94	0.000
182.31	-657.143
182.69	1800.000
183.07	-475.000
183.45	-433.333
183.83	527.273
184.20	-520.000
184.58	2500.000
184.96	5500.000
185.34	-860.000
185.72	-600.000
186.09	-1800.000
186.47	2350.000
186.85	1700.000
187.23	4500.000
187.61	-1566.667
187.98	1300.000
188.36	518.182
188.74	509.091
189.12	-940.000
189.49	570.000
189.87	-4800.000
190.25	-1450.000
190.63	428.571
191.00	469.231
191.38	900.000
191.76	-1025.000
192.14	1300.000
192.51	600.000
192.89	900.000
193.27	587.500
193.65	-1100.000
194.02	450.000
194.40	920.000
194.78	600.000
195.15	425.000
195.53	640.000
195.91	-2500.000
196.29	350.000
196.66	273.684
197.04	-410.000
197.42	0.000
197.79	560.000
198.17	-4100.000
198.55	571.429
198.92	662.500
199.30	920.000
199.68	0.000
200.05	300.000
200.43	785.714
200.81	4200.000
201.18	1733.333
201.56	-1733.333
201.94	477.778
202.31	600.000
202.69	350.000
203.07	450.000
203.44	0.000
203.82	1250.000
204.19	700.000
204.57	364.286
204.95	675.000
205.32	1400.000
205.70	563.636
206.08	357.143
206.45	2300.000
206.83	331.250
207.20	950.000
207.58	720.000
207.96	272.222
208.33	612.500
208.71	-916.667
209.08	814.286
209.46	511.111
209.84	372.727
210.21	-1633.333
210.59	1150.000
210.96	-450.000
211.34	2550.000
211.71	570.000
212.09	716.667
212.46	0.000
212.84	1600.000
213.22	1275.000
213.59	-5100.000
213.97	866.667
214.34	714.286
214.72	472.727
215.09	1120.000
215.47	-2250.000
215.84	-2200.000
216.22	1766.667
216.59	328.571
216.97	1275.000
217.34	454.545
217.72	-650.000
218.09	0.000
218.47	-4800.000
218.84	644.444
219.22	757.143
219.59	1433.333
219.97	-614.286
220.34	880.000
220.72	-1700.000
221.09	364.286
221.47	1525.000
221.84	-816.667
222.22	0.000
222.59	1350.000
222.97	-2550.000
223.34	1040.000
223.72	461.538
224.09	1080.000
224.46	2200.000
224.84	-4300.000
225.21	-1040.000
225.59	-4600.000
225.96	600.000
226.34	285.000
226.71	2350.000
227.08	662.500
227.46	570.000
227.83	-925.000
228.21	-2350.000
228.58	577.778
228.95	-2500.000
229.33	-2600.000
229.70	1600.000
230.08	685.714
230.45	-920.000
230.82	333.333
231.20	916.667
231.57	614.286
231.95	466.667
232.32	240.909
232.69	463.636
233.07	700.000
233.44	300.000
233.81	-1433.333
234.19	321.053
234.56	516.667
234.93	391.667
235.31	436.364
235.68	338.462
236.05	371.429
236.43	172.727
236.80	173.684
237.17	4600.000
237.55	214.286
237.92	182.143
238.29	219.048
238.67	154.839
239.04	189.655
239.41	119.444
239.79	102.174
240.16	135.714
240.53	136.364
240.91	90.196
241.28	100.000
241.65	96.000
242.02	81.159
242.40	59.677
242.77	81.667
243.14	70.968
243.51	68.539
243.89	63.529
244.26	55.556
244.63	50.538
245.00	58.511
245.38	65.347
245.75	51.402
246.12	37.615
246.49	48.905
246.87	48.800
247.24	52.308
247.61	45.000
247.98	41.176
248.36	35.811
248.73	38.854
249.10	38.217
249.47	38.418
249.84	38.503
250.22	31.551
250.59	36.686
250.96	33.838
251.33	38.863
251.70	34.158
252.08	31.429
252.45	31.839
252.82	30.870
253.19	27.234
253.56	27.451
253.94	29.876
254.31	30.469
254.68	30.000
255.05	24.723
255.42	26.423
255.79	25.735
256.16	28.881
256.54	22.615
256.91	25.979
257.28	24.101
257.65	22.442
258.02	22.671
258.39	23.975
258.76	19.732
259.14	19.940
259.51	25.228
259.88	23.602
260.25	27.492
260.62	19.653
260.99	22.981
261.36	23.724
261.73	20.917
262.10	20.349
262.47	19.155
262.85	18.942
263.22	19.088
263.59	20.228
263.96	21.978
264.33	19.321
264.70	20.789
265.07	21.995
265.44	18.182
265.81	17.518
266.18	19.095
266.55	18.293
266.92	19.410
267.29	19.444
267.66	19.725
268.03	18.864
268.40	19.393
268.77	17.184
269.14	18.018
269.51	18.962
269.88	15.851
270.25	16.253
270.62	17.753
270.99	20.860
271.36	19.099
271.73	16.589
272.10	17.391
272.47	19.140
272.84	18.831
273.21	21.384
273.58	17.904
273.95	15.933
274.32	14.876
274.69	16.916
275.06	17.323
275.43	18.511
275.80	15.631
276.17	17.108
276.54	18.711
276.91	16.798
277.28	16.992
277.65	16.054
278.02	16.356
278.39	15.820
278.76	16.364
279.13	16.038
279.50	17.132
279.87	16.335
280.23	15.569
280.60	14.507
280.97	15.896
281.34	16.637
281.71	16.182
282.08	17.274
282.45	16.000
282.82	17.584
283.19	13.725
283.56	14.386
283.92	13.875
284.29	14.991
284.66	14.156
285.03	14.828
285.40	17.254
285.77	14.815
286.14	14.853
286.51	14.000
286.87	15.556
287.24	15.961
287.61	14.286
287.98	14.610
288.35	14.263
288.72	12.305
289.08	15.336
289.45	14.003
289.82	14.472
290.19	12.402
290.56	13.629
290.93	12.689
291.29	13.650
291.66	14.749
292.03	16.715
292.40	15.272
292.77	12.722
293.13	13.134
293.50	12.245
293.87	11.704
294.24	12.741
294.60	11.936
294.97	13.372
295.34	12.835
295.71	13.778
296.08	12.108
296.44	11.967
296.81	12.285
297.18	14.363
297.55	11.214
297.91	12.269
298.28	12.851
298.65	15.144
299.02	13.175
299.38	10.890
299.75	10.782
300.12	10.217
300.48	11.750
300.85	12.454
301.22	12.484
301.59	11.237
301.95	11.083
302.32	11.425
302.69	11.231
303.05	12.364
303.42	11.481
303.79	12.458
304.15	10.373
304.52	9.965
304.89	11.034
305.25	10.325
305.62	12.344
305.99	10.626
306.35	10.850
306.72	11.883
307.09	11.654
307.45	12.275
307.82	10.714
308.19	11.479
308.55	11.866
308.92	10.526
309.29	11.827
309.65	11.453
310.02	10.994
310.38	10.430
310.75	10.454
311.12	10.850
311.48	10.867
311.85	11.530
312.22	11.134
312.58	10.811
312.95	10.454
313.31	10.971
313.68	11.227
314.05	13.116
314.41	11.558
314.78	11.782
315.14	11.321
315.51	11.637
315.87	12.376
316.24	11.718
316.61	11.891
316.97	11.448
317.34	9.785
317.70	11.185
318.07	11.453
318.43	11.840
318.80	11.528
319.16	11.488
319.53	10.976
319.89	12.667
320.26	11.800
320.62	11.310
320.99	12.323
321.35	11.515
321.72	11.191
322.08	11.945
322.45	12.935
322.81	13.372
323.18	12.620
323.54	11.596
323.91	11.981
324.27	13.384
324.64	11.463
325.00	10.730
325.37	12.557
325.73	12.747
326.10	11.827
326.46	12.186
326.83	11.734
327.19	12.980
327.56	11.585
327.92	12.423
328.29	11.801
328.65	13.168
329.01	13.538
329.38	12.673
329.74	11.911
330.11	12.064
330.47	12.672
330.84	13.051
331.20	12.295
331.56	11.927
331.93	12.407
332.29	12.422
332.66	12.566
333.02	11.974
333.38	12.285
333.75	12.210
334.11	12.456
334.48	11.979
334.84	11.673
335.20	13.000
335.57	11.786
335.93	10.179
336.29	10.806
336.66	12.173
337.02	11.584
337.38	12.037
337.75	11.497
338.11	11.996
338.47	12.247
338.84	12.099
339.20	11.009
339.56	11.588
339.93	11.364
340.29	11.775
340.65	11.141
341.02	12.042
341.38	11.922
341.74	12.193
342.11	11.266
342.47	11.454
342.83	10.873
343.20	12.294
343.56	11.963
343.92	10.702
344.28	11.650
344.65	11.178
345.01	10.943
345.37	9.691
345.73	11.675
346.10	11.424
346.46	11.356
346.82	11.862
347.19	10.693
347.55	11.248
347.91	11.084
348.27	10.682
348.63	10.702
349.00	10.437
349.36	11.084
349.72	11.307
350.08	10.778
350.45	10.496
350.81	11.048
351.17	10.778
351.53	10.074
351.89	10.644
352.26	12.234
352.62	10.826
352.98	11.345
353.34	10.846
353.70	10.556
354.07	11.290
354.43	10.794
354.79	10.539
355.15	11.572
355.51	11.351
355.87	11.347
356.24	10.261
356.60	10.104
356.96	10.941
357.32	10.630
357.68	11.181
358.04	10.610
358.40	11.085
358.77	10.720
359.13	10.339
359.49	11.059
359.85	8.492
360.21	11.005
360.57	11.907
360.93	10.769
361.29	10.809
361.66	9.985
362.02	10.821
362.38	10.342
362.74	11.458
363.10	9.845
363.46	10.492
363.82	10.809
364.18	10.646
364.54	10.104
364.90	11.402
365.26	10.221
365.62	10.957
365.98	9.642
366.35	9.814
366.71	10.774
367.07	10.706
367.43	10.087
367.79	10.635
368.15	11.997
368.51	10.247
368.87	10.278
369.23	10.973
369.59	11.079
369.95	9.853
370.31	11.538
370.67	10.000
371.03	11.236
371.39	10.787
371.75	10.221
372.11	11.451
372.47	11.364
372.83	11.383
373.19	11.127
373.55	10.421
373.91	11.561
374.27	11.203
374.63	10.473
374.99	11.088
375.35	10.328
375.71	10.555
376.07	11.454
376.42	10.454
376.78	11.465
377.14	10.787
377.50	11.722
377.86	10.372
378.22	11.694
378.58	10.464
378.94	10.245
379.30	11.641
379.66	10.343
380.02	11.732
380.38	11.111
380.74	11.164
381.09	11.308
381.45	11.985
381.81	11.364
382.17	11.847
382.53	11.384
382.89	12.222
383.25	11.632
383.61	12.639
383.97	12.445
384.32	10.917
384.68	11.462
385.04	12.108
385.40	11.827
385.76	11.732
386.12	12.047
386.48	11.643
386.83	12.829
387.19	12.616
387.55	12.245
387.91	11.971
388.27	12.324
388.62	12.969
388.98	11.425
389.34	12.703
389.70	12.630
390.06	13.308
390.42	12.192
390.77	12.532
391.13	13.338
391.49	13.135
391.85	12.985
392.20	12.429
392.56	13.194
392.92	12.301
393.28	12.071
393.64	12.770
393.99	12.706
394.35	12.717
394.71	12.673
395.07	12.710
395.42	13.164
395.78	12.595
396.14	13.966
396.50	13.095
396.85	13.414
397.21	12.269
397.57	12.461
397.92	13.221
398.28	11.771
398.64	13.441
399.00	12.815
399.35	12.465
399.71	12.616
400.07	12.714
400.42	12.638
400.78	12.606
401.14	12.195
401.49	13.075
401.85	11.857
402.21	12.754
402.57	13.202
402.92	13.178
403.28	12.804
403.63	12.562
403.99	11.911
404.35	12.970
404.70	12.290
405.06	12.522
405.42	12.414
405.77	13.086
406.13	12.923
406.49	12.892
406.84	12.581
407.20	11.998
407.55	12.763
407.91	12.133
408.27	12.444
408.62	12.643
408.98	12.316
409.34	12.239
409.69	12.129
410.05	12.330
410.40	12.049
410.76	11.947
411.11	12.485
411.47	12.204
411.83	13.134
412.18	12.307
412.54	12.578
412.89	12.892
413.25	12.161
413.60	12.847
413.96	12.568
414.31	12.880
414.67	11.787
415.03	12.781
415.38	13.015
415.74	12.733
416.09	13.390
416.45	13.119
416.80	12.360
417.16	13.003
417.51	12.409
417.87	11.561
418.22	12.934
418.58	13.557
418.93	13.145
419.29	12.794
419.64	12.972
420.00	13.110
420.35	12.000
420.71	12.552
421.06	12.530
421.42	12.339
421.77	12.388
422.12	11.903
422.48	11.441
422.83	12.930
423.19	13.315
423.54	12.594
423.90	13.043
424.25	13.009
424.61	12.798
424.96	11.953
425.31	13.068
425.67	11.742
426.02	12.971
426.38	12.943
426.73	11.995
427.09	12.036
427.44	12.593
427.79	11.903
428.15	12.381
428.50	12.171
428.85	12.872
429.21	11.872
429.56	11.768
429.92	11.575
430.27	11.966
430.62	11.828
430.98	12.247
431.33	12.216
431.68	12.565
432.04	11.928
432.39	11.479
432.74	13.106
433.10	12.281
433.45	12.595
433.80	11.585
434.16	11.806
434.51	12.368
434.86	12.714
435.22	13.118
435.57	11.915
435.92	12.522
436.28	13.227
436.63	13.631
436.98	12.650
437.34	13.238
437.69	13.361
438.04	12.085
438.39	13.194
438.75	12.899
439.10	12.514
439.45	12.633
439.81	13.293
440.16	12.253
440.51	12.595
440.86	12.565
441.22	13.293
441.57	12.951
441.92	12.794
442.27	12.217
442.63	12.322
442.98	12.563
443.33	13.696
443.68	12.648
444.03	12.445
444.39	12.123
444.74	12.825
445.09	12.992
445.44	12.302
445.79	12.667
446.15	13.129
446.50	12.439
446.85	12.590
447.20	12.698
447.55	12.898
447.91	12.410
448.26	12.632
448.61	12.945
448.96	13.289
449.31	13.105
449.66	13.056
450.02	13.148
450.37	13.095
450.72	12.521
451.07	13.467
451.42	13.009
451.77	13.917
452.12	13.453
452.47	13.495
452.83	13.345
453.18	13.386
453.53	13.915
453.88	13.054
454.23	13.628
454.58	13.568
454.93	14.431
455.28	13.030
455.63	13.532
455.98	13.810
456.34	13.693
456.69	14.402
457.04	13.684
457.39	12.683
457.74	13.117
458.09	13.571
458.44	13.455
458.79	13.232
459.14	13.544
459.49	13.660
459.84	13.019
460.19	13.494
460.54	12.558
460.89	13.549
461.24	13.479
461.59	14.003
461.94	14.057
462.29	14.065
462.64	13.593
462.99	13.533
463.34	13.667
463.69	13.258
464.04	13.623
464.39	13.797
464.74	13.547
465.09	13.631
465.44	13.352
465.79	13.423
466.14	13.082
466.49	13.348
466.84	12.960
467.19	12.915
467.54	14.438
467.89	13.145
468.24	13.554
468.59	14.469
468.94	13.439
469.29	13.303
469.64	14.190
469.99	14.141
470.34	13.276
470.68	13.721
471.03	13.469
471.38	13.829
471.73	13.524
472.08	15.000
472.43	14.133
472.78	13.693
473.13	13.671
473.48	13.733
473.83	14.451
474.17	13.317
474.52	13.648
474.87	13.952
475.22	12.943
475.57	12.413
475.92	13.648
476.27	12.796
476.61	13.624
476.96	12.974
477.31	12.977
477.66	12.910
478.01	12.755
478.36	13.273
478.70	12.773
479.05	12.833
479.40	13.357
479.75	13.574
480.10	12.425
480.45	12.899
480.79	12.136
481.14	13.112
481.49	13.147
481.84	12.483
482.19	13.130
482.53	12.661
482.88	13.122
483.23	13.551
483.58	12.830
483.92	12.418
484.27	11.939
484.62	12.198
484.97	12.101
485.31	12.329
485.66	11.578
486.01	10.777
486.36	10.329
486.70	10.157
487.05	10.848
487.40	10.930
487.75	11.145
488.09	11.799
488.44	11.708
488.79	12.116
489.13	12.529
489.48	12.561
489.83	11.782
490.17	13.064
490.52	12.489
490.87	12.845
491.22	12.733
491.56	11.708
491.91	12.983
492.26	12.035
492.60	12.258
492.95	12.114
493.30	13.131
493.64	12.179
493.99	12.303
494.34	12.812
494.68	12.363
495.03	13.205
495.37	12.704
495.72	12.378
496.07	12.900
496.41	12.080
496.76	12.577
497.11	11.706
497.45	12.296
497.80	12.620
498.14	11.932
498.49	12.537
498.84	12.560
499.18	12.190
499.53	12.488
499.87	12.488
500.22	12.577
500.56	13.107
500.91	12.548
501.26	12.328
501.60	12.672
501.95	12.145
502.29	12.512
502.64	12.663
502.98	12.716
503.33	12.431
503.67	12.204
504.02	12.769
504.36	12.541
504.71	12.311
505.06	12.627
505.40	12.056
505.75	12.536
506.09	12.391
506.44	12.481
506.78	12.616
507.13	12.620
507.47	12.929
507.82	12.614
508.16	12.715
508.51	13.293
508.85	11.718
509.19	12.449
509.54	13.010
509.88	12.210
510.23	12.442
510.57	13.261
510.92	12.947
511.26	13.052
511.61	13.330
511.95	12.944
512.30	12.301
512.64	13.810
512.98	13.451
513.33	13.437
513.67	12.807
514.02	12.608
514.36	12.671
514.70	13.116
515.05	12.995
515.39	13.124
515.74	13.457
516.08	14.421
516.42	13.762
516.77	14.214
517.11	13.041
517.46	13.544
517.80	13.298
518.14	13.318
518.49	13.536
518.83	13.920
519.17	13.453
519.52	13.016
519.86	13.520
520.20	13.815
520.55	13.525
520.89	13.504
521.23	14.113
521.58	13.625
521.92	14.636
522.26	13.423
522.61	13.894
522.95	14.303
523.29	13.451
523.64	14.146
523.98	13.617
524.32	14.415
524.66	14.552
525.01	13.664
525.35	13.259
525.69	13.732
526.04	13.396
526.38	13.423
526.72	13.374
527.06	13.434
527.41	12.562
527.75	13.891
528.09	14.001
528.43	14.149
528.78	13.891
529.12	13.394
529.46	13.901
529.80	13.676
530.15	14.081
530.49	13.600
530.83	14.557
531.17	13.969
531.51	14.981
531.86	13.613
532.20	14.342
532.54	13.965
532.88	13.736
533.22	13.804
533.57	14.630
533.91	13.486
534.25	13.062
534.59	13.911
534.93	13.504
535.27	13.518
535.62	13.614
535.96	13.873
536.30	13.414
536.64	14.102
536.98	14.399
537.32	13.232
537.66	14.400
538.01	13.627
538.35	14.544
538.69	14.805
539.03	12.801
539.37	13.291
539.71	12.703
540.05	14.248
540.39	13.688
540.73	13.325
541.07	14.341
541.42	13.568
541.76	14.129
542.10	13.001
542.44	14.040
542.78	15.415
543.12	12.604
543.46	14.885
543.80	13.988
544.14	12.901
544.48	14.095
544.82	13.278
545.16	13.012
545.50	13.368
545.84	13.710
546.18	13.670
546.52	13.765
546.86	13.883
547.20	13.958
547.54	13.427
547.88	14.349
548.22	13.138
548.56	12.956
548.90	13.252
549.24	12.458
549.58	13.643
549.92	13.049
550.26	13.920
550.60	14.869
550.94	14.507
551.28	13.241
551.62	12.940
551.96	12.912
552.30	14.539
552.64	12.914
552.98	13.831
553.32	13.688
553.66	14.519
554.00	13.795
554.34	13.941
554.68	14.092
555.02	14.316
555.36	13.361
555.69	14.005
556.03	13.997
556.37	13.165
556.71	13.711
557.05	12.745
557.39	13.436
557.73	13.691
558.07	14.866
558.41	13.676
558.75	13.519
559.08	14.392
559.42	12.850
559.76	14.338
560.10	14.133
560.44	12.928
560.78	13.772
561.12	13.193
561.45	13.820
561.79	13.909
562.13	13.816
562.47	13.456
562.81	13.598
563.15	13.645
563.48	13.594
563.82	13.438
564.16	13.277
564.50	12.630
564.84	13.211
565.17	12.741
565.51	13.482
565.85	13.515
566.19	12.837
566.52	12.793
566.86	12.477
567.20	13.384
567.54	12.272
567.88	11.678
568.21	12.857
568.55	12.538
568.89	12.354
569.23	11.943
569.56	11.741
569.90	11.660
570.24	10.621
570.57	10.779
570.91	10.375
571.25	10.562
571.59	11.105
571.92	10.455
572.26	10.716
572.60	11.111
572.93	10.825
573.27	10.648
573.61	10.720
573.95	10.775
574.28	10.276
574.62	10.180
574.96	10.323
575.29	10.087
575.63	10.442
575.97	10.336
576.30	11.073
576.64	10.134
576.98	10.136
577.31	10.143
577.65	9.837
577.98	9.992
578.32	9.790
578.66	10.126
578.99	10.546
579.33	10.336
579.67	9.779
580.00	10.333
580.34	10.323
580.67	10.376
581.01	10.052
581.35	9.900
581.68	10.024
582.02	9.603
582.35	9.946
582.69	9.873
583.02	9.939
583.36	10.261
583.70	10.440
584.03	10.345
584.37	10.935
584.70	10.789
585.04	10.470
585.37	10.368
585.71	10.879
586.04	10.486
586.38	10.423
586.72	10.853
587.05	10.649
587.39	10.158
587.72	10.152
588.06	10.192
588.39	10.672
588.73	10.414
589.06	11.031
589.40	10.539
589.73	11.440
590.07	11.174
590.40	11.217
590.73	11.007
591.07	11.559
591.40	11.978
591.74	12.251
592.07	11.693
592.41	11.244
592.74	11.536
593.08	10.893
593.41	11.009
593.75	10.212
594.08	10.694
594.41	11.099
594.75	10.832
595.08	11.167
595.42	10.823
595.75	11.254
596.09	11.641
596.42	11.788
596.75	11.271
597.09	11.818
597.42	11.509
597.75	11.600
598.09	11.696
598.42	11.684
598.76	11.066
599.09	10.642
599.42	11.135
599.76	11.603
600.09	10.929
600.42	11.103
600.76	10.750
601.09	11.694
601.42	11.187
601.76	11.120
602.09	11.700
602.42	11.704
602.76	12.092
603.09	11.644
603.42	11.558
603.76	10.671
604.09	11.206
604.42	11.007
604.76	11.936
605.09	11.621
605.42	11.458
605.75	11.300
606.09	10.817
606.42	10.503
606.75	11.448
607.09	12.139
607.42	11.168
607.75	10.549
608.08	11.290
608.42	11.744
608.75	10.866
609.08	11.933
609.41	11.756
609.75	11.577
610.08	11.687
610.41	11.080
610.74	11.826
611.07	12.154
611.41	11.874
611.74	11.815
612.07	12.629
612.40	11.805
612.73	11.368
613.07	12.231
613.40	12.480
613.73	11.064
614.06	11.559
614.39	12.166
614.72	12.211
615.06	11.922
615.39	11.783
615.72	11.401
616.05	11.855
616.38	12.840
616.71	11.461
617.05	12.485
617.38	12.087
617.71	12.432
618.04	12.740
618.37	12.655
618.70	12.881
619.03	13.816
619.36	12.288
619.69	13.592
620.03	14.217
620.36	13.235
620.69	12.877
621.02	13.864
621.35	13.547
621.68	13.084
622.01	13.932
622.34	13.086
622.67	13.384
623.00	13.500
623.33	13.081
623.66	13.152
623.99	12.371
624.32	13.766
624.65	12.500
624.99	12.606
625.32	13.541
625.65	13.449
625.98	14.297
626.31	13.453
626.64	14.367
626.97	13.633
627.30	12.968
627.63	15.094
627.96	14.550
628.29	13.298
628.62	14.730
628.95	16.132
629.28	14.234
629.61	14.207
629.94	15.714
630.26	14.204
630.59	13.537
630.92	14.272
631.25	13.820
