SpectraSuite Data File
++++++++++++++++++++++++++++++++++++
Date: Wed May 13 16:23:20 PDT 2015
User: schluterlab
Dark Spectrum Present: Yes
Reference Spectrum Present: Yes
Number of Sampled Component Spectra: 1
Spectrometers: USB2E3373
Integration Time (usec): 3000 (USB2E3373)
Spectra Averaged: 3 (USB2E3373)
Boxcar Smoothing: 0 (USB2E3373)
Correct for Electrical Dark: No (USB2E3373)
Strobe/Lamp Enabled: No (USB2E3373)
Correct for Detector Non-linearity: No (USB2E3373)
Correct for Stray Light: No (USB2E3373)
Number of Pixels in Processed Spectrum: 2048
>>>>>Begin Processed Spectral Data<<<<<
178.53	0.000
178.91	-1225.000
179.29	-950.000
179.67	-216.667
180.04	-1325.000
180.42	2300.000
180.80	1100.000
181.18	-1100.000
181.56	757.143
181.94	0.000
182.31	-528.571
182.69	1633.333
183.07	-587.500
183.45	-577.778
183.83	600.000
184.20	-320.000
184.58	2050.000
184.96	4900.000
185.34	-700.000
185.72	-712.500
186.09	-2350.000
186.47	2350.000
186.85	2200.000
187.23	4200.000
187.61	-1766.667
187.98	1550.000
188.36	518.182
188.74	545.455
189.12	-860.000
189.49	550.000
189.87	-4400.000
190.25	-1200.000
190.63	414.286
191.00	376.923
191.38	800.000
191.76	-900.000
192.14	1125.000
192.51	687.500
192.89	916.667
193.27	662.500
193.65	-1050.000
194.02	490.000
194.40	1040.000
194.78	510.000
195.15	491.667
195.53	560.000
195.91	-2050.000
196.29	312.500
196.66	247.368
197.04	-380.000
197.42	0.000
197.79	540.000
198.17	-4700.000
198.55	514.286
198.92	775.000
199.30	1060.000
199.68	0.000
200.05	311.111
200.43	714.286
200.81	4100.000
201.18	1633.333
201.56	-1366.667
201.94	544.444
202.31	522.222
202.69	375.000
203.07	480.000
203.44	0.000
203.82	1350.000
204.19	714.286
204.57	407.143
204.95	575.000
205.32	1600.000
205.70	454.545
206.08	292.857
206.45	2850.000
206.83	350.000
207.20	850.000
207.58	740.000
207.96	316.667
208.33	762.500
208.71	-716.667
209.08	800.000
209.46	555.556
209.84	436.364
210.21	-1500.000
210.59	1325.000
210.96	-375.000
211.34	2400.000
211.71	610.000
212.09	700.000
212.46	0.000
212.84	1433.333
213.22	1275.000
213.59	-4700.000
213.97	700.000
214.34	685.714
214.72	627.273
215.09	900.000
215.47	-1450.000
215.84	-1700.000
216.22	1533.333
216.59	400.000
216.97	1400.000
217.34	445.455
217.72	-600.000
218.09	0.000
218.47	-4300.000
218.84	633.333
219.22	614.286
219.59	1500.000
219.97	-557.143
220.34	760.000
220.72	-1566.667
221.09	414.286
221.47	1400.000
221.84	-833.333
222.22	0.000
222.59	1175.000
222.97	-2400.000
223.34	820.000
223.72	376.923
224.09	1060.000
224.46	2200.000
224.84	-3900.000
225.21	-840.000
225.59	-4500.000
225.96	620.000
226.34	290.000
226.71	2450.000
227.08	625.000
227.46	550.000
227.83	-800.000
228.21	-1950.000
228.58	555.556
228.95	-2050.000
229.33	-1750.000
229.70	1366.667
230.08	685.714
230.45	-720.000
230.82	483.333
231.20	850.000
231.57	614.286
231.95	441.667
232.32	245.455
232.69	436.364
233.07	657.143
233.44	307.692
233.81	-1300.000
234.19	242.105
234.56	458.333
234.93	358.333
235.31	436.364
235.68	261.538
236.05	307.143
236.43	166.667
236.80	194.737
237.17	3500.000
237.55	171.429
237.92	203.571
238.29	190.476
238.67	158.065
239.04	175.862
239.41	127.778
239.79	93.478
240.16	138.095
240.53	118.182
240.91	82.353
241.28	78.000
241.65	72.000
242.02	78.261
242.40	87.097
242.77	51.667
243.14	51.613
243.51	64.045
243.89	47.059
244.26	48.889
244.63	48.387
245.00	45.745
245.38	49.505
245.75	42.056
246.12	33.945
246.49	45.255
246.87	48.800
247.24	43.077
247.61	32.857
247.98	33.987
248.36	29.054
248.73	33.758
249.10	34.395
249.47	29.379
249.84	33.690
250.22	27.807
250.59	25.444
250.96	28.788
251.33	26.066
251.70	22.277
252.08	28.095
252.45	20.179
252.82	20.000
253.19	25.957
253.56	21.176
253.94	24.896
254.31	19.531
254.68	22.308
255.05	18.819
255.42	16.667
255.79	16.544
256.16	23.105
256.54	18.375
256.91	19.217
257.28	15.827
257.65	18.812
258.02	19.876
258.39	17.666
258.76	14.716
259.14	19.048
259.51	17.325
259.88	17.081
260.25	15.106
260.62	16.474
260.99	17.702
261.36	16.817
261.73	15.473
262.10	13.953
262.47	16.901
262.85	13.649
263.22	10.541
263.59	16.809
263.96	15.934
264.33	15.927
264.70	15.526
265.07	14.834
265.44	14.141
265.81	13.382
266.18	16.583
266.55	15.854
266.92	11.057
267.29	13.194
267.66	14.908
268.03	13.409
268.40	13.551
268.77	11.695
269.14	11.712
269.51	13.770
269.88	11.189
270.25	12.415
270.62	13.034
270.99	13.978
271.36	14.592
271.73	10.047
272.10	12.609
272.47	10.968
272.84	12.338
273.21	12.579
273.58	11.790
273.95	10.273
274.32	13.223
274.69	13.062
275.06	11.417
275.43	10.638
275.80	11.222
276.17	10.591
276.54	11.019
276.91	10.672
277.28	10.938
277.65	11.992
278.02	6.625
278.39	11.523
278.76	12.727
279.13	13.396
279.50	11.359
279.87	11.952
280.23	9.381
280.60	11.219
280.97	11.275
281.34	9.027
281.71	12.727
282.08	10.365
282.45	9.273
282.82	9.769
283.19	10.160
283.56	10.175
283.92	9.983
284.29	11.993
284.66	9.437
285.03	9.403
285.40	9.859
285.77	8.418
286.14	10.535
286.51	9.667
286.87	11.111
287.24	10.261
287.61	9.791
287.98	8.604
288.35	7.448
288.72	7.788
289.08	9.390
289.45	8.731
289.82	10.081
290.19	8.477
290.56	8.270
290.93	8.157
291.29	8.589
291.66	9.735
292.03	11.192
292.40	10.279
292.77	9.615
293.13	10.299
293.50	9.329
293.87	8.148
294.24	7.407
294.60	6.696
294.97	8.866
295.34	9.168
295.71	7.670
296.08	9.687
296.44	7.565
296.81	7.133
297.18	8.401
297.55	6.860
297.91	6.464
298.28	8.701
298.65	8.877
299.02	7.378
299.38	7.968
299.75	5.795
300.12	7.918
300.48	7.500
300.85	7.645
301.22	8.662
301.59	6.818
301.95	8.060
302.32	7.574
302.69	8.005
303.05	7.879
303.42	6.420
303.79	7.701
304.15	6.061
304.52	6.721
304.89	8.014
305.25	7.309
305.62	9.060
305.99	8.146
306.35	7.718
306.72	8.744
307.09	7.769
307.45	8.221
307.82	6.138
308.19	7.285
308.55	7.983
308.92	8.808
309.29	5.280
309.65	7.211
310.02	7.082
310.38	7.527
310.75	8.659
311.12	7.881
311.48	8.046
311.85	8.910
312.22	8.429
312.58	7.277
312.95	7.075
313.31	6.699
313.68	6.757
314.05	9.270
314.41	8.543
314.78	8.258
315.14	7.150
315.51	7.724
315.87	8.614
316.24	8.937
316.61	7.992
316.97	7.241
317.34	6.849
317.70	8.509
318.07	8.373
318.43	7.730
318.80	8.529
319.16	9.040
319.53	7.692
319.89	8.667
320.26	9.200
320.62	8.333
320.99	8.990
321.35	9.192
321.72	9.035
322.08	8.588
322.45	11.343
322.81	9.593
323.18	9.634
323.54	10.297
323.91	9.434
324.27	9.369
324.64	8.947
325.00	8.837
325.37	9.554
325.73	11.221
326.10	9.620
326.46	9.857
326.83	10.958
327.19	9.650
327.56	9.408
327.92	9.186
328.29	10.648
328.65	9.669
329.01	9.928
329.38	9.713
329.74	10.065
330.11	9.425
330.47	9.734
330.84	10.846
331.20	9.563
331.56	10.183
331.93	10.463
332.29	9.938
332.66	9.469
333.02	10.786
333.38	11.021
333.75	11.586
334.11	9.609
334.48	9.406
334.84	10.478
335.20	10.000
335.57	10.063
335.93	8.125
336.29	9.890
336.66	10.099
337.02	9.864
337.38	10.648
337.75	7.932
338.11	8.863
338.47	9.116
338.84	10.357
339.20	8.899
339.56	10.766
339.93	8.455
340.29	9.511
340.65	9.269
341.02	10.035
341.38	10.854
341.74	9.737
342.11	10.131
342.47	9.075
342.83	10.017
343.20	9.610
343.56	8.930
343.92	10.088
344.28	10.119
344.65	9.544
345.01	9.259
345.37	9.005
345.73	8.545
346.10	9.548
346.46	9.915
346.82	8.979
347.19	8.354
347.55	8.785
347.91	9.790
348.27	9.942
348.63	8.696
349.00	9.547
349.36	8.867
349.72	9.783
350.08	9.643
350.45	9.764
350.81	9.180
351.17	9.076
351.53	8.272
351.89	7.921
352.26	9.708
352.62	9.302
352.98	9.887
353.34	9.367
353.70	7.365
354.07	8.952
354.43	8.571
354.79	8.930
355.15	8.460
355.51	10.072
355.87	9.388
356.24	8.306
356.60	9.302
356.96	8.608
357.32	7.931
357.68	9.449
358.04	8.789
358.40	9.660
358.77	8.059
359.13	7.656
359.49	9.255
359.85	7.460
360.21	8.293
360.57	10.039
360.93	9.077
361.29	9.070
361.66	8.050
362.02	8.881
362.38	8.669
362.74	9.077
363.10	7.698
363.46	8.217
363.82	9.146
364.18	8.443
364.54	9.361
364.90	8.853
365.26	8.456
365.62	8.766
365.98	8.254
366.35	7.736
366.71	8.821
367.07	8.521
367.43	8.636
367.79	8.494
368.15	9.986
368.51	9.012
368.87	9.208
369.23	8.632
369.59	8.907
369.95	8.235
370.31	8.618
370.67	8.768
371.03	8.764
371.39	8.965
371.75	8.456
372.11	8.819
372.47	9.091
372.83	8.573
373.19	8.598
373.55	8.130
373.91	8.984
374.27	8.660
374.63	8.291
374.99	8.969
375.35	8.025
375.71	8.979
376.07	9.053
376.42	8.528
376.78	9.344
377.14	9.227
377.50	8.079
377.86	8.045
378.22	9.355
378.58	8.020
378.94	8.045
379.30	7.761
379.66	8.883
380.02	9.275
380.38	8.257
380.74	8.643
381.09	9.413
381.45	9.158
381.81	9.214
382.17	8.662
382.53	8.742
382.89	9.321
383.25	8.068
383.61	9.170
383.97	8.693
384.32	8.297
384.68	7.931
385.04	8.543
385.40	7.802
385.76	8.784
386.12	8.614
386.48	9.566
386.83	8.018
387.19	9.215
387.55	8.534
387.91	8.706
388.27	8.645
388.62	9.035
388.98	8.170
389.34	9.324
389.70	8.461
390.06	9.442
390.42	8.885
390.77	9.033
391.13	8.105
391.49	9.010
391.85	8.848
392.20	8.454
392.56	8.965
392.92	8.476
393.28	7.456
393.64	9.412
393.99	8.919
394.35	8.437
394.71	8.846
395.07	7.601
395.42	8.776
395.78	8.588
396.14	9.187
396.50	8.772
396.85	8.900
397.21	8.693
397.57	8.741
397.92	8.534
398.28	7.735
398.64	8.722
399.00	9.010
399.35	8.347
399.71	8.391
400.07	8.870
400.42	8.896
400.78	8.866
401.14	8.110
401.49	8.478
401.85	8.046
402.21	8.204
402.57	8.020
402.92	8.764
403.28	8.370
403.63	8.478
403.99	7.898
404.35	8.485
404.70	8.213
405.06	8.503
405.42	8.858
405.77	7.829
406.13	8.409
406.49	8.634
406.84	8.033
407.20	8.097
407.55	8.870
407.91	8.200
408.27	8.168
408.62	8.790
408.98	8.088
409.34	8.487
409.69	8.323
410.05	7.869
410.40	8.746
410.76	6.989
411.11	8.685
411.47	8.243
411.83	8.125
412.18	7.359
412.54	8.344
412.89	9.458
413.25	7.792
413.60	8.524
413.96	8.561
414.31	8.445
414.67	8.619
415.03	7.881
415.38	8.312
415.74	8.489
416.09	7.969
416.45	8.434
416.80	8.526
417.16	8.847
417.51	8.096
417.87	7.579
418.22	8.202
418.58	7.811
418.93	8.231
419.29	8.402
419.64	8.753
420.00	8.110
420.35	8.348
420.71	8.249
421.06	7.578
421.42	7.544
421.77	8.408
422.12	6.906
422.48	6.854
422.83	8.154
423.19	8.453
423.54	7.313
423.90	7.652
424.25	8.431
424.61	7.381
424.96	7.930
425.31	7.807
425.67	8.315
426.02	7.257
426.38	8.059
426.73	7.607
427.09	8.632
427.44	8.511
427.79	7.878
428.15	8.155
428.50	7.490
428.85	8.939
429.21	7.454
429.56	7.206
429.92	7.801
430.27	7.845
430.62	7.783
430.98	7.888
431.33	8.144
431.68	7.487
432.04	8.413
432.39	7.653
432.74	8.199
433.10	7.753
433.45	7.930
433.80	7.483
434.16	7.906
434.51	7.789
434.86	7.868
435.22	8.060
435.57	7.660
435.92	7.373
436.28	8.066
436.63	8.389
436.98	7.441
437.34	7.573
437.69	7.526
438.04	7.364
438.39	8.119
438.75	8.367
439.10	8.101
439.45	8.146
439.81	7.855
440.16	7.453
440.51	8.260
440.86	7.991
441.22	7.230
441.57	7.590
441.92	7.728
442.27	8.019
442.63	8.057
442.98	8.507
443.33	7.772
443.68	8.312
444.03	7.174
444.39	7.011
444.74	8.171
445.09	7.709
445.44	7.272
445.79	7.768
446.15	7.941
446.50	7.539
446.85	7.554
447.20	7.955
447.55	7.929
447.91	7.667
448.26	7.735
448.61	7.744
448.96	8.859
449.31	8.605
449.66	7.878
450.02	7.632
450.37	7.766
450.72	7.445
451.07	6.642
451.42	7.781
451.77	9.160
452.12	7.506
452.47	7.711
452.83	7.226
453.18	8.130
453.53	8.844
453.88	7.383
454.23	8.069
454.58	8.298
454.93	8.455
455.28	8.666
455.63	8.313
455.98	8.690
456.34	8.103
456.69	8.641
457.04	7.616
457.39	8.182
457.74	7.777
458.09	7.936
458.44	8.096
458.79	7.375
459.14	8.296
459.49	7.939
459.84	7.590
460.19	7.425
460.54	7.870
460.89	7.735
461.24	8.865
461.59	8.658
461.94	8.508
462.29	8.843
462.64	8.551
462.99	8.458
463.34	8.867
463.69	8.443
464.04	8.754
464.39	8.522
464.74	7.903
465.09	7.539
465.44	7.424
465.79	7.438
466.14	8.155
466.49	8.065
466.84	8.406
467.19	8.509
467.54	7.938
467.89	8.463
468.24	8.668
468.59	8.547
468.94	8.247
469.29	8.805
469.64	8.701
469.99	8.322
470.34	7.860
470.68	8.405
471.03	8.776
471.38	8.826
471.73	7.928
472.08	9.276
472.43	8.417
472.78	8.361
473.13	8.922
473.48	8.739
473.83	8.598
474.17	7.716
474.52	8.499
474.87	8.523
475.22	8.125
475.57	7.792
475.92	7.807
476.27	7.835
476.61	8.108
476.96	7.806
477.31	7.378
477.66	7.932
478.01	7.946
478.36	8.144
478.70	7.944
479.05	8.307
479.40	7.779
479.75	8.134
480.10	7.157
480.45	7.568
480.79	7.597
481.14	7.045
481.49	7.879
481.84	7.407
482.19	7.497
482.53	7.431
482.88	7.306
483.23	7.944
483.58	7.871
483.92	7.638
484.27	6.754
484.62	7.284
484.97	6.543
485.31	7.158
485.66	6.563
486.01	5.674
486.36	5.446
486.70	5.289
487.05	6.067
487.40	6.256
487.75	6.407
488.09	6.824
488.44	6.438
488.79	7.233
489.13	7.181
489.48	7.545
489.83	7.294
490.17	7.014
490.52	7.307
490.87	7.417
491.22	7.731
491.56	7.335
491.91	7.678
492.26	7.717
492.60	7.558
492.95	7.530
493.30	7.804
493.64	7.606
493.99	7.010
494.34	7.123
494.68	7.921
495.03	8.036
495.37	8.190
495.72	7.895
496.07	8.121
496.41	7.965
496.76	7.432
497.11	7.834
497.45	7.359
497.80	7.630
498.14	7.005
498.49	7.707
498.84	7.670
499.18	7.381
499.53	7.407
499.87	7.829
500.22	6.877
500.56	8.592
500.91	6.538
501.26	7.492
501.60	8.543
501.95	7.104
502.29	7.826
502.64	7.914
502.98	7.714
503.33	7.130
503.67	7.703
504.02	7.484
504.36	7.955
504.71	7.523
505.06	8.386
505.40	7.778
505.75	7.040
506.09	7.532
506.44	7.844
506.78	7.453
507.13	7.420
507.47	8.384
507.82	8.713
508.16	8.004
508.51	7.763
508.85	7.597
509.19	7.755
509.54	7.857
509.88	8.140
510.23	8.380
510.57	8.875
510.92	7.975
511.26	8.273
511.61	8.506
511.95	7.620
512.30	8.218
512.64	8.275
512.98	8.360
513.33	8.084
513.67	8.591
514.02	8.063
514.36	8.902
514.70	8.412
515.05	8.645
515.39	8.076
515.74	8.221
516.08	8.944
516.42	8.824
516.77	9.086
517.11	8.324
517.46	8.747
517.80	8.362
518.14	7.412
518.49	9.043
518.83	9.489
519.17	8.834
519.52	8.263
519.86	8.956
520.20	9.191
520.55	8.677
520.89	8.637
521.23	10.434
521.58	8.463
521.92	9.124
522.26	8.847
522.61	8.785
522.95	8.840
523.29	9.677
523.64	9.085
523.98	8.256
524.32	8.565
524.66	9.561
525.01	8.578
525.35	8.984
525.69	9.113
526.04	8.785
526.38	8.969
526.72	9.264
527.06	10.169
527.41	8.478
527.75	9.260
528.09	9.313
528.43	9.815
528.78	9.588
529.12	9.091
529.46	9.124
529.80	8.849
530.15	9.159
530.49	9.169
530.83	9.430
531.17	9.726
531.51	10.182
531.86	8.516
532.20	10.039
532.54	9.865
532.88	9.884
533.22	9.494
533.57	9.321
533.91	9.452
534.25	8.870
534.59	9.274
534.93	8.685
535.27	9.354
535.62	9.219
535.96	9.353
536.30	9.409
536.64	9.530
536.98	9.688
537.32	9.217
537.66	9.400
538.01	10.402
538.35	9.632
538.69	9.381
539.03	10.071
539.37	9.137
539.71	8.749
540.05	9.608
540.39	8.904
540.73	9.379
541.07	10.058
541.42	9.132
541.76	9.613
542.10	9.573
542.44	8.808
542.78	10.408
543.12	8.445
543.46	9.836
543.80	9.629
544.14	8.472
544.48	9.079
544.82	9.365
545.16	8.783
545.50	8.869
545.84	9.341
546.18	10.370
546.52	9.566
546.86	9.210
547.20	9.710
547.54	9.152
547.88	10.140
548.22	9.215
548.56	9.371
548.90	9.027
549.24	9.495
549.58	9.550
549.92	9.203
550.26	9.304
550.60	8.990
550.94	8.944
551.28	8.851
551.62	9.418
551.96	8.842
552.30	9.761
552.64	9.263
552.98	9.288
553.32	10.519
553.66	9.884
554.00	9.883
554.34	8.972
554.68	9.657
555.02	9.379
555.36	9.603
555.69	9.540
556.03	9.690
556.37	9.550
556.71	9.345
557.05	9.314
557.39	9.937
557.73	10.233
558.07	10.297
558.41	9.913
558.75	9.111
559.08	10.216
559.42	9.826
559.76	10.221
560.10	9.208
560.44	9.154
560.78	8.782
561.12	9.828
561.45	10.561
561.79	9.426
562.13	8.987
562.47	8.880
562.81	9.833
563.15	10.301
563.48	10.013
563.82	9.524
564.16	8.829
564.50	8.594
564.84	9.482
565.17	8.559
565.51	9.457
565.85	9.454
566.19	8.203
566.52	8.930
566.86	9.464
567.20	9.493
567.54	9.075
567.88	8.474
568.21	8.995
568.55	8.645
568.89	7.539
569.23	7.754
569.56	7.692
569.90	7.623
570.24	7.499
570.57	7.310
570.91	7.369
571.25	7.165
571.59	6.716
571.92	7.028
572.26	6.499
572.60	6.937
572.93	6.867
573.27	6.744
573.61	7.231
573.95	6.770
574.28	6.759
574.62	6.608
574.96	6.332
575.29	6.790
575.63	6.758
575.97	6.743
576.30	6.745
576.64	6.874
576.98	6.660
577.31	6.585
577.65	6.450
577.98	6.293
578.32	6.315
578.66	6.541
578.99	6.665
579.33	6.633
579.67	6.543
580.00	6.689
580.34	6.526
580.67	6.760
581.01	6.836
581.35	6.320
581.68	6.305
582.02	6.052
582.35	6.130
582.69	6.026
583.02	6.298
583.36	6.387
583.70	6.568
584.03	6.688
584.37	7.325
584.70	6.792
585.04	6.923
585.37	6.640
585.71	6.626
586.04	6.717
586.38	6.818
586.72	7.153
587.05	6.710
587.39	6.438
587.72	6.596
588.06	6.697
588.39	7.051
588.73	6.248
589.06	7.105
589.40	7.407
589.73	7.568
590.07	7.722
590.40	7.052
590.73	7.455
591.07	8.099
591.40	8.140
591.74	8.355
592.07	7.810
592.41	7.979
592.74	7.753
593.08	7.628
593.41	6.897
593.75	6.902
594.08	7.342
594.41	7.706
594.75	7.246
595.08	7.230
595.42	7.776
595.75	6.944
596.09	8.074
596.42	8.448
596.75	8.189
597.09	8.788
597.42	6.998
597.75	7.978
598.09	8.217
598.42	8.162
598.76	7.418
599.09	7.488
599.42	6.914
599.76	7.064
600.09	6.849
600.42	7.159
600.76	7.179
601.09	7.250
601.42	7.420
601.76	7.324
602.09	7.549
602.42	8.400
602.76	7.658
603.09	7.868
603.42	7.653
603.76	7.279
604.09	7.018
604.42	7.664
604.76	7.760
605.09	7.558
605.42	7.696
605.75	7.699
606.09	7.442
606.42	7.029
606.75	7.466
607.09	8.204
607.42	7.659
607.75	7.553
608.08	7.642
608.42	7.934
608.75	7.800
609.08	7.586
609.41	8.425
609.75	8.337
610.08	8.294
610.41	7.682
610.74	7.900
611.07	8.696
611.41	8.342
611.74	8.497
612.07	8.540
612.40	8.499
612.73	8.579
613.07	8.621
613.40	8.952
613.73	8.076
614.06	8.065
614.39	8.757
614.72	8.684
615.06	8.561
615.39	8.068
615.72	8.538
616.05	8.400
616.38	7.949
616.71	8.848
617.05	9.069
617.38	9.200
617.71	8.048
618.04	8.774
618.37	8.930
618.70	9.334
619.03	10.132
619.36	9.708
619.69	9.648
620.03	9.478
620.36	9.893
620.69	9.863
621.02	10.103
621.35	10.023
621.68	8.801
622.01	10.139
622.34	10.363
622.67	9.810
623.00	9.171
623.33	8.721
623.66	9.578
623.99	9.647
624.32	9.201
624.65	8.686
624.99	8.144
625.32	9.341
625.65	10.218
625.98	10.761
626.31	9.642
626.64	9.796
626.97	10.723
627.30	9.476
627.63	10.500
627.96	10.681
628.29	10.324
628.62	11.162
628.95	11.887
629.28	10.675
629.61	11.366
629.94	10.571
630.26	11.535
630.59	10.772
630.92	10.345
631.25	9.477
631.58	11.912
631.91	10.751
632.24	10.549
632.57	12.277
632.90	11.075
633.23	11.745
633.56	11.977
633.89	12.911
634.22	13.167
634.55	11.479
634.88	11.617
635.20	13.381
635.53	14.096
635.86	12.252
636.19	12.353
636.52	12.341
636.85	12.371
637.18	11.982
637.51	12.175
637.83	10.358
638.16	13.555
638.49	14.484
638.82	12.642
639.15	12.375
639.48	12.843
639.81	13.539
640.13	12.760
640.46	12.886
640.79	13.342
641.12	12.105
641.45	12.570
641.77	13.108
642.10	14.181
642.43	13.213
642.76	15.325
643.09	13.957
643.41	13.657
643.74	15.123
644.07	12.805
644.40	14.110
644.73	14.488
645.05	15.372
645.38	13.270
645.71	13.205
646.04	14.618
646.36	17.362
646.69	14.883
647.02	15.136
647.35	14.089
647.67	14.690
648.00	13.821
648.33	14.191
648.66	14.848
648.98	14.243
649.31	12.108
649.64	13.752
649.96	14.158
650.29	13.270
650.62	12.783
650.94	16.370
651.27	14.189
