SpectraSuite Data File
++++++++++++++++++++++++++++++++++++
Date: Wed May 13 16:09:53 PDT 2015
User: schluterlab
Dark Spectrum Present: Yes
Reference Spectrum Present: Yes
Number of Sampled Component Spectra: 1
Spectrometers: USB2E3373
Integration Time (usec): 3000 (USB2E3373)
Spectra Averaged: 3 (USB2E3373)
Boxcar Smoothing: 0 (USB2E3373)
Correct for Electrical Dark: No (USB2E3373)
Strobe/Lamp Enabled: No (USB2E3373)
Correct for Detector Non-linearity: No (USB2E3373)
Correct for Stray Light: No (USB2E3373)
Number of Pixels in Processed Spectrum: 2048
>>>>>Begin Processed Spectral Data<<<<<
178.53	0.000
178.91	-925.000
179.29	-975.000
179.67	-138.889
180.04	-1000.000
180.42	2700.000
180.80	840.000
181.18	-575.000
181.56	400.000
181.94	0.000
182.31	-557.143
182.69	1133.333
183.07	-450.000
183.45	-377.778
183.83	436.364
184.20	-320.000
184.58	1750.000
184.96	3800.000
185.34	-680.000
185.72	-450.000
186.09	-1750.000
186.47	2100.000
186.85	1600.000
187.23	3600.000
187.61	-1266.667
187.98	1000.000
188.36	436.364
188.74	390.909
189.12	-740.000
189.49	400.000
189.87	-2400.000
190.25	-1100.000
190.63	271.429
191.00	261.538
191.38	633.333
191.76	-800.000
192.14	1300.000
192.51	437.500
192.89	850.000
193.27	325.000
193.65	-650.000
194.02	390.000
194.40	760.000
194.78	370.000
195.15	391.667
195.53	520.000
195.91	-1200.000
196.29	325.000
196.66	205.263
197.04	-280.000
197.42	0.000
197.79	410.000
198.17	-4600.000
198.55	542.857
198.92	512.500
199.30	620.000
199.68	0.000
200.05	261.111
200.43	628.571
200.81	2900.000
201.18	1033.333
201.56	-1366.667
201.94	366.667
202.31	366.667
202.69	308.333
203.07	490.000
203.44	0.000
203.82	1050.000
204.19	657.143
204.57	342.857
204.95	425.000
205.32	966.667
205.70	300.000
206.08	300.000
206.45	1500.000
206.83	231.250
207.20	766.667
207.58	560.000
207.96	222.222
208.33	525.000
208.71	-533.333
209.08	671.429
209.46	444.444
209.84	309.091
210.21	-933.333
210.59	975.000
210.96	-300.000
211.34	1600.000
211.71	470.000
212.09	633.333
212.46	0.000
212.84	1233.333
213.22	1125.000
213.59	-4000.000
213.97	666.667
214.34	514.286
214.72	500.000
215.09	600.000
215.47	-1050.000
215.84	-2000.000
216.22	1233.333
216.59	292.857
216.97	1125.000
217.34	354.545
217.72	-416.667
218.09	0.000
218.47	-2800.000
218.84	600.000
219.22	600.000
219.59	1200.000
219.97	-442.857
220.34	900.000
220.72	-1300.000
221.09	278.571
221.47	1225.000
221.84	-583.333
222.22	0.000
222.59	1000.000
222.97	-3000.000
223.34	1020.000
223.72	330.769
224.09	900.000
224.46	1700.000
224.84	-3500.000
225.21	-780.000
225.59	-3700.000
225.96	420.000
226.34	220.000
226.71	1950.000
227.08	500.000
227.46	470.000
227.83	-775.000
228.21	-1550.000
228.58	400.000
228.95	-2250.000
229.33	-1150.000
229.70	1300.000
230.08	442.857
230.45	-700.000
230.82	308.333
231.20	583.333
231.57	385.714
231.95	375.000
232.32	190.909
232.69	163.636
233.07	442.857
233.44	207.692
233.81	-1300.000
234.19	221.053
234.56	308.333
234.93	250.000
235.31	445.455
235.68	176.923
236.05	357.143
236.43	136.364
236.80	189.474
237.17	2000.000
237.55	152.381
237.92	160.714
238.29	128.571
238.67	145.161
239.04	124.138
239.41	108.333
239.79	84.783
240.16	83.333
240.53	86.364
240.91	88.235
241.28	68.000
241.65	56.000
242.02	84.058
242.40	61.290
242.77	65.000
243.14	40.860
243.51	52.809
243.89	51.765
244.26	54.444
244.63	29.032
245.00	40.426
245.38	47.525
245.75	37.383
246.12	34.862
246.49	39.416
246.87	43.200
247.24	33.077
247.61	35.714
247.98	31.373
248.36	29.054
248.73	26.115
249.10	29.299
249.47	23.729
249.84	31.016
250.22	21.925
250.59	26.627
250.96	21.717
251.33	26.540
251.70	27.723
252.08	21.429
252.45	20.179
252.82	26.957
253.19	18.298
253.56	22.745
253.94	26.141
254.31	21.094
254.68	25.769
255.05	21.033
255.42	18.699
255.79	19.118
256.16	21.661
256.54	18.021
256.91	19.929
257.28	13.669
257.65	18.482
258.02	20.807
258.39	20.189
258.76	18.395
259.14	19.643
259.51	17.629
259.88	15.528
260.25	16.616
260.62	15.029
260.99	12.422
261.36	15.616
261.73	13.754
262.10	17.151
262.47	17.746
262.85	13.370
263.22	14.245
263.59	17.949
263.96	14.560
264.33	16.188
264.70	18.158
265.07	16.368
265.44	16.162
265.81	13.625
266.18	15.075
266.55	18.293
266.92	16.708
267.29	14.352
267.66	13.991
268.03	16.591
268.40	16.589
268.77	15.752
269.14	14.414
269.51	16.027
269.88	15.851
270.25	13.544
270.62	15.730
270.99	15.914
271.36	16.094
271.73	13.084
272.10	13.261
272.47	12.258
272.84	12.987
273.21	15.723
273.58	13.755
273.95	11.740
274.32	11.157
274.69	13.062
275.06	11.417
275.43	14.894
275.80	14.429
276.17	12.424
276.54	13.929
276.91	14.625
277.28	15.039
277.65	13.926
278.02	12.422
278.39	14.258
278.76	13.455
279.13	15.094
279.50	14.339
279.87	10.359
280.23	13.573
280.60	11.992
280.97	13.863
281.34	12.566
281.71	13.818
282.08	14.203
282.45	11.636
282.82	13.144
283.19	11.408
283.56	12.807
283.92	13.029
284.29	12.346
284.66	11.434
285.03	13.201
285.40	10.387
285.77	10.774
286.14	11.572
286.51	11.333
286.87	14.017
287.24	12.541
287.61	11.557
287.98	11.851
288.35	12.837
288.72	11.838
289.08	11.737
289.45	11.697
289.82	12.195
290.19	8.948
290.56	9.648
290.93	9.063
291.29	11.503
291.66	10.619
292.03	12.791
292.40	13.656
292.77	9.172
293.13	11.194
293.50	11.953
293.87	11.407
294.24	10.370
294.60	10.044
294.97	9.884
295.34	11.848
295.71	11.080
296.08	9.544
296.44	11.279
296.81	8.058
297.18	11.518
297.55	7.916
297.91	9.235
298.28	8.835
298.65	10.574
299.02	10.408
299.38	8.765
299.75	7.951
300.12	9.451
300.48	10.500
300.85	9.125
301.22	9.809
301.59	8.712
301.95	8.690
302.32	9.628
302.69	9.558
303.05	8.727
303.42	9.136
303.79	9.060
304.15	8.974
304.52	9.038
304.89	8.130
305.25	9.281
305.62	10.759
305.99	8.619
306.35	10.403
306.72	9.417
307.09	9.323
307.45	11.486
307.82	8.259
308.19	8.499
308.55	9.493
308.92	9.989
309.29	9.398
309.65	8.271
310.02	8.668
310.38	9.247
310.75	9.293
311.12	10.338
311.48	8.255
311.85	10.797
312.22	8.845
312.58	8.836
312.95	10.560
313.31	9.126
313.68	9.667
314.05	11.933
314.41	9.648
314.78	10.171
315.14	9.732
315.51	9.269
315.87	10.693
316.24	9.732
316.61	10.136
316.97	10.274
317.34	10.176
317.70	10.229
318.07	11.742
318.43	10.665
318.80	10.403
319.16	11.017
319.53	10.225
319.89	14.286
320.26	12.600
320.62	12.103
320.99	13.030
321.35	12.121
321.72	14.784
322.08	14.709
322.45	15.821
322.81	14.341
323.18	14.740
323.54	15.770
323.91	15.943
324.27	15.679
324.64	15.005
325.00	16.592
325.37	17.561
325.73	19.120
326.10	18.094
326.46	19.444
326.83	19.845
327.19	19.641
327.56	20.557
327.92	21.172
328.29	22.183
328.65	21.455
329.01	22.022
329.38	23.127
329.74	23.546
330.11	23.657
330.47	24.977
330.84	26.195
331.20	26.867
331.56	26.330
331.93	25.278
332.29	25.732
332.66	27.965
333.02	26.965
333.38	28.907
333.75	26.916
334.11	27.580
334.48	28.838
334.84	28.676
335.20	29.182
335.57	28.921
335.93	27.679
336.29	28.846
336.66	28.945
337.02	30.226
337.38	31.204
337.75	30.214
338.11	29.991
338.47	29.926
338.84	30.339
339.20	30.275
339.56	30.474
339.93	32.545
340.29	29.438
340.65	31.373
341.02	32.635
341.38	30.605
341.74	30.263
342.11	31.703
342.47	31.982
342.83	31.336
343.20	32.035
343.56	32.013
343.92	32.368
344.28	31.548
344.65	32.072
345.01	31.397
345.37	30.789
345.73	31.557
346.10	30.861
346.46	33.051
346.82	32.208
347.19	32.581
347.55	31.609
347.91	32.686
348.27	33.607
348.63	32.609
349.00	31.877
349.36	32.923
349.72	32.478
350.08	33.712
350.45	34.500
350.81	32.900
351.17	32.496
351.53	34.070
351.89	33.086
352.26	33.149
352.62	34.322
352.98	34.279
353.34	32.950
353.70	33.797
354.07	33.952
354.43	33.651
354.79	34.352
355.15	34.477
355.51	34.692
355.87	34.367
356.24	35.912
356.60	32.719
356.96	34.111
357.32	36.141
357.68	34.882
358.04	35.550
358.40	34.442
358.77	34.820
359.13	35.359
359.49	34.588
359.85	36.032
360.21	34.051
360.57	36.265
360.93	35.923
361.29	35.374
361.66	34.675
362.02	36.045
362.38	36.958
362.74	35.789
363.10	34.863
363.46	35.290
363.82	36.130
364.18	34.949
364.54	37.147
364.90	37.394
365.26	36.471
365.62	38.203
365.98	37.180
366.35	36.819
366.71	37.166
367.07	36.635
367.43	37.591
367.79	37.545
368.15	38.865
368.51	38.009
368.87	37.188
369.23	38.040
369.59	38.668
369.95	38.456
370.31	38.034
370.67	38.188
371.03	40.000
371.39	39.213
371.75	39.338
372.11	38.051
372.47	39.809
372.83	40.850
373.19	39.162
373.55	39.690
373.91	40.280
374.27	39.725
374.63	40.000
374.99	40.890
375.35	40.126
375.71	39.548
376.07	40.741
376.42	40.165
376.78	40.954
377.14	41.588
377.50	41.788
377.86	40.758
378.22	41.403
378.58	40.915
378.94	41.483
379.30	42.557
379.66	42.766
380.02	42.076
380.38	42.198
380.74	43.337
381.09	42.665
381.45	43.577
381.81	42.629
382.17	44.076
382.53	44.025
382.89	44.321
383.25	45.153
383.61	44.424
383.97	43.902
384.32	43.543
384.68	44.176
385.04	44.499
385.40	44.025
385.76	43.980
386.12	44.819
386.48	45.123
386.83	46.248
387.19	46.444
387.55	45.640
387.91	45.042
388.27	44.390
388.62	45.114
388.98	46.130
389.34	45.932
389.70	45.677
390.06	47.845
390.42	47.147
390.77	46.947
391.13	46.841
391.49	46.003
391.85	47.104
392.20	45.552
392.56	47.412
392.92	47.263
393.28	46.686
393.64	46.403
393.99	45.877
394.35	47.022
394.71	46.487
395.07	47.103
395.42	48.022
395.78	47.074
396.14	47.176
396.50	48.935
396.85	48.379
397.21	47.596
397.57	48.171
397.92	47.476
398.28	47.253
398.64	47.073
399.00	47.342
399.35	46.813
399.71	48.032
400.07	48.374
400.42	47.853
400.78	48.070
401.14	47.622
401.49	48.239
401.85	48.639
402.21	46.886
402.57	48.242
402.92	47.667
403.28	48.032
403.63	48.700
403.99	48.025
404.35	48.061
404.70	48.201
405.06	48.457
405.42	49.407
405.77	47.543
406.13	47.348
406.49	48.374
406.84	47.490
407.20	48.050
407.55	47.926
407.91	48.733
408.27	49.394
408.62	47.261
408.98	48.775
409.34	48.954
409.69	47.806
410.05	48.017
410.40	48.012
410.76	47.551
411.11	47.889
411.47	48.115
411.83	48.198
412.18	48.299
412.54	48.506
412.89	47.651
413.25	48.288
413.60	48.610
413.96	46.570
414.31	47.388
414.67	47.402
415.03	48.742
415.38	48.067
415.74	47.588
416.09	49.053
416.45	48.260
416.80	49.240
417.16	49.397
417.51	49.303
417.87	48.555
418.22	49.022
418.58	50.355
418.93	48.833
419.29	47.995
419.64	50.063
420.00	49.573
420.35	49.507
420.71	49.611
421.06	48.329
421.42	49.532
421.77	48.823
422.12	48.007
422.48	48.678
422.83	48.515
423.19	49.724
423.54	49.391
423.90	48.754
424.25	49.414
424.61	48.452
424.96	49.504
425.31	48.837
425.67	48.876
426.02	49.314
426.38	50.977
426.73	49.152
427.09	49.787
427.44	50.316
427.79	49.799
428.15	49.702
428.50	49.210
428.85	49.046
429.21	49.310
429.56	50.130
429.92	50.377
430.27	49.305
430.62	49.360
430.98	49.870
431.33	48.608
431.68	49.791
432.04	49.894
432.39	50.485
432.74	51.406
433.10	51.669
433.45	50.787
433.80	50.333
434.16	50.053
434.51	50.684
434.86	52.109
435.22	51.417
435.57	52.036
435.92	51.317
436.28	51.720
436.63	51.932
436.98	51.860
437.34	51.998
437.69	53.034
438.04	51.377
438.39	52.896
438.75	52.586
439.10	52.291
439.45	51.830
439.81	51.601
440.16	52.513
440.51	52.665
440.86	52.693
441.22	53.226
441.57	53.025
441.92	51.945
442.27	52.583
442.63	51.975
442.98	54.254
443.33	53.804
443.68	52.710
444.03	53.392
444.39	53.019
444.74	53.571
445.09	53.477
445.44	53.034
445.79	53.093
446.15	52.144
446.50	52.558
446.85	53.237
447.20	53.136
447.55	53.825
447.91	53.999
448.26	52.532
448.61	53.759
448.96	53.433
449.31	54.949
449.66	53.967
450.02	51.922
450.37	53.515
450.72	53.130
451.07	54.052
451.42	52.462
451.77	54.022
452.12	53.811
452.47	54.167
452.83	53.788
453.18	53.240
453.53	54.545
453.88	53.692
454.23	53.676
454.58	54.755
454.93	56.198
455.28	53.990
455.63	54.733
455.98	55.595
456.34	54.711
456.69	54.853
457.04	55.170
457.39	54.588
457.74	54.266
458.09	54.629
458.44	53.649
458.79	53.091
459.14	54.289
459.49	54.466
459.84	53.518
460.19	53.447
460.54	53.241
460.89	54.087
461.24	55.616
461.59	54.445
461.94	53.946
462.29	54.659
462.64	53.542
462.99	52.245
463.34	55.400
463.69	54.346
464.04	54.261
464.39	53.913
464.74	54.664
465.09	53.559
465.44	52.078
465.79	52.796
466.14	52.217
466.49	50.779
466.84	51.781
467.19	53.712
467.54	54.312
467.89	52.281
468.24	52.763
468.59	52.930
468.94	52.474
469.29	54.370
469.64	54.150
469.99	54.127
470.34	53.501
470.68	54.310
471.03	54.626
471.38	55.038
471.73	54.164
472.08	54.539
472.43	53.204
472.78	53.325
473.13	54.621
473.48	54.619
473.83	54.756
474.17	53.765
474.52	54.404
474.87	54.057
475.22	53.105
475.57	51.531
475.92	53.213
476.27	53.269
476.61	52.344
476.96	52.336
477.31	52.067
477.66	52.681
478.01	52.169
478.36	53.358
478.70	51.610
479.05	52.449
479.40	52.968
479.75	53.381
480.10	52.584
480.45	51.499
480.79	51.648
481.14	52.740
481.49	52.017
481.84	52.309
482.19	51.295
482.53	51.055
482.88	51.698
483.23	51.963
483.58	51.592
483.92	52.765
484.27	50.501
484.62	50.948
484.97	50.493
485.31	52.534
485.66	50.098
486.01	48.655
486.36	46.310
486.70	45.333
487.05	47.023
487.40	48.034
487.75	47.946
488.09	49.075
488.44	49.333
488.79	50.452
489.13	51.108
489.48	51.876
489.83	51.273
490.17	51.644
490.52	51.993
490.87	51.334
491.22	50.705
491.56	49.841
491.91	50.814
492.26	50.850
492.60	50.230
492.95	50.281
493.30	50.374
493.64	50.723
493.99	51.021
494.34	50.139
494.68	50.870
495.03	51.645
495.37	50.070
495.72	50.877
496.07	50.998
496.41	49.602
496.76	50.528
497.11	49.842
497.45	50.396
497.80	51.583
498.14	50.386
498.49	51.024
498.84	49.808
499.18	50.238
499.53	50.712
499.87	50.326
500.22	49.223
500.56	51.699
500.91	50.240
501.26	50.782
501.60	50.736
501.95	49.083
502.29	51.078
502.64	51.304
502.98	50.631
503.33	49.634
503.67	50.348
504.02	50.374
504.36	50.117
504.71	49.976
505.06	49.735
505.40	50.802
505.75	50.241
506.09	49.951
506.44	50.715
506.78	50.706
507.13	50.278
507.47	51.313
507.82	50.709
508.16	51.013
508.51	51.852
508.85	50.298
509.19	51.276
509.54	51.173
509.88	50.077
510.23	50.437
510.57	51.135
510.92	51.372
511.26	50.360
511.61	50.726
511.95	49.843
512.30	50.689
512.64	51.155
512.98	51.768
513.33	50.482
513.67	49.787
514.02	50.000
514.36	51.338
514.70	52.186
515.05	52.036
515.39	51.374
515.74	50.619
516.08	51.369
516.42	52.053
516.77	51.338
517.11	51.498
517.46	50.451
517.80	52.265
518.14	51.882
518.49	52.159
518.83	51.761
519.17	51.848
519.52	51.669
519.86	51.569
520.20	51.561
520.55	52.124
520.89	52.372
521.23	51.870
521.58	51.861
521.92	53.092
522.26	51.068
522.61	52.586
522.95	51.443
523.29	50.639
523.64	52.195
523.98	51.941
524.32	51.628
524.66	51.473
525.01	51.287
525.35	51.797
525.69	51.047
526.04	52.835
526.38	51.678
526.72	50.552
527.06	52.103
527.41	50.681
527.75	52.026
528.09	52.665
528.43	52.581
528.78	51.506
529.12	51.455
529.46	51.684
529.80	52.537
530.15	52.648
530.49	50.338
530.83	52.468
531.17	53.198
531.51	53.178
531.86	52.065
532.20	52.738
532.54	51.634
532.88	51.861
533.22	50.718
533.57	52.469
533.91	51.234
534.25	52.066
534.59	52.288
534.93	50.446
535.27	50.754
535.62	51.893
535.96	52.605
536.30	51.558
536.64	52.157
536.98	52.621
537.32	51.020
537.66	51.400
538.01	51.415
538.35	52.359
538.69	52.010
539.03	51.332
539.37	51.502
539.71	50.745
540.05	51.830
540.39	52.159
540.73	50.712
541.07	52.433
541.42	53.098
541.76	50.710
542.10	51.294
542.44	52.318
542.78	53.162
543.12	50.416
543.46	52.262
543.80	51.074
544.14	50.257
544.48	50.921
544.82	51.379
545.16	51.854
545.50	51.157
545.84	52.487
546.18	51.582
546.52	51.342
546.86	51.546
547.20	52.192
547.54	51.169
547.88	51.722
548.22	50.872
548.56	50.755
548.90	50.960
549.24	50.438
549.58	50.955
549.92	51.305
550.26	52.486
550.60	50.830
550.94	52.535
551.28	52.597
551.62	51.330
551.96	52.211
552.30	51.468
552.64	51.251
552.98	52.271
553.32	51.247
553.66	52.693
554.00	51.544
554.34	51.760
554.68	53.720
555.02	52.186
555.36	52.401
555.69	51.421
556.03	52.355
556.37	51.910
556.71	50.068
557.05	51.401
557.39	51.994
557.73	52.364
558.07	52.937
558.41	50.579
558.75	53.417
559.08	53.169
559.42	53.590
559.76	54.412
560.10	51.963
560.44	52.271
560.78	50.765
561.12	51.781
561.45	51.434
561.79	50.890
562.13	52.649
562.47	51.571
562.81	52.371
563.15	51.371
563.48	52.586
563.82	51.794
564.16	50.687
564.50	51.823
564.84	50.822
565.17	51.416
565.51	53.163
565.85	51.650
566.19	50.282
566.52	52.438
566.86	51.055
567.20	51.769
567.54	51.655
567.88	50.244
568.21	50.582
568.55	50.455
568.89	50.827
569.23	49.332
569.56	48.785
569.90	48.717
570.24	48.439
570.57	47.705
570.91	46.768
571.25	47.468
571.59	46.834
571.92	46.918
572.26	47.603
572.60	47.237
572.93	45.817
573.27	47.560
573.61	47.906
573.95	46.744
574.28	46.482
574.62	46.866
574.96	46.165
575.29	45.563
575.63	46.113
575.97	46.446
576.30	46.707
576.64	47.536
576.98	46.597
577.31	46.719
577.65	47.058
577.98	46.441
578.32	45.671
578.66	46.184
578.99	46.063
579.33	46.575
579.67	46.680
580.00	46.655
580.34	46.820
580.67	46.774
581.01	47.403
581.35	46.819
581.68	47.257
582.02	45.688
582.35	46.221
582.69	45.537
583.02	45.909
583.36	46.922
583.70	47.253
584.03	47.414
584.37	47.879
584.70	48.302
585.04	47.823
585.37	47.367
585.71	46.898
586.04	46.823
586.38	47.074
586.72	48.357
587.05	47.243
587.39	48.021
587.72	48.312
588.06	48.106
588.39	48.340
588.73	47.815
589.06	48.707
589.40	48.552
589.73	49.349
590.07	49.609
590.40	49.251
590.73	49.805
591.07	50.102
591.40	50.822
591.74	50.693
592.07	50.131
592.41	50.682
592.74	50.037
593.08	49.234
593.41	48.339
593.75	47.595
594.08	48.776
594.41	48.745
594.75	49.538
595.08	48.890
595.42	49.947
595.75	49.145
596.09	49.869
596.42	50.098
596.75	49.810
597.09	50.996
597.42	50.253
597.75	50.065
598.09	50.565
598.42	50.301
598.76	49.818
599.09	49.183
599.42	49.236
599.76	49.927
600.09	49.690
600.42	49.343
600.76	48.286
601.09	49.800
601.42	49.619
601.76	50.019
602.09	50.158
602.42	50.836
602.76	50.423
603.09	50.433
603.42	52.401
603.76	49.733
604.09	50.640
604.42	50.836
604.76	51.708
605.09	51.769
605.42	50.876
605.75	52.276
606.09	51.566
606.42	51.042
606.75	49.647
607.09	50.649
607.42	51.904
607.75	51.013
608.08	50.499
608.42	51.457
608.75	51.758
609.08	50.925
609.41	50.738
609.75	52.072
610.08	52.215
610.41	50.931
610.74	52.129
611.07	52.026
611.41	51.619
611.74	52.640
612.07	52.692
612.40	53.095
612.73	53.421
613.07	52.802
613.40	53.449
613.73	52.071
614.06	53.333
614.39	52.858
614.72	52.632
615.06	53.204
615.39	52.972
615.72	52.454
616.05	52.100
616.38	53.641
616.71	54.513
617.05	55.241
617.38	55.442
617.71	55.015
618.04	55.048
618.37	54.287
618.70	55.134
619.03	56.579
619.36	55.737
619.69	56.690
620.03	55.632
620.36	56.217
620.69	56.438
621.02	57.153
621.35	56.304
621.68	57.399
622.01	55.960
622.34	57.262
622.67	56.882
623.00	57.227
623.33	56.969
623.66	56.326
623.99	56.186
624.32	57.775
624.65	56.427
624.99	56.161
625.32	56.698
625.65	56.724
625.98	58.647
626.31	57.854
626.64	60.735
626.97	60.349
627.30	59.601
627.63	59.721
627.96	60.471
628.29	59.230
628.62	60.842
628.95	62.075
629.28	59.763
629.61	62.603
629.94	60.762
630.26	60.439
630.59	60.629
630.92	62.452
631.25	60.711
631.58	61.361
631.91	60.953
632.24	61.920
