SpectraSuite Data File
++++++++++++++++++++++++++++++++++++
Date: Wed May 13 16:20:05 PDT 2015
User: schluterlab
Dark Spectrum Present: Yes
Reference Spectrum Present: Yes
Number of Sampled Component Spectra: 1
Spectrometers: USB2E3373
Integration Time (usec): 3000 (USB2E3373)
Spectra Averaged: 3 (USB2E3373)
Boxcar Smoothing: 0 (USB2E3373)
Correct for Electrical Dark: No (USB2E3373)
Strobe/Lamp Enabled: No (USB2E3373)
Correct for Detector Non-linearity: No (USB2E3373)
Correct for Stray Light: No (USB2E3373)
Number of Pixels in Processed Spectrum: 2048
>>>>>Begin Processed Spectral Data<<<<<
178.53	0.000
178.91	-1175.000
179.29	-1075.000
179.67	-227.778
180.04	-1100.000
180.42	2300.000
180.80	1000.000
181.18	-1025.000
181.56	600.000
181.94	0.000
182.31	-600.000
182.69	1566.667
183.07	-600.000
183.45	-400.000
183.83	400.000
184.20	-290.000
184.58	1800.000
184.96	5700.000
185.34	-720.000
185.72	-500.000
186.09	-1900.000
186.47	2550.000
186.85	2350.000
187.23	4800.000
187.61	-1666.667
187.98	1400.000
188.36	481.818
188.74	500.000
189.12	-900.000
189.49	460.000
189.87	-3500.000
190.25	-1175.000
190.63	328.571
191.00	407.692
191.38	883.333
191.76	-975.000
192.14	1350.000
192.51	675.000
192.89	833.333
193.27	462.500
193.65	-1050.000
194.02	510.000
194.40	960.000
194.78	490.000
195.15	483.333
195.53	550.000
195.91	-1800.000
196.29	287.500
196.66	284.211
197.04	-310.000
197.42	0.000
197.79	530.000
198.17	-3800.000
198.55	585.714
198.92	737.500
199.30	960.000
199.68	0.000
200.05	300.000
200.43	571.429
200.81	4700.000
201.18	1466.667
201.56	-1533.333
201.94	566.667
202.31	611.111
202.69	408.333
203.07	510.000
203.44	0.000
203.82	1125.000
204.19	642.857
204.57	421.429
204.95	675.000
205.32	1366.667
205.70	436.364
206.08	342.857
206.45	1800.000
206.83	331.250
207.20	866.667
207.58	860.000
207.96	255.556
208.33	587.500
208.71	-700.000
209.08	628.571
209.46	555.556
209.84	390.909
210.21	-1233.333
210.59	1200.000
210.96	-487.500
211.34	1850.000
211.71	540.000
212.09	833.333
212.46	0.000
212.84	1433.333
213.22	1150.000
213.59	-3000.000
213.97	700.000
214.34	757.143
214.72	527.273
215.09	940.000
215.47	-2100.000
215.84	-2350.000
216.22	1633.333
216.59	385.714
216.97	1175.000
217.34	436.364
217.72	-566.667
218.09	0.000
218.47	-4400.000
218.84	511.111
219.22	585.714
219.59	1700.000
219.97	-557.143
220.34	820.000
220.72	-1233.333
221.09	421.429
221.47	1300.000
221.84	-866.667
222.22	0.000
222.59	1375.000
222.97	-2200.000
223.34	1120.000
223.72	307.692
224.09	1000.000
224.46	1600.000
224.84	-4300.000
225.21	-1020.000
225.59	-5200.000
225.96	510.000
226.34	260.000
226.71	2050.000
227.08	662.500
227.46	450.000
227.83	-700.000
228.21	-2200.000
228.58	566.667
228.95	-2000.000
229.33	-1650.000
229.70	1366.667
230.08	728.571
230.45	-660.000
230.82	383.333
231.20	766.667
231.57	542.857
231.95	500.000
232.32	250.000
232.69	381.818
233.07	671.429
233.44	346.154
233.81	-1800.000
234.19	321.053
234.56	491.667
234.93	383.333
235.31	490.909
235.68	276.923
236.05	328.571
236.43	200.000
236.80	310.526
237.17	5600.000
237.55	223.810
237.92	210.714
238.29	304.762
238.67	183.871
239.04	244.828
239.41	197.222
239.79	154.348
240.16	173.810
240.53	165.909
240.91	127.451
241.28	134.000
241.65	144.000
242.02	137.681
242.40	135.484
242.77	140.000
243.14	97.849
243.51	104.494
243.89	116.471
244.26	98.889
244.63	115.054
245.00	98.936
245.38	104.950
245.75	103.738
246.12	92.661
246.49	93.431
246.87	106.400
247.24	93.846
247.61	90.000
247.98	88.235
248.36	85.135
248.73	88.535
249.10	94.904
249.47	84.746
249.84	83.957
250.22	77.540
250.59	81.657
250.96	82.323
251.33	78.673
251.70	86.634
252.08	77.619
252.45	77.130
252.82	73.043
253.19	75.745
253.56	77.647
253.94	77.593
254.31	73.828
254.68	76.923
255.05	76.384
255.42	76.423
255.79	73.162
256.16	74.007
256.54	67.845
256.91	71.174
257.28	64.748
257.65	70.957
258.02	71.429
258.39	66.246
258.76	71.572
259.14	68.155
259.51	69.301
259.88	68.944
260.25	73.112
260.62	68.208
260.99	69.255
261.36	71.171
261.73	68.481
262.10	69.767
262.47	71.549
262.85	65.460
263.22	68.376
263.59	68.661
263.96	63.187
264.33	65.274
264.70	64.474
265.07	67.775
265.44	67.424
265.81	61.071
266.18	68.090
266.55	66.098
266.92	70.025
267.29	66.435
267.66	64.679
268.03	62.273
268.40	63.785
268.77	68.258
269.14	62.613
269.51	62.528
269.88	67.133
270.25	63.657
270.62	64.494
270.99	66.022
271.36	61.588
271.73	64.953
272.10	61.739
272.47	65.806
272.84	62.554
273.21	63.732
273.58	61.790
273.95	59.119
274.32	58.884
274.69	62.099
275.06	59.252
275.43	66.383
275.80	62.124
276.17	60.285
276.54	63.825
276.91	61.660
277.28	61.133
277.65	63.056
278.02	61.698
278.39	61.719
278.76	57.455
279.13	58.113
279.50	60.521
279.87	59.562
280.23	61.876
280.60	61.122
280.97	58.780
281.34	58.584
281.71	60.364
282.08	58.925
282.45	57.091
282.82	59.858
283.19	59.180
283.56	57.544
283.92	58.545
284.29	58.025
284.66	56.987
285.03	55.696
285.40	57.218
285.77	56.229
286.14	54.231
286.51	57.000
286.87	54.530
287.24	57.818
287.61	57.143
287.98	56.331
288.35	56.577
288.72	54.206
289.08	53.521
289.45	52.059
289.82	52.683
290.19	50.863
290.56	51.149
290.93	51.964
291.29	53.067
291.66	50.885
292.03	52.035
292.40	53.010
292.77	50.444
293.13	48.955
293.50	50.000
293.87	48.296
294.24	48.296
294.60	48.763
294.97	47.093
295.34	47.391
295.71	47.727
296.08	47.436
296.44	47.730
296.81	46.367
297.18	46.341
297.55	44.063
297.91	47.361
298.28	48.193
298.65	47.650
299.02	45.850
299.38	46.215
299.75	43.531
300.12	46.616
300.48	44.625
300.85	44.143
301.22	47.516
301.59	43.056
301.95	45.340
302.32	45.315
302.69	43.847
303.05	44.364
303.42	45.679
303.79	43.828
304.15	43.473
304.52	44.496
304.89	45.761
305.25	43.735
305.62	42.016
305.99	44.510
306.35	44.855
306.72	44.283
307.09	44.173
307.45	45.270
307.82	41.853
308.19	45.033
308.55	44.876
308.92	45.113
309.29	42.872
309.65	43.372
310.02	43.763
310.38	43.871
310.75	43.823
311.12	45.241
311.48	46.082
311.85	44.235
312.22	43.704
312.58	44.283
312.95	46.674
313.31	43.010
313.68	47.817
314.05	46.844
314.41	45.930
314.78	44.512
315.14	45.581
315.51	46.138
315.87	45.743
316.24	47.170
316.61	45.517
316.97	46.380
317.34	46.477
317.70	47.036
318.07	47.931
318.43	47.847
318.80	47.516
319.16	48.588
319.53	48.311
319.89	49.619
320.26	49.700
320.62	50.595
320.99	50.606
321.35	51.515
321.72	50.719
322.08	51.037
322.45	53.333
322.81	52.229
323.18	51.734
323.54	51.484
323.91	53.019
324.27	54.015
324.64	55.359
325.00	55.546
325.37	55.778
325.73	56.822
326.10	56.399
326.46	58.423
326.83	59.275
327.19	57.899
327.56	59.582
327.92	58.705
328.29	60.692
328.65	60.589
329.01	60.740
329.38	61.795
329.74	60.295
330.11	62.582
330.47	62.534
330.84	62.684
331.20	60.565
331.56	62.385
331.93	64.722
332.29	62.289
332.66	62.301
333.02	62.157
333.38	61.337
333.75	62.299
334.11	62.811
334.48	61.934
334.84	62.408
335.20	64.364
335.57	63.645
335.93	60.893
336.29	62.271
336.66	63.841
337.02	62.172
337.38	63.519
337.75	62.478
338.11	62.668
338.47	63.444
338.84	63.886
339.20	60.550
339.56	64.325
339.93	64.182
340.29	63.134
340.65	62.121
341.02	63.613
341.38	63.790
341.74	63.158
342.11	63.231
342.47	64.493
342.83	63.185
343.20	63.896
343.56	63.353
343.92	64.123
344.28	62.160
344.65	64.402
345.01	62.626
345.37	61.664
345.73	64.805
346.10	64.706
346.46	63.898
346.82	63.097
347.19	64.829
347.55	63.875
347.91	63.916
348.27	64.585
348.63	64.214
349.00	63.188
349.36	62.315
349.72	62.550
350.08	63.857
350.45	64.443
350.81	63.769
351.17	63.452
351.53	64.865
351.89	62.129
352.26	62.904
352.62	62.550
352.98	63.614
353.34	64.092
353.70	63.912
354.07	65.645
354.43	63.730
354.79	63.475
355.15	63.767
355.51	66.507
355.87	66.449
356.24	65.228
356.60	62.951
356.96	65.648
357.32	66.558
357.68	64.646
358.04	64.133
358.40	65.558
358.77	64.554
359.13	64.246
359.49	64.863
359.85	65.397
360.21	67.145
360.57	66.226
360.93	66.154
361.29	66.440
361.66	64.241
362.02	65.597
362.38	66.388
362.74	66.964
363.10	66.913
363.46	66.691
363.82	67.271
364.18	65.345
364.54	68.351
364.90	66.289
365.26	67.500
365.62	67.275
365.98	67.421
366.35	65.616
366.71	67.245
367.07	66.642
367.43	68.940
367.79	67.595
368.15	69.468
368.51	68.677
368.87	68.237
369.23	68.252
369.59	68.863
369.95	69.853
370.31	68.162
370.67	67.391
371.03	69.513
371.39	69.606
371.75	70.809
372.11	70.128
372.47	71.041
372.83	72.190
373.19	70.231
373.55	71.397
373.91	73.196
374.27	69.210
374.63	72.218
374.99	72.669
375.35	71.319
375.71	71.213
376.07	70.988
376.42	72.283
376.78	72.763
377.14	71.642
377.50	72.583
377.86	73.271
378.22	73.388
378.58	72.055
378.94	73.916
379.30	74.237
379.66	74.683
380.02	73.403
380.38	72.435
380.74	74.730
381.09	74.450
381.45	76.214
381.81	73.649
382.17	75.414
382.53	75.849
382.89	75.556
383.25	75.547
383.61	77.261
383.97	75.235
384.32	76.045
384.68	75.403
385.04	77.566
385.40	75.294
385.76	75.737
386.12	77.202
386.48	77.281
386.83	79.217
387.19	79.035
387.55	78.541
387.91	76.784
388.27	76.640
388.62	79.963
388.98	76.904
389.34	77.597
389.70	76.763
390.06	79.278
390.42	79.702
390.77	78.499
391.13	79.643
391.49	79.886
391.85	79.949
392.20	78.738
392.56	79.293
392.92	80.577
393.28	78.225
393.64	78.657
393.99	77.520
394.35	79.094
394.71	78.858
395.07	78.505
395.42	81.520
395.78	80.153
396.14	79.454
396.50	82.080
396.85	80.165
397.21	80.456
397.57	79.107
397.92	79.748
398.28	81.726
398.64	80.167
399.00	78.400
399.35	79.244
399.71	79.688
400.07	78.770
400.42	79.509
400.78	80.579
401.14	79.817
401.49	81.134
401.85	79.855
402.21	77.126
402.57	79.642
402.92	79.382
403.28	80.887
403.63	80.631
403.99	79.554
404.35	80.364
404.70	80.276
405.06	78.800
405.42	81.098
405.77	78.743
406.13	78.950
406.49	80.485
406.84	78.145
407.20	79.846
407.55	79.068
407.91	81.933
408.27	81.366
408.62	79.771
408.98	79.657
409.34	79.582
409.69	79.806
410.05	80.855
410.40	81.162
410.76	79.630
411.11	78.227
411.47	78.914
411.83	79.658
412.18	78.973
412.54	81.009
412.89	78.614
413.25	78.512
413.60	79.926
413.96	77.231
414.31	78.372
414.67	78.961
415.03	80.199
415.38	79.446
415.74	78.521
416.09	80.405
416.45	79.987
416.80	80.040
417.16	80.831
417.51	81.022
417.87	78.227
418.22	78.170
418.58	80.181
418.93	78.747
419.29	78.740
419.64	78.338
420.00	79.085
420.35	78.899
420.71	79.558
421.06	79.177
421.42	78.304
421.77	79.036
422.12	79.394
422.48	77.604
422.83	79.033
423.19	78.564
423.54	79.745
423.90	78.667
424.25	78.224
424.61	78.155
424.96	79.417
425.31	78.682
425.67	77.528
426.02	77.829
426.38	78.816
426.73	78.233
427.09	78.541
427.44	78.033
427.79	78.838
428.15	79.286
428.50	77.531
428.85	78.605
429.21	77.637
429.56	79.575
429.92	77.554
430.27	78.550
430.62	77.880
430.98	78.827
431.33	76.959
431.68	79.319
432.04	76.997
432.39	79.555
432.74	78.815
433.10	79.683
433.45	80.000
433.80	79.989
434.16	77.030
434.51	77.158
434.86	77.480
435.22	79.211
435.57	78.663
435.92	78.701
436.28	78.944
436.63	78.201
436.98	79.050
437.34	79.308
437.69	78.646
438.04	77.797
438.39	78.687
438.75	79.140
439.10	78.324
439.45	78.099
439.81	79.456
440.16	76.680
440.51	77.856
440.86	78.518
441.22	78.810
441.57	78.132
441.92	78.608
442.27	78.310
442.63	78.515
442.98	79.155
443.33	78.641
443.68	77.956
444.03	77.355
444.39	77.118
444.74	78.680
445.09	77.466
445.44	76.982
445.79	76.249
446.15	75.701
446.50	77.760
446.85	77.801
447.20	76.747
447.55	78.727
447.91	77.992
448.26	77.184
448.61	78.067
448.96	76.910
449.31	78.965
449.66	76.984
450.02	77.827
450.37	76.020
450.72	77.327
451.07	77.453
451.42	75.927
451.77	75.807
452.12	74.942
452.47	76.493
452.83	77.156
453.18	73.716
453.53	78.231
453.88	75.901
454.23	75.732
454.58	76.863
454.93	78.830
455.28	75.249
455.63	77.306
455.98	77.917
456.34	76.319
456.69	78.084
457.04	77.152
457.39	77.323
457.74	77.017
458.09	76.481
458.44	76.454
458.79	74.892
459.14	76.129
459.49	76.824
459.84	76.066
460.19	75.015
460.54	73.958
460.89	75.370
461.24	76.867
461.59	77.106
461.94	74.476
462.29	73.947
462.64	74.474
462.99	73.520
463.34	75.333
463.69	75.860
464.04	74.841
464.39	74.319
464.74	74.332
465.09	74.729
465.44	75.346
465.79	74.944
466.14	73.892
466.49	73.471
466.84	73.847
467.19	73.808
467.54	73.938
467.89	73.169
468.24	73.124
468.59	74.054
468.94	73.244
469.29	73.522
469.64	74.766
469.99	73.613
470.34	73.184
470.68	74.497
471.03	73.129
471.38	75.261
471.73	73.551
472.08	73.750
472.43	73.116
472.78	73.667
473.13	73.107
473.48	72.534
473.83	74.939
474.17	73.927
474.52	74.007
474.87	72.855
475.22	73.825
475.57	71.198
475.92	73.287
476.27	71.646
476.61	72.201
476.96	72.677
477.31	71.900
477.66	71.718
478.01	70.361
478.36	72.554
478.70	71.495
479.05	70.873
479.40	72.262
479.75	71.886
480.10	72.962
480.45	70.395
480.79	71.285
481.14	71.477
481.49	71.998
481.84	72.245
482.19	70.831
482.53	70.688
482.88	71.568
483.23	71.075
483.58	70.792
483.92	71.228
484.27	70.196
484.62	71.681
484.97	70.989
485.31	74.795
485.66	75.762
486.01	73.324
486.36	70.110
486.70	66.709
487.05	68.290
487.40	69.765
487.75	68.976
488.09	69.336
488.44	68.245
488.79	69.982
489.13	69.481
489.48	69.576
489.83	69.486
490.17	69.838
490.52	68.778
490.87	68.611
491.22	69.486
491.56	69.112
491.91	68.637
492.26	68.029
492.60	68.203
492.95	68.522
493.30	68.738
493.64	69.342
493.99	68.384
494.34	68.131
494.68	68.086
495.03	67.904
495.37	65.938
495.72	69.152
496.07	69.281
496.41	66.681
496.76	67.854
497.11	66.096
497.45	67.257
497.80	67.466
498.14	67.488
498.49	67.024
498.84	67.737
499.18	66.810
499.53	67.284
499.87	66.309
500.22	66.274
500.56	68.641
500.91	66.202
501.26	66.050
501.60	68.771
501.95	66.132
502.29	68.416
502.64	67.039
502.98	66.152
503.33	65.631
503.67	65.151
504.02	66.230
504.36	65.559
504.71	66.146
505.06	65.205
505.40	65.143
505.75	65.429
506.09	66.327
506.44	67.094
506.78	65.416
507.13	66.835
507.47	65.152
507.82	65.856
508.16	66.059
508.51	67.123
508.85	65.641
509.19	66.224
509.54	64.592
509.88	65.997
510.23	65.964
510.57	65.893
510.92	64.889
511.26	64.954
511.61	64.834
511.95	63.883
512.30	64.104
512.64	64.696
512.98	65.970
513.33	64.936
513.67	62.807
514.02	64.610
514.36	65.374
514.70	65.468
515.05	64.194
515.39	65.395
515.74	64.977
516.08	63.611
516.42	64.872
516.77	65.719
517.11	64.206
517.46	64.108
517.80	63.589
518.14	63.752
518.49	65.344
518.83	62.955
519.17	64.838
519.52	64.177
519.86	63.149
520.20	62.948
520.55	64.692
520.89	65.024
521.23	64.958
521.58	63.565
521.92	65.401
522.26	62.355
522.61	64.112
522.95	62.554
523.29	64.090
523.64	64.085
523.98	64.572
524.32	64.475
524.66	63.079
525.01	63.051
525.35	62.887
525.69	62.069
526.04	62.679
526.38	63.758
526.72	61.350
527.06	62.398
527.41	62.005
527.75	63.151
528.09	64.483
528.43	62.524
528.78	64.843
529.12	62.970
529.46	62.462
529.80	62.252
530.15	63.863
530.49	61.600
530.83	62.342
531.17	64.556
531.51	63.878
531.86	63.677
532.20	63.103
532.54	62.460
532.88	62.644
533.22	61.711
533.57	61.914
533.91	61.830
534.25	62.940
534.59	62.050
534.93	62.522
535.27	62.040
535.62	62.393
535.96	63.277
536.30	62.556
536.64	61.429
536.98	62.110
537.32	62.541
537.66	63.933
538.01	63.660
538.35	61.603
538.69	62.923
539.03	62.508
539.37	61.342
539.71	60.272
540.05	62.876
540.39	62.392
540.73	60.737
541.07	62.427
541.42	62.948
541.76	62.645
542.10	62.549
542.44	62.517
542.78	62.978
543.12	60.141
543.46	61.967
543.80	61.874
544.14	61.553
544.48	62.349
544.82	62.476
545.16	62.004
545.50	60.733
545.84	62.366
546.18	62.155
546.52	60.220
546.86	60.893
547.20	61.902
547.54	60.788
547.88	62.564
548.22	61.893
548.56	61.321
548.90	60.499
549.24	61.077
549.58	61.460
549.92	60.096
550.26	61.932
550.60	59.751
550.94	61.408
551.28	59.254
551.62	62.114
551.96	60.842
552.30	60.478
552.64	61.799
552.98	60.678
553.32	59.137
553.66	61.486
554.00	60.673
554.34	59.558
554.68	60.372
555.02	59.591
555.36	60.056
555.69	59.472
556.03	58.883
556.37	60.573
556.71	60.368
557.05	59.454
557.39	58.083
557.73	60.198
558.07	60.624
558.41	59.262
558.75	59.809
559.08	60.328
559.42	60.091
559.76	59.926
560.10	58.387
560.44	61.705
560.78	58.683
561.12	59.301
561.45	58.866
561.79	58.471
562.13	59.490
562.47	59.016
562.81	59.623
563.15	59.264
563.48	58.687
563.82	59.100
564.16	60.955
564.50	59.245
564.84	58.786
565.17	59.266
565.51	59.808
565.85	59.327
566.19	58.860
566.52	60.038
566.86	59.373
567.20	59.906
567.54	59.817
567.88	59.967
568.21	59.471
568.55	60.010
568.89	60.700
569.23	59.225
569.56	60.243
569.90	61.623
570.24	60.675
570.57	59.028
570.91	59.276
571.25	59.450
571.59	59.617
571.92	60.023
572.26	59.359
572.60	58.709
572.93	57.631
573.27	59.272
573.61	59.604
573.95	60.749
574.28	58.719
574.62	59.524
574.96	58.638
575.29	58.002
575.63	58.333
575.97	58.344
576.30	58.603
576.64	59.237
576.98	59.042
577.31	59.774
577.65	59.414
577.98	59.389
578.32	58.797
578.66	58.889
578.99	58.503
579.33	58.751
579.67	57.991
580.00	58.835
580.34	58.353
580.67	58.804
581.01	58.624
581.35	59.644
581.68	60.089
582.02	58.860
582.35	59.042
582.69	58.253
583.02	57.920
583.36	58.474
583.70	57.817
584.03	57.732
584.37	58.445
584.70	59.013
585.04	57.608
585.37	58.295
585.71	58.835
586.04	57.913
586.38	58.516
586.72	58.741
587.05	57.892
587.39	58.021
587.72	57.846
588.06	57.604
588.39	58.272
588.73	57.788
589.06	58.429
589.40	57.980
589.73	58.113
590.07	58.363
590.40	57.106
590.73	57.650
591.07	58.323
591.40	57.655
591.74	58.268
592.07	57.243
592.41	57.048
592.74	58.277
593.08	57.595
593.41	58.146
593.75	56.340
594.08	56.889
594.41	56.734
594.75	57.375
595.08	56.621
595.42	57.128
595.75	56.766
596.09	57.116
596.42	56.306
596.75	57.197
597.09	56.190
597.42	56.282
597.75	57.007
598.09	55.783
598.42	55.756
598.76	57.844
599.09	57.165
599.42	56.259
599.76	57.174
600.09	55.628
600.42	55.625
600.76	55.429
601.09	55.410
601.42	55.708
601.76	56.395
602.09	56.601
602.42	56.807
602.76	55.582
603.09	56.884
603.42	57.009
603.76	55.488
604.09	56.417
604.42	55.116
604.76	56.474
605.09	56.444
605.42	55.195
605.75	55.339
606.09	56.039
606.42	56.314
606.75	55.122
607.09	55.253
607.42	55.755
607.75	54.726
608.08	55.406
608.42	54.863
608.75	53.652
609.08	54.625
609.41	54.117
609.75	53.788
610.08	56.173
610.41	55.354
610.74	56.717
611.07	55.583
611.41	55.201
611.74	55.907
612.07	55.538
612.40	55.404
612.73	55.632
613.07	55.442
613.40	55.556
613.73	54.588
614.06	55.108
614.39	54.379
614.72	54.316
615.06	54.044
615.39	54.140
615.72	54.346
616.05	53.270
616.38	54.364
616.71	53.979
617.05	54.711
617.38	54.600
617.71	55.195
618.04	55.950
618.37	54.760
618.70	54.325
619.03	53.750
619.36	53.768
619.69	54.577
620.03	55.151
620.36	53.075
620.69	56.096
621.02	55.088
621.35	52.153
621.68	52.570
622.01	53.793
622.34	55.749
622.67	54.144
623.00	51.724
623.33	51.966
623.66	54.110
623.99	55.670
624.32	54.351
624.65	53.884
624.99	53.683
625.32	53.005
625.65	53.569
625.98	56.264
626.31	53.888
626.64	54.531
626.97	53.200
627.30	52.868
627.63	54.225
627.96	53.070
628.29	53.018
628.62	52.790
628.95	53.585
629.28	51.460
629.61	51.879
629.94	53.905
630.26	54.528
630.59	54.147
