SpectraSuite Data File
++++++++++++++++++++++++++++++++++++
Date: Wed May 13 16:03:00 PDT 2015
User: schluterlab
Dark Spectrum Present: Yes
Reference Spectrum Present: Yes
Number of Sampled Component Spectra: 1
Spectrometers: USB2E3373
Integration Time (usec): 3000 (USB2E3373)
Spectra Averaged: 3 (USB2E3373)
Boxcar Smoothing: 0 (USB2E3373)
Correct for Electrical Dark: No (USB2E3373)
Strobe/Lamp Enabled: No (USB2E3373)
Correct for Detector Non-linearity: No (USB2E3373)
Correct for Stray Light: No (USB2E3373)
Number of Pixels in Processed Spectrum: 2048
>>>>>Begin Processed Spectral Data<<<<<
178.53	0.000
178.91	-650.000
179.29	-775.000
179.67	-72.222
180.04	-575.000
180.42	1250.000
180.80	540.000
181.18	-400.000
181.56	214.286
181.94	0.000
182.31	-200.000
182.69	500.000
183.07	-250.000
183.45	-277.778
183.83	263.636
184.20	-70.000
184.58	350.000
184.96	3000.000
185.34	-260.000
185.72	-350.000
186.09	-550.000
186.47	800.000
186.85	1050.000
187.23	2100.000
187.61	-600.000
187.98	600.000
188.36	200.000
188.74	263.636
189.12	-400.000
189.49	210.000
189.87	-2000.000
190.25	-600.000
190.63	242.857
191.00	153.846
191.38	516.667
191.76	-500.000
192.14	550.000
192.51	237.500
192.89	466.667
193.27	87.500
193.65	-550.000
194.02	350.000
194.40	280.000
194.78	190.000
195.15	216.667
195.53	280.000
195.91	-850.000
196.29	131.250
196.66	147.368
197.04	-70.000
197.42	0.000
197.79	380.000
198.17	-1600.000
198.55	300.000
198.92	400.000
199.30	400.000
199.68	0.000
200.05	205.556
200.43	471.429
200.81	1800.000
201.18	600.000
201.56	-833.333
201.94	211.111
202.31	266.667
202.69	216.667
203.07	230.000
203.44	0.000
203.82	500.000
204.19	385.714
204.57	278.571
204.95	162.500
205.32	566.667
205.70	254.545
206.08	157.143
206.45	1150.000
206.83	181.250
207.20	433.333
207.58	220.000
207.96	144.444
208.33	300.000
208.71	-266.667
209.08	314.286
209.46	311.111
209.84	200.000
210.21	-433.333
210.59	575.000
210.96	-175.000
211.34	500.000
211.71	250.000
212.09	366.667
212.46	0.000
212.84	933.333
213.22	500.000
213.59	-1800.000
213.97	366.667
214.34	328.571
214.72	327.273
215.09	580.000
215.47	-500.000
215.84	-1500.000
216.22	533.333
216.59	157.143
216.97	625.000
217.34	200.000
217.72	-133.333
218.09	0.000
218.47	-2400.000
218.84	433.333
219.22	300.000
219.59	766.667
219.97	-300.000
220.34	280.000
220.72	-1000.000
221.09	157.143
221.47	550.000
221.84	-333.333
222.22	0.000
222.59	750.000
222.97	-1000.000
223.34	500.000
223.72	169.231
224.09	620.000
224.46	750.000
224.84	-2000.000
225.21	-300.000
225.59	-2700.000
225.96	320.000
226.34	170.000
226.71	1000.000
227.08	325.000
227.46	270.000
227.83	-400.000
228.21	-950.000
228.58	266.667
228.95	-550.000
229.33	-950.000
229.70	800.000
230.08	314.286
230.45	-300.000
230.82	183.333
231.20	366.667
231.57	157.143
231.95	175.000
232.32	100.000
232.69	181.818
233.07	257.143
233.44	138.462
233.81	-866.667
234.19	157.895
234.56	241.667
234.93	166.667
235.31	154.545
235.68	92.308
236.05	135.714
236.43	100.000
236.80	105.263
237.17	1900.000
237.55	95.238
237.92	107.143
238.29	157.143
238.67	109.677
239.04	131.034
239.41	27.778
239.79	67.391
240.16	76.190
240.53	54.545
240.91	47.059
241.28	50.000
241.65	52.000
242.02	49.275
242.40	40.323
242.77	35.000
243.14	39.785
243.51	44.944
243.89	41.176
244.26	35.556
244.63	34.409
245.00	24.468
245.38	42.574
245.75	35.514
246.12	22.936
246.49	39.416
246.87	40.000
247.24	32.308
247.61	29.286
247.98	32.026
248.36	22.973
248.73	21.656
249.10	29.299
249.47	30.508
249.84	26.738
250.22	22.460
250.59	22.485
250.96	23.232
251.33	24.645
251.70	28.218
252.08	23.333
252.45	17.937
252.82	21.739
253.19	19.574
253.56	20.392
253.94	23.651
254.31	22.656
254.68	22.692
255.05	21.033
255.42	19.919
255.79	25.000
256.16	22.022
256.54	17.314
256.91	21.708
257.28	14.748
257.65	17.822
258.02	21.118
258.39	17.035
258.76	22.074
259.14	22.917
259.51	20.669
259.88	16.770
260.25	19.637
260.62	19.075
260.99	20.807
261.36	19.219
261.73	17.765
262.10	15.116
262.47	16.901
262.85	15.042
263.22	16.239
263.59	21.083
263.96	21.703
264.33	17.755
264.70	19.474
265.07	19.949
265.44	18.939
265.81	14.599
266.18	18.342
266.55	16.585
266.92	19.902
267.29	17.593
267.66	17.202
268.03	15.455
268.40	17.991
268.77	15.752
269.14	17.117
269.51	16.930
269.88	17.249
270.25	16.704
270.62	17.079
270.99	20.000
271.36	17.597
271.73	14.486
272.10	15.652
272.47	18.495
272.84	17.316
273.21	19.497
273.58	14.847
273.95	16.562
274.32	14.463
274.69	14.347
275.06	16.732
275.43	17.021
275.80	16.032
276.17	17.108
276.54	17.256
276.91	17.194
277.28	15.625
277.65	20.309
278.02	15.321
278.39	17.773
278.76	17.273
279.13	16.038
279.50	17.132
279.87	16.932
280.23	16.367
280.60	14.894
280.97	14.603
281.34	16.106
281.71	16.909
282.08	16.891
282.45	14.727
282.82	15.986
283.19	14.795
283.56	16.491
283.92	17.090
284.29	16.049
284.66	17.423
285.03	16.275
285.40	15.141
285.77	16.498
286.14	14.853
286.51	16.167
286.87	15.556
287.24	15.798
287.61	15.088
287.98	14.935
288.35	14.422
288.72	15.109
289.08	14.397
289.45	14.168
289.82	14.959
290.19	13.972
290.56	16.080
290.93	14.350
291.29	14.724
291.66	15.487
292.03	15.552
292.40	16.300
292.77	14.645
293.13	15.522
293.50	15.452
293.87	15.704
294.24	12.889
294.60	13.537
294.97	15.407
295.34	14.528
295.71	15.199
296.08	12.963
296.44	14.718
296.81	14.399
297.18	15.718
297.55	12.401
297.91	13.720
298.28	15.797
298.65	14.752
299.02	14.097
299.38	14.210
299.75	11.321
300.12	12.899
300.48	13.625
300.85	14.427
301.22	13.758
301.59	13.258
301.95	13.224
302.32	13.607
302.69	13.501
303.05	13.697
303.42	13.704
303.79	13.024
304.15	12.587
304.52	12.399
304.89	12.660
305.25	12.645
305.62	13.817
305.99	13.459
306.35	13.758
306.72	13.341
307.09	15.094
307.45	15.090
307.82	14.174
308.19	14.459
308.55	15.534
308.92	13.104
309.29	12.883
309.65	13.468
310.02	15.116
310.38	14.086
310.75	13.622
311.12	13.818
311.48	14.002
311.85	14.675
312.22	13.944
312.58	12.786
312.95	14.678
313.31	12.621
313.68	14.345
314.05	16.469
314.41	13.869
314.78	15.005
315.14	14.499
315.51	15.345
315.87	15.941
316.24	14.399
316.61	14.425
316.97	14.775
317.34	14.775
317.70	15.105
318.07	14.533
318.43	15.460
318.80	15.370
319.16	15.725
319.53	14.259
319.89	15.810
320.26	17.100
320.62	14.782
320.99	15.354
321.35	15.960
321.72	17.967
322.08	16.979
322.45	17.711
322.81	16.376
323.18	18.593
323.54	16.141
323.91	16.604
324.27	17.113
324.64	16.589
325.00	17.313
325.37	18.835
325.73	17.953
326.10	17.123
326.46	17.473
326.83	18.896
327.19	18.617
327.56	17.683
327.92	18.810
328.29	19.432
328.65	18.877
329.01	18.141
329.38	18.409
329.74	19.114
330.11	19.698
330.47	20.661
330.84	19.945
331.20	17.760
331.56	18.899
331.93	18.981
332.29	17.924
332.66	19.646
333.02	17.550
333.38	20.145
333.75	19.162
334.11	19.128
334.48	18.012
334.84	19.669
335.20	19.273
335.57	18.404
335.93	19.821
336.29	18.315
336.66	19.748
337.02	17.919
337.38	19.259
337.75	18.717
338.11	18.711
338.47	18.600
338.84	17.690
339.20	16.881
339.56	18.704
339.93	18.636
340.29	17.935
340.65	18.717
341.02	18.325
341.38	19.395
341.74	19.211
342.11	18.865
342.47	17.885
342.83	18.493
343.20	18.095
343.56	17.607
343.92	17.719
344.28	19.303
344.65	17.025
345.01	17.929
345.37	17.067
345.73	17.851
346.10	18.073
346.46	16.949
346.82	17.133
347.19	17.377
347.55	17.323
347.91	19.094
348.27	18.735
348.63	18.562
349.00	17.395
349.36	18.062
349.72	17.161
350.08	17.828
350.45	17.819
350.81	18.197
351.17	18.720
351.53	18.264
351.89	18.069
352.26	19.179
352.62	18.204
352.98	18.476
353.34	18.324
353.70	17.021
354.07	17.258
354.43	17.937
354.79	16.975
355.15	17.159
355.51	18.145
355.87	18.286
356.24	17.915
356.60	17.482
356.96	17.538
357.32	19.052
357.68	17.874
358.04	18.606
358.40	17.973
358.77	18.701
359.13	17.364
359.49	17.490
359.85	17.222
360.21	17.544
360.57	18.132
360.93	18.769
361.29	17.763
361.66	16.718
362.02	18.806
362.38	18.023
362.74	19.420
363.10	18.135
363.46	17.461
363.82	18.896
364.18	18.062
364.54	19.465
364.90	18.697
365.26	18.750
365.62	18.919
365.98	17.896
366.35	17.693
366.71	18.583
367.07	18.281
367.43	18.650
367.79	19.129
368.15	19.397
368.51	18.023
368.87	19.129
369.23	18.727
369.59	18.899
369.95	19.779
370.31	19.160
370.67	18.116
371.03	20.449
371.39	18.950
371.75	19.265
372.11	19.132
372.47	19.941
372.83	20.749
373.19	19.075
373.55	19.290
373.91	20.324
374.27	19.244
374.63	19.491
374.99	19.845
375.35	18.842
375.71	20.082
376.07	20.165
376.42	21.802
376.78	20.676
377.14	20.285
377.50	21.788
377.86	20.811
378.22	21.239
378.58	20.238
378.94	20.805
379.30	20.165
379.66	21.003
380.02	21.437
380.38	20.765
380.74	21.248
381.09	20.844
381.45	21.758
381.81	21.929
382.17	21.783
382.53	21.132
382.89	21.975
383.25	21.951
383.61	22.243
383.97	22.326
384.32	22.583
384.68	22.181
385.04	22.311
385.40	21.548
385.76	22.113
386.12	22.539
386.48	22.404
386.83	22.771
387.19	23.686
387.55	23.315
387.91	22.491
388.27	22.134
388.62	22.618
388.98	22.359
389.34	22.778
389.70	23.421
390.06	23.511
390.42	23.735
390.77	23.028
391.13	23.995
391.49	23.731
391.85	23.616
392.20	22.713
392.56	22.980
392.92	23.602
393.28	22.426
393.64	22.722
393.99	23.091
394.35	23.883
394.71	23.212
395.07	23.178
395.42	23.548
395.78	23.919
396.14	24.271
396.50	24.561
396.85	24.285
397.21	22.935
397.57	23.993
397.92	23.918
398.28	22.702
398.64	23.596
399.00	23.055
399.35	23.407
399.71	23.322
400.07	24.246
400.42	24.356
400.78	24.427
401.14	23.720
401.49	24.358
401.85	23.472
402.21	23.952
402.57	23.936
402.92	24.653
403.28	24.047
403.63	23.577
403.99	23.885
404.35	23.697
404.70	24.161
405.06	23.704
405.42	24.329
405.77	23.486
406.13	24.041
406.49	23.714
406.84	23.981
407.20	22.754
407.55	23.995
407.91	24.000
408.27	24.186
408.62	23.961
408.98	23.346
409.34	23.924
409.69	23.806
410.05	23.854
410.40	23.180
410.76	23.477
411.11	23.040
411.47	23.514
411.83	24.313
412.18	22.820
412.54	24.595
412.89	24.398
413.25	23.554
413.60	23.780
413.96	23.862
414.31	23.269
414.67	23.828
415.03	24.702
415.38	23.776
415.74	24.244
416.09	24.494
416.45	24.163
416.80	23.265
417.16	24.531
417.51	24.154
417.87	23.571
418.22	24.732
418.58	24.467
418.93	23.833
419.29	23.361
419.64	24.370
420.00	24.024
420.35	24.290
420.71	24.507
421.06	23.389
421.42	23.567
421.77	23.823
422.12	22.572
422.48	22.882
422.83	23.704
423.19	24.862
423.54	23.389
423.90	23.826
424.25	24.176
424.61	24.167
424.96	23.499
425.31	23.477
425.67	23.371
426.02	22.629
426.38	24.054
426.73	23.581
427.09	23.708
427.44	23.807
427.79	23.577
428.15	24.643
428.50	23.757
428.85	24.434
429.21	22.971
429.56	23.432
429.92	23.452
430.27	22.890
430.62	23.605
430.98	23.716
431.33	23.763
431.68	24.293
432.04	23.642
432.39	24.272
432.74	24.237
433.10	23.656
433.45	24.023
433.80	23.448
434.16	23.718
434.51	23.579
434.86	24.458
435.22	23.346
435.57	23.708
435.92	22.937
436.28	23.962
436.63	24.172
436.98	23.068
437.34	23.852
437.69	24.329
438.04	23.834
438.39	23.522
438.75	23.765
439.10	23.240
439.45	24.439
439.81	23.867
440.16	23.885
440.51	24.546
440.86	22.988
441.22	23.359
441.57	23.248
441.92	24.104
442.27	23.628
442.63	23.065
442.98	24.282
443.33	23.533
443.68	23.129
444.03	23.572
444.39	23.320
444.74	23.755
445.09	23.989
445.44	23.510
445.79	24.542
446.15	23.769
446.50	24.017
446.85	23.330
447.20	23.610
447.55	22.836
447.91	24.324
448.26	23.929
448.61	24.194
448.96	23.920
449.31	23.453
449.66	23.973
450.02	22.953
450.37	23.243
450.72	23.576
451.07	22.364
451.42	23.161
451.77	23.136
452.12	23.268
452.47	22.948
452.83	24.359
453.18	23.227
453.53	23.253
453.88	22.859
454.23	23.730
454.58	23.683
454.93	24.921
455.28	23.753
455.63	23.786
455.98	24.702
456.34	22.927
456.69	24.296
457.04	22.848
457.39	23.670
457.74	22.751
458.09	23.577
458.44	23.090
458.79	22.180
459.14	23.928
459.49	23.059
459.84	23.047
460.19	23.335
460.54	23.322
460.89	24.081
461.24	23.194
461.59	24.927
461.94	24.044
462.29	24.392
462.64	23.740
462.99	22.642
463.34	24.533
463.69	22.827
464.04	24.232
464.39	23.826
464.74	23.470
465.09	22.316
465.44	22.548
465.79	22.260
466.14	22.660
466.49	22.803
466.84	23.117
467.19	23.416
467.54	23.312
467.89	22.569
468.24	23.328
468.59	24.054
468.94	22.053
469.29	23.008
469.64	23.963
469.99	23.478
470.34	22.919
470.68	23.851
471.03	23.401
471.38	24.392
471.73	22.985
472.08	23.487
472.43	23.618
472.78	23.173
473.13	23.813
473.48	23.533
473.83	23.110
474.17	22.651
474.52	23.759
474.87	23.643
475.22	23.215
475.57	23.375
475.92	23.101
476.27	23.393
476.61	22.559
476.96	23.419
477.31	23.077
477.66	22.484
478.01	22.896
478.36	23.162
478.70	22.793
479.05	23.163
479.40	23.746
479.75	23.132
480.10	22.913
480.45	22.703
480.79	22.647
481.14	22.505
481.49	22.971
481.84	22.542
482.19	23.762
482.53	22.156
482.88	22.941
483.23	23.411
483.58	22.748
483.92	23.383
484.27	22.222
484.62	22.241
484.97	22.428
485.31	22.603
485.66	21.632
486.01	21.223
486.36	20.303
486.70	20.040
487.05	20.523
487.40	20.991
487.75	21.030
488.09	21.717
488.44	21.714
488.79	22.423
489.13	22.154
489.48	21.900
489.83	22.313
490.17	22.359
490.52	21.479
490.87	22.433
491.22	22.237
491.56	21.686
491.91	21.731
492.26	21.543
492.60	22.120
492.95	21.469
493.30	22.150
493.64	22.352
493.99	21.588
494.34	22.109
494.68	22.573
495.03	21.805
495.37	22.336
495.72	22.320
496.07	22.459
496.41	20.973
496.76	21.856
497.11	21.747
497.45	22.031
497.80	22.217
498.14	21.256
498.49	21.854
498.84	22.004
499.18	21.143
499.53	21.652
499.87	21.948
500.22	22.186
500.56	22.476
500.91	21.058
501.26	21.669
501.60	22.402
501.95	21.357
502.29	22.306
502.64	22.300
502.98	21.365
503.33	21.892
503.67	22.181
504.02	21.328
504.36	21.853
504.71	22.179
505.06	21.735
505.40	21.731
505.75	21.649
506.09	21.769
506.44	22.200
506.78	21.870
507.13	22.413
507.47	22.475
507.82	22.340
508.16	22.391
508.51	22.171
508.85	21.897
509.19	22.347
509.54	21.837
509.88	21.947
510.23	21.902
510.57	23.117
510.92	22.165
511.26	22.816
511.61	22.718
511.95	21.712
512.30	22.163
512.64	21.709
512.98	22.079
513.33	22.912
513.67	22.092
514.02	22.511
514.36	22.283
514.70	22.634
515.05	22.253
515.39	23.163
515.74	22.241
516.08	22.471
516.42	23.751
516.77	23.133
517.11	22.309
517.46	23.363
517.80	22.880
518.14	21.424
518.49	22.229
518.83	22.330
519.17	22.806
519.52	23.430
519.86	22.590
520.20	22.775
520.55	22.920
520.89	23.114
521.23	23.341
521.58	22.629
521.92	22.719
522.26	22.209
522.61	23.053
522.95	22.529
523.29	23.068
523.64	23.171
523.98	23.044
524.32	22.195
524.66	22.971
525.01	23.039
525.35	22.119
525.69	22.906
526.04	22.492
526.38	22.453
526.72	22.883
527.06	22.348
527.41	21.658
527.75	22.444
528.09	23.314
528.43	22.753
528.78	24.032
529.12	22.485
529.46	23.209
529.80	22.525
530.15	22.804
530.49	22.338
530.83	23.038
531.17	22.781
531.51	24.384
531.86	22.645
532.20	23.924
532.54	23.126
532.88	22.914
533.22	22.923
533.57	22.346
533.91	21.794
534.25	22.053
534.59	22.819
534.93	22.427
535.27	22.028
535.62	21.123
535.96	22.662
536.30	21.488
536.64	22.344
536.98	22.362
537.32	22.317
537.66	21.533
538.01	22.054
538.35	22.495
538.69	22.399
539.03	22.222
539.37	21.278
539.71	20.933
540.05	21.569
540.39	22.326
540.73	21.022
541.07	22.583
541.42	21.918
541.76	22.968
542.10	22.962
542.44	22.384
542.78	21.739
543.12	22.137
543.46	22.689
543.80	21.926
544.14	21.309
544.48	22.413
544.82	21.809
545.16	22.056
545.50	21.465
545.84	20.968
546.18	22.020
546.52	21.817
546.86	20.275
547.20	21.982
547.54	21.443
547.88	22.832
548.22	21.980
548.56	21.384
548.90	20.743
549.24	20.875
549.58	21.965
549.92	21.978
550.26	21.520
550.60	20.539
550.94	21.338
551.28	22.092
551.62	21.783
551.96	21.965
552.30	22.935
552.64	21.433
552.98	22.237
553.32	21.510
553.66	23.245
554.00	21.688
554.34	21.049
554.68	21.674
555.02	21.580
555.36	21.364
555.69	21.651
556.03	21.669
556.37	22.169
556.71	21.214
557.05	21.429
557.39	22.253
557.73	21.807
558.07	21.537
558.41	21.563
558.75	21.602
559.08	21.178
559.42	22.373
559.76	22.353
560.10	20.985
560.44	21.803
560.78	21.091
561.12	22.164
561.45	21.773
561.79	21.094
562.13	21.261
562.47	20.423
562.81	20.642
563.15	21.204
563.48	21.618
563.82	20.548
564.16	20.275
564.50	20.182
564.84	20.733
565.17	20.849
565.51	20.575
565.85	20.558
566.19	19.850
566.52	21.406
566.86	19.349
567.20	21.226
567.54	20.377
567.88	20.043
568.21	20.053
568.55	19.869
568.89	19.698
569.23	20.187
569.56	19.474
569.90	19.925
570.24	19.160
570.57	18.939
570.91	18.908
571.25	18.376
571.59	18.822
571.92	18.692
572.26	18.689
572.60	18.769
572.93	18.441
573.27	18.870
573.61	18.621
573.95	18.605
574.28	17.990
574.62	18.222
574.96	18.280
575.29	18.429
575.63	18.572
575.97	18.615
576.30	18.030
576.64	18.373
576.98	18.303
577.31	18.091
577.65	18.263
577.98	17.953
578.32	17.732
578.66	17.820
578.99	17.667
579.33	17.865
579.67	18.025
580.00	18.005
580.34	18.462
580.67	18.223
581.01	18.394
581.35	17.816
581.68	17.779
582.02	17.859
582.35	17.758
582.69	17.870
583.02	17.786
583.36	17.777
583.70	17.907
584.03	18.417
584.37	18.076
584.70	18.260
585.04	18.469
585.37	18.010
585.71	17.951
586.04	18.265
586.38	18.182
586.72	18.724
587.05	18.283
587.39	17.625
587.72	18.681
588.06	17.796
588.39	18.354
588.73	18.363
589.06	18.791
589.40	18.653
589.73	18.198
590.07	18.185
590.40	18.159
590.73	19.321
591.07	19.129
591.40	18.979
591.74	19.957
592.07	18.935
592.41	18.768
592.74	17.940
593.08	18.055
593.41	18.538
593.75	18.145
594.08	18.840
594.41	18.558
594.75	18.743
595.08	18.754
595.42	18.319
595.75	18.661
596.09	18.738
596.42	18.939
596.75	19.206
597.09	18.658
597.42	18.128
597.75	18.111
598.09	18.261
598.42	18.857
598.76	17.998
599.09	17.978
599.42	18.486
599.76	18.411
600.09	17.923
600.42	18.517
600.76	17.821
601.09	18.288
601.42	18.227
601.76	18.444
602.09	18.419
602.42	18.670
602.76	18.904
603.09	18.804
603.42	18.704
603.76	18.216
604.09	18.418
604.42	18.182
604.76	19.148
605.09	18.785
605.42	18.170
605.75	18.088
606.09	18.097
606.42	18.512
606.75	18.623
607.09	19.297
607.42	17.929
607.75	17.975
608.08	18.454
608.42	19.319
608.75	18.620
609.08	18.085
609.41	18.610
609.75	19.104
610.08	19.604
610.41	18.156
610.74	18.165
611.07	19.071
611.41	18.106
611.74	19.608
612.07	19.203
612.40	18.783
612.73	19.000
613.07	19.504
613.40	18.905
613.73	17.567
614.06	18.817
614.39	18.249
614.72	19.684
615.06	19.118
615.39	18.524
615.72	19.018
616.05	18.235
616.38	19.066
616.71	18.646
617.05	18.610
617.38	19.423
617.71	19.219
618.04	19.591
618.37	18.924
618.70	19.415
619.03	18.816
619.36	19.077
619.69	19.296
620.03	18.750
620.36	19.519
620.69	20.411
621.02	20.133
621.35	19.577
621.68	19.315
622.01	19.659
622.34	19.062
622.67	19.316
623.00	18.489
623.33	19.228
623.66	19.657
623.99	19.293
624.32	19.900
624.65	19.562
624.99	18.343
625.32	18.827
625.65	19.234
625.98	19.754
626.31	19.051
626.64	19.673
626.97	19.618
627.30	19.784
627.63	20.345
627.96	20.017
628.29	20.910
628.62	20.769
628.95	21.132
629.28	20.438
629.61	20.990
629.94	21.143
630.26	20.114
630.59	20.305
630.92	21.552
631.25	19.941
631.58	21.021
631.91	20.284
632.24	21.097
