SpectraSuite Data File
++++++++++++++++++++++++++++++++++++
Date: Wed May 13 16:48:10 PDT 2015
User: schluterlab
Dark Spectrum Present: Yes
Reference Spectrum Present: Yes
Number of Sampled Component Spectra: 1
Spectrometers: USB2E3373
Integration Time (usec): 3000 (USB2E3373)
Spectra Averaged: 3 (USB2E3373)
Boxcar Smoothing: 0 (USB2E3373)
Correct for Electrical Dark: No (USB2E3373)
Strobe/Lamp Enabled: No (USB2E3373)
Correct for Detector Non-linearity: No (USB2E3373)
Correct for Stray Light: No (USB2E3373)
Number of Pixels in Processed Spectrum: 2048
>>>>>Begin Processed Spectral Data<<<<<
178.53	0.000
178.91	-1225.000
179.29	-1200.000
179.67	-222.222
180.04	-1000.000
180.42	2600.000
180.80	1120.000
181.18	-1200.000
181.56	742.857
181.94	0.000
182.31	-685.714
182.69	1600.000
183.07	-650.000
183.45	-488.889
183.83	518.182
184.20	-280.000
184.58	1900.000
184.96	5200.000
185.34	-880.000
185.72	-625.000
186.09	-1850.000
186.47	2450.000
186.85	2650.000
187.23	4800.000
187.61	-1700.000
187.98	1225.000
188.36	500.000
188.74	436.364
189.12	-980.000
189.49	500.000
189.87	-4500.000
190.25	-1275.000
190.63	435.714
191.00	346.154
191.38	716.667
191.76	-1100.000
192.14	1400.000
192.51	587.500
192.89	883.333
193.27	575.000
193.65	-1075.000
194.02	430.000
194.40	1040.000
194.78	410.000
195.15	450.000
195.53	610.000
195.91	-1750.000
196.29	343.750
196.66	289.474
197.04	-380.000
197.42	0.000
197.79	670.000
198.17	-4400.000
198.55	742.857
198.92	775.000
199.30	1140.000
199.68	0.000
200.05	316.667
200.43	557.143
200.81	4400.000
201.18	1666.667
201.56	-1366.667
201.94	522.222
202.31	644.444
202.69	400.000
203.07	540.000
203.44	0.000
203.82	1325.000
204.19	628.571
204.57	450.000
204.95	687.500
205.32	1600.000
205.70	481.818
206.08	357.143
206.45	2500.000
206.83	350.000
207.20	983.333
207.58	940.000
207.96	255.556
208.33	725.000
208.71	-766.667
209.08	671.429
209.46	444.444
209.84	500.000
210.21	-1366.667
210.59	1225.000
210.96	-475.000
211.34	2250.000
211.71	610.000
212.09	716.667
212.46	0.000
212.84	1733.333
213.22	1350.000
213.59	-4200.000
213.97	900.000
214.34	814.286
214.72	527.273
215.09	1180.000
215.47	-1900.000
215.84	-2600.000
216.22	1600.000
216.59	407.143
216.97	1425.000
217.34	409.091
217.72	-716.667
218.09	0.000
218.47	-4600.000
218.84	588.889
219.22	742.857
219.59	1566.667
219.97	-671.429
220.34	980.000
220.72	-1866.667
221.09	428.571
221.47	1300.000
221.84	-783.333
222.22	0.000
222.59	1175.000
222.97	-2250.000
223.34	1100.000
223.72	400.000
224.09	1020.000
224.46	2350.000
224.84	-5100.000
225.21	-1080.000
225.59	-4300.000
225.96	620.000
226.34	255.000
226.71	2450.000
227.08	562.500
227.46	510.000
227.83	-1125.000
228.21	-2450.000
228.58	522.222
228.95	-2350.000
229.33	-1950.000
229.70	1633.333
230.08	614.286
230.45	-860.000
230.82	500.000
231.20	866.667
231.57	542.857
231.95	533.333
232.32	259.091
232.69	400.000
233.07	528.571
233.44	323.077
233.81	-1900.000
234.19	263.158
234.56	416.667
234.93	441.667
235.31	418.182
235.68	376.923
236.05	271.429
236.43	190.909
236.80	236.842
237.17	4000.000
237.55	195.238
237.92	196.429
238.29	247.619
238.67	148.387
239.04	179.310
239.41	130.556
239.79	95.652
240.16	123.810
240.53	127.273
240.91	101.961
241.28	100.000
241.65	78.000
242.02	82.609
242.40	66.129
242.77	83.333
243.14	62.366
243.51	61.798
243.89	64.706
244.26	50.000
244.63	52.688
245.00	51.064
245.38	47.525
245.75	40.187
246.12	42.202
246.49	52.555
246.87	48.800
247.24	51.538
247.61	37.143
247.98	39.216
248.36	31.757
248.73	35.669
249.10	36.943
249.47	33.898
249.84	34.759
250.22	32.620
250.59	27.811
250.96	31.818
251.33	32.227
251.70	31.188
252.08	31.905
252.45	28.700
252.82	26.522
253.19	30.638
253.56	23.137
253.94	29.046
254.31	25.781
254.68	24.615
255.05	26.568
255.42	23.577
255.79	23.162
256.16	24.549
256.54	18.375
256.91	25.267
257.28	21.942
257.65	22.442
258.02	25.466
258.39	23.975
258.76	16.722
259.14	22.917
259.51	19.757
259.88	20.497
260.25	22.054
260.62	23.699
260.99	21.429
261.36	23.123
261.73	21.203
262.10	15.988
262.47	19.718
262.85	18.663
263.22	19.943
263.59	22.222
263.96	18.407
264.33	20.366
264.70	18.684
265.07	23.274
265.44	17.172
265.81	15.328
266.18	16.583
266.55	17.317
266.92	17.199
267.29	17.361
267.66	18.578
268.03	16.364
268.40	16.355
268.77	14.320
269.14	17.793
269.51	16.930
269.88	19.114
270.25	15.801
270.62	15.955
270.99	19.570
271.36	19.099
271.73	15.187
272.10	17.609
272.47	18.280
272.84	17.100
273.21	18.868
273.58	17.467
273.95	14.675
274.32	16.322
274.69	15.632
275.06	13.780
275.43	17.234
275.80	17.034
276.17	16.904
276.54	18.295
276.91	15.020
277.28	15.234
277.65	15.280
278.02	13.458
278.39	15.625
278.76	15.636
279.13	15.660
279.50	16.574
279.87	13.944
280.23	13.972
280.60	13.346
280.97	15.342
281.34	15.398
281.71	16.000
282.08	13.820
282.45	13.273
282.82	14.565
283.19	11.586
283.56	14.211
283.92	15.228
284.29	14.815
284.66	13.793
285.03	15.371
285.40	13.204
285.77	13.468
286.14	14.853
286.51	15.167
286.87	14.701
287.24	13.518
287.61	13.804
287.98	13.312
288.35	13.788
288.72	14.019
289.08	13.615
289.45	11.203
289.82	12.195
290.19	13.972
290.56	12.098
290.93	10.574
291.29	13.957
291.66	12.094
292.03	13.081
292.40	12.922
292.77	12.426
293.13	13.433
293.50	12.682
293.87	14.963
294.24	10.667
294.60	13.537
294.97	11.628
295.34	13.822
295.71	12.358
296.08	11.823
296.44	13.067
296.81	10.832
297.18	12.873
297.55	8.839
297.91	10.818
298.28	12.851
298.65	12.533
299.02	13.834
299.38	12.085
299.75	12.129
300.12	11.239
300.48	12.500
300.85	13.564
301.22	12.484
301.59	12.374
301.95	12.846
302.32	12.195
302.69	12.306
303.05	13.939
303.42	10.370
303.79	13.024
304.15	12.238
304.52	11.472
304.89	11.382
305.25	11.369
305.62	13.024
305.99	13.695
306.35	12.975
306.72	11.996
307.09	12.542
307.45	14.189
307.82	11.830
308.19	13.245
308.55	14.995
308.92	13.749
309.29	13.305
309.65	14.528
310.02	14.059
310.38	14.839
310.75	14.256
311.12	15.558
311.48	15.569
311.85	15.618
312.22	16.129
312.58	15.696
312.95	16.262
313.31	15.340
313.68	17.256
314.05	18.836
314.41	18.191
314.78	17.925
315.14	18.272
315.51	18.538
315.87	18.812
316.24	18.570
316.61	19.103
316.97	18.689
317.34	19.276
317.70	20.076
318.07	20.308
318.43	20.939
318.80	22.399
319.16	21.281
319.53	22.795
319.89	24.286
320.26	25.200
320.62	25.000
320.99	24.747
321.35	26.869
321.72	26.694
322.08	28.825
322.45	29.254
322.81	29.360
323.18	29.094
323.54	30.334
323.91	30.189
324.27	32.314
324.64	32.432
325.00	33.363
325.37	36.306
325.73	37.971
326.10	36.099
326.46	37.276
326.83	38.309
327.19	39.283
327.56	39.721
327.92	41.557
328.29	42.236
328.65	43.370
329.01	43.863
329.38	44.866
329.74	43.583
330.11	45.712
330.47	45.271
330.84	44.301
331.20	44.444
331.56	46.972
331.93	47.130
332.29	48.004
332.66	47.876
333.02	47.349
333.38	48.148
333.75	49.287
334.11	47.598
334.48	46.406
334.84	49.540
335.20	50.091
335.57	48.776
335.93	48.304
336.29	49.817
336.66	49.324
337.02	50.045
337.38	50.370
337.75	49.465
338.11	50.582
338.47	52.394
338.84	52.429
339.20	52.110
339.56	52.099
339.93	50.636
340.29	50.725
340.65	51.248
341.02	51.134
341.38	52.224
341.74	54.123
342.11	51.878
342.47	53.921
342.83	51.969
343.20	52.900
343.56	51.896
343.92	53.246
344.28	52.211
344.65	52.193
345.01	51.431
345.37	52.830
345.73	53.299
346.10	54.817
346.46	52.627
346.82	52.718
347.19	54.553
347.55	52.381
347.91	54.288
348.27	54.396
348.63	54.348
349.00	53.236
349.36	53.859
349.72	54.130
350.08	53.323
350.45	53.946
350.81	54.996
351.17	55.186
351.53	55.201
351.89	53.218
352.26	55.328
352.62	55.974
352.98	55.511
353.34	56.039
353.70	55.319
354.07	55.565
354.43	54.921
354.79	55.109
355.15	54.589
355.51	56.195
355.87	56.653
356.24	56.759
356.60	56.455
356.96	57.442
357.32	56.582
357.68	56.614
358.04	56.611
358.40	56.849
358.77	56.182
359.13	56.906
359.49	56.941
359.85	55.873
360.21	57.257
360.57	58.444
360.93	59.462
361.29	58.050
361.66	57.585
362.02	57.463
362.38	57.719
362.74	58.259
363.10	58.105
363.46	57.887
363.82	58.957
364.18	58.076
364.54	58.544
364.90	57.649
365.26	58.824
365.62	59.606
365.98	58.875
366.35	58.453
366.71	59.436
367.07	59.505
367.43	60.015
367.79	59.886
368.15	60.273
368.51	59.084
368.87	60.457
369.23	60.132
369.59	60.101
369.95	59.191
370.31	59.544
370.67	60.725
371.03	62.397
371.39	61.516
371.75	61.618
372.11	60.811
372.47	62.463
372.83	62.824
373.19	61.922
373.55	62.528
373.91	63.770
374.27	61.100
374.63	61.745
374.99	63.136
375.35	62.107
375.71	61.549
376.07	61.866
376.42	63.274
376.78	62.624
377.14	62.687
377.50	63.245
377.86	63.298
378.22	61.947
378.58	62.469
378.94	61.659
379.30	63.168
379.66	64.721
380.02	62.838
380.38	62.720
380.74	65.066
381.09	63.875
381.45	64.659
381.81	64.865
382.17	64.968
382.53	62.264
382.89	66.481
383.25	64.665
383.61	65.737
383.97	64.353
384.32	64.691
384.68	65.242
385.04	63.921
385.40	64.954
385.76	62.776
386.12	65.609
386.48	65.513
386.83	67.607
387.19	66.110
387.55	65.306
387.91	64.208
388.27	63.826
388.62	65.827
388.98	64.435
389.34	67.146
389.70	65.481
390.06	67.237
390.42	66.796
390.77	66.985
391.13	67.326
391.49	65.292
391.85	66.200
392.20	66.372
392.56	66.288
392.92	65.803
393.28	65.740
393.64	64.209
393.99	64.386
394.35	65.199
394.71	63.739
395.07	64.361
395.42	66.996
395.78	65.903
396.14	64.432
396.50	65.288
396.85	65.226
397.21	65.166
397.57	66.026
397.92	66.046
398.28	63.957
398.64	63.978
399.00	64.354
399.35	64.636
399.71	64.236
400.07	65.109
400.42	63.865
400.78	65.380
401.14	65.061
401.49	65.075
401.85	64.912
402.21	62.515
402.57	64.960
402.92	66.835
403.28	64.522
403.63	65.037
403.99	64.968
404.35	65.030
404.70	64.209
405.06	64.589
405.42	64.691
405.77	62.743
406.13	62.528
406.49	62.271
406.84	62.374
407.20	63.239
407.55	63.816
407.91	66.200
408.27	64.582
408.62	61.409
408.98	63.297
409.34	63.592
409.69	62.968
410.05	63.321
410.40	63.303
410.76	63.859
411.11	62.364
411.47	62.748
411.83	63.592
412.18	62.647
412.54	62.204
412.89	62.048
413.25	62.338
413.60	62.693
413.96	60.231
414.31	62.394
414.67	61.850
415.03	62.185
415.38	61.985
415.74	62.765
416.09	62.051
416.45	61.446
416.80	63.252
417.16	63.271
417.51	62.575
417.87	61.336
418.22	62.461
418.58	62.040
418.93	61.609
419.29	61.362
419.64	61.461
420.00	61.829
420.35	60.464
420.71	62.224
421.06	60.919
421.42	61.696
421.77	61.211
422.12	60.752
422.48	59.903
422.83	61.852
423.19	58.785
423.54	60.998
423.90	61.275
424.25	60.413
424.61	59.762
424.96	61.283
425.31	60.133
425.67	58.764
426.02	59.486
426.38	61.538
426.73	60.913
427.09	59.878
427.44	61.415
427.79	60.667
428.15	60.476
428.50	59.977
428.85	61.025
429.21	60.077
429.56	58.994
429.92	59.084
430.27	58.193
430.62	58.781
430.98	58.588
431.33	58.299
431.68	59.058
432.04	58.094
432.39	59.794
432.74	60.024
433.10	60.045
433.45	60.000
433.80	58.980
434.16	57.479
434.51	57.158
434.86	58.723
435.22	57.588
435.57	58.784
435.92	58.163
436.28	59.371
436.63	58.664
436.98	59.015
437.34	57.543
437.69	58.460
438.04	60.596
438.39	59.821
438.75	58.977
439.10	56.927
439.45	59.799
439.81	58.369
440.16	57.143
440.51	57.645
440.86	59.004
441.22	57.564
441.57	57.059
441.92	58.649
442.27	57.481
442.63	57.188
442.98	56.958
443.33	57.446
443.68	57.305
444.03	57.687
444.39	55.842
444.74	58.225
445.09	55.741
445.44	55.167
445.79	56.111
446.15	55.109
446.50	56.758
446.85	56.783
447.20	56.808
447.55	56.505
447.91	56.536
448.26	54.869
448.61	57.547
448.96	57.087
449.31	56.412
449.66	55.881
450.02	55.432
450.37	55.782
450.72	56.796
451.07	56.063
451.42	54.833
451.77	56.371
452.12	55.023
452.47	55.659
452.83	55.653
453.18	56.235
453.53	55.411
453.88	54.873
454.23	55.888
454.58	56.511
454.93	56.961
455.28	55.860
455.63	55.643
455.98	56.131
456.34	55.590
456.69	54.477
457.04	56.347
457.39	53.770
457.74	54.962
458.09	55.147
458.44	54.960
458.79	52.440
459.14	54.120
459.49	54.057
459.84	53.407
460.19	53.388
460.54	53.009
460.89	53.483
461.24	53.977
461.59	54.561
461.94	53.637
462.29	54.896
462.64	52.840
462.99	52.960
463.34	54.267
463.69	53.846
464.04	53.217
464.39	51.652
464.74	53.060
465.09	52.051
465.44	51.911
465.79	51.510
466.14	51.450
466.49	51.112
466.84	51.489
467.19	50.151
467.54	51.625
467.89	51.681
468.24	50.902
468.59	52.015
468.94	51.558
469.29	52.378
469.64	52.410
469.99	52.165
470.34	53.170
470.68	51.509
471.03	51.497
471.38	52.745
471.73	51.166
472.08	52.566
472.43	50.942
472.78	51.020
473.13	51.091
473.48	51.935
473.83	49.756
474.17	50.467
474.52	50.868
474.87	51.138
475.22	50.551
475.57	48.469
475.92	49.230
476.27	49.154
476.61	49.586
476.96	49.093
477.31	49.032
477.66	49.836
478.01	47.517
478.36	49.392
478.70	48.546
479.05	49.414
479.40	49.335
479.75	49.670
480.10	48.310
480.45	48.263
480.79	47.587
481.14	48.386
481.49	48.363
481.84	47.005
482.19	48.160
482.53	47.431
482.88	47.324
483.23	47.430
483.58	47.316
483.92	48.032
484.27	45.882
484.62	47.371
484.97	46.354
485.31	47.089
485.66	45.206
486.01	43.220
486.36	41.347
486.70	40.867
487.05	42.061
487.40	43.156
487.75	43.949
488.09	45.223
488.44	44.930
488.79	45.642
489.13	45.416
489.48	46.289
489.83	45.965
490.17	46.383
490.52	45.926
490.87	45.455
491.22	46.294
491.56	45.057
491.91	45.789
492.26	45.659
492.60	45.945
492.95	45.229
493.30	44.533
493.64	44.237
493.99	43.640
494.34	44.357
494.68	44.414
495.03	44.831
495.37	44.532
495.72	44.981
496.07	44.919
496.41	42.965
496.76	44.063
497.11	42.683
497.45	43.968
497.80	44.050
498.14	43.865
498.49	44.293
498.84	43.384
499.18	44.048
499.53	43.495
499.87	44.828
500.22	43.900
500.56	43.689
500.91	42.837
501.26	43.054
501.60	44.471
501.95	42.576
502.29	43.205
502.64	43.296
502.98	42.637
503.33	42.505
503.67	42.367
504.02	42.376
504.36	42.115
504.71	41.964
505.06	42.313
505.40	41.857
505.75	41.418
506.09	41.983
506.44	43.118
506.78	42.133
507.13	42.807
507.47	43.485
507.82	42.199
508.16	43.870
508.51	42.263
508.85	41.758
509.19	42.602
509.54	41.888
509.88	41.473
510.23	41.594
510.57	41.796
510.92	41.999
511.26	42.086
511.61	41.701
511.95	42.223
512.30	41.729
512.64	42.558
512.98	42.283
513.33	41.595
513.67	40.288
514.02	41.017
514.36	42.217
514.70	42.446
515.05	40.881
515.39	41.615
515.74	41.441
516.08	41.420
516.42	40.566
516.77	41.862
517.11	41.287
517.46	41.591
517.80	41.347
518.14	41.170
518.49	40.957
518.83	39.943
519.17	40.762
519.52	41.483
519.86	40.844
520.20	41.387
520.55	42.968
520.89	42.640
521.23	42.642
521.58	40.336
521.92	41.396
522.26	40.696
522.61	41.433
522.95	40.331
523.29	40.657
523.64	40.549
523.98	40.357
524.32	40.229
524.66	41.491
525.01	40.502
525.35	40.644
525.69	40.086
526.04	40.312
526.38	40.207
526.72	39.693
527.06	40.490
527.41	38.552
527.75	39.871
528.09	39.627
528.43	39.962
528.78	40.504
529.12	39.636
529.46	38.273
529.80	39.913
530.15	40.249
530.49	38.338
530.83	40.316
531.17	40.144
531.51	41.180
531.86	40.065
532.20	39.505
532.54	39.462
532.88	39.153
533.22	38.976
533.57	38.580
533.91	37.146
534.25	37.667
534.59	38.438
534.93	38.073
535.27	36.753
535.62	38.645
535.96	38.795
536.30	38.589
536.64	38.442
536.98	38.819
537.32	37.722
537.66	38.000
538.01	38.183
538.35	37.363
538.69	38.673
539.03	37.622
539.37	36.550
539.71	36.099
540.05	37.582
540.39	38.738
540.73	35.964
541.07	37.638
541.42	38.356
541.76	37.935
542.10	37.710
542.44	37.152
542.78	38.011
543.12	35.317
543.46	36.918
543.80	37.411
544.14	36.521
544.48	36.825
544.82	35.600
545.16	36.435
545.50	35.925
545.84	37.030
546.18	36.027
546.52	37.646
546.86	36.357
547.20	37.424
547.54	36.339
547.88	36.224
548.22	35.616
548.56	35.660
548.90	35.211
549.24	35.286
549.58	36.085
549.92	35.440
550.26	36.577
550.60	34.647
550.94	35.775
551.28	35.113
551.62	35.802
551.96	35.228
552.30	35.358
552.64	36.241
552.98	35.322
553.32	35.401
553.66	35.446
554.00	35.209
554.34	34.990
554.68	35.837
555.02	35.684
555.36	34.586
555.69	34.506
556.03	34.320
556.37	33.765
556.71	33.765
557.05	36.134
557.39	34.710
557.73	35.074
558.07	35.968
558.41	34.515
558.75	35.562
559.08	35.720
559.42	35.374
559.76	34.265
560.10	35.189
560.44	34.172
560.78	33.001
561.12	34.169
561.45	35.137
561.79	32.894
562.13	33.535
562.47	33.197
562.81	34.728
563.15	32.843
563.48	33.289
563.82	33.790
564.16	33.878
564.50	32.292
564.84	32.933
565.17	34.041
565.51	33.419
565.85	32.741
566.19	33.375
566.52	32.996
566.86	32.007
567.20	33.844
567.54	32.249
567.88	31.396
568.21	31.640
568.55	30.991
568.89	31.420
569.23	30.258
569.56	30.324
569.90	29.698
570.24	29.566
570.57	29.208
570.91	28.022
571.25	28.382
571.59	28.630
571.92	28.485
572.26	28.278
572.60	28.108
572.93	28.576
573.27	28.897
573.61	28.057
573.95	27.726
574.28	27.563
574.62	27.478
574.96	27.312
575.29	26.552
575.63	27.312
575.97	27.519
576.30	27.775
576.64	27.319
576.98	27.151
577.31	27.472
577.65	27.079
577.98	27.041
578.32	26.628
578.66	26.331
578.99	26.706
579.33	27.378
579.67	26.368
580.00	26.684
580.34	27.290
580.67	27.251
581.01	27.187
581.35	27.143
581.68	26.465
582.02	26.133
582.35	26.022
582.69	26.303
583.02	26.198
583.36	26.908
583.70	27.298
584.03	27.691
584.37	27.826
584.70	27.247
585.04	26.786
585.37	26.142
585.71	26.527
586.04	26.142
586.38	26.907
586.72	27.672
587.05	27.058
587.39	26.174
587.72	26.849
588.06	26.734
588.39	27.270
588.73	27.251
589.06	27.298
589.40	27.306
589.73	28.054
590.07	27.936
590.40	27.183
590.73	28.806
591.07	29.223
591.40	28.342
591.74	29.091
592.07	28.185
592.41	28.069
592.74	27.041
593.08	26.516
593.41	26.384
593.75	25.953
594.08	26.785
594.41	26.653
594.75	27.098
595.08	27.344
595.42	27.426
595.75	27.208
596.09	27.525
596.42	27.937
596.75	27.733
597.09	28.701
597.42	26.602
597.75	28.029
598.09	28.000
598.42	27.448
598.76	26.510
599.09	26.530
599.42	27.038
599.76	26.428
600.09	26.120
600.42	26.260
600.76	26.464
601.09	26.120
601.42	26.408
601.76	26.376
602.09	26.838
602.42	26.831
602.76	27.207
603.09	27.065
603.42	26.669
603.76	26.677
604.09	26.289
604.42	26.294
604.76	27.119
605.09	26.387
605.42	27.533
605.75	26.697
606.09	26.434
606.42	26.563
606.75	26.047
607.09	26.162
607.42	26.145
607.75	25.823
608.08	25.923
608.42	27.028
608.75	26.510
609.08	27.058
609.41	26.940
609.75	26.394
610.08	27.050
610.41	26.443
610.74	27.294
611.07	26.630
611.41	26.693
611.74	27.099
612.07	27.070
612.40	27.964
612.73	27.263
613.07	27.909
613.40	27.383
613.73	26.848
614.06	26.344
614.39	26.429
614.72	26.842
615.06	26.733
615.39	26.539
615.72	25.920
616.05	26.050
616.38	27.626
616.71	27.850
617.05	26.737
617.38	27.601
617.71	27.267
618.04	28.185
618.37	27.203
618.70	28.127
619.03	28.553
619.36	27.902
619.69	29.437
620.03	28.571
620.36	28.810
620.69	28.904
621.02	29.425
621.35	28.504
621.68	27.648
622.01	28.483
622.34	28.744
622.67	29.430
623.00	26.486
623.33	28.020
623.66	27.734
623.99	28.792
624.32	27.889
624.65	28.460
624.99	27.337
625.32	26.937
625.65	26.822
625.98	28.132
626.31	28.072
626.64	29.878
626.97	28.263
627.30	29.510
627.63	28.712
627.96	28.680
628.29	28.259
628.62	29.369
628.95	30.849
629.28	30.201
629.61	30.156
629.94	29.429
630.26	27.931
630.59	30.219
630.92	28.927
