SpectraSuite Data File
++++++++++++++++++++++++++++++++++++
Date: Wed May 13 16:47:37 PDT 2015
User: schluterlab
Dark Spectrum Present: Yes
Reference Spectrum Present: Yes
Number of Sampled Component Spectra: 1
Spectrometers: USB2E3373
Integration Time (usec): 3000 (USB2E3373)
Spectra Averaged: 3 (USB2E3373)
Boxcar Smoothing: 0 (USB2E3373)
Correct for Electrical Dark: No (USB2E3373)
Strobe/Lamp Enabled: No (USB2E3373)
Correct for Detector Non-linearity: No (USB2E3373)
Correct for Stray Light: No (USB2E3373)
Number of Pixels in Processed Spectrum: 2048
>>>>>Begin Processed Spectral Data<<<<<
178.53	0.000
178.91	-1450.000
179.29	-1125.000
179.67	-161.111
180.04	-1300.000
180.42	2100.000
180.80	1180.000
181.18	-1275.000
181.56	557.143
181.94	0.000
182.31	-842.857
182.69	1500.000
183.07	-525.000
183.45	-422.222
183.83	481.818
184.20	-340.000
184.58	2550.000
184.96	4100.000
185.34	-780.000
185.72	-625.000
186.09	-2500.000
186.47	2350.000
186.85	2550.000
187.23	5000.000
187.61	-1833.333
187.98	1275.000
188.36	481.818
188.74	445.455
189.12	-780.000
189.49	520.000
189.87	-4800.000
190.25	-1100.000
190.63	371.429
191.00	484.615
191.38	833.333
191.76	-900.000
192.14	1525.000
192.51	612.500
192.89	1116.667
193.27	487.500
193.65	-1025.000
194.02	520.000
194.40	860.000
194.78	610.000
195.15	458.333
195.53	680.000
195.91	-1900.000
196.29	293.750
196.66	326.316
197.04	-290.000
197.42	0.000
197.79	540.000
198.17	-4500.000
198.55	757.143
198.92	650.000
199.30	920.000
199.68	0.000
200.05	311.111
200.43	700.000
200.81	3500.000
201.18	1400.000
201.56	-1066.667
201.94	600.000
202.31	511.111
202.69	416.667
203.07	520.000
203.44	0.000
203.82	1075.000
204.19	757.143
204.57	414.286
204.95	575.000
205.32	1233.333
205.70	445.455
206.08	307.143
206.45	2150.000
206.83	350.000
207.20	866.667
207.58	820.000
207.96	366.667
208.33	687.500
208.71	-733.333
209.08	728.571
209.46	488.889
209.84	481.818
210.21	-1200.000
210.59	1275.000
210.96	-475.000
211.34	2350.000
211.71	570.000
212.09	766.667
212.46	0.000
212.84	1333.333
213.22	1150.000
213.59	-4200.000
213.97	866.667
214.34	771.429
214.72	600.000
215.09	1020.000
215.47	-2500.000
215.84	-2500.000
216.22	1766.667
216.59	371.429
216.97	1325.000
217.34	445.455
217.72	-583.333
218.09	0.000
218.47	-4700.000
218.84	700.000
219.22	700.000
219.59	1733.333
219.97	-600.000
220.34	1040.000
220.72	-1566.667
221.09	385.714
221.47	1525.000
221.84	-900.000
222.22	0.000
222.59	1375.000
222.97	-2300.000
223.34	960.000
223.72	392.308
224.09	920.000
224.46	1900.000
224.84	-5000.000
225.21	-1040.000
225.59	-5200.000
225.96	610.000
226.34	235.000
226.71	2250.000
227.08	562.500
227.46	490.000
227.83	-1300.000
228.21	-2100.000
228.58	566.667
228.95	-2450.000
229.33	-2200.000
229.70	1700.000
230.08	628.571
230.45	-780.000
230.82	366.667
231.20	716.667
231.57	571.429
231.95	425.000
232.32	213.636
232.69	381.818
233.07	600.000
233.44	346.154
233.81	-1466.667
234.19	278.947
234.56	400.000
234.93	341.667
235.31	400.000
235.68	276.923
236.05	342.857
236.43	166.667
236.80	163.158
237.17	4300.000
237.55	161.905
237.92	171.429
238.29	219.048
238.67	141.935
239.04	172.414
239.41	138.889
239.79	102.174
240.16	107.143
240.53	106.818
240.91	92.157
241.28	92.000
241.65	84.000
242.02	84.058
242.40	87.097
242.77	66.667
243.14	55.914
243.51	55.056
243.89	48.235
244.26	50.000
244.63	38.710
245.00	54.255
245.38	41.584
245.75	37.383
246.12	31.193
246.49	45.255
246.87	41.600
247.24	40.000
247.61	37.857
247.98	37.255
248.36	29.054
248.73	29.299
249.10	33.121
249.47	29.944
249.84	29.947
250.22	25.134
250.59	28.402
250.96	21.212
251.33	28.910
251.70	31.683
252.08	27.619
252.45	21.076
252.82	21.304
253.19	23.830
253.56	19.216
253.94	22.822
254.31	19.922
254.68	23.077
255.05	19.188
255.42	17.480
255.79	15.809
256.16	21.661
256.54	15.194
256.91	16.726
257.28	11.151
257.65	17.822
258.02	16.770
258.39	14.511
258.76	17.057
259.14	17.857
259.51	19.757
259.88	14.286
260.25	15.408
260.62	14.162
260.99	8.696
261.36	16.216
261.73	13.754
262.10	15.116
262.47	14.366
262.85	15.320
263.22	11.396
263.59	17.379
263.96	12.637
264.33	14.621
264.70	16.053
265.07	15.090
265.44	13.889
265.81	11.436
266.18	13.317
266.55	15.122
266.92	10.565
267.29	12.963
267.66	12.385
268.03	11.364
268.40	13.084
268.77	10.740
269.14	11.937
269.51	13.318
269.88	10.723
270.25	13.093
270.62	10.787
270.99	13.978
271.36	11.159
271.73	8.411
272.10	11.739
272.47	12.688
272.84	12.987
273.21	12.579
273.58	11.135
273.95	10.692
274.32	9.711
274.69	9.636
275.06	10.236
275.43	12.766
275.80	9.820
276.17	10.591
276.54	12.266
276.91	11.660
277.28	11.328
277.65	9.284
278.02	7.453
278.39	8.594
278.76	10.909
279.13	10.566
279.50	9.870
279.87	10.956
280.23	11.377
280.60	10.058
280.97	9.612
281.34	12.389
281.71	12.000
282.08	9.405
282.45	8.727
282.82	8.348
283.19	9.269
283.56	8.772
283.92	9.137
284.29	8.818
284.66	8.167
285.03	9.222
285.40	10.035
285.77	9.428
286.14	8.290
286.51	9.167
286.87	9.573
287.24	10.423
287.61	9.149
287.98	8.766
288.35	8.399
288.72	9.502
289.08	9.703
289.45	7.084
289.82	10.894
290.19	8.791
290.56	10.260
290.93	8.006
291.29	8.129
291.66	8.112
292.03	9.012
292.40	9.692
292.77	10.503
293.13	10.149
293.50	7.726
293.87	7.111
294.24	6.963
294.60	6.987
294.97	8.285
295.34	10.860
295.71	7.955
296.08	6.838
296.44	7.015
296.81	6.341
297.18	9.621
297.55	5.541
297.91	6.201
298.28	6.426
298.65	9.661
299.02	7.642
299.38	6.640
299.75	5.121
300.12	6.130
300.48	6.375
300.85	8.508
301.22	6.115
301.59	6.692
301.95	5.793
302.32	6.033
302.69	6.810
303.05	6.182
303.42	6.790
303.79	6.682
304.15	5.944
304.52	6.257
304.89	5.575
305.25	6.961
305.62	6.229
305.99	7.084
306.35	6.711
306.72	5.717
307.09	7.214
307.45	7.207
307.82	5.022
308.19	6.181
308.55	6.796
308.92	6.552
309.29	5.491
309.65	5.726
310.02	5.603
310.38	6.667
310.75	5.913
311.12	5.527
311.48	7.732
311.85	7.023
312.22	5.827
312.58	5.925
312.95	6.547
313.31	5.534
313.68	6.549
314.05	7.594
314.41	5.628
314.78	6.546
315.14	6.157
315.51	6.179
315.87	6.535
316.24	5.958
316.61	7.310
316.97	6.067
317.34	4.892
317.70	6.597
318.07	5.005
318.43	5.675
318.80	7.498
319.16	5.650
319.53	4.972
319.89	6.286
320.26	7.400
320.62	6.052
320.99	6.869
321.35	6.869
321.72	6.674
322.08	6.614
322.45	6.070
322.81	7.461
323.18	7.514
323.54	6.401
323.91	6.981
324.27	5.832
324.64	5.312
325.00	5.681
325.37	6.915
325.73	8.079
326.10	6.796
326.46	5.197
326.83	6.557
327.19	6.661
327.56	5.488
327.92	5.862
328.29	6.832
328.65	6.446
329.01	7.671
329.38	5.365
329.74	5.817
330.11	6.503
330.47	6.336
330.84	8.272
331.20	6.466
331.56	7.339
331.93	5.278
332.29	7.187
332.66	7.345
333.02	6.124
333.38	6.956
333.75	7.308
334.11	6.584
334.48	6.744
334.84	6.342
335.20	6.727
335.57	6.437
335.93	5.804
336.29	6.502
336.66	5.410
337.02	6.063
337.38	6.019
337.75	5.615
338.11	7.431
338.47	5.709
338.84	6.324
339.20	6.055
339.56	7.847
339.93	5.727
340.29	5.888
340.65	5.882
341.02	7.504
341.38	6.940
341.74	5.526
342.11	6.201
342.47	5.991
342.83	6.507
343.20	6.840
343.56	6.655
343.92	6.140
344.28	5.697
344.65	7.137
345.01	5.640
345.37	5.146
345.73	5.753
346.10	6.138
346.46	6.271
346.82	5.437
347.19	4.595
347.55	6.158
347.91	7.039
348.27	7.231
348.63	6.355
349.00	6.392
349.36	5.911
349.72	6.014
350.08	6.483
350.45	5.940
350.81	6.336
351.17	6.159
351.53	6.224
351.89	5.116
352.26	6.314
352.62	6.415
352.98	6.402
353.34	5.998
353.70	5.155
354.07	6.210
354.43	5.556
354.79	5.149
355.15	5.427
355.51	6.954
355.87	5.714
356.24	5.863
356.60	5.774
356.96	4.827
357.32	5.233
357.68	6.378
358.04	5.859
358.40	6.968
358.77	6.416
359.13	5.130
359.49	5.098
359.85	4.127
360.21	5.423
360.57	6.070
360.93	5.846
361.29	5.593
361.66	5.650
362.02	5.821
362.38	5.171
362.74	5.952
363.10	5.181
363.46	5.282
363.82	5.291
364.18	5.286
364.54	6.018
364.90	5.382
365.26	4.191
365.62	4.894
365.98	4.529
366.35	4.656
366.71	5.929
367.07	5.171
367.43	4.354
367.79	5.853
368.15	6.394
368.51	5.160
368.87	5.353
369.23	5.413
369.59	5.503
369.95	5.221
370.31	5.057
370.67	5.435
371.03	5.843
371.39	4.956
371.75	5.000
372.11	5.405
372.47	6.158
372.83	5.476
373.19	4.769
373.55	6.282
373.91	6.186
374.27	5.430
374.63	5.455
374.99	5.720
375.35	4.955
375.71	5.415
376.07	6.584
376.42	4.952
376.78	5.832
377.14	5.360
377.50	6.358
377.86	4.854
378.22	5.563
378.58	4.825
378.94	5.280
379.30	4.898
379.66	4.886
380.02	5.467
380.38	5.222
380.74	5.522
381.09	5.379
381.45	5.655
381.81	5.897
382.17	5.860
382.53	5.535
382.89	5.617
383.25	4.690
383.61	5.762
383.97	6.191
384.32	5.303
384.68	5.390
385.04	4.978
385.40	5.944
385.76	4.607
386.12	5.635
386.48	6.419
386.83	5.581
387.19	5.813
387.55	5.380
387.91	5.139
388.27	5.028
388.62	6.638
388.98	5.528
389.34	5.507
389.70	6.315
390.06	6.337
390.42	5.642
390.77	6.552
391.13	4.978
391.49	5.711
391.85	5.411
392.20	5.174
392.56	5.682
392.92	5.827
393.28	4.734
393.64	6.055
393.99	6.170
394.35	5.521
394.71	5.583
395.07	5.047
395.42	5.748
395.78	5.534
396.14	6.145
396.50	6.579
396.85	6.294
397.21	5.302
397.57	5.642
397.92	6.190
398.28	4.877
398.64	6.392
399.00	5.708
399.35	5.189
399.71	6.019
400.07	5.736
400.42	6.442
400.78	5.489
401.14	5.671
401.49	5.433
401.85	5.082
402.21	5.269
402.57	5.490
402.92	5.612
403.28	6.309
403.63	5.941
403.99	4.968
404.35	5.576
404.70	5.276
405.06	5.475
405.42	5.864
405.77	5.429
406.13	5.926
406.49	5.736
406.84	5.966
407.20	4.551
407.55	5.361
407.91	5.867
408.27	5.361
408.62	5.358
408.98	5.821
409.34	4.736
409.69	5.871
410.05	5.204
410.40	5.505
410.76	5.317
411.11	7.057
411.47	5.623
411.83	6.292
412.18	5.566
412.54	5.355
412.89	6.988
413.25	5.313
413.60	6.053
413.96	6.254
414.31	5.286
414.67	6.401
415.03	5.894
415.38	6.057
415.74	5.981
416.09	5.356
416.45	4.953
416.80	6.081
417.16	6.367
417.51	5.972
417.87	5.074
418.22	6.120
418.58	5.875
418.93	6.143
419.29	6.047
419.64	6.801
420.00	5.671
420.35	6.087
420.71	6.336
421.06	5.847
421.42	6.491
421.77	5.661
422.12	5.278
422.48	5.181
422.83	6.174
423.19	5.856
423.54	5.746
423.90	5.449
424.25	6.030
424.61	5.060
424.96	5.481
425.31	5.537
425.67	4.775
426.02	5.829
426.38	5.678
426.73	5.266
427.09	5.228
427.44	5.463
427.79	5.520
428.15	6.369
428.50	5.500
428.85	6.079
429.21	5.191
429.56	5.599
429.92	4.932
430.27	5.114
430.62	5.172
430.98	5.189
431.33	5.928
431.68	5.602
432.04	5.485
432.39	5.483
432.74	5.506
433.10	5.490
433.45	6.472
433.80	4.379
434.16	5.983
434.51	4.947
434.86	5.644
435.22	5.670
435.57	5.836
435.92	5.734
436.28	5.872
436.63	6.126
436.98	5.209
437.34	5.903
437.69	5.543
438.04	5.396
438.39	4.896
438.75	5.462
439.10	5.531
439.45	6.198
439.81	5.438
440.16	4.856
440.51	6.385
440.86	5.617
441.22	5.228
441.57	5.626
441.92	5.578
442.27	5.974
442.63	5.266
442.98	5.577
443.33	5.924
443.68	5.576
444.03	5.222
444.39	4.430
444.74	5.303
445.09	5.660
445.44	5.796
445.79	5.146
446.15	6.194
446.50	5.277
446.85	5.139
447.20	5.558
447.55	5.472
447.91	5.516
448.26	5.787
448.61	5.653
448.96	6.312
449.31	5.849
449.66	6.021
450.02	4.791
450.37	4.819
450.72	4.794
451.07	4.997
451.42	5.410
451.77	6.048
452.12	5.831
452.47	6.157
452.83	5.245
453.18	6.235
453.53	5.999
453.88	5.080
454.23	5.200
454.58	6.178
454.93	5.912
455.28	4.863
455.63	5.947
455.98	6.369
456.34	5.214
456.69	5.949
457.04	6.130
457.39	5.202
457.74	5.049
458.09	5.635
458.44	6.157
458.79	5.369
459.14	5.700
459.49	5.429
459.84	4.875
460.19	5.186
460.54	6.192
460.89	5.869
461.24	6.011
461.59	6.508
461.94	5.857
462.29	5.519
462.64	5.361
462.99	5.270
463.34	6.267
463.69	5.941
464.04	6.493
464.39	5.797
464.74	5.585
465.09	5.127
465.44	5.485
465.79	5.145
466.14	5.857
466.49	5.284
466.84	5.546
467.19	6.156
467.54	5.938
467.89	5.582
468.24	5.817
468.59	6.410
468.94	5.620
469.29	6.234
469.64	6.225
469.99	5.751
470.34	5.284
470.68	6.753
471.03	5.918
471.38	5.698
471.73	6.262
472.08	5.987
472.43	5.716
472.78	5.662
473.13	5.777
473.48	5.243
473.83	5.793
474.17	5.103
474.52	5.087
474.87	6.013
475.22	6.268
475.57	5.266
475.92	5.258
476.27	5.355
476.61	5.681
476.96	5.333
477.31	4.919
477.66	5.689
478.01	4.966
478.36	5.182
478.70	5.296
479.05	5.485
479.40	5.220
479.75	5.287
480.10	4.920
480.45	5.093
480.79	4.778
481.14	5.039
481.49	5.268
481.84	4.938
482.19	5.543
482.53	5.688
482.88	5.212
483.23	5.280
483.58	5.232
483.92	5.436
484.27	4.444
484.62	4.698
484.97	4.572
485.31	4.623
485.66	4.204
486.01	3.629
486.36	3.529
486.70	3.422
487.05	3.563
487.40	3.933
487.75	4.326
488.09	3.973
488.44	4.036
488.79	4.702
489.13	4.545
489.48	4.731
489.83	4.273
490.17	5.042
490.52	5.093
490.87	4.930
491.22	4.911
491.56	4.465
491.91	4.374
492.26	4.731
492.60	4.839
492.95	4.584
493.30	4.533
493.64	4.620
493.99	4.689
494.34	5.365
494.68	4.991
495.03	5.498
495.37	4.793
495.72	5.068
496.07	5.476
496.41	4.646
496.76	4.837
497.11	4.953
497.45	5.356
497.80	5.086
498.14	4.638
498.49	4.732
498.84	5.034
499.18	4.810
499.53	4.701
499.87	4.800
500.22	5.652
500.56	5.049
500.91	4.952
501.26	5.216
501.60	5.268
501.95	4.904
502.29	5.014
502.64	4.749
502.98	4.909
503.33	4.982
503.67	5.290
504.02	5.051
504.36	5.335
504.71	5.569
505.06	5.060
505.40	4.667
505.75	4.870
506.09	4.616
506.44	4.884
506.78	4.968
507.13	5.755
507.47	5.556
507.82	4.914
508.16	4.914
508.51	5.632
508.85	4.767
509.19	4.796
509.54	5.357
509.88	4.997
510.23	5.039
510.57	5.728
510.92	5.023
511.26	5.293
511.61	5.550
511.95	5.428
512.30	5.143
512.64	5.266
512.98	5.466
513.33	5.996
513.67	5.550
514.02	4.762
514.36	5.735
514.70	5.479
515.05	5.466
515.39	5.048
515.74	5.574
516.08	5.981
516.42	6.215
516.77	5.741
517.11	5.383
517.46	5.643
517.80	5.459
518.14	5.211
518.49	5.776
518.83	5.909
519.17	5.774
519.52	5.320
519.86	5.876
520.20	6.185
520.55	5.685
520.89	5.900
521.23	6.574
521.58	5.822
521.92	6.430
522.26	5.613
522.61	5.919
522.95	5.770
523.29	5.113
523.64	6.159
523.98	5.977
524.32	5.730
524.66	6.915
525.01	5.821
525.35	5.886
525.69	6.281
526.04	6.044
526.38	6.406
526.72	5.951
527.06	5.901
527.41	4.703
527.75	5.852
528.09	5.845
528.43	6.055
528.78	6.269
529.12	6.061
529.46	6.307
529.80	6.188
530.15	6.667
530.49	5.969
530.83	6.076
531.17	6.919
531.51	6.939
531.86	6.516
532.20	7.106
532.54	6.598
532.88	6.098
533.22	6.059
533.57	6.173
533.91	6.502
534.25	5.711
534.59	5.674
534.93	6.365
535.27	5.975
535.62	6.471
535.96	6.215
536.30	5.277
536.64	6.375
536.98	6.038
537.32	6.057
537.66	6.133
538.01	6.320
538.35	6.076
538.69	7.084
539.03	5.588
539.37	6.454
539.71	5.509
540.05	5.817
540.39	5.449
540.73	6.145
541.07	7.073
541.42	5.871
541.76	6.000
542.10	6.662
542.44	5.430
542.78	6.983
543.12	5.886
543.46	6.295
543.80	6.376
544.14	6.162
544.48	6.413
544.82	5.581
545.16	6.051
545.50	5.656
545.84	5.847
546.18	5.791
546.52	5.299
546.86	6.117
547.20	6.878
547.54	5.812
547.88	6.314
548.22	6.164
548.56	5.409
548.90	6.146
549.24	6.532
549.58	6.071
549.92	6.387
550.26	6.179
550.60	6.846
550.94	6.127
551.28	4.828
551.62	7.189
551.96	5.614
552.30	6.826
552.64	6.491
552.98	7.119
553.32	6.811
553.66	7.498
554.00	5.971
554.34	5.728
554.68	6.509
555.02	6.629
555.36	6.541
555.69	5.480
556.03	6.595
556.37	5.935
556.71	5.662
557.05	6.793
557.39	6.368
557.73	6.140
558.07	6.454
558.41	6.006
558.75	6.319
559.08	7.233
559.42	6.425
559.76	6.691
560.10	6.638
560.44	6.289
560.78	5.722
561.12	6.135
561.45	5.867
561.79	5.999
562.13	5.433
562.47	6.694
562.81	5.927
563.15	6.221
563.48	6.366
563.82	5.479
564.16	5.167
564.50	5.208
564.84	6.637
565.17	5.856
565.51	6.198
565.85	5.901
566.19	5.510
566.52	5.636
566.86	5.365
567.20	5.896
567.54	5.422
567.88	5.106
568.21	6.085
568.55	5.308
568.89	4.669
569.23	4.501
569.56	5.020
569.90	5.283
570.24	4.557
570.57	4.556
570.91	4.008
571.25	4.694
571.59	4.624
571.92	4.349
572.26	4.073
572.60	4.174
572.93	4.588
573.27	4.141
573.61	4.132
573.95	4.212
574.28	4.070
574.62	4.155
574.96	4.014
575.29	3.952
575.63	3.963
575.97	3.983
576.30	4.355
576.64	3.892
576.98	3.986
577.31	3.697
577.65	3.931
577.98	3.981
578.32	3.773
578.66	4.193
578.99	3.789
579.33	3.607
579.67	3.795
580.00	3.932
580.34	3.892
580.67	3.971
581.01	4.160
581.35	3.743
581.68	3.738
582.02	3.621
582.35	3.725
582.69	3.714
583.02	3.746
583.36	3.781
583.70	4.146
584.03	4.154
584.37	4.163
584.70	3.762
585.04	3.938
585.37	3.961
585.71	4.441
586.04	4.204
586.38	4.127
586.72	4.308
587.05	4.238
587.39	3.588
587.72	4.380
588.06	3.949
588.39	4.088
588.73	4.312
589.06	4.737
589.40	4.579
589.73	4.118
590.07	4.448
590.40	4.567
590.73	4.606
591.07	5.250
591.40	5.314
591.74	5.195
592.07	5.236
592.41	4.630
592.74	4.457
593.08	4.997
593.41	4.682
593.75	4.372
594.08	4.358
594.41	4.560
594.75	4.658
595.08	4.939
595.42	4.588
595.75	4.523
596.09	4.769
596.42	5.069
596.75	4.981
597.09	5.411
597.42	4.216
597.75	5.476
598.09	5.087
598.42	5.284
598.76	4.378
599.09	4.751
599.42	4.694
599.76	4.612
600.09	4.627
600.42	4.638
600.76	4.679
601.09	4.226
601.42	4.300
601.76	4.782
602.09	4.783
602.42	4.339
602.76	5.038
603.09	4.957
603.42	4.451
603.76	4.802
604.09	3.722
604.42	5.422
604.76	5.019
605.09	5.155
605.42	4.788
605.75	5.174
606.09	4.514
606.42	4.740
606.75	4.562
607.09	4.604
607.42	4.964
607.75	4.557
608.08	4.516
608.42	5.199
608.75	5.500
609.08	5.319
609.41	4.998
609.75	5.288
610.08	5.372
610.41	4.749
610.74	4.636
611.07	5.435
611.41	4.858
611.74	5.983
612.07	5.072
612.40	5.404
612.73	5.053
613.07	5.550
613.40	6.214
613.73	4.615
614.06	5.538
614.39	4.929
614.72	5.632
615.06	5.567
615.39	4.989
615.72	5.368
616.05	5.529
616.38	5.225
616.71	5.404
617.05	5.948
617.38	5.352
617.71	5.526
618.04	5.769
618.37	5.204
618.70	5.849
619.03	6.118
619.36	5.906
619.69	6.197
620.03	6.662
620.36	7.086
620.69	7.397
621.02	6.195
621.35	6.656
621.68	5.685
622.01	6.889
622.34	6.354
622.67	6.464
623.00	5.943
623.33	5.790
623.66	6.505
623.99	5.376
624.32	7.061
624.65	6.073
624.99	5.737
625.32	6.300
625.65	6.086
625.98	6.687
626.31	6.376
626.64	6.531
626.97	6.401
627.30	6.484
627.63	6.645
627.96	6.981
628.29	6.037
628.62	8.417
628.95	7.358
629.28	7.938
629.61	7.241
629.94	6.571
630.26	7.436
630.59	7.245
630.92	7.280
631.25	6.910
631.58	7.407
631.91	7.606
632.24	7.595
632.57	8.814
632.90	8.333
633.23	8.054
633.56	8.588
633.89	8.494
634.22	7.605
634.55	9.231
634.88	8.503
635.20	9.080
635.53	7.590
635.86	7.426
636.19	7.882
636.52	9.573
636.85	8.362
637.18	8.180
637.51	8.865
637.83	6.658
638.16	7.673
638.49	7.809
638.82	9.355
639.15	9.125
639.48	9.975
639.81	8.445
640.13	9.896
640.46	8.993
640.79	9.379
641.12	9.216
641.45	9.637
641.77	9.573
642.10	8.187
642.43	8.408
642.76	10.836
643.09	9.049
643.41	8.953
643.74	10.648
644.07	11.280
644.40	11.350
644.73	10.866
645.05	11.886
645.38	9.795
645.71	9.179
646.04	11.628
646.36	11.853
646.69	10.702
647.02	8.844
647.35	11.684
647.67	10.796
648.00	12.033
648.33	9.076
648.66	10.758
648.98	11.094
649.31	8.221
649.64	8.969
649.96	9.538
650.29	11.058
650.62	10.032
650.94	10.859
651.27	9.797
651.60	11.481
651.92	12.300
652.25	8.958
652.58	8.879
652.90	11.690
653.23	10.015
653.56	9.291
653.88	9.826
