SpectraSuite Data File
++++++++++++++++++++++++++++++++++++
Date: Wed May 13 16:45:19 PDT 2015
User: schluterlab
Dark Spectrum Present: Yes
Reference Spectrum Present: Yes
Number of Sampled Component Spectra: 1
Spectrometers: USB2E3373
Integration Time (usec): 3000 (USB2E3373)
Spectra Averaged: 3 (USB2E3373)
Boxcar Smoothing: 0 (USB2E3373)
Correct for Electrical Dark: No (USB2E3373)
Strobe/Lamp Enabled: No (USB2E3373)
Correct for Detector Non-linearity: No (USB2E3373)
Correct for Stray Light: No (USB2E3373)
Number of Pixels in Processed Spectrum: 2048
>>>>>Begin Processed Spectral Data<<<<<
178.53	0.000
178.91	-1150.000
179.29	-1225.000
179.67	-250.000
180.04	-1275.000
180.42	2350.000
180.80	960.000
181.18	-850.000
181.56	528.571
181.94	0.000
182.31	-628.571
182.69	1633.333
183.07	-575.000
183.45	-577.778
183.83	518.182
184.20	-410.000
184.58	2250.000
184.96	4700.000
185.34	-820.000
185.72	-575.000
186.09	-2500.000
186.47	2450.000
186.85	2350.000
187.23	4500.000
187.61	-1766.667
187.98	1625.000
188.36	554.545
188.74	481.818
189.12	-980.000
189.49	600.000
189.87	-4800.000
190.25	-1225.000
190.63	392.857
191.00	400.000
191.38	816.667
191.76	-1275.000
192.14	1350.000
192.51	637.500
192.89	883.333
193.27	675.000
193.65	-1025.000
194.02	580.000
194.40	980.000
194.78	480.000
195.15	491.667
195.53	550.000
195.91	-2400.000
196.29	343.750
196.66	326.316
197.04	-230.000
197.42	0.000
197.79	650.000
198.17	-4600.000
198.55	657.143
198.92	687.500
199.30	1040.000
199.68	0.000
200.05	361.111
200.43	700.000
200.81	4700.000
201.18	1600.000
201.56	-1700.000
201.94	522.222
202.31	577.778
202.69	425.000
203.07	480.000
203.44	0.000
203.82	1200.000
204.19	757.143
204.57	378.571
204.95	562.500
205.32	1400.000
205.70	527.273
206.08	378.571
206.45	2850.000
206.83	281.250
207.20	1016.667
207.58	720.000
207.96	305.556
208.33	662.500
208.71	-733.333
209.08	728.571
209.46	600.000
209.84	481.818
210.21	-1366.667
210.59	1475.000
210.96	-550.000
211.34	2300.000
211.71	450.000
212.09	783.333
212.46	0.000
212.84	1700.000
213.22	1350.000
213.59	-4500.000
213.97	900.000
214.34	742.857
214.72	527.273
215.09	980.000
215.47	-2150.000
215.84	-2350.000
216.22	1666.667
216.59	364.286
216.97	1225.000
217.34	518.182
217.72	-700.000
218.09	0.000
218.47	-5000.000
218.84	511.111
219.22	828.571
219.59	1766.667
219.97	-557.143
220.34	960.000
220.72	-1300.000
221.09	421.429
221.47	1425.000
221.84	-716.667
222.22	0.000
222.59	1325.000
222.97	-2650.000
223.34	1040.000
223.72	500.000
224.09	1080.000
224.46	1950.000
224.84	-4900.000
225.21	-960.000
225.59	-4900.000
225.96	550.000
226.34	295.000
226.71	2050.000
227.08	637.500
227.46	560.000
227.83	-1050.000
228.21	-1800.000
228.58	588.889
228.95	-2550.000
229.33	-2000.000
229.70	1300.000
230.08	671.429
230.45	-880.000
230.82	391.667
231.20	850.000
231.57	757.143
231.95	366.667
232.32	259.091
232.69	390.909
233.07	600.000
233.44	384.615
233.81	-1466.667
234.19	263.158
234.56	416.667
234.93	450.000
235.31	418.182
235.68	361.538
236.05	364.286
236.43	169.697
236.80	221.053
237.17	4100.000
237.55	257.143
237.92	196.429
238.29	295.238
238.67	187.097
239.04	220.690
239.41	113.889
239.79	126.087
240.16	138.095
240.53	125.000
240.91	103.922
241.28	104.000
241.65	126.000
242.02	102.899
242.40	103.226
242.77	93.333
243.14	82.796
243.51	80.899
243.89	65.882
244.26	61.111
244.63	54.839
245.00	65.957
245.38	66.337
245.75	57.944
246.12	57.798
246.49	62.044
246.87	72.800
247.24	62.308
247.61	57.857
247.98	52.941
248.36	43.243
248.73	43.312
249.10	53.503
249.47	45.198
249.84	45.455
250.22	47.594
250.59	46.154
250.96	44.949
251.33	40.758
251.70	49.505
252.08	43.810
252.45	44.395
252.82	42.609
253.19	40.426
253.56	41.176
253.94	43.983
254.31	44.531
254.68	43.077
255.05	37.638
255.42	39.431
255.79	41.912
256.16	40.433
256.54	33.569
256.91	42.349
257.28	31.655
257.65	37.954
258.02	40.062
258.39	35.962
258.76	32.107
259.14	37.798
259.51	36.170
259.88	31.677
260.25	38.066
260.62	32.948
260.99	36.025
261.36	34.835
261.73	33.524
262.10	29.942
262.47	32.113
262.85	35.097
263.22	28.775
263.59	34.473
263.96	33.242
264.33	31.854
264.70	32.105
265.07	32.481
265.44	29.798
265.81	30.900
266.18	33.166
266.55	29.024
266.92	32.924
267.29	34.954
267.66	30.046
268.03	31.591
268.40	29.907
268.77	30.788
269.14	30.856
269.51	30.248
269.88	30.769
270.25	30.474
270.62	29.438
270.99	30.753
271.36	32.618
271.73	30.841
272.10	28.696
272.47	30.323
272.84	29.870
273.21	30.818
273.58	27.729
273.95	28.302
274.32	28.926
274.69	27.623
275.06	29.134
275.43	30.213
275.80	26.854
276.17	29.328
276.54	28.274
276.91	30.237
277.28	26.758
277.65	28.046
278.02	27.743
278.39	29.883
278.76	26.545
279.13	26.604
279.50	29.423
279.87	26.295
280.23	29.341
280.60	26.112
280.97	26.617
281.34	28.319
281.71	26.364
282.08	30.134
282.45	28.000
282.82	28.774
283.19	23.886
283.56	28.421
283.92	27.580
284.29	26.279
284.66	27.586
285.03	26.401
285.40	26.761
285.77	28.114
286.14	25.734
286.51	28.667
286.87	25.641
287.24	28.502
287.61	25.522
287.98	25.812
288.35	25.674
288.72	25.857
289.08	25.039
289.45	24.547
289.82	22.602
290.19	25.589
290.56	22.971
290.93	23.112
291.29	23.773
291.66	24.189
292.03	24.855
292.40	24.523
292.77	24.260
293.13	22.687
293.50	21.866
293.87	23.111
294.24	22.667
294.60	21.252
294.97	21.076
295.34	22.567
295.71	21.591
296.08	21.652
296.44	20.770
296.81	21.136
297.18	21.680
297.55	19.789
297.91	21.240
298.28	22.758
298.65	21.410
299.02	20.553
299.38	20.584
299.75	18.868
300.12	20.179
300.48	21.625
300.85	19.605
301.22	18.726
301.59	19.949
301.95	21.159
302.32	19.127
302.69	19.713
303.05	18.303
303.42	20.123
303.79	20.159
304.15	18.648
304.52	18.656
304.89	17.886
305.25	19.142
305.62	19.253
305.99	20.071
306.35	18.456
306.72	19.395
307.09	19.645
307.45	20.495
307.82	16.853
308.19	19.536
308.55	18.986
308.92	18.797
309.29	18.691
309.65	17.709
310.02	18.499
310.38	18.387
310.75	18.479
311.12	19.038
311.48	18.077
311.85	19.392
312.22	18.522
312.58	18.087
312.95	19.430
313.31	17.282
313.68	19.023
314.05	19.724
314.41	18.191
314.78	18.832
315.14	19.166
315.51	19.773
315.87	20.099
316.24	19.960
316.61	20.370
316.97	19.765
317.34	19.863
317.70	20.268
318.07	20.404
318.43	19.961
318.80	20.993
319.16	22.599
319.53	21.107
319.89	21.905
320.26	21.900
320.62	22.321
320.99	23.838
321.35	22.727
321.72	23.922
322.08	23.495
322.45	24.279
322.81	23.643
323.18	24.085
323.54	24.304
323.91	25.472
324.27	24.952
324.64	24.511
325.00	24.977
325.37	26.843
325.73	26.750
326.10	26.743
326.46	27.419
326.83	27.783
327.19	27.242
327.56	27.526
327.92	28.959
328.29	30.435
328.65	28.085
329.01	28.610
329.38	29.510
329.74	29.548
330.11	29.972
330.47	29.293
330.84	30.882
331.20	29.144
331.56	29.450
331.93	30.463
332.29	30.967
332.66	29.469
333.02	31.718
333.38	32.069
333.75	31.551
334.11	30.605
334.48	31.145
334.84	31.066
335.20	32.455
335.57	31.369
335.93	30.179
336.29	30.861
336.66	32.372
337.02	30.317
337.38	31.852
337.75	31.016
338.11	31.692
338.47	30.847
338.84	31.439
339.20	31.376
339.56	32.299
339.93	31.727
340.29	32.337
340.65	32.175
341.02	32.199
341.38	32.384
341.74	30.789
342.11	32.402
342.47	31.894
342.83	30.822
343.20	32.381
343.56	32.772
343.92	31.228
344.28	32.908
344.65	32.760
345.01	30.724
345.37	30.875
345.73	32.826
346.10	32.481
346.46	31.695
346.82	32.290
347.19	31.913
347.55	32.102
347.91	32.039
348.27	32.786
348.63	32.609
349.00	31.230
349.36	32.677
349.72	31.115
350.08	31.686
350.45	31.896
350.81	32.575
351.17	32.172
351.53	32.760
351.89	30.693
352.26	32.833
352.62	32.959
352.98	33.306
353.34	33.525
353.70	31.915
354.07	31.694
354.43	32.302
354.79	32.743
355.15	31.844
355.51	32.614
355.87	33.388
356.24	33.958
356.60	31.917
356.96	31.698
357.32	32.625
357.68	34.173
358.04	32.779
358.40	32.700
358.77	32.238
359.13	31.492
359.49	32.471
359.85	32.381
360.21	33.892
360.57	33.541
360.93	32.769
361.29	32.880
361.66	32.585
362.02	33.657
362.38	33.384
362.74	32.812
363.10	32.198
363.46	32.795
363.82	34.316
364.18	32.673
364.54	34.695
364.90	34.915
365.26	32.426
365.62	34.259
365.98	32.359
366.35	32.808
366.71	34.490
367.07	33.722
367.43	34.688
367.79	34.690
368.15	35.057
368.51	34.448
368.87	34.118
369.23	35.260
369.59	34.613
369.95	34.265
370.31	33.974
370.67	34.493
371.03	36.030
371.39	36.297
371.75	36.471
372.11	34.851
372.47	35.557
372.83	36.095
373.19	35.260
373.55	36.290
373.91	37.113
374.27	35.739
374.63	36.364
374.99	37.429
375.35	36.985
375.71	35.709
376.07	37.311
376.42	37.895
376.78	38.171
377.14	37.924
377.50	37.748
377.86	37.633
378.22	38.053
378.58	38.095
378.94	37.964
379.30	38.168
379.66	38.325
380.02	38.759
380.38	37.887
380.74	38.836
381.09	38.875
381.45	38.537
381.81	39.681
382.17	39.618
382.53	40.503
382.89	40.679
383.25	40.901
383.61	41.140
383.97	40.650
384.32	40.674
384.68	41.140
385.04	40.320
385.40	39.814
385.76	41.093
386.12	41.127
386.48	42.417
386.83	42.848
387.19	43.661
387.55	41.929
387.91	41.717
388.27	42.489
388.62	42.717
388.98	42.015
389.34	42.929
389.70	42.428
390.06	43.980
390.42	43.191
390.77	44.211
391.13	43.842
391.49	44.099
391.85	43.475
392.20	43.722
392.56	44.066
392.92	44.850
393.28	43.077
393.64	44.305
393.99	44.777
394.35	44.541
394.71	45.232
395.07	44.299
395.42	45.303
395.78	44.593
396.14	44.507
396.50	46.178
396.85	46.408
397.21	44.205
397.57	45.877
397.92	46.454
398.28	43.778
398.64	45.998
399.00	44.544
399.35	44.839
399.71	45.486
400.07	45.121
400.42	46.871
400.78	46.140
401.14	45.732
401.49	45.970
401.85	45.554
402.21	45.210
402.57	45.096
402.92	47.793
403.28	47.220
403.63	46.658
403.99	47.070
404.35	46.121
404.70	46.223
405.06	46.010
405.42	46.600
405.77	44.686
406.13	45.316
406.49	47.073
406.84	45.895
407.20	45.449
407.55	48.181
407.91	47.067
408.27	47.096
408.62	47.200
408.98	46.507
409.34	46.740
409.69	47.548
410.05	47.522
410.40	47.339
410.76	46.655
411.11	46.864
411.47	46.773
411.83	47.526
412.18	47.124
412.54	46.389
412.89	47.229
413.25	47.107
413.60	48.548
413.96	47.177
414.31	47.023
414.67	46.008
415.03	47.417
415.38	48.518
415.74	47.460
416.09	47.551
416.45	47.791
416.80	47.125
417.16	48.525
417.51	48.109
417.87	46.949
418.22	48.391
418.58	47.450
418.93	47.297
419.29	48.313
419.64	47.796
420.00	47.683
420.35	47.884
420.71	48.356
421.06	46.718
421.42	47.485
421.77	46.917
422.12	46.828
422.48	46.843
422.83	47.699
423.19	46.685
423.54	48.926
423.90	46.899
424.25	47.683
424.61	48.869
424.96	47.638
425.31	47.508
425.67	46.124
426.02	47.314
426.38	48.474
426.73	47.923
427.09	46.991
427.44	47.556
427.79	46.866
428.15	48.095
428.50	46.987
428.85	48.510
429.21	46.604
429.56	46.604
429.92	46.905
430.27	47.617
430.62	45.725
430.98	45.874
431.33	45.464
431.68	47.592
432.04	46.592
432.39	48.372
432.74	47.457
433.10	47.595
433.45	48.222
433.80	47.506
434.16	48.504
434.51	46.842
434.86	46.864
435.22	48.082
435.57	47.720
435.92	47.864
436.28	48.399
436.63	48.068
436.98	46.823
437.34	47.764
437.69	47.900
438.04	47.555
438.39	47.284
438.75	47.589
439.10	47.542
439.45	46.930
439.81	46.888
440.16	47.092
440.51	47.510
440.86	48.234
441.22	47.942
441.57	48.301
441.92	47.953
442.27	47.094
442.63	46.761
442.98	47.549
443.33	47.228
443.68	46.980
444.03	47.096
444.39	46.495
444.74	47.348
445.09	48.086
445.44	45.872
445.79	46.512
446.15	46.850
446.50	47.227
446.85	47.636
447.20	47.374
447.55	47.404
447.91	47.380
448.26	47.746
448.61	47.993
448.96	48.117
449.31	47.357
449.66	48.284
450.02	46.797
450.37	47.222
450.72	47.659
451.07	46.679
451.42	45.775
451.77	46.447
452.12	45.958
452.47	46.269
452.83	47.436
453.18	47.800
453.53	48.237
453.88	45.777
454.23	46.862
454.58	47.850
454.93	47.362
455.28	47.756
455.63	47.087
455.98	48.929
456.34	47.173
456.69	48.090
457.04	46.687
457.39	46.990
457.74	45.618
458.09	46.751
458.44	46.294
458.79	45.065
459.14	48.251
459.49	46.702
459.84	45.319
460.19	47.496
460.54	46.181
460.89	46.188
461.24	45.841
461.59	46.659
461.94	46.239
462.29	46.706
462.64	45.629
462.99	45.869
463.34	47.000
463.69	46.842
464.04	46.551
464.39	45.855
464.74	45.395
465.09	46.321
465.44	44.931
465.79	45.526
466.14	44.828
466.49	44.661
466.84	46.235
467.19	45.806
467.54	46.125
467.89	46.459
468.24	45.375
468.59	46.215
468.94	45.327
469.29	46.080
469.64	45.984
469.99	46.279
470.34	46.169
470.68	46.336
471.03	45.442
471.38	46.560
471.73	45.570
472.08	45.789
472.43	45.980
472.78	45.688
473.13	45.700
473.48	45.069
473.83	46.341
474.17	44.182
474.52	45.906
474.87	45.009
475.22	44.864
475.57	43.955
475.92	44.503
476.27	44.363
476.61	44.677
476.96	45.959
477.31	44.479
477.66	43.600
478.01	43.806
478.36	45.003
478.70	44.393
479.05	43.823
479.40	44.473
479.75	44.128
480.10	43.141
480.45	43.122
480.79	43.478
481.14	43.738
481.49	44.044
481.84	43.530
482.19	44.116
482.53	43.303
482.88	43.462
483.23	42.804
483.58	43.813
483.92	43.112
484.27	42.004
484.62	43.534
484.97	42.255
485.31	43.527
485.66	43.191
486.01	42.078
486.36	40.235
486.70	39.312
487.05	39.896
487.40	40.935
487.75	40.444
488.09	41.007
488.44	41.094
488.79	41.989
489.13	41.979
489.48	43.515
489.83	42.167
490.17	43.051
490.52	42.161
490.87	42.243
491.22	42.747
491.56	41.868
491.91	42.020
492.26	41.571
492.60	41.290
492.95	42.142
493.30	41.916
493.64	41.391
493.99	41.829
494.34	41.859
494.68	41.712
495.03	42.152
495.37	41.647
495.72	41.862
496.07	42.367
496.41	41.018
496.76	41.733
497.11	41.288
497.45	41.407
497.80	41.027
498.14	41.836
498.49	41.122
498.84	40.988
499.18	40.905
499.53	40.836
499.87	41.659
500.22	41.027
500.56	41.990
500.91	41.346
501.26	41.062
501.60	41.006
501.95	40.697
502.29	41.378
502.64	41.853
502.98	41.187
503.33	40.494
503.67	41.299
504.02	41.160
504.36	40.477
504.71	40.938
505.06	41.446
505.40	40.885
505.75	39.489
506.09	40.768
506.44	40.799
506.78	41.452
507.13	39.677
507.47	41.919
507.82	41.287
508.16	41.337
508.51	41.400
508.85	41.063
509.19	42.296
509.54	40.306
509.88	41.061
510.23	40.411
510.57	40.351
510.92	40.031
511.26	41.059
511.61	40.041
511.95	39.562
512.30	40.774
512.64	40.570
512.98	40.568
513.33	40.364
513.67	39.915
514.02	40.693
514.36	40.634
514.70	40.066
515.05	40.491
515.39	40.662
515.74	40.822
516.08	40.302
516.42	40.400
516.77	41.416
517.11	40.788
517.46	40.632
517.80	41.231
518.14	40.591
518.49	41.132
518.83	40.227
519.17	40.416
519.52	41.483
519.86	41.301
520.20	40.116
520.55	40.694
520.89	41.302
521.23	41.496
521.58	41.537
521.92	40.600
522.26	39.414
522.61	41.433
522.95	39.718
523.29	40.049
523.64	40.244
523.98	40.234
524.32	40.350
524.66	39.687
525.01	40.319
525.35	39.901
525.69	38.916
526.04	39.626
526.38	39.475
526.72	39.080
527.06	41.306
527.41	39.047
527.75	40.836
528.09	40.013
528.43	40.982
528.78	40.565
529.12	39.636
529.46	39.743
529.80	40.780
530.15	40.374
530.49	38.708
530.83	39.367
531.17	39.621
531.51	40.726
531.86	39.935
532.20	41.004
532.54	40.038
532.88	39.281
533.22	38.913
533.57	39.691
533.91	39.253
534.25	38.943
534.59	39.536
534.93	38.786
535.27	38.322
535.62	38.400
535.96	38.858
536.30	39.669
536.64	39.343
536.98	39.018
537.32	38.841
537.66	39.933
538.01	39.631
538.35	39.884
538.69	40.140
539.03	39.051
539.37	38.466
539.71	38.108
540.05	38.824
540.39	39.203
540.73	37.969
541.07	39.844
541.42	39.008
541.76	39.032
542.10	38.875
542.44	39.139
542.78	39.065
543.12	38.132
543.46	38.033
543.80	38.777
544.14	37.677
544.48	38.413
544.82	38.294
545.16	38.712
545.50	37.918
545.84	38.710
546.18	38.519
546.52	39.229
546.86	38.557
547.20	38.436
547.54	38.611
547.88	37.500
548.22	37.671
548.56	38.365
548.90	36.684
549.24	38.114
549.58	38.336
549.92	39.080
550.26	39.276
550.60	38.520
550.94	38.521
551.28	37.235
551.62	38.030
551.96	38.246
552.30	37.611
552.64	37.863
552.98	39.186
553.32	37.424
553.66	38.309
554.00	37.612
554.34	36.370
554.68	38.984
555.02	38.434
555.36	37.717
555.69	36.401
556.03	38.223
556.37	37.244
556.71	37.040
557.05	37.395
557.39	37.019
557.73	37.262
558.07	38.434
558.41	37.554
558.75	37.840
559.08	37.733
559.42	37.264
559.76	37.721
560.10	37.330
560.44	35.989
560.78	35.862
561.12	36.478
561.45	37.549
561.79	35.662
562.13	36.821
562.47	37.158
562.81	37.517
563.15	36.455
563.48	36.804
563.82	36.986
564.16	36.756
564.50	36.393
564.84	35.209
565.17	36.422
565.51	37.252
565.85	36.358
566.19	35.379
566.52	37.555
566.86	34.901
567.20	35.790
567.54	36.473
567.88	35.850
568.21	36.085
568.55	35.844
568.89	35.068
569.23	35.116
569.56	35.020
569.90	35.094
570.24	34.912
570.57	33.798
570.91	33.678
571.25	33.632
571.59	34.109
571.92	33.324
572.26	33.651
572.60	33.093
572.93	33.193
573.27	33.570
573.61	33.277
573.95	33.488
574.28	32.940
574.62	32.434
574.96	32.354
575.29	32.493
575.63	32.546
575.97	32.700
576.30	32.687
576.64	32.853
576.98	32.742
577.31	32.579
577.65	32.508
577.98	33.132
578.32	32.029
578.66	32.285
578.99	32.139
579.33	32.680
579.67	32.133
580.00	32.390
580.34	32.487
580.67	32.404
581.01	32.449
581.35	32.788
581.68	32.267
582.02	31.800
582.35	32.134
582.69	32.196
583.02	32.287
583.36	32.142
583.70	32.393
584.03	32.445
584.37	32.964
584.70	32.132
585.04	32.192
585.37	31.733
585.71	31.814
586.04	31.868
586.38	32.497
586.72	32.505
587.05	32.138
587.39	31.715
587.72	32.234
588.06	31.724
588.39	32.236
588.73	32.150
589.06	32.565
589.40	32.727
589.73	32.770
590.07	32.776
590.40	32.262
590.73	33.099
591.07	33.862
591.40	33.024
591.74	33.853
592.07	33.159
592.41	32.741
592.74	32.921
593.08	32.845
593.41	32.426
593.75	31.949
594.08	32.417
594.41	31.884
594.75	32.643
595.08	32.069
595.42	32.504
595.75	32.764
596.09	32.557
596.42	32.377
596.75	32.461
597.09	32.900
597.42	32.125
597.75	32.385
598.09	32.391
598.42	31.615
598.76	32.914
599.09	32.231
599.42	31.587
599.76	32.101
600.09	31.439
600.42	31.373
600.76	31.714
601.09	31.403
601.42	31.963
601.76	31.765
602.09	32.016
602.42	32.484
602.76	32.326
603.09	32.730
603.42	32.761
603.76	31.441
604.09	31.601
604.42	32.328
604.76	32.560
605.09	32.765
605.42	31.680
605.75	32.368
606.09	32.086
606.42	31.753
606.75	31.647
607.09	31.268
607.42	32.092
607.75	30.717
608.08	31.915
608.42	32.631
608.75	31.966
609.08	32.331
609.41	31.652
609.75	30.872
610.08	32.375
610.41	31.890
610.74	32.261
611.07	32.411
611.41	31.747
611.74	31.875
612.07	33.023
612.40	32.581
612.73	32.211
613.07	32.328
613.40	32.491
613.73	31.411
614.06	31.828
614.39	31.044
614.72	32.105
615.06	32.090
615.39	31.476
615.72	31.902
616.05	31.419
616.38	33.130
616.71	31.888
617.05	33.098
617.38	31.750
617.71	32.613
618.04	33.113
618.37	31.520
618.70	32.358
619.03	32.961
619.36	32.722
619.69	33.310
620.03	34.135
620.36	33.222
620.69	32.671
621.02	33.260
621.35	32.185
621.68	33.022
622.01	33.282
622.34	32.526
622.67	32.548
623.00	32.942
623.33	31.523
623.66	33.024
623.99	32.474
624.32	31.954
624.65	31.921
624.99	32.365
625.32	31.716
625.65	32.532
625.98	33.205
626.31	32.193
626.64	32.245
626.97	33.167
627.30	32.170
627.63	33.388
627.96	33.978
628.29	33.771
628.62	33.028
628.95	34.151
629.28	32.482
629.61	34.922
629.94	34.762
630.26	33.174
630.59	33.365
630.92	33.333
