SpectraSuite Data File
++++++++++++++++++++++++++++++++++++
Date: Wed May 13 16:56:04 PDT 2015
User: schluterlab
Dark Spectrum Present: Yes
Reference Spectrum Present: Yes
Number of Sampled Component Spectra: 1
Spectrometers: USB2E3373
Integration Time (usec): 3000 (USB2E3373)
Spectra Averaged: 3 (USB2E3373)
Boxcar Smoothing: 0 (USB2E3373)
Correct for Electrical Dark: No (USB2E3373)
Strobe/Lamp Enabled: No (USB2E3373)
Correct for Detector Non-linearity: No (USB2E3373)
Correct for Stray Light: No (USB2E3373)
Number of Pixels in Processed Spectrum: 2048
>>>>>Begin Processed Spectral Data<<<<<
178.53	0.000
178.91	-1450.000
179.29	-1075.000
179.67	-183.333
180.04	-1300.000
180.42	2750.000
180.80	1100.000
181.18	-1000.000
181.56	614.286
181.94	0.000
182.31	-814.286
182.69	1900.000
183.07	-587.500
183.45	-488.889
183.83	554.545
184.20	-440.000
184.58	2800.000
184.96	5000.000
185.34	-860.000
185.72	-612.500
186.09	-2400.000
186.47	2750.000
186.85	2500.000
187.23	5400.000
187.61	-1900.000
187.98	1375.000
188.36	609.091
188.74	518.182
189.12	-1020.000
189.49	510.000
189.87	-4700.000
190.25	-1325.000
190.63	457.143
191.00	384.615
191.38	816.667
191.76	-1250.000
192.14	1500.000
192.51	637.500
192.89	950.000
193.27	587.500
193.65	-1450.000
194.02	490.000
194.40	1000.000
194.78	570.000
195.15	525.000
195.53	590.000
195.91	-2550.000
196.29	343.750
196.66	326.316
197.04	-420.000
197.42	0.000
197.79	680.000
198.17	-4800.000
198.55	800.000
198.92	600.000
199.30	880.000
199.68	0.000
200.05	322.222
200.43	871.429
200.81	4600.000
201.18	1766.667
201.56	-1300.000
201.94	611.111
202.31	577.778
202.69	491.667
203.07	560.000
203.44	0.000
203.82	1225.000
204.19	857.143
204.57	428.571
204.95	675.000
205.32	1866.667
205.70	454.545
206.08	385.714
206.45	2950.000
206.83	375.000
207.20	916.667
207.58	780.000
207.96	316.667
208.33	737.500
208.71	-816.667
209.08	842.857
209.46	588.889
209.84	481.818
210.21	-1566.667
210.59	1575.000
210.96	-487.500
211.34	2950.000
211.71	620.000
212.09	800.000
212.46	0.000
212.84	1800.000
213.22	1325.000
213.59	-4900.000
213.97	833.333
214.34	771.429
214.72	590.909
215.09	1120.000
215.47	-2600.000
215.84	-2400.000
216.22	1566.667
216.59	350.000
216.97	1450.000
217.34	490.909
217.72	-583.333
218.09	0.000
218.47	-4700.000
218.84	577.778
219.22	771.429
219.59	1700.000
219.97	-671.429
220.34	1080.000
220.72	-1733.333
221.09	464.286
221.47	1500.000
221.84	-916.667
222.22	0.000
222.59	1250.000
222.97	-2200.000
223.34	1200.000
223.72	476.923
224.09	1040.000
224.46	2300.000
224.84	-4700.000
225.21	-900.000
225.59	-4600.000
225.96	680.000
226.34	330.000
226.71	2700.000
227.08	650.000
227.46	650.000
227.83	-1250.000
228.21	-2850.000
228.58	622.222
228.95	-2500.000
229.33	-2650.000
229.70	1500.000
230.08	928.571
230.45	-900.000
230.82	391.667
231.20	750.000
231.57	671.429
231.95	500.000
232.32	222.727
232.69	445.455
233.07	742.857
233.44	376.923
233.81	-1700.000
234.19	284.211
234.56	525.000
234.93	350.000
235.31	481.818
235.68	400.000
236.05	442.857
236.43	175.758
236.80	352.632
237.17	5900.000
237.55	252.381
237.92	221.429
238.29	295.238
238.67	177.419
239.04	231.034
239.41	180.556
239.79	150.000
240.16	188.095
240.53	165.909
240.91	131.373
241.28	164.000
241.65	132.000
242.02	126.087
242.40	119.355
242.77	131.667
243.14	96.774
243.51	112.360
243.89	107.059
244.26	85.556
244.63	98.925
245.00	91.489
245.38	97.030
245.75	75.701
246.12	86.239
246.49	82.482
246.87	88.000
247.24	80.000
247.61	75.000
247.98	71.895
248.36	77.703
248.73	70.064
249.10	75.796
249.47	67.797
249.84	69.519
250.22	69.519
250.59	68.639
250.96	69.697
251.33	62.559
251.70	64.851
252.08	61.429
252.45	58.296
252.82	57.391
253.19	61.277
253.56	58.824
253.94	62.241
254.31	58.203
254.68	63.077
255.05	58.672
255.42	57.317
255.79	60.294
256.16	62.816
256.54	54.417
256.91	58.363
257.28	56.835
257.65	54.125
258.02	58.385
258.39	56.151
258.76	57.191
259.14	52.083
259.51	54.407
259.88	53.106
260.25	52.568
260.62	54.335
260.99	55.280
261.36	55.856
261.73	52.722
262.10	53.488
262.47	55.211
262.85	52.368
263.22	49.288
263.59	54.131
263.96	50.549
264.33	50.131
264.70	51.316
265.07	49.872
265.44	52.273
265.81	49.878
266.18	48.492
266.55	50.000
266.92	50.860
267.29	47.917
267.66	44.266
268.03	49.091
268.40	51.168
268.77	50.358
269.14	49.324
269.51	48.533
269.88	51.049
270.25	48.984
270.62	46.966
270.99	52.688
271.36	47.639
271.73	51.636
272.10	47.826
272.47	47.957
272.84	47.619
273.21	49.266
273.58	49.345
273.95	44.654
274.32	47.314
274.69	46.253
275.06	44.882
275.43	47.234
275.80	46.293
276.17	47.251
276.54	47.609
276.91	46.047
277.28	47.461
277.65	47.776
278.02	44.513
278.39	46.289
278.76	44.364
279.13	43.585
279.50	44.507
279.87	45.618
280.23	46.307
280.60	44.874
280.97	45.287
281.34	44.779
281.71	46.000
282.08	45.106
282.45	43.636
282.82	43.162
283.19	42.068
283.56	43.333
283.92	46.362
284.29	42.681
284.66	42.831
285.03	44.485
285.40	43.486
285.77	42.761
286.14	43.178
286.51	42.500
286.87	42.564
287.24	43.648
287.61	40.770
287.98	42.532
288.35	40.095
288.72	39.720
289.08	42.097
289.45	43.163
289.82	39.837
290.19	39.403
290.56	39.510
290.93	38.973
291.29	39.264
291.66	39.233
292.03	38.081
292.40	41.997
292.77	38.609
293.13	36.716
293.50	36.589
293.87	38.963
294.24	37.185
294.60	37.700
294.97	36.192
295.34	37.800
295.71	37.358
296.08	35.043
296.44	35.763
296.81	34.610
297.18	36.992
297.55	32.322
297.91	33.641
298.28	35.207
298.65	33.943
299.02	35.968
299.38	31.740
299.75	30.997
300.12	32.950
300.48	32.750
300.85	31.689
301.22	32.739
301.59	32.828
301.95	32.494
302.32	33.376
302.69	32.975
303.05	31.152
303.42	31.235
303.79	31.484
304.15	30.769
304.52	31.286
304.89	30.546
305.25	29.118
305.62	31.257
305.99	33.058
306.35	31.879
306.72	30.942
307.09	31.188
307.45	32.095
307.82	29.799
308.19	31.126
308.55	32.362
308.92	31.794
309.29	30.412
309.65	29.799
310.02	29.598
310.38	29.785
310.75	30.412
311.12	30.604
311.48	30.617
311.85	31.971
312.22	31.530
312.58	30.042
312.95	32.313
313.31	30.680
313.68	32.225
314.05	32.643
314.41	30.754
314.78	32.427
315.14	30.785
315.51	33.059
315.87	32.772
316.24	32.274
316.61	31.189
316.97	31.213
317.34	32.583
317.70	33.843
318.07	34.167
318.43	36.008
318.80	33.458
319.16	33.239
319.53	34.428
319.89	36.000
320.26	35.900
320.62	36.607
320.99	35.758
321.35	37.172
321.72	39.014
322.08	38.006
322.45	41.393
322.81	40.601
323.18	40.751
323.54	39.518
323.91	40.472
324.27	42.543
324.64	41.473
325.00	41.118
325.37	44.222
325.73	44.614
326.10	42.807
326.46	45.251
326.83	44.694
327.19	45.773
327.56	48.432
327.92	47.769
328.29	48.891
328.65	49.171
329.01	46.661
329.38	49.306
329.74	50.416
330.11	49.105
330.47	51.607
330.84	51.195
331.20	50.182
331.56	50.275
331.93	52.870
332.29	51.996
332.66	52.035
333.02	50.000
333.38	50.587
333.75	51.783
334.11	50.890
334.48	52.085
334.84	53.676
335.20	54.455
335.57	51.859
335.93	52.679
336.29	52.473
336.66	52.570
337.02	52.308
337.38	51.481
337.75	50.891
338.11	54.521
338.47	53.131
338.84	52.612
339.20	52.294
339.56	54.380
339.93	53.636
340.29	52.446
340.65	53.298
341.02	53.490
341.38	52.758
341.74	51.579
342.11	54.672
342.47	52.423
342.83	51.969
343.20	54.199
343.56	51.727
343.92	53.772
344.28	52.041
344.65	52.794
345.01	52.778
345.37	53.002
345.73	53.723
346.10	53.538
346.46	53.390
346.82	53.130
347.19	52.966
347.55	52.381
347.91	53.317
348.27	53.410
348.63	53.595
349.00	53.236
349.36	52.709
349.72	51.885
350.08	52.350
350.45	52.726
350.81	53.940
351.17	52.917
351.53	53.071
351.89	52.145
352.26	52.802
352.62	52.526
352.98	52.674
353.34	53.492
353.70	52.128
354.07	53.548
354.43	50.794
354.79	52.454
355.15	52.434
355.51	53.557
355.87	54.122
356.24	53.420
356.60	52.205
356.96	54.706
357.32	53.475
357.68	52.441
358.04	51.544
358.40	52.890
358.77	51.956
359.13	52.170
359.49	53.569
359.85	52.698
360.21	53.110
360.57	52.607
360.93	53.923
361.29	53.288
361.66	53.715
362.02	52.239
362.38	51.939
362.74	52.604
363.10	52.406
363.46	52.751
363.82	53.515
364.18	52.790
364.54	54.235
364.90	52.337
365.26	52.647
365.62	51.717
365.98	52.885
366.35	52.865
366.71	52.350
367.07	53.969
367.43	54.572
367.79	53.105
368.15	54.598
368.51	53.198
368.87	53.533
369.23	54.206
369.59	53.367
369.95	53.382
370.31	53.775
370.67	52.754
371.03	54.532
371.39	53.280
371.75	53.603
372.11	52.560
372.47	53.666
372.83	53.963
373.19	53.179
373.55	55.506
373.91	54.345
374.27	53.058
374.63	52.873
374.99	54.873
375.35	53.454
375.71	53.667
376.07	53.086
376.42	54.470
376.78	54.009
377.14	54.817
377.50	54.636
377.86	53.059
378.22	54.614
378.58	53.509
378.94	53.174
379.30	54.326
379.66	54.949
380.02	53.870
380.38	54.038
380.74	54.982
381.09	54.951
381.45	54.702
381.81	53.931
382.17	54.713
382.53	54.403
382.89	54.630
383.25	55.535
383.61	54.771
383.97	54.784
384.32	54.024
384.68	53.965
385.04	54.763
385.40	55.356
385.76	54.975
386.12	55.376
386.48	56.136
386.83	55.805
387.19	55.968
387.55	54.113
387.91	55.381
388.27	54.936
388.62	55.501
388.98	54.115
389.34	56.133
389.70	54.139
390.06	55.323
390.42	54.215
390.77	54.071
391.13	54.627
391.49	55.140
391.85	53.533
392.20	54.511
392.56	54.798
392.92	54.738
393.28	53.491
393.64	54.137
393.99	54.001
394.35	53.226
394.71	53.764
395.07	53.146
395.42	55.006
395.78	54.262
396.14	54.004
396.50	55.388
396.85	54.609
397.21	54.316
397.57	54.557
397.92	54.447
398.28	54.652
398.64	53.106
399.00	53.386
399.35	52.341
399.71	53.414
400.07	53.046
400.42	53.681
400.78	54.463
401.14	53.720
401.49	54.746
401.85	52.934
402.21	52.754
402.57	54.041
402.92	54.414
403.28	54.403
403.63	54.641
403.99	53.312
404.35	53.879
404.70	53.717
405.06	53.640
405.42	54.460
405.77	53.257
406.13	51.693
406.49	53.046
406.84	52.924
407.20	52.955
407.55	53.223
407.91	53.800
408.27	53.478
408.62	53.341
408.98	53.370
409.34	52.276
409.69	53.484
410.05	51.673
410.40	52.416
410.76	52.987
411.11	52.714
411.47	51.757
411.83	52.963
412.18	52.690
412.54	52.677
412.89	51.867
413.25	51.771
413.60	52.934
413.96	51.791
414.31	52.916
414.67	52.788
415.03	53.642
415.38	52.835
415.74	52.219
416.09	52.907
416.45	53.213
416.80	53.007
417.16	53.083
417.51	53.816
417.87	52.152
418.22	52.555
418.58	52.808
418.93	52.457
419.29	51.305
419.64	52.645
420.00	51.341
420.35	51.826
420.71	52.361
421.06	52.804
421.42	52.573
421.77	50.280
422.12	51.432
422.48	50.783
422.83	52.184
423.19	51.271
423.54	52.002
423.90	52.406
424.25	52.373
424.61	51.250
424.96	51.662
425.31	51.329
425.67	51.404
426.02	51.029
426.38	52.442
426.73	50.673
427.09	51.793
427.44	51.466
427.79	50.949
428.15	50.357
428.50	52.604
428.85	52.205
429.21	51.187
429.56	50.700
429.92	50.931
430.27	51.092
430.62	50.230
430.98	50.856
431.33	50.825
431.68	50.262
432.04	50.266
432.39	51.342
432.74	50.987
433.10	51.387
433.45	51.895
433.80	50.942
434.16	50.374
434.51	50.579
434.86	51.083
435.22	50.306
435.57	51.429
435.92	51.258
436.28	51.779
436.63	50.717
436.98	50.258
437.34	51.342
437.69	52.100
438.04	51.827
438.39	52.119
438.75	52.179
439.10	50.838
439.45	50.413
439.81	51.480
440.16	50.819
440.51	50.967
440.86	50.782
441.22	50.779
441.57	51.433
441.92	50.665
442.27	50.753
442.63	50.237
442.98	51.549
443.33	49.837
443.68	50.284
444.03	50.317
444.39	50.146
444.74	51.082
445.09	51.321
445.44	50.683
445.79	50.272
446.15	49.974
446.50	50.619
446.85	50.360
447.20	50.127
447.55	51.033
447.91	50.634
448.26	50.417
448.61	50.424
448.96	51.440
449.31	51.912
449.66	50.253
450.02	50.585
450.37	50.227
450.72	50.931
451.07	49.543
451.42	49.848
451.77	50.382
452.12	50.577
452.47	50.995
452.83	50.350
453.18	50.428
453.53	50.897
453.88	50.148
454.23	48.715
454.58	50.030
454.93	51.748
455.28	49.813
455.63	50.121
455.98	51.429
456.34	50.817
456.69	49.969
457.04	52.074
457.39	49.795
457.74	49.158
458.09	50.201
458.44	50.000
458.79	49.078
459.14	49.323
459.49	50.146
459.84	49.474
460.19	50.560
460.54	48.611
460.89	49.150
461.24	49.484
461.59	50.436
461.94	49.568
462.29	49.318
462.64	48.437
462.99	48.992
463.34	50.600
463.69	49.343
464.04	49.101
464.39	48.754
464.74	49.436
465.09	49.517
465.44	47.922
465.79	49.217
466.14	48.057
466.49	47.497
466.84	48.628
467.19	49.004
467.54	50.250
467.89	48.980
468.24	47.702
468.59	49.817
468.94	47.587
469.29	48.907
469.64	49.130
469.99	50.338
470.34	49.339
470.68	50.718
471.03	49.184
471.38	49.548
471.73	49.167
472.08	49.539
472.43	48.869
472.78	48.124
473.13	48.588
473.48	49.376
473.83	48.659
474.17	48.102
474.52	49.256
474.87	48.395
475.22	48.288
475.57	47.770
475.92	46.999
476.27	47.294
476.61	47.546
476.96	47.169
477.31	47.828
477.66	47.812
478.01	47.412
478.36	48.123
478.70	46.625
479.05	49.095
479.40	48.362
479.75	48.399
480.10	47.614
480.45	47.501
480.79	45.915
481.14	47.211
481.49	47.366
481.84	47.051
482.19	47.251
482.53	46.422
482.88	47.417
483.23	46.963
483.58	46.724
483.92	47.938
484.27	45.708
484.62	46.767
484.97	47.103
485.31	47.671
485.66	46.681
486.01	45.247
486.36	42.846
486.70	41.417
487.05	42.715
487.40	43.463
487.75	44.359
488.09	44.920
488.44	44.997
488.79	46.908
489.13	46.066
489.48	46.656
489.83	46.008
490.17	46.909
490.52	45.217
490.87	46.088
491.22	45.566
491.56	44.875
491.91	45.928
492.26	45.062
492.60	45.622
492.95	46.024
493.30	44.579
493.64	46.150
493.99	44.940
494.34	45.698
494.68	45.650
495.03	46.429
495.37	46.626
495.72	45.760
496.07	45.986
496.41	44.115
496.76	44.811
497.11	45.700
497.45	45.086
497.80	46.785
498.14	45.797
498.49	45.610
498.84	45.877
499.18	45.333
499.53	45.442
499.87	45.480
500.22	44.465
500.56	46.311
500.91	44.183
501.26	44.855
501.60	45.847
501.95	44.271
502.29	45.736
502.64	45.624
502.98	44.787
503.33	44.835
503.67	45.012
504.02	44.855
504.36	44.782
504.71	45.432
505.06	44.434
505.40	44.579
505.75	44.889
506.09	44.801
506.44	44.746
506.78	43.838
507.13	45.533
507.47	45.253
507.82	45.441
508.16	45.846
508.51	45.814
508.85	44.240
509.19	44.745
509.54	45.204
509.88	44.668
510.23	44.833
510.57	45.769
510.92	45.624
511.26	43.936
511.61	45.021
511.95	43.580
512.30	44.327
512.64	44.922
512.98	44.748
513.33	44.593
513.67	44.344
514.02	44.697
514.36	44.347
514.70	44.604
515.05	44.897
515.39	43.634
515.74	45.158
516.08	44.885
516.42	45.117
516.77	45.429
517.11	43.729
517.46	44.921
517.80	45.180
518.14	44.354
518.49	45.158
518.83	44.318
519.17	44.804
519.52	44.539
519.86	44.438
520.20	43.757
520.55	45.003
520.89	45.012
521.23	45.356
521.58	45.558
521.92	45.683
522.26	43.807
522.61	44.424
522.95	44.506
523.29	44.492
523.64	44.695
523.98	45.410
524.32	45.054
524.66	44.077
525.01	43.873
525.35	44.114
525.69	44.335
526.04	45.421
526.38	43.563
526.72	43.988
527.06	44.884
527.41	42.636
527.75	45.145
528.09	43.545
528.43	43.913
528.78	44.868
529.12	44.242
529.46	44.764
529.80	44.678
530.15	44.486
530.49	43.754
530.83	44.873
531.17	44.843
531.51	46.174
531.86	44.387
532.20	45.437
532.54	43.818
532.88	44.480
533.22	42.723
533.57	44.383
533.91	42.745
534.25	43.074
534.59	43.441
534.93	42.891
535.27	42.909
535.62	43.407
535.96	44.382
536.30	43.293
536.64	43.335
536.98	43.265
537.32	42.989
537.66	43.533
538.01	43.976
538.35	43.633
538.69	43.140
539.03	43.340
539.37	42.492
539.71	42.061
540.05	43.922
540.39	43.654
540.73	43.855
541.07	43.803
541.42	43.836
541.76	43.548
542.10	43.208
542.44	42.980
542.78	44.071
543.12	43.314
543.46	43.016
543.80	43.656
544.14	42.940
544.48	43.937
544.82	42.976
545.16	42.681
545.50	43.252
545.84	42.675
546.18	43.232
546.52	44.391
546.86	43.230
547.20	42.279
547.54	43.287
547.88	44.643
548.22	42.217
548.56	41.509
548.90	41.485
549.24	43.502
549.58	42.701
549.92	42.651
550.26	43.608
550.60	42.739
550.94	41.901
551.28	42.356
551.62	43.781
551.96	43.088
552.30	42.799
552.64	42.934
552.98	43.186
553.32	42.077
553.66	42.740
554.00	42.485
554.34	42.581
554.68	42.561
555.02	42.031
555.36	41.475
555.69	41.543
556.03	42.934
556.37	41.951
556.71	41.610
557.05	42.017
557.39	42.687
557.73	43.260
558.07	42.930
558.41	42.402
558.75	41.514
559.08	42.356
559.42	42.479
559.76	42.279
560.10	42.684
560.44	41.300
560.78	41.251
561.12	42.150
561.45	41.395
561.79	41.727
562.13	41.851
562.47	42.691
562.81	42.329
563.15	42.274
563.48	42.241
563.82	40.965
564.16	41.400
564.50	41.602
564.84	41.150
565.17	41.248
565.51	42.045
565.85	41.307
566.19	41.828
566.52	41.419
566.86	40.868
567.20	41.686
567.54	41.667
567.88	40.196
568.21	41.905
568.55	40.394
568.89	40.856
569.23	39.572
569.56	39.595
569.90	39.509
570.24	38.715
570.57	38.286
570.91	37.912
571.25	38.048
571.59	38.439
571.92	37.817
572.26	38.619
572.60	38.468
572.93	38.231
573.27	38.125
573.61	37.968
573.95	38.140
574.28	37.362
574.62	37.488
574.96	37.109
575.29	37.561
575.63	36.814
575.97	37.178
576.30	37.971
576.64	37.705
576.98	37.846
577.31	37.800
577.65	37.416
577.98	37.776
578.32	36.974
578.66	37.317
578.99	37.297
579.33	37.134
579.67	36.828
580.00	37.305
580.34	37.565
580.67	37.580
581.01	37.508
581.35	37.554
581.68	37.456
582.02	36.453
582.35	36.600
582.69	36.612
583.02	36.849
583.36	37.468
583.70	37.912
584.03	37.957
584.37	37.971
584.70	37.696
585.04	37.573
585.37	37.512
585.71	37.805
586.04	37.038
586.38	38.062
586.72	37.531
587.05	37.028
587.39	36.675
587.72	37.027
588.06	37.620
588.39	36.763
588.73	37.460
589.06	37.146
589.40	39.158
589.73	38.120
590.07	37.687
590.40	37.377
590.73	39.071
591.07	38.787
591.40	38.423
591.74	39.048
592.07	38.264
592.41	38.694
592.74	37.603
593.08	37.975
593.41	37.330
593.75	36.758
594.08	36.976
594.41	37.398
594.75	38.336
595.08	37.688
595.42	37.583
595.75	37.571
596.09	38.228
596.42	37.525
596.75	38.455
597.09	37.229
597.42	37.690
597.75	38.810
598.09	37.174
598.42	37.715
598.76	37.130
599.09	36.716
599.42	36.645
599.76	37.225
600.09	36.721
600.42	36.231
600.76	36.786
601.09	36.648
601.42	37.291
601.76	36.888
602.09	37.708
602.42	37.420
602.76	37.727
603.09	37.490
603.42	38.462
603.76	37.271
604.09	37.301
604.42	38.117
604.76	38.212
605.09	37.702
605.42	38.179
605.75	37.293
606.09	37.007
606.42	37.597
606.75	36.997
607.09	37.129
607.42	37.313
607.75	36.709
608.08	37.733
608.42	37.606
608.75	37.106
609.08	37.512
609.41	37.458
609.75	37.018
610.08	37.323
610.41	36.639
610.74	36.424
611.07	38.142
611.41	37.586
611.74	38.462
612.07	37.785
612.40	38.458
612.73	37.842
613.07	38.362
613.40	38.599
613.73	37.808
614.06	37.849
614.39	37.021
614.72	37.789
615.06	37.763
615.39	37.633
615.72	37.423
616.05	36.842
616.38	38.132
616.71	38.480
617.05	38.751
617.38	38.004
617.71	38.318
618.04	38.882
618.37	38.202
618.70	38.146
619.03	38.947
619.36	38.900
619.69	39.366
620.03	39.080
620.36	38.636
620.69	39.521
621.02	38.643
621.35	38.684
621.68	37.928
622.01	36.997
622.34	38.502
622.67	39.468
623.00	38.518
623.33	39.242
623.66	38.242
623.99	38.439
624.32	37.447
624.65	37.288
624.99	38.244
625.32	38.668
625.65	38.317
625.98	40.430
626.31	38.647
626.64	40.490
626.97	40.150
627.30	39.900
627.63	39.377
627.96	40.538
628.29	39.720
628.62	40.348
628.95	41.038
629.28	40.146
629.61	40.788
629.94	41.048
630.26	38.322
630.59	38.799
