SpectraSuite Data File
++++++++++++++++++++++++++++++++++++
Date: Wed May 13 16:13:41 PDT 2015
User: schluterlab
Dark Spectrum Present: Yes
Reference Spectrum Present: Yes
Number of Sampled Component Spectra: 1
Spectrometers: USB2E3373
Integration Time (usec): 3000 (USB2E3373)
Spectra Averaged: 3 (USB2E3373)
Boxcar Smoothing: 0 (USB2E3373)
Correct for Electrical Dark: No (USB2E3373)
Strobe/Lamp Enabled: No (USB2E3373)
Correct for Detector Non-linearity: No (USB2E3373)
Correct for Stray Light: No (USB2E3373)
Number of Pixels in Processed Spectrum: 2048
>>>>>Begin Processed Spectral Data<<<<<
178.53	0.000
178.91	-875.000
179.29	-925.000
179.67	-222.222
180.04	-975.000
180.42	2200.000
180.80	900.000
181.18	-825.000
181.56	471.429
181.94	0.000
182.31	-457.143
182.69	1300.000
183.07	-462.500
183.45	-377.778
183.83	472.727
184.20	-210.000
184.58	1250.000
184.96	4700.000
185.34	-720.000
185.72	-375.000
186.09	-2100.000
186.47	2150.000
186.85	2000.000
187.23	3300.000
187.61	-1566.667
187.98	950.000
188.36	445.455
188.74	436.364
189.12	-720.000
189.49	420.000
189.87	-3700.000
190.25	-1000.000
190.63	314.286
191.00	369.231
191.38	750.000
191.76	-775.000
192.14	1500.000
192.51	425.000
192.89	816.667
193.27	550.000
193.65	-775.000
194.02	390.000
194.40	780.000
194.78	360.000
195.15	375.000
195.53	570.000
195.91	-1900.000
196.29	312.500
196.66	247.368
197.04	-250.000
197.42	0.000
197.79	500.000
198.17	-4200.000
198.55	514.286
198.92	475.000
199.30	740.000
199.68	0.000
200.05	255.556
200.43	685.714
200.81	3500.000
201.18	1000.000
201.56	-1066.667
201.94	355.556
202.31	500.000
202.69	391.667
203.07	430.000
203.44	0.000
203.82	1000.000
204.19	528.571
204.57	364.286
204.95	512.500
205.32	1133.333
205.70	409.091
206.08	278.571
206.45	2650.000
206.83	337.500
207.20	550.000
207.58	720.000
207.96	200.000
208.33	575.000
208.71	-750.000
209.08	614.286
209.46	533.333
209.84	354.545
210.21	-1266.667
210.59	1175.000
210.96	-400.000
211.34	2100.000
211.71	570.000
212.09	600.000
212.46	0.000
212.84	1300.000
213.22	1150.000
213.59	-3400.000
213.97	633.333
214.34	614.286
214.72	500.000
215.09	940.000
215.47	-2200.000
215.84	-2050.000
216.22	1366.667
216.59	350.000
216.97	1150.000
217.34	345.455
217.72	-600.000
218.09	0.000
218.47	-4200.000
218.84	511.111
219.22	828.571
219.59	1533.333
219.97	-428.571
220.34	760.000
220.72	-1266.667
221.09	321.429
221.47	1350.000
221.84	-666.667
222.22	0.000
222.59	1100.000
222.97	-2000.000
223.34	1040.000
223.72	307.692
224.09	920.000
224.46	2550.000
224.84	-3800.000
225.21	-640.000
225.59	-4200.000
225.96	500.000
226.34	255.000
226.71	1850.000
227.08	575.000
227.46	430.000
227.83	-825.000
228.21	-2300.000
228.58	455.556
228.95	-2250.000
229.33	-1650.000
229.70	1200.000
230.08	571.429
230.45	-680.000
230.82	408.333
231.20	650.000
231.57	557.143
231.95	408.333
232.32	209.091
232.69	318.182
233.07	528.571
233.44	361.538
233.81	-1400.000
234.19	247.368
234.56	383.333
234.93	391.667
235.31	454.545
235.68	330.769
236.05	350.000
236.43	145.455
236.80	268.421
237.17	4600.000
237.55	261.905
237.92	221.429
238.29	290.476
238.67	196.774
239.04	224.138
239.41	188.889
239.79	143.478
240.16	159.524
240.53	159.091
240.91	127.451
241.28	152.000
241.65	156.000
242.02	118.841
242.40	122.581
242.77	141.667
243.14	98.925
243.51	107.865
243.89	122.353
244.26	94.444
244.63	98.925
245.00	103.191
245.38	105.941
245.75	101.869
246.12	82.569
246.49	94.161
246.87	99.200
247.24	90.769
247.61	94.286
247.98	83.660
248.36	83.108
248.73	82.803
249.10	89.809
249.47	75.706
249.84	79.144
250.22	82.888
250.59	85.799
250.96	85.859
251.33	77.251
251.70	78.713
252.08	79.524
252.45	75.336
252.82	76.522
253.19	75.745
253.56	76.863
253.94	75.104
254.31	75.781
254.68	78.462
255.05	74.539
255.42	74.797
255.79	78.309
256.16	80.505
256.54	75.618
256.91	74.733
257.28	71.583
257.65	67.987
258.02	75.155
258.39	70.032
258.76	73.244
259.14	69.345
259.51	73.252
259.88	71.429
260.25	70.091
260.62	68.786
260.99	70.186
261.36	72.372
261.73	72.206
262.10	71.221
262.47	67.887
262.85	67.409
263.22	64.387
263.59	72.080
263.96	69.505
264.33	65.535
264.70	69.211
265.07	69.821
265.44	68.687
265.81	64.964
266.18	69.095
266.55	70.244
266.92	68.550
267.29	68.750
267.66	66.284
268.03	65.455
268.40	65.654
268.77	64.200
269.14	67.117
269.51	66.366
269.88	69.464
270.25	65.237
270.62	65.393
270.99	67.097
271.36	62.661
271.73	67.290
272.10	68.261
272.47	65.806
272.84	64.286
273.21	64.570
273.58	65.939
273.95	64.361
274.32	64.050
274.69	65.310
275.06	63.386
275.43	64.255
275.80	63.527
276.17	65.580
276.54	67.568
276.91	63.834
277.28	63.672
277.65	65.377
278.02	63.561
278.39	63.477
278.76	61.636
279.13	61.887
279.50	62.011
279.87	61.355
280.23	64.072
280.60	64.217
280.97	64.880
281.34	61.947
281.71	61.455
282.08	63.532
282.45	62.000
282.82	62.167
283.19	58.467
283.56	58.772
283.92	62.606
284.29	60.317
284.66	59.528
285.03	60.036
285.40	60.035
285.77	60.606
286.14	60.794
286.51	58.000
286.87	60.513
287.24	60.749
287.61	56.501
287.98	58.279
288.35	55.784
288.72	55.919
289.08	56.338
289.45	56.343
289.82	56.260
290.19	54.317
290.56	53.446
290.93	53.021
291.29	54.294
291.66	55.162
292.03	55.087
292.40	55.066
292.77	52.367
293.13	52.687
293.50	52.915
293.87	52.444
294.24	51.259
294.60	50.218
294.97	50.436
295.34	51.058
295.71	50.994
296.08	48.433
296.44	50.206
296.81	49.670
297.18	50.271
297.55	48.417
297.91	48.945
298.28	48.461
298.65	49.217
299.02	48.880
299.38	48.340
299.75	45.418
300.12	45.977
300.48	46.375
300.85	46.116
301.22	45.350
301.59	47.096
301.95	47.733
302.32	47.497
302.69	46.237
303.05	45.091
303.42	44.938
303.79	46.886
304.15	45.455
304.52	44.496
304.89	45.412
305.25	44.548
305.62	45.640
305.99	46.399
306.35	45.414
306.72	46.749
307.09	46.615
307.45	46.171
307.82	45.201
308.19	47.020
308.55	45.415
308.92	45.113
309.29	45.301
309.65	45.175
310.02	45.243
310.38	46.344
310.75	47.096
311.12	44.217
311.48	46.708
311.85	47.170
312.22	46.722
312.58	47.193
312.95	48.258
313.31	44.951
313.68	47.505
314.05	48.817
314.41	47.437
314.78	49.345
315.14	47.666
315.51	49.228
315.87	48.614
316.24	49.652
316.61	49.025
316.97	47.945
317.34	49.022
317.70	50.860
318.07	50.818
318.43	51.663
318.80	51.546
319.16	52.637
319.53	51.032
319.89	52.190
320.26	53.400
320.62	53.671
320.99	54.444
321.35	54.040
321.72	55.955
322.08	56.466
322.45	56.617
322.81	58.043
323.18	58.382
323.54	58.720
323.91	58.679
324.27	60.421
324.64	58.993
325.00	62.759
325.37	61.419
325.73	62.478
326.10	63.372
326.46	64.695
326.83	67.041
327.19	65.670
327.56	66.376
327.92	66.492
328.29	68.234
328.65	70.810
329.01	67.419
329.38	71.415
329.74	71.283
330.11	70.782
330.47	72.911
330.84	70.772
331.20	71.403
331.56	69.817
331.93	73.796
332.29	72.138
332.66	72.655
333.02	71.481
333.38	72.990
333.75	74.332
334.11	73.132
334.48	73.381
334.84	74.081
335.20	72.455
335.57	73.073
335.93	73.571
336.29	74.451
336.66	73.850
337.02	73.213
337.38	74.815
337.75	74.510
338.11	73.500
338.47	76.703
338.84	75.802
339.20	74.954
339.56	75.456
339.93	74.545
340.29	75.000
340.65	73.529
341.02	74.607
341.38	74.377
341.74	73.860
342.11	75.109
342.47	75.947
342.83	74.914
343.20	75.065
343.56	72.704
343.92	76.404
344.28	76.190
344.65	76.526
345.01	73.737
345.37	74.185
345.73	74.788
346.10	75.959
346.46	74.237
346.82	75.288
347.19	76.107
347.55	73.399
347.91	75.000
348.27	76.171
348.63	76.338
349.00	74.110
349.36	75.369
349.72	74.178
350.08	73.177
350.45	75.427
350.81	75.467
351.17	73.663
351.53	74.693
351.89	75.083
352.26	75.770
352.62	74.820
352.98	74.068
353.34	76.746
353.70	74.877
354.07	74.758
354.43	75.238
354.79	73.371
355.15	76.137
355.51	77.618
355.87	76.000
356.24	77.443
356.60	74.018
356.96	77.072
357.32	76.370
357.68	75.669
358.04	76.010
358.40	75.772
358.77	75.822
359.13	75.296
359.49	76.314
359.85	77.063
360.21	77.432
360.57	78.521
360.93	78.308
361.29	77.173
361.66	77.322
362.02	76.418
362.38	76.958
362.74	77.604
363.10	77.054
363.46	77.183
363.82	77.778
364.18	75.991
364.54	78.455
364.90	77.125
365.26	77.574
365.62	79.328
365.98	78.744
366.35	77.221
366.71	78.380
367.07	78.004
367.43	78.955
367.79	79.515
368.15	79.526
368.51	77.762
368.87	80.300
369.23	79.298
369.59	79.725
369.95	79.191
370.31	77.991
370.67	79.058
371.03	79.026
371.39	81.633
371.75	79.926
372.11	78.734
372.47	79.985
372.83	81.628
373.19	79.769
373.55	82.631
373.91	82.474
374.27	79.588
374.63	81.964
374.99	80.720
375.35	80.461
375.71	79.918
376.07	82.442
376.42	81.912
376.78	82.704
377.14	81.547
377.50	82.450
377.86	81.383
378.22	83.565
378.58	81.516
378.94	82.087
379.30	83.270
379.66	84.454
380.02	82.187
380.38	83.607
380.74	83.373
381.09	83.435
381.45	84.143
381.81	85.811
382.17	84.586
382.53	84.528
382.89	85.000
383.25	85.866
383.61	85.130
383.97	84.553
384.32	84.591
384.68	83.767
385.04	85.741
385.40	84.892
385.76	85.258
386.12	87.176
386.48	86.029
386.83	87.107
387.19	85.714
387.55	86.024
387.91	86.215
388.27	84.917
388.62	85.679
388.98	86.241
389.34	85.419
389.70	84.304
390.06	86.439
390.42	87.289
390.77	84.796
391.13	87.683
391.49	87.183
391.85	86.060
392.20	86.435
392.56	86.364
392.92	87.640
393.28	87.692
393.64	86.571
393.99	86.011
394.35	86.663
394.71	86.386
395.07	86.044
395.42	87.330
395.78	86.323
396.14	85.661
396.50	86.654
396.85	88.366
397.21	85.142
397.57	86.485
397.92	86.478
398.28	85.370
398.64	86.738
399.00	86.570
399.35	84.828
399.71	85.648
400.07	85.689
400.42	86.503
400.78	86.731
401.14	85.122
401.49	85.612
401.85	84.997
402.21	85.629
402.57	85.503
402.92	85.813
403.28	87.133
403.63	86.819
403.99	86.815
404.35	85.030
404.70	85.671
405.06	83.518
405.42	86.588
405.77	84.229
406.13	85.045
406.49	84.861
406.84	83.048
407.20	85.638
407.55	86.024
407.91	85.400
408.27	86.471
408.62	84.648
408.98	85.172
409.34	85.117
409.69	87.548
410.05	84.511
410.40	85.933
410.76	83.811
411.11	83.172
411.47	82.173
411.83	83.262
412.18	83.426
412.54	85.181
412.89	82.410
413.25	84.770
413.60	84.311
413.96	82.514
414.31	82.625
414.67	83.967
415.03	83.841
415.38	82.603
415.74	83.215
416.09	84.389
416.45	84.137
416.80	83.278
417.16	84.987
417.51	85.335
417.87	83.751
418.22	83.912
418.58	81.988
418.93	83.477
419.29	83.132
419.64	84.446
420.00	84.207
420.35	82.145
420.71	84.459
421.06	83.174
421.42	82.632
421.77	83.800
422.12	84.840
422.48	83.432
422.83	84.042
423.19	82.099
423.54	85.432
423.90	84.870
424.25	81.686
424.61	83.929
424.96	84.548
425.31	84.275
425.67	83.090
426.02	82.400
426.38	85.348
426.73	83.265
427.09	84.255
427.44	84.359
427.79	84.301
428.15	83.631
428.50	83.850
428.85	84.148
429.21	83.490
429.56	84.396
429.92	83.342
430.27	84.260
430.62	84.076
430.98	83.809
431.33	83.660
431.68	83.089
432.04	82.588
432.39	84.866
432.74	83.962
433.10	84.324
433.45	85.190
433.80	85.588
434.16	84.509
434.51	83.421
434.86	84.436
435.22	84.936
435.57	84.924
435.92	84.611
436.28	85.587
436.63	83.113
436.98	84.888
437.34	84.556
437.69	85.706
438.04	84.373
438.39	85.194
438.75	85.241
439.10	85.642
439.45	85.773
439.81	84.894
440.16	83.907
440.51	86.292
440.86	85.119
441.22	84.538
441.57	84.448
441.92	85.210
442.27	85.038
442.63	84.202
442.98	85.746
443.33	84.891
443.68	84.615
444.03	84.139
444.39	84.664
444.74	84.470
445.09	85.121
445.44	84.691
445.79	83.424
446.15	82.689
446.50	84.976
446.85	84.173
447.20	85.110
447.55	85.148
447.91	84.115
448.26	84.252
448.61	85.359
448.96	85.659
449.31	85.658
449.66	85.087
450.02	84.178
450.37	84.524
450.72	84.264
451.07	83.181
451.42	83.161
451.77	85.379
452.12	82.794
452.47	84.515
452.83	86.364
453.18	83.680
453.53	86.147
453.88	84.465
454.23	84.340
454.58	84.676
454.93	85.950
455.28	83.603
455.63	82.524
455.98	85.298
456.34	83.920
456.69	84.471
457.04	84.892
457.39	84.103
457.74	84.562
458.09	83.324
458.44	84.265
458.79	82.158
459.14	83.860
459.49	83.946
459.84	82.548
460.19	83.972
460.54	82.581
460.89	83.379
461.24	83.849
461.59	84.253
461.94	83.169
462.29	84.036
462.64	80.728
462.99	82.368
463.34	84.067
463.69	82.864
464.04	81.971
464.39	80.696
464.74	83.066
465.09	82.027
465.44	82.493
465.79	83.389
466.14	80.952
466.49	80.367
466.84	80.969
467.19	83.042
467.54	81.688
467.89	80.312
468.24	80.686
468.59	81.563
468.94	80.941
469.29	81.555
469.64	81.928
469.99	82.409
470.34	80.779
470.68	82.471
471.03	81.020
471.38	82.835
471.73	81.412
472.08	81.711
472.43	81.784
472.78	80.974
473.13	80.873
473.48	81.024
473.83	82.866
474.17	80.274
474.52	81.824
474.87	81.494
475.22	80.905
475.57	79.151
475.92	80.510
476.27	79.481
476.61	80.585
476.96	80.374
477.31	80.952
477.66	81.674
478.01	78.934
478.36	81.227
478.70	79.283
479.05	80.777
479.40	80.194
479.75	79.969
480.10	80.517
480.45	78.915
480.79	77.879
481.14	79.159
481.49	79.829
481.84	79.470
482.19	79.600
482.53	78.486
482.88	78.967
483.23	79.673
483.58	79.299
483.92	79.194
484.27	76.732
484.62	78.448
484.97	78.557
485.31	81.541
485.66	81.637
486.01	79.108
486.36	75.798
486.70	73.060
487.05	74.560
487.40	75.996
487.75	76.889
488.09	77.646
488.44	76.351
488.79	78.734
489.13	78.380
489.48	78.303
489.83	77.946
490.17	78.913
490.52	77.635
490.87	76.753
491.22	76.535
491.56	76.720
491.91	76.501
492.26	75.333
492.60	76.774
492.95	76.146
493.30	75.514
493.64	76.528
493.99	76.230
494.34	76.920
494.68	76.877
495.03	76.880
495.37	74.872
495.72	76.852
496.07	77.169
496.41	74.690
496.76	75.286
497.11	75.957
497.45	75.873
497.80	75.480
498.14	74.976
498.49	75.659
498.84	76.462
499.18	75.810
499.53	75.071
499.87	75.955
500.22	74.659
500.56	76.359
500.91	74.808
501.26	75.439
501.60	75.178
501.95	74.610
502.29	75.305
502.64	75.093
502.98	74.895
503.33	73.995
503.67	73.782
504.02	74.883
504.36	73.374
504.71	74.646
505.06	73.205
505.40	74.283
505.75	73.385
506.09	73.858
506.44	75.530
506.78	73.307
507.13	75.215
507.47	73.434
507.82	74.569
508.16	73.506
508.51	75.140
508.85	71.698
509.19	74.337
509.54	73.571
509.88	73.467
510.23	73.625
510.57	74.561
510.92	73.744
511.26	73.330
511.61	73.548
511.95	70.981
512.30	72.428
512.64	73.079
512.98	73.741
513.33	73.126
513.67	71.558
514.02	71.212
514.36	73.184
514.70	72.939
515.05	72.839
515.39	72.462
515.74	72.466
516.08	71.101
516.42	72.531
516.77	72.520
517.11	72.364
517.46	72.178
517.80	73.287
518.14	71.338
518.49	72.870
518.83	71.875
519.17	71.420
519.52	72.269
519.86	72.105
520.20	72.023
520.55	72.412
520.89	72.628
521.23	72.316
521.58	71.429
521.92	71.219
522.26	70.409
522.61	72.399
522.95	70.780
523.29	70.177
523.64	70.061
523.98	71.411
524.32	70.688
524.66	70.535
525.01	69.792
525.35	70.012
525.69	69.458
526.04	71.153
526.38	69.311
526.72	68.405
527.06	70.119
527.41	67.822
527.75	69.968
528.09	70.841
528.43	70.554
528.78	69.269
529.12	70.000
529.46	69.933
529.80	69.740
530.15	69.782
530.49	68.800
530.83	70.253
531.17	71.867
531.51	71.595
531.86	69.871
532.20	70.013
532.54	68.930
532.88	69.063
533.22	67.270
533.57	68.704
533.91	67.429
534.25	68.044
534.59	69.372
534.93	66.151
535.27	67.773
535.62	68.254
535.96	69.052
536.30	68.913
536.64	67.804
536.98	68.746
537.32	67.479
537.66	68.600
538.01	68.005
538.35	67.809
538.69	68.220
539.03	66.992
539.37	67.220
539.71	66.494
540.05	67.778
540.39	66.379
540.73	66.429
541.07	68.916
541.42	68.754
541.76	66.710
542.10	67.012
542.44	67.285
542.78	68.906
543.12	65.899
543.46	65.246
543.80	66.884
544.14	65.276
544.48	66.794
544.82	66.068
545.16	67.209
545.50	66.452
545.84	67.070
546.18	66.667
546.52	67.722
546.86	68.110
547.20	67.229
547.54	67.001
547.88	65.242
548.22	64.757
548.56	65.220
548.90	65.045
549.24	66.263
549.58	66.439
549.92	66.140
550.26	66.903
550.60	65.629
550.94	65.352
551.28	65.326
551.62	65.349
551.96	65.333
552.30	65.802
552.64	65.517
552.98	66.576
553.32	65.475
553.66	64.145
554.00	66.026
554.34	66.046
554.68	65.522
555.02	64.951
555.36	63.396
555.69	63.938
556.03	63.930
556.37	64.666
556.71	63.438
557.05	63.165
557.39	62.281
557.73	64.714
558.07	66.497
558.41	65.123
558.75	65.246
559.08	65.101
559.42	64.701
559.76	64.706
560.10	64.668
560.44	63.871
560.78	62.275
561.12	63.522
561.45	63.820
561.79	64.667
562.13	63.984
562.47	63.866
562.81	64.923
563.15	62.876
563.48	63.594
563.82	63.144
564.16	64.683
564.50	63.607
564.84	62.769
565.17	63.192
565.51	64.409
565.85	63.261
566.19	61.929
566.52	63.141
566.86	63.593
567.20	62.972
567.54	63.699
567.88	62.032
568.21	61.852
568.55	62.235
568.89	63.132
569.23	61.230
569.56	61.579
569.90	60.679
570.24	62.397
570.57	60.456
570.91	60.052
571.25	60.161
571.59	60.707
571.92	59.562
572.26	60.774
572.60	60.390
572.93	60.240
573.27	60.248
573.61	61.083
573.95	60.103
574.28	59.347
574.62	59.742
574.96	58.447
575.29	58.438
575.63	59.731
575.97	58.917
576.30	59.373
576.64	60.147
576.98	59.480
577.31	59.196
577.65	59.826
577.98	59.489
578.32	58.439
578.66	58.532
578.99	58.799
579.33	59.041
579.67	58.526
580.00	59.386
580.34	58.923
580.67	58.993
581.01	59.726
581.35	59.358
581.68	59.066
582.02	57.967
582.35	57.993
582.69	57.665
583.02	57.585
583.36	58.197
583.70	58.417
584.03	58.856
584.37	59.526
584.70	59.274
585.04	58.366
585.37	58.388
585.71	58.670
586.04	58.106
586.38	59.222
586.72	58.603
587.05	58.001
587.39	58.127
587.72	58.258
588.06	58.351
588.39	57.833
588.73	57.730
589.06	58.554
589.40	58.822
589.73	58.325
590.07	58.221
590.40	58.056
590.73	58.431
591.07	58.689
591.40	58.119
591.74	59.654
592.07	58.682
592.41	58.578
592.74	57.753
593.08	57.628
593.41	57.419
593.75	55.559
594.08	56.621
594.41	57.229
594.75	58.078
595.08	57.552
595.42	57.513
595.75	56.660
596.09	58.393
596.42	57.642
596.75	57.366
597.09	57.273
597.42	56.492
597.75	57.870
598.09	56.696
598.42	57.216
598.76	57.033
599.09	56.823
599.42	55.677
599.76	56.955
600.09	56.831
600.42	56.355
600.76	56.036
601.09	55.446
601.42	56.507
601.76	56.584
602.09	55.850
602.42	56.688
602.76	57.154
603.09	56.884
603.42	57.048
603.76	55.373
604.09	56.340
604.42	56.339
604.76	56.854
605.09	55.352
605.42	55.152
605.75	56.333
606.09	56.202
606.42	57.254
606.75	55.288
607.09	55.002
607.42	54.771
607.75	54.979
608.08	55.102
608.42	56.567
608.75	55.591
609.08	55.782
609.41	54.926
609.75	54.979
610.08	55.608
610.41	55.540
610.74	55.440
611.07	56.423
611.41	55.348
611.74	55.656
612.07	55.642
612.40	56.663
612.73	55.684
613.07	57.004
613.40	56.293
613.73	54.798
614.06	56.828
614.39	54.746
614.72	55.105
615.06	54.779
615.39	55.308
615.72	54.346
616.05	54.226
616.38	54.975
616.71	55.760
617.05	55.536
617.38	56.645
617.71	56.336
618.04	56.010
618.37	54.524
618.70	55.756
619.03	55.461
619.36	56.212
619.69	55.493
620.03	56.525
620.36	55.682
620.69	55.479
621.02	56.268
621.35	56.069
621.68	54.283
622.01	56.811
622.34	55.598
622.67	54.829
623.00	54.292
623.33	54.467
623.66	56.040
623.99	55.155
624.32	54.993
624.65	53.814
624.99	54.178
625.32	55.467
625.65	52.592
625.98	55.803
626.31	53.577
626.64	54.939
626.97	55.943
627.30	54.613
627.63	55.701
627.96	55.257
628.29	53.893
628.62	55.261
628.95	55.660
629.28	55.292
629.61	56.187
629.94	55.524
630.26	54.623
630.59	55.577
630.92	54.023
