SpectraSuite Data File
++++++++++++++++++++++++++++++++++++
Date: Wed May 13 16:49:49 PDT 2015
User: schluterlab
Dark Spectrum Present: Yes
Reference Spectrum Present: Yes
Number of Sampled Component Spectra: 1
Spectrometers: USB2E3373
Integration Time (usec): 3000 (USB2E3373)
Spectra Averaged: 3 (USB2E3373)
Boxcar Smoothing: 0 (USB2E3373)
Correct for Electrical Dark: No (USB2E3373)
Strobe/Lamp Enabled: No (USB2E3373)
Correct for Detector Non-linearity: No (USB2E3373)
Correct for Stray Light: No (USB2E3373)
Number of Pixels in Processed Spectrum: 2048
>>>>>Begin Processed Spectral Data<<<<<
178.53	0.000
178.91	-1150.000
179.29	-1000.000
179.67	-250.000
180.04	-1250.000
180.42	2550.000
180.80	1120.000
181.18	-925.000
181.56	657.143
181.94	0.000
182.31	-585.714
182.69	2100.000
183.07	-462.500
183.45	-377.778
183.83	490.909
184.20	-480.000
184.58	2150.000
184.96	5100.000
185.34	-940.000
185.72	-612.500
186.09	-2250.000
186.47	2050.000
186.85	2300.000
187.23	4800.000
187.61	-1566.667
187.98	1150.000
188.36	563.636
188.74	518.182
189.12	-780.000
189.49	510.000
189.87	-3800.000
190.25	-1350.000
190.63	342.857
191.00	438.462
191.38	766.667
191.76	-1075.000
192.14	1750.000
192.51	587.500
192.89	1033.333
193.27	650.000
193.65	-1050.000
194.02	500.000
194.40	1060.000
194.78	590.000
195.15	533.333
195.53	650.000
195.91	-2000.000
196.29	350.000
196.66	310.526
197.04	-330.000
197.42	0.000
197.79	530.000
198.17	-5100.000
198.55	714.286
198.92	787.500
199.30	820.000
199.68	0.000
200.05	305.556
200.43	900.000
200.81	3900.000
201.18	1600.000
201.56	-1533.333
201.94	533.333
202.31	533.333
202.69	475.000
203.07	540.000
203.44	0.000
203.82	1250.000
204.19	842.857
204.57	400.000
204.95	612.500
205.32	1466.667
205.70	472.727
206.08	364.286
206.45	2650.000
206.83	262.500
207.20	983.333
207.58	740.000
207.96	311.111
208.33	537.500
208.71	-733.333
209.08	714.286
209.46	555.556
209.84	454.545
210.21	-1633.333
210.59	1250.000
210.96	-500.000
211.34	2500.000
211.71	510.000
212.09	716.667
212.46	0.000
212.84	1833.333
213.22	1350.000
213.59	-5100.000
213.97	866.667
214.34	700.000
214.72	545.455
215.09	920.000
215.47	-1850.000
215.84	-2600.000
216.22	1500.000
216.59	428.571
216.97	1225.000
217.34	454.545
217.72	-750.000
218.09	0.000
218.47	-5400.000
218.84	633.333
219.22	628.571
219.59	1733.333
219.97	-571.429
220.34	1080.000
220.72	-1666.667
221.09	414.286
221.47	1500.000
221.84	-916.667
222.22	0.000
222.59	1375.000
222.97	-2700.000
223.34	1060.000
223.72	384.615
224.09	1220.000
224.46	2450.000
224.84	-4400.000
225.21	-940.000
225.59	-4500.000
225.96	570.000
226.34	240.000
226.71	2900.000
227.08	512.500
227.46	510.000
227.83	-1100.000
228.21	-1900.000
228.58	644.444
228.95	-2650.000
229.33	-2250.000
229.70	1833.333
230.08	728.571
230.45	-860.000
230.82	425.000
231.20	800.000
231.57	514.286
231.95	358.333
232.32	209.091
232.69	390.909
233.07	642.857
233.44	430.769
233.81	-1833.333
234.19	263.158
234.56	316.667
234.93	391.667
235.31	345.455
235.68	253.846
236.05	314.286
236.43	172.727
236.80	289.474
237.17	5000.000
237.55	209.524
237.92	207.143
238.29	261.905
238.67	161.290
239.04	182.759
239.41	133.333
239.79	97.826
240.16	128.571
240.53	118.182
240.91	76.471
241.28	96.000
241.65	104.000
242.02	86.957
242.40	87.097
242.77	81.667
243.14	67.742
243.51	60.674
243.89	62.353
244.26	64.444
244.63	67.742
245.00	57.447
245.38	57.426
245.75	55.140
246.12	44.037
246.49	54.745
246.87	48.000
247.24	50.000
247.61	42.857
247.98	39.869
248.36	41.892
248.73	39.490
249.10	45.223
249.47	40.678
249.84	40.642
250.22	35.294
250.59	40.237
250.96	37.879
251.33	36.493
251.70	39.604
252.08	37.619
252.45	36.323
252.82	29.130
253.19	34.894
253.56	36.471
253.94	33.195
254.31	32.031
254.68	31.923
255.05	32.103
255.42	31.707
255.79	29.779
256.16	30.686
256.54	26.148
256.91	28.826
257.28	23.022
257.65	29.043
258.02	29.814
258.39	29.653
258.76	28.094
259.14	28.274
259.51	22.796
259.88	24.845
260.25	27.795
260.62	27.168
260.99	31.366
261.36	27.027
261.73	28.080
262.10	23.837
262.47	25.915
262.85	25.627
263.22	22.792
263.59	25.071
263.96	25.824
264.33	25.849
264.70	28.158
265.07	26.598
265.44	27.525
265.81	22.384
266.18	25.879
266.55	26.585
266.92	24.816
267.29	25.694
267.66	21.560
268.03	22.955
268.40	24.533
268.77	23.150
269.14	22.297
269.51	24.605
269.88	24.242
270.25	22.348
270.62	21.573
270.99	25.591
271.36	25.107
271.73	26.168
272.10	24.783
272.47	23.441
272.84	22.511
273.21	24.319
273.58	21.834
273.95	20.545
274.32	22.521
274.69	23.340
275.06	22.047
275.43	22.553
275.80	20.441
276.17	22.403
276.54	23.493
276.91	20.356
277.28	20.117
277.65	21.277
278.02	21.325
278.39	22.656
278.76	18.545
279.13	23.396
279.50	22.346
279.87	19.920
280.23	21.158
280.60	19.729
280.97	20.148
281.34	21.239
281.71	22.182
282.08	21.305
282.45	18.909
282.82	19.716
283.19	19.251
283.56	20.702
283.92	21.489
284.29	19.929
284.66	19.964
285.03	17.360
285.40	17.782
285.77	20.707
286.14	18.135
286.51	21.167
286.87	20.342
287.24	21.010
287.61	19.583
287.98	18.831
288.35	19.334
288.72	19.003
289.08	20.031
289.45	18.781
289.82	18.699
290.19	18.053
290.56	17.611
290.93	16.012
291.29	18.405
291.66	18.584
292.03	19.622
292.40	20.117
292.77	17.899
293.13	18.507
293.50	18.513
293.87	18.222
294.24	16.889
294.60	16.885
294.97	17.733
295.34	18.336
295.71	18.466
296.08	16.667
296.44	18.294
296.81	17.437
297.18	18.835
297.55	14.512
297.91	16.887
298.28	18.206
298.65	19.060
299.02	16.206
299.38	17.397
299.75	15.094
300.12	15.964
300.48	16.375
300.85	17.386
301.22	16.051
301.59	17.172
301.95	17.632
302.32	17.715
302.69	16.129
303.05	16.727
303.42	17.037
303.79	16.648
304.15	16.434
304.52	16.918
304.89	17.073
305.25	15.777
305.62	16.195
305.99	18.300
306.35	17.562
306.72	17.713
307.09	18.424
307.45	18.356
307.82	16.295
308.19	17.439
308.55	18.662
308.92	17.186
309.29	18.479
309.65	18.028
310.02	19.027
310.38	19.032
310.75	19.113
311.12	20.368
311.48	19.645
311.85	21.279
312.22	19.875
312.58	19.751
312.95	21.647
313.31	20.097
313.68	20.686
314.05	22.584
314.41	21.508
314.78	21.148
315.14	21.053
315.51	21.524
315.87	22.673
316.24	23.535
316.61	22.515
316.97	23.386
317.34	22.701
317.70	24.857
318.07	25.217
318.43	25.049
318.80	25.398
319.16	25.612
319.53	24.578
319.89	26.667
320.26	27.700
320.62	27.679
320.99	26.970
321.35	27.879
321.72	28.850
322.08	29.023
322.45	30.448
322.81	30.136
323.18	30.732
323.54	32.653
323.91	31.981
324.27	31.740
324.64	33.271
325.00	33.363
325.37	36.033
325.73	35.996
326.10	34.422
326.46	36.380
326.83	36.497
327.19	36.806
327.56	37.718
327.92	37.358
328.29	39.397
328.65	38.950
329.01	38.538
329.38	39.315
329.74	40.351
330.11	39.962
330.47	38.751
330.84	40.717
331.20	39.709
331.56	40.275
331.93	40.185
332.29	39.485
332.66	41.150
333.02	41.225
333.38	40.379
333.75	40.909
334.11	38.968
334.48	40.373
334.84	39.982
335.20	41.091
335.57	41.251
335.93	40.179
336.29	42.949
336.66	41.659
337.02	40.181
337.38	42.500
337.75	41.533
338.11	40.286
338.47	42.265
338.84	41.338
339.20	41.651
339.56	43.157
339.93	42.455
340.29	40.489
340.65	42.424
341.02	42.147
341.38	43.149
341.74	41.930
342.11	41.572
342.47	43.172
342.83	42.209
343.20	42.511
343.56	41.870
343.92	41.930
344.28	42.177
344.65	41.445
345.01	42.003
345.37	41.166
345.73	42.978
346.10	41.858
346.46	42.712
346.82	43.493
347.19	40.685
347.55	41.379
347.91	43.366
348.27	43.961
348.63	42.977
349.00	41.909
349.36	42.611
349.72	42.101
350.08	41.653
350.45	44.020
350.81	43.054
351.17	43.031
351.53	43.817
351.89	42.327
352.26	43.252
352.62	43.705
352.98	44.408
353.34	43.878
353.70	43.208
354.07	44.355
354.43	43.254
354.79	43.121
355.15	43.895
355.51	45.004
355.87	44.571
356.24	44.218
356.60	44.507
356.96	46.340
357.32	44.481
357.68	45.039
358.04	44.101
358.40	45.606
358.77	44.679
359.13	44.594
359.49	44.549
359.85	43.889
360.21	45.694
360.57	45.992
360.93	45.154
361.29	44.747
361.66	45.743
362.02	46.119
362.38	46.692
362.74	46.131
363.10	45.374
363.46	45.635
363.82	47.770
364.18	45.301
364.54	47.623
364.90	45.892
365.26	46.324
365.62	46.530
365.98	46.238
366.35	45.415
366.71	47.939
367.07	47.560
367.43	48.549
367.79	48.680
368.15	48.563
368.51	47.820
368.87	48.537
369.23	48.793
369.59	48.805
369.95	47.279
370.31	47.863
370.67	47.971
371.03	50.337
371.39	49.636
371.75	49.559
372.11	48.933
372.47	49.707
372.83	50.144
373.19	48.483
373.55	51.293
373.91	51.178
374.27	49.347
374.63	50.400
374.99	51.271
375.35	49.826
375.71	50.103
376.07	50.892
376.42	51.788
376.78	52.618
377.14	50.746
377.50	52.318
377.86	51.529
378.22	52.086
378.58	50.815
378.94	51.288
379.30	53.053
379.66	53.363
380.02	52.826
380.38	52.823
380.74	54.202
381.09	52.139
381.45	52.612
381.81	53.440
382.17	54.331
382.53	54.528
382.89	54.877
383.25	54.972
383.61	55.514
383.97	54.346
384.32	54.897
384.68	54.957
385.04	54.825
385.40	54.303
385.76	54.423
386.12	54.793
386.48	56.073
386.83	56.767
387.19	56.586
387.55	56.092
387.91	55.502
388.27	55.610
388.62	55.685
388.98	54.853
389.34	57.009
389.70	57.020
390.06	56.591
390.42	57.004
390.77	56.870
391.13	57.371
391.49	57.424
391.85	57.734
392.20	56.088
392.56	57.071
392.92	57.034
393.28	55.385
393.64	57.014
393.99	56.750
394.35	57.072
394.71	56.336
395.07	55.327
395.42	58.282
395.78	56.679
396.14	56.797
396.50	57.769
396.85	57.724
397.21	56.535
397.57	57.347
397.92	56.851
398.28	56.222
398.64	56.750
399.00	56.631
399.35	56.063
399.71	56.713
400.07	55.234
400.42	57.362
400.78	56.815
401.14	56.280
401.49	57.433
401.85	56.866
402.21	55.509
402.57	56.200
402.92	57.251
403.28	56.777
403.63	56.436
403.99	57.325
404.35	55.939
404.70	56.655
405.06	55.795
405.42	57.455
405.77	56.229
406.13	55.192
406.49	55.884
406.84	55.109
407.20	56.265
407.55	56.350
407.91	56.133
408.27	56.860
408.62	55.388
408.98	55.208
409.34	56.027
409.69	57.355
410.05	55.638
410.40	55.168
410.76	55.317
411.11	55.549
411.47	54.952
411.83	54.734
412.18	56.030
412.54	55.853
412.89	55.120
413.25	56.198
413.60	55.405
413.96	54.159
414.31	54.678
414.67	55.323
415.03	55.563
415.38	56.443
415.74	55.048
416.09	56.695
416.45	55.890
416.80	55.453
417.16	56.166
417.51	55.408
417.87	54.335
418.22	56.278
418.58	55.584
418.93	56.081
419.29	55.633
419.64	57.053
420.00	55.488
420.35	55.304
420.71	56.545
421.06	54.833
421.42	55.088
421.77	55.717
422.12	54.408
422.48	54.128
422.83	55.795
423.19	54.972
423.54	55.659
423.90	54.899
424.25	55.835
424.61	55.536
424.96	55.277
425.31	54.873
425.67	54.719
426.02	54.971
426.38	56.288
426.73	55.588
427.09	55.623
427.44	55.664
427.79	56.929
428.15	56.786
428.50	54.827
428.85	55.900
429.21	55.605
429.56	54.951
429.92	54.706
430.27	55.561
430.62	55.044
430.98	55.942
431.33	54.588
431.68	56.230
432.04	55.485
432.39	56.882
432.74	57.570
433.10	56.763
433.45	57.843
433.80	56.874
434.16	54.487
434.51	55.737
434.86	55.758
435.22	56.309
435.57	56.900
435.92	55.939
436.28	57.414
436.63	55.740
436.98	57.069
437.34	57.603
437.69	57.876
438.04	57.392
438.39	57.015
438.75	56.537
439.10	58.212
439.45	56.671
439.81	57.462
440.16	56.861
440.51	57.586
440.86	57.672
441.22	57.397
441.57	56.635
441.92	56.653
442.27	57.427
442.63	56.872
442.98	58.197
443.33	56.685
443.68	56.273
444.03	57.199
444.39	56.913
444.74	56.169
445.09	55.957
445.44	56.588
445.79	57.645
446.15	55.903
446.50	56.920
446.85	57.400
447.20	57.063
447.55	57.510
447.91	56.867
448.26	56.873
448.61	56.586
448.96	57.973
449.31	58.043
449.66	57.456
450.02	56.156
450.37	56.803
450.72	56.514
451.07	56.795
451.42	55.988
451.77	58.074
452.12	55.543
452.47	56.095
452.83	57.168
453.18	56.479
453.53	57.823
453.88	57.944
454.23	57.083
454.58	56.935
454.93	58.487
455.28	56.671
455.63	56.432
455.98	57.500
456.34	56.972
456.69	56.919
457.04	58.080
457.39	55.815
457.74	56.413
458.09	55.664
458.44	57.241
458.79	54.881
459.14	57.223
459.49	57.910
459.84	56.066
460.19	56.335
460.54	55.035
460.89	56.555
461.24	57.134
461.59	57.525
461.94	55.919
462.29	56.855
462.64	55.839
462.99	57.124
463.34	56.667
463.69	56.660
464.04	56.464
464.39	56.870
464.74	56.863
465.09	56.273
465.44	55.346
465.79	55.313
466.14	54.953
466.49	54.338
466.84	54.816
467.19	54.798
467.54	55.188
467.89	55.342
468.24	54.508
468.59	56.410
468.94	54.307
469.29	56.427
469.64	57.497
469.99	55.480
470.34	55.350
470.68	56.968
471.03	57.075
471.38	56.637
471.73	55.763
472.08	56.908
472.43	55.276
472.78	55.760
473.13	55.327
473.48	55.431
473.83	56.098
474.17	55.383
474.52	55.211
474.87	55.517
475.22	54.962
475.57	54.809
475.92	54.275
476.27	54.904
476.61	54.606
476.96	54.480
477.31	53.532
477.66	54.869
478.01	53.685
478.36	54.627
478.70	54.102
479.05	54.420
479.40	54.452
479.75	54.347
480.10	54.771
480.45	52.737
480.79	52.986
481.14	53.033
481.49	53.631
481.84	54.184
482.19	54.112
482.53	52.569
482.88	52.629
483.23	53.178
483.58	52.684
483.92	53.468
484.27	51.765
484.62	52.716
484.97	52.424
485.31	53.014
485.66	51.450
486.01	49.024
486.36	46.987
486.70	45.919
487.05	47.519
487.40	48.187
487.75	49.261
488.09	50.986
488.44	51.001
488.79	52.550
489.13	52.254
489.48	52.406
489.83	52.266
490.17	52.565
490.52	51.284
490.87	52.917
491.22	52.160
491.56	52.164
491.91	51.233
492.26	51.309
492.60	51.152
492.95	52.432
493.30	51.729
493.64	51.750
493.99	51.068
494.34	51.943
494.68	52.060
495.03	52.162
495.37	50.535
495.72	51.754
496.07	52.158
496.41	51.637
496.76	51.319
497.11	50.338
497.45	51.747
497.80	50.816
498.14	51.014
498.49	50.585
498.84	50.671
499.18	50.905
499.53	51.092
499.87	51.118
500.22	50.353
500.56	51.602
500.91	51.106
501.26	50.498
501.60	51.115
501.95	50.367
502.29	51.359
502.64	49.953
502.98	50.958
503.33	49.726
503.67	50.070
504.02	50.468
504.36	49.368
504.71	50.122
505.06	49.301
505.40	50.170
505.75	50.241
506.09	50.632
506.44	49.926
506.78	49.878
507.13	51.085
507.47	50.354
507.82	50.304
508.16	50.811
508.51	50.634
508.85	50.099
509.19	50.102
509.54	50.459
509.88	49.511
510.23	50.488
510.57	51.084
510.92	50.544
511.26	50.719
511.61	50.778
511.95	49.426
512.30	49.894
512.64	50.296
512.98	51.018
513.33	50.589
513.67	49.520
514.02	50.325
514.36	50.464
514.70	50.526
515.05	50.864
515.39	51.094
515.74	50.507
516.08	49.525
516.42	49.889
516.77	51.784
517.11	50.000
517.46	50.790
517.80	50.581
518.14	49.450
518.49	51.750
518.83	50.795
519.17	49.827
519.52	50.877
519.86	50.371
520.20	51.387
520.55	50.569
520.89	51.764
521.23	51.568
521.58	50.000
521.92	50.765
522.26	50.275
522.61	50.841
522.95	50.031
523.29	50.152
523.64	50.671
523.98	50.585
524.32	49.879
524.66	48.166
525.01	49.694
525.35	50.805
525.69	48.953
526.04	50.343
526.38	50.336
526.72	48.589
527.06	50.596
527.41	47.277
527.75	51.061
528.09	50.931
528.43	50.096
528.78	49.170
529.12	48.727
529.46	49.786
529.80	49.752
530.15	49.283
530.49	48.308
530.83	50.190
531.17	49.935
531.51	50.584
531.86	49.613
532.20	49.544
532.54	48.559
532.88	48.139
533.22	48.345
533.57	48.457
533.91	47.502
534.25	47.691
534.59	47.956
534.93	46.817
535.27	47.375
535.62	47.680
535.96	47.709
536.30	48.697
536.64	48.036
536.98	48.109
537.32	48.519
537.66	48.400
538.01	49.177
538.35	47.447
538.69	47.607
539.03	47.823
539.37	45.495
539.71	45.561
540.05	47.582
540.39	48.638
540.73	46.572
541.07	47.437
541.42	48.141
541.76	48.129
542.10	47.219
542.44	48.146
542.78	47.036
543.12	46.449
543.46	47.279
543.80	47.690
544.14	46.855
544.48	47.111
544.82	47.274
545.16	46.910
545.50	45.887
545.84	47.984
546.18	45.791
546.52	46.731
546.86	47.423
547.20	47.269
547.54	47.228
547.88	47.321
548.22	45.019
548.56	44.969
548.90	44.430
549.24	46.330
549.58	47.271
549.92	46.223
550.26	47.940
550.60	47.026
550.94	46.831
551.28	46.159
551.62	46.513
551.96	45.614
552.30	46.212
552.64	47.194
552.98	46.441
553.32	45.718
553.66	46.489
554.00	46.465
554.34	46.239
554.68	46.209
555.02	47.391
555.36	45.999
555.69	45.332
556.03	46.030
556.37	45.293
556.71	46.180
557.05	45.588
557.39	45.066
557.73	44.178
558.07	46.410
558.41	45.876
558.75	45.702
559.08	46.607
559.42	46.183
559.76	46.471
560.10	45.325
560.44	45.213
560.78	44.910
561.12	44.921
561.45	46.936
561.79	44.891
562.13	45.003
562.47	46.243
562.81	46.165
563.15	44.482
563.48	44.828
563.82	45.205
564.16	45.258
564.50	44.401
564.84	44.121
565.17	44.080
565.51	45.304
565.85	44.797
566.19	43.644
566.52	44.395
566.86	42.435
567.20	43.809
567.54	44.064
567.88	42.694
568.21	42.116
568.55	41.557
568.89	41.780
569.23	40.642
569.56	39.514
569.90	40.264
570.24	39.074
570.57	39.170
570.91	38.494
571.25	38.326
571.59	37.997
571.92	37.241
572.26	38.157
572.60	38.078
572.93	37.991
573.27	37.918
573.61	37.940
573.95	37.881
574.28	36.683
574.62	37.051
574.96	35.962
575.29	36.154
575.63	36.941
575.97	36.735
576.30	37.653
576.64	36.391
576.98	36.485
577.31	36.206
577.65	36.678
577.98	35.967
578.32	34.968
578.66	35.535
578.99	35.608
579.33	35.972
579.67	36.147
580.00	36.130
580.34	36.118
580.67	35.949
581.01	36.137
581.35	35.304
581.68	35.484
582.02	34.669
582.35	35.244
582.69	35.058
583.02	34.693
583.36	35.970
583.70	36.264
584.03	36.651
584.37	37.365
584.70	36.703
585.04	36.008
585.37	35.997
585.71	35.785
586.04	35.806
586.38	36.364
586.72	36.620
587.05	35.642
587.39	35.620
587.72	36.254
588.06	35.912
588.39	36.214
588.73	36.668
589.06	37.021
589.40	37.374
589.73	37.205
590.07	37.260
590.40	36.938
590.73	38.134
591.07	38.502
591.40	38.718
591.74	38.658
592.07	38.525
592.41	38.074
592.74	36.929
593.08	36.109
593.41	36.191
593.75	36.134
594.08	36.306
594.41	37.045
594.75	36.155
595.08	36.757
595.42	36.988
595.75	36.895
596.09	37.251
596.42	37.132
596.75	37.526
597.09	37.965
597.42	37.732
597.75	38.077
598.09	38.217
598.42	37.801
598.76	37.009
599.09	36.298
599.42	35.408
599.76	36.567
600.09	35.556
600.42	35.902
600.76	35.750
601.09	36.284
601.42	35.769
601.76	36.546
602.09	36.957
602.42	37.022
602.76	37.162
603.09	37.411
603.42	37.134
603.76	36.052
604.09	36.254
604.42	36.690
604.76	36.989
605.09	37.353
605.42	36.169
605.75	36.589
606.09	36.478
606.42	36.657
606.75	36.209
607.09	36.794
607.42	37.056
607.75	35.654
608.08	36.431
608.42	37.158
608.75	37.106
609.08	36.309
609.41	36.459
609.75	37.542
610.08	37.276
610.41	36.173
610.74	37.323
611.07	37.994
611.41	37.537
611.74	37.355
612.07	38.251
612.40	38.772
612.73	37.526
613.07	38.578
613.40	37.493
613.73	37.756
614.06	36.505
614.39	37.179
614.72	37.895
615.06	38.655
615.39	36.837
615.72	36.554
616.05	36.789
616.38	38.744
616.71	38.124
617.05	39.164
617.38	37.943
617.71	37.898
618.04	39.243
618.37	37.966
618.70	38.457
619.03	38.355
619.36	39.919
619.69	40.352
620.03	39.766
620.36	39.372
620.69	39.110
621.02	40.265
621.35	40.172
621.68	38.474
622.01	41.331
622.34	40.242
622.67	40.152
623.00	38.738
623.33	38.742
623.66	39.314
623.99	39.764
624.32	38.659
624.65	39.195
624.99	38.881
625.32	38.957
625.65	39.444
625.98	40.430
626.31	41.680
626.64	41.224
626.97	40.732
627.30	40.815
627.63	41.181
627.96	40.706
628.29	42.957
628.62	41.720
628.95	42.925
629.28	42.609
629.61	41.613
629.94	41.714
630.26	42.612
630.59	42.898
630.92	41.379
