SpectraSuite Data File
++++++++++++++++++++++++++++++++++++
Date: Wed May 13 16:24:39 PDT 2015
User: schluterlab
Dark Spectrum Present: Yes
Reference Spectrum Present: Yes
Number of Sampled Component Spectra: 1
Spectrometers: USB2E3373
Integration Time (usec): 3000 (USB2E3373)
Spectra Averaged: 3 (USB2E3373)
Boxcar Smoothing: 0 (USB2E3373)
Correct for Electrical Dark: No (USB2E3373)
Strobe/Lamp Enabled: No (USB2E3373)
Correct for Detector Non-linearity: No (USB2E3373)
Correct for Stray Light: No (USB2E3373)
Number of Pixels in Processed Spectrum: 2048
>>>>>Begin Processed Spectral Data<<<<<
178.53	0.000
178.91	-1250.000
179.29	-1250.000
179.67	-188.889
180.04	-1150.000
180.42	2900.000
180.80	1120.000
181.18	-1150.000
181.56	642.857
181.94	0.000
182.31	-585.714
182.69	1400.000
183.07	-612.500
183.45	-422.222
183.83	500.000
184.20	-380.000
184.58	2400.000
184.96	4700.000
185.34	-900.000
185.72	-537.500
186.09	-2450.000
186.47	2600.000
186.85	2250.000
187.23	4100.000
187.61	-1466.667
187.98	1225.000
188.36	500.000
188.74	290.909
189.12	-840.000
189.49	610.000
189.87	-4900.000
190.25	-950.000
190.63	385.714
191.00	430.769
191.38	933.333
191.76	-1300.000
192.14	1500.000
192.51	437.500
192.89	900.000
193.27	537.500
193.65	-1100.000
194.02	470.000
194.40	800.000
194.78	570.000
195.15	491.667
195.53	580.000
195.91	-2000.000
196.29	368.750
196.66	289.474
197.04	-400.000
197.42	0.000
197.79	550.000
198.17	-3800.000
198.55	614.286
198.92	800.000
199.30	1040.000
199.68	0.000
200.05	311.111
200.43	642.857
200.81	4100.000
201.18	1633.333
201.56	-1666.667
201.94	622.222
202.31	566.667
202.69	358.333
203.07	490.000
203.44	0.000
203.82	1200.000
204.19	842.857
204.57	478.571
204.95	675.000
205.32	1966.667
205.70	500.000
206.08	271.429
206.45	2850.000
206.83	362.500
207.20	883.333
207.58	680.000
207.96	383.333
208.33	662.500
208.71	-850.000
209.08	871.429
209.46	600.000
209.84	390.909
210.21	-1566.667
210.59	1300.000
210.96	-587.500
211.34	2000.000
211.71	590.000
212.09	750.000
212.46	0.000
212.84	1533.333
213.22	1175.000
213.59	-3700.000
213.97	633.333
214.34	800.000
214.72	554.545
215.09	1060.000
215.47	-2000.000
215.84	-2650.000
216.22	1800.000
216.59	350.000
216.97	1125.000
217.34	472.727
217.72	-683.333
218.09	0.000
218.47	-3300.000
218.84	588.889
219.22	642.857
219.59	1400.000
219.97	-557.143
220.34	760.000
220.72	-1666.667
221.09	364.286
221.47	1475.000
221.84	-933.333
222.22	0.000
222.59	1450.000
222.97	-2300.000
223.34	1060.000
223.72	423.077
224.09	1160.000
224.46	1850.000
224.84	-5400.000
225.21	-1120.000
225.59	-5000.000
225.96	490.000
226.34	325.000
226.71	2700.000
227.08	600.000
227.46	440.000
227.83	-1125.000
228.21	-2250.000
228.58	611.111
228.95	-2250.000
229.33	-2050.000
229.70	1500.000
230.08	814.286
230.45	-720.000
230.82	383.333
231.20	816.667
231.57	585.714
231.95	441.667
232.32	227.273
232.69	390.909
233.07	514.286
233.44	323.077
233.81	-1566.667
234.19	252.632
234.56	408.333
234.93	408.333
235.31	418.182
235.68	361.538
236.05	321.429
236.43	160.606
236.80	194.737
237.17	4600.000
237.55	214.286
237.92	185.714
238.29	219.048
238.67	145.161
239.04	162.069
239.41	136.111
239.79	89.130
240.16	114.286
240.53	106.818
240.91	82.353
241.28	96.000
241.65	72.000
242.02	76.812
242.40	70.968
242.77	58.333
243.14	65.591
243.51	57.303
243.89	45.882
244.26	53.333
244.63	49.462
245.00	52.128
245.38	49.505
245.75	35.514
246.12	36.697
246.49	40.146
246.87	38.400
247.24	36.154
247.61	33.571
247.98	37.908
248.36	24.324
248.73	32.484
249.10	31.210
249.47	29.944
249.84	32.086
250.22	21.925
250.59	22.485
250.96	28.283
251.33	27.014
251.70	26.733
252.08	21.429
252.45	17.937
252.82	23.043
253.19	20.851
253.56	18.431
253.94	23.651
254.31	17.578
254.68	19.231
255.05	20.295
255.42	16.260
255.79	16.544
256.16	17.690
256.54	13.428
256.91	17.082
257.28	13.669
257.65	13.861
258.02	19.565
258.39	17.350
258.76	16.388
259.14	18.155
259.51	12.158
259.88	14.907
260.25	16.616
260.62	14.740
260.99	13.043
261.36	12.913
261.73	14.040
262.10	11.047
262.47	16.338
262.85	14.206
263.22	10.826
263.59	13.105
263.96	14.560
264.33	12.272
264.70	12.105
265.07	15.090
265.44	12.121
265.81	13.139
266.18	11.055
266.55	12.927
266.92	11.548
267.29	12.731
267.66	10.321
268.03	10.682
268.40	14.019
268.77	10.740
269.14	12.162
269.51	12.415
269.88	13.287
270.25	10.158
270.62	9.213
270.99	13.763
271.36	9.013
271.73	10.280
272.10	9.130
272.47	10.968
272.84	10.173
273.21	13.208
273.58	8.952
273.95	9.434
274.32	8.471
274.69	11.349
275.06	7.677
275.43	10.000
275.80	9.820
276.17	9.369
276.54	9.979
276.91	9.684
277.28	10.547
277.65	10.445
278.02	10.766
278.39	11.523
278.76	9.091
279.13	12.075
279.50	9.125
279.87	10.159
280.23	10.978
280.60	9.284
280.97	7.948
281.34	9.558
281.71	10.727
282.08	8.829
282.45	8.364
282.82	10.124
283.19	7.665
283.56	8.947
283.92	8.629
284.29	7.407
284.66	8.348
285.03	7.233
285.40	6.162
285.77	7.407
286.14	8.463
286.51	9.333
286.87	7.521
287.24	7.492
287.61	7.063
287.98	8.766
288.35	8.399
288.72	8.411
289.08	9.390
289.45	9.555
289.82	7.967
290.19	6.593
290.56	7.810
290.93	6.949
291.29	6.902
291.66	7.817
292.03	10.465
292.40	8.957
292.77	7.544
293.13	7.164
293.50	7.143
293.87	6.963
294.24	5.185
294.60	5.677
294.97	6.831
295.34	6.488
295.71	7.528
296.08	5.840
296.44	5.915
296.81	6.341
297.18	7.859
297.55	5.013
297.91	6.201
298.28	7.095
298.65	7.963
299.02	7.115
299.38	6.109
299.75	4.178
300.12	6.130
300.48	5.750
300.85	5.672
301.22	5.732
301.59	6.313
301.95	6.423
302.32	6.162
302.69	6.332
303.05	5.697
303.42	5.062
303.79	4.983
304.15	5.594
304.52	5.098
304.89	5.110
305.25	5.568
305.62	6.455
305.99	5.549
306.35	5.593
306.72	6.054
307.09	5.993
307.45	7.095
307.82	4.911
308.19	5.519
308.55	6.472
308.92	5.048
309.29	4.541
309.65	5.620
310.02	5.285
310.38	5.054
310.75	5.597
311.12	5.629
311.48	5.016
311.85	5.660
312.22	4.787
312.58	4.678
312.95	5.280
313.31	4.175
313.68	5.821
314.05	6.706
314.41	4.724
314.78	5.237
315.14	4.568
315.51	5.870
315.87	6.337
316.24	4.767
316.61	5.458
316.97	4.110
317.34	4.403
317.70	5.258
318.07	4.620
318.43	4.697
318.80	4.967
319.16	4.614
319.53	5.722
319.89	5.905
320.26	7.400
320.62	4.464
320.99	6.364
321.35	5.253
321.72	5.339
322.08	5.528
322.45	5.572
322.81	6.298
323.18	6.936
323.54	6.122
323.91	5.660
324.27	5.736
324.64	4.753
325.00	5.951
325.37	5.732
325.73	6.643
326.10	5.825
326.46	6.093
326.83	6.816
327.19	5.892
327.56	6.010
327.92	6.037
328.29	6.122
328.65	4.880
329.01	5.415
329.38	4.995
329.74	5.355
330.11	6.032
330.47	6.061
330.84	6.985
331.20	6.922
331.56	5.688
331.93	5.926
332.29	6.477
332.66	6.726
333.02	6.490
333.38	6.594
333.75	6.595
334.11	6.050
334.48	5.146
334.84	5.423
335.20	6.364
335.57	6.256
335.93	4.643
336.29	6.136
336.66	6.853
337.02	5.430
337.38	6.296
337.75	5.437
338.11	5.103
338.47	5.341
338.84	6.233
339.20	5.596
339.56	6.478
339.93	4.909
340.29	5.978
340.65	4.724
341.02	6.108
341.38	5.694
341.74	5.088
342.11	5.415
342.47	5.286
342.83	5.736
343.20	5.974
343.56	6.403
343.92	5.526
344.28	5.527
344.65	5.933
345.01	5.051
345.37	4.631
345.73	5.415
346.10	5.115
346.46	5.000
346.82	5.437
347.19	4.845
347.55	5.419
347.91	5.421
348.27	6.163
348.63	5.435
349.00	5.016
349.36	4.598
349.72	5.854
350.08	4.781
350.45	5.614
350.81	5.524
351.17	5.835
351.53	5.078
351.89	4.208
352.26	6.551
352.62	5.934
352.98	5.186
353.34	5.341
353.70	4.173
354.07	5.565
354.43	4.524
354.79	4.344
355.15	5.427
355.51	5.436
355.87	4.816
356.24	4.967
356.60	4.972
356.96	4.183
357.32	4.824
357.68	5.669
358.04	5.463
358.40	5.938
358.77	5.477
359.13	4.420
359.49	5.255
359.85	3.571
360.21	4.386
360.57	4.903
360.93	5.308
361.29	4.308
361.66	5.418
362.02	4.552
362.38	5.171
362.74	4.985
363.10	4.219
363.46	4.549
363.82	4.611
364.18	5.213
364.54	5.498
364.90	5.170
365.26	4.485
365.62	5.551
365.98	4.383
366.35	4.728
366.71	4.700
367.07	4.953
367.43	4.644
367.79	5.068
368.15	5.603
368.51	4.506
368.87	5.425
369.23	4.755
369.59	5.069
369.95	4.926
370.31	5.484
370.67	5.072
371.03	5.393
371.39	5.466
371.75	4.706
372.11	4.552
372.47	5.572
372.83	5.692
373.19	5.347
373.55	4.656
373.91	5.302
374.27	4.811
374.63	5.527
374.99	5.862
375.35	4.047
375.71	4.387
376.07	4.938
376.42	4.814
376.78	5.567
377.14	4.545
377.50	5.497
377.86	4.189
378.22	5.499
378.58	3.634
378.94	4.337
379.30	4.517
379.66	5.140
380.02	5.528
380.38	4.068
380.74	4.502
381.09	5.501
381.45	4.057
381.81	5.528
382.17	5.032
382.53	4.465
382.89	5.000
383.25	4.315
383.61	4.399
383.97	4.440
384.32	4.429
384.68	4.771
385.04	4.978
385.40	3.901
385.76	4.545
386.12	3.821
386.48	5.475
386.83	5.067
387.19	5.690
387.55	4.638
387.91	4.534
388.27	4.782
388.62	5.286
388.98	5.098
389.34	5.695
389.70	5.334
390.06	5.703
390.42	4.280
390.77	5.344
391.13	4.786
391.49	5.584
391.85	4.519
392.20	4.669
392.56	4.482
392.92	5.062
393.28	4.260
393.64	4.796
393.99	5.376
394.35	4.591
394.71	4.831
395.07	4.424
395.42	4.759
395.78	5.471
396.14	5.276
396.50	5.639
396.85	4.832
397.21	4.501
397.57	5.208
397.92	5.589
398.28	3.756
398.64	5.376
399.00	4.701
399.35	4.287
399.71	4.630
400.07	4.967
400.42	5.828
400.78	5.850
401.14	4.756
401.49	5.254
401.85	5.203
402.21	4.431
402.57	4.503
402.92	5.233
403.28	5.184
403.63	5.012
403.99	4.841
404.35	4.848
404.70	4.257
405.06	4.601
405.42	4.616
405.77	3.943
406.13	4.571
406.49	5.204
406.84	5.139
407.20	4.374
407.55	5.488
407.91	4.800
408.27	4.020
408.62	5.178
408.98	5.331
409.34	4.797
409.69	5.161
410.05	5.081
410.40	5.260
410.76	4.361
411.11	5.489
411.47	4.153
411.83	5.864
412.18	4.824
412.54	5.168
412.89	5.602
413.25	4.545
413.60	4.818
413.96	4.675
414.31	5.346
414.67	5.260
415.03	4.967
415.38	5.799
415.74	5.209
416.09	5.356
416.45	4.618
416.80	5.618
417.16	5.697
417.51	5.508
417.87	4.753
418.22	5.931
418.58	5.746
418.93	5.405
419.29	5.029
419.64	5.919
420.00	5.244
420.35	5.565
420.71	5.858
421.06	4.594
421.42	5.088
421.77	5.269
422.12	4.716
422.48	4.317
422.83	4.950
423.19	5.304
423.54	4.353
423.90	5.855
424.25	5.472
424.61	4.643
424.96	5.131
425.31	5.371
425.67	4.607
426.02	5.143
426.38	5.128
426.73	5.442
427.09	5.046
427.44	5.405
427.79	4.945
428.15	5.536
428.50	5.559
428.85	6.079
429.21	4.638
429.56	5.288
429.92	5.184
430.27	4.568
430.62	4.506
430.98	5.293
431.33	4.794
431.68	5.340
432.04	5.538
432.39	4.569
432.74	5.147
433.10	4.924
433.45	5.015
433.80	4.767
434.16	5.449
434.51	5.789
434.86	5.359
435.22	5.058
435.57	4.924
435.92	5.325
436.28	5.457
436.63	5.740
436.98	4.694
437.34	5.247
437.69	5.893
438.04	5.509
438.39	5.552
438.75	6.275
439.10	5.140
439.45	5.903
439.81	5.680
440.16	4.856
440.51	5.097
440.86	5.211
441.22	4.839
441.57	5.786
441.92	5.476
442.27	5.274
442.63	5.319
442.98	5.408
443.33	5.761
443.68	5.214
444.03	5.173
444.39	4.625
444.74	5.303
445.09	5.930
445.44	5.467
445.79	5.690
446.15	5.400
446.50	5.223
446.85	5.653
447.20	5.252
447.55	5.304
447.91	5.240
448.26	5.732
448.61	5.088
448.96	5.371
449.31	5.849
449.66	5.853
450.02	5.460
450.37	5.385
450.72	5.189
451.07	5.180
451.42	5.532
451.77	6.342
452.12	5.831
452.47	6.032
452.83	5.186
453.18	5.685
453.53	5.875
453.88	5.080
454.23	5.140
454.58	6.178
454.93	6.357
455.28	5.611
455.63	4.976
455.98	5.714
456.34	5.528
456.69	5.949
457.04	5.697
457.39	5.494
457.74	5.804
458.09	5.405
458.44	5.473
458.79	4.989
459.14	5.530
459.49	5.779
459.84	5.651
460.19	5.068
460.54	5.787
460.89	5.815
461.24	5.647
461.59	7.031
461.94	5.672
462.29	5.875
462.64	5.297
462.99	5.660
463.34	6.733
463.69	5.754
464.04	6.319
464.39	6.203
464.74	5.882
465.09	5.730
465.44	5.651
465.79	5.369
466.14	5.419
466.49	5.284
466.84	5.487
467.19	5.733
467.54	5.812
467.89	5.882
468.24	6.050
468.59	6.105
468.94	5.254
469.29	5.463
469.64	6.693
469.99	6.360
470.34	5.614
470.68	5.388
471.03	5.442
471.38	5.420
471.73	6.129
472.08	6.776
472.43	6.407
472.78	5.727
473.13	5.969
473.48	6.804
473.83	5.610
474.17	5.849
474.52	5.955
474.87	5.954
475.22	5.630
475.57	4.890
475.92	5.151
476.27	5.862
476.61	5.516
476.96	5.388
477.31	5.076
477.66	5.252
478.01	5.384
478.36	5.500
478.70	4.881
479.05	4.952
479.40	5.681
479.75	4.677
480.10	4.970
480.45	5.807
480.79	4.634
481.14	5.382
481.49	5.600
481.84	4.664
482.19	4.816
482.53	5.138
482.88	5.677
483.23	5.514
483.58	5.414
483.92	4.967
484.27	4.575
484.62	4.698
484.97	4.572
485.31	4.692
485.66	3.736
486.01	3.556
486.36	3.271
486.70	3.221
487.05	3.383
487.40	3.933
487.75	3.834
488.09	4.216
488.44	4.169
488.79	4.376
489.13	4.507
489.48	4.486
489.83	4.273
490.17	5.042
490.52	4.960
490.87	4.659
491.22	4.820
491.56	4.601
491.91	5.212
492.26	5.099
492.60	5.346
492.95	4.864
493.30	5.561
493.64	4.900
493.99	4.364
494.34	5.042
494.68	5.495
495.03	5.592
495.37	5.026
495.72	5.214
496.07	4.919
496.41	4.115
496.76	4.925
497.11	5.223
497.45	4.751
497.80	4.990
498.14	4.251
498.49	4.976
498.84	5.034
499.18	5.095
499.53	5.651
499.87	5.732
500.22	4.710
500.56	4.903
500.91	5.000
501.26	5.073
501.60	5.316
501.95	4.583
502.29	5.248
502.64	4.749
502.98	4.956
503.33	5.302
503.67	4.548
504.02	4.771
504.36	5.475
504.71	5.081
505.06	5.687
505.40	5.250
505.75	4.918
506.09	4.956
506.44	4.539
506.78	4.822
507.13	4.947
507.47	5.101
507.82	5.066
508.16	5.319
508.51	5.175
508.85	5.015
509.19	4.796
509.54	5.153
509.88	4.843
510.23	5.141
510.57	5.779
510.92	5.697
511.26	4.882
511.61	5.394
511.95	4.906
512.30	4.825
512.64	5.481
512.98	5.681
513.33	5.514
513.67	5.550
514.02	4.870
514.36	5.898
514.70	5.479
515.05	5.800
515.39	5.609
515.74	5.236
516.08	6.372
516.42	5.993
516.77	5.909
517.11	5.161
517.46	5.700
517.80	5.285
518.14	5.617
518.49	5.718
518.83	5.341
519.17	5.427
519.52	5.659
519.86	6.161
520.20	6.532
520.55	6.104
520.89	5.900
521.23	5.730
521.58	5.642
521.92	6.001
522.26	5.491
522.61	6.044
522.95	5.218
523.29	6.452
523.64	5.854
523.98	5.360
524.32	5.971
524.66	6.133
525.01	5.882
525.35	5.948
525.69	5.665
526.04	5.857
526.38	6.162
526.72	6.074
527.06	6.089
527.41	5.693
527.75	6.109
528.09	6.230
528.43	6.501
528.78	6.023
529.12	5.636
529.46	6.920
529.80	6.250
530.15	6.542
530.49	5.785
530.83	6.582
531.17	6.527
531.51	6.680
531.86	6.065
532.20	6.714
532.54	6.406
532.88	6.932
533.22	6.246
533.57	6.543
533.91	5.780
534.25	5.772
534.59	6.162
534.93	5.830
535.27	5.733
535.62	6.166
535.96	6.215
536.30	5.976
536.64	6.504
536.98	6.569
537.32	5.991
537.66	5.800
538.01	6.057
538.35	6.658
538.69	6.701
539.03	6.108
539.37	5.559
539.71	5.120
540.05	6.209
540.39	5.914
540.73	7.050
541.07	6.619
541.42	6.523
541.76	6.839
542.10	6.404
542.44	5.762
542.78	6.851
543.12	5.822
543.46	6.885
543.80	7.482
544.14	6.483
544.48	6.476
544.82	5.773
545.16	6.506
545.50	5.527
545.84	6.317
546.18	6.128
546.52	6.056
546.86	6.117
547.20	6.945
547.54	6.212
547.88	7.462
548.22	5.853
548.56	6.855
548.90	5.058
549.24	5.724
549.58	5.866
549.92	6.044
550.26	6.321
550.60	6.916
550.94	6.549
551.28	5.999
551.62	6.902
551.96	6.175
552.30	7.031
552.64	7.302
552.98	7.119
553.32	6.743
553.66	6.612
554.00	6.177
554.34	5.383
554.68	7.082
555.02	7.193
555.36	6.541
555.69	6.089
556.03	6.326
556.37	6.480
556.71	5.593
557.05	6.022
557.39	6.438
557.73	6.493
558.07	7.252
558.41	6.368
558.75	6.686
559.08	6.413
559.42	6.274
559.76	7.353
560.10	6.210
560.44	6.359
560.78	5.456
561.12	5.871
561.45	6.519
561.79	6.592
562.13	6.707
562.47	6.011
562.81	5.649
563.15	6.355
563.48	6.300
563.82	6.067
564.16	5.167
564.50	6.120
564.84	6.195
565.17	5.470
565.51	6.518
565.85	6.662
566.19	5.385
566.52	5.826
566.86	5.124
567.20	6.191
567.54	5.879
567.88	5.812
568.21	6.138
568.55	5.561
568.89	5.593
569.23	4.679
569.56	4.818
569.90	5.094
570.24	4.557
570.57	4.488
570.91	4.266
571.25	4.324
571.59	4.595
571.92	3.802
572.26	4.073
572.60	4.414
572.93	4.408
573.27	4.584
573.61	4.160
573.95	4.264
574.28	3.869
574.62	4.155
574.96	3.990
575.29	4.049
575.63	4.090
575.97	3.931
576.30	4.408
576.64	4.043
576.98	3.816
577.31	3.835
577.65	3.844
577.98	3.699
578.32	3.376
578.66	3.920
578.99	3.972
579.33	3.607
579.67	3.600
580.00	3.860
580.34	3.868
580.67	3.994
581.01	4.138
581.35	3.825
581.68	3.571
582.02	3.656
582.35	3.382
582.69	3.714
583.02	3.411
583.36	3.804
583.70	4.096
584.03	3.971
584.37	4.269
584.70	3.892
585.04	3.743
585.37	4.264
585.71	3.924
586.04	4.107
586.38	4.101
586.72	4.584
587.05	4.021
587.39	3.747
587.72	3.839
588.06	3.629
588.39	4.444
588.73	4.136
589.06	4.363
589.40	4.175
589.73	4.365
590.07	4.626
590.40	4.457
590.73	5.152
591.07	4.843
591.40	4.808
591.74	5.455
592.07	4.974
592.41	5.085
592.74	4.757
593.08	4.630
593.41	4.461
593.75	4.279
594.08	4.392
594.41	4.560
594.75	4.140
595.08	4.474
595.42	4.588
595.75	4.594
596.09	5.032
596.42	5.187
596.75	5.023
597.09	6.017
597.42	4.890
597.75	5.045
598.09	5.000
598.42	4.811
598.76	4.621
599.09	4.903
599.42	4.403
599.76	4.868
600.09	4.481
600.42	4.492
600.76	4.500
601.09	4.517
601.42	4.528
601.76	4.364
602.09	4.585
602.42	4.737
602.76	5.240
603.09	4.957
603.42	5.037
603.76	4.459
604.09	4.498
604.42	4.647
604.76	5.314
605.09	4.718
605.42	4.917
605.75	4.925
606.09	4.473
606.42	4.536
606.75	4.604
607.09	5.232
607.42	4.878
607.75	4.684
608.08	4.733
608.42	5.289
608.75	5.185
609.08	4.718
609.41	5.045
609.75	4.859
610.08	5.042
610.41	4.423
610.74	4.352
611.07	4.842
611.41	4.661
611.74	5.430
612.07	5.590
612.40	5.247
612.73	6.105
613.07	5.603
613.40	5.477
613.73	5.296
614.06	4.677
614.39	5.558
614.72	6.368
615.06	5.620
615.39	5.308
615.72	4.908
616.05	4.997
616.38	5.336
616.71	5.166
617.05	6.302
617.38	5.111
617.71	5.706
618.04	5.529
618.37	5.736
618.70	5.974
619.03	6.447
619.36	6.110
619.69	6.408
620.03	6.319
620.36	6.952
620.69	6.781
621.02	6.932
621.35	6.343
621.68	6.776
622.01	6.192
622.34	6.051
622.67	6.692
623.00	5.209
623.33	5.575
623.66	5.718
623.99	6.259
624.32	6.348
624.65	5.862
624.99	5.524
625.32	6.010
625.65	5.485
625.98	7.533
626.31	6.921
626.64	7.184
626.97	6.484
627.30	5.653
627.63	8.368
627.96	7.569
628.29	6.737
628.62	7.319
628.95	8.396
629.28	6.843
629.61	7.883
629.94	6.571
630.26	6.578
630.59	6.578
630.92	8.142
631.25	7.108
631.58	8.308
631.91	7.606
632.24	7.278
632.57	8.185
632.90	7.127
633.23	7.942
633.56	8.814
633.89	9.060
634.22	8.173
634.55	8.757
634.88	8.024
635.20	9.438
635.53	9.398
635.86	8.292
636.19	9.059
636.52	7.612
636.85	7.904
637.18	9.447
637.51	9.456
637.83	6.412
638.16	8.696
638.49	9.446
638.82	9.608
639.15	8.750
639.48	10.723
639.81	10.054
640.13	10.807
640.46	8.859
640.79	8.983
641.12	8.253
641.45	10.615
641.77	8.837
642.10	9.064
642.43	8.258
642.76	9.133
643.09	10.736
643.41	9.256
643.74	12.809
644.07	9.146
644.40	12.117
644.73	11.654
645.05	11.569
645.38	9.795
645.71	10.950
646.04	9.302
646.36	11.853
646.69	10.870
647.02	9.014
647.35	10.825
647.67	11.150
648.00	10.894
648.33	9.571
648.66	9.697
648.98	12.294
649.31	10.164
649.64	9.865
649.96	8.793
650.29	10.900
650.62	9.385
650.94	11.183
651.27	10.980
651.60	12.313
651.92	10.064
652.25	9.772
652.58	10.280
652.90	9.321
653.23	8.320
653.56	10.236
653.88	10.301
654.21	11.058
