SpectraSuite Data File
++++++++++++++++++++++++++++++++++++
Date: Wed May 13 16:32:28 PDT 2015
User: schluterlab
Dark Spectrum Present: Yes
Reference Spectrum Present: Yes
Number of Sampled Component Spectra: 1
Spectrometers: USB2E3373
Integration Time (usec): 3000 (USB2E3373)
Spectra Averaged: 3 (USB2E3373)
Boxcar Smoothing: 0 (USB2E3373)
Correct for Electrical Dark: No (USB2E3373)
Strobe/Lamp Enabled: No (USB2E3373)
Correct for Detector Non-linearity: No (USB2E3373)
Correct for Stray Light: No (USB2E3373)
Number of Pixels in Processed Spectrum: 2048
>>>>>Begin Processed Spectral Data<<<<<
178.53	0.000
178.91	-1300.000
179.29	-1150.000
179.67	-244.444
180.04	-1125.000
180.42	2450.000
180.80	940.000
181.18	-1125.000
181.56	528.571
181.94	0.000
182.31	-642.857
182.69	1800.000
183.07	-487.500
183.45	-488.889
183.83	518.182
184.20	-400.000
184.58	1900.000
184.96	4900.000
185.34	-800.000
185.72	-712.500
186.09	-2150.000
186.47	2450.000
186.85	1750.000
187.23	4800.000
187.61	-1600.000
187.98	1500.000
188.36	518.182
188.74	472.727
189.12	-720.000
189.49	560.000
189.87	-4000.000
190.25	-1350.000
190.63	385.714
191.00	469.231
191.38	833.333
191.76	-1075.000
192.14	1450.000
192.51	600.000
192.89	833.333
193.27	612.500
193.65	-1075.000
194.02	460.000
194.40	960.000
194.78	620.000
195.15	458.333
195.53	580.000
195.91	-2150.000
196.29	331.250
196.66	289.474
197.04	-310.000
197.42	0.000
197.79	510.000
198.17	-4900.000
198.55	685.714
198.92	587.500
199.30	980.000
199.68	0.000
200.05	322.222
200.43	700.000
200.81	4100.000
201.18	1600.000
201.56	-1700.000
201.94	544.444
202.31	500.000
202.69	350.000
203.07	530.000
203.44	0.000
203.82	1350.000
204.19	757.143
204.57	421.429
204.95	512.500
205.32	1566.667
205.70	445.455
206.08	407.143
206.45	2350.000
206.83	387.500
207.20	816.667
207.58	520.000
207.96	255.556
208.33	737.500
208.71	-700.000
209.08	785.714
209.46	600.000
209.84	427.273
210.21	-1433.333
210.59	1275.000
210.96	-537.500
211.34	2100.000
211.71	640.000
212.09	700.000
212.46	0.000
212.84	1700.000
213.22	1300.000
213.59	-4000.000
213.97	850.000
214.34	671.429
214.72	554.545
215.09	960.000
215.47	-2700.000
215.84	-2300.000
216.22	1600.000
216.59	357.143
216.97	1375.000
217.34	481.818
217.72	-533.333
218.09	0.000
218.47	-4400.000
218.84	611.111
219.22	785.714
219.59	1566.667
219.97	-628.571
220.34	980.000
220.72	-1566.667
221.09	414.286
221.47	1425.000
221.84	-933.333
222.22	0.000
222.59	1075.000
222.97	-2750.000
223.34	920.000
223.72	392.308
224.09	1000.000
224.46	2300.000
224.84	-4400.000
225.21	-920.000
225.59	-4500.000
225.96	550.000
226.34	290.000
226.71	2650.000
227.08	662.500
227.46	570.000
227.83	-900.000
228.21	-2100.000
228.58	577.778
228.95	-2100.000
229.33	-2300.000
229.70	1700.000
230.08	714.286
230.45	-800.000
230.82	433.333
231.20	716.667
231.57	628.571
231.95	466.667
232.32	218.182
232.69	409.091
233.07	614.286
233.44	323.077
233.81	-1533.333
234.19	305.263
234.56	433.333
234.93	475.000
235.31	436.364
235.68	476.923
236.05	378.571
236.43	200.000
236.80	336.842
237.17	4400.000
237.55	261.905
237.92	242.857
238.29	319.048
238.67	219.355
239.04	231.034
239.41	194.444
239.79	152.174
240.16	180.952
240.53	179.545
240.91	150.980
241.28	146.000
241.65	150.000
242.02	114.493
242.40	148.387
242.77	146.667
243.14	95.699
243.51	117.978
243.89	105.882
244.26	97.778
244.63	96.774
245.00	114.894
245.38	109.901
245.75	104.673
246.12	89.908
246.49	96.350
246.87	101.600
247.24	95.385
247.61	88.571
247.98	82.353
248.36	89.865
248.73	75.796
249.10	91.083
249.47	82.486
249.84	87.166
250.22	78.075
250.59	86.391
250.96	84.343
251.33	77.251
251.70	84.158
252.08	80.476
252.45	80.717
252.82	80.870
253.19	78.298
253.56	76.863
253.94	75.519
254.31	72.266
254.68	75.000
255.05	74.170
255.42	77.236
255.79	71.691
256.16	74.007
256.54	69.611
256.91	74.021
257.28	72.302
257.65	68.317
258.02	69.255
258.39	68.139
258.76	73.244
259.14	68.750
259.51	65.957
259.88	69.565
260.25	73.716
260.62	70.231
260.99	70.807
261.36	69.670
261.73	65.616
262.10	70.349
262.47	68.451
262.85	62.953
263.22	67.236
263.59	69.801
263.96	65.385
264.33	63.446
264.70	62.895
265.07	65.985
265.44	65.657
265.81	62.287
266.18	66.332
266.55	63.902
266.92	63.636
267.29	59.954
267.66	59.862
268.03	61.364
268.40	62.617
268.77	63.007
269.14	60.811
269.51	62.302
269.88	61.072
270.25	60.722
270.62	62.247
270.99	63.226
271.36	59.442
271.73	61.449
272.10	63.261
272.47	63.011
272.84	60.390
273.21	61.845
273.58	57.860
273.95	58.700
274.32	56.818
274.69	62.313
275.06	57.874
275.43	59.149
275.80	58.116
276.17	56.008
276.54	58.836
276.91	57.510
277.28	57.812
277.65	57.447
278.02	62.112
278.39	59.570
278.76	54.545
279.13	56.226
279.50	54.749
279.87	59.363
280.23	56.886
280.60	56.673
280.97	56.007
281.34	57.699
281.71	55.818
282.08	58.349
282.45	56.727
282.82	57.371
283.19	56.150
283.56	52.982
283.92	55.499
284.29	54.674
284.66	57.350
285.03	57.324
285.40	54.754
285.77	56.061
286.14	57.513
286.51	56.000
286.87	55.556
287.24	56.189
287.61	54.896
287.98	52.597
288.35	54.675
288.72	51.869
289.08	52.895
289.45	52.224
289.82	52.033
290.19	49.765
290.56	52.680
290.93	50.302
291.29	51.227
291.66	49.705
292.03	52.180
292.40	52.423
292.77	48.373
293.13	48.358
293.50	48.980
293.87	49.333
294.24	47.259
294.60	49.199
294.97	46.802
295.34	49.929
295.71	47.585
296.08	48.006
296.44	48.556
296.81	48.613
297.18	48.238
297.55	45.910
297.91	47.493
298.28	47.523
298.65	47.520
299.02	46.772
299.38	47.278
299.75	46.496
300.12	46.488
300.48	45.250
300.85	46.856
301.22	47.643
301.59	46.086
301.95	47.103
302.32	47.112
302.69	45.759
303.05	45.576
303.42	45.432
303.79	44.847
304.15	44.755
304.52	44.959
304.89	44.599
305.25	45.360
305.62	46.772
305.99	47.698
306.35	46.085
306.72	44.843
307.09	46.393
307.45	45.946
307.82	46.540
308.19	46.689
308.55	46.926
308.92	47.154
309.29	45.301
309.65	46.129
310.02	45.666
310.38	46.882
310.75	47.096
311.12	46.366
311.48	47.335
311.85	48.218
312.22	46.930
312.58	46.778
312.95	49.736
313.31	45.922
313.68	48.129
314.05	50.394
314.41	48.040
314.78	47.633
315.14	46.276
315.51	49.434
315.87	47.822
316.24	46.773
316.61	48.343
316.97	47.750
317.34	48.141
317.70	50.096
318.07	51.011
318.43	51.468
318.80	49.953
319.16	50.942
319.53	49.156
319.89	51.714
320.26	51.600
320.62	51.389
320.99	52.020
321.35	50.303
321.72	51.335
322.08	53.307
322.45	55.622
322.81	54.651
323.18	56.551
323.54	54.731
323.91	55.189
324.27	56.979
324.64	56.384
325.00	55.726
325.37	58.053
325.73	58.259
326.10	57.899
326.46	58.781
326.83	59.965
327.19	60.717
327.56	62.718
327.92	64.742
328.29	61.757
328.65	62.339
329.01	62.816
329.38	63.552
329.74	63.527
330.11	64.090
330.47	67.126
330.84	63.971
331.20	64.026
331.56	62.018
331.93	65.648
332.29	62.555
332.66	64.071
333.02	63.803
333.38	64.228
333.75	64.171
334.11	64.235
334.48	64.419
334.84	64.246
335.20	64.909
335.57	63.191
335.93	63.750
336.29	64.286
336.66	64.743
337.02	63.710
337.38	64.259
337.75	64.439
338.11	63.384
338.47	63.444
338.84	65.170
339.20	62.202
339.56	63.686
339.93	62.909
340.29	64.312
340.65	63.102
341.02	62.827
341.38	64.858
341.74	63.333
342.11	64.367
342.47	66.256
342.83	63.014
343.20	63.896
343.56	60.826
343.92	63.158
344.28	61.310
344.65	63.199
345.01	62.121
345.37	61.664
345.73	62.860
346.10	62.234
346.46	63.051
346.82	61.614
347.19	61.821
347.55	62.151
347.91	61.570
348.27	61.134
348.63	62.207
349.00	61.570
349.36	60.509
349.72	61.267
350.08	59.238
350.45	61.676
350.81	61.982
351.17	60.616
351.53	62.490
351.89	61.304
352.26	60.931
352.62	61.828
352.98	61.183
353.34	61.298
353.70	61.211
354.07	60.000
354.43	59.127
354.79	59.131
355.15	59.377
355.51	60.592
355.87	63.265
356.24	60.993
356.60	61.026
356.96	62.993
357.32	60.507
357.68	60.236
358.04	57.561
358.40	61.520
358.77	60.407
359.13	59.669
359.49	60.784
359.85	60.238
360.21	61.802
360.57	62.412
360.93	61.077
361.29	60.242
361.66	60.217
362.02	62.388
362.38	60.837
362.74	61.830
363.10	60.548
363.46	60.308
363.82	61.678
364.18	61.747
364.54	61.738
364.90	60.694
365.26	62.059
365.62	61.286
365.98	61.505
366.35	60.960
366.71	60.738
367.07	60.889
367.43	62.845
367.79	61.242
368.15	62.644
368.51	61.410
368.87	62.455
369.23	60.717
369.59	62.781
369.95	60.809
370.31	61.681
370.67	60.942
371.03	62.547
371.39	61.880
371.75	63.235
372.11	61.238
372.47	63.490
372.83	63.977
373.19	62.355
373.55	64.819
373.91	63.623
374.27	61.581
374.63	63.200
374.99	63.206
375.35	63.084
375.71	63.948
376.07	63.306
376.42	63.618
376.78	62.956
377.14	63.908
377.50	64.040
377.86	64.362
378.22	64.539
378.58	62.531
378.94	63.231
379.30	66.349
379.66	66.244
380.02	64.619
380.38	65.149
380.74	65.546
381.09	66.015
381.45	67.117
381.81	66.523
382.17	65.860
382.53	66.604
382.89	66.975
383.25	66.417
383.61	68.587
383.97	67.042
384.32	67.311
384.68	66.729
385.04	66.933
385.40	66.811
385.76	66.830
386.12	69.495
386.48	68.219
386.83	69.339
387.19	69.326
387.55	69.326
387.91	67.533
388.27	67.566
388.62	69.637
388.98	68.182
389.34	69.024
389.70	68.792
390.06	69.835
390.42	69.131
390.77	69.148
391.13	69.879
391.49	69.797
391.85	68.873
392.20	70.347
392.56	71.591
392.92	69.982
393.28	69.290
393.64	69.904
393.99	69.212
394.35	70.099
394.71	68.946
395.07	69.283
395.42	71.941
395.78	69.720
396.14	69.212
396.50	71.491
396.85	71.901
397.21	70.592
397.57	70.614
397.92	70.072
398.28	68.946
398.64	70.072
399.00	70.677
399.35	70.502
399.71	70.775
400.07	69.426
400.42	72.393
400.78	70.627
401.14	72.500
401.49	72.119
401.85	71.083
402.21	70.000
402.57	71.499
402.92	70.618
403.28	73.142
403.63	71.782
403.99	72.803
404.35	70.970
404.70	71.463
405.06	70.530
405.42	70.742
405.77	71.143
406.13	70.542
406.49	71.851
406.84	71.471
407.20	70.804
407.55	72.431
407.91	73.400
408.27	73.389
408.62	70.199
408.98	70.159
409.34	71.587
409.69	72.194
410.05	72.057
410.40	71.070
410.76	72.222
411.11	71.592
411.47	70.735
411.83	71.045
412.18	70.748
412.54	73.163
412.89	70.361
413.25	71.370
413.60	71.958
413.96	70.735
414.31	71.689
414.67	70.722
415.03	72.252
415.38	71.134
415.74	71.768
416.09	72.763
416.45	71.486
416.80	73.496
417.16	72.654
417.51	73.656
417.87	72.447
418.22	73.375
418.58	73.079
418.93	71.622
419.29	72.693
419.64	73.678
420.00	71.951
420.35	70.841
420.71	71.967
421.06	73.807
421.42	71.871
421.77	72.646
422.12	72.600
422.48	72.585
422.83	71.870
423.19	72.099
423.54	73.883
423.90	72.406
424.25	72.920
424.61	72.679
424.96	74.227
425.31	72.591
425.67	71.404
426.02	73.257
426.38	73.932
426.73	73.669
427.09	73.191
427.44	74.411
427.79	72.973
428.15	73.214
428.50	73.786
428.85	73.302
429.21	73.440
429.56	72.939
429.92	72.924
430.27	72.840
430.62	72.145
430.98	71.873
431.33	72.732
431.68	72.670
432.04	72.790
432.39	74.872
432.74	73.429
433.10	73.854
433.45	74.636
433.80	73.282
434.16	73.771
434.51	72.368
434.86	73.717
435.22	75.653
435.57	75.198
435.92	73.903
436.28	75.030
436.63	74.393
436.98	74.299
437.34	74.180
437.69	75.438
438.04	75.885
438.39	76.060
438.75	75.305
439.10	74.693
439.45	75.030
439.81	75.166
440.16	73.744
440.51	74.692
440.86	76.144
441.22	74.972
441.57	74.947
441.92	74.872
442.27	74.327
442.63	74.039
442.98	75.718
443.33	73.587
443.68	74.600
444.03	74.768
444.39	75.463
444.74	74.405
445.09	74.987
445.44	74.631
445.79	74.171
446.15	74.590
446.50	74.960
446.85	75.334
447.20	74.401
447.55	76.159
447.91	75.345
448.26	75.125
448.61	75.240
448.96	75.692
449.31	76.490
449.66	75.014
450.02	74.596
450.37	73.753
450.72	75.747
451.07	75.625
451.42	74.043
451.77	75.396
452.12	75.058
452.47	75.560
452.83	77.273
453.18	74.267
453.53	76.933
453.88	76.196
454.23	76.031
454.58	75.954
454.93	78.067
455.28	75.810
455.63	76.517
455.98	77.857
456.34	75.188
456.69	76.018
457.04	77.337
457.39	74.868
457.74	75.276
458.09	76.941
458.44	76.739
458.79	74.132
459.14	76.467
459.49	75.190
459.84	74.792
460.19	75.781
460.54	73.958
460.89	76.138
461.24	77.110
461.59	75.886
461.94	75.216
462.29	78.338
462.64	75.239
462.99	74.561
463.34	75.800
463.69	76.610
464.04	75.884
464.39	73.681
464.74	76.114
465.09	75.694
465.44	75.235
465.79	74.329
466.14	75.807
466.49	74.027
466.84	74.898
467.19	72.420
467.54	74.250
467.89	75.270
468.24	75.218
468.59	76.374
468.94	74.649
469.29	77.185
469.64	76.774
469.99	75.575
470.34	77.543
470.68	77.083
471.03	75.374
471.38	76.581
471.73	74.750
472.08	78.421
472.43	76.131
472.78	75.642
473.13	75.481
473.48	75.718
473.83	74.573
474.17	74.549
474.52	75.993
474.87	75.832
475.22	75.218
475.57	74.261
475.92	74.987
476.27	75.310
476.61	75.124
476.96	73.722
477.31	75.353
477.66	74.508
478.01	72.608
478.36	74.722
478.70	74.455
479.05	76.145
479.40	75.281
479.75	75.648
480.10	74.006
480.45	73.346
480.79	72.432
481.14	75.245
481.49	74.798
481.84	74.623
482.19	74.194
482.53	74.266
482.88	74.546
483.23	74.346
483.58	74.932
483.92	74.321
484.27	73.333
484.62	73.017
484.97	73.315
485.31	74.452
485.66	72.886
486.01	70.173
486.36	68.176
486.70	66.764
487.05	68.945
487.40	70.889
487.75	72.426
488.09	74.674
488.44	74.616
488.79	75.696
489.13	75.516
489.48	74.347
489.83	74.622
490.17	75.318
490.52	73.738
490.87	73.632
491.22	72.624
491.56	71.936
491.91	73.476
492.26	72.347
492.60	72.995
492.95	72.030
493.30	72.103
493.64	73.168
493.99	72.702
494.34	73.034
494.68	74.267
495.03	72.462
495.37	73.336
495.72	74.123
496.07	74.339
496.41	71.681
496.76	72.076
497.11	71.319
497.45	72.194
497.80	73.177
498.14	72.705
498.49	73.317
498.84	72.579
499.18	72.095
499.53	72.792
499.87	72.134
500.22	72.680
500.56	73.544
500.91	71.875
501.26	72.641
501.60	72.710
501.95	71.448
502.29	73.993
502.64	71.927
502.98	72.464
503.33	71.618
503.67	71.879
504.02	71.001
504.36	70.894
504.71	72.936
505.06	71.518
505.40	72.581
505.75	71.119
506.09	71.720
506.44	72.620
506.78	71.943
507.13	73.094
507.47	72.828
507.82	71.733
508.16	72.948
508.51	73.871
508.85	71.053
509.19	73.469
509.54	71.582
509.88	71.561
510.23	72.494
510.57	72.549
510.92	71.517
511.26	72.456
511.61	71.317
511.95	70.564
512.30	72.747
512.64	71.736
512.98	73.741
513.33	72.216
513.67	71.345
514.02	70.238
514.36	72.146
514.70	71.998
515.05	70.775
515.39	72.911
515.74	71.622
516.08	72.107
516.42	72.253
516.77	71.683
517.11	70.699
517.46	72.235
517.80	72.997
518.14	70.643
518.49	72.520
518.83	71.307
519.17	71.998
519.52	71.590
519.86	71.934
520.20	72.312
520.55	71.813
520.89	72.932
521.23	72.799
521.58	70.768
521.92	72.076
522.26	70.836
522.61	71.713
522.95	70.718
523.29	71.211
523.64	72.683
523.98	72.828
524.32	71.170
524.66	71.618
525.01	70.527
525.35	71.066
525.69	69.951
526.04	70.903
526.38	70.897
526.72	70.859
527.06	71.438
527.41	69.616
527.75	72.797
528.09	71.548
528.43	71.893
528.78	70.559
529.12	69.879
529.46	70.423
529.80	69.678
530.15	70.218
530.49	69.600
530.83	70.063
531.17	72.650
531.51	71.984
531.86	71.161
532.20	70.860
532.54	70.211
532.88	69.833
533.22	70.144
533.57	70.494
533.91	69.235
534.25	69.380
534.59	69.311
534.93	68.769
535.27	69.825
535.62	68.926
535.96	70.308
536.30	69.104
536.64	68.255
536.98	70.537
537.32	70.046
537.66	70.667
538.01	70.375
538.35	69.554
538.69	70.645
539.03	69.656
539.37	66.709
539.71	68.827
540.05	69.346
540.39	68.904
540.73	68.047
541.07	68.462
541.42	69.667
541.76	68.903
542.10	69.017
542.44	68.874
542.78	69.565
543.12	66.283
543.46	67.082
543.80	68.640
544.14	68.164
544.48	67.238
544.82	67.736
545.16	68.445
545.50	67.738
545.84	68.280
546.18	67.475
546.52	69.030
546.86	69.278
547.20	68.982
547.54	66.934
547.88	67.411
548.22	65.504
548.56	67.736
548.90	66.517
549.24	67.071
549.58	67.121
549.92	67.651
550.26	69.602
550.60	67.012
550.94	68.310
551.28	67.520
551.62	67.074
551.96	67.860
552.30	66.143
552.64	67.816
552.98	67.525
553.32	67.161
553.66	66.939
554.00	67.742
554.34	66.943
554.68	68.956
555.02	69.605
555.36	67.084
555.69	65.697
556.03	66.353
556.37	67.667
556.71	66.508
557.05	67.437
557.39	66.270
557.73	66.478
558.07	68.383
558.41	67.366
558.75	67.671
559.08	68.755
559.42	68.103
559.76	67.059
560.10	66.381
560.44	65.758
560.78	66.068
561.12	66.029
561.45	65.645
561.79	65.392
562.13	64.722
562.47	66.735
562.81	68.271
563.15	64.883
563.48	65.584
563.82	66.210
564.16	66.056
564.50	64.062
564.84	65.360
565.17	65.058
565.51	65.112
565.85	64.721
566.19	64.809
566.52	66.688
566.86	64.376
567.20	65.389
567.54	65.240
567.88	63.715
568.21	63.598
568.55	62.993
568.89	62.792
569.23	61.988
569.56	61.215
569.90	60.717
570.24	60.495
570.57	59.674
570.91	58.662
571.25	59.234
571.59	58.881
571.92	59.908
572.26	59.474
572.60	60.450
572.93	59.850
573.27	61.106
573.61	60.776
573.95	59.535
574.28	58.719
574.62	58.090
574.96	58.495
575.29	58.317
575.63	58.918
575.97	59.021
576.30	59.055
576.64	58.858
576.98	59.407
577.31	58.688
577.65	59.088
577.98	58.243
578.32	57.109
578.66	57.778
578.99	57.658
579.33	58.557
579.67	57.480
580.00	58.907
580.34	59.374
580.67	58.331
581.01	58.939
581.35	58.683
581.68	57.932
582.02	56.498
582.35	57.468
582.69	57.173
583.02	57.062
583.36	58.197
583.70	59.216
584.03	59.770
584.37	60.764
584.70	60.005
585.04	58.611
585.37	58.085
585.71	58.341
586.04	58.130
586.38	58.751
586.72	59.100
587.05	58.816
587.39	57.309
587.72	58.387
588.06	58.671
588.39	59.122
588.73	59.167
589.06	59.894
589.40	60.539
589.73	59.979
590.07	60.071
590.40	59.116
590.73	60.929
591.07	61.254
591.40	61.198
591.74	61.429
592.07	60.384
592.41	60.397
592.74	59.326
593.08	58.361
593.41	57.830
593.75	56.746
594.08	57.627
594.41	58.289
594.75	59.667
595.08	57.838
595.42	58.984
595.75	58.654
596.09	59.031
596.42	59.096
596.75	59.941
597.09	59.351
597.42	58.516
597.75	59.120
598.09	58.609
598.42	59.321
598.76	58.330
599.09	57.203
599.42	56.951
599.76	56.625
600.09	56.758
600.42	56.245
600.76	57.214
601.09	56.976
601.42	58.333
601.76	58.178
602.09	58.063
602.42	59.315
602.76	58.646
603.09	59.087
603.42	58.571
603.76	57.241
604.09	57.813
604.42	58.011
604.76	59.469
605.09	58.322
605.42	58.358
605.75	58.237
606.09	58.032
606.42	57.989
606.75	57.860
607.09	57.639
607.42	57.552
607.75	57.215
608.08	57.924
608.42	58.359
608.75	57.394
609.08	57.354
609.41	57.925
609.75	58.885
610.08	60.697
610.41	58.426
610.74	58.846
611.07	58.794
611.41	57.115
611.74	58.572
612.07	59.317
612.40	59.601
612.73	58.368
613.07	59.591
613.40	59.768
613.73	57.577
614.06	60.000
614.39	57.210
614.72	56.947
615.06	57.983
615.39	57.909
615.72	57.413
616.05	57.576
616.38	59.477
616.71	60.154
617.05	60.542
617.38	60.132
617.71	60.180
618.04	60.156
618.37	59.018
618.70	59.863
619.03	60.658
619.36	60.217
619.69	61.338
620.03	59.890
620.36	60.829
620.69	60.548
621.02	60.914
621.35	62.412
621.68	60.903
622.01	61.765
622.34	60.061
622.67	60.608
623.00	60.602
623.33	60.043
623.66	61.472
623.99	61.267
624.32	58.987
624.65	58.475
624.99	60.057
625.32	60.101
625.65	60.331
625.98	61.722
626.31	61.275
626.64	62.612
626.97	62.095
627.30	61.679
627.63	60.295
627.96	62.489
628.29	62.642
628.62	61.848
628.95	63.491
629.28	60.766
629.61	63.428
629.94	64.762
630.26	62.822
630.59	60.534
630.92	60.536
