SpectraSuite Data File
++++++++++++++++++++++++++++++++++++
Date: Wed May 13 16:38:25 PDT 2015
User: schluterlab
Dark Spectrum Present: Yes
Reference Spectrum Present: Yes
Number of Sampled Component Spectra: 1
Spectrometers: USB2E3373
Integration Time (usec): 3000 (USB2E3373)
Spectra Averaged: 3 (USB2E3373)
Boxcar Smoothing: 0 (USB2E3373)
Correct for Electrical Dark: No (USB2E3373)
Strobe/Lamp Enabled: No (USB2E3373)
Correct for Detector Non-linearity: No (USB2E3373)
Correct for Stray Light: No (USB2E3373)
Number of Pixels in Processed Spectrum: 2048
>>>>>Begin Processed Spectral Data<<<<<
178.53	0.000
178.91	-1450.000
179.29	-1300.000
179.67	-194.444
180.04	-1125.000
180.42	2500.000
180.80	1000.000
181.18	-1100.000
181.56	642.857
181.94	0.000
182.31	-685.714
182.69	1600.000
183.07	-537.500
183.45	-633.333
183.83	509.091
184.20	-460.000
184.58	2350.000
184.96	5200.000
185.34	-1000.000
185.72	-662.500
186.09	-2800.000
186.47	2450.000
186.85	2600.000
187.23	5500.000
187.61	-1700.000
187.98	1300.000
188.36	509.091
188.74	490.909
189.12	-640.000
189.49	560.000
189.87	-4700.000
190.25	-1150.000
190.63	421.429
191.00	400.000
191.38	950.000
191.76	-1200.000
192.14	1200.000
192.51	712.500
192.89	983.333
193.27	637.500
193.65	-1225.000
194.02	630.000
194.40	1080.000
194.78	560.000
195.15	541.667
195.53	610.000
195.91	-1850.000
196.29	350.000
196.66	273.684
197.04	-310.000
197.42	0.000
197.79	710.000
198.17	-5000.000
198.55	671.429
198.92	650.000
199.30	880.000
199.68	0.000
200.05	327.778
200.43	728.571
200.81	4300.000
201.18	1800.000
201.56	-1466.667
201.94	466.667
202.31	577.778
202.69	466.667
203.07	530.000
203.44	0.000
203.82	1175.000
204.19	800.000
204.57	435.714
204.95	637.500
205.32	1533.333
205.70	454.545
206.08	371.429
206.45	2500.000
206.83	331.250
207.20	933.333
207.58	720.000
207.96	366.667
208.33	787.500
208.71	-750.000
209.08	814.286
209.46	522.222
209.84	509.091
210.21	-1566.667
210.59	1575.000
210.96	-550.000
211.34	2200.000
211.71	630.000
212.09	850.000
212.46	0.000
212.84	1666.667
213.22	1450.000
213.59	-4300.000
213.97	700.000
214.34	814.286
214.72	563.636
215.09	900.000
215.47	-2500.000
215.84	-2650.000
216.22	1566.667
216.59	400.000
216.97	1425.000
217.34	472.727
217.72	-783.333
218.09	0.000
218.47	-4600.000
218.84	611.111
219.22	742.857
219.59	1800.000
219.97	-714.286
220.34	960.000
220.72	-1400.000
221.09	414.286
221.47	1550.000
221.84	-916.667
222.22	0.000
222.59	1350.000
222.97	-2600.000
223.34	1060.000
223.72	361.538
224.09	940.000
224.46	2050.000
224.84	-5800.000
225.21	-1100.000
225.59	-5000.000
225.96	540.000
226.34	265.000
226.71	2900.000
227.08	725.000
227.46	490.000
227.83	-1325.000
228.21	-2400.000
228.58	588.889
228.95	-2250.000
229.33	-2100.000
229.70	1800.000
230.08	828.571
230.45	-780.000
230.82	408.333
231.20	866.667
231.57	714.286
231.95	483.333
232.32	272.727
232.69	309.091
233.07	657.143
233.44	361.538
233.81	-1566.667
234.19	310.526
234.56	433.333
234.93	358.333
235.31	390.909
235.68	269.231
236.05	350.000
236.43	181.818
236.80	247.368
237.17	4500.000
237.55	200.000
237.92	200.000
238.29	266.667
238.67	167.742
239.04	186.207
239.41	150.000
239.79	93.478
240.16	140.476
240.53	104.545
240.91	84.314
241.28	98.000
241.65	106.000
242.02	91.304
242.40	74.194
242.77	73.333
243.14	64.516
243.51	62.921
243.89	57.647
244.26	52.222
244.63	59.140
245.00	50.000
245.38	54.455
245.75	56.075
246.12	43.119
246.49	49.635
246.87	54.400
247.24	43.846
247.61	42.857
247.98	31.373
248.36	35.135
248.73	38.854
249.10	41.401
249.47	36.723
249.84	41.711
250.22	32.620
250.59	36.095
250.96	34.848
251.33	33.649
251.70	33.168
252.08	29.524
252.45	27.354
252.82	27.391
253.19	29.787
253.56	30.588
253.94	26.971
254.31	28.125
254.68	29.231
255.05	28.044
255.42	23.577
255.79	25.735
256.16	27.437
256.54	24.382
256.91	25.623
257.28	18.345
257.65	21.782
258.02	23.913
258.39	22.713
258.76	24.415
259.14	23.810
259.51	21.581
259.88	20.186
260.25	22.961
260.62	22.254
260.99	23.913
261.36	24.925
261.73	20.917
262.10	19.477
262.47	22.535
262.85	20.891
263.22	17.664
263.59	24.217
263.96	17.857
264.33	20.366
264.70	19.737
265.07	19.437
265.44	21.970
265.81	18.491
266.18	19.598
266.55	18.537
266.92	16.462
267.29	17.824
267.66	19.266
268.03	17.273
268.40	17.523
268.77	15.990
269.14	17.793
269.51	16.704
269.88	17.483
270.25	17.607
270.62	16.629
270.99	19.355
271.36	16.524
271.73	17.523
272.10	15.217
272.47	20.000
272.84	18.182
273.21	19.916
273.58	15.284
273.95	16.562
274.32	15.909
274.69	18.201
275.06	16.535
275.43	18.298
275.80	17.034
276.17	15.275
276.54	17.464
276.91	16.206
277.28	14.062
277.65	16.441
278.02	14.700
278.39	18.359
278.76	17.273
279.13	15.283
279.50	15.270
279.87	15.139
280.23	15.768
280.60	15.087
280.97	13.309
281.34	15.929
281.71	18.000
282.08	15.355
282.45	15.091
282.82	15.986
283.19	13.012
283.56	14.737
283.92	15.736
284.29	14.286
284.66	15.426
285.03	14.286
285.40	13.908
285.77	14.646
286.14	14.508
286.51	15.333
286.87	15.385
287.24	16.287
287.61	14.607
287.98	15.260
288.35	12.995
288.72	13.396
289.08	12.833
289.45	13.674
289.82	16.260
290.19	11.303
290.56	13.936
290.93	12.538
291.29	13.957
291.66	13.864
292.03	15.262
292.40	15.125
292.77	13.462
293.13	14.179
293.50	12.682
293.87	13.926
294.24	12.444
294.60	12.955
294.97	11.192
295.34	15.515
295.71	12.500
296.08	12.963
296.44	12.380
296.81	13.078
297.18	13.686
297.55	10.554
297.91	12.533
298.28	13.922
298.65	13.577
299.02	13.439
299.38	11.687
299.75	12.803
300.12	11.367
300.48	10.875
300.85	13.440
301.22	11.592
301.59	11.995
301.95	12.720
302.32	12.965
302.69	12.784
303.05	13.939
303.42	12.716
303.79	12.571
304.15	12.354
304.52	11.356
304.89	12.079
305.25	12.065
305.62	12.231
305.99	13.105
306.35	13.758
306.72	12.892
307.09	13.651
307.45	14.077
307.82	13.504
308.19	13.245
308.55	14.132
308.92	12.997
309.29	13.094
309.65	12.831
310.02	14.693
310.38	13.656
310.75	13.094
311.12	13.408
311.48	14.629
311.85	14.885
312.22	13.424
312.58	14.449
312.95	14.995
313.31	13.495
313.68	15.385
314.05	16.174
314.41	15.879
314.78	14.904
315.14	15.789
315.51	16.272
315.87	17.624
316.24	16.683
316.61	16.179
316.97	15.753
317.34	15.851
317.70	17.591
318.07	16.458
318.43	18.787
318.80	17.526
319.16	18.267
319.53	17.917
319.89	18.857
320.26	20.200
320.62	19.940
320.99	20.202
321.35	20.707
321.72	21.047
322.08	23.001
322.45	22.687
322.81	23.062
323.18	23.218
323.54	23.191
323.91	24.057
324.27	25.335
324.64	24.418
325.00	24.346
325.37	26.934
325.73	28.007
326.10	26.655
326.46	27.688
326.83	27.955
327.19	29.547
327.56	28.833
327.92	29.659
328.29	31.411
328.65	32.044
329.01	31.137
329.38	32.100
329.74	33.333
330.11	32.988
330.47	33.150
330.84	34.926
331.20	33.424
331.56	33.119
331.93	33.704
332.29	34.605
332.66	34.513
333.02	34.095
333.38	35.772
333.75	34.225
334.11	35.765
334.48	35.670
334.84	35.570
335.20	35.636
335.57	34.905
335.93	35.714
336.29	36.355
336.66	35.437
337.02	36.109
337.38	37.037
337.75	35.383
338.11	37.332
338.47	36.740
338.84	38.405
339.20	35.413
339.56	37.591
339.93	36.727
340.29	37.500
340.65	36.275
341.02	36.387
341.38	37.900
341.74	35.965
342.11	37.118
342.47	36.564
342.83	36.301
343.20	36.364
343.56	35.299
343.92	37.632
344.28	37.585
344.65	36.887
345.01	36.869
345.37	35.420
345.73	37.479
346.10	37.255
346.46	36.102
346.82	35.914
347.19	35.589
347.55	37.356
347.91	37.460
348.27	38.044
348.63	36.957
349.00	37.460
349.36	36.125
349.72	36.969
350.08	36.305
350.45	36.859
350.81	37.206
351.17	37.439
351.53	36.527
351.89	35.314
352.26	36.622
352.62	38.332
352.98	37.196
353.34	38.127
353.70	35.516
354.07	37.581
354.43	36.349
354.79	36.685
355.15	35.515
355.51	37.810
355.87	37.878
356.24	37.052
356.60	37.049
356.96	36.364
357.32	36.468
357.68	37.559
358.04	37.688
358.40	36.975
358.77	37.637
359.13	37.490
359.49	37.569
359.85	36.349
360.21	38.437
360.57	37.276
360.93	38.308
361.29	36.886
361.66	36.920
362.02	37.388
362.38	37.034
362.74	38.467
363.10	37.528
363.46	37.638
363.82	37.642
364.18	36.784
364.54	37.519
364.90	37.606
365.26	38.015
365.62	38.057
365.98	36.596
366.35	37.464
366.71	37.744
367.07	37.363
367.43	38.607
367.79	38.330
368.15	38.865
368.51	37.936
368.87	37.188
369.23	38.040
369.59	37.871
369.95	38.529
370.31	37.821
370.67	37.681
371.03	39.551
371.39	37.828
371.75	37.574
372.11	38.193
372.47	39.296
372.83	38.184
373.19	38.367
373.55	39.024
373.91	38.807
374.27	37.801
374.63	39.564
374.99	38.489
375.35	37.823
375.71	37.629
376.07	38.477
376.42	38.858
376.78	38.767
377.14	38.399
377.50	39.007
377.86	37.766
378.22	39.001
378.58	37.657
378.94	39.158
379.30	38.677
379.66	38.198
380.02	38.329
380.38	38.312
380.74	38.595
381.09	39.303
381.45	39.090
381.81	40.541
382.17	38.854
382.53	38.553
382.89	40.247
383.25	38.211
383.61	39.219
383.97	39.024
384.32	38.428
384.68	38.290
385.04	39.213
385.40	38.824
385.76	37.838
386.12	39.119
386.48	39.962
386.83	39.448
387.19	40.074
387.55	38.281
387.91	38.331
388.27	38.504
388.62	38.783
388.98	37.776
389.34	39.675
389.70	38.075
390.06	38.657
390.42	38.003
390.77	38.295
391.13	39.056
391.49	38.452
391.85	37.747
392.20	37.476
392.56	38.384
392.92	38.081
393.28	36.864
393.64	38.189
393.99	38.363
394.35	37.469
394.71	37.014
395.07	36.511
395.42	37.206
395.78	37.023
396.14	36.809
396.50	38.095
396.85	36.682
397.21	36.313
397.57	36.702
397.92	36.719
398.28	35.370
398.64	36.081
399.00	35.758
399.35	34.969
399.71	34.838
400.07	35.364
400.42	35.828
400.78	35.585
401.14	36.280
401.49	34.448
401.85	34.180
402.21	34.790
402.57	35.102
402.92	35.372
403.28	35.228
403.63	35.520
403.99	34.777
404.35	33.818
404.70	33.753
405.06	34.653
405.42	34.373
405.77	33.086
406.13	33.916
406.49	33.176
406.84	32.841
407.20	32.033
407.55	33.440
407.91	34.067
408.27	31.780
408.62	32.751
408.98	32.598
409.34	32.288
409.69	32.581
410.05	31.722
410.40	31.682
410.76	31.780
411.11	31.544
411.47	32.204
411.83	31.888
412.18	32.096
412.54	33.313
412.89	31.867
413.25	32.172
413.60	32.860
413.96	31.390
414.31	30.741
414.67	31.686
415.03	32.119
415.38	31.830
415.74	31.318
416.09	31.744
416.45	32.329
416.80	30.601
417.16	32.239
417.51	31.652
417.87	30.636
418.22	31.609
418.58	30.730
418.93	32.555
419.29	31.127
419.64	32.305
420.00	31.037
420.35	30.957
420.71	31.441
421.06	30.191
421.42	30.409
421.77	31.278
422.12	30.376
422.48	30.059
422.83	31.159
423.19	31.547
423.54	31.109
423.90	31.130
424.25	31.267
424.61	30.774
424.96	31.020
425.31	30.509
425.67	30.618
426.02	31.771
426.38	31.258
426.73	30.837
427.09	31.064
427.44	31.857
427.79	31.397
428.15	31.964
428.50	31.656
428.85	32.420
429.21	31.253
429.56	30.897
429.92	31.102
430.27	29.841
430.62	30.261
430.98	31.085
431.33	30.670
431.68	31.571
432.04	31.203
432.39	31.125
432.74	31.538
433.10	32.145
433.45	31.720
433.80	30.322
434.16	31.410
434.51	30.632
434.86	31.129
435.22	31.573
435.57	32.401
435.92	31.071
436.28	32.147
436.63	32.230
436.98	30.624
437.34	31.306
437.69	31.680
438.04	31.535
438.39	31.343
438.75	32.191
439.10	30.782
439.45	31.405
439.81	32.205
440.16	30.943
440.51	31.986
440.86	31.442
441.22	30.979
441.57	32.166
441.92	31.730
442.27	31.378
442.63	30.700
442.98	31.606
443.33	30.489
443.68	31.750
444.03	31.381
444.39	31.646
444.74	31.277
445.09	31.321
445.44	31.274
445.79	30.579
446.15	31.498
446.50	31.072
446.85	31.706
447.20	31.005
447.55	31.602
447.91	30.778
448.26	30.885
448.61	30.356
448.96	31.285
449.31	31.440
449.66	31.739
450.02	29.972
450.37	30.499
450.72	30.570
451.07	30.652
451.42	30.152
451.77	31.944
452.12	31.236
452.47	30.162
452.83	31.061
453.18	29.951
453.53	31.664
453.88	30.006
454.23	31.022
454.58	31.557
454.93	31.850
455.28	31.359
455.63	31.493
455.98	31.548
456.34	31.093
456.69	30.432
457.04	31.084
457.39	29.690
457.74	30.296
458.09	30.535
458.44	29.761
458.79	28.688
459.14	30.248
459.49	30.064
459.84	29.363
460.19	29.523
460.54	28.819
460.89	29.951
461.24	30.419
461.59	30.738
461.94	30.210
462.29	29.436
462.64	28.973
462.99	28.627
463.34	30.600
463.69	30.331
464.04	30.029
464.39	29.159
464.74	29.649
465.09	29.614
465.44	29.640
465.79	29.474
466.14	29.174
466.49	28.587
466.84	29.480
467.19	29.632
467.54	28.625
467.89	28.812
468.24	29.319
468.59	29.304
468.94	28.528
469.29	29.627
469.64	29.786
469.99	29.635
470.34	28.534
470.68	28.879
471.03	28.367
471.38	29.951
471.73	28.714
472.08	29.408
472.43	29.962
472.78	28.703
473.13	28.306
473.48	29.401
473.83	28.902
474.17	28.251
474.52	28.412
474.87	28.838
475.22	29.135
475.57	27.458
475.92	27.669
476.27	27.959
476.61	28.020
476.96	27.048
477.31	26.845
477.66	27.133
478.01	27.653
478.36	27.869
478.70	26.791
479.05	26.944
479.40	28.199
479.75	27.555
480.10	27.584
480.45	26.321
480.79	27.043
481.14	27.691
481.49	26.910
481.84	26.749
482.19	26.942
482.53	26.606
482.88	26.710
483.23	27.617
483.58	26.934
483.92	27.132
484.27	25.229
484.62	25.647
484.97	25.857
485.31	27.123
485.66	24.951
486.01	24.208
486.36	22.946
486.70	22.328
487.05	23.320
487.40	24.004
487.75	24.644
488.09	25.265
488.44	25.817
488.79	26.365
489.13	26.547
489.48	25.204
489.83	25.680
490.17	26.173
490.52	25.598
490.87	25.147
491.22	26.103
491.56	25.239
491.91	25.314
492.26	25.494
492.60	26.083
492.95	25.117
493.30	25.374
493.64	25.665
493.99	25.023
494.34	25.532
494.68	25.412
495.03	24.953
495.37	25.779
495.72	25.341
496.07	25.615
496.41	25.133
496.76	25.110
497.11	24.448
497.45	24.825
497.80	25.480
498.14	24.879
498.49	25.415
498.84	25.695
499.18	25.286
499.53	25.926
499.87	25.116
500.22	24.729
500.56	26.068
500.91	24.952
501.26	25.083
501.60	24.490
501.95	24.794
502.29	25.305
502.64	24.953
502.98	24.544
503.33	24.177
503.67	24.594
504.02	24.322
504.36	23.631
504.71	24.866
505.06	24.530
505.40	25.231
505.75	24.253
506.09	24.684
506.44	25.259
506.78	24.598
507.13	24.987
507.47	24.545
507.82	24.873
508.16	24.772
508.51	25.368
508.85	23.635
509.19	25.204
509.54	24.490
509.88	24.936
510.23	24.987
510.57	25.439
510.92	24.184
511.26	24.306
511.61	24.741
511.95	24.113
512.30	24.443
512.64	24.557
512.98	24.598
513.33	25.482
513.67	24.173
514.02	24.675
514.36	24.522
514.70	24.571
515.05	23.815
515.39	25.126
515.74	25.225
516.08	25.042
516.42	24.639
516.77	25.251
517.11	24.417
517.46	25.169
517.80	23.926
518.14	24.320
518.49	24.737
518.83	23.977
519.17	24.480
519.52	23.995
519.86	23.503
520.20	24.682
520.55	25.314
520.89	24.574
521.23	25.392
521.58	24.250
521.92	24.923
522.26	23.002
522.61	24.486
522.95	23.880
523.29	24.650
523.64	23.963
523.98	24.831
524.32	24.367
524.66	23.873
525.01	24.142
525.35	24.349
525.69	23.768
526.04	23.863
526.38	24.222
526.72	24.049
527.06	23.980
527.41	22.215
527.75	23.666
528.09	24.021
528.43	24.283
528.78	23.786
529.12	23.030
529.46	23.944
529.80	22.958
530.15	24.299
530.49	22.954
530.83	23.861
531.17	24.543
531.51	24.903
531.86	23.290
532.20	24.641
532.54	24.023
532.88	23.363
533.22	23.048
533.57	23.519
533.91	22.637
534.25	23.269
534.59	22.148
534.93	22.725
535.27	22.993
535.62	22.955
535.96	23.415
536.30	22.950
536.64	23.889
536.98	23.291
537.32	24.621
537.66	23.400
538.01	22.976
538.35	23.206
538.69	23.931
539.03	23.847
539.37	22.556
539.71	22.618
540.05	23.007
540.39	22.924
540.73	23.674
541.07	23.881
541.42	22.962
541.76	23.613
542.10	23.092
542.44	23.510
542.78	23.452
543.12	22.137
543.46	23.672
543.80	22.642
544.14	21.759
544.48	22.413
544.82	22.643
545.16	22.381
545.50	22.108
545.84	22.110
546.18	22.492
546.52	23.056
546.86	23.436
547.20	23.061
547.54	22.578
547.88	24.043
548.22	22.416
548.56	22.138
548.90	21.831
549.24	21.818
549.58	23.056
549.92	22.665
550.26	23.509
550.60	22.752
550.94	23.521
551.28	22.677
551.62	24.299
551.96	23.158
552.30	23.276
552.64	21.771
552.98	21.966
553.32	22.657
553.66	22.699
554.00	23.061
554.34	22.567
554.68	23.748
555.02	23.484
555.36	22.129
555.69	21.786
556.03	22.611
556.37	22.306
556.71	22.169
557.05	22.339
557.39	21.833
557.73	23.077
558.07	24.075
558.41	23.155
558.75	24.614
559.08	23.341
559.42	22.600
559.76	23.603
560.10	23.198
560.44	22.781
560.78	22.821
561.12	21.834
561.45	22.034
561.79	22.479
562.13	21.328
562.47	21.995
562.81	21.967
563.15	21.739
563.48	21.950
563.82	22.048
564.16	21.975
564.50	20.638
564.84	21.176
565.17	22.072
565.51	20.767
565.85	21.003
566.19	20.351
566.52	21.659
566.86	21.640
567.20	22.170
567.54	20.890
567.88	20.315
568.21	20.529
568.55	19.869
568.89	19.698
569.23	19.652
569.56	19.069
569.90	19.245
570.24	18.837
570.57	18.939
570.91	17.647
571.25	18.376
571.59	18.174
571.92	18.145
572.26	18.140
572.60	18.438
572.93	18.681
573.27	18.190
573.61	18.314
573.95	17.571
574.28	17.487
574.62	17.614
574.96	17.228
575.29	17.241
575.63	17.708
575.97	17.079
576.30	18.189
576.64	17.109
576.98	17.210
577.31	17.190
577.65	17.264
577.98	17.049
578.32	16.779
578.66	16.813
578.99	16.982
579.33	17.066
579.67	17.052
580.00	17.406
580.34	17.679
580.67	17.301
581.01	17.810
581.35	17.304
581.68	16.961
582.02	16.320
582.35	16.564
582.69	16.714
583.02	17.347
583.36	17.293
583.70	17.582
584.03	17.555
584.37	18.024
584.70	17.607
585.04	17.931
585.37	17.777
585.71	17.340
586.04	16.912
586.38	17.921
586.72	18.531
587.05	17.414
587.39	17.467
587.72	17.547
588.06	17.236
588.39	17.750
588.73	18.070
589.06	18.573
589.40	18.283
589.73	18.726
590.07	18.292
590.40	18.049
590.73	18.970
591.07	19.658
591.40	19.485
591.74	19.351
592.07	19.328
592.41	19.016
592.74	18.240
593.08	18.288
593.41	17.842
593.75	17.458
594.08	17.901
594.41	18.487
594.75	18.078
595.08	18.361
595.42	18.074
595.75	18.697
596.09	18.813
596.42	18.978
596.75	19.460
597.09	19.697
597.42	18.465
597.75	18.499
598.09	18.696
598.42	18.943
598.76	18.160
599.09	18.282
599.42	17.431
599.76	18.045
600.09	17.486
600.42	18.079
600.76	17.750
601.09	17.668
601.42	17.694
601.76	18.216
602.09	18.142
602.42	18.830
602.76	18.823
603.09	18.647
603.42	18.977
603.76	17.835
604.09	18.302
604.42	18.712
604.76	18.726
605.09	17.999
605.42	17.999
605.75	18.377
606.09	18.097
606.42	18.553
606.75	18.291
607.09	18.167
607.42	18.186
607.75	18.523
608.08	18.063
608.42	18.422
608.75	18.260
609.08	17.900
609.41	18.515
609.75	18.485
610.08	19.086
610.41	18.948
610.74	18.259
611.07	19.170
611.41	18.499
611.74	19.507
612.07	19.358
612.40	19.360
612.73	19.211
613.07	19.558
613.40	19.642
613.73	19.035
614.06	19.247
614.39	18.668
614.72	19.737
615.06	19.013
615.39	17.781
615.72	19.121
616.05	18.182
616.38	19.900
616.71	19.656
617.05	20.318
617.38	19.603
617.71	19.399
618.04	19.772
618.37	19.279
618.70	18.917
619.03	20.066
619.36	20.163
619.69	20.986
620.03	19.918
620.36	20.922
620.69	20.890
621.02	21.165
621.35	20.673
621.68	21.184
622.01	20.511
622.34	21.104
622.67	21.293
623.00	19.956
623.33	20.515
623.66	21.301
623.99	20.619
624.32	20.043
624.65	19.562
624.99	19.334
625.32	20.058
625.65	20.135
625.98	21.445
626.31	21.306
626.64	20.735
626.97	21.363
627.30	21.114
627.63	20.837
627.96	22.204
628.29	21.347
628.62	21.500
628.95	23.679
629.28	23.084
629.61	22.090
629.94	21.333
630.26	22.116
630.59	21.544
630.92	21.648
