SpectraSuite Data File
++++++++++++++++++++++++++++++++++++
Date: Wed May 13 16:29:14 PDT 2015
User: schluterlab
Dark Spectrum Present: Yes
Reference Spectrum Present: Yes
Number of Sampled Component Spectra: 1
Spectrometers: USB2E3373
Integration Time (usec): 3000 (USB2E3373)
Spectra Averaged: 3 (USB2E3373)
Boxcar Smoothing: 0 (USB2E3373)
Correct for Electrical Dark: No (USB2E3373)
Strobe/Lamp Enabled: No (USB2E3373)
Correct for Detector Non-linearity: No (USB2E3373)
Correct for Stray Light: No (USB2E3373)
Number of Pixels in Processed Spectrum: 2048
>>>>>Begin Processed Spectral Data<<<<<
178.53	0.000
178.91	-1050.000
179.29	-975.000
179.67	-200.000
180.04	-1250.000
180.42	2200.000
180.80	980.000
181.18	-1000.000
181.56	628.571
181.94	0.000
182.31	-585.714
182.69	1433.333
183.07	-487.500
183.45	-444.444
183.83	454.545
184.20	-290.000
184.58	2350.000
184.96	5300.000
185.34	-700.000
185.72	-550.000
186.09	-1850.000
186.47	2500.000
186.85	2450.000
187.23	5000.000
187.61	-1566.667
187.98	1200.000
188.36	454.545
188.74	445.455
189.12	-780.000
189.49	560.000
189.87	-4900.000
190.25	-1100.000
190.63	407.143
191.00	338.462
191.38	816.667
191.76	-975.000
192.14	1325.000
192.51	525.000
192.89	900.000
193.27	550.000
193.65	-825.000
194.02	440.000
194.40	1040.000
194.78	440.000
195.15	491.667
195.53	540.000
195.91	-1700.000
196.29	318.750
196.66	289.474
197.04	-350.000
197.42	0.000
197.79	550.000
198.17	-3900.000
198.55	571.429
198.92	675.000
199.30	880.000
199.68	0.000
200.05	294.444
200.43	685.714
200.81	3800.000
201.18	1600.000
201.56	-1300.000
201.94	477.778
202.31	488.889
202.69	458.333
203.07	500.000
203.44	0.000
203.82	950.000
204.19	714.286
204.57	450.000
204.95	700.000
205.32	1433.333
205.70	409.091
206.08	342.857
206.45	2650.000
206.83	368.750
207.20	716.667
207.58	620.000
207.96	283.333
208.33	675.000
208.71	-666.667
209.08	714.286
209.46	544.444
209.84	381.818
210.21	-1500.000
210.59	1375.000
210.96	-462.500
211.34	2100.000
211.71	570.000
212.09	766.667
212.46	0.000
212.84	1433.333
213.22	1475.000
213.59	-4200.000
213.97	733.333
214.34	714.286
214.72	472.727
215.09	1040.000
215.47	-1950.000
215.84	-2050.000
216.22	1400.000
216.59	407.143
216.97	1300.000
217.34	327.273
217.72	-666.667
218.09	0.000
218.47	-4400.000
218.84	533.333
219.22	671.429
219.59	1366.667
219.97	-500.000
220.34	880.000
220.72	-1566.667
221.09	357.143
221.47	1375.000
221.84	-816.667
222.22	0.000
222.59	1275.000
222.97	-2250.000
223.34	1240.000
223.72	400.000
224.09	960.000
224.46	2200.000
224.84	-4600.000
225.21	-920.000
225.59	-3800.000
225.96	650.000
226.34	260.000
226.71	2750.000
227.08	537.500
227.46	510.000
227.83	-900.000
228.21	-2200.000
228.58	577.778
228.95	-2250.000
229.33	-2050.000
229.70	1533.333
230.08	785.714
230.45	-760.000
230.82	466.667
231.20	800.000
231.57	585.714
231.95	416.667
232.32	186.364
232.69	363.636
233.07	542.857
233.44	284.615
233.81	-1466.667
234.19	226.316
234.56	358.333
234.93	316.667
235.31	381.818
235.68	300.000
236.05	314.286
236.43	184.848
236.80	226.316
237.17	3300.000
237.55	180.952
237.92	164.286
238.29	166.667
238.67	129.032
239.04	162.069
239.41	127.778
239.79	108.696
240.16	126.190
240.53	109.091
240.91	82.353
241.28	84.000
241.65	74.000
242.02	76.812
242.40	62.903
242.77	53.333
243.14	53.763
243.51	67.416
243.89	52.941
244.26	46.667
244.63	39.785
245.00	44.681
245.38	37.624
245.75	38.318
246.12	33.028
246.49	40.146
246.87	42.400
247.24	39.231
247.61	38.571
247.98	36.601
248.36	25.000
248.73	29.299
249.10	29.936
249.47	35.028
249.84	28.342
250.22	23.529
250.59	27.811
250.96	25.253
251.33	25.592
251.70	28.218
252.08	26.190
252.45	21.076
252.82	22.609
253.19	22.128
253.56	25.098
253.94	21.162
254.31	21.094
254.68	18.846
255.05	20.664
255.42	17.480
255.79	19.118
256.16	22.383
256.54	17.668
256.91	17.082
257.28	16.547
257.65	20.462
258.02	18.012
258.39	13.249
258.76	15.719
259.14	19.048
259.51	14.894
259.88	13.975
260.25	18.731
260.62	14.740
260.99	13.665
261.36	13.814
261.73	14.613
262.10	13.953
262.47	16.901
262.85	13.649
263.22	12.821
263.59	15.670
263.96	15.385
264.33	14.883
264.70	13.684
265.07	13.555
265.44	13.131
265.81	14.355
266.18	13.819
266.55	13.415
266.92	11.794
267.29	14.120
267.66	11.697
268.03	13.409
268.40	12.617
268.77	11.217
269.14	12.838
269.51	14.221
269.88	12.587
270.25	13.544
270.62	11.461
270.99	12.903
271.36	12.876
271.73	11.215
272.10	11.957
272.47	15.914
272.84	13.420
273.21	11.530
273.58	11.354
273.95	11.740
274.32	11.983
274.69	10.064
275.06	10.630
275.43	11.277
275.80	14.028
276.17	11.405
276.54	10.811
276.91	11.660
277.28	10.742
277.65	12.186
278.02	9.317
278.39	11.328
278.76	12.364
279.13	11.887
279.50	13.035
279.87	10.159
280.23	10.978
280.60	11.025
280.97	10.351
281.34	10.973
281.71	11.091
282.08	9.597
282.45	8.182
282.82	11.368
283.19	6.774
283.56	11.579
283.92	10.998
284.29	10.935
284.66	9.619
285.03	11.573
285.40	8.627
285.77	10.774
286.14	10.190
286.51	11.333
286.87	10.256
287.24	10.098
287.61	9.631
287.98	11.526
288.35	10.143
288.72	9.346
289.08	10.485
289.45	8.567
289.82	8.455
290.19	8.477
290.56	8.576
290.93	7.704
291.29	9.509
291.66	8.260
292.03	11.773
292.40	9.838
292.77	9.763
293.13	10.000
293.50	8.163
293.87	8.444
294.24	7.556
294.60	6.259
294.97	9.302
295.34	8.039
295.71	7.955
296.08	8.832
296.44	9.904
296.81	8.058
297.18	8.672
297.55	6.464
297.91	7.388
298.28	8.701
298.65	8.225
299.02	8.959
299.38	7.968
299.75	5.256
300.12	6.386
300.48	7.625
300.85	8.015
301.22	7.771
301.59	7.702
301.95	7.431
302.32	5.905
302.69	7.288
303.05	7.030
303.42	6.790
303.79	7.361
304.15	6.294
304.52	5.794
304.89	6.736
305.25	7.541
305.62	7.248
305.99	6.494
306.35	6.600
306.72	7.287
307.09	7.325
307.45	8.671
307.82	6.027
308.19	7.285
308.55	6.041
308.92	6.660
309.29	6.547
309.65	6.999
310.02	7.188
310.38	6.129
310.75	6.969
311.12	6.448
311.48	6.374
311.85	6.184
312.22	6.660
312.58	6.549
312.95	7.075
313.31	5.631
313.68	6.653
314.05	7.594
314.41	6.533
314.78	6.546
315.14	6.058
315.51	6.900
315.87	8.713
316.24	7.249
316.61	6.433
316.97	6.360
317.34	5.382
317.70	6.979
318.07	6.930
318.43	6.654
318.80	7.216
319.16	8.098
319.53	6.567
319.89	8.667
320.26	7.800
320.62	7.440
320.99	7.778
321.35	8.687
321.72	9.343
322.08	7.799
322.45	9.154
322.81	8.721
323.18	8.092
323.54	8.256
323.91	8.774
324.27	8.604
324.64	7.083
325.00	7.935
325.37	9.736
325.73	10.323
326.10	9.267
326.46	8.333
326.83	8.973
327.19	10.418
327.56	8.711
327.92	9.011
328.29	10.293
328.65	10.037
329.01	9.206
329.38	9.528
329.74	9.695
330.11	10.556
330.47	10.836
330.84	11.673
331.20	9.836
331.56	10.642
331.93	9.167
332.29	10.559
332.66	11.239
333.02	10.420
333.38	10.117
333.75	10.517
334.11	10.676
334.48	10.470
334.84	11.397
335.20	11.000
335.57	10.879
335.93	9.643
336.29	10.165
336.66	10.550
337.02	9.864
337.38	10.278
337.75	9.002
338.11	10.385
338.47	10.773
338.84	11.182
339.20	10.000
339.56	10.584
339.93	9.909
340.29	10.326
340.65	10.873
341.02	11.082
341.38	11.655
341.74	10.351
342.11	11.004
342.47	11.454
342.83	10.531
343.20	10.303
343.56	10.868
343.92	10.789
344.28	10.714
344.65	11.436
345.01	10.101
345.37	8.919
345.73	10.575
346.10	10.486
346.46	10.593
346.82	10.461
347.19	9.691
347.55	11.002
347.91	10.922
348.27	10.682
348.63	11.622
349.00	10.032
349.36	10.837
349.72	10.906
350.08	10.940
350.45	11.391
350.81	10.236
351.17	10.940
351.53	10.401
351.89	9.983
352.26	10.892
352.62	11.147
352.98	10.211
353.34	11.422
353.70	9.411
354.07	11.452
354.43	10.952
354.79	10.056
355.15	10.375
355.51	11.351
355.87	11.184
356.24	10.423
356.60	9.944
356.96	10.539
357.32	10.630
357.68	10.315
358.04	11.481
358.40	10.530
358.77	10.563
359.13	9.629
359.49	10.902
359.85	9.365
360.21	10.447
360.57	10.895
360.93	10.923
361.29	10.053
361.66	10.991
362.02	11.269
362.38	11.483
362.74	10.193
363.10	10.733
363.46	9.905
363.82	10.960
364.18	10.720
364.54	10.996
364.90	10.623
365.26	9.706
365.62	11.760
365.98	10.665
366.35	10.602
366.71	11.641
367.07	11.872
367.43	10.813
367.79	11.563
368.15	10.991
368.51	11.047
368.87	11.064
369.23	11.046
369.59	12.382
369.95	10.588
370.31	11.752
370.67	10.652
371.03	12.135
371.39	12.026
371.75	11.103
372.11	10.882
372.47	11.217
372.83	11.960
373.19	12.211
373.55	11.530
373.91	12.592
374.27	11.340
374.63	11.345
374.99	13.065
375.35	11.654
375.71	12.132
376.07	12.551
376.42	12.105
376.78	13.453
377.14	11.669
377.50	12.848
377.86	11.835
378.22	12.642
378.58	11.529
378.94	12.131
379.30	11.450
379.66	13.008
380.02	12.715
380.38	12.083
380.74	12.965
381.09	13.081
381.45	12.661
381.81	13.268
382.17	13.185
382.53	12.704
382.89	13.086
383.25	12.445
383.61	13.941
383.97	13.383
384.32	13.163
384.68	13.135
385.04	13.460
385.40	13.003
385.76	13.329
386.12	13.990
386.48	14.034
386.83	14.817
387.19	15.275
387.55	13.853
387.91	14.329
388.27	13.857
388.62	14.259
388.98	13.636
389.34	14.518
389.70	14.592
390.06	15.399
390.42	14.397
390.77	14.313
391.13	14.997
391.49	15.102
391.85	14.704
392.20	13.943
392.56	14.268
392.92	15.421
393.28	14.556
393.64	15.168
393.99	15.272
394.35	14.888
394.71	15.433
395.07	15.202
395.42	15.142
395.78	15.394
396.14	15.891
396.50	16.917
396.85	15.194
397.21	15.290
397.57	15.561
397.92	15.024
398.28	15.135
398.64	15.591
399.00	15.781
399.35	15.285
399.71	15.162
400.07	16.144
400.42	16.074
400.78	16.466
401.14	16.037
401.49	16.179
401.85	15.487
402.21	16.287
402.57	15.361
402.92	16.078
403.28	17.614
403.63	16.213
403.99	15.796
404.35	16.606
404.70	15.767
405.06	15.026
405.42	16.407
405.77	16.229
406.13	16.196
406.49	16.499
406.84	16.361
407.20	16.253
407.55	15.954
407.91	16.867
408.27	16.082
408.62	16.496
408.98	15.870
409.34	16.421
409.69	16.323
410.05	16.914
410.40	16.269
410.76	16.906
411.11	17.370
411.47	16.422
411.83	16.677
412.18	16.265
412.54	16.438
412.89	16.988
413.25	17.060
413.60	16.492
413.96	16.818
414.31	17.011
414.67	16.793
415.03	16.755
415.38	17.590
415.74	17.042
416.09	17.113
416.45	16.265
416.80	15.995
417.16	17.359
417.51	16.656
417.87	15.928
418.22	17.603
418.58	17.108
418.93	17.629
419.29	17.187
419.64	17.065
420.00	17.744
420.35	17.043
420.71	17.454
421.06	16.766
421.42	17.193
421.77	17.769
422.12	16.339
422.48	16.244
422.83	17.181
423.19	16.464
423.54	17.586
423.90	17.275
424.25	17.755
424.61	17.679
424.96	17.259
425.31	17.110
425.67	16.910
426.02	17.086
426.38	17.582
426.73	17.028
427.09	17.872
427.44	17.999
427.79	16.676
428.15	18.036
428.50	17.554
428.85	18.176
429.21	17.449
429.56	17.367
429.92	17.313
430.27	16.385
430.62	16.846
430.98	16.606
431.33	17.526
431.68	17.487
432.04	17.039
432.39	17.875
432.74	18.013
433.10	17.600
433.45	18.076
433.80	17.572
434.16	17.308
434.51	17.316
434.86	17.617
435.22	17.287
435.57	18.116
435.92	17.671
436.28	17.912
436.63	18.653
436.98	17.230
437.34	17.770
437.69	18.261
438.04	17.707
438.39	18.269
438.75	18.768
439.10	18.715
439.45	18.595
439.81	17.100
440.16	17.617
440.51	18.629
440.86	18.356
441.22	18.076
441.57	17.728
441.92	17.963
442.27	18.192
442.63	18.009
442.98	17.972
443.33	18.478
443.68	17.914
444.03	18.058
444.39	17.429
444.74	17.749
445.09	18.113
445.44	18.316
445.79	17.417
446.15	18.158
446.50	17.394
446.85	17.986
447.20	17.899
447.55	18.537
447.91	17.264
448.26	18.587
448.61	18.202
448.96	18.771
449.31	18.673
449.66	18.683
450.02	18.496
450.37	17.347
450.72	17.654
451.07	18.221
451.42	17.508
451.77	18.203
452.12	18.245
452.47	18.470
452.83	18.998
453.18	18.521
453.53	19.295
453.88	18.370
454.23	18.709
454.58	18.837
454.93	20.025
455.28	19.264
455.63	18.568
455.98	19.762
456.34	18.530
456.69	18.347
457.04	19.752
457.39	18.586
457.74	19.153
458.09	19.149
458.44	18.985
458.79	18.059
459.14	19.582
459.49	19.323
459.84	18.726
460.19	19.387
460.54	18.924
460.89	19.035
461.24	18.822
461.59	19.640
461.94	18.866
462.29	19.763
462.64	18.634
462.99	18.933
463.34	19.533
463.69	19.950
464.04	19.710
464.39	18.319
464.74	19.133
465.09	19.180
465.44	18.615
465.79	18.456
466.14	18.555
466.49	19.522
466.84	19.556
467.19	19.191
467.54	20.562
467.89	18.727
468.24	19.314
468.59	20.269
468.94	18.937
469.29	19.666
469.64	19.813
469.99	19.824
470.34	19.551
470.68	19.828
471.03	20.340
471.38	20.014
471.73	20.053
472.08	20.263
472.43	19.786
472.78	19.487
473.13	19.769
473.48	20.037
473.83	20.061
474.17	19.166
474.52	19.169
474.87	19.965
475.22	19.269
475.57	18.700
475.92	18.959
476.27	18.264
476.61	18.919
476.96	19.626
477.31	18.472
477.66	19.256
478.01	19.655
478.36	19.355
478.70	18.328
479.05	19.223
479.40	19.550
479.75	19.268
480.10	18.489
480.45	18.372
480.79	18.681
481.14	19.374
481.49	19.601
481.84	19.021
482.19	18.719
482.53	18.991
482.88	18.939
483.23	18.879
483.58	18.926
483.92	19.869
484.27	18.606
484.62	18.534
484.97	17.856
485.31	18.459
485.66	17.502
486.01	16.046
486.36	15.598
486.70	15.666
487.05	16.171
487.40	16.879
487.75	17.442
488.09	17.379
488.44	17.612
488.79	18.517
489.13	19.022
489.48	18.638
489.83	18.386
490.17	19.246
490.52	19.043
490.87	18.951
491.22	18.645
491.56	19.089
491.91	19.497
492.26	18.925
492.60	19.078
492.95	18.569
493.30	19.626
493.64	19.459
493.99	19.081
494.34	19.473
494.68	19.414
495.03	19.408
495.37	18.613
495.72	19.737
496.07	19.350
496.41	18.142
496.76	19.349
497.11	19.496
497.45	19.748
497.80	19.530
498.14	18.599
498.49	19.122
498.84	19.895
499.18	18.524
499.53	18.993
499.87	19.525
500.22	19.595
500.56	19.854
500.91	18.846
501.26	19.535
501.60	19.649
501.95	19.386
502.29	20.056
502.64	18.808
502.98	19.822
503.33	19.059
503.67	19.118
504.02	19.645
504.36	19.701
504.71	20.127
505.06	19.807
505.40	19.835
505.75	18.997
506.09	19.728
506.44	19.931
506.78	19.776
507.13	18.980
507.47	20.303
507.82	20.365
508.16	20.314
508.51	20.497
508.85	19.762
509.19	20.510
509.54	20.561
509.88	19.990
510.23	20.463
510.57	20.537
510.92	20.818
511.26	20.812
511.61	20.695
511.95	20.407
512.30	20.573
512.64	20.742
512.98	20.364
513.33	20.824
513.67	20.438
514.02	19.697
514.36	21.409
514.70	20.808
515.05	20.580
515.39	20.527
515.74	20.327
516.08	20.961
516.42	20.921
516.77	21.405
517.11	20.810
517.46	21.501
517.80	21.429
518.14	21.193
518.49	21.762
518.83	21.364
519.17	21.478
519.52	21.505
519.86	21.164
520.20	21.850
520.55	22.322
520.89	22.141
521.23	21.351
521.58	21.789
521.92	22.413
522.26	22.331
522.61	22.741
522.95	22.038
523.29	23.128
523.64	22.134
523.98	22.736
524.32	21.713
524.66	22.610
525.01	21.814
525.35	22.119
525.69	22.291
526.04	22.118
526.38	22.575
526.72	22.454
527.06	22.285
527.41	21.968
527.75	23.280
528.09	22.800
528.43	23.072
528.78	22.803
529.12	22.909
529.46	22.841
529.80	22.896
530.15	22.430
530.49	22.769
530.83	23.354
531.17	23.042
531.51	23.411
531.86	22.774
532.20	23.272
532.54	24.023
532.88	22.914
533.22	21.799
533.57	22.716
533.91	21.975
534.25	23.390
534.59	22.087
534.93	21.951
535.27	22.209
535.62	22.772
535.96	23.227
536.30	22.695
536.64	23.052
536.98	23.490
537.32	23.041
537.66	23.400
538.01	23.502
538.35	23.142
538.69	23.676
539.03	22.677
539.37	21.981
539.71	21.452
540.05	23.203
540.39	23.123
540.73	22.186
541.07	22.907
541.42	23.353
541.76	23.097
542.10	23.803
542.44	23.046
542.78	22.991
543.12	22.137
543.46	23.607
543.80	22.772
544.14	22.786
544.48	22.730
544.82	23.028
545.16	23.487
545.50	22.943
545.84	22.513
546.18	22.559
546.52	23.125
546.86	23.024
547.20	24.208
547.54	23.514
547.88	22.832
548.22	22.354
548.56	22.390
548.90	21.703
549.24	22.761
549.58	23.124
549.92	23.352
550.26	24.361
550.60	23.029
550.94	24.648
551.28	22.165
551.62	23.436
551.96	23.649
552.30	23.003
552.64	23.191
552.98	23.864
553.32	22.589
553.66	23.858
554.00	23.473
554.34	22.981
554.68	24.034
555.02	23.272
555.36	23.243
555.69	23.207
556.03	22.544
556.37	23.124
556.71	22.510
557.05	23.880
557.39	24.283
557.73	23.712
558.07	23.785
558.41	22.793
558.75	24.247
559.08	24.832
559.42	23.432
559.76	23.676
560.10	22.769
560.44	23.131
560.78	23.420
561.12	23.087
561.45	23.403
561.79	22.413
562.13	23.139
562.47	23.156
562.81	23.361
563.15	22.475
563.48	23.541
563.82	22.831
564.16	22.106
564.50	22.201
564.84	22.250
565.17	21.815
565.51	23.067
565.85	22.462
566.19	22.041
566.52	23.116
566.86	22.182
567.20	22.052
567.54	22.260
567.88	21.890
568.21	21.693
568.55	21.082
568.89	20.720
569.23	20.766
569.56	19.960
569.90	19.585
570.24	19.376
570.57	19.075
570.91	18.617
571.25	18.839
571.59	18.498
571.92	18.116
572.26	18.429
572.60	19.039
572.93	18.381
573.27	18.456
573.61	18.174
573.95	18.114
574.28	18.090
574.62	18.100
574.96	17.443
575.29	17.410
575.63	17.276
575.97	17.912
576.30	17.631
576.64	17.968
576.98	17.331
577.31	17.144
577.65	17.394
577.98	17.149
578.32	16.958
578.66	17.107
578.99	17.370
579.33	17.502
579.67	17.563
580.00	17.454
580.34	17.561
580.67	17.490
581.01	17.945
581.35	17.427
581.68	17.203
582.02	16.652
582.35	16.673
582.69	16.904
583.02	17.179
583.36	17.132
583.70	17.208
584.03	18.025
584.37	18.314
584.70	17.868
585.04	17.833
585.37	17.404
585.71	17.693
586.04	17.661
586.38	18.260
586.72	18.476
587.05	17.740
587.39	17.520
587.72	17.599
588.06	18.036
588.39	18.244
588.73	17.512
589.06	18.791
589.40	18.687
589.73	18.796
590.07	19.110
590.40	18.634
590.73	19.204
591.07	20.147
591.40	19.528
591.74	20.433
592.07	19.503
592.41	19.099
592.74	18.876
593.08	18.221
593.41	18.538
593.75	17.989
594.08	18.605
594.41	18.735
594.75	18.928
595.08	19.220
595.42	19.299
595.75	19.053
596.09	18.776
596.42	19.725
596.75	19.291
597.09	20.173
597.42	18.465
597.75	19.319
598.09	19.609
598.42	19.330
598.76	19.335
599.09	18.700
599.42	18.523
599.76	18.448
600.09	18.725
600.42	18.517
600.76	18.571
601.09	18.215
601.42	19.026
601.76	18.824
602.09	18.933
602.42	19.068
602.76	19.669
603.09	19.197
603.42	18.938
603.76	19.550
604.09	18.767
604.42	19.364
604.76	19.739
605.09	19.528
605.42	19.838
605.75	19.495
606.09	18.666
606.42	18.799
606.75	19.701
607.09	18.836
607.42	19.084
607.75	18.819
608.08	18.845
608.42	19.543
608.75	19.297
609.08	19.334
609.41	19.562
609.75	19.867
610.08	20.358
610.41	18.482
610.74	19.016
611.07	19.812
611.41	20.020
611.74	19.910
612.07	20.549
612.40	19.622
612.73	19.737
613.07	20.636
613.40	19.905
613.73	19.455
614.06	19.516
614.39	20.084
614.72	20.895
615.06	20.431
615.39	19.639
615.72	20.245
616.05	20.202
616.38	20.567
616.71	21.021
617.05	20.495
617.38	20.385
617.71	20.060
618.04	20.673
618.37	20.993
618.70	21.842
619.03	22.368
619.36	21.656
619.69	22.113
620.03	22.390
620.36	21.725
620.69	21.644
621.02	22.345
621.35	22.005
621.68	21.885
622.01	21.827
622.34	22.920
622.67	23.042
623.00	21.790
623.33	21.301
623.66	22.588
623.99	21.944
624.32	22.254
624.65	21.963
624.99	20.892
625.32	21.506
625.65	22.014
625.98	23.213
626.31	23.017
626.64	24.082
626.97	23.275
627.30	22.444
627.63	23.626
627.96	24.138
628.29	24.409
628.62	24.154
628.95	26.415
629.28	24.818
629.61	23.740
629.94	23.810
630.26	24.690
630.59	25.071
630.92	24.138
631.25	24.383
631.58	25.025
631.91	25.761
632.24	25.000
632.57	26.443
632.90	26.535
633.23	25.280
633.56	26.441
633.89	25.368
