SpectraSuite Data File
++++++++++++++++++++++++++++++++++++
Date: Wed May 13 16:42:35 PDT 2015
User: schluterlab
Dark Spectrum Present: Yes
Reference Spectrum Present: Yes
Number of Sampled Component Spectra: 1
Spectrometers: USB2E3373
Integration Time (usec): 3000 (USB2E3373)
Spectra Averaged: 3 (USB2E3373)
Boxcar Smoothing: 0 (USB2E3373)
Correct for Electrical Dark: No (USB2E3373)
Strobe/Lamp Enabled: No (USB2E3373)
Correct for Detector Non-linearity: No (USB2E3373)
Correct for Stray Light: No (USB2E3373)
Number of Pixels in Processed Spectrum: 2048
>>>>>Begin Processed Spectral Data<<<<<
178.53	0.000
178.91	-1300.000
179.29	-1175.000
179.67	-244.444
180.04	-1275.000
180.42	2950.000
180.80	980.000
181.18	-1200.000
181.56	728.571
181.94	0.000
182.31	-728.571
182.69	2033.333
183.07	-550.000
183.45	-455.556
183.83	536.364
184.20	-440.000
184.58	2150.000
184.96	6100.000
185.34	-960.000
185.72	-637.500
186.09	-2700.000
186.47	2750.000
186.85	2650.000
187.23	3900.000
187.61	-1866.667
187.98	1550.000
188.36	563.636
188.74	418.182
189.12	-1100.000
189.49	500.000
189.87	-5100.000
190.25	-1225.000
190.63	400.000
191.00	446.154
191.38	916.667
191.76	-1300.000
192.14	1375.000
192.51	525.000
192.89	816.667
193.27	562.500
193.65	-1150.000
194.02	480.000
194.40	880.000
194.78	510.000
195.15	508.333
195.53	600.000
195.91	-2300.000
196.29	381.250
196.66	331.579
197.04	-290.000
197.42	0.000
197.79	610.000
198.17	-6400.000
198.55	742.857
198.92	700.000
199.30	860.000
199.68	0.000
200.05	338.889
200.43	785.714
200.81	4900.000
201.18	1600.000
201.56	-1833.333
201.94	677.778
202.31	511.111
202.69	441.667
203.07	500.000
203.44	0.000
203.82	1250.000
204.19	757.143
204.57	414.286
204.95	675.000
205.32	1266.667
205.70	500.000
206.08	464.286
206.45	2600.000
206.83	318.750
207.20	950.000
207.58	640.000
207.96	288.889
208.33	837.500
208.71	-1100.000
209.08	900.000
209.46	655.556
209.84	490.909
210.21	-1266.667
210.59	1425.000
210.96	-512.500
211.34	2550.000
211.71	630.000
212.09	800.000
212.46	0.000
212.84	1733.333
213.22	1375.000
213.59	-4900.000
213.97	1016.667
214.34	842.857
214.72	500.000
215.09	980.000
215.47	-1900.000
215.84	-2400.000
216.22	1733.333
216.59	400.000
216.97	1300.000
217.34	518.182
217.72	-783.333
218.09	0.000
218.47	-5300.000
218.84	611.111
219.22	757.143
219.59	1666.667
219.97	-714.286
220.34	1120.000
220.72	-2000.000
221.09	457.143
221.47	1400.000
221.84	-850.000
222.22	0.000
222.59	1375.000
222.97	-2600.000
223.34	1160.000
223.72	430.769
224.09	1120.000
224.46	2250.000
224.84	-5400.000
225.21	-1180.000
225.59	-5000.000
225.96	610.000
226.34	300.000
226.71	2050.000
227.08	712.500
227.46	590.000
227.83	-875.000
228.21	-2300.000
228.58	677.778
228.95	-2600.000
229.33	-2300.000
229.70	1666.667
230.08	857.143
230.45	-900.000
230.82	425.000
231.20	716.667
231.57	842.857
231.95	483.333
232.32	250.000
232.69	400.000
233.07	585.714
233.44	423.077
233.81	-1200.000
234.19	305.263
234.56	383.333
234.93	325.000
235.31	445.455
235.68	353.846
236.05	335.714
236.43	175.758
236.80	252.632
237.17	3600.000
237.55	214.286
237.92	225.000
238.29	219.048
238.67	135.484
239.04	162.069
239.41	127.778
239.79	110.870
240.16	135.714
240.53	127.273
240.91	82.353
241.28	88.000
241.65	88.000
242.02	81.159
242.40	69.355
242.77	80.000
243.14	68.817
243.51	59.551
243.89	63.529
244.26	53.333
244.63	51.613
245.00	51.064
245.38	44.554
245.75	52.336
246.12	40.367
246.49	46.715
246.87	50.400
247.24	42.308
247.61	48.571
247.98	32.680
248.36	31.081
248.73	28.025
249.10	35.669
249.47	32.203
249.84	34.759
250.22	27.273
250.59	33.728
250.96	29.798
251.33	27.014
251.70	21.782
252.08	23.810
252.45	27.803
252.82	22.609
253.19	26.383
253.56	27.059
253.94	26.556
254.31	23.047
254.68	24.231
255.05	23.616
255.42	19.919
255.79	19.485
256.16	25.271
256.54	20.141
256.91	20.996
257.28	17.266
257.65	22.442
258.02	20.807
258.39	15.457
258.76	18.060
259.14	18.155
259.51	20.669
259.88	16.460
260.25	19.335
260.62	15.029
260.99	16.460
261.36	19.520
261.73	19.198
262.10	14.535
262.47	16.338
262.85	15.599
263.22	14.530
263.59	17.379
263.96	16.209
264.33	13.838
264.70	13.158
265.07	16.113
265.44	15.909
265.81	12.895
266.18	13.065
266.55	15.366
266.92	15.233
267.29	14.815
267.66	14.450
268.03	12.727
268.40	14.019
268.77	11.933
269.14	10.360
269.51	14.673
269.88	12.121
270.25	13.770
270.62	13.933
270.99	17.849
271.36	11.159
271.73	12.617
272.10	12.391
272.47	12.903
272.84	14.719
273.21	14.885
273.58	12.664
273.95	12.159
274.32	11.364
274.69	14.133
275.06	12.795
275.43	13.830
275.80	15.030
276.17	11.202
276.54	10.811
276.91	12.451
277.28	12.109
277.65	12.573
278.02	13.665
278.39	12.305
278.76	12.000
279.13	15.283
279.50	11.173
279.87	10.757
280.23	12.375
280.60	11.605
280.97	9.427
281.34	13.274
281.71	13.091
282.08	11.132
282.45	12.000
282.82	12.433
283.19	9.804
283.56	12.456
283.92	11.675
284.29	9.171
284.66	9.256
285.03	9.403
285.40	12.852
285.77	10.943
286.14	9.499
286.51	12.000
286.87	12.308
287.24	13.192
287.61	12.039
287.98	10.714
288.35	10.777
288.72	10.280
289.08	11.424
289.45	9.555
289.82	11.220
290.19	8.791
290.56	9.954
290.93	9.215
291.29	11.810
291.66	10.914
292.03	12.936
292.40	10.720
292.77	8.136
293.13	11.791
293.50	10.641
293.87	11.111
294.24	10.370
294.60	8.734
294.97	10.465
295.34	12.412
295.71	10.511
296.08	9.544
296.44	11.417
296.81	11.096
297.18	11.653
297.55	9.367
297.91	10.158
298.28	12.048
298.65	10.836
299.02	11.199
299.38	9.562
299.75	10.108
300.12	10.473
300.48	10.875
300.85	11.221
301.22	10.573
301.59	10.732
301.95	11.587
302.32	9.756
302.69	11.470
303.05	8.970
303.42	11.358
303.79	10.419
304.15	9.441
304.52	11.356
304.89	11.614
305.25	12.413
305.62	12.571
305.99	11.688
306.35	10.067
306.72	10.090
307.09	10.877
307.45	12.050
307.82	9.821
308.19	11.700
308.55	12.190
308.92	10.741
309.29	11.088
309.65	11.135
310.02	10.677
310.38	12.043
310.75	12.355
311.12	12.794
311.48	12.539
311.85	12.683
312.22	12.383
312.58	11.642
312.95	12.566
313.31	12.039
313.68	13.410
314.05	13.609
314.41	12.563
314.78	12.790
315.14	13.704
315.51	13.594
315.87	13.168
316.24	13.505
316.61	13.255
316.97	12.720
317.34	12.524
317.70	14.627
318.07	13.474
318.43	15.362
318.80	14.995
319.16	15.631
319.53	14.728
319.89	16.190
320.26	16.400
320.62	15.575
320.99	15.859
321.35	15.960
321.72	16.735
322.08	18.657
322.45	17.811
322.81	18.023
323.18	18.690
323.54	18.089
323.91	18.962
324.27	18.929
324.64	19.199
325.00	20.198
325.37	19.654
325.73	21.095
326.10	21.977
326.46	21.147
326.83	21.829
327.19	22.203
327.56	22.822
327.92	22.310
328.29	24.046
328.65	24.862
329.01	23.105
329.38	24.699
329.74	23.269
330.11	24.317
330.47	24.610
330.84	24.173
331.20	23.588
331.56	26.055
331.93	24.722
332.29	24.756
332.66	26.018
333.02	25.046
333.38	25.655
333.75	26.292
334.11	25.356
334.48	25.377
334.84	24.816
335.20	24.091
335.57	25.204
335.93	24.732
336.29	24.817
336.66	25.248
337.02	25.339
337.38	25.278
337.75	25.312
338.11	25.246
338.47	26.611
338.84	25.940
339.20	26.055
339.56	26.095
339.93	24.818
340.29	25.725
340.65	24.421
341.02	26.789
341.38	26.423
341.74	24.912
342.11	25.939
342.47	25.727
342.83	25.086
343.20	25.714
343.56	24.768
343.92	24.737
344.28	25.425
344.65	26.655
345.01	23.401
345.37	24.786
345.73	25.296
346.10	24.638
346.46	26.186
346.82	25.371
347.19	24.144
347.55	24.302
347.91	24.272
348.27	25.637
348.63	25.251
349.00	23.948
349.36	26.108
349.72	26.544
350.08	24.311
350.45	24.980
350.81	23.396
351.17	24.878
351.53	23.751
351.89	25.165
352.26	25.335
352.62	25.501
352.98	24.068
353.34	25.965
353.70	24.959
354.07	25.806
354.43	25.238
354.79	25.261
355.15	24.900
355.51	25.420
355.87	25.224
356.24	25.000
356.60	25.902
356.96	25.503
357.32	25.920
357.68	24.646
358.04	25.099
358.40	23.990
358.77	24.804
359.13	25.178
359.49	25.961
359.85	24.127
360.21	24.402
360.57	25.992
360.93	25.000
361.29	26.002
361.66	25.542
362.02	25.522
362.38	24.259
362.74	25.223
363.10	24.944
363.46	25.092
363.82	25.019
364.18	25.991
364.54	26.820
364.90	26.204
365.26	25.515
365.62	26.150
365.98	24.105
366.35	25.000
366.71	25.452
367.07	25.055
367.43	24.891
367.79	26.053
368.15	26.580
368.51	26.017
368.87	25.767
369.23	26.042
369.59	26.865
369.95	26.029
370.31	25.855
370.67	26.087
371.03	25.768
371.39	26.531
371.75	26.250
372.11	25.747
372.47	26.466
372.83	26.729
373.19	26.012
373.55	26.386
373.91	27.909
374.27	26.186
374.63	26.182
374.99	26.695
375.35	26.448
375.71	26.251
376.07	26.680
376.42	26.891
376.78	27.568
377.14	26.526
377.50	26.887
377.86	26.729
378.22	27.876
378.58	24.875
378.94	25.896
379.30	26.845
379.66	27.728
380.02	27.150
380.38	26.169
380.74	27.791
381.09	27.445
381.45	27.658
381.81	27.150
382.17	27.580
382.53	27.547
382.89	27.593
383.25	26.954
383.61	27.695
383.97	27.517
384.32	26.949
384.68	26.518
385.04	28.027
385.40	28.235
385.76	28.010
386.12	28.627
386.48	28.697
386.83	27.903
387.19	28.262
387.55	27.396
387.91	27.630
388.27	27.468
388.62	28.089
388.98	26.474
389.34	27.972
389.70	27.774
390.06	28.010
390.42	27.432
390.77	28.690
391.13	28.590
391.49	29.188
391.85	27.944
392.20	28.013
392.56	27.904
392.92	28.193
393.28	27.041
393.64	28.477
393.99	28.100
394.35	27.667
394.71	28.419
395.07	27.477
395.42	28.121
395.78	28.053
396.14	27.933
396.50	29.010
396.85	29.116
397.21	27.374
397.57	28.084
397.92	28.065
398.28	27.410
398.64	28.136
399.00	27.364
399.35	27.468
399.71	27.431
400.07	27.085
400.42	27.914
400.78	28.106
401.14	27.012
401.49	27.164
401.85	26.921
402.21	26.886
402.57	26.712
402.92	28.058
403.28	26.796
403.63	26.918
403.99	27.261
404.35	26.424
404.70	26.679
405.06	26.383
405.42	27.573
405.77	26.286
406.13	26.637
406.49	27.203
406.84	26.285
407.20	26.005
407.55	27.058
407.91	27.867
408.27	26.803
408.62	26.911
408.98	25.613
409.34	26.753
409.69	27.613
410.05	26.208
410.40	27.278
410.76	26.583
411.11	25.875
411.47	25.431
411.83	26.634
412.18	25.665
412.54	26.463
412.89	26.205
413.25	25.915
413.60	26.498
413.96	26.108
414.31	26.671
414.67	25.856
415.03	26.556
415.38	26.224
415.74	27.203
416.09	26.192
416.45	26.707
416.80	26.041
417.16	28.552
417.51	26.808
417.87	25.947
418.22	26.246
418.58	26.856
418.93	26.966
419.29	26.353
419.64	27.015
420.00	25.854
420.35	26.551
420.71	26.479
421.06	25.895
421.42	26.901
421.77	26.626
422.12	25.884
422.48	25.256
422.83	26.849
423.19	26.354
423.54	25.595
423.90	27.014
424.25	26.354
424.61	26.607
424.96	26.764
425.31	26.412
425.67	26.011
426.02	25.886
426.38	26.679
426.73	26.916
427.09	26.383
427.44	26.912
427.79	26.970
428.15	27.083
428.50	27.384
428.85	27.354
429.21	27.002
429.56	26.231
429.92	26.472
430.27	26.812
430.62	26.677
430.98	26.207
431.33	26.186
431.68	26.859
432.04	26.251
432.39	27.698
432.74	26.870
433.10	26.372
433.45	27.464
433.80	26.220
434.16	26.870
434.51	25.158
434.86	27.195
435.22	26.681
435.57	26.444
435.92	27.092
436.28	27.758
436.63	27.870
436.98	26.903
437.34	27.549
437.69	27.538
438.04	27.431
438.39	27.403
438.75	27.891
439.10	27.263
439.45	27.863
439.81	26.949
440.16	27.273
440.51	26.655
440.86	27.446
441.22	27.308
441.57	27.123
441.92	27.124
442.27	26.911
442.63	26.646
442.98	28.000
443.33	27.065
443.68	27.001
444.03	26.745
444.39	26.193
444.74	26.461
445.09	27.170
445.44	26.572
445.79	26.571
446.15	27.369
446.50	26.656
446.85	27.544
447.20	27.282
447.55	27.917
447.91	26.420
448.26	27.769
448.61	27.473
448.96	28.018
449.31	27.390
449.66	26.674
450.02	25.515
450.37	26.531
450.72	27.073
451.07	26.630
451.42	26.383
451.77	27.363
452.12	26.732
452.47	27.177
452.83	27.273
453.18	27.078
453.53	27.953
453.88	26.934
454.23	26.360
454.58	27.135
454.93	28.290
455.28	26.870
455.63	27.488
455.98	28.452
456.34	27.450
456.69	27.614
457.04	27.864
457.39	26.593
457.74	27.684
458.09	27.545
458.44	27.366
458.79	26.952
459.14	27.088
459.49	26.912
459.84	26.981
460.19	26.694
460.54	25.926
460.89	27.537
461.24	27.565
461.59	27.716
461.94	26.942
462.29	28.190
462.64	26.994
462.99	26.480
463.34	27.800
463.69	27.079
464.04	26.841
464.39	26.841
464.74	27.451
465.09	26.779
465.44	25.152
465.79	26.119
466.14	25.780
466.49	26.418
466.84	26.445
467.19	26.614
467.54	26.500
467.89	25.630
468.24	26.876
468.59	27.167
468.94	26.023
469.29	26.478
469.64	27.041
469.99	26.793
470.34	27.213
470.68	27.514
471.03	27.143
471.38	27.380
471.73	26.649
472.08	27.500
472.43	27.198
472.78	26.531
473.13	27.022
473.48	26.030
473.83	26.280
474.17	25.327
474.52	26.923
474.87	27.087
475.22	26.117
475.57	25.470
475.92	26.022
476.27	26.325
476.61	26.034
476.96	26.223
477.31	25.798
477.66	25.492
478.01	25.457
478.36	25.806
478.70	25.337
479.05	25.186
479.40	25.589
479.75	25.419
480.10	25.298
480.45	24.703
480.79	24.654
481.14	25.245
481.49	25.724
481.84	25.011
482.19	24.943
482.53	25.000
482.88	24.802
483.23	25.654
483.58	25.614
483.92	25.117
484.27	24.401
484.62	25.172
484.97	24.123
485.31	24.932
485.66	23.648
486.01	22.808
486.36	21.898
486.70	21.303
487.05	21.922
487.40	22.804
487.75	23.768
488.09	23.901
488.44	23.549
488.79	24.376
489.13	24.561
489.48	24.633
489.83	24.903
490.17	24.814
490.52	24.269
490.87	24.649
491.22	24.011
491.56	24.191
491.91	23.546
492.26	23.702
492.60	24.009
492.95	23.527
493.30	24.439
493.64	23.938
493.99	23.909
494.34	24.329
494.68	25.229
495.03	25.047
495.37	24.616
495.72	23.977
496.07	24.362
496.41	23.363
496.76	23.967
497.11	23.368
497.45	24.313
497.80	23.848
498.14	24.155
498.49	23.610
498.84	23.730
499.18	24.619
499.53	23.884
499.87	24.138
500.22	23.928
500.56	24.126
500.91	23.462
501.26	23.945
501.60	24.252
501.95	23.281
502.29	23.664
502.64	23.883
502.98	22.908
503.33	22.943
503.67	23.527
504.02	23.901
504.36	23.538
504.71	23.498
505.06	23.904
505.40	23.724
505.75	23.433
506.09	23.810
506.44	24.075
506.78	23.965
507.13	23.725
507.47	24.242
507.82	24.924
508.16	22.999
508.51	23.846
508.85	23.932
509.19	24.031
509.54	23.878
509.88	23.957
510.23	23.342
510.57	24.923
510.92	23.459
511.26	22.867
511.61	24.118
511.95	23.695
512.30	23.648
512.64	23.321
512.98	24.009
513.33	24.411
513.67	23.693
514.02	22.565
514.36	24.358
514.70	23.741
515.05	24.317
515.39	23.388
515.74	24.155
516.08	23.421
516.42	24.417
516.77	23.802
517.11	23.363
517.46	24.718
517.80	24.797
518.14	24.030
518.49	23.979
518.83	24.375
519.17	23.614
519.52	23.430
519.86	24.073
520.20	23.410
520.55	24.596
520.89	24.331
521.23	24.367
521.58	24.010
521.92	24.617
522.26	22.697
522.61	23.801
522.95	23.450
523.29	23.615
523.64	23.476
523.98	24.399
524.32	24.065
524.66	23.933
525.01	23.591
525.35	24.040
525.69	24.507
526.04	23.738
526.38	24.222
526.72	23.129
527.06	23.792
527.41	22.710
527.75	24.051
528.09	22.929
528.43	23.263
528.78	23.110
529.12	23.455
529.46	23.576
529.80	22.587
530.15	24.299
530.49	22.277
530.83	24.051
531.17	24.151
531.51	24.643
531.86	23.871
532.20	24.055
532.54	23.447
532.88	23.299
533.22	23.111
533.57	22.593
533.91	22.577
534.25	22.843
534.59	22.636
534.93	23.081
535.27	22.692
535.62	23.077
535.96	22.536
536.30	22.823
536.64	23.245
536.98	23.490
537.32	22.910
537.66	22.733
538.01	24.161
538.35	23.012
538.69	23.038
539.03	22.352
539.37	21.853
539.71	21.452
540.05	23.399
540.39	22.658
540.73	22.962
541.07	23.686
541.42	22.701
541.76	23.226
542.10	23.092
542.44	22.914
542.78	23.584
543.12	22.265
543.46	22.754
543.80	22.967
544.14	21.951
544.48	23.302
544.82	22.130
545.16	22.121
545.50	22.622
545.84	23.185
546.18	22.896
546.52	22.918
546.86	22.268
547.20	23.129
547.54	21.443
547.88	23.151
548.22	21.918
548.56	22.767
548.90	22.279
549.24	22.222
549.58	22.783
549.92	22.527
550.26	23.153
550.60	21.577
550.94	22.817
551.28	21.800
551.62	21.927
551.96	22.316
552.30	22.867
552.64	21.907
552.98	23.729
553.32	22.320
553.66	23.040
554.00	23.404
554.34	21.118
554.68	23.605
555.02	21.932
555.36	21.990
555.69	21.448
556.03	21.669
556.37	22.306
556.71	20.737
557.05	22.899
557.39	22.463
557.73	22.442
558.07	21.972
558.41	22.431
558.75	22.851
559.08	22.297
559.42	22.373
559.76	22.721
560.10	21.984
560.44	22.292
560.78	21.025
561.12	21.174
561.45	21.773
561.79	21.226
562.13	20.858
562.47	22.131
562.81	21.757
563.15	21.338
563.48	21.353
563.82	22.179
564.16	21.844
564.50	21.354
564.84	21.429
565.17	21.107
565.51	21.853
565.85	20.812
566.19	20.789
566.52	21.279
566.86	20.675
567.20	21.050
567.54	20.091
567.88	19.880
568.21	20.423
568.55	20.576
568.89	20.088
569.23	20.143
569.56	19.271
569.90	18.906
570.24	19.160
570.57	18.429
570.91	18.487
571.25	18.067
571.59	17.997
571.92	17.742
572.26	17.735
572.60	18.468
572.93	17.931
573.27	18.042
573.61	17.672
573.95	18.450
574.28	17.513
574.62	17.468
574.96	17.252
575.29	17.410
575.63	17.429
575.97	17.443
576.30	17.446
576.64	17.690
576.98	17.671
577.31	17.745
577.65	17.242
577.98	16.667
578.32	16.759
578.66	16.876
578.99	17.302
579.33	17.066
579.67	17.173
580.00	17.142
580.34	17.774
580.67	17.348
581.01	17.383
581.35	16.997
581.68	16.831
582.02	16.512
582.35	16.691
582.69	16.847
583.02	17.033
583.36	16.809
583.70	17.782
584.03	17.790
584.37	17.971
584.70	17.581
585.04	17.490
585.37	17.544
585.71	17.105
586.04	17.251
586.38	17.633
586.72	17.868
587.05	17.332
587.39	17.546
587.72	17.495
588.06	17.369
588.39	17.750
588.73	17.688
589.06	18.261
589.40	18.418
589.73	18.198
590.07	18.541
590.40	18.085
590.73	18.306
591.07	18.966
591.40	18.558
591.74	19.048
592.07	19.154
592.41	19.140
592.74	17.978
593.08	18.155
593.41	17.811
593.75	17.239
594.08	17.533
594.41	17.886
594.75	17.708
595.08	18.325
595.42	17.653
595.75	17.699
596.09	18.513
596.42	18.664
596.75	18.320
597.09	18.571
597.42	18.339
597.75	18.542
598.09	18.000
598.42	18.643
598.76	17.714
599.09	17.864
599.42	17.249
599.76	17.679
600.09	17.450
600.42	17.312
600.76	17.286
601.09	17.887
601.42	17.846
601.76	18.027
602.09	18.300
602.42	18.033
602.76	18.904
603.09	17.742
603.42	18.665
603.76	17.683
604.09	17.720
604.42	17.733
604.76	18.979
605.09	17.999
605.42	18.213
605.75	18.253
606.09	17.405
606.42	17.777
606.75	18.084
607.09	18.460
607.42	18.228
607.75	17.890
608.08	17.803
608.42	18.512
608.75	18.530
609.08	18.039
609.41	18.134
609.75	17.961
610.08	18.520
610.41	17.365
610.74	18.590
611.07	19.219
611.41	18.695
611.74	19.105
612.07	18.944
612.40	19.150
612.73	19.263
613.07	19.181
613.40	18.799
613.73	17.829
614.06	19.140
614.39	17.986
614.72	18.632
615.06	19.958
615.39	18.737
615.72	17.638
616.05	17.703
616.38	19.344
616.71	19.181
617.05	19.847
617.38	19.483
617.71	19.039
618.04	19.712
618.37	19.101
618.70	18.855
619.03	19.868
619.36	19.620
619.69	19.507
620.03	19.849
620.36	20.187
620.69	20.274
621.02	20.206
621.35	19.812
621.68	20.093
622.01	19.969
622.34	20.197
622.67	20.076
623.00	20.103
623.33	20.372
623.66	19.657
623.99	20.692
624.32	18.973
624.65	19.845
624.99	19.263
625.32	19.841
625.65	19.008
625.98	20.907
626.31	20.218
626.64	21.061
626.97	20.698
627.30	19.701
627.63	21.083
627.96	20.185
628.29	20.472
628.62	21.958
628.95	22.358
629.28	20.529
629.61	21.998
629.94	21.810
630.26	21.163
630.59	21.163
630.92	20.690
631.25	21.027
