SpectraSuite Data File
++++++++++++++++++++++++++++++++++++
Date: Wed May 13 16:11:34 PDT 2015
User: schluterlab
Dark Spectrum Present: Yes
Reference Spectrum Present: Yes
Number of Sampled Component Spectra: 1
Spectrometers: USB2E3373
Integration Time (usec): 3000 (USB2E3373)
Spectra Averaged: 3 (USB2E3373)
Boxcar Smoothing: 0 (USB2E3373)
Correct for Electrical Dark: No (USB2E3373)
Strobe/Lamp Enabled: No (USB2E3373)
Correct for Detector Non-linearity: No (USB2E3373)
Correct for Stray Light: No (USB2E3373)
Number of Pixels in Processed Spectrum: 2048
>>>>>Begin Processed Spectral Data<<<<<
178.53	0.000
178.91	-900.000
179.29	-1075.000
179.67	-127.778
180.04	-800.000
180.42	2250.000
180.80	820.000
181.18	-725.000
181.56	614.286
181.94	0.000
182.31	-542.857
182.69	1366.667
183.07	-200.000
183.45	-266.667
183.83	436.364
184.20	-280.000
184.58	1900.000
184.96	4300.000
185.34	-620.000
185.72	-450.000
186.09	-1550.000
186.47	1850.000
186.85	1300.000
187.23	3800.000
187.61	-1133.333
187.98	1025.000
188.36	427.273
188.74	354.545
189.12	-840.000
189.49	440.000
189.87	-3800.000
190.25	-675.000
190.63	250.000
191.00	376.923
191.38	566.667
191.76	-825.000
192.14	1000.000
192.51	487.500
192.89	600.000
193.27	425.000
193.65	-825.000
194.02	360.000
194.40	660.000
194.78	490.000
195.15	341.667
195.53	440.000
195.91	-1500.000
196.29	237.500
196.66	273.684
197.04	-210.000
197.42	0.000
197.79	370.000
198.17	-3600.000
198.55	500.000
198.92	537.500
199.30	820.000
199.68	0.000
200.05	288.889
200.43	542.857
200.81	2500.000
201.18	1300.000
201.56	-1100.000
201.94	466.667
202.31	466.667
202.69	366.667
203.07	430.000
203.44	0.000
203.82	975.000
204.19	642.857
204.57	357.143
204.95	462.500
205.32	1266.667
205.70	390.909
206.08	271.429
206.45	2400.000
206.83	237.500
207.20	766.667
207.58	600.000
207.96	255.556
208.33	475.000
208.71	-433.333
209.08	585.714
209.46	455.556
209.84	336.364
210.21	-766.667
210.59	1025.000
210.96	-312.500
211.34	1950.000
211.71	370.000
212.09	533.333
212.46	0.000
212.84	1300.000
213.22	1000.000
213.59	-4700.000
213.97	683.333
214.34	485.714
214.72	463.636
215.09	860.000
215.47	-1650.000
215.84	-1600.000
216.22	1100.000
216.59	321.429
216.97	1025.000
217.34	400.000
217.72	-516.667
218.09	0.000
218.47	-3200.000
218.84	600.000
219.22	528.571
219.59	1233.333
219.97	-400.000
220.34	800.000
220.72	-1466.667
221.09	342.857
221.47	1200.000
221.84	-583.333
222.22	0.000
222.59	975.000
222.97	-1750.000
223.34	740.000
223.72	346.154
224.09	760.000
224.46	1850.000
224.84	-3400.000
225.21	-780.000
225.59	-3500.000
225.96	390.000
226.34	240.000
226.71	2350.000
227.08	562.500
227.46	410.000
227.83	-825.000
228.21	-1800.000
228.58	566.667
228.95	-1400.000
229.33	-1700.000
229.70	1100.000
230.08	557.143
230.45	-480.000
230.82	358.333
231.20	633.333
231.57	600.000
231.95	350.000
232.32	213.636
232.69	363.636
233.07	514.286
233.44	223.077
233.81	-1500.000
234.19	231.579
234.56	250.000
234.93	300.000
235.31	272.727
235.68	284.615
236.05	300.000
236.43	139.394
236.80	194.737
237.17	2500.000
237.55	209.524
237.92	157.143
238.29	147.619
238.67	129.032
239.04	158.621
239.41	102.778
239.79	93.478
240.16	97.619
240.53	111.364
240.91	64.706
241.28	68.000
241.65	70.000
242.02	81.159
242.40	51.613
242.77	66.667
243.14	43.011
243.51	55.056
243.89	60.000
244.26	48.889
244.63	49.462
245.00	40.426
245.38	38.614
245.75	43.925
246.12	37.615
246.49	45.985
246.87	48.000
247.24	39.231
247.61	45.000
247.98	36.601
248.36	31.757
248.73	40.127
249.10	33.758
249.47	31.638
249.84	34.759
250.22	26.738
250.59	30.769
250.96	28.283
251.33	32.227
251.70	34.158
252.08	30.476
252.45	26.906
252.82	25.217
253.19	26.809
253.56	26.275
253.94	29.461
254.31	27.344
254.68	30.385
255.05	27.306
255.42	26.016
255.79	25.000
256.16	25.271
256.54	20.141
256.91	21.352
257.28	20.144
257.65	20.132
258.02	23.292
258.39	23.659
258.76	21.739
259.14	22.917
259.51	20.669
259.88	22.360
260.25	21.148
260.62	21.387
260.99	21.118
261.36	23.724
261.73	24.355
262.10	20.640
262.47	23.944
262.85	19.777
263.22	19.373
263.59	25.641
263.96	21.154
264.33	19.843
264.70	22.368
265.07	23.274
265.44	19.192
265.81	20.195
266.18	19.095
266.55	19.268
266.92	19.410
267.29	18.519
267.66	20.183
268.03	18.409
268.40	19.626
268.77	21.002
269.14	18.468
269.51	19.413
269.88	18.182
270.25	20.316
270.62	18.427
270.99	19.355
271.36	20.172
271.73	14.720
272.10	18.043
272.47	18.925
272.84	19.048
273.21	21.803
273.58	16.812
273.95	18.868
274.32	17.149
274.69	19.058
275.06	17.323
275.43	18.936
275.80	17.836
276.17	17.312
276.54	19.751
276.91	18.182
277.28	18.164
277.65	18.182
278.02	18.427
278.39	19.141
278.76	16.000
279.13	19.057
279.50	18.808
279.87	17.928
280.23	17.365
280.60	15.667
280.97	17.560
281.34	19.115
281.71	17.818
282.08	17.658
282.45	16.545
282.82	16.874
283.19	16.934
283.56	16.140
283.92	18.274
284.29	17.284
284.66	16.697
285.03	16.094
285.40	14.613
285.77	16.835
286.14	16.062
286.51	17.000
286.87	17.436
287.24	15.798
287.61	16.854
287.98	17.208
288.35	15.848
288.72	16.199
289.08	16.275
289.45	16.969
289.82	15.772
290.19	15.228
290.56	15.926
290.93	15.408
291.29	15.184
291.66	17.109
292.03	16.570
292.40	16.887
292.77	16.420
293.13	14.925
293.50	14.577
293.87	16.148
294.24	15.556
294.60	13.392
294.97	15.116
295.34	15.374
295.71	16.619
296.08	14.103
296.44	14.030
296.81	14.003
297.18	17.344
297.55	12.929
297.91	14.380
298.28	16.332
298.65	16.319
299.02	17.787
299.38	13.280
299.75	11.321
300.12	14.687
300.48	14.250
300.85	13.564
301.22	14.904
301.59	14.520
301.95	13.350
302.32	14.377
302.69	14.576
303.05	13.576
303.42	16.049
303.79	14.723
304.15	13.520
304.52	12.514
304.89	13.124
305.25	15.545
305.62	14.609
305.99	15.112
306.35	14.653
306.72	14.686
307.09	15.760
307.45	16.667
307.82	14.062
308.19	14.901
308.55	14.024
308.92	13.104
309.29	13.094
309.65	13.574
310.02	14.376
310.38	13.011
310.75	14.572
311.12	13.818
311.48	13.375
311.85	14.465
312.22	14.776
312.58	14.449
312.95	15.628
313.31	14.466
313.68	14.345
314.05	16.174
314.41	15.879
314.78	15.307
315.14	15.789
315.51	15.242
315.87	15.644
316.24	14.796
316.61	14.620
316.97	15.264
317.34	14.579
317.70	15.488
318.07	14.533
318.43	16.145
318.80	16.776
319.16	15.160
319.53	15.009
319.89	16.095
320.26	16.000
320.62	14.881
320.99	15.253
321.35	15.455
321.72	15.503
322.08	16.190
322.45	16.517
322.81	16.667
323.18	17.148
323.54	16.790
323.91	16.604
324.27	15.774
324.64	16.403
325.00	16.050
325.37	16.833
325.73	18.133
326.10	16.946
326.46	16.308
326.83	17.256
327.19	17.592
327.56	17.422
327.92	17.760
328.29	16.770
328.65	17.311
329.01	16.606
329.38	17.391
329.74	17.729
330.11	17.531
330.47	17.172
330.84	17.463
331.20	17.304
331.56	17.523
331.93	17.315
332.29	17.746
332.66	17.699
333.02	17.642
333.38	17.525
333.75	18.360
334.11	17.972
334.48	17.214
334.84	17.463
335.20	17.545
335.57	17.770
335.93	18.036
336.29	17.674
336.66	17.944
337.02	16.290
337.38	17.870
337.75	16.310
338.11	17.726
338.47	16.943
338.84	17.874
339.20	17.431
339.56	17.701
339.93	16.909
340.29	17.572
340.65	17.201
341.02	17.539
341.38	17.883
341.74	16.140
342.11	17.205
342.47	17.269
342.83	17.380
343.20	18.095
343.56	17.186
343.92	17.982
344.28	17.347
344.65	17.627
345.01	17.088
345.37	17.410
345.73	17.259
346.10	16.709
346.46	16.780
346.82	16.804
347.19	17.293
347.55	16.502
347.91	17.557
348.27	19.885
348.63	17.057
349.00	17.557
349.36	16.502
349.72	17.001
350.08	16.937
350.45	17.575
350.81	17.303
351.17	18.233
351.53	17.445
351.89	16.502
352.26	17.601
352.62	17.562
352.98	16.451
353.34	17.338
353.70	15.548
354.07	17.177
354.43	17.540
354.79	17.699
355.15	17.159
355.51	17.666
355.87	17.959
356.24	16.775
356.60	17.723
356.96	17.699
357.32	18.234
357.68	17.165
358.04	17.340
358.40	17.260
358.77	17.214
359.13	17.364
359.49	17.647
359.85	16.825
360.21	17.703
360.57	18.599
360.93	17.923
361.29	17.536
361.66	17.570
362.02	16.940
362.38	17.871
362.74	18.229
363.10	17.172
363.46	17.902
363.82	17.611
364.18	18.209
364.54	17.831
364.90	18.484
365.26	18.603
365.62	17.239
365.98	18.262
366.35	17.837
366.71	17.570
367.07	17.626
367.43	19.376
367.79	18.844
368.15	19.540
368.51	17.951
368.87	18.344
369.23	18.069
369.59	18.465
369.95	18.971
370.31	18.091
370.67	17.971
371.03	19.625
371.39	17.930
371.75	18.456
372.11	18.492
372.47	18.475
372.83	19.524
373.19	19.147
373.55	18.847
373.91	19.735
374.27	18.969
374.63	19.273
374.99	19.280
375.35	18.981
375.71	18.986
376.07	20.302
376.42	20.358
376.78	20.013
377.14	19.742
377.50	19.603
377.86	19.415
378.22	20.860
378.58	19.298
378.94	20.490
379.30	19.656
379.66	20.812
380.02	21.007
380.38	19.551
380.74	21.128
381.09	20.293
381.45	21.758
381.81	20.946
382.17	20.318
382.53	20.755
382.89	20.432
383.25	20.700
383.61	21.004
383.97	21.889
384.32	22.084
384.68	21.128
385.04	20.529
385.40	21.672
385.76	21.069
386.12	21.762
386.48	22.907
386.83	22.450
387.19	22.016
387.55	22.078
387.91	21.886
388.27	22.195
388.62	22.741
388.98	22.482
389.34	22.466
389.70	22.195
390.06	22.370
390.42	22.698
390.77	23.346
391.13	22.782
391.49	22.779
391.85	21.961
392.20	21.451
392.56	22.854
392.92	22.719
393.28	21.361
393.64	22.662
393.99	23.580
394.35	21.960
394.71	22.459
395.07	22.555
395.42	23.300
395.78	23.092
396.14	22.905
396.50	22.744
396.85	23.204
397.21	23.305
397.57	23.559
397.92	23.317
398.28	21.917
398.64	22.820
399.00	23.223
399.35	22.955
399.71	23.148
400.07	23.063
400.42	22.822
400.78	23.703
401.14	23.293
401.49	22.925
401.85	21.960
402.21	22.275
402.57	23.134
402.92	24.023
403.28	23.860
403.63	23.020
403.99	22.866
404.35	23.152
404.70	22.962
405.06	23.005
405.42	22.832
405.77	22.743
406.13	22.178
406.49	23.536
406.84	23.213
407.20	22.281
407.55	23.101
407.91	23.000
408.27	22.974
408.62	22.577
408.98	23.223
409.34	22.632
409.69	22.968
410.05	23.482
410.40	23.670
410.76	21.864
411.11	23.221
411.47	23.003
411.83	23.702
412.18	22.387
412.54	23.101
412.89	23.012
413.25	23.140
413.60	22.730
413.96	23.012
414.31	22.053
414.67	22.433
415.03	22.980
415.38	23.067
415.74	23.666
416.09	23.383
416.45	23.427
416.80	23.529
417.16	23.592
417.51	23.756
417.87	22.864
418.22	22.776
418.58	23.370
418.93	22.973
419.29	22.788
419.64	22.859
420.00	23.049
420.35	23.420
420.71	23.192
421.06	22.255
421.42	23.333
421.77	23.038
422.12	21.673
422.48	22.234
422.83	22.539
423.19	22.928
423.54	22.867
423.90	23.014
424.25	21.999
424.61	23.214
424.96	21.633
425.31	22.813
425.67	22.360
426.02	22.400
426.38	23.138
426.73	21.826
427.09	22.249
427.44	22.254
427.79	22.542
428.15	23.512
428.50	22.235
428.85	23.242
429.21	22.308
429.56	22.758
429.92	22.094
430.27	22.443
430.62	21.864
430.98	22.314
431.33	21.856
431.68	22.356
432.04	22.471
432.39	22.901
432.74	22.741
433.10	22.411
433.45	23.149
433.80	21.951
434.16	22.596
434.51	22.737
434.86	23.375
435.22	23.235
435.57	23.526
435.92	22.060
436.28	22.894
436.63	22.848
436.98	22.095
437.34	22.958
437.69	24.562
438.04	22.990
438.39	23.463
438.75	23.475
439.10	21.676
439.45	23.731
439.81	22.779
440.16	22.586
440.51	23.902
440.86	24.030
441.22	22.358
441.57	23.567
441.92	23.183
442.27	23.036
442.63	22.643
442.98	22.930
443.33	23.261
443.68	22.767
444.03	22.792
444.39	21.665
444.74	22.078
445.09	23.235
445.44	22.471
445.79	22.860
446.15	23.187
446.50	23.048
446.85	22.765
447.20	22.642
447.55	23.786
447.91	22.945
448.26	23.595
448.61	22.555
448.96	23.422
449.31	22.835
449.66	23.241
450.02	22.006
450.37	23.299
450.72	22.955
451.07	22.669
451.42	22.553
451.77	23.488
452.12	22.171
452.47	22.761
452.83	23.077
453.18	22.922
453.53	23.377
453.88	23.509
454.23	23.491
454.58	23.985
454.93	24.730
455.28	23.878
455.63	23.362
455.98	23.988
456.34	23.492
456.69	23.168
457.04	24.087
457.39	22.852
457.74	22.403
458.09	23.519
458.44	23.204
458.79	22.289
459.14	23.251
459.49	23.117
459.84	23.213
460.19	22.628
460.54	22.569
460.89	23.094
461.24	23.254
461.59	23.940
461.94	23.305
462.29	22.967
462.64	22.910
462.99	23.617
463.34	23.867
463.69	23.014
464.04	23.768
464.39	23.014
464.74	22.698
465.09	22.919
465.44	22.604
465.79	22.987
466.14	23.262
466.49	22.970
466.84	23.409
467.19	23.476
467.54	24.500
467.89	22.509
468.24	23.095
468.59	23.626
468.94	22.724
469.29	24.357
469.64	24.096
469.99	23.951
470.34	23.844
470.68	24.641
471.03	23.197
471.38	24.809
471.73	24.317
472.08	25.921
472.43	24.183
472.78	23.502
473.13	24.005
473.48	24.345
473.83	23.293
474.17	23.335
474.52	25.000
474.87	23.935
475.22	24.376
475.57	23.966
475.92	23.579
476.27	23.901
476.61	23.056
476.96	23.804
477.31	23.862
477.66	23.195
478.01	23.210
478.36	25.383
478.70	24.247
479.05	23.429
479.40	24.463
479.75	23.538
480.10	23.608
480.45	23.798
480.79	23.698
481.14	23.532
481.49	23.636
481.84	23.091
482.19	23.716
482.53	23.761
482.88	23.220
483.23	23.692
483.58	24.113
483.92	23.711
484.27	22.614
484.62	22.802
484.97	23.453
485.31	23.459
485.66	21.927
486.01	20.505
486.36	19.965
486.70	19.217
487.05	20.523
487.40	20.991
487.75	21.166
488.09	21.929
488.44	21.981
488.79	23.038
489.13	23.147
489.48	22.635
489.83	23.177
490.17	23.367
490.52	23.384
490.87	23.474
491.22	23.374
491.56	22.961
491.91	22.243
492.26	22.692
492.60	23.456
492.95	23.152
493.30	23.131
493.64	23.332
493.99	23.120
494.34	23.219
494.68	24.451
495.03	23.919
495.37	23.872
495.72	23.928
496.07	23.480
496.41	23.230
496.76	23.175
497.11	22.602
497.45	23.847
497.80	23.177
498.14	23.092
498.49	23.366
498.84	24.449
499.18	23.714
499.53	23.884
499.87	23.113
500.22	24.352
500.56	24.854
500.91	23.125
501.26	23.139
501.60	24.110
501.95	23.373
502.29	23.993
502.64	24.395
502.98	24.310
503.33	23.857
503.67	23.852
504.02	24.041
504.36	24.614
504.71	24.377
505.06	24.241
505.40	23.967
505.75	23.770
506.09	24.150
506.44	24.322
506.78	24.988
507.13	25.088
507.47	25.505
507.82	25.228
508.16	25.177
508.51	26.332
508.85	24.280
509.19	25.255
509.54	24.592
509.88	25.502
510.23	25.141
510.57	25.851
510.92	26.100
511.26	25.540
511.61	25.571
511.95	25.000
512.30	25.716
512.64	25.739
512.98	26.795
513.33	26.445
513.67	25.614
514.02	25.920
514.36	27.198
514.70	26.619
515.05	26.213
515.39	27.201
515.74	27.083
516.08	26.439
516.42	27.081
516.77	27.090
517.11	26.249
517.46	26.693
517.80	27.700
518.14	27.273
518.49	28.121
518.83	27.500
519.17	27.252
519.52	27.900
519.86	27.781
520.20	27.052
520.55	28.845
520.89	28.954
521.23	29.011
521.58	28.812
521.92	28.720
522.26	26.724
522.61	28.785
522.95	28.300
523.29	28.484
523.64	28.598
523.98	29.020
524.32	28.890
524.66	28.022
525.01	28.309
525.35	28.563
525.69	28.448
526.04	28.100
526.38	28.493
526.72	28.589
527.06	29.379
527.41	27.847
527.75	29.518
528.09	29.929
528.43	28.999
528.78	29.994
529.12	28.424
529.46	28.291
529.80	29.084
530.15	29.159
530.49	28.800
530.83	29.494
531.17	29.504
531.51	30.285
531.86	29.032
532.20	29.074
532.54	29.660
532.88	29.332
533.22	28.045
533.57	28.210
533.91	28.597
534.25	28.554
534.59	28.554
534.93	28.019
535.27	28.425
535.62	28.205
535.96	28.939
536.30	26.891
536.64	28.654
536.98	29.595
537.32	27.650
537.66	29.533
538.01	29.493
538.35	29.282
538.69	29.675
539.03	28.395
539.37	28.562
539.71	28.127
540.05	28.954
540.39	29.302
540.73	28.396
541.07	29.007
541.42	29.419
541.76	29.613
542.10	28.008
542.44	27.285
542.78	30.171
543.12	27.831
543.46	29.377
543.80	28.172
544.14	27.664
544.48	28.444
544.82	28.031
545.16	28.953
545.50	27.699
545.84	28.495
546.18	29.024
546.52	28.562
546.86	29.691
547.20	28.186
547.54	28.991
547.88	28.763
548.22	28.456
548.56	27.736
548.90	28.105
549.24	27.340
549.58	28.786
549.92	29.121
550.26	28.693
550.60	28.216
550.94	29.155
551.28	28.456
551.62	30.338
551.96	27.930
552.30	28.669
552.64	27.519
552.98	28.610
553.32	28.591
553.66	28.971
554.00	28.964
554.34	27.950
554.68	29.041
555.02	27.715
555.36	28.532
555.69	26.658
556.03	27.927
556.37	28.854
556.71	28.581
557.05	27.941
557.39	28.761
557.73	28.229
558.07	29.079
558.41	28.292
558.75	29.537
559.08	28.784
559.42	29.252
559.76	28.676
560.10	28.551
560.44	28.092
560.78	27.678
561.12	27.836
561.45	28.488
561.79	28.411
562.13	27.632
562.47	28.620
562.81	28.382
563.15	27.425
563.48	28.316
563.82	27.267
564.16	27.600
564.50	26.888
564.84	27.181
565.17	27.156
565.51	27.476
565.85	26.777
566.19	26.863
566.52	26.536
566.86	26.944
567.20	26.828
567.54	26.712
567.88	25.747
568.21	26.614
568.55	25.278
568.89	25.486
569.23	24.287
569.56	23.927
569.90	23.660
570.24	23.717
570.57	23.291
570.91	22.463
571.25	22.112
571.59	22.622
571.92	22.206
572.26	22.588
572.60	22.643
572.93	22.159
573.27	22.212
573.61	22.055
573.95	21.938
574.28	21.332
574.62	21.040
574.96	20.812
575.29	21.145
575.63	21.596
575.97	21.375
576.30	21.349
576.64	21.279
576.98	21.099
577.31	21.234
577.65	20.912
577.98	20.487
578.32	20.393
578.66	20.566
578.99	21.000
579.33	20.576
579.67	20.798
580.00	21.098
580.34	21.001
580.67	20.917
581.01	21.295
581.35	20.863
581.68	20.439
582.02	20.203
582.35	19.946
582.69	20.125
583.02	20.172
583.36	20.821
583.70	20.879
584.03	21.134
584.37	21.686
584.70	21.055
585.04	21.037
585.37	20.690
585.71	20.982
586.04	20.971
586.38	21.029
586.72	21.403
587.05	21.299
587.39	20.501
587.72	20.974
588.06	20.758
588.39	20.741
588.73	21.942
589.06	22.001
589.40	22.458
589.73	22.175
590.07	21.957
590.40	22.360
590.73	21.897
591.07	23.240
591.40	23.070
591.74	24.199
592.07	23.298
592.41	22.819
592.74	23.446
593.08	21.885
593.41	22.366
593.75	21.174
594.08	21.690
594.41	22.022
594.75	22.255
595.08	22.334
595.42	21.961
595.75	22.009
596.09	22.869
596.42	22.672
596.75	23.090
597.09	22.857
597.42	22.597
597.75	22.553
598.09	22.826
598.42	22.509
598.76	22.213
599.09	21.969
599.42	21.434
599.76	22.291
600.09	21.603
600.42	21.731
600.76	21.500
601.09	22.295
601.42	22.222
601.76	22.239
602.09	22.451
602.42	22.134
602.76	23.176
603.09	22.227
603.42	22.257
603.76	21.723
604.09	21.830
604.42	22.544
604.76	22.438
605.09	22.805
605.42	22.403
605.75	22.392
606.09	21.675
606.42	21.904
606.75	22.480
607.09	22.604
607.42	22.251
607.75	21.772
608.08	21.667
608.42	23.039
608.75	22.543
609.08	22.710
609.41	22.846
609.75	23.249
610.08	23.421
610.41	22.207
610.74	22.990
611.07	22.628
611.41	23.651
611.74	23.379
612.07	23.395
612.40	23.767
612.73	23.000
613.07	23.976
613.40	24.013
613.73	23.020
614.06	23.548
614.39	22.601
614.72	22.737
615.06	23.109
615.39	23.089
615.72	23.875
616.05	23.126
616.38	23.235
616.71	23.634
617.05	24.499
617.38	22.910
617.71	23.363
618.04	24.099
618.37	23.773
618.70	24.580
619.03	24.342
619.36	24.779
619.69	25.423
620.03	25.755
620.36	25.134
620.69	25.479
621.02	25.442
621.35	24.589
621.68	25.857
622.01	25.310
622.34	26.097
622.67	26.008
623.00	24.431
623.33	24.375
623.66	25.161
623.99	25.626
624.32	25.178
624.65	24.435
624.99	24.292
625.32	25.272
625.65	25.244
625.98	25.903
626.31	26.050
626.64	26.449
626.97	26.018
627.30	24.771
627.63	26.661
627.96	26.913
628.29	27.822
628.62	28.271
628.95	28.868
629.28	27.464
629.61	28.689
629.94	28.857
630.26	26.597
630.59	27.073
630.92	27.490
631.25	27.147
