SpectraSuite Data File
++++++++++++++++++++++++++++++++++++
Date: Wed May 13 16:31:01 PDT 2015
User: schluterlab
Dark Spectrum Present: Yes
Reference Spectrum Present: Yes
Number of Sampled Component Spectra: 1
Spectrometers: USB2E3373
Integration Time (usec): 3000 (USB2E3373)
Spectra Averaged: 3 (USB2E3373)
Boxcar Smoothing: 0 (USB2E3373)
Correct for Electrical Dark: No (USB2E3373)
Strobe/Lamp Enabled: No (USB2E3373)
Correct for Detector Non-linearity: No (USB2E3373)
Correct for Stray Light: No (USB2E3373)
Number of Pixels in Processed Spectrum: 2048
>>>>>Begin Processed Spectral Data<<<<<
178.53	0.000
178.91	-1300.000
179.29	-1100.000
179.67	-183.333
180.04	-1125.000
180.42	2250.000
180.80	1100.000
181.18	-1025.000
181.56	628.571
181.94	0.000
182.31	-685.714
182.69	1633.333
183.07	-525.000
183.45	-522.222
183.83	518.182
184.20	-420.000
184.58	2150.000
184.96	5500.000
185.34	-840.000
185.72	-675.000
186.09	-1950.000
186.47	2300.000
186.85	2400.000
187.23	4500.000
187.61	-1433.333
187.98	1475.000
188.36	472.727
188.74	454.545
189.12	-1060.000
189.49	560.000
189.87	-4700.000
190.25	-1050.000
190.63	400.000
191.00	430.769
191.38	733.333
191.76	-1025.000
192.14	1550.000
192.51	525.000
192.89	916.667
193.27	450.000
193.65	-1175.000
194.02	430.000
194.40	940.000
194.78	510.000
195.15	475.000
195.53	600.000
195.91	-1750.000
196.29	356.250
196.66	268.421
197.04	-340.000
197.42	0.000
197.79	490.000
198.17	-4100.000
198.55	671.429
198.92	612.500
199.30	740.000
199.68	0.000
200.05	311.111
200.43	714.286
200.81	4800.000
201.18	1400.000
201.56	-1733.333
201.94	500.000
202.31	488.889
202.69	441.667
203.07	510.000
203.44	0.000
203.82	1150.000
204.19	600.000
204.57	392.857
204.95	525.000
205.32	1366.667
205.70	509.091
206.08	328.571
206.45	2250.000
206.83	325.000
207.20	766.667
207.58	600.000
207.96	333.333
208.33	875.000
208.71	-633.333
209.08	757.143
209.46	488.889
209.84	372.727
210.21	-1666.667
210.59	1300.000
210.96	-475.000
211.34	2200.000
211.71	530.000
212.09	750.000
212.46	0.000
212.84	1766.667
213.22	1175.000
213.59	-4400.000
213.97	650.000
214.34	785.714
214.72	463.636
215.09	1020.000
215.47	-1900.000
215.84	-1650.000
216.22	1333.333
216.59	371.429
216.97	1050.000
217.34	363.636
217.72	-750.000
218.09	0.000
218.47	-3600.000
218.84	633.333
219.22	657.143
219.59	1633.333
219.97	-485.714
220.34	840.000
220.72	-1566.667
221.09	385.714
221.47	1475.000
221.84	-766.667
222.22	0.000
222.59	1350.000
222.97	-2100.000
223.34	920.000
223.72	361.538
224.09	920.000
224.46	2200.000
224.84	-4900.000
225.21	-900.000
225.59	-4400.000
225.96	540.000
226.34	295.000
226.71	2450.000
227.08	550.000
227.46	470.000
227.83	-1050.000
228.21	-1900.000
228.58	611.111
228.95	-2100.000
229.33	-2250.000
229.70	1766.667
230.08	671.429
230.45	-680.000
230.82	416.667
231.20	833.333
231.57	614.286
231.95	416.667
232.32	204.545
232.69	290.909
233.07	457.143
233.44	353.846
233.81	-1100.000
234.19	236.842
234.56	366.667
234.93	300.000
235.31	381.818
235.68	261.538
236.05	292.857
236.43	145.455
236.80	200.000
237.17	3400.000
237.55	214.286
237.92	164.286
238.29	214.286
238.67	151.613
239.04	151.724
239.41	122.222
239.79	108.696
240.16	102.381
240.53	95.455
240.91	78.431
241.28	80.000
241.65	90.000
242.02	73.913
242.40	67.742
242.77	63.333
243.14	62.366
243.51	46.067
243.89	54.118
244.26	48.889
244.63	41.935
245.00	44.681
245.38	44.554
245.75	38.318
246.12	27.523
246.49	44.526
246.87	55.200
247.24	33.077
247.61	27.857
247.98	35.294
248.36	22.973
248.73	33.758
249.10	35.032
249.47	29.944
249.84	32.086
250.22	25.134
250.59	33.136
250.96	27.778
251.33	27.962
251.70	26.733
252.08	21.905
252.45	22.422
252.82	22.609
253.19	23.830
253.56	21.176
253.94	24.066
254.31	22.656
254.68	24.231
255.05	21.402
255.42	16.260
255.79	18.382
256.16	17.690
256.54	16.961
256.91	17.438
257.28	14.748
257.65	17.492
258.02	21.739
258.39	17.350
258.76	16.722
259.14	14.881
259.51	17.629
259.88	16.149
260.25	18.127
260.62	16.185
260.99	15.839
261.36	15.315
261.73	18.052
262.10	13.081
262.47	17.183
262.85	14.206
263.22	8.547
263.59	16.239
263.96	14.011
264.33	13.055
264.70	13.947
265.07	17.647
265.44	13.889
265.81	12.165
266.18	13.065
266.55	12.195
266.92	13.759
267.29	15.046
267.66	13.532
268.03	14.091
268.40	14.486
268.77	11.933
269.14	11.036
269.51	14.673
269.88	12.354
270.25	13.770
270.62	13.933
270.99	16.129
271.36	13.948
271.73	11.916
272.10	12.609
272.47	14.624
272.84	13.203
273.21	14.465
273.58	10.480
273.95	12.369
274.32	10.744
274.69	10.278
275.06	11.024
275.43	12.128
275.80	10.421
276.17	9.776
276.54	13.929
276.91	12.253
277.28	10.938
277.65	11.992
278.02	10.145
278.39	11.914
278.76	13.091
279.13	12.642
279.50	11.173
279.87	11.952
280.23	10.778
280.60	10.445
280.97	11.460
281.34	12.743
281.71	13.273
282.08	11.900
282.45	10.000
282.82	10.835
283.19	8.913
283.56	10.702
283.92	10.152
284.29	10.053
284.66	9.074
285.03	8.861
285.40	10.035
285.77	9.428
286.14	10.017
286.51	10.667
286.87	11.111
287.24	10.586
287.61	9.470
287.98	11.039
288.35	9.984
288.72	8.879
289.08	11.424
289.45	9.390
289.82	9.593
290.19	8.163
290.56	10.413
290.93	10.121
291.29	8.436
291.66	8.260
292.03	13.227
292.40	12.775
292.77	9.320
293.13	11.642
293.50	11.224
293.87	9.630
294.24	9.630
294.60	9.316
294.97	10.610
295.34	11.989
295.71	11.364
296.08	9.829
296.44	10.454
296.81	10.436
297.18	12.195
297.55	8.971
297.91	10.026
298.28	10.308
298.65	11.488
299.02	11.331
299.38	10.757
299.75	8.760
300.12	10.089
300.48	10.500
300.85	11.344
301.22	10.064
301.59	10.606
301.95	12.091
302.32	11.168
302.69	9.677
303.05	11.879
303.42	10.370
303.79	11.552
304.15	10.723
304.52	11.124
304.89	11.150
305.25	10.093
305.62	11.099
305.99	11.098
306.35	11.298
306.72	12.556
307.09	11.543
307.45	12.725
307.82	11.049
308.19	11.589
308.55	12.190
308.92	11.708
309.29	12.038
309.65	11.665
310.02	10.994
310.38	12.151
310.75	11.404
311.12	12.180
311.48	12.017
311.85	13.103
312.22	11.967
312.58	11.746
312.95	13.094
313.31	11.262
313.68	12.994
314.05	13.116
314.41	13.467
314.78	12.387
315.14	12.810
315.51	13.800
315.87	13.762
316.24	13.704
316.61	11.988
316.97	12.329
317.34	12.818
317.70	13.193
318.07	13.956
318.43	12.622
318.80	14.620
319.16	13.842
319.53	13.508
319.89	14.286
320.26	14.200
320.62	13.889
320.99	14.040
321.35	15.354
321.72	16.016
322.08	15.499
322.45	16.617
322.81	16.182
323.18	16.281
323.54	15.121
323.91	15.283
324.27	15.296
324.64	15.564
325.00	15.870
325.37	17.561
325.73	17.684
326.10	16.417
326.46	15.860
326.83	17.947
327.19	16.994
327.56	17.422
327.92	17.060
328.29	16.681
328.65	18.508
329.01	17.329
329.38	16.744
329.74	16.528
330.11	17.248
330.47	18.457
330.84	18.658
331.20	17.122
331.56	17.798
331.93	17.407
332.29	17.924
332.66	17.345
333.02	17.367
333.38	18.519
333.75	18.271
334.11	18.416
334.48	18.190
334.84	18.199
335.20	17.273
335.57	18.495
335.93	16.250
336.29	17.949
336.66	17.042
337.02	17.195
337.38	17.315
337.75	17.201
338.11	17.010
338.47	16.575
338.84	18.332
339.20	16.697
339.56	17.974
339.93	17.182
340.29	16.576
340.65	16.667
341.02	18.237
341.38	16.637
341.74	16.667
342.11	15.983
342.47	16.740
342.83	18.065
343.20	17.316
343.56	16.175
343.92	17.193
344.28	16.752
344.65	16.595
345.01	16.667
345.37	15.866
345.73	16.751
346.10	17.306
346.46	16.949
346.82	16.474
347.19	16.207
347.55	16.913
347.91	17.314
348.27	17.173
348.63	16.221
349.00	16.586
349.36	16.831
349.72	16.279
350.08	15.397
350.45	17.168
350.81	16.166
351.17	16.451
351.53	16.626
351.89	15.842
352.26	16.496
352.62	17.322
352.98	16.613
353.34	16.680
353.70	15.630
354.07	16.048
354.43	16.429
354.79	16.331
355.15	15.563
355.51	17.186
355.87	16.408
356.24	17.020
356.60	15.638
356.96	16.734
357.32	16.108
357.68	16.772
358.04	16.152
358.40	17.419
358.77	17.684
359.13	15.706
359.49	16.235
359.85	15.000
360.21	16.348
360.57	17.276
360.93	17.000
361.29	17.158
361.66	16.022
362.02	17.090
362.38	16.882
362.74	16.815
363.10	15.396
363.46	16.948
363.82	16.704
364.18	16.373
364.54	16.270
364.90	17.280
365.26	15.809
365.62	17.239
365.98	15.851
366.35	15.903
366.71	16.920
367.07	16.387
367.43	16.909
367.79	16.845
368.15	17.744
368.51	16.134
368.87	16.417
369.23	15.874
369.59	16.799
369.95	16.618
370.31	17.236
370.67	16.812
371.03	18.502
371.39	16.108
371.75	18.235
372.11	16.501
372.47	18.109
372.83	17.435
373.19	16.691
373.55	17.369
373.91	18.189
374.27	17.251
374.63	16.727
374.99	17.867
375.35	17.027
375.71	17.889
376.07	18.793
376.42	18.019
376.78	18.290
377.14	16.689
377.50	18.013
377.86	17.886
378.22	18.963
378.58	18.421
378.94	18.228
379.30	18.893
379.66	17.893
380.02	17.813
380.38	17.365
380.74	18.067
381.09	18.704
381.45	18.869
381.81	19.840
382.17	18.790
382.53	18.428
382.89	19.691
383.25	19.325
383.61	20.074
383.97	20.013
384.32	20.212
384.68	18.835
385.04	19.176
385.40	19.628
385.76	18.735
386.12	19.754
386.48	20.579
386.83	19.885
387.19	20.656
387.55	19.666
387.91	19.891
388.27	20.110
388.62	20.836
388.98	20.332
389.34	20.338
389.70	20.233
390.06	21.103
390.42	20.493
390.77	21.247
391.13	20.230
391.49	21.066
391.85	20.306
392.20	20.189
392.56	20.896
392.92	21.307
393.28	19.467
393.64	20.444
393.99	21.564
394.35	21.774
394.71	21.267
395.07	20.062
395.42	21.632
395.78	20.865
396.14	20.670
396.50	21.742
396.85	21.233
397.21	20.284
397.57	20.025
397.92	21.454
398.28	20.291
398.64	21.446
399.00	21.265
399.35	20.869
399.71	20.023
400.07	21.348
400.42	20.736
400.78	20.808
401.14	21.037
401.49	20.478
401.85	20.266
402.21	20.299
402.57	20.605
402.92	21.942
403.28	21.174
403.63	20.730
403.99	21.019
404.35	21.152
404.70	20.863
405.06	20.384
405.42	20.774
405.77	20.400
406.13	20.598
406.49	20.698
406.84	20.555
407.20	20.213
407.55	21.251
407.91	21.000
408.27	20.357
408.62	21.072
408.98	19.792
409.34	21.033
409.69	21.613
410.05	20.508
410.40	20.612
410.76	19.773
411.11	19.903
411.47	19.681
411.83	19.487
412.18	19.975
412.54	20.299
412.89	20.361
413.25	20.012
413.60	20.506
413.96	19.733
414.31	20.292
414.67	20.976
415.03	20.000
415.38	20.296
415.74	21.286
416.09	20.248
416.45	20.683
416.80	19.564
417.16	20.979
417.51	21.301
417.87	20.295
418.22	20.631
418.58	20.077
418.93	21.069
419.29	20.878
419.64	20.151
420.00	20.000
420.35	20.000
420.71	21.399
421.06	20.346
421.42	20.409
421.77	20.684
422.12	19.820
422.48	19.752
422.83	19.453
423.19	20.000
423.54	19.965
423.90	20.696
424.25	21.217
424.61	20.833
424.96	20.175
425.31	20.321
425.67	19.213
426.02	20.000
426.38	20.574
426.73	19.368
427.09	20.243
427.44	19.954
427.79	20.357
428.15	20.357
428.50	20.480
428.85	20.083
429.21	20.099
429.56	20.062
429.92	20.232
430.27	19.166
430.62	19.713
430.98	19.253
431.33	19.536
431.68	19.948
432.04	19.649
432.39	19.189
432.74	19.988
433.10	19.525
433.45	20.466
433.80	19.623
434.16	20.246
434.51	20.368
434.86	20.182
435.22	20.678
435.57	20.608
435.92	20.070
436.28	20.107
436.63	20.916
436.98	19.691
437.34	21.288
437.69	20.245
438.04	20.292
438.39	20.478
438.75	20.511
439.10	20.335
439.45	20.543
439.81	20.604
440.16	20.215
440.51	20.094
440.86	20.382
441.22	19.855
441.57	20.329
441.92	20.573
442.27	20.022
442.63	19.905
442.98	21.408
443.33	19.728
443.68	20.341
444.03	20.254
444.39	19.669
444.74	20.833
445.09	20.000
445.44	20.284
445.79	20.238
446.15	19.693
446.50	20.140
446.85	19.887
447.20	19.990
447.55	20.268
447.91	21.015
448.26	19.699
448.61	20.746
448.96	20.487
449.31	20.641
449.66	20.428
450.02	19.554
450.37	19.615
450.72	20.135
451.07	20.049
451.42	20.243
451.77	21.139
452.12	20.554
452.47	20.709
452.83	21.270
453.18	20.293
453.53	20.470
453.88	20.142
454.23	20.143
454.58	21.199
454.93	21.043
455.28	19.763
455.63	20.631
455.98	20.774
456.34	21.357
456.69	20.852
457.04	21.238
457.39	20.573
457.74	20.604
458.09	20.817
458.44	20.867
458.79	19.577
459.14	20.937
459.49	20.315
459.84	19.723
460.19	19.976
460.54	20.833
460.89	21.119
461.24	20.219
461.59	21.906
461.94	20.592
462.29	21.246
462.64	20.549
462.99	19.909
463.34	21.133
463.69	20.200
464.04	20.928
464.39	21.043
464.74	20.559
465.09	20.084
465.44	19.834
465.79	19.463
466.14	20.580
466.49	19.855
466.84	19.907
467.19	19.372
467.54	20.750
467.89	19.868
468.24	19.779
468.59	21.062
468.94	19.976
469.29	20.501
469.64	21.419
469.99	20.298
470.34	20.079
470.68	20.259
471.03	21.020
471.38	20.709
471.73	20.919
472.08	20.789
472.43	20.791
472.78	20.408
473.13	20.475
473.48	20.037
473.83	19.756
474.17	19.975
474.52	19.851
474.87	21.016
475.22	19.443
475.57	19.559
475.92	19.118
476.27	19.504
476.61	19.636
476.96	19.241
477.31	19.362
477.66	19.530
478.01	18.871
478.36	19.619
478.70	18.380
479.05	19.063
479.40	18.731
479.75	19.420
480.10	19.533
480.45	19.181
480.79	18.586
481.14	18.836
481.49	19.554
481.84	19.113
482.19	18.810
482.53	19.128
482.88	18.660
483.23	18.598
483.58	19.381
483.92	18.932
484.27	17.821
484.62	18.707
484.97	18.053
485.31	18.493
485.66	18.265
486.01	16.931
486.36	16.500
486.70	16.197
487.05	17.073
487.40	17.594
487.75	17.470
488.09	17.652
488.44	17.578
488.79	18.192
489.13	18.411
489.48	18.312
489.83	17.911
490.17	18.238
490.52	18.645
490.87	18.589
491.22	17.917
491.56	17.950
491.91	18.288
492.26	18.741
492.60	18.111
492.95	17.727
493.30	17.664
493.64	18.059
493.99	18.106
494.34	18.085
494.68	18.498
495.03	17.857
495.37	17.962
495.72	18.129
496.07	18.237
496.41	17.876
496.76	17.766
497.11	17.965
497.45	18.025
497.80	17.898
498.14	17.729
498.49	17.561
498.84	17.881
499.18	17.905
499.53	18.091
499.87	17.288
500.22	17.805
500.56	18.301
500.91	17.740
501.26	17.734
501.60	18.178
501.95	17.507
502.29	18.182
502.64	17.924
502.98	17.204
503.33	17.322
503.67	17.309
504.02	18.428
504.36	18.250
504.71	17.978
505.06	18.313
505.40	17.355
505.75	17.310
506.09	17.250
506.44	17.366
506.78	18.169
507.13	17.113
507.47	18.586
507.82	18.034
508.16	17.882
508.51	17.910
508.85	17.577
509.19	18.214
509.54	17.959
509.88	17.568
510.23	17.584
510.57	18.834
510.92	18.125
511.26	17.677
511.61	17.635
511.95	17.328
512.30	17.391
512.64	17.947
512.98	18.703
513.33	18.308
513.67	18.143
514.02	16.558
514.36	17.804
514.70	17.211
515.05	17.234
515.39	18.396
515.74	18.187
516.08	18.222
516.42	18.313
516.77	18.283
517.11	17.425
517.46	18.115
517.80	17.886
518.14	17.197
518.49	18.145
518.83	17.898
519.17	17.494
519.52	18.053
519.86	17.969
520.20	17.919
520.55	17.834
520.89	18.248
521.23	17.793
521.58	18.427
521.92	18.739
522.26	17.084
522.61	18.816
522.95	17.127
523.29	18.138
523.64	17.378
523.98	17.375
524.32	17.913
524.66	18.220
525.01	17.953
525.35	17.534
525.69	17.118
526.04	17.695
526.38	18.548
526.72	16.933
527.06	18.079
527.41	17.079
527.75	18.457
528.09	17.919
528.43	17.655
528.78	18.070
529.12	17.091
529.46	17.881
529.80	18.502
530.15	18.255
530.49	17.477
530.83	17.722
531.17	18.995
531.51	18.353
531.86	18.000
532.20	19.296
532.54	17.361
532.88	18.164
533.22	16.989
533.57	17.778
533.91	17.760
534.25	17.861
534.59	17.999
534.93	17.311
535.27	17.019
535.62	17.460
535.96	17.640
536.30	17.038
536.64	17.579
536.98	18.049
537.32	17.446
537.66	17.400
538.01	18.038
538.35	17.065
538.69	18.188
539.03	17.089
539.37	16.358
539.71	16.073
540.05	17.255
540.39	17.874
540.73	17.594
541.07	18.235
541.42	17.025
541.76	18.129
542.10	17.464
542.44	17.020
542.78	17.787
543.12	15.803
543.46	16.852
543.80	17.957
544.14	16.367
544.48	17.714
544.82	16.934
545.16	17.176
545.50	17.609
545.84	16.599
546.18	17.306
546.52	17.619
546.86	18.007
547.20	17.734
547.54	17.435
547.88	17.857
548.22	17.123
548.56	16.289
548.90	16.261
549.24	16.364
549.58	16.985
549.92	16.896
550.26	18.040
550.60	17.427
550.94	17.394
551.28	15.655
551.62	17.829
551.96	16.632
552.30	16.997
552.64	17.444
552.98	17.898
553.32	17.937
553.66	17.451
554.00	16.953
554.34	16.563
554.68	16.810
555.02	17.066
555.36	16.771
555.69	16.644
556.03	16.555
556.37	17.190
556.71	17.053
557.05	16.947
557.39	17.355
557.73	17.502
558.07	16.969
558.41	17.221
558.75	17.561
559.08	17.748
559.42	16.175
559.76	16.176
560.10	16.774
560.44	16.911
560.78	16.966
561.12	16.491
561.45	17.666
561.79	17.007
562.13	16.633
562.47	16.462
562.81	17.294
563.15	16.990
563.48	16.578
563.82	16.765
564.16	15.304
564.50	16.667
564.84	16.056
565.17	16.602
565.51	15.719
565.85	16.434
566.19	15.780
566.52	16.339
566.86	16.456
567.20	16.333
567.54	16.324
567.88	15.263
568.21	16.138
568.55	15.217
568.89	16.099
569.23	15.508
569.56	14.818
569.90	14.717
570.24	14.819
570.57	14.689
570.91	13.995
571.25	14.484
571.59	14.698
571.92	14.142
572.26	14.298
572.60	14.324
572.93	14.513
573.27	14.020
573.61	14.740
573.95	14.522
574.28	13.618
574.62	14.164
574.96	13.811
575.29	14.040
575.63	14.075
575.97	13.851
576.30	14.073
576.64	14.152
576.98	13.685
577.31	13.909
577.65	13.768
577.98	13.571
578.32	13.344
578.66	13.585
578.99	14.335
579.33	13.774
579.67	13.744
580.00	13.882
580.34	13.977
580.67	14.276
581.01	14.099
581.35	13.786
581.68	13.762
582.02	13.399
582.35	13.653
582.69	13.493
583.02	13.455
583.36	13.881
583.70	13.961
584.03	14.368
584.37	14.229
584.70	14.316
585.04	14.188
585.37	14.049
585.71	14.286
586.04	14.086
586.38	14.237
586.72	14.885
587.05	14.208
587.39	14.142
587.72	14.223
588.06	14.274
588.39	14.266
588.73	14.198
589.06	14.553
589.40	14.579
589.73	14.643
590.07	14.520
590.40	14.359
590.73	14.208
591.07	15.059
591.40	14.846
591.74	15.281
592.07	15.009
592.41	14.800
592.74	13.933
593.08	14.357
593.41	14.711
593.75	14.210
594.08	14.147
594.41	14.316
594.75	13.937
595.08	14.782
595.42	14.851
595.75	14.031
596.09	14.908
596.42	14.971
596.75	14.943
597.09	15.325
597.42	14.629
597.75	15.351
598.09	15.261
598.42	15.034
598.76	14.674
599.09	14.215
599.42	13.828
599.76	14.422
600.09	14.426
600.42	14.573
600.76	13.964
601.09	14.463
601.42	14.650
601.76	14.611
602.09	14.980
602.42	15.326
602.76	14.833
603.09	14.595
603.42	14.916
603.76	14.596
604.09	14.269
604.42	14.676
604.76	14.973
605.09	14.286
605.42	14.536
605.75	14.776
606.09	14.599
606.42	14.262
606.75	14.268
607.09	14.902
607.42	14.549
607.75	13.882
608.08	14.459
608.42	15.150
608.75	14.743
609.08	14.246
609.41	14.993
609.75	14.960
610.08	15.693
610.41	14.665
610.74	14.759
611.07	14.822
611.41	15.260
611.74	15.435
612.07	16.201
612.40	14.900
612.73	15.263
613.07	14.871
613.40	15.903
613.73	14.263
614.06	14.731
614.39	15.207
614.72	15.789
615.06	15.389
615.39	14.544
615.72	15.337
616.05	14.673
616.38	15.231
616.71	15.736
617.05	16.019
617.38	15.875
617.71	15.075
618.04	15.865
618.37	15.612
618.70	15.806
619.03	16.776
619.36	16.361
619.69	16.761
620.03	15.865
620.36	16.578
620.69	15.548
621.02	16.224
621.35	15.348
621.68	15.966
622.01	16.718
622.34	15.582
622.67	16.502
623.00	15.847
623.33	15.797
623.66	15.797
623.99	16.642
624.32	16.191
624.65	16.525
624.99	15.297
625.32	15.930
625.65	17.280
625.98	16.218
626.31	17.107
626.64	16.653
626.97	16.376
627.30	16.209
627.63	17.063
627.96	17.578
628.29	17.148
628.62	18.024
628.95	18.302
629.28	16.423
629.61	19.340
629.94	17.429
630.26	15.825
630.59	16.111
630.92	17.337
631.25	16.683
631.58	17.217
