SpectraSuite Data File
++++++++++++++++++++++++++++++++++++
Date: Wed May 13 16:29:11 PDT 2015
User: schluterlab
Dark Spectrum Present: Yes
Reference Spectrum Present: Yes
Number of Sampled Component Spectra: 1
Spectrometers: USB2E3373
Integration Time (usec): 3000 (USB2E3373)
Spectra Averaged: 3 (USB2E3373)
Boxcar Smoothing: 0 (USB2E3373)
Correct for Electrical Dark: No (USB2E3373)
Strobe/Lamp Enabled: No (USB2E3373)
Correct for Detector Non-linearity: No (USB2E3373)
Correct for Stray Light: No (USB2E3373)
Number of Pixels in Processed Spectrum: 2048
>>>>>Begin Processed Spectral Data<<<<<
178.53	0.000
178.91	-1450.000
179.29	-900.000
179.67	-222.222
180.04	-1125.000
180.42	2900.000
180.80	1020.000
181.18	-900.000
181.56	628.571
181.94	0.000
182.31	-542.857
182.69	1533.333
183.07	-587.500
183.45	-511.111
183.83	490.909
184.20	-310.000
184.58	2000.000
184.96	3700.000
185.34	-760.000
185.72	-425.000
186.09	-2250.000
186.47	2850.000
186.85	2500.000
187.23	5100.000
187.61	-1566.667
187.98	1225.000
188.36	545.455
188.74	390.909
189.12	-900.000
189.49	530.000
189.87	-4000.000
190.25	-1125.000
190.63	292.857
191.00	361.538
191.38	733.333
191.76	-925.000
192.14	1525.000
192.51	587.500
192.89	716.667
193.27	412.500
193.65	-1225.000
194.02	490.000
194.40	740.000
194.78	480.000
195.15	458.333
195.53	590.000
195.91	-2250.000
196.29	306.250
196.66	284.211
197.04	-350.000
197.42	0.000
197.79	560.000
198.17	-3900.000
198.55	514.286
198.92	587.500
199.30	880.000
199.68	0.000
200.05	294.444
200.43	685.714
200.81	4100.000
201.18	1466.667
201.56	-1433.333
201.94	488.889
202.31	422.222
202.69	383.333
203.07	490.000
203.44	0.000
203.82	1125.000
204.19	728.571
204.57	428.571
204.95	587.500
205.32	1533.333
205.70	490.909
206.08	321.429
206.45	2250.000
206.83	262.500
207.20	1000.000
207.58	820.000
207.96	250.000
208.33	687.500
208.71	-733.333
209.08	814.286
209.46	555.556
209.84	445.455
210.21	-1533.333
210.59	1350.000
210.96	-462.500
211.34	2500.000
211.71	540.000
212.09	666.667
212.46	0.000
212.84	1766.667
213.22	1075.000
213.59	-3900.000
213.97	683.333
214.34	914.286
214.72	509.091
215.09	800.000
215.47	-2300.000
215.84	-2550.000
216.22	1500.000
216.59	342.857
216.97	1275.000
217.34	509.091
217.72	-600.000
218.09	0.000
218.47	-4300.000
218.84	644.444
219.22	685.714
219.59	1633.333
219.97	-657.143
220.34	780.000
220.72	-1466.667
221.09	414.286
221.47	1300.000
221.84	-700.000
222.22	0.000
222.59	1200.000
222.97	-2150.000
223.34	1100.000
223.72	361.538
224.09	940.000
224.46	2200.000
224.84	-4000.000
225.21	-760.000
225.59	-5200.000
225.96	520.000
226.34	310.000
226.71	2350.000
227.08	612.500
227.46	540.000
227.83	-850.000
228.21	-2200.000
228.58	566.667
228.95	-2550.000
229.33	-2500.000
229.70	1566.667
230.08	657.143
230.45	-720.000
230.82	475.000
231.20	750.000
231.57	614.286
231.95	425.000
232.32	177.273
232.69	445.455
233.07	642.857
233.44	346.154
233.81	-1500.000
234.19	273.684
234.56	450.000
234.93	333.333
235.31	454.545
235.68	323.077
236.05	250.000
236.43	169.697
236.80	268.421
237.17	4700.000
237.55	209.524
237.92	182.143
238.29	209.524
238.67	145.161
239.04	179.310
239.41	138.889
239.79	113.043
240.16	128.571
240.53	111.364
240.91	96.078
241.28	86.000
241.65	88.000
242.02	88.406
242.40	69.355
242.77	73.333
243.14	59.140
243.51	52.809
243.89	58.824
244.26	53.333
244.63	55.914
245.00	42.553
245.38	46.535
245.75	49.533
246.12	48.624
246.49	46.715
246.87	51.200
247.24	46.923
247.61	39.286
247.98	37.908
248.36	35.811
248.73	35.669
249.10	31.847
249.47	33.898
249.84	33.690
250.22	28.877
250.59	30.769
250.96	30.303
251.33	30.332
251.70	32.673
252.08	28.095
252.45	22.870
252.82	26.087
253.19	29.362
253.56	29.020
253.94	26.971
254.31	23.047
254.68	28.846
255.05	24.354
255.42	23.577
255.79	25.000
256.16	26.354
256.54	20.848
256.91	23.488
257.28	19.784
257.65	20.792
258.02	22.050
258.39	24.606
258.76	23.411
259.14	19.940
259.51	18.237
259.88	14.907
260.25	22.054
260.62	21.387
260.99	19.255
261.36	19.820
261.73	20.057
262.10	17.151
262.47	18.592
262.85	20.056
263.22	16.809
263.59	20.228
263.96	19.780
264.33	18.799
264.70	18.158
265.07	17.903
265.44	17.424
265.81	17.762
266.18	18.090
266.55	18.293
266.92	18.428
267.29	18.056
267.66	16.514
268.03	17.273
268.40	17.523
268.77	15.752
269.14	18.919
269.51	18.962
269.88	16.783
270.25	18.284
270.62	14.382
270.99	16.989
271.36	16.524
271.73	16.121
272.10	15.870
272.47	16.344
272.84	17.100
273.21	15.933
273.58	15.502
273.95	14.885
274.32	16.736
274.69	15.846
275.06	14.764
275.43	16.809
275.80	15.631
276.17	15.071
276.54	16.216
276.91	13.043
277.28	15.039
277.65	15.861
278.02	14.700
278.39	17.187
278.76	16.364
279.13	15.660
279.50	16.015
279.87	16.534
280.23	12.974
280.60	14.120
280.97	14.787
281.34	16.106
281.71	16.545
282.08	15.355
282.45	15.091
282.82	14.210
283.19	12.656
283.56	14.737
283.92	13.536
284.29	13.933
284.66	14.882
285.03	14.105
285.40	12.852
285.77	13.300
286.14	12.608
286.51	15.000
286.87	13.333
287.24	14.495
287.61	13.162
287.98	14.773
288.35	13.312
288.72	13.084
289.08	13.459
289.45	13.180
289.82	14.309
290.19	11.617
290.56	11.639
290.93	9.970
291.29	11.810
291.66	12.242
292.03	15.262
292.40	13.803
292.77	12.574
293.13	12.090
293.50	11.662
293.87	12.000
294.24	11.407
294.60	13.392
294.97	12.355
295.34	12.694
295.71	11.506
296.08	10.969
296.44	11.142
296.81	10.568
297.18	12.737
297.55	9.235
297.91	12.401
298.28	12.316
298.65	12.402
299.02	10.540
299.38	9.695
299.75	9.838
300.12	10.089
300.48	11.000
300.85	10.851
301.22	10.955
301.59	9.596
301.95	9.950
302.32	10.013
302.69	10.992
303.05	9.576
303.42	9.259
303.79	9.853
304.15	8.741
304.52	9.386
304.89	8.595
305.25	9.861
305.62	10.985
305.99	9.327
306.35	8.725
306.72	9.305
307.09	9.989
307.45	11.712
307.82	8.371
308.19	9.934
308.55	10.572
308.92	9.989
309.29	10.032
309.65	9.438
310.02	9.091
310.38	9.032
310.75	8.765
311.12	8.598
311.48	9.509
311.85	10.377
312.22	9.886
312.58	9.252
312.95	9.926
313.31	8.350
313.68	9.356
314.05	10.552
314.41	9.849
314.78	10.070
315.14	9.732
315.51	9.475
315.87	9.307
316.24	9.732
316.61	9.357
316.97	9.002
317.34	8.219
317.70	9.560
318.07	10.876
318.43	9.393
318.80	11.434
319.16	9.040
319.53	9.193
319.89	10.667
320.26	10.200
320.62	10.020
320.99	11.212
321.35	10.404
321.72	10.883
322.08	11.846
322.45	11.642
322.81	11.047
323.18	11.368
323.54	11.688
323.91	11.604
324.27	10.325
324.64	9.413
325.00	9.288
325.37	12.375
325.73	10.503
326.10	10.062
326.46	11.111
326.83	11.907
327.19	11.443
327.56	10.627
327.92	10.936
328.29	11.801
328.65	12.155
329.01	10.560
329.38	11.008
329.74	11.450
330.11	10.933
330.47	12.489
330.84	12.040
331.20	11.840
331.56	11.743
331.93	10.185
332.29	11.358
332.66	12.478
333.02	10.878
333.38	11.743
333.75	11.765
334.11	11.299
334.48	11.269
334.84	11.121
335.20	12.000
335.57	11.695
335.93	10.357
336.29	10.989
336.66	12.173
337.02	10.950
337.38	11.759
337.75	11.230
338.11	11.728
338.47	10.958
338.84	11.641
339.20	10.367
339.56	12.226
339.93	10.909
340.29	10.054
340.65	10.963
341.02	11.780
341.38	11.744
341.74	11.667
342.11	11.092
342.47	11.718
342.83	11.216
343.20	11.602
343.56	11.289
343.92	11.842
344.28	11.224
344.65	11.350
345.01	11.027
345.37	10.292
345.73	11.252
346.10	10.997
346.46	11.864
346.82	11.532
347.19	10.693
347.55	11.084
347.91	10.922
348.27	12.572
348.63	10.953
349.00	11.165
349.36	11.002
349.72	12.029
350.08	11.183
350.45	11.554
350.81	11.779
351.17	10.940
351.53	11.138
351.89	10.231
352.26	10.892
352.62	11.548
352.98	11.426
353.34	10.764
353.70	10.556
354.07	10.242
354.43	11.111
354.79	11.504
355.15	11.093
355.51	11.031
355.87	11.592
356.24	11.075
356.60	10.746
356.96	10.539
357.32	10.957
357.68	12.126
358.04	11.481
358.40	11.560
358.77	11.737
359.13	10.576
359.49	10.118
359.85	8.889
360.21	10.128
360.57	10.817
360.93	11.385
361.29	11.338
361.66	9.752
362.02	10.224
362.38	11.787
362.74	11.607
363.10	10.437
363.46	10.638
363.82	10.658
364.18	12.115
364.54	12.259
364.90	11.615
365.26	10.441
365.62	11.760
365.98	10.738
366.35	10.100
366.71	11.569
367.07	11.143
367.43	11.393
367.79	11.777
368.15	11.710
368.51	10.828
368.87	11.064
369.23	10.680
369.59	11.586
369.95	10.735
370.31	11.538
370.67	11.159
371.03	12.959
371.39	11.808
371.75	11.250
372.11	11.807
372.47	13.343
372.83	12.464
373.19	11.994
373.55	11.530
373.91	12.666
374.27	11.271
374.63	11.200
374.99	11.935
375.35	11.375
375.71	10.692
376.07	12.209
376.42	11.554
376.78	12.790
377.14	11.533
377.50	12.185
377.86	11.769
378.22	11.757
378.58	10.652
378.94	11.502
379.30	11.260
379.66	12.056
380.02	12.469
380.38	11.840
380.74	12.845
381.09	12.775
381.45	12.907
381.81	12.469
382.17	13.694
382.53	12.264
382.89	12.407
383.25	11.695
383.61	12.825
383.97	13.133
384.32	13.163
384.68	12.949
385.04	12.723
385.40	12.198
385.76	12.715
386.12	13.148
386.48	13.090
386.83	12.572
387.19	13.482
387.55	13.296
387.91	12.636
388.27	13.059
388.62	12.846
388.98	12.531
389.34	13.892
389.70	13.243
390.06	14.385
390.42	13.294
390.77	13.868
391.13	13.210
391.49	14.086
391.85	13.431
392.20	12.871
392.56	13.258
392.92	14.891
393.28	12.130
393.64	14.269
393.99	14.356
394.35	13.772
394.71	13.802
395.07	13.956
395.42	14.153
395.78	13.740
396.14	13.532
396.50	14.662
396.85	14.876
397.21	14.982
397.57	14.383
397.92	14.303
398.28	12.892
398.64	14.337
399.00	13.654
399.35	13.311
399.71	14.468
400.07	14.429
400.42	14.233
400.78	14.174
401.14	14.024
401.49	13.970
401.85	13.672
402.21	13.653
402.57	13.880
402.92	15.006
403.28	14.116
403.63	14.109
403.99	13.822
404.35	14.303
404.70	13.369
405.06	13.395
405.42	14.161
405.77	14.343
406.13	13.488
406.49	14.902
406.84	14.885
407.20	13.771
407.55	14.040
407.91	14.400
408.27	14.614
408.62	14.810
408.98	14.828
409.34	13.961
409.69	14.903
410.05	14.064
410.40	13.700
410.76	13.919
411.11	14.958
411.47	14.505
411.83	14.844
412.18	13.605
412.54	15.006
412.89	14.398
413.25	14.876
413.60	14.515
413.96	14.572
414.31	15.128
414.67	15.146
415.03	13.907
415.38	14.497
415.74	14.405
416.09	14.762
416.45	14.926
416.80	13.549
417.16	15.013
417.51	14.731
417.87	13.744
418.22	14.763
418.58	15.429
418.93	15.602
419.29	13.940
419.64	14.610
420.00	14.817
420.35	14.783
420.71	14.883
421.06	14.021
421.42	15.146
421.77	15.359
422.12	13.644
422.48	13.977
422.83	14.619
423.19	15.249
423.54	14.800
423.90	14.783
424.25	15.299
424.61	14.762
424.96	14.344
425.31	14.618
425.67	14.045
426.02	15.086
426.38	15.079
426.73	14.980
427.09	14.772
427.44	14.434
427.79	14.721
428.15	15.774
428.50	14.980
428.85	14.899
429.21	14.633
429.56	13.893
429.92	13.639
430.27	14.201
430.62	13.569
430.98	14.427
431.33	14.794
431.68	14.660
432.04	14.856
432.39	14.392
432.74	15.141
433.10	14.771
433.45	15.160
433.80	15.299
434.16	15.064
434.51	14.842
434.86	14.424
435.22	14.452
435.57	14.590
435.92	14.980
436.28	15.184
436.63	14.680
436.98	14.596
437.34	15.802
437.69	15.286
438.04	14.784
438.39	15.284
438.75	15.456
439.10	15.251
439.45	14.345
439.81	14.743
440.16	14.963
440.51	15.407
440.86	15.171
441.22	14.405
441.57	14.968
441.92	14.739
442.27	14.855
442.63	14.639
442.98	15.268
443.33	15.000
443.68	15.436
444.03	15.373
444.39	14.362
444.74	14.719
445.09	14.879
445.44	15.254
445.79	14.993
446.15	15.193
446.50	15.078
446.85	15.262
447.20	14.329
447.55	14.461
447.91	15.334
448.26	15.415
448.61	15.093
448.96	16.113
449.31	15.804
449.66	15.025
450.02	14.875
450.37	15.476
450.72	14.157
451.07	15.052
451.42	14.954
451.77	15.502
452.12	15.473
452.47	15.672
452.83	15.676
453.18	15.648
453.53	16.141
453.88	15.003
454.23	15.900
454.58	15.869
454.93	16.338
455.28	15.337
455.63	15.716
455.98	16.250
456.34	15.829
456.69	15.967
457.04	16.099
457.39	15.546
457.74	15.902
458.09	15.411
458.44	15.735
458.79	14.479
459.14	15.576
459.49	15.762
459.84	15.623
460.19	15.085
460.54	15.567
460.89	15.634
461.24	15.361
461.59	16.095
461.94	15.783
462.29	16.320
462.64	15.890
462.99	15.420
463.34	16.800
463.69	15.760
464.04	14.957
464.39	15.942
464.74	15.924
465.09	14.656
465.44	15.235
465.79	14.765
466.14	14.724
466.49	15.295
466.84	16.054
467.19	16.355
467.54	15.813
467.89	15.786
468.24	15.590
468.59	15.507
468.94	15.272
469.29	15.424
469.64	17.470
469.99	16.103
470.34	15.588
470.68	16.451
471.03	17.007
471.38	16.817
471.73	17.122
472.08	16.711
472.43	16.583
472.78	16.195
473.13	16.752
473.48	16.854
473.83	16.037
474.17	15.370
474.52	16.253
474.87	16.988
475.22	16.367
475.57	16.174
475.92	15.348
476.27	15.502
476.61	16.106
476.96	15.063
477.31	15.646
477.66	16.247
478.01	15.630
478.36	16.182
478.70	15.213
479.05	15.442
479.40	15.558
479.75	16.472
480.10	15.507
480.45	15.612
480.79	15.241
481.14	15.802
481.49	15.662
481.84	15.181
482.19	14.993
482.53	15.092
482.88	16.007
483.23	15.327
483.58	15.833
483.92	15.604
484.27	15.120
484.62	15.302
484.97	15.057
485.31	15.240
485.66	13.791
486.01	12.915
486.36	12.536
486.70	12.463
487.05	13.171
487.40	13.764
487.75	14.376
488.09	14.134
488.44	14.443
488.79	15.624
489.13	15.279
489.48	14.356
489.83	14.588
490.17	16.089
490.52	15.810
490.87	15.378
491.22	14.779
491.56	14.624
491.91	15.030
492.26	15.158
492.60	15.207
492.95	14.780
493.30	15.093
493.64	15.306
493.99	15.274
494.34	15.587
494.68	15.980
495.03	16.729
495.37	15.821
495.72	15.351
496.07	15.220
496.41	14.690
496.76	14.776
497.11	15.173
497.45	15.091
497.80	15.643
498.14	15.556
498.49	15.805
498.84	15.628
499.18	14.905
499.53	15.005
499.87	15.331
500.22	15.827
500.56	16.456
500.91	15.144
501.26	15.695
501.60	15.710
501.95	14.940
502.29	16.307
502.64	15.317
502.98	15.802
503.33	15.676
503.67	15.313
504.02	15.154
504.36	16.004
504.71	15.926
505.06	16.096
505.40	15.751
505.75	16.635
506.09	15.743
506.44	15.639
506.78	15.441
507.13	16.406
507.47	16.515
507.82	15.805
508.16	16.667
508.51	16.032
508.85	15.690
509.19	16.071
509.54	16.531
509.88	15.971
510.23	16.093
510.57	16.512
510.92	15.847
511.26	16.393
511.61	16.338
511.95	15.710
512.30	15.270
512.64	16.550
512.98	16.613
513.33	16.916
513.67	16.435
514.02	16.180
514.36	16.384
514.70	16.602
515.05	16.509
515.39	17.330
515.74	16.892
516.08	17.999
516.42	17.481
516.77	17.781
517.11	15.982
517.46	17.156
517.80	17.247
518.14	16.792
518.49	16.336
518.83	16.989
519.17	16.859
519.52	17.035
519.86	17.855
520.20	17.283
520.55	17.594
520.89	17.701
521.23	18.516
521.58	18.427
521.92	16.901
522.26	17.084
522.61	17.508
522.95	17.373
523.29	17.468
523.64	18.293
523.98	18.299
524.32	18.516
524.66	18.100
525.01	18.321
525.35	17.782
525.69	17.611
526.04	17.321
526.38	17.999
526.72	18.037
527.06	18.016
527.41	16.770
527.75	18.392
528.09	18.561
528.43	18.993
528.78	18.992
529.12	17.394
529.46	19.045
529.80	18.626
530.15	18.006
530.49	17.600
530.83	17.848
531.17	19.386
531.51	18.936
531.86	18.452
532.20	18.449
532.54	19.218
532.88	19.063
533.22	18.301
533.57	17.531
533.91	17.700
534.25	17.922
534.59	17.389
534.93	17.311
535.27	17.803
535.62	18.254
535.96	18.393
536.30	17.546
536.64	18.094
536.98	18.182
537.32	18.631
537.66	17.867
538.01	18.367
538.35	18.940
538.69	19.145
539.03	17.544
539.37	17.955
539.71	16.656
540.05	18.627
540.39	17.209
540.73	17.658
541.07	19.338
541.42	18.200
541.76	19.097
542.10	17.788
542.44	17.483
542.78	18.643
543.12	17.850
543.46	17.115
543.80	17.502
544.14	16.945
544.48	18.222
544.82	18.024
545.16	17.567
545.50	18.380
545.84	17.608
546.18	18.653
546.52	18.995
546.86	18.351
547.20	18.071
547.54	18.971
547.88	18.814
548.22	17.870
548.56	17.421
548.90	17.478
549.24	17.980
549.58	18.486
549.92	18.475
550.26	18.111
550.60	18.257
550.94	18.732
551.28	18.361
551.62	18.979
551.96	18.246
552.30	18.294
552.64	17.985
552.98	18.576
553.32	18.881
553.66	19.018
554.00	18.531
554.34	18.219
554.68	18.670
555.02	17.630
555.36	19.137
555.69	17.997
556.03	17.362
556.37	18.622
556.71	18.417
557.05	18.067
557.39	19.524
557.73	18.490
558.07	19.289
558.41	18.017
558.75	18.883
559.08	18.941
559.42	18.745
559.76	18.824
560.10	18.201
560.44	18.029
560.78	18.363
561.12	17.876
561.45	18.840
561.79	18.326
562.13	17.975
562.47	18.169
562.81	18.201
563.15	17.726
563.48	18.369
563.82	18.526
564.16	17.528
564.50	17.318
564.84	17.257
565.17	17.825
565.51	17.827
565.85	17.703
566.19	16.719
566.52	17.796
566.86	16.757
567.20	17.571
567.54	17.295
567.88	16.024
568.21	17.143
568.55	16.481
568.89	16.634
569.23	16.087
569.56	15.547
569.90	15.434
570.24	15.106
570.57	14.757
570.91	14.867
571.25	14.237
571.59	14.786
571.92	14.459
572.26	14.327
572.60	14.625
572.93	14.303
573.27	14.493
573.61	14.964
573.95	14.367
574.28	14.020
574.62	14.334
574.96	13.740
575.29	13.894
575.63	13.897
575.97	13.929
576.30	14.100
576.64	14.001
576.98	14.123
577.31	13.817
577.65	13.572
577.98	13.309
578.32	13.284
578.66	13.899
578.99	13.878
579.33	13.725
579.67	13.963
580.00	14.145
580.34	13.953
580.67	14.181
581.01	14.167
581.35	13.663
581.68	13.446
582.02	12.909
582.35	13.363
582.69	13.436
583.02	13.831
583.36	13.904
583.70	14.036
584.03	14.446
584.37	14.862
584.70	14.185
585.04	13.772
585.37	13.607
585.71	13.816
586.04	13.916
586.38	13.767
586.72	14.582
587.05	13.610
587.39	13.668
587.72	14.249
588.06	13.981
588.39	14.568
588.73	14.344
589.06	15.051
589.40	14.343
589.73	14.960
590.07	15.018
590.40	14.907
590.73	15.027
591.07	15.751
591.40	15.816
591.74	16.364
592.07	15.707
592.41	15.626
592.74	14.869
593.08	14.957
593.41	14.742
593.75	13.929
594.08	14.247
594.41	14.175
594.75	14.824
595.08	14.460
595.42	14.711
595.75	14.494
596.09	15.434
596.42	15.953
596.75	15.450
597.09	16.364
597.42	14.924
597.75	15.567
598.09	15.478
598.42	14.734
598.76	15.120
599.09	14.253
599.42	14.447
599.76	14.898
600.09	14.390
600.42	14.573
600.76	14.393
601.09	14.645
601.42	14.422
601.76	15.028
602.09	14.822
602.42	14.809
602.76	15.518
603.09	14.713
603.42	15.072
603.76	14.710
604.09	14.734
604.42	14.431
604.76	15.268
605.09	15.596
605.42	14.664
605.75	14.652
606.09	14.477
606.42	14.467
606.75	14.973
607.09	15.320
607.42	15.062
607.75	14.557
608.08	14.633
608.42	15.419
608.75	15.284
609.08	14.662
609.41	15.850
609.75	15.484
610.08	15.975
610.41	14.804
610.74	14.948
611.07	15.168
611.41	16.094
611.74	16.189
612.07	16.149
612.40	16.002
612.73	15.632
613.07	15.841
613.40	16.114
613.73	14.473
614.06	15.914
614.39	16.046
614.72	15.579
615.06	16.229
615.39	15.711
615.72	15.031
616.05	15.045
616.38	16.009
616.71	16.152
617.05	16.254
617.38	16.115
617.71	15.916
618.04	16.647
618.37	16.203
618.70	16.988
619.03	17.434
619.36	16.565
619.69	17.394
620.03	17.926
620.36	17.112
620.69	17.808
621.02	17.552
621.35	18.011
621.68	16.433
622.01	17.957
622.34	17.700
622.67	17.490
623.00	16.801
623.33	17.227
623.66	17.298
623.99	16.789
624.32	17.190
624.65	16.525
624.99	16.147
625.32	16.799
625.65	17.355
625.98	17.064
626.31	18.663
626.64	18.367
626.97	18.371
627.30	17.539
627.63	18.458
627.96	18.167
628.29	17.410
628.62	18.847
628.95	20.472
629.28	18.978
629.61	19.432
629.94	19.143
630.26	17.731
630.59	19.733
630.92	18.582
631.25	18.559
631.58	19.319
631.91	17.546
632.24	18.460
