SpectraSuite Data File
++++++++++++++++++++++++++++++++++++
Date: Wed May 13 16:34:15 PDT 2015
User: schluterlab
Dark Spectrum Present: Yes
Reference Spectrum Present: Yes
Number of Sampled Component Spectra: 1
Spectrometers: USB2E3373
Integration Time (usec): 3000 (USB2E3373)
Spectra Averaged: 3 (USB2E3373)
Boxcar Smoothing: 0 (USB2E3373)
Correct for Electrical Dark: No (USB2E3373)
Strobe/Lamp Enabled: No (USB2E3373)
Correct for Detector Non-linearity: No (USB2E3373)
Correct for Stray Light: No (USB2E3373)
Number of Pixels in Processed Spectrum: 2048
>>>>>Begin Processed Spectral Data<<<<<
178.53	0.000
178.91	-1050.000
179.29	-1200.000
179.67	-211.111
180.04	-1150.000
180.42	2500.000
180.80	1020.000
181.18	-850.000
181.56	742.857
181.94	0.000
182.31	-714.286
182.69	1633.333
183.07	-587.500
183.45	-511.111
183.83	472.727
184.20	-340.000
184.58	2600.000
184.96	4800.000
185.34	-800.000
185.72	-637.500
186.09	-2450.000
186.47	2450.000
186.85	2450.000
187.23	5500.000
187.61	-1633.333
187.98	1325.000
188.36	518.182
188.74	509.091
189.12	-720.000
189.49	490.000
189.87	-4400.000
190.25	-1150.000
190.63	385.714
191.00	369.231
191.38	800.000
191.76	-1225.000
192.14	1450.000
192.51	512.500
192.89	866.667
193.27	737.500
193.65	-1150.000
194.02	480.000
194.40	640.000
194.78	460.000
195.15	516.667
195.53	610.000
195.91	-2000.000
196.29	306.250
196.66	278.947
197.04	-330.000
197.42	0.000
197.79	620.000
198.17	-5500.000
198.55	585.714
198.92	662.500
199.30	800.000
199.68	0.000
200.05	355.556
200.43	700.000
200.81	4900.000
201.18	1300.000
201.56	-1400.000
201.94	544.444
202.31	566.667
202.69	416.667
203.07	530.000
203.44	0.000
203.82	1325.000
204.19	700.000
204.57	385.714
204.95	700.000
205.32	1500.000
205.70	463.636
206.08	400.000
206.45	2900.000
206.83	331.250
207.20	716.667
207.58	820.000
207.96	327.778
208.33	700.000
208.71	-816.667
209.08	757.143
209.46	611.111
209.84	390.909
210.21	-1500.000
210.59	1075.000
210.96	-462.500
211.34	2450.000
211.71	640.000
212.09	716.667
212.46	0.000
212.84	1200.000
213.22	1100.000
213.59	-4100.000
213.97	833.333
214.34	757.143
214.72	636.364
215.09	880.000
215.47	-2300.000
215.84	-2150.000
216.22	1600.000
216.59	478.571
216.97	1350.000
217.34	363.636
217.72	-716.667
218.09	0.000
218.47	-4400.000
218.84	633.333
219.22	728.571
219.59	1866.667
219.97	-585.714
220.34	1120.000
220.72	-1533.333
221.09	378.571
221.47	1525.000
221.84	-1083.333
222.22	0.000
222.59	1350.000
222.97	-1900.000
223.34	1240.000
223.72	300.000
224.09	1020.000
224.46	2250.000
224.84	-4600.000
225.21	-1000.000
225.59	-4000.000
225.96	540.000
226.34	285.000
226.71	2550.000
227.08	500.000
227.46	530.000
227.83	-975.000
228.21	-1800.000
228.58	566.667
228.95	-2100.000
229.33	-1850.000
229.70	1566.667
230.08	742.857
230.45	-920.000
230.82	416.667
231.20	733.333
231.57	642.857
231.95	458.333
232.32	295.455
232.69	336.364
233.07	657.143
233.44	338.462
233.81	-1300.000
234.19	252.632
234.56	425.000
234.93	433.333
235.31	427.273
235.68	384.615
236.05	321.429
236.43	206.061
236.80	268.421
237.17	4600.000
237.55	204.762
237.92	203.571
238.29	185.714
238.67	151.613
239.04	193.103
239.41	122.222
239.79	104.348
240.16	154.762
240.53	138.636
240.91	94.118
241.28	100.000
241.65	86.000
242.02	86.957
242.40	91.935
242.77	88.333
243.14	79.570
243.51	68.539
243.89	69.412
244.26	53.333
244.63	68.817
245.00	65.957
245.38	58.416
245.75	52.336
246.12	52.294
246.49	58.394
246.87	55.200
247.24	56.923
247.61	50.714
247.98	46.405
248.36	41.892
248.73	38.854
249.10	50.955
249.47	40.113
249.84	44.385
250.22	40.107
250.59	37.278
250.96	38.384
251.33	41.706
251.70	43.069
252.08	41.905
252.45	37.668
252.82	36.087
253.19	38.723
253.56	34.902
253.94	36.515
254.31	36.719
254.68	36.538
255.05	29.520
255.42	36.179
255.79	33.824
256.16	32.491
256.54	30.742
256.91	33.808
257.28	26.978
257.65	30.363
258.02	34.472
258.39	29.653
258.76	32.441
259.14	33.929
259.51	31.003
259.88	29.503
260.25	29.909
260.62	29.480
260.99	26.708
261.36	32.432
261.73	27.507
262.10	27.616
262.47	32.113
262.85	30.641
263.22	27.066
263.59	29.345
263.96	29.121
264.33	27.937
264.70	27.895
265.07	28.389
265.44	27.273
265.81	27.494
266.18	30.151
266.55	26.341
266.92	28.501
267.29	27.083
267.66	27.752
268.03	28.636
268.40	25.935
268.77	26.253
269.14	23.874
269.51	27.765
269.88	26.573
270.25	24.379
270.62	24.270
270.99	30.108
271.36	25.751
271.73	26.636
272.10	24.130
272.47	27.957
272.84	27.706
273.21	22.851
273.58	23.144
273.95	25.157
274.32	25.620
274.69	26.124
275.06	23.425
275.43	25.745
275.80	23.246
276.17	23.829
276.54	26.819
276.91	24.506
277.28	25.391
277.65	22.437
278.02	22.981
278.39	26.562
278.76	24.909
279.13	23.962
279.50	24.395
279.87	23.307
280.23	23.154
280.60	22.824
280.97	21.442
281.34	22.832
281.71	25.818
282.08	25.720
282.45	22.545
282.82	23.091
283.19	21.925
283.56	25.088
283.92	25.888
284.29	22.046
284.66	24.138
285.03	22.966
285.40	22.359
285.77	23.064
286.14	24.007
286.51	22.833
286.87	22.393
287.24	23.453
287.61	21.830
287.98	23.539
288.35	21.712
288.72	23.053
289.08	22.222
289.45	20.593
289.82	21.463
290.19	20.094
290.56	22.052
290.93	20.242
291.29	22.239
291.66	22.124
292.03	24.709
292.40	24.523
292.77	21.154
293.13	22.239
293.50	23.615
293.87	20.593
294.24	20.148
294.60	20.961
294.97	20.058
295.34	22.426
295.71	20.312
296.08	19.516
296.44	20.908
296.81	21.532
297.18	22.764
297.55	19.525
297.91	20.844
298.28	22.624
298.65	23.107
299.02	21.739
299.38	21.647
299.75	19.811
300.12	20.817
300.48	20.625
300.85	21.702
301.22	20.892
301.59	20.581
301.95	20.781
302.32	21.053
302.69	19.952
303.05	20.848
303.42	21.728
303.79	21.744
304.15	20.746
304.52	20.394
304.89	22.184
305.25	22.622
305.62	21.971
305.99	23.259
306.35	21.700
306.72	23.318
307.09	22.531
307.45	23.086
307.82	22.656
308.19	23.068
308.55	24.164
308.92	23.738
309.29	22.809
309.65	23.542
310.02	23.996
310.38	24.194
310.75	24.604
311.12	25.998
311.48	25.392
311.85	26.205
312.22	25.494
312.58	26.195
312.95	27.666
313.31	24.951
313.68	27.547
314.05	28.895
314.41	29.447
314.78	28.600
315.14	29.096
315.51	28.939
315.87	29.505
316.24	30.785
316.61	30.409
316.97	30.333
317.34	30.920
317.70	32.887
318.07	31.954
318.43	34.149
318.80	33.365
319.16	34.087
319.53	34.146
319.89	35.048
320.26	37.100
320.62	36.508
320.99	37.576
321.35	38.889
321.72	38.809
322.08	39.882
322.45	42.289
322.81	42.636
323.18	43.256
323.54	43.506
323.91	43.774
324.27	44.646
324.64	46.971
325.00	46.979
325.37	49.136
325.73	49.372
326.10	49.603
326.46	51.703
326.83	52.028
327.19	52.007
327.56	54.007
327.92	55.118
328.29	55.368
328.65	57.735
329.01	56.408
329.38	58.927
329.74	57.895
330.11	59.189
330.47	59.045
330.84	58.640
331.20	61.202
331.56	59.633
331.93	63.241
332.29	62.378
332.66	61.062
333.02	61.974
333.38	62.421
333.75	62.567
334.11	61.833
334.48	63.088
334.84	64.706
335.20	64.727
335.57	63.101
335.93	65.179
336.29	64.835
336.66	65.645
337.02	63.258
337.38	66.759
337.75	65.241
338.11	62.847
338.47	67.495
338.84	66.086
339.20	64.495
339.56	67.518
339.93	67.091
340.29	65.942
340.65	67.201
341.02	67.190
341.38	68.950
341.74	66.491
342.11	67.074
342.47	68.018
342.83	67.123
343.20	67.792
343.56	66.049
343.92	68.772
344.28	67.007
344.65	69.304
345.01	67.677
345.37	67.153
345.73	69.712
346.10	68.883
346.46	69.492
346.82	69.605
347.19	69.507
347.55	69.294
347.91	69.256
348.27	71.569
348.63	69.732
349.00	69.903
349.36	70.443
349.72	69.206
350.08	70.016
350.45	69.081
350.81	70.349
351.17	69.692
351.53	70.270
351.89	69.884
352.26	71.586
352.62	71.532
352.98	70.178
353.34	70.419
353.70	71.440
354.07	72.581
354.43	70.635
354.79	71.521
355.15	72.067
355.51	74.101
355.87	72.980
356.24	73.779
356.60	70.650
356.96	73.371
357.32	73.590
357.68	72.992
358.04	71.892
358.40	72.526
358.77	72.770
359.13	72.060
359.49	74.275
359.85	74.683
360.21	74.163
360.57	73.152
360.93	75.231
361.29	75.359
361.66	73.684
362.02	74.701
362.38	75.437
362.74	74.256
363.10	74.093
363.46	73.808
363.82	74.452
364.18	74.890
364.54	76.300
364.90	75.496
365.26	75.515
365.62	76.991
365.98	75.822
366.35	76.003
366.71	77.874
367.07	76.621
367.43	77.431
367.79	77.944
368.15	77.658
368.51	77.253
368.87	77.587
369.23	76.957
369.59	77.190
369.95	78.382
370.31	76.496
370.67	77.681
371.03	78.502
371.39	80.102
371.75	78.897
372.11	76.387
372.47	78.592
372.83	80.764
373.19	78.468
373.55	80.562
373.91	80.781
374.27	78.969
374.63	80.218
374.99	80.014
375.35	79.553
375.71	79.027
376.07	80.041
376.42	80.193
376.78	80.915
377.14	80.801
377.50	80.728
377.86	80.452
378.22	80.215
378.58	79.574
378.94	81.458
379.30	80.980
379.66	81.599
380.02	80.774
380.38	81.664
380.74	82.893
381.09	82.885
381.45	83.712
381.81	82.371
382.17	82.739
382.53	83.019
382.89	83.210
383.25	83.177
383.61	85.564
383.97	84.178
384.32	83.718
384.68	83.829
385.04	84.204
385.40	83.777
385.76	84.029
386.12	85.492
386.48	84.204
386.83	86.466
387.19	87.941
387.55	85.652
387.91	83.797
388.27	84.795
388.62	85.741
388.98	83.170
389.34	86.358
389.70	84.672
390.06	84.981
390.42	86.316
390.77	85.051
391.13	86.726
391.49	84.772
391.85	84.850
392.20	84.732
392.56	86.048
392.92	86.875
393.28	84.083
393.64	85.132
393.99	85.278
394.35	85.112
394.71	84.316
395.07	84.237
395.42	86.032
395.78	84.288
396.14	86.158
396.50	85.025
396.85	86.904
397.21	83.785
397.57	86.051
397.92	84.856
398.28	84.417
398.64	83.393
399.00	85.003
399.35	83.192
399.71	84.086
400.07	84.861
400.42	85.092
400.78	82.630
401.14	83.963
401.49	84.716
401.85	83.666
402.21	82.275
402.57	84.022
402.92	84.237
403.28	84.385
403.63	84.901
403.99	84.968
404.35	82.848
404.70	83.393
405.06	82.411
405.42	82.221
405.77	82.571
406.13	81.546
406.49	82.555
406.84	82.634
407.20	81.383
407.55	82.514
407.91	84.067
408.27	84.620
408.62	81.156
408.98	82.659
409.34	82.042
409.69	83.290
410.05	82.838
410.40	81.835
410.76	80.645
411.11	80.519
411.47	81.917
411.83	80.696
412.18	80.891
412.54	81.382
412.89	81.627
413.25	81.228
413.60	82.458
413.96	79.356
414.31	79.587
414.67	80.989
415.03	80.861
415.38	80.928
415.74	81.286
416.09	82.299
416.45	81.660
416.80	81.824
417.16	81.501
417.51	81.951
417.87	80.411
418.22	81.893
418.58	79.987
418.93	80.897
419.29	80.586
419.64	80.919
420.00	80.671
420.35	79.072
420.71	80.514
421.06	80.310
421.42	80.058
421.77	79.596
422.12	79.113
422.48	79.763
422.83	80.023
423.19	79.779
423.54	80.847
423.90	80.232
424.25	79.229
424.61	79.405
424.96	80.466
425.31	78.848
425.67	77.865
426.02	78.514
426.38	80.403
426.73	78.935
427.09	80.973
427.44	80.334
427.79	79.701
428.15	79.345
428.50	78.116
428.85	80.334
429.21	79.569
429.56	79.108
429.92	78.460
430.27	78.352
430.62	77.675
430.98	77.582
431.33	77.577
431.68	78.010
432.04	77.210
432.39	79.612
432.74	80.132
433.10	80.589
433.45	79.592
433.80	79.268
434.16	77.137
434.51	75.158
434.86	78.677
435.22	79.655
435.57	78.967
435.92	79.169
436.28	79.181
436.63	78.642
436.98	78.649
437.34	78.295
437.69	78.646
438.04	78.977
438.39	77.910
438.75	78.791
439.10	79.050
439.45	77.981
439.81	78.792
440.16	75.720
440.51	78.325
440.86	77.591
441.22	77.642
441.57	77.070
441.92	76.868
442.27	77.503
442.63	76.303
442.98	77.521
443.33	77.065
443.68	77.852
444.03	77.160
444.39	76.047
444.74	76.840
445.09	77.251
445.44	76.326
445.79	76.200
446.15	74.907
446.50	74.960
446.85	76.670
447.20	76.594
447.55	76.996
447.91	76.558
448.26	75.459
448.61	75.240
448.96	76.744
449.31	76.772
449.66	76.196
450.02	76.100
450.37	75.624
450.72	75.691
451.07	74.528
451.42	74.225
451.77	76.042
452.12	74.654
452.47	75.311
452.83	74.942
453.18	73.900
453.53	76.190
453.88	74.956
454.23	74.178
454.58	75.288
454.93	76.351
455.28	74.252
455.63	75.303
455.98	75.536
456.34	74.121
456.69	75.454
457.04	74.923
457.39	74.284
457.74	73.709
458.09	73.606
458.44	73.489
458.79	72.343
459.14	73.251
459.49	71.862
459.84	73.352
460.19	72.775
460.54	70.660
460.89	73.012
461.24	74.378
461.59	73.329
461.94	72.873
462.29	72.760
462.64	71.602
462.99	71.113
463.34	73.467
463.69	72.483
464.04	72.406
464.39	70.435
464.74	70.469
465.09	70.145
465.44	70.637
465.79	70.694
466.14	69.677
466.49	68.354
466.84	69.644
467.19	68.678
467.54	69.938
467.89	69.268
468.24	70.448
468.59	70.818
468.94	68.723
469.29	70.630
469.64	70.147
469.99	71.110
470.34	70.013
470.68	70.905
471.03	70.068
471.38	71.369
471.73	68.954
472.08	69.276
472.43	68.781
472.78	69.454
473.13	69.063
473.48	68.539
473.83	68.841
474.17	68.264
474.52	68.300
474.87	69.235
475.22	66.976
475.57	68.726
475.92	67.552
476.27	67.869
476.61	68.064
476.96	67.620
477.31	66.719
477.66	67.341
478.01	66.336
478.36	67.372
478.70	64.538
479.05	66.667
479.40	67.503
479.75	66.955
480.10	66.451
480.45	65.588
480.79	64.214
481.14	66.536
481.49	65.638
481.84	64.838
482.19	65.652
482.53	63.899
482.88	65.147
483.23	64.252
483.58	64.149
483.92	65.745
484.27	63.007
484.62	64.009
484.97	63.106
485.31	64.932
485.66	63.127
486.01	59.156
486.36	56.800
486.70	55.216
487.05	57.578
487.40	59.448
487.75	59.858
488.09	61.056
488.44	61.241
488.79	63.327
489.13	62.720
489.48	63.540
489.83	62.408
490.17	63.262
490.52	61.249
490.87	63.591
491.22	62.210
491.56	61.139
491.91	62.913
492.26	61.185
492.60	61.014
492.95	61.225
493.30	60.607
493.64	62.669
493.99	61.328
494.34	61.748
494.68	62.042
495.03	61.889
495.37	60.772
495.72	62.378
496.07	61.810
496.41	59.912
496.76	61.170
497.11	59.163
497.45	59.991
497.80	60.797
498.14	61.063
498.49	60.976
498.84	60.690
499.18	59.619
499.53	60.019
499.87	60.065
500.22	59.915
500.56	60.291
500.91	59.423
501.26	59.175
501.60	60.560
501.95	58.753
502.29	59.888
502.64	58.287
502.98	60.122
503.33	58.090
503.67	57.401
504.02	59.448
504.36	58.025
504.71	58.818
505.06	58.795
505.40	57.997
505.75	57.763
506.09	58.649
506.44	58.954
506.78	57.915
507.13	59.061
507.47	59.192
507.82	59.220
508.16	58.764
508.51	59.310
508.85	57.547
509.19	59.082
509.54	58.061
509.88	57.032
510.23	58.252
510.57	59.133
510.92	57.587
511.26	57.297
511.61	58.195
511.95	56.628
512.30	57.529
512.64	58.248
512.98	58.146
513.33	57.816
513.67	56.777
514.02	57.522
514.36	57.510
514.70	57.665
515.05	58.282
515.39	58.441
515.74	58.953
516.08	57.686
516.42	57.492
516.77	58.250
517.11	56.104
517.46	58.070
517.80	58.653
518.14	57.383
518.49	57.526
518.83	57.045
519.17	57.506
519.52	57.046
519.86	57.102
520.20	57.052
520.55	58.169
520.89	58.151
521.23	59.228
521.58	56.423
521.92	57.134
522.26	56.742
522.61	58.006
522.95	56.354
523.29	56.969
523.64	56.463
523.98	56.254
524.32	56.152
524.66	56.645
525.01	55.576
525.35	56.939
525.69	55.296
526.04	54.704
526.38	56.376
526.72	55.337
527.06	57.690
527.41	53.589
527.75	56.785
528.09	57.739
528.43	56.597
528.78	56.054
529.12	55.091
529.46	56.216
529.80	55.446
530.15	56.760
530.49	54.154
530.83	55.190
531.17	55.940
531.51	55.901
531.86	56.258
532.20	55.541
532.54	54.388
532.88	55.327
533.22	53.342
533.57	53.210
533.91	54.907
534.25	54.010
534.59	54.301
534.93	53.123
535.27	54.617
535.62	52.259
535.96	54.049
536.30	53.274
536.64	54.024
536.98	54.612
537.32	53.588
537.66	53.600
538.01	53.720
538.35	52.941
538.69	53.159
539.03	52.112
539.37	52.524
539.71	51.264
540.05	53.856
540.39	52.292
540.73	52.005
541.07	53.342
541.42	54.077
541.76	53.484
542.10	53.364
542.44	54.371
542.78	53.426
543.12	50.288
543.46	51.410
543.80	51.919
544.14	50.706
544.48	51.429
544.82	52.213
545.16	51.854
545.50	51.864
545.84	51.277
546.18	51.717
546.52	52.237
546.86	52.440
547.20	51.989
547.54	52.705
547.88	50.191
548.22	51.183
548.56	49.245
548.90	50.384
549.24	51.313
549.58	51.228
549.92	52.060
550.26	53.054
550.60	51.452
550.94	50.563
551.28	51.134
551.62	52.049
551.96	50.877
552.30	50.853
552.64	51.792
552.98	51.254
553.32	50.101
553.66	50.375
554.00	50.377
554.34	50.242
554.68	51.574
555.02	51.058
555.36	49.061
555.69	48.917
556.03	50.000
556.37	50.887
556.71	49.045
557.05	50.630
557.39	50.735
557.73	49.682
558.07	50.979
558.41	50.651
558.75	50.037
559.08	49.590
559.42	51.474
559.76	51.324
560.10	48.680
560.44	50.035
560.78	49.501
561.12	49.077
561.45	49.413
561.79	47.924
562.13	48.826
562.47	49.249
562.81	49.093
563.15	48.829
563.48	48.408
563.82	49.054
564.16	49.379
564.50	47.786
564.84	48.736
565.17	47.490
565.51	47.796
565.85	46.510
566.19	46.838
566.52	48.575
566.86	46.715
567.20	48.762
567.54	46.861
567.88	45.519
568.21	46.772
568.55	46.158
568.89	45.039
569.23	44.162
569.56	43.563
569.90	42.981
570.24	42.626
570.57	42.095
570.91	41.694
571.25	41.167
571.59	41.178
571.92	40.956
572.26	40.930
572.60	41.231
572.93	40.690
573.27	41.733
573.61	41.374
573.95	41.111
574.28	39.196
574.62	40.136
574.96	39.689
575.29	39.646
575.63	40.117
575.97	40.016
576.30	40.786
576.64	40.030
576.98	39.840
577.31	40.481
577.65	39.370
577.98	38.882
578.32	38.523
578.66	38.658
578.99	39.375
579.33	39.361
579.67	38.871
580.00	38.983
580.34	39.630
580.67	39.352
581.01	39.172
581.35	39.047
581.68	38.330
582.02	37.887
582.35	38.174
582.69	38.014
583.02	38.565
583.36	39.497
583.70	40.160
584.03	40.152
584.37	40.211
584.70	39.577
585.04	39.310
585.37	38.910
585.71	39.168
586.04	39.019
586.38	39.472
586.72	39.878
587.05	39.609
587.39	39.235
587.72	39.139
588.06	38.874
588.39	39.698
588.73	40.188
589.06	41.072
589.40	40.741
589.73	40.444
590.07	40.356
590.40	40.409
590.73	41.530
591.07	42.165
591.40	41.712
591.74	41.688
592.07	41.318
592.41	40.761
592.74	40.037
593.08	40.007
593.41	38.532
593.75	38.289
594.08	38.921
594.41	39.731
594.75	40.222
595.08	39.406
595.42	40.420
595.75	39.957
596.09	40.368
596.42	40.589
596.75	41.452
597.09	41.342
597.42	40.472
597.75	40.837
598.09	41.130
598.42	40.593
598.76	39.724
599.09	39.035
599.42	38.210
599.76	39.605
600.09	39.016
600.42	38.678
600.76	37.929
601.09	38.288
601.42	38.699
601.76	38.710
602.09	39.368
602.42	39.530
602.76	39.702
603.09	40.873
603.42	39.906
603.76	39.367
604.09	38.969
604.42	39.788
604.76	39.561
605.09	39.930
605.42	38.863
605.75	38.907
606.09	38.593
606.42	39.232
606.75	39.361
607.09	39.389
607.42	39.324
607.75	38.987
608.08	39.036
608.42	40.072
608.75	39.540
609.08	38.159
609.41	39.505
609.75	39.162
610.08	39.962
610.41	39.804
610.74	40.114
611.07	39.773
611.41	39.401
611.74	39.970
612.07	41.097
612.40	40.766
612.73	40.368
613.07	41.164
613.40	40.600
613.73	39.381
614.06	40.376
614.39	40.115
614.72	39.368
615.06	40.599
615.39	39.703
615.72	40.235
616.05	39.234
616.38	39.188
616.71	41.508
617.05	42.167
617.38	40.409
617.71	41.261
618.04	40.986
618.37	39.681
618.70	40.759
619.03	41.908
619.36	41.548
619.69	42.113
620.03	43.613
620.36	42.714
620.69	42.534
621.02	42.478
621.35	43.305
621.68	42.445
622.01	42.570
622.34	43.116
622.67	43.270
623.00	42.040
623.33	42.173
623.66	41.816
623.99	42.121
624.32	41.726
624.65	40.395
624.99	41.643
625.32	40.333
625.65	40.947
625.98	43.121
626.31	42.924
626.64	43.918
626.97	43.558
627.30	42.727
627.63	44.709
627.96	43.902
628.29	43.482
628.62	44.007
628.95	46.321
629.28	44.617
629.61	44.730
629.94	42.857
630.26	43.851
630.59	44.995
630.92	45.115
