SpectraSuite Data File
++++++++++++++++++++++++++++++++++++
Date: Wed May 13 16:41:11 PDT 2015
User: schluterlab
Dark Spectrum Present: Yes
Reference Spectrum Present: Yes
Number of Sampled Component Spectra: 1
Spectrometers: USB2E3373
Integration Time (usec): 3000 (USB2E3373)
Spectra Averaged: 3 (USB2E3373)
Boxcar Smoothing: 0 (USB2E3373)
Correct for Electrical Dark: No (USB2E3373)
Strobe/Lamp Enabled: No (USB2E3373)
Correct for Detector Non-linearity: No (USB2E3373)
Correct for Stray Light: No (USB2E3373)
Number of Pixels in Processed Spectrum: 2048
>>>>>Begin Processed Spectral Data<<<<<
178.53	0.000
178.91	-1150.000
179.29	-1050.000
179.67	-233.333
180.04	-1500.000
180.42	2550.000
180.80	1240.000
181.18	-1150.000
181.56	571.429
181.94	0.000
182.31	-785.714
182.69	1600.000
183.07	-562.500
183.45	-555.556
183.83	500.000
184.20	-450.000
184.58	2200.000
184.96	5300.000
185.34	-820.000
185.72	-650.000
186.09	-2500.000
186.47	2750.000
186.85	2650.000
187.23	5000.000
187.61	-1733.333
187.98	1275.000
188.36	563.636
188.74	545.455
189.12	-880.000
189.49	630.000
189.87	-4900.000
190.25	-1175.000
190.63	421.429
191.00	469.231
191.38	950.000
191.76	-1225.000
192.14	1675.000
192.51	600.000
192.89	900.000
193.27	625.000
193.65	-1000.000
194.02	640.000
194.40	800.000
194.78	530.000
195.15	575.000
195.53	690.000
195.91	-2100.000
196.29	350.000
196.66	352.632
197.04	-320.000
197.42	0.000
197.79	730.000
198.17	-4500.000
198.55	742.857
198.92	862.500
199.30	1080.000
199.68	0.000
200.05	300.000
200.43	728.571
200.81	4200.000
201.18	1633.333
201.56	-1933.333
201.94	555.556
202.31	633.333
202.69	450.000
203.07	580.000
203.44	0.000
203.82	1200.000
204.19	785.714
204.57	407.143
204.95	687.500
205.32	1600.000
205.70	554.545
206.08	400.000
206.45	2800.000
206.83	368.750
207.20	966.667
207.58	660.000
207.96	350.000
208.33	712.500
208.71	-800.000
209.08	771.429
209.46	633.333
209.84	500.000
210.21	-1500.000
210.59	1200.000
210.96	-412.500
211.34	2750.000
211.71	580.000
212.09	833.333
212.46	0.000
212.84	1766.667
213.22	1300.000
213.59	-4200.000
213.97	700.000
214.34	771.429
214.72	600.000
215.09	920.000
215.47	-2450.000
215.84	-2300.000
216.22	1633.333
216.59	378.571
216.97	1250.000
217.34	500.000
217.72	-783.333
218.09	0.000
218.47	-4400.000
218.84	644.444
219.22	785.714
219.59	1500.000
219.97	-628.571
220.34	1100.000
220.72	-1633.333
221.09	442.857
221.47	1450.000
221.84	-850.000
222.22	0.000
222.59	1550.000
222.97	-2500.000
223.34	940.000
223.72	500.000
224.09	1140.000
224.46	1850.000
224.84	-5000.000
225.21	-940.000
225.59	-4300.000
225.96	550.000
226.34	320.000
226.71	2600.000
227.08	650.000
227.46	510.000
227.83	-1025.000
228.21	-2550.000
228.58	600.000
228.95	-2550.000
229.33	-2100.000
229.70	1666.667
230.08	771.429
230.45	-860.000
230.82	416.667
231.20	766.667
231.57	771.429
231.95	525.000
232.32	259.091
232.69	445.455
233.07	628.571
233.44	430.769
233.81	-1333.333
234.19	294.737
234.56	450.000
234.93	408.333
235.31	545.455
235.68	361.538
236.05	407.143
236.43	187.879
236.80	336.842
237.17	5600.000
237.55	295.238
237.92	239.286
238.29	285.714
238.67	212.903
239.04	248.276
239.41	180.556
239.79	141.304
240.16	178.571
240.53	172.727
240.91	137.255
241.28	120.000
241.65	136.000
242.02	124.638
242.40	138.710
242.77	126.667
243.14	90.323
243.51	111.236
243.89	103.529
244.26	92.222
244.63	96.774
245.00	100.000
245.38	88.119
245.75	102.804
246.12	88.991
246.49	93.431
246.87	86.400
247.24	90.000
247.61	82.143
247.98	69.281
248.36	71.622
248.73	75.159
249.10	77.707
249.47	72.316
249.84	73.262
250.22	70.053
250.59	69.822
250.96	72.222
251.33	69.194
251.70	69.307
252.08	63.810
252.45	67.713
252.82	64.783
253.19	64.255
253.56	60.784
253.94	70.954
254.31	66.016
254.68	61.154
255.05	59.410
255.42	65.041
255.79	63.971
256.16	59.567
256.54	59.011
256.91	61.922
257.28	60.791
257.65	60.066
258.02	60.248
258.39	56.467
258.76	63.211
259.14	58.036
259.51	55.623
259.88	57.143
260.25	61.934
260.62	55.491
260.99	56.211
261.36	58.859
261.73	56.447
262.10	58.430
262.47	58.592
262.85	54.318
263.22	55.271
263.59	59.544
263.96	56.044
264.33	55.875
264.70	55.789
265.07	54.987
265.44	53.788
265.81	51.338
266.18	56.281
266.55	54.146
266.92	57.248
267.29	54.630
267.66	51.606
268.03	52.955
268.40	52.570
268.77	50.835
269.14	55.180
269.51	53.950
269.88	55.711
270.25	52.596
270.62	51.461
270.99	53.333
271.36	54.721
271.73	57.944
272.10	51.739
272.47	53.548
272.84	52.381
273.21	49.895
273.58	51.965
273.95	49.476
274.32	51.446
274.69	52.248
275.06	50.197
275.43	54.894
275.80	51.904
276.17	51.120
276.54	55.094
276.91	49.012
277.28	49.023
277.65	48.162
278.02	51.139
278.39	50.781
278.76	47.273
279.13	50.000
279.50	48.231
279.87	48.805
280.23	51.697
280.60	49.710
280.97	48.429
281.34	50.796
281.71	48.909
282.08	48.752
282.45	47.455
282.82	48.668
283.19	45.989
283.56	48.246
283.92	50.761
284.29	49.383
284.66	47.913
285.03	46.655
285.40	47.007
285.77	46.128
286.14	47.323
286.51	49.000
286.87	47.692
287.24	46.417
287.61	45.425
287.98	45.130
288.35	44.057
288.72	43.458
289.08	44.601
289.45	44.975
289.82	44.715
290.19	42.229
290.56	43.032
290.93	40.937
291.29	42.791
291.66	43.215
292.03	42.442
292.40	40.822
292.77	40.680
293.13	39.552
293.50	42.274
293.87	41.037
294.24	37.926
294.60	37.846
294.97	38.953
295.34	39.069
295.71	37.074
296.08	37.464
296.44	40.028
296.81	37.517
297.18	37.263
297.55	36.280
297.91	36.544
298.28	38.286
298.65	37.728
299.02	38.867
299.38	34.794
299.75	36.388
300.12	36.526
300.48	36.000
300.85	35.142
301.22	35.796
301.59	32.828
301.95	35.264
302.32	34.917
302.69	35.125
303.05	33.576
303.42	35.185
303.79	35.108
304.15	34.149
304.52	33.024
304.89	32.520
305.25	34.571
305.62	33.975
305.99	33.648
306.35	33.333
306.72	34.081
307.09	34.073
307.45	35.360
307.82	31.808
308.19	33.002
308.55	34.736
308.92	31.579
309.29	32.418
309.65	33.616
310.02	32.347
310.38	32.366
310.75	32.101
311.12	32.651
311.48	32.288
311.85	33.438
312.22	31.426
312.58	31.809
312.95	33.052
313.31	30.291
313.68	32.121
314.05	32.939
314.41	32.965
314.78	31.521
315.14	31.579
315.51	33.162
315.87	32.376
316.24	30.983
316.61	31.384
316.97	31.996
317.34	31.311
317.70	32.600
318.07	31.858
318.43	32.387
318.80	32.334
319.16	31.262
319.53	30.769
319.89	33.143
320.26	31.500
320.62	32.540
320.99	32.424
321.35	33.838
321.72	33.060
322.08	33.268
322.45	33.930
322.81	31.880
323.18	33.911
323.54	31.447
323.91	31.698
324.27	31.071
324.64	31.128
325.00	31.380
325.37	31.574
325.73	32.226
326.10	32.039
326.46	31.720
326.83	32.787
327.19	31.512
327.56	31.185
327.92	31.146
328.29	31.943
328.65	30.847
329.01	31.588
329.38	33.117
329.74	31.025
330.11	32.234
330.47	32.507
330.84	31.066
331.20	30.055
331.56	32.018
331.93	30.833
332.29	30.346
332.66	30.796
333.02	30.987
333.38	31.707
333.75	32.620
334.11	31.851
334.48	31.766
334.84	32.996
335.20	31.182
335.57	30.734
335.93	30.089
336.29	30.586
336.66	30.929
337.02	30.860
337.38	31.389
337.75	30.125
338.11	29.722
338.47	31.400
338.84	29.973
339.20	30.000
339.56	31.843
339.93	31.455
340.29	30.072
340.65	30.303
341.02	30.105
341.38	30.872
341.74	29.649
342.11	30.480
342.47	30.396
342.83	28.596
343.20	30.909
343.56	29.655
343.92	29.737
344.28	28.997
344.65	30.009
345.01	30.135
345.37	28.130
345.73	30.203
346.10	29.582
346.46	29.322
346.82	29.160
347.19	29.657
347.55	29.475
347.91	28.479
348.27	29.499
348.63	28.428
349.00	30.178
349.36	29.146
349.72	28.789
350.08	28.606
350.45	29.862
350.81	30.057
351.17	29.498
351.53	28.665
351.89	27.475
352.26	28.808
352.62	27.747
352.98	28.120
353.34	29.581
353.70	28.560
354.07	27.339
354.43	28.175
354.79	27.112
355.15	28.252
355.51	28.857
355.87	29.388
356.24	27.524
356.60	27.426
356.96	27.595
357.32	28.209
357.68	27.795
358.04	27.870
358.40	28.424
358.77	27.700
359.13	28.414
359.49	28.235
359.85	27.222
360.21	27.512
360.57	28.249
360.93	27.462
361.29	28.571
361.66	26.393
362.02	27.463
362.38	27.376
362.74	27.827
363.10	27.387
363.46	26.486
363.82	27.135
364.18	27.386
364.54	28.158
364.90	27.266
365.26	28.015
365.62	28.269
365.98	26.662
366.35	25.788
366.71	26.826
367.07	27.094
367.43	27.866
367.79	27.837
368.15	27.730
368.51	26.817
368.87	26.410
369.23	26.847
369.59	28.530
369.95	26.912
370.31	26.638
370.67	26.304
371.03	28.315
371.39	27.187
371.75	26.838
372.11	26.174
372.47	27.639
372.83	27.233
373.19	26.228
373.55	27.199
373.91	27.761
374.27	25.911
374.63	27.564
374.99	27.331
375.35	27.146
375.71	27.005
376.07	27.641
376.42	26.135
376.78	27.634
377.14	27.544
377.50	26.821
377.86	26.396
378.22	27.244
378.58	25.815
378.94	26.021
379.30	26.845
379.66	27.538
380.02	26.229
380.38	27.505
380.74	27.611
381.09	26.528
381.45	27.289
381.81	27.088
382.17	28.089
382.53	27.107
382.89	28.457
383.25	27.330
383.61	28.005
383.97	27.705
384.32	27.074
384.68	26.952
385.04	27.289
385.40	27.926
385.76	27.273
386.12	27.526
386.48	27.376
386.83	27.774
387.19	27.582
387.55	27.273
387.91	26.965
388.27	27.590
388.62	27.843
388.98	27.396
389.34	27.785
389.70	28.265
390.06	28.834
390.42	27.497
390.77	28.053
391.13	27.569
391.49	28.109
391.85	28.071
392.20	26.814
392.56	28.093
392.92	27.899
393.28	27.278
393.64	27.818
393.99	27.734
394.35	27.295
394.71	27.792
395.07	27.290
395.42	27.565
395.78	27.545
396.14	28.057
396.50	28.446
396.85	28.735
397.21	26.880
397.57	27.774
397.92	27.885
398.28	27.578
398.64	28.435
399.00	26.581
399.35	27.242
399.71	27.951
400.07	28.267
400.42	28.098
400.78	27.986
401.14	27.622
401.49	27.940
401.85	28.433
402.21	27.425
402.57	27.452
402.92	27.743
403.28	28.232
403.63	28.465
403.99	27.452
404.35	27.212
404.70	27.518
405.06	27.082
405.42	27.074
405.77	27.143
406.13	27.088
406.49	28.031
406.84	27.112
407.20	27.187
407.55	27.505
407.91	28.067
408.27	27.824
408.62	27.032
408.98	27.941
409.34	27.060
409.69	27.290
410.05	26.704
410.40	27.890
410.76	27.240
411.11	26.659
411.47	27.220
411.83	28.039
412.18	26.407
412.54	27.273
412.89	26.325
413.25	27.037
413.60	27.177
413.96	26.958
414.31	26.914
414.67	26.933
415.03	27.417
415.38	27.706
415.74	27.203
416.09	28.347
416.45	27.041
416.80	27.693
417.16	27.949
417.51	28.135
417.87	26.140
418.22	26.498
418.58	26.856
418.93	27.150
419.29	26.798
419.64	28.401
420.00	26.646
420.35	26.957
420.71	27.675
421.06	26.014
421.42	27.076
421.77	27.578
422.12	26.053
422.48	26.606
422.83	27.315
423.19	27.293
423.54	26.582
423.90	27.362
424.25	27.024
424.61	26.905
424.96	27.289
425.31	26.301
425.67	25.787
426.02	25.829
426.38	27.289
426.73	26.624
427.09	26.140
427.44	26.107
427.79	26.509
428.15	26.786
428.50	26.390
428.85	27.354
429.21	26.560
429.56	26.490
429.92	25.617
430.27	25.968
430.62	25.858
430.98	25.895
431.33	26.237
431.68	26.649
432.04	25.506
432.39	25.928
432.74	26.451
433.10	26.542
433.45	27.289
433.80	26.940
434.16	26.496
434.51	26.158
434.86	26.397
435.22	26.515
435.57	26.079
435.92	26.039
436.28	26.038
436.63	25.993
436.98	26.560
437.34	26.535
437.69	26.721
438.04	26.251
438.39	26.746
438.75	27.368
439.10	26.872
439.45	26.446
439.81	25.861
440.16	25.918
440.51	26.421
440.86	27.678
441.22	26.363
441.57	26.752
441.92	27.073
442.27	27.072
442.63	26.540
442.98	26.254
443.33	25.924
443.68	25.916
444.03	25.573
444.39	25.511
444.74	26.732
445.09	25.660
445.44	26.244
445.79	26.274
446.15	26.787
446.50	25.956
446.85	25.694
447.20	25.854
447.55	26.075
447.91	26.089
448.26	25.654
448.61	25.834
448.96	26.467
449.31	26.490
449.66	26.787
450.02	25.571
450.37	26.417
450.72	26.565
451.07	25.289
451.42	25.289
451.77	27.011
452.12	26.097
452.47	26.244
452.83	25.816
453.18	26.773
453.53	26.654
453.88	25.635
454.23	26.599
454.58	26.227
454.93	27.336
455.28	26.372
455.63	26.335
455.98	27.500
456.34	26.508
456.69	26.487
457.04	26.563
457.39	25.658
457.74	25.827
458.09	26.222
458.44	26.226
458.79	24.295
459.14	26.411
459.49	26.036
459.84	25.208
460.19	25.457
460.54	24.711
460.89	25.837
461.24	25.683
461.59	26.554
461.94	24.908
462.29	26.291
462.64	25.654
462.99	25.569
463.34	26.800
463.69	27.079
464.04	25.797
464.39	25.507
464.74	26.263
465.09	24.729
465.44	25.374
465.79	24.720
466.14	24.849
466.49	25.362
466.84	25.511
467.19	25.407
467.54	25.812
467.89	24.970
468.24	24.549
468.59	26.068
468.94	25.290
469.29	25.193
469.64	26.908
469.99	25.981
470.34	25.694
470.68	26.006
471.03	24.490
471.38	25.990
471.73	25.250
472.08	26.250
472.43	25.628
472.78	25.346
473.13	25.160
473.48	25.718
473.83	24.634
474.17	25.513
474.52	26.489
474.87	25.628
475.22	25.711
475.57	24.127
475.92	24.376
476.27	23.506
476.61	24.159
476.96	24.574
477.31	25.118
477.66	25.219
478.01	24.307
478.36	24.484
478.70	24.714
479.05	24.760
479.40	24.616
479.75	24.860
480.10	23.956
480.45	24.750
480.79	23.746
481.14	24.266
481.49	24.585
481.84	24.371
482.19	23.944
482.53	24.495
482.88	24.104
483.23	24.439
483.58	24.613
483.92	23.711
484.27	23.399
484.62	23.836
484.97	24.517
485.31	25.171
485.66	24.189
486.01	23.581
486.36	22.575
486.70	21.651
487.05	22.260
487.40	23.085
487.75	23.083
488.09	23.719
488.44	23.416
488.79	24.051
489.13	24.408
489.48	24.184
489.83	23.608
490.17	24.156
490.52	23.782
490.87	24.016
491.22	22.920
491.56	23.280
491.91	23.918
492.26	23.289
492.60	24.101
492.95	23.620
493.30	23.271
493.64	23.518
493.99	22.702
494.34	23.265
494.68	23.672
495.03	23.872
495.37	23.499
495.72	23.294
496.07	23.573
496.41	23.363
496.76	23.351
497.11	23.188
497.45	23.055
497.80	23.225
498.14	23.575
498.49	22.683
498.84	23.298
499.18	23.857
499.53	22.934
499.87	22.833
500.22	23.552
500.56	24.272
500.91	22.933
501.26	23.139
501.60	23.873
501.95	23.098
502.29	23.102
502.64	23.696
502.98	22.908
503.33	22.761
503.67	22.831
504.02	23.246
504.36	22.929
504.71	22.716
505.06	23.277
505.40	22.703
505.75	22.372
506.09	23.081
506.44	23.384
506.78	23.283
507.13	23.170
507.47	23.131
507.82	23.860
508.16	23.303
508.51	23.694
508.85	23.386
509.19	23.061
509.54	23.265
509.88	22.926
510.23	23.496
510.57	24.613
510.92	23.666
511.26	22.456
511.61	23.133
511.95	22.651
512.30	23.171
512.64	23.589
512.98	23.473
513.33	22.591
513.67	22.946
514.02	22.024
514.36	23.484
514.70	23.022
515.05	22.922
515.39	23.275
515.74	23.086
516.08	23.086
516.42	22.253
516.77	23.579
517.11	21.976
517.46	23.928
517.80	23.577
518.14	21.772
518.49	23.279
518.83	22.784
519.17	22.575
519.52	23.203
519.86	23.617
520.20	23.064
520.55	23.639
520.89	23.297
521.23	23.281
521.58	22.929
521.92	23.454
522.26	22.514
522.61	22.928
522.95	22.897
523.29	23.068
523.64	23.354
523.98	23.598
524.32	22.979
524.66	23.391
525.01	22.917
525.35	22.243
525.69	23.030
526.04	22.368
526.38	23.185
526.72	22.331
527.06	23.540
527.41	21.844
527.75	24.116
528.09	23.828
528.43	23.136
528.78	23.725
529.12	22.848
529.46	23.331
529.80	23.205
530.15	23.489
530.49	22.338
530.83	23.671
531.17	23.368
531.51	23.800
531.86	22.903
532.20	23.794
532.54	24.215
532.88	23.877
533.22	22.923
533.57	22.901
533.91	22.517
534.25	22.904
534.59	22.941
534.93	22.963
535.27	22.571
535.62	22.589
535.96	23.415
536.30	23.395
536.64	23.760
536.98	22.561
537.32	22.910
537.66	23.000
538.01	24.358
538.35	22.560
538.69	23.548
539.03	23.587
539.37	22.364
539.71	21.841
540.05	22.941
540.39	23.654
540.73	23.027
541.07	23.102
541.42	23.353
541.76	24.194
542.10	23.351
542.44	23.311
542.78	23.847
543.12	22.905
543.46	23.279
543.80	23.292
544.14	22.593
544.48	22.857
544.82	23.477
545.16	22.967
545.50	22.301
545.84	22.312
546.18	22.963
546.52	23.882
546.86	22.955
547.20	22.117
547.54	23.514
547.88	23.724
548.22	22.727
548.56	23.145
548.90	22.215
549.24	22.626
549.58	24.011
549.92	22.390
550.26	22.727
550.60	22.822
550.94	22.606
551.28	22.019
551.62	22.646
551.96	22.386
552.30	23.072
552.64	23.124
552.98	22.576
553.32	22.994
553.66	22.972
554.00	23.404
554.34	23.395
554.68	23.462
555.02	22.990
555.36	22.965
555.69	22.057
556.03	23.755
556.37	23.602
556.71	22.988
557.05	22.829
557.39	23.093
557.73	23.712
558.07	23.640
558.41	23.010
558.75	23.145
559.08	23.714
559.42	23.280
559.76	23.309
560.10	22.698
560.44	23.899
560.78	22.621
561.12	22.559
561.45	22.947
561.79	22.479
562.13	22.669
562.47	23.087
562.81	23.431
563.15	22.542
563.48	23.077
563.82	23.157
564.16	23.152
564.50	22.591
564.84	22.440
565.17	23.166
565.51	23.387
565.85	22.145
566.19	21.227
566.52	22.736
566.86	21.941
567.20	22.583
567.54	23.174
567.88	21.890
568.21	23.228
568.55	22.346
568.89	22.617
569.23	21.970
569.56	22.915
569.90	22.377
570.24	21.744
570.57	23.019
570.91	21.687
571.25	21.680
571.59	22.680
571.92	22.408
572.26	22.328
572.60	22.042
572.93	21.619
573.27	22.153
573.61	22.781
573.95	22.687
574.28	22.035
574.62	21.793
574.96	21.720
575.29	21.945
575.63	22.129
575.97	21.999
576.30	22.809
576.64	22.214
576.98	21.682
577.31	22.181
577.65	21.911
577.98	22.296
578.32	21.227
578.66	22.055
578.99	22.141
579.33	21.811
579.67	21.625
580.00	21.649
580.34	22.520
580.67	22.335
581.01	22.847
581.35	22.418
581.68	22.336
582.02	22.057
582.35	21.646
582.69	22.191
583.02	21.846
583.36	22.020
583.70	21.803
584.03	22.466
584.37	22.240
584.70	22.048
585.04	22.578
585.37	22.088
585.71	22.486
586.04	22.203
586.38	22.518
586.72	22.701
587.05	22.358
587.39	22.084
587.72	22.443
588.06	21.905
588.39	21.619
588.73	22.118
589.06	22.873
589.40	22.626
589.73	22.844
590.07	22.954
590.40	22.579
590.73	22.834
591.07	23.158
591.40	22.860
591.74	23.463
592.07	22.949
592.41	22.613
592.74	21.835
593.08	22.452
593.41	21.987
593.75	21.393
594.08	21.924
594.41	21.987
594.75	21.959
595.08	22.477
595.42	22.627
595.75	22.187
596.09	22.982
596.42	22.240
596.75	22.668
597.09	23.203
597.42	22.302
597.75	22.423
598.09	22.739
598.42	22.852
598.76	21.970
599.09	22.121
599.42	21.798
599.76	22.328
600.09	21.894
600.42	21.695
600.76	22.179
601.09	22.077
601.42	22.603
601.76	22.049
602.09	22.648
602.42	22.850
602.76	23.015
603.09	23.446
603.42	22.725
603.76	21.875
604.09	22.528
604.42	22.585
604.76	23.070
605.09	22.717
605.42	22.445
605.75	22.724
606.09	22.285
606.42	22.190
606.75	22.522
607.09	22.687
607.42	22.507
607.75	21.941
608.08	22.319
608.42	22.680
608.75	22.272
609.08	22.757
609.41	22.846
609.75	22.344
610.08	23.233
610.41	22.393
610.74	23.132
611.07	22.381
611.41	22.964
611.74	22.876
612.07	23.240
612.40	23.085
612.73	23.000
613.07	23.707
613.40	23.117
613.73	22.496
614.06	21.935
614.39	21.972
614.72	22.737
615.06	22.164
615.39	22.081
615.72	23.211
616.05	22.807
616.38	23.180
616.71	23.694
617.05	23.498
617.38	23.091
617.71	23.063
618.04	23.678
618.37	22.768
618.70	22.713
619.03	22.961
619.36	22.946
619.69	24.366
620.03	24.657
620.36	23.061
620.69	24.110
621.02	23.525
621.35	23.023
621.68	22.586
622.01	23.297
622.34	22.315
622.67	22.966
623.00	23.258
623.33	22.302
623.66	23.016
623.99	23.049
624.32	23.538
624.65	22.387
624.99	21.671
625.32	23.027
625.65	23.291
625.98	23.290
626.31	22.862
626.64	23.918
626.97	24.273
627.30	23.109
627.63	23.052
627.96	24.979
628.29	22.747
628.62	23.879
628.95	25.094
629.28	23.084
629.61	24.015
629.94	24.000
630.26	23.928
630.59	24.595
