SpectraSuite Data File
++++++++++++++++++++++++++++++++++++
Date: Wed May 13 16:32:50 PDT 2015
User: schluterlab
Dark Spectrum Present: Yes
Reference Spectrum Present: Yes
Number of Sampled Component Spectra: 1
Spectrometers: USB2E3373
Integration Time (usec): 3000 (USB2E3373)
Spectra Averaged: 3 (USB2E3373)
Boxcar Smoothing: 0 (USB2E3373)
Correct for Electrical Dark: No (USB2E3373)
Strobe/Lamp Enabled: No (USB2E3373)
Correct for Detector Non-linearity: No (USB2E3373)
Correct for Stray Light: No (USB2E3373)
Number of Pixels in Processed Spectrum: 2048
>>>>>Begin Processed Spectral Data<<<<<
178.53	0.000
178.91	-1200.000
179.29	-1250.000
179.67	-172.222
180.04	-1300.000
180.42	2200.000
180.80	960.000
181.18	-1150.000
181.56	585.714
181.94	0.000
182.31	-600.000
182.69	1800.000
183.07	-550.000
183.45	-477.778
183.83	463.636
184.20	-370.000
184.58	1850.000
184.96	4500.000
185.34	-580.000
185.72	-475.000
186.09	-1950.000
186.47	2400.000
186.85	2050.000
187.23	4800.000
187.61	-1500.000
187.98	1275.000
188.36	472.727
188.74	445.455
189.12	-640.000
189.49	600.000
189.87	-4900.000
190.25	-1050.000
190.63	414.286
191.00	353.846
191.38	783.333
191.76	-950.000
192.14	1325.000
192.51	600.000
192.89	933.333
193.27	550.000
193.65	-1000.000
194.02	410.000
194.40	780.000
194.78	410.000
195.15	475.000
195.53	700.000
195.91	-1700.000
196.29	312.500
196.66	310.526
197.04	-250.000
197.42	0.000
197.79	490.000
198.17	-4700.000
198.55	657.143
198.92	637.500
199.30	860.000
199.68	0.000
200.05	361.111
200.43	600.000
200.81	3800.000
201.18	1700.000
201.56	-1566.667
201.94	588.889
202.31	644.444
202.69	416.667
203.07	460.000
203.44	0.000
203.82	1200.000
204.19	714.286
204.57	385.714
204.95	662.500
205.32	1400.000
205.70	545.455
206.08	342.857
206.45	2550.000
206.83	425.000
207.20	816.667
207.58	700.000
207.96	300.000
208.33	787.500
208.71	-750.000
209.08	600.000
209.46	511.111
209.84	390.909
210.21	-1266.667
210.59	1025.000
210.96	-387.500
211.34	2350.000
211.71	510.000
212.09	783.333
212.46	0.000
212.84	1900.000
213.22	1100.000
213.59	-4200.000
213.97	733.333
214.34	728.571
214.72	581.818
215.09	880.000
215.47	-2100.000
215.84	-2450.000
216.22	1266.667
216.59	407.143
216.97	1250.000
217.34	463.636
217.72	-733.333
218.09	0.000
218.47	-4600.000
218.84	566.667
219.22	757.143
219.59	1333.333
219.97	-685.714
220.34	960.000
220.72	-1366.667
221.09	364.286
221.47	1500.000
221.84	-783.333
222.22	0.000
222.59	1200.000
222.97	-2250.000
223.34	1040.000
223.72	330.769
224.09	940.000
224.46	1450.000
224.84	-4300.000
225.21	-920.000
225.59	-3600.000
225.96	600.000
226.34	250.000
226.71	2300.000
227.08	562.500
227.46	460.000
227.83	-1250.000
228.21	-1650.000
228.58	588.889
228.95	-1950.000
229.33	-2200.000
229.70	1666.667
230.08	642.857
230.45	-720.000
230.82	408.333
231.20	683.333
231.57	571.429
231.95	441.667
232.32	250.000
232.69	300.000
233.07	471.429
233.44	276.923
233.81	-1533.333
234.19	236.842
234.56	316.667
234.93	433.333
235.31	409.091
235.68	276.923
236.05	250.000
236.43	172.727
236.80	210.526
237.17	3100.000
237.55	185.714
237.92	171.429
238.29	204.762
238.67	138.710
239.04	137.931
239.41	102.778
239.79	97.826
240.16	100.000
240.53	106.818
240.91	80.392
241.28	82.000
241.65	80.000
242.02	68.116
242.40	64.516
242.77	58.333
243.14	54.839
243.51	49.438
243.89	61.176
244.26	42.222
244.63	48.387
245.00	48.936
245.38	44.554
245.75	34.579
246.12	34.862
246.49	38.686
246.87	44.000
247.24	33.077
247.61	37.143
247.98	37.908
248.36	32.432
248.73	27.389
249.10	32.484
249.47	24.294
249.84	30.481
250.22	24.599
250.59	27.219
250.96	24.747
251.33	27.488
251.70	30.693
252.08	20.952
252.45	19.283
252.82	17.826
253.19	20.000
253.56	20.784
253.94	22.407
254.31	22.266
254.68	22.308
255.05	21.033
255.42	21.138
255.79	18.750
256.16	20.578
256.54	11.307
256.91	18.149
257.28	11.871
257.65	17.492
258.02	18.323
258.39	16.404
258.76	15.050
259.14	15.774
259.51	14.894
259.88	13.665
260.25	16.012
260.62	15.318
260.99	14.907
261.36	16.517
261.73	10.029
262.10	11.337
262.47	14.930
262.85	13.092
263.22	9.117
263.59	13.675
263.96	13.462
264.33	16.188
264.70	13.421
265.07	14.066
265.44	12.121
265.81	11.679
266.18	13.317
266.55	10.000
266.92	14.251
267.29	14.120
267.66	12.156
268.03	11.591
268.40	14.019
268.77	10.979
269.14	10.811
269.51	13.995
269.88	14.452
270.25	9.932
270.62	10.787
270.99	14.409
271.36	13.948
271.73	9.112
272.10	10.652
272.47	12.473
272.84	9.957
273.21	11.321
273.58	10.917
273.95	9.644
274.32	10.331
274.69	13.490
275.06	11.811
275.43	9.362
275.80	9.018
276.17	8.961
276.54	10.395
276.91	11.067
277.28	10.547
277.65	11.219
278.02	9.110
278.39	10.547
278.76	11.091
279.13	10.755
279.50	11.359
279.87	9.960
280.23	10.978
280.60	9.091
280.97	9.242
281.34	10.619
281.71	11.273
282.08	10.940
282.45	10.364
282.82	8.703
283.19	9.269
283.56	8.596
283.92	11.506
284.29	9.877
284.66	10.526
285.03	7.957
285.40	8.099
285.77	9.091
286.14	7.599
286.51	10.000
286.87	9.744
287.24	10.423
287.61	10.433
287.98	10.227
288.35	9.509
288.72	10.125
289.08	10.329
289.45	8.567
289.82	8.780
290.19	9.105
290.56	8.576
290.93	6.798
291.29	8.436
291.66	7.965
292.03	11.337
292.40	9.985
292.77	8.432
293.13	7.910
293.50	9.329
293.87	8.889
294.24	8.593
294.60	7.132
294.97	8.140
295.34	8.604
295.71	7.955
296.08	7.835
296.44	7.703
296.81	8.058
297.18	8.401
297.55	6.596
297.91	7.916
298.28	8.835
298.65	8.486
299.02	8.959
299.38	7.171
299.75	5.121
300.12	6.897
300.48	7.250
300.85	8.755
301.22	7.389
301.59	7.071
301.95	7.053
302.32	6.675
302.69	8.244
303.05	7.636
303.42	6.914
303.79	7.475
304.15	5.828
304.52	7.184
304.89	6.156
305.25	6.961
305.62	8.381
305.99	7.910
306.35	8.166
306.72	7.848
307.09	7.658
307.45	7.995
307.82	8.147
308.19	7.395
308.55	8.738
308.92	7.734
309.29	7.392
309.65	6.469
310.02	7.400
310.38	7.419
310.75	7.286
311.12	8.598
311.48	8.359
311.85	7.966
312.22	8.741
312.58	7.588
312.95	8.342
313.31	8.641
313.68	8.004
314.05	10.059
314.41	9.045
314.78	9.366
315.14	9.732
315.51	8.548
315.87	9.307
316.24	8.640
316.61	7.797
316.97	8.023
317.34	8.023
317.70	9.751
318.07	10.202
318.43	9.589
318.80	9.372
319.16	9.322
319.53	9.006
319.89	10.381
320.26	9.900
320.62	10.218
320.99	10.404
321.35	10.505
321.72	11.088
322.08	11.056
322.45	11.443
322.81	11.822
323.18	12.042
323.54	11.596
323.91	10.943
324.27	12.141
324.64	9.506
325.00	10.640
325.37	12.284
325.73	11.759
326.10	11.739
326.46	11.738
326.83	11.821
327.19	12.810
327.56	12.544
327.92	11.199
328.29	11.446
328.65	11.694
329.01	13.357
329.38	11.933
329.74	12.558
330.11	12.347
330.47	13.131
330.84	14.890
331.20	11.749
331.56	12.202
331.93	13.333
332.29	12.334
332.66	12.655
333.02	12.066
333.38	12.918
333.75	14.528
334.11	12.989
334.48	13.576
334.84	11.581
335.20	12.727
335.57	10.789
335.93	11.518
336.29	12.179
336.66	11.091
337.02	12.036
337.38	12.407
337.75	11.854
338.11	12.802
338.47	12.063
338.84	12.282
339.20	11.651
339.56	13.321
339.93	12.545
340.29	12.591
340.65	12.567
341.02	12.653
341.38	12.189
341.74	11.930
342.11	12.140
342.47	13.304
342.83	12.928
343.20	13.939
343.56	11.794
343.92	12.281
344.28	13.010
344.65	13.156
345.01	11.869
345.37	11.664
345.73	12.860
346.10	13.470
346.46	12.458
346.82	12.768
347.19	11.779
347.55	12.479
347.91	12.783
348.27	12.818
348.63	12.709
349.00	12.540
349.36	13.300
349.72	12.991
350.08	11.507
350.45	12.612
350.81	12.266
351.17	12.561
351.53	12.203
351.89	11.964
352.26	12.786
352.62	12.670
352.98	13.209
353.34	12.983
353.70	12.602
354.07	12.500
354.43	12.619
354.79	12.389
355.15	12.849
355.51	13.589
355.87	13.061
356.24	13.355
356.60	12.430
356.96	13.435
357.32	12.592
357.68	12.598
358.04	13.777
358.40	13.618
358.77	13.850
359.13	12.786
359.49	12.863
359.85	11.190
360.21	12.281
360.57	13.930
360.93	13.154
361.29	13.454
361.66	12.848
362.02	12.985
362.38	13.004
362.74	13.467
363.10	12.583
363.46	12.766
363.82	12.850
364.18	12.996
364.54	13.447
364.90	14.023
365.26	12.574
365.62	13.952
365.98	12.783
366.35	13.539
366.71	13.738
367.07	13.693
367.43	13.933
367.79	13.919
368.15	14.152
368.51	13.953
368.87	14.418
369.23	13.753
369.59	13.831
369.95	13.382
370.31	14.530
370.67	13.043
371.03	14.232
371.39	13.776
371.75	14.853
372.11	14.367
372.47	15.249
372.83	14.553
373.19	14.595
373.55	14.634
373.91	15.906
374.27	14.227
374.63	14.109
374.99	15.325
375.35	14.027
375.71	13.982
376.07	15.569
376.42	15.750
376.78	15.838
377.14	15.468
377.50	16.026
377.86	15.093
378.22	16.182
378.58	15.038
378.94	15.399
379.30	15.712
379.66	16.244
380.02	16.400
380.38	15.604
380.74	16.507
381.09	17.054
381.45	17.087
381.81	17.629
382.17	17.389
382.53	16.792
382.89	17.222
383.25	17.011
383.61	18.587
383.97	17.573
384.32	17.218
384.68	18.587
385.04	18.009
385.40	18.452
385.76	17.813
386.12	18.394
386.48	18.880
386.83	18.217
387.19	19.728
387.55	19.233
387.91	18.440
388.27	19.129
388.62	19.668
388.98	18.735
389.34	19.274
389.70	20.110
390.06	20.089
390.42	20.104
390.77	20.229
391.13	20.038
391.49	20.749
391.85	18.905
392.20	19.117
392.56	20.265
392.92	20.365
393.28	19.467
393.64	19.844
393.99	21.075
394.35	20.161
394.71	21.016
395.07	20.748
395.42	21.261
395.78	21.310
396.14	19.429
396.50	21.742
396.85	22.123
397.21	21.085
397.57	21.079
397.92	20.913
398.28	20.796
398.64	20.609
399.00	20.425
399.35	20.079
399.71	21.354
400.07	20.934
400.42	20.982
400.78	21.592
401.14	21.098
401.49	20.597
401.85	21.295
402.21	20.120
402.57	20.605
402.92	21.248
403.28	22.049
403.63	21.163
403.99	20.318
404.35	22.242
404.70	21.043
405.06	20.326
405.42	21.585
405.77	20.343
406.13	19.921
406.49	21.171
406.84	21.146
407.20	20.626
407.55	21.698
407.91	21.400
408.27	21.059
408.62	20.470
408.98	22.243
409.34	21.218
409.69	21.161
410.05	21.314
410.40	20.917
410.76	21.027
411.11	20.929
411.47	20.575
411.83	20.831
412.18	20.161
412.54	21.793
412.89	21.084
413.25	21.192
413.60	21.618
413.96	20.704
414.31	20.474
414.67	21.610
415.03	21.523
415.38	21.134
415.74	21.222
416.09	21.163
416.45	20.482
416.80	21.745
417.16	21.716
417.51	20.504
417.87	21.002
418.22	21.388
418.58	21.756
418.93	20.577
419.29	21.515
419.64	20.592
420.00	20.671
420.35	20.928
420.71	21.160
421.06	20.883
421.42	20.468
421.77	20.516
422.12	19.989
422.48	20.237
422.83	21.142
423.19	20.442
423.54	21.416
423.90	21.507
424.25	21.106
424.61	20.060
424.96	20.117
425.31	20.653
425.67	19.775
426.02	20.171
426.38	20.513
426.73	20.597
427.09	20.729
427.44	20.759
427.79	20.932
428.15	21.369
428.50	21.182
428.85	21.156
429.21	20.817
429.56	19.907
429.92	20.936
430.27	20.258
430.62	20.328
430.98	20.135
431.33	20.309
431.68	20.838
432.04	20.234
432.39	21.074
432.74	20.766
433.10	21.109
433.45	19.883
433.80	20.455
434.16	21.528
434.51	20.737
434.86	20.981
435.22	20.122
435.57	20.790
435.92	19.602
436.28	21.234
436.63	20.475
436.98	20.378
437.34	21.109
437.69	20.712
438.04	20.742
438.39	21.194
438.75	20.686
439.10	20.223
439.45	21.074
439.81	20.181
440.16	20.836
440.51	20.855
440.86	20.324
441.22	20.133
441.57	20.064
441.92	20.471
442.27	20.075
442.63	20.379
442.98	20.563
443.33	21.087
443.68	20.289
444.03	19.912
444.39	19.474
444.74	20.076
445.09	20.539
445.44	20.284
445.79	19.693
446.15	20.275
446.50	19.817
446.85	19.836
447.20	20.092
447.55	19.989
447.91	20.188
448.26	19.533
448.61	20.068
448.96	21.318
449.31	20.472
449.66	20.484
450.02	19.666
450.37	19.444
450.72	19.853
451.07	19.988
451.42	19.757
451.77	21.844
452.12	19.630
452.47	20.025
452.83	20.629
453.18	20.844
453.53	20.841
453.88	19.905
454.23	20.084
454.58	20.836
454.93	21.170
455.28	19.888
455.63	20.449
455.98	20.536
456.34	20.289
456.69	20.726
457.04	20.248
457.39	20.339
457.74	20.429
458.09	20.587
458.44	20.410
458.79	19.143
459.14	20.372
459.49	20.549
459.84	19.335
460.19	20.801
460.54	19.850
460.89	20.461
461.24	20.158
461.59	20.628
461.94	19.359
462.29	20.237
462.64	20.166
462.99	20.104
463.34	20.667
463.69	20.013
464.04	19.884
464.39	18.899
464.74	19.548
465.09	19.361
465.44	19.169
465.79	19.239
466.14	19.321
466.49	18.632
466.84	19.148
467.19	19.071
467.54	20.187
467.89	18.968
468.24	19.488
468.59	19.597
468.94	19.243
469.29	19.602
469.64	20.616
469.99	20.365
470.34	19.287
470.68	19.684
471.03	19.048
471.38	19.875
471.73	19.987
472.08	20.395
472.43	19.221
472.78	19.750
473.13	19.127
473.48	19.476
473.83	19.756
474.17	18.544
474.52	19.417
474.87	19.323
475.22	19.501
475.57	18.807
475.92	18.481
476.27	18.658
476.61	19.140
476.96	19.131
477.31	18.053
477.66	18.654
478.01	18.400
478.36	18.826
478.70	17.965
479.05	18.051
479.40	17.810
479.75	17.997
480.10	18.489
480.45	17.420
480.79	17.344
481.14	18.053
481.49	17.323
481.84	17.741
482.19	17.810
482.53	17.248
482.88	18.381
483.23	18.131
483.58	18.881
483.92	17.760
484.27	16.732
484.62	17.069
484.97	16.752
485.31	17.089
485.66	16.175
486.01	15.531
486.36	14.985
486.70	14.824
487.05	14.998
487.40	16.088
487.75	16.128
488.09	16.409
488.44	16.611
488.79	16.817
489.13	16.960
489.48	16.599
489.83	17.005
490.17	17.317
490.52	16.652
490.87	17.322
491.22	16.917
491.56	16.492
491.91	16.473
492.26	16.353
492.60	17.327
492.95	17.306
493.30	17.196
493.64	16.426
493.99	15.738
494.34	16.790
494.68	16.712
495.03	17.199
495.37	16.705
495.72	16.862
496.07	16.613
496.41	16.062
496.76	16.051
497.11	16.074
497.45	16.162
497.80	17.179
498.14	16.377
498.49	15.854
498.84	17.018
499.18	16.333
499.53	16.192
499.87	17.521
500.22	16.439
500.56	16.699
500.91	16.106
501.26	16.880
501.60	16.801
501.95	16.499
502.29	16.635
502.64	16.341
502.98	16.971
503.33	16.133
503.67	16.613
504.02	16.230
504.36	16.472
504.71	15.975
505.06	15.904
505.40	16.043
505.75	16.152
506.09	15.938
506.44	16.280
506.78	16.269
507.13	16.759
507.47	15.909
507.82	16.363
508.16	16.616
508.51	16.641
508.85	16.137
509.19	16.224
509.54	15.612
509.88	15.765
510.23	16.350
510.57	16.925
510.92	16.313
511.26	16.033
511.61	16.649
511.95	15.344
512.30	15.270
512.64	16.819
512.98	16.988
513.33	16.006
513.67	16.169
514.02	15.152
514.36	16.767
514.70	16.325
515.05	15.226
515.39	16.994
515.74	16.273
516.08	16.378
516.42	16.815
516.77	16.388
517.11	15.760
517.46	16.479
517.80	15.970
518.14	15.634
518.49	16.686
518.83	16.591
519.17	16.513
519.52	15.676
519.86	16.144
520.20	16.821
520.55	16.697
520.89	16.119
521.23	16.948
521.58	16.026
521.92	16.901
522.26	16.229
522.61	16.012
522.95	16.697
523.29	16.920
523.64	16.768
523.98	16.205
524.32	16.647
524.66	16.476
525.01	16.973
525.35	15.675
525.69	16.071
526.04	16.885
526.38	16.534
526.72	16.258
527.06	16.573
527.41	14.480
527.75	15.563
528.09	15.864
528.43	15.870
528.78	16.042
529.12	15.212
529.46	16.228
529.80	16.460
530.15	16.698
530.49	16.000
530.83	15.823
531.17	16.710
531.51	17.185
531.86	15.548
532.20	16.558
532.54	16.336
532.88	16.367
533.22	15.490
533.57	15.617
533.91	15.473
534.25	15.674
534.59	15.741
534.93	14.991
535.27	15.631
535.62	15.751
535.96	15.631
536.30	15.766
536.64	15.003
536.98	14.997
537.32	15.800
537.66	15.000
538.01	15.602
538.35	15.385
538.69	15.380
539.03	14.620
539.37	15.080
539.71	15.036
540.05	15.556
540.39	15.415
540.73	15.201
541.07	15.445
541.42	15.003
541.76	15.677
542.10	15.847
542.44	15.629
542.78	16.337
543.12	14.907
543.46	15.803
543.80	14.574
544.14	14.185
544.48	16.000
544.82	14.176
545.16	14.509
545.50	14.332
545.84	15.659
546.18	14.815
546.52	14.591
546.86	15.464
547.20	15.374
547.54	15.498
547.88	14.923
548.22	15.318
548.56	14.025
548.90	14.469
549.24	15.219
549.58	15.553
549.92	13.942
550.26	15.554
550.60	14.869
550.94	15.493
551.28	14.265
551.62	14.450
551.96	15.719
552.30	15.222
552.64	14.672
552.98	15.458
553.32	14.902
553.66	15.678
554.00	14.894
554.34	15.045
554.68	14.950
555.02	15.656
555.36	15.588
555.69	14.885
556.03	15.141
556.37	14.870
556.71	14.666
557.05	14.566
557.39	14.556
557.73	14.961
558.07	15.011
558.41	15.123
558.75	15.209
559.08	14.318
559.42	14.664
559.76	15.662
560.10	15.275
560.44	14.046
560.78	15.502
561.12	15.106
561.45	14.472
561.79	14.370
562.13	13.682
562.47	14.822
562.81	15.272
563.15	14.381
563.48	14.854
563.82	14.742
564.16	14.323
564.50	14.518
564.84	14.539
565.17	14.286
565.51	14.249
565.85	14.404
566.19	13.212
566.52	14.060
566.86	14.467
567.20	14.623
567.54	13.984
567.88	13.525
568.21	14.762
568.55	13.145
568.89	13.473
569.23	13.324
569.56	12.510
569.90	12.642
570.24	12.451
570.57	12.343
570.91	11.700
571.25	11.921
571.59	12.018
571.92	12.039
572.26	12.161
572.60	12.192
572.93	11.994
573.27	12.245
573.61	11.977
573.95	11.809
574.28	11.382
574.62	11.419
574.96	11.350
575.29	11.227
575.63	11.458
575.97	11.507
576.30	12.135
576.64	11.145
576.98	11.133
577.31	11.275
577.65	11.336
577.98	11.359
578.32	10.663
578.66	11.468
578.99	11.162
579.33	11.595
579.67	11.238
580.00	11.220
580.34	11.533
580.67	11.699
581.01	11.401
581.35	11.229
581.68	11.270
582.02	10.722
582.35	10.940
582.69	11.200
583.02	11.634
583.36	11.344
583.70	11.613
584.03	11.808
584.37	11.673
584.70	11.677
585.04	11.693
585.37	11.323
585.71	11.819
586.04	11.525
586.38	11.808
586.72	12.041
587.05	11.600
587.39	11.689
587.72	11.672
588.06	11.580
588.39	11.934
588.73	11.880
589.06	12.060
589.40	12.290
589.73	12.038
590.07	12.349
590.40	11.984
590.73	12.139
591.07	12.617
591.40	12.273
591.74	12.727
592.07	12.653
592.41	13.022
592.74	11.948
593.08	12.358
593.41	12.180
593.75	11.649
594.08	11.398
594.41	11.912
594.75	12.274
595.08	11.954
595.42	12.504
595.75	12.001
596.09	12.692
596.42	12.102
596.75	12.664
597.09	12.900
597.42	12.521
597.75	12.247
598.09	13.087
598.42	12.715
598.76	12.079
599.09	11.897
599.42	11.754
599.76	12.262
600.09	11.767
600.42	12.126
600.76	11.964
601.09	11.767
601.42	11.682
601.76	12.068
602.09	11.779
602.42	12.580
602.76	12.656
603.09	12.313
603.42	12.261
603.76	12.005
604.09	11.439
604.42	12.271
604.76	12.611
605.09	13.062
605.42	12.484
605.75	12.334
606.09	11.834
606.42	12.260
606.75	12.153
607.09	12.348
607.42	12.152
607.75	11.983
608.08	11.594
608.42	12.909
608.75	12.849
609.08	12.812
609.41	12.803
609.75	12.292
610.08	12.959
610.41	12.011
610.74	12.252
611.07	12.599
611.41	12.365
611.74	12.871
612.07	12.992
612.40	13.379
612.73	12.211
613.07	12.662
613.40	13.007
613.73	11.851
614.06	12.634
614.39	12.795
614.72	13.368
615.06	12.815
615.39	12.367
615.72	12.679
616.05	12.812
616.38	13.118
616.71	13.302
617.05	12.898
617.38	13.530
617.71	13.333
618.04	12.981
618.37	12.774
618.70	13.317
619.03	14.408
619.36	14.325
619.69	13.380
620.03	13.874
620.36	13.971
620.69	14.521
621.02	14.307
621.35	13.704
621.68	13.863
622.01	14.628
622.34	14.523
622.67	14.373
623.00	13.646
623.33	14.510
623.66	13.867
623.99	14.433
624.32	14.265
624.65	14.407
624.99	13.598
625.32	13.903
625.65	12.998
625.98	13.759
626.31	15.008
626.64	15.020
626.97	13.965
627.30	14.713
627.63	14.848
627.96	14.971
628.29	14.523
628.62	15.096
628.95	16.321
629.28	15.328
629.61	15.399
629.94	15.905
630.26	15.729
630.59	16.397
630.92	14.559
631.25	14.314
631.58	15.616
631.91	14.199
632.24	14.662
632.57	16.579
632.90	15.241
633.23	16.890
