SpectraSuite Data File
++++++++++++++++++++++++++++++++++++
Date: Wed May 13 16:04:27 PDT 2015
User: schluterlab
Dark Spectrum Present: Yes
Reference Spectrum Present: Yes
Number of Sampled Component Spectra: 1
Spectrometers: USB2E3373
Integration Time (usec): 3000 (USB2E3373)
Spectra Averaged: 3 (USB2E3373)
Boxcar Smoothing: 0 (USB2E3373)
Correct for Electrical Dark: No (USB2E3373)
Strobe/Lamp Enabled: No (USB2E3373)
Correct for Detector Non-linearity: No (USB2E3373)
Correct for Stray Light: No (USB2E3373)
Number of Pixels in Processed Spectrum: 2048
>>>>>Begin Processed Spectral Data<<<<<
178.53	0.000
178.91	-600.000
179.29	-850.000
179.67	-111.111
180.04	-850.000
180.42	1350.000
180.80	500.000
181.18	-700.000
181.56	328.571
181.94	0.000
182.31	-242.857
182.69	700.000
183.07	-250.000
183.45	-166.667
183.83	272.727
184.20	-190.000
184.58	1150.000
184.96	2000.000
185.34	-320.000
185.72	-350.000
186.09	-1250.000
186.47	1300.000
186.85	1000.000
187.23	3200.000
187.61	-633.333
187.98	625.000
188.36	227.273
188.74	263.636
189.12	-260.000
189.49	260.000
189.87	-2100.000
190.25	-650.000
190.63	235.714
191.00	300.000
191.38	450.000
191.76	-450.000
192.14	550.000
192.51	387.500
192.89	533.333
193.27	287.500
193.65	-675.000
194.02	300.000
194.40	540.000
194.78	250.000
195.15	283.333
195.53	390.000
195.91	-1000.000
196.29	200.000
196.66	168.421
197.04	-130.000
197.42	0.000
197.79	370.000
198.17	-1800.000
198.55	357.143
198.92	350.000
199.30	400.000
199.68	0.000
200.05	200.000
200.43	357.143
200.81	2000.000
201.18	866.667
201.56	-800.000
201.94	277.778
202.31	211.111
202.69	250.000
203.07	300.000
203.44	0.000
203.82	650.000
204.19	314.286
204.57	192.857
204.95	412.500
205.32	533.333
205.70	336.364
206.08	207.143
206.45	1400.000
206.83	231.250
207.20	566.667
207.58	400.000
207.96	166.667
208.33	275.000
208.71	-516.667
209.08	357.143
209.46	333.333
209.84	227.273
210.21	-733.333
210.59	675.000
210.96	-225.000
211.34	1200.000
211.71	430.000
212.09	283.333
212.46	0.000
212.84	533.333
213.22	875.000
213.59	-2600.000
213.97	516.667
214.34	485.714
214.72	363.636
215.09	640.000
215.47	-900.000
215.84	-900.000
216.22	866.667
216.59	278.571
216.97	450.000
217.34	272.727
217.72	-250.000
218.09	0.000
218.47	-2500.000
218.84	366.667
219.22	285.714
219.59	666.667
219.97	-314.286
220.34	500.000
220.72	-600.000
221.09	292.857
221.47	650.000
221.84	-483.333
222.22	0.000
222.59	750.000
222.97	-1200.000
223.34	560.000
223.72	261.538
224.09	660.000
224.46	750.000
224.84	-2400.000
225.21	-480.000
225.59	-2000.000
225.96	380.000
226.34	175.000
226.71	1200.000
227.08	325.000
227.46	260.000
227.83	-450.000
228.21	-950.000
228.58	311.111
228.95	-1050.000
229.33	-850.000
229.70	800.000
230.08	371.429
230.45	-460.000
230.82	183.333
231.20	350.000
231.57	214.286
231.95	208.333
232.32	131.818
232.69	218.182
233.07	414.286
233.44	146.154
233.81	-1100.000
234.19	105.263
234.56	125.000
234.93	183.333
235.31	218.182
235.68	46.154
236.05	142.857
236.43	118.182
236.80	100.000
237.17	2400.000
237.55	128.571
237.92	114.286
238.29	100.000
238.67	54.839
239.04	89.655
239.41	52.778
239.79	54.348
240.16	42.857
240.53	75.000
240.91	43.137
241.28	52.000
241.65	32.000
242.02	50.725
242.40	38.710
242.77	41.667
243.14	32.258
243.51	35.955
243.89	30.588
244.26	26.667
244.63	21.505
245.00	14.894
245.38	21.782
245.75	16.822
246.12	11.009
246.49	27.737
246.87	31.200
247.24	24.615
247.61	17.857
247.98	16.993
248.36	17.568
248.73	15.924
249.10	15.924
249.47	16.384
249.84	15.508
250.22	9.091
250.59	13.609
250.96	14.646
251.33	16.114
251.70	16.337
252.08	20.952
252.45	11.211
252.82	9.565
253.19	13.191
253.56	12.157
253.94	14.938
254.31	10.938
254.68	13.846
255.05	13.653
255.42	13.008
255.79	11.397
256.16	11.191
256.54	8.834
256.91	13.167
257.28	6.115
257.65	10.561
258.02	9.627
258.39	7.886
258.76	5.351
259.14	8.333
259.51	7.903
259.88	7.764
260.25	7.251
260.62	6.069
260.99	6.211
261.36	9.610
261.73	6.304
262.10	6.395
262.47	7.887
262.85	7.521
263.22	3.134
263.59	7.123
263.96	5.495
264.33	8.094
264.70	8.947
265.07	8.440
265.44	6.818
265.81	6.326
266.18	6.281
266.55	5.366
266.92	3.931
267.29	7.176
267.66	6.881
268.03	5.909
268.40	6.308
268.77	5.728
269.14	5.405
269.51	7.449
269.88	5.594
270.25	3.837
270.62	7.191
270.99	7.957
271.36	6.438
271.73	5.374
272.10	5.870
272.47	7.742
272.84	6.926
273.21	8.805
273.58	6.987
273.95	3.774
274.32	7.025
274.69	4.925
275.06	4.331
275.43	3.617
275.80	4.609
276.17	4.481
276.54	8.316
276.91	5.336
277.28	6.055
277.65	5.222
278.02	4.762
278.39	8.203
278.76	6.000
279.13	5.472
279.50	6.145
279.87	5.976
280.23	4.990
280.60	4.255
280.97	3.327
281.34	4.602
281.71	7.455
282.08	7.102
282.45	4.909
282.82	4.618
283.19	3.387
283.56	6.140
283.92	5.584
284.29	3.527
284.66	3.993
285.03	5.967
285.40	5.458
285.77	5.724
286.14	4.145
286.51	6.167
286.87	5.641
287.24	5.537
287.61	4.655
287.98	5.519
288.35	5.547
288.72	5.452
289.08	3.912
289.45	3.789
289.82	5.366
290.19	3.140
290.56	5.819
290.93	5.589
291.29	4.448
291.66	4.720
292.03	6.250
292.40	6.167
292.77	4.882
293.13	6.269
293.50	5.831
293.87	4.000
294.24	4.000
294.60	4.658
294.97	6.395
295.34	7.334
295.71	5.540
296.08	3.561
296.44	4.814
296.81	6.077
297.18	6.504
297.55	3.958
297.91	6.332
298.28	5.622
298.65	6.397
299.02	5.534
299.38	4.781
299.75	2.426
300.12	6.386
300.48	6.000
300.85	6.535
301.22	5.987
301.59	4.293
301.95	6.801
302.32	5.135
302.69	5.974
303.05	5.455
303.42	5.062
303.79	6.116
304.15	5.012
304.52	5.446
304.89	5.110
305.25	7.309
305.62	6.116
305.99	6.021
306.35	7.494
306.72	7.511
307.09	6.326
307.45	7.770
307.82	4.911
308.19	7.395
308.55	7.875
308.92	6.445
309.29	6.653
309.65	7.529
310.02	6.660
310.38	5.269
310.75	7.392
311.12	8.393
311.48	6.792
311.85	8.595
312.22	8.012
312.58	7.380
312.95	8.553
313.31	7.573
313.68	8.004
314.05	8.383
314.41	8.945
314.78	8.459
315.14	9.335
315.51	7.827
315.87	7.624
316.24	8.739
316.61	8.674
316.97	7.828
317.34	7.632
317.70	9.273
318.07	8.085
318.43	10.568
318.80	10.028
319.16	9.510
319.53	9.193
319.89	9.143
320.26	10.700
320.62	11.111
320.99	10.202
321.35	9.091
321.72	9.240
322.08	10.859
322.45	11.741
322.81	10.853
323.18	11.561
323.54	12.059
323.91	12.264
324.27	10.229
324.64	9.879
325.00	11.181
325.37	11.738
325.73	12.567
326.10	12.357
326.46	12.186
326.83	11.993
327.19	12.553
327.56	12.718
327.92	12.686
328.29	14.374
328.65	13.168
329.01	13.899
329.38	13.321
329.74	13.204
330.11	13.007
330.47	13.774
330.84	15.901
331.20	14.117
331.56	13.945
331.93	13.796
332.29	14.552
332.66	14.779
333.02	14.899
333.38	14.273
333.75	14.884
334.11	14.858
334.48	14.641
334.84	15.349
335.20	14.636
335.57	15.141
335.93	13.036
336.29	15.293
336.66	14.698
337.02	13.303
337.38	14.074
337.75	13.636
338.11	15.130
338.47	13.720
338.84	14.115
339.20	14.862
339.56	15.693
339.93	14.636
340.29	14.402
340.65	14.973
341.02	15.271
341.38	14.680
341.74	15.965
342.11	15.459
342.47	14.714
342.83	15.154
343.20	15.584
343.56	14.406
343.92	14.474
344.28	15.476
344.65	13.586
345.01	13.468
345.37	13.122
345.73	14.382
346.10	13.384
346.46	15.932
346.82	14.662
347.19	15.288
347.55	14.368
347.91	14.482
348.27	15.119
348.63	15.468
349.00	14.401
349.36	13.136
349.72	14.595
350.08	14.019
350.45	14.727
350.81	13.566
351.17	13.938
351.53	14.988
351.89	12.789
352.26	16.101
352.62	14.836
352.98	14.506
353.34	13.147
353.70	13.912
354.07	13.871
354.43	13.254
354.79	13.918
355.15	13.966
355.51	14.388
355.87	13.959
356.24	13.274
356.60	14.274
356.96	14.401
357.32	15.045
357.68	14.567
358.04	14.489
358.40	13.618
358.77	13.928
359.13	14.444
359.49	13.647
359.85	12.857
360.21	13.238
360.57	14.786
360.93	14.000
361.29	13.228
361.66	14.009
362.02	14.254
362.38	13.992
362.74	14.955
363.10	13.397
363.46	13.280
363.82	14.815
364.18	14.905
364.54	14.710
364.90	13.810
365.26	13.456
365.62	13.660
365.98	13.879
366.35	12.894
366.71	14.100
367.07	13.401
367.43	13.933
367.79	14.847
368.15	13.649
368.51	13.299
368.87	13.419
369.23	13.021
369.59	13.324
369.95	12.206
370.31	14.530
370.67	12.319
371.03	14.457
371.39	14.359
371.75	12.647
372.11	14.154
372.47	12.903
372.83	14.049
373.19	13.223
373.55	13.304
373.91	13.844
374.27	13.402
374.63	13.527
374.99	13.559
375.35	12.561
375.71	12.954
376.07	13.717
376.42	14.030
376.78	14.049
377.14	13.704
377.50	13.444
377.86	12.699
378.22	14.286
378.58	13.283
378.94	12.822
379.30	13.041
379.66	12.817
380.02	13.391
380.38	12.750
380.74	13.265
381.09	13.386
381.45	13.706
381.81	14.128
382.17	13.503
382.53	13.459
382.89	13.765
383.25	12.883
383.61	13.445
383.97	13.008
384.32	13.225
384.68	13.259
385.04	13.891
385.40	13.437
385.76	13.452
386.12	13.342
386.48	13.971
386.83	14.240
387.19	14.286
387.55	13.544
387.91	13.724
388.27	12.630
388.62	13.030
388.98	13.206
389.34	14.456
389.70	13.550
390.06	13.752
390.42	13.359
390.77	13.295
391.13	13.210
391.49	13.959
391.85	12.731
392.20	12.492
392.56	13.321
392.92	12.949
393.28	12.367
393.64	13.909
393.99	13.928
394.35	13.027
394.71	13.363
395.07	12.835
395.42	13.164
395.78	13.168
396.14	13.160
396.50	13.659
396.85	13.605
397.21	12.762
397.57	13.577
397.92	12.380
398.28	12.220
398.64	13.441
399.00	13.318
399.35	12.296
399.71	13.079
400.07	13.779
400.42	13.313
400.78	13.510
401.14	13.049
401.49	12.776
401.85	12.825
402.21	12.515
402.57	12.400
402.92	12.673
403.28	12.680
403.63	12.624
403.99	12.611
404.35	13.273
404.70	12.890
405.06	12.114
405.42	12.664
405.77	11.771
406.13	13.262
406.49	12.596
406.84	12.109
407.20	11.702
407.55	12.891
407.91	12.133
408.27	11.934
408.62	12.703
408.98	12.255
409.34	12.546
409.69	12.581
410.05	12.082
410.40	11.804
410.76	11.888
411.11	12.786
411.47	11.885
411.83	12.340
412.18	12.369
412.54	12.267
412.89	12.771
413.25	12.102
413.60	12.662
413.96	11.354
414.31	11.908
414.67	12.231
415.03	12.119
415.38	12.242
415.74	12.412
416.09	12.933
416.45	11.714
416.80	12.558
417.16	12.601
417.51	12.210
417.87	12.139
418.22	11.798
418.58	12.137
418.93	12.531
419.29	11.776
419.64	12.594
420.00	11.646
420.35	12.232
420.71	12.672
421.06	11.993
421.42	11.930
421.77	12.500
422.12	11.623
422.48	11.279
422.83	12.930
423.19	12.320
423.54	12.130
423.90	12.522
424.25	12.116
424.61	12.500
424.96	12.420
425.31	13.178
425.67	11.685
426.02	11.829
426.38	12.821
426.73	11.761
427.09	11.854
427.44	12.076
427.79	12.133
428.15	12.381
428.50	12.463
428.85	12.872
429.21	12.314
429.56	11.768
429.92	11.928
430.27	12.016
430.62	12.084
430.98	12.455
431.33	11.907
431.68	12.042
432.04	11.608
432.39	11.365
432.74	11.849
433.10	12.168
433.45	11.837
433.80	11.696
434.16	12.233
434.51	12.053
434.86	12.486
435.22	11.840
435.57	12.219
435.92	12.639
436.28	12.456
436.63	12.969
436.98	11.792
437.34	12.761
437.69	12.777
438.04	11.523
438.39	12.299
438.75	11.912
439.10	12.291
439.45	12.574
439.81	11.722
440.16	12.027
440.51	12.009
440.86	11.870
441.22	11.346
441.57	12.155
441.92	12.743
442.27	11.895
442.63	12.796
442.98	12.958
443.33	12.446
443.68	11.461
444.03	12.494
444.39	11.441
444.74	12.013
445.09	11.752
445.44	12.466
445.79	12.222
446.15	12.388
446.50	12.870
446.85	11.716
447.20	12.239
447.55	12.451
447.91	11.583
448.26	13.467
448.61	12.267
448.96	13.621
449.31	13.105
449.66	12.549
450.02	12.145
450.37	11.565
450.72	11.393
451.07	12.066
451.42	11.064
451.77	12.625
452.12	12.356
452.47	12.002
452.83	12.179
453.18	12.775
453.53	13.482
453.88	12.581
454.23	12.194
454.58	13.144
454.93	13.732
455.28	12.656
455.63	12.318
455.98	12.976
456.34	11.872
456.69	12.210
457.04	12.322
457.39	12.916
457.74	12.304
458.09	12.593
458.44	12.429
458.79	11.659
459.14	12.867
459.49	12.609
459.84	11.967
460.19	12.316
460.54	12.731
460.89	12.068
461.24	12.750
461.59	13.422
461.94	12.207
462.29	12.878
462.64	12.572
462.99	12.557
463.34	12.600
463.69	12.695
464.04	12.928
464.39	12.986
464.74	12.537
465.09	12.002
465.44	12.964
465.79	12.025
466.14	11.932
466.49	12.514
466.84	12.434
467.19	12.251
467.54	12.813
467.89	12.965
468.24	12.333
468.59	12.821
468.94	12.828
469.29	12.211
469.64	13.454
469.99	12.991
470.34	12.483
470.68	11.710
471.03	12.789
471.38	12.856
471.73	13.391
472.08	13.158
472.43	12.123
472.78	12.903
473.13	13.094
473.48	13.358
473.83	11.829
474.17	12.819
474.52	12.903
474.87	13.135
475.22	12.188
475.57	12.574
475.92	11.896
476.27	12.852
476.61	12.521
476.96	12.259
477.31	11.826
477.66	12.691
478.01	11.762
478.36	12.533
478.70	12.098
479.05	11.981
479.40	12.641
479.75	12.252
480.10	11.730
480.45	11.804
480.79	12.183
481.14	11.546
481.49	12.862
481.84	12.026
482.19	11.904
482.53	11.835
482.88	12.471
483.23	12.617
483.58	12.284
483.92	12.137
484.27	11.590
484.62	12.500
484.97	12.337
485.31	12.295
485.66	11.455
486.01	11.109
486.36	10.458
486.70	10.505
487.05	10.645
487.40	10.981
487.75	11.309
488.09	11.768
488.44	11.308
488.79	12.694
489.13	11.688
489.48	11.623
489.83	11.524
490.17	11.837
490.52	11.470
490.87	12.890
491.22	12.278
491.56	11.708
491.91	12.006
492.26	11.759
492.60	11.797
492.95	11.506
493.30	12.336
493.64	11.199
493.99	11.792
494.34	11.795
494.68	12.271
495.03	11.701
495.37	12.099
495.72	12.329
496.07	12.343
496.41	11.504
496.76	11.917
497.11	12.067
497.45	12.110
497.80	11.804
498.14	12.126
498.49	11.902
498.84	12.895
499.18	12.429
499.53	12.963
499.87	12.302
500.22	11.964
500.56	12.524
500.91	12.115
501.26	11.617
501.60	12.862
501.95	11.549
502.29	12.043
502.64	12.570
502.98	11.828
503.33	12.249
503.67	12.297
504.02	11.787
504.36	12.541
504.71	12.848
505.06	12.289
505.40	12.348
505.75	11.909
506.09	12.731
506.44	12.136
506.78	12.470
507.13	11.913
507.47	13.030
507.82	12.513
508.16	12.614
508.51	12.785
508.85	12.314
509.19	13.316
509.54	12.245
509.88	12.725
510.23	12.545
510.57	12.900
510.92	12.740
511.26	12.384
511.61	12.967
511.95	11.900
512.30	12.142
512.64	13.004
512.98	12.701
513.33	13.116
513.67	12.113
514.02	12.284
514.36	13.108
514.70	13.226
515.05	12.493
515.39	13.460
515.74	13.119
516.08	13.471
516.42	13.041
516.77	13.378
517.11	12.542
517.46	13.544
517.80	13.531
518.14	12.334
518.49	13.302
518.83	13.125
519.17	12.529
519.52	12.790
519.86	13.748
520.20	13.295
520.55	13.525
520.89	13.382
521.23	13.993
521.58	12.785
521.92	13.656
522.26	12.996
522.61	13.458
522.95	12.584
523.29	13.390
523.64	14.146
523.98	13.309
524.32	13.390
524.66	14.251
525.01	12.868
525.35	13.011
525.69	12.808
526.04	13.894
526.38	13.423
526.72	12.577
527.06	14.124
527.41	12.562
527.75	13.183
528.09	13.423
528.43	13.257
528.78	13.768
529.12	13.152
529.46	13.901
529.80	13.738
530.15	13.832
530.49	12.677
530.83	13.734
531.17	13.577
531.51	13.878
531.86	13.871
532.20	13.690
532.54	13.901
532.88	13.030
533.22	12.992
533.57	13.642
533.91	12.944
534.25	13.426
534.59	13.423
534.93	12.612
535.27	13.217
535.62	13.431
535.96	13.434
536.30	12.905
536.64	13.393
536.98	13.271
537.32	13.496
537.66	13.333
538.01	13.693
538.35	13.381
538.69	14.550
539.03	12.346
539.37	12.907
539.71	12.832
540.05	13.137
540.39	13.355
540.73	13.454
541.07	14.471
541.42	13.242
541.76	14.387
542.10	13.972
542.44	13.510
542.78	14.427
543.12	13.820
543.46	13.967
543.80	14.379
544.14	12.516
544.48	13.968
544.82	13.214
545.16	13.012
545.50	12.082
545.84	14.180
546.18	13.939
546.52	13.421
546.86	13.333
547.20	14.160
547.54	14.028
547.88	14.477
548.22	12.578
548.56	13.585
548.90	12.868
549.24	13.805
549.58	12.688
549.92	14.492
550.26	12.926
550.60	14.177
550.94	13.099
551.28	12.363
551.62	14.162
551.96	13.474
552.30	13.788
552.64	14.672
552.98	13.898
553.32	13.621
553.66	14.588
554.00	13.521
554.34	13.251
554.68	14.092
555.02	13.470
555.36	13.013
555.69	13.735
556.03	13.930
556.37	13.029
556.71	13.370
557.05	14.216
557.39	13.296
557.73	13.338
558.07	13.633
558.41	13.676
558.75	14.107
559.08	14.019
559.42	13.757
559.76	14.779
560.10	13.348
560.44	12.718
560.78	13.906
561.12	12.665
561.45	14.407
561.79	13.975
562.13	13.950
562.47	13.046
562.81	12.831
563.15	12.910
563.48	13.395
563.82	13.699
564.16	13.800
564.50	13.151
564.84	13.148
565.17	13.578
565.51	14.058
565.85	13.008
566.19	12.774
566.52	13.363
566.86	12.839
567.20	13.738
567.54	12.957
567.88	12.656
568.21	13.280
568.55	12.993
568.89	12.062
569.23	12.522
569.56	12.024
569.90	12.340
570.24	11.877
570.57	11.799
570.91	11.248
571.25	11.118
571.59	11.399
571.92	11.636
572.26	11.467
572.60	11.802
572.93	11.604
573.27	11.772
573.61	11.530
573.95	11.705
574.28	11.281
574.62	11.224
574.96	11.302
575.29	11.324
575.63	11.255
575.97	10.883
576.30	11.763
576.64	10.842
576.98	11.351
577.31	11.229
577.65	11.379
577.98	10.897
578.32	10.921
578.66	11.237
578.99	11.207
579.33	11.038
579.67	10.849
580.00	11.244
580.34	11.272
580.67	11.250
581.01	11.401
581.35	10.984
581.68	11.140
582.02	10.565
582.35	10.687
582.69	10.934
583.02	11.006
583.36	11.045
583.70	11.588
584.03	11.311
584.37	12.095
584.70	11.390
585.04	11.130
585.37	11.184
585.71	11.443
586.04	11.090
586.38	11.808
586.72	11.654
587.05	11.220
587.39	11.161
587.72	11.466
588.06	10.993
588.39	11.660
588.73	11.264
589.06	11.717
589.40	11.582
589.73	11.545
590.07	11.886
590.40	11.436
590.73	12.334
591.07	12.454
591.40	12.358
591.74	12.251
592.07	12.129
592.41	11.782
592.74	11.723
593.08	11.359
593.41	11.927
593.75	11.368
594.08	11.633
594.41	11.630
594.75	11.460
595.08	12.097
595.42	11.489
595.75	11.717
596.09	12.467
596.42	12.102
596.75	11.777
597.09	12.165
597.42	11.467
597.75	11.772
598.09	12.043
598.42	11.555
598.76	11.512
599.09	11.479
599.42	11.245
599.76	11.676
600.09	11.403
600.42	11.395
600.76	11.571
601.09	11.366
601.42	12.024
601.76	11.689
602.09	11.700
602.42	12.221
602.76	12.132
603.09	11.526
603.42	12.222
603.76	11.242
604.09	11.865
604.42	11.333
604.76	12.105
605.09	11.970
605.42	11.501
605.75	11.175
606.09	11.671
606.42	11.729
606.75	11.738
607.09	12.223
607.42	11.468
607.75	11.013
608.08	11.854
608.42	12.147
608.75	11.903
609.08	11.286
609.41	11.804
609.75	12.149
610.08	12.158
610.41	11.592
610.74	11.684
611.07	11.808
611.41	12.659
611.74	12.519
612.07	12.526
612.40	12.644
612.73	12.316
613.07	12.769
613.40	12.322
613.73	12.480
614.06	12.258
614.39	12.323
614.72	12.053
615.06	11.502
615.39	12.792
615.72	11.963
616.05	11.590
616.38	12.340
616.71	13.005
617.05	12.250
617.38	12.207
617.71	12.312
618.04	12.440
618.37	13.010
618.70	12.881
619.03	13.224
619.36	12.831
619.69	13.310
620.03	13.805
620.36	13.570
620.69	13.836
621.02	13.127
621.35	13.469
621.68	12.539
622.01	13.622
622.34	13.162
622.67	13.232
623.00	13.793
623.33	12.152
623.66	13.581
623.99	12.813
624.32	13.195
624.65	12.853
624.99	12.323
625.32	12.527
625.65	13.449
625.98	13.221
626.31	13.764
626.64	13.878
626.97	13.300
627.30	12.801
627.63	13.126
627.96	14.382
628.29	13.036
628.62	13.907
628.95	15.566
629.28	15.237
629.61	15.399
629.94	14.000
630.26	14.585
630.59	14.204
630.92	13.889
631.25	13.623
631.58	15.516
631.91	14.503
632.24	14.557
632.57	14.795
632.90	14.145
633.23	14.765
633.56	15.932
633.89	15.402
634.22	14.869
634.55	14.083
634.88	16.048
635.20	15.651
635.53	15.301
635.86	15.099
