SpectraSuite Data File
++++++++++++++++++++++++++++++++++++
Date: Wed May 13 16:00:28 PDT 2015
User: schluterlab
Dark Spectrum Present: Yes
Reference Spectrum Present: Yes
Number of Sampled Component Spectra: 1
Spectrometers: USB2E3373
Integration Time (usec): 3000 (USB2E3373)
Spectra Averaged: 3 (USB2E3373)
Boxcar Smoothing: 0 (USB2E3373)
Correct for Electrical Dark: No (USB2E3373)
Strobe/Lamp Enabled: No (USB2E3373)
Correct for Detector Non-linearity: No (USB2E3373)
Correct for Stray Light: No (USB2E3373)
Number of Pixels in Processed Spectrum: 2048
>>>>>Begin Processed Spectral Data<<<<<
178.53	0.000
178.91	-400.000
179.29	-450.000
179.67	11.111
180.04	-500.000
180.42	850.000
180.80	420.000
181.18	-0.000
181.56	114.286
181.94	0.000
182.31	-228.571
182.69	900.000
183.07	-125.000
183.45	-44.444
183.83	200.000
184.20	-60.000
184.58	300.000
184.96	1200.000
185.34	-160.000
185.72	-262.500
186.09	-400.000
186.47	450.000
186.85	950.000
187.23	900.000
187.61	-866.667
187.98	450.000
188.36	309.091
188.74	118.182
189.12	-280.000
189.49	230.000
189.87	-1100.000
190.25	-250.000
190.63	150.000
191.00	107.692
191.38	183.333
191.76	-50.000
192.14	325.000
192.51	175.000
192.89	216.667
193.27	200.000
193.65	-200.000
194.02	90.000
194.40	180.000
194.78	140.000
195.15	125.000
195.53	260.000
195.91	-250.000
196.29	137.500
196.66	131.579
197.04	-50.000
197.42	0.000
197.79	260.000
198.17	-1800.000
198.55	71.429
198.92	212.500
199.30	-20.000
199.68	0.000
200.05	94.444
200.43	128.571
200.81	1600.000
201.18	533.333
201.56	-333.333
201.94	211.111
202.31	200.000
202.69	91.667
203.07	220.000
203.44	0.000
203.82	250.000
204.19	185.714
204.57	171.429
204.95	87.500
205.32	400.000
205.70	209.091
206.08	135.714
206.45	750.000
206.83	212.500
207.20	283.333
207.58	80.000
207.96	111.111
208.33	350.000
208.71	-133.333
209.08	300.000
209.46	122.222
209.84	100.000
210.21	-100.000
210.59	500.000
210.96	-25.000
211.34	800.000
211.71	300.000
212.09	83.333
212.46	0.000
212.84	166.667
213.22	425.000
213.59	-1000.000
213.97	266.667
214.34	285.714
214.72	236.364
215.09	240.000
215.47	-400.000
215.84	-550.000
216.22	366.667
216.59	135.714
216.97	375.000
217.34	109.091
217.72	-16.667
218.09	0.000
218.47	-2300.000
218.84	166.667
219.22	242.857
219.59	366.667
219.97	-100.000
220.34	380.000
220.72	-200.000
221.09	121.429
221.47	575.000
221.84	-183.333
222.22	0.000
222.59	500.000
222.97	-500.000
223.34	420.000
223.72	130.769
224.09	240.000
224.46	500.000
224.84	-2500.000
225.21	-420.000
225.59	-600.000
225.96	220.000
226.34	85.000
226.71	600.000
227.08	262.500
227.46	180.000
227.83	-225.000
228.21	-300.000
228.58	122.222
228.95	-300.000
229.33	-300.000
229.70	833.333
230.08	171.429
230.45	-120.000
230.82	125.000
231.20	183.333
231.57	185.714
231.95	108.333
232.32	59.091
232.69	-9.091
233.07	171.429
233.44	53.846
233.81	-300.000
234.19	63.158
234.56	75.000
234.93	8.333
235.31	54.545
235.68	-23.077
236.05	64.286
236.43	63.636
236.80	31.579
237.17	1100.000
237.55	38.095
237.92	42.857
238.29	76.190
238.67	38.710
239.04	20.690
239.41	50.000
239.79	19.565
240.16	23.810
240.53	6.818
240.91	29.412
241.28	30.000
241.65	26.000
242.02	46.377
242.40	12.903
242.77	18.333
243.14	31.183
243.51	30.337
243.89	21.176
244.26	21.111
244.63	18.280
245.00	8.511
245.38	19.802
245.75	12.150
246.12	16.514
246.49	24.088
246.87	18.400
247.24	16.923
247.61	15.714
247.98	14.379
248.36	11.486
248.73	13.376
249.10	14.650
249.47	15.254
249.84	14.973
250.22	13.369
250.59	18.343
250.96	20.202
251.33	18.009
251.70	19.802
252.08	13.810
252.45	15.695
252.82	16.087
253.19	12.340
253.56	15.294
253.94	17.012
254.31	11.719
254.68	11.923
255.05	13.284
255.42	15.041
255.79	11.029
256.16	13.718
256.54	9.894
256.91	11.032
257.28	6.475
257.65	11.881
258.02	13.354
258.39	12.303
258.76	13.378
259.14	13.095
259.51	10.030
259.88	9.317
260.25	9.366
260.62	13.295
260.99	8.696
261.36	11.111
261.73	11.748
262.10	9.012
262.47	9.296
262.85	10.864
263.22	6.838
263.59	9.402
263.96	11.813
264.33	12.533
264.70	9.474
265.07	11.509
265.44	9.091
265.81	9.246
266.18	8.040
266.55	8.780
266.92	12.776
267.29	10.880
267.66	11.697
268.03	8.864
268.40	9.813
268.77	10.263
269.14	10.135
269.51	11.512
269.88	9.790
270.25	9.707
270.62	8.989
270.99	10.538
271.36	11.803
271.73	8.879
272.10	9.130
272.47	9.032
272.84	12.554
273.21	11.530
273.58	7.205
273.95	8.386
274.32	8.471
274.69	8.994
275.06	9.646
275.43	10.000
275.80	10.020
276.17	10.183
276.54	11.435
276.91	10.277
277.28	7.422
277.65	9.478
278.02	8.696
278.39	11.523
278.76	10.364
279.13	10.000
279.50	10.801
279.87	7.570
280.23	9.381
280.60	7.930
280.97	7.948
281.34	9.381
281.71	8.364
282.08	10.557
282.45	7.273
282.82	7.993
283.19	7.308
283.56	8.947
283.92	8.968
284.29	8.466
284.66	7.804
285.03	8.499
285.40	8.275
285.77	7.407
286.14	7.599
286.51	9.167
286.87	8.034
287.24	11.238
287.61	9.791
287.98	8.442
288.35	7.924
288.72	8.723
289.08	9.077
289.45	6.590
289.82	7.805
290.19	8.006
290.56	6.891
290.93	7.553
291.29	7.975
291.66	7.670
292.03	9.448
292.40	9.251
292.77	8.876
293.13	8.060
293.50	9.329
293.87	7.704
294.24	7.407
294.60	6.987
294.97	9.157
295.34	8.745
295.71	7.386
296.08	7.407
296.44	7.290
296.81	7.530
297.18	8.266
297.55	5.013
297.91	7.256
298.28	8.300
298.65	8.616
299.02	8.037
299.38	6.640
299.75	4.852
300.12	6.386
300.48	7.125
300.85	7.522
301.22	6.752
301.59	5.429
301.95	7.431
302.32	7.445
302.69	6.213
303.05	7.273
303.42	6.914
303.79	7.248
304.15	6.760
304.52	6.605
304.89	6.969
305.25	6.265
305.62	6.682
305.99	6.730
306.35	6.264
306.72	7.063
307.09	7.547
307.45	8.221
307.82	6.473
308.19	6.843
308.55	8.091
308.92	7.411
309.29	6.864
309.65	5.196
310.02	7.611
310.38	7.419
310.75	8.025
311.12	8.598
311.48	8.046
311.85	7.862
312.22	8.845
312.58	7.484
312.95	8.237
313.31	7.864
313.68	9.044
314.05	9.961
314.41	8.844
314.78	8.459
315.14	9.335
315.51	8.651
315.87	10.594
316.24	8.540
316.61	10.721
316.97	9.589
317.34	7.926
317.70	9.847
318.07	11.261
318.43	10.763
318.80	10.778
319.16	11.299
319.53	11.445
319.89	11.238
320.26	12.700
320.62	11.210
320.99	12.424
321.35	11.717
321.72	12.731
322.08	12.932
322.45	13.234
322.81	14.050
323.18	12.813
323.54	13.451
323.91	15.094
324.27	13.480
324.64	13.793
325.00	12.985
325.37	14.286
325.73	15.260
326.10	15.357
326.46	14.516
326.83	14.840
327.19	15.457
327.56	15.767
327.92	15.398
328.29	17.657
328.65	16.114
329.01	17.148
329.38	16.004
329.74	15.235
330.11	17.154
330.47	16.253
330.84	16.268
331.20	16.302
331.56	17.156
331.93	16.481
332.29	17.924
332.66	16.991
333.02	16.819
333.38	17.615
333.75	17.112
334.11	16.014
334.48	16.327
334.84	17.371
335.20	17.091
335.57	17.316
335.93	16.429
336.29	16.300
336.66	17.403
337.02	17.376
337.38	18.241
337.75	15.775
338.11	17.099
338.47	16.022
338.84	17.782
339.20	15.688
339.56	17.609
339.93	16.545
340.29	16.486
340.65	17.380
341.02	17.976
341.38	17.972
341.74	17.018
342.11	18.079
342.47	17.269
342.83	16.353
343.20	18.009
343.56	15.922
343.92	17.544
344.28	17.602
344.65	17.541
345.01	16.162
345.37	16.467
345.73	16.667
346.10	17.306
346.46	17.373
346.82	17.628
347.19	16.876
347.55	16.256
347.91	16.748
348.27	18.406
348.63	17.893
349.00	16.828
349.36	17.570
349.72	17.803
350.08	17.018
350.45	17.575
350.81	17.465
351.17	17.261
351.53	17.117
351.89	16.007
352.26	17.995
352.62	17.642
352.98	16.207
353.34	18.406
353.70	17.185
354.07	17.661
354.43	16.825
354.79	17.377
355.15	17.159
355.51	18.066
355.87	17.714
356.24	18.322
356.60	16.520
356.96	17.216
357.32	18.316
357.68	18.110
358.04	17.340
358.40	18.211
358.77	17.606
359.13	16.811
359.49	18.118
359.85	16.825
360.21	17.624
360.57	18.755
360.93	18.615
361.29	17.989
361.66	18.111
362.02	19.030
362.38	17.871
362.74	18.527
363.10	17.765
363.46	17.755
363.82	17.914
364.18	18.429
364.54	18.722
364.90	18.839
365.26	19.412
365.62	18.846
365.98	17.896
366.35	17.550
366.71	18.510
367.07	17.334
367.43	18.578
367.79	19.343
368.15	18.966
368.51	17.587
368.87	18.630
369.23	19.166
369.59	19.551
369.95	18.235
370.31	19.729
370.67	19.638
371.03	19.476
371.39	19.388
371.75	19.632
372.11	18.563
372.47	21.114
372.83	20.029
373.19	19.220
373.55	19.734
373.91	21.281
374.27	19.450
374.63	19.636
374.99	21.116
375.35	19.609
375.71	20.905
376.07	20.850
376.42	20.426
376.78	20.941
377.14	20.624
377.50	21.192
377.86	20.878
378.22	21.429
378.58	20.677
378.94	21.307
379.30	20.293
379.66	21.320
380.02	21.437
380.38	20.886
380.74	22.209
381.09	22.311
381.45	22.495
381.81	22.543
382.17	21.911
382.53	22.075
382.89	22.963
383.25	22.764
383.61	23.234
383.97	22.889
384.32	23.144
384.68	23.234
385.04	23.110
385.40	22.229
385.76	22.113
386.12	23.057
386.48	23.474
386.83	23.348
387.19	23.871
387.55	23.315
387.91	23.640
388.27	23.299
388.62	23.909
388.98	22.727
389.34	23.655
389.70	23.973
390.06	24.271
390.42	24.189
390.77	24.300
391.13	23.676
391.49	24.619
391.85	23.806
392.20	23.218
392.56	24.495
392.92	24.367
393.28	23.609
393.64	23.921
393.99	24.374
394.35	24.442
394.71	24.153
395.07	23.676
395.42	25.464
395.78	24.427
396.14	25.016
396.50	25.439
396.85	24.603
397.21	24.106
397.57	24.675
397.92	25.000
398.28	23.487
398.64	24.373
399.00	24.454
399.35	24.817
399.71	24.190
400.07	25.015
400.42	24.663
400.78	26.055
401.14	24.878
401.49	24.657
401.85	24.319
402.21	24.731
402.57	24.368
402.92	24.527
403.28	25.859
403.63	24.505
403.99	24.777
404.35	23.879
404.70	24.820
405.06	24.869
405.42	24.641
405.77	24.400
406.13	24.605
406.49	24.778
406.84	24.867
407.20	23.759
407.55	23.803
407.91	23.400
408.27	24.378
408.62	23.781
408.98	23.836
409.34	24.908
409.69	24.581
410.05	23.606
410.40	23.914
410.76	23.118
411.11	23.764
411.47	23.578
411.83	24.557
412.18	23.562
412.54	24.533
412.89	24.398
413.25	24.203
413.60	24.274
413.96	23.679
414.31	23.512
414.67	24.905
415.03	24.371
415.38	24.098
415.74	23.923
416.09	24.428
416.45	24.431
416.80	24.323
417.16	24.464
417.51	24.818
417.87	24.021
418.22	24.606
418.58	23.564
418.93	23.956
419.29	23.997
419.64	25.252
420.00	24.329
420.35	24.290
420.71	26.360
421.06	24.045
421.42	25.322
421.77	24.215
422.12	24.424
422.48	23.637
422.83	24.811
423.19	24.033
423.54	24.608
423.90	24.348
424.25	24.902
424.61	24.940
424.96	24.082
425.31	23.754
425.67	24.101
426.02	23.943
426.38	24.603
426.73	23.347
427.09	24.073
427.44	24.669
427.79	24.669
428.15	24.286
428.50	23.230
428.85	25.089
429.21	23.689
429.56	24.158
429.92	24.560
430.27	23.784
430.62	23.963
430.98	24.235
431.33	24.278
431.68	25.393
432.04	24.760
432.39	24.215
432.74	23.818
433.10	24.165
433.45	24.198
433.80	23.725
434.16	23.985
434.51	24.158
434.86	24.059
435.22	24.458
435.57	23.769
435.92	23.113
436.28	25.030
436.63	24.172
436.98	23.755
437.34	24.866
437.69	24.504
438.04	24.283
438.39	25.015
438.75	25.102
439.10	24.302
439.45	24.911
439.81	23.746
440.16	25.127
440.51	23.960
440.86	25.594
441.22	24.805
441.57	24.947
441.92	24.360
442.27	24.650
442.63	23.539
442.98	24.620
443.33	24.185
443.68	24.935
444.03	24.012
444.39	24.684
444.74	24.621
445.09	24.528
445.44	24.822
445.79	24.740
446.15	24.775
446.50	24.448
446.85	23.638
447.20	24.171
447.55	24.623
447.91	24.214
448.26	25.431
448.61	23.968
448.96	25.249
449.31	25.141
449.66	25.267
450.02	24.735
450.37	23.866
450.72	24.873
451.07	23.400
451.42	25.046
451.77	25.132
452.12	24.885
452.47	24.689
452.83	25.000
453.18	25.611
453.53	24.428
453.88	24.217
454.23	25.583
454.58	25.257
454.93	25.493
455.28	23.441
455.63	24.879
455.98	25.714
456.34	24.435
456.69	25.673
457.04	25.015
457.39	24.372
457.74	24.724
458.09	24.324
458.44	24.800
458.79	24.512
459.14	25.056
459.49	23.818
459.84	24.709
460.19	24.691
460.54	24.595
460.89	24.739
461.24	25.197
461.59	25.857
461.94	24.969
462.29	24.748
462.64	24.569
462.99	24.463
463.34	25.133
463.69	24.578
464.04	25.333
464.39	24.522
464.74	25.490
465.09	24.246
465.44	24.709
465.79	24.609
466.14	24.412
466.49	24.194
466.84	25.452
467.19	24.381
467.54	25.437
467.89	24.730
468.24	25.015
468.59	24.847
468.94	23.213
469.29	24.293
469.64	25.502
469.99	25.440
470.34	24.505
470.68	24.784
471.03	24.422
471.38	24.253
471.73	24.384
472.08	24.211
472.43	23.932
472.78	24.095
473.13	24.326
473.48	24.594
473.83	23.963
474.17	23.460
474.52	24.628
474.87	24.810
475.22	23.912
475.57	23.912
475.92	24.642
476.27	23.901
476.61	24.821
476.96	23.694
477.31	23.129
477.66	24.617
478.01	23.419
478.36	24.484
478.70	24.091
479.05	24.121
479.40	25.026
479.75	23.996
480.10	23.658
480.45	23.655
480.79	22.934
481.14	23.679
481.49	24.395
481.84	23.731
482.19	23.762
482.53	23.853
482.88	23.918
483.23	24.766
483.58	24.477
483.92	23.524
484.27	22.745
484.62	23.060
484.97	23.729
485.31	23.151
485.66	22.493
486.01	22.458
486.36	21.415
486.70	21.651
487.05	22.305
487.40	22.370
487.75	22.207
488.09	23.082
488.44	22.482
488.79	23.183
489.13	23.071
489.48	22.512
489.83	22.400
490.17	23.060
490.52	22.542
490.87	22.886
491.22	22.874
491.56	22.232
491.91	23.174
492.26	23.013
492.60	22.581
492.95	22.123
493.30	22.850
493.64	22.865
493.99	22.423
494.34	22.479
494.68	22.711
495.03	22.744
495.37	23.034
495.72	22.710
496.07	22.970
496.41	21.947
496.76	23.263
497.11	22.512
497.45	23.149
497.80	22.985
498.14	21.981
498.49	23.171
498.84	23.346
499.18	22.238
499.53	22.032
499.87	22.367
500.22	22.562
500.56	23.155
500.91	22.019
501.26	21.622
501.60	22.449
501.95	22.227
502.29	22.587
502.64	22.626
502.98	22.300
503.33	21.389
503.67	22.274
504.02	22.404
504.36	22.087
504.71	22.472
505.06	22.843
505.40	22.557
505.75	21.842
506.09	22.741
506.44	22.348
506.78	21.724
507.13	21.959
507.47	22.980
507.82	23.100
508.16	21.783
508.51	22.222
508.85	21.450
509.19	21.786
509.54	22.653
509.88	22.308
510.23	22.159
510.57	22.859
510.92	21.699
511.26	22.199
511.61	22.510
511.95	21.503
512.30	21.951
512.64	21.655
512.98	21.758
513.33	22.537
513.67	21.505
514.02	21.861
514.36	21.682
514.70	22.745
515.05	21.640
515.39	22.490
515.74	21.509
516.08	22.582
516.42	22.031
516.77	22.631
517.11	22.198
517.46	22.686
517.80	22.590
518.14	22.003
518.49	22.579
518.83	21.932
519.17	21.824
519.52	21.336
519.86	21.392
520.20	22.370
520.55	22.621
520.89	22.324
521.23	22.738
521.58	22.149
521.92	22.229
522.26	21.843
522.61	21.869
522.95	21.731
523.29	21.363
523.64	22.744
523.98	21.319
524.32	22.195
524.66	21.227
525.01	22.365
525.35	20.694
525.69	21.552
526.04	21.682
526.38	21.354
526.72	20.920
527.06	21.594
527.41	20.173
527.75	22.058
528.09	21.323
528.43	22.307
528.78	21.451
529.12	21.879
529.46	22.658
529.80	21.101
530.15	22.118
530.49	21.108
530.83	21.709
531.17	21.932
531.51	22.503
531.86	21.484
532.20	22.360
532.54	21.909
532.88	21.694
533.22	20.425
533.57	21.296
533.91	21.072
534.25	20.778
534.59	21.293
534.93	21.356
535.27	21.786
535.62	20.513
535.96	21.971
536.30	21.233
536.64	21.442
536.98	21.964
537.32	20.935
537.66	21.467
538.01	21.791
538.35	21.202
538.69	22.208
539.03	20.598
539.37	20.383
539.71	20.415
540.05	21.373
540.39	21.595
540.73	21.216
541.07	20.311
541.42	20.939
541.76	21.742
542.10	21.345
542.44	20.530
542.78	22.200
543.12	19.770
543.46	20.525
543.80	21.470
544.14	19.769
544.48	21.016
544.82	20.334
545.16	20.950
545.50	19.344
545.84	19.960
546.18	20.539
546.52	20.716
546.86	20.137
547.20	20.971
547.54	20.908
547.88	22.066
548.22	20.797
548.56	21.069
548.90	20.038
549.24	19.596
549.58	20.396
549.92	20.742
550.26	20.668
550.60	19.710
550.94	19.155
551.28	18.654
551.62	20.345
551.96	19.228
552.30	21.638
552.64	19.878
552.98	20.339
553.32	20.499
553.66	19.700
554.00	19.698
554.34	20.704
554.68	21.173
555.02	19.817
555.36	19.763
555.69	20.027
556.03	19.381
556.37	20.259
556.71	19.577
557.05	20.308
557.39	20.434
557.73	20.042
558.07	19.942
558.41	19.320
558.75	20.426
559.08	20.507
559.42	19.274
559.76	20.588
560.10	18.701
560.44	19.637
560.78	19.960
561.12	19.327
561.45	20.078
561.79	19.512
562.13	19.517
562.47	18.989
562.81	20.293
563.15	19.130
563.48	19.231
563.82	19.635
564.16	18.770
564.50	19.076
564.84	19.216
565.17	18.983
565.51	19.425
565.85	19.480
566.19	18.159
566.52	19.063
566.86	18.927
567.20	18.927
567.54	18.950
567.88	18.794
568.21	18.889
568.55	18.807
568.89	18.628
569.23	18.761
569.56	18.178
569.90	18.302
570.24	18.335
570.57	18.123
570.91	17.421
571.25	17.974
571.59	17.909
571.92	17.425
572.26	17.880
572.60	17.778
572.93	17.631
573.27	18.338
573.61	18.007
573.95	17.907
574.28	17.764
574.62	17.396
574.96	17.157
575.29	17.507
575.63	17.581
575.97	17.365
576.30	17.924
576.64	17.539
576.98	17.137
577.31	17.884
577.65	17.329
577.98	17.350
578.32	17.017
578.66	17.275
578.99	17.393
579.33	17.405
579.67	17.222
580.00	17.142
580.34	17.679
580.67	17.183
581.01	17.315
581.35	17.100
581.68	16.924
582.02	17.002
582.35	17.179
582.69	17.226
583.02	16.949
583.36	16.993
583.70	17.308
584.03	17.163
584.37	17.734
584.70	17.294
585.04	17.001
585.37	17.078
585.71	17.011
586.04	16.791
586.38	17.320
586.72	17.205
587.05	17.196
587.39	17.388
587.72	17.238
588.06	16.622
588.39	17.064
588.73	17.043
589.06	17.202
589.40	17.508
589.73	16.966
590.07	17.153
590.40	17.574
590.73	17.564
591.07	17.908
591.40	17.503
591.74	17.792
592.07	17.321
592.41	17.528
592.74	17.079
593.08	17.055
593.41	16.862
593.75	16.490
594.08	16.996
594.41	17.073
594.75	16.377
595.08	16.356
595.42	17.128
595.75	17.094
596.09	17.124
596.42	17.367
596.75	16.843
597.09	17.792
597.42	16.400
597.75	16.904
598.09	17.130
598.42	17.440
598.76	16.538
599.09	16.610
599.42	16.303
599.76	16.764
600.09	16.867
600.42	16.435
600.76	16.964
601.09	16.466
601.42	16.895
601.76	16.319
602.09	17.075
602.42	17.158
602.76	17.130
603.09	16.365
603.42	16.712
603.76	16.273
604.09	16.324
604.42	16.673
604.76	17.166
605.09	16.820
605.42	16.332
605.75	16.308
606.09	16.389
606.42	16.224
606.75	16.342
607.09	16.785
607.42	16.560
607.75	16.709
608.08	16.848
608.42	17.391
608.75	16.772
609.08	16.651
609.41	16.373
609.75	16.675
610.08	17.295
610.41	16.713
610.74	16.698
611.07	16.502
611.41	16.438
611.74	18.250
612.07	16.925
612.40	17.419
612.73	16.000
613.07	17.511
613.40	17.536
613.73	15.627
614.06	17.043
614.39	17.095
614.72	16.526
615.06	17.017
615.39	16.667
615.72	16.513
616.05	16.374
616.38	16.509
616.71	16.805
617.05	17.491
617.38	16.957
617.71	16.276
618.04	16.827
618.37	16.736
618.70	16.801
619.03	16.908
619.36	17.040
619.69	16.620
620.03	16.415
620.36	17.513
620.69	17.397
621.02	17.257
621.35	16.523
621.68	17.368
622.01	16.873
622.34	16.793
622.67	17.262
623.00	15.994
623.33	16.297
623.66	16.798
623.99	17.452
624.32	16.762
624.65	15.749
624.99	16.289
625.32	16.582
625.65	17.130
625.98	17.141
626.31	17.341
626.64	17.959
626.97	17.124
627.30	17.789
627.63	18.048
627.96	16.737
628.29	17.235
628.62	17.658
628.95	19.245
629.28	18.066
629.61	17.690
629.94	17.238
630.26	17.350
630.59	17.541
630.92	17.146
631.25	16.190
631.58	17.518
631.91	16.836
632.24	16.561
632.57	18.048
632.90	18.202
633.23	17.785
633.56	16.271
633.89	18.460
634.22	16.686
634.55	19.053
634.88	18.084
635.20	17.921
635.53	17.349
635.86	17.574
