SpectraSuite Data File
++++++++++++++++++++++++++++++++++++
Date: Wed May 13 16:45:07 PDT 2015
User: schluterlab
Dark Spectrum Present: Yes
Reference Spectrum Present: Yes
Number of Sampled Component Spectra: 1
Spectrometers: USB2E3373
Integration Time (usec): 3000 (USB2E3373)
Spectra Averaged: 3 (USB2E3373)
Boxcar Smoothing: 0 (USB2E3373)
Correct for Electrical Dark: No (USB2E3373)
Strobe/Lamp Enabled: No (USB2E3373)
Correct for Detector Non-linearity: No (USB2E3373)
Correct for Stray Light: No (USB2E3373)
Number of Pixels in Processed Spectrum: 2048
>>>>>Begin Processed Spectral Data<<<<<
178.53	0.000
178.91	-1175.000
179.29	-1325.000
179.67	-227.778
180.04	-1275.000
180.42	2600.000
180.80	1080.000
181.18	-1025.000
181.56	685.714
181.94	0.000
182.31	-671.429
182.69	1166.667
183.07	-437.500
183.45	-500.000
183.83	527.273
184.20	-420.000
184.58	1750.000
184.96	5900.000
185.34	-880.000
185.72	-587.500
186.09	-2700.000
186.47	2700.000
186.85	2050.000
187.23	5000.000
187.61	-1600.000
187.98	1275.000
188.36	609.091
188.74	490.909
189.12	-780.000
189.49	460.000
189.87	-5700.000
190.25	-1225.000
190.63	357.143
191.00	438.462
191.38	916.667
191.76	-1025.000
192.14	1525.000
192.51	600.000
192.89	983.333
193.27	612.500
193.65	-1275.000
194.02	510.000
194.40	860.000
194.78	530.000
195.15	508.333
195.53	570.000
195.91	-2000.000
196.29	318.750
196.66	310.526
197.04	-360.000
197.42	0.000
197.79	540.000
198.17	-4300.000
198.55	714.286
198.92	637.500
199.30	820.000
199.68	0.000
200.05	311.111
200.43	814.286
200.81	5000.000
201.18	1666.667
201.56	-1766.667
201.94	522.222
202.31	566.667
202.69	408.333
203.07	450.000
203.44	0.000
203.82	1375.000
204.19	828.571
204.57	421.429
204.95	625.000
205.32	1666.667
205.70	409.091
206.08	442.857
206.45	2550.000
206.83	368.750
207.20	983.333
207.58	780.000
207.96	300.000
208.33	700.000
208.71	-750.000
209.08	642.857
209.46	600.000
209.84	472.727
210.21	-1666.667
210.59	1325.000
210.96	-525.000
211.34	2650.000
211.71	490.000
212.09	700.000
212.46	0.000
212.84	1766.667
213.22	1250.000
213.59	-4500.000
213.97	916.667
214.34	700.000
214.72	627.273
215.09	1240.000
215.47	-2400.000
215.84	-2150.000
216.22	1700.000
216.59	378.571
216.97	1075.000
217.34	454.545
217.72	-683.333
218.09	0.000
218.47	-4700.000
218.84	722.222
219.22	671.429
219.59	1900.000
219.97	-614.286
220.34	820.000
220.72	-1633.333
221.09	364.286
221.47	1350.000
221.84	-716.667
222.22	0.000
222.59	1450.000
222.97	-2400.000
223.34	1220.000
223.72	469.231
224.09	1000.000
224.46	2250.000
224.84	-4600.000
225.21	-940.000
225.59	-4600.000
225.96	590.000
226.34	295.000
226.71	2550.000
227.08	487.500
227.46	500.000
227.83	-950.000
228.21	-1950.000
228.58	444.444
228.95	-2650.000
229.33	-2250.000
229.70	1466.667
230.08	642.857
230.45	-700.000
230.82	408.333
231.20	833.333
231.57	728.571
231.95	416.667
232.32	286.364
232.69	372.727
233.07	628.571
233.44	415.385
233.81	-1633.333
234.19	273.684
234.56	425.000
234.93	325.000
235.31	427.273
235.68	376.923
236.05	271.429
236.43	139.394
236.80	252.632
237.17	3700.000
237.55	219.048
237.92	228.571
238.29	280.952
238.67	180.645
239.04	206.897
239.41	130.556
239.79	95.652
240.16	121.429
240.53	129.545
240.91	98.039
241.28	92.000
241.65	106.000
242.02	89.855
242.40	83.871
242.77	71.667
243.14	51.613
243.51	74.157
243.89	69.412
244.26	56.667
244.63	55.914
245.00	64.894
245.38	50.495
245.75	59.813
246.12	43.119
246.49	59.854
246.87	53.600
247.24	54.615
247.61	45.714
247.98	40.523
248.36	40.541
248.73	38.854
249.10	49.045
249.47	36.158
249.84	38.503
250.22	27.807
250.59	32.544
250.96	38.384
251.33	34.123
251.70	39.604
252.08	33.333
252.45	32.287
252.82	26.957
253.19	30.213
253.56	32.549
253.94	33.610
254.31	31.250
254.68	31.923
255.05	26.937
255.42	32.927
255.79	29.044
256.16	32.130
256.54	27.208
256.91	31.317
257.28	26.259
257.65	24.092
258.02	28.882
258.39	24.606
258.76	23.746
259.14	25.298
259.51	23.404
259.88	22.981
260.25	25.378
260.62	21.387
260.99	27.019
261.36	22.523
261.73	24.642
262.10	22.674
262.47	25.070
262.85	22.284
263.22	22.222
263.59	25.926
263.96	22.253
264.33	21.410
264.70	21.053
265.07	23.018
265.44	23.232
265.81	19.951
266.18	20.603
266.55	20.732
266.92	22.604
267.29	21.759
267.66	22.936
268.03	20.909
268.40	20.561
268.77	17.900
269.14	21.622
269.51	21.219
269.88	19.580
270.25	18.284
270.62	18.876
270.99	20.645
271.36	20.815
271.73	18.925
272.10	21.522
272.47	20.215
272.84	20.563
273.21	18.658
273.58	21.616
273.95	19.497
274.32	19.421
274.69	20.557
275.06	17.126
275.43	19.362
275.80	20.441
276.17	19.552
276.54	20.998
276.91	16.798
277.28	18.164
277.65	19.923
278.02	17.598
278.39	19.531
278.76	17.636
279.13	19.245
279.50	18.808
279.87	18.924
280.23	18.762
280.60	18.569
280.97	17.930
281.34	17.345
281.71	19.818
282.08	20.154
282.45	16.909
282.82	18.117
283.19	16.578
283.56	17.368
283.92	17.766
284.29	17.284
284.66	16.152
285.03	16.456
285.40	16.197
285.77	15.825
286.14	16.753
286.51	17.000
286.87	17.436
287.24	18.078
287.61	17.657
287.98	17.370
288.35	14.263
288.72	17.445
289.08	17.214
289.45	17.298
289.82	17.886
290.19	14.757
290.56	15.773
290.93	14.502
291.29	14.724
291.66	15.782
292.03	18.169
292.40	16.593
292.77	14.645
293.13	16.567
293.50	15.743
293.87	15.852
294.24	14.667
294.60	15.721
294.97	16.424
295.34	14.669
295.71	15.767
296.08	13.390
296.44	13.893
296.81	14.135
297.18	16.396
297.55	12.005
297.91	13.720
298.28	15.930
298.65	15.274
299.02	14.888
299.38	14.608
299.75	10.916
300.12	13.410
300.48	13.250
300.85	13.564
301.22	14.140
301.59	12.374
301.95	13.980
302.32	12.195
302.69	13.501
303.05	13.212
303.42	12.346
303.79	12.344
304.15	12.587
304.52	12.283
304.89	11.266
305.25	13.457
305.62	13.930
305.99	12.751
306.35	12.975
306.72	13.901
307.09	13.430
307.45	13.288
307.82	12.165
308.19	13.355
308.55	12.945
308.92	12.352
309.29	12.249
309.65	11.983
310.02	13.319
310.38	13.226
310.75	12.883
311.12	13.101
311.48	13.689
311.85	13.522
312.22	13.736
312.58	12.682
312.95	13.622
313.31	13.398
313.68	14.033
314.05	13.807
314.41	13.367
314.78	13.696
315.14	14.002
315.51	14.624
315.87	14.257
316.24	14.499
316.61	14.522
316.97	14.579
317.34	13.992
317.70	15.296
318.07	15.399
318.43	15.166
318.80	17.901
319.16	16.008
319.53	15.666
319.89	17.048
320.26	17.400
320.62	17.262
320.99	17.172
321.35	19.091
321.72	19.097
322.08	19.447
322.45	20.000
322.81	19.961
323.18	21.484
323.54	19.852
323.91	20.660
324.27	20.268
324.64	20.224
325.00	20.469
325.37	22.202
325.73	21.634
326.10	22.065
326.46	21.953
326.83	23.296
327.19	22.972
327.56	23.345
327.92	23.710
328.29	22.893
328.65	25.506
329.01	25.090
329.38	23.867
329.74	26.223
330.11	25.825
330.47	25.253
330.84	26.195
331.20	25.410
331.56	25.963
331.93	26.759
332.29	25.200
332.66	25.487
333.02	26.325
333.38	26.649
333.75	27.540
334.11	27.135
334.48	26.708
334.84	26.011
335.20	26.364
335.57	26.927
335.93	24.464
336.29	26.557
336.66	26.871
337.02	26.697
337.38	27.315
337.75	27.273
338.11	26.589
338.47	26.796
338.84	27.681
339.20	25.872
339.56	26.825
339.93	26.000
340.29	25.091
340.65	26.649
341.02	26.440
341.38	27.491
341.74	25.789
342.11	26.725
342.47	28.546
342.83	26.199
343.20	27.619
343.56	27.464
343.92	26.754
344.28	25.935
344.65	26.827
345.01	25.673
345.37	26.587
345.73	26.481
346.10	27.280
346.46	25.932
346.82	27.183
347.19	25.731
347.55	27.176
347.91	26.942
348.27	27.362
348.63	25.251
349.00	25.809
349.36	25.698
349.72	25.662
350.08	25.689
350.45	27.095
350.81	25.183
351.17	26.013
351.53	25.962
351.89	25.743
352.26	25.178
352.62	26.624
352.98	26.013
353.34	25.883
353.70	26.514
354.07	26.694
354.43	25.952
354.79	26.388
355.15	25.778
355.51	26.938
355.87	26.041
356.24	26.221
356.60	25.100
356.96	25.503
357.32	25.756
357.68	26.299
358.04	26.207
358.40	26.049
358.77	25.900
359.13	26.204
359.49	25.804
359.85	24.444
360.21	25.917
360.57	26.926
360.93	25.385
361.29	26.002
361.66	26.161
362.02	25.149
362.38	26.464
362.74	25.223
363.10	25.907
363.46	24.431
363.82	25.624
364.18	26.652
364.54	26.672
364.90	26.771
365.26	27.500
365.62	26.150
365.98	26.589
366.35	25.072
366.71	26.464
367.07	25.346
367.43	26.343
367.79	26.981
368.15	27.371
368.51	26.090
368.87	26.767
369.23	26.481
369.59	26.575
369.95	26.250
370.31	26.425
370.67	26.014
371.03	27.865
371.39	26.749
371.75	26.324
372.11	26.031
372.47	27.859
372.83	27.666
373.19	26.228
373.55	26.903
373.91	27.909
374.27	26.254
374.63	27.418
374.99	28.178
375.35	26.727
375.71	27.485
376.07	25.995
376.42	27.579
376.78	27.966
377.14	27.748
377.50	28.675
377.86	27.261
378.22	27.876
378.58	26.441
378.94	26.524
379.30	27.672
379.66	27.157
380.02	27.396
380.38	26.230
380.74	28.211
381.09	27.445
381.45	28.457
381.81	27.641
382.17	28.662
382.53	27.484
382.89	27.901
383.25	27.705
383.61	28.315
383.97	28.518
384.32	28.384
384.68	27.881
385.04	28.457
385.40	28.111
385.76	28.194
386.12	27.396
386.48	29.012
386.83	28.865
387.19	28.942
387.55	27.891
387.91	27.872
388.27	27.590
388.62	29.133
388.98	27.518
389.34	28.849
389.70	28.265
390.06	28.517
390.42	28.599
390.77	28.244
391.13	28.462
391.49	28.744
391.85	27.371
392.20	27.823
392.56	27.841
392.92	28.428
393.28	27.160
393.64	28.477
393.99	27.978
394.35	28.846
394.71	27.854
395.07	27.726
395.42	28.059
395.78	28.753
396.14	28.057
396.50	28.822
396.85	27.273
397.21	28.113
397.57	28.022
397.92	28.726
398.28	27.074
398.64	27.718
399.00	27.756
399.35	27.580
399.71	27.662
400.07	28.563
400.42	28.589
400.78	29.433
401.14	28.232
401.49	28.478
401.85	27.405
402.21	28.024
402.57	27.020
402.92	27.743
403.28	28.982
403.63	27.599
403.99	27.070
404.35	27.697
404.70	27.938
405.06	26.966
405.42	27.823
405.77	27.086
406.13	27.370
406.49	27.144
406.84	27.643
407.20	26.891
407.55	27.441
407.91	28.067
408.27	28.143
408.62	27.634
408.98	27.819
409.34	27.368
409.69	27.419
410.05	26.952
410.40	26.972
410.76	26.583
411.11	27.382
411.47	26.965
411.83	27.489
412.18	26.407
412.54	27.460
412.89	26.084
413.25	27.509
413.60	27.486
413.96	26.715
414.31	26.367
414.67	27.567
415.03	26.689
415.38	27.191
415.74	27.781
416.09	26.649
416.45	26.573
416.80	27.098
417.16	27.547
417.51	27.140
417.87	27.746
418.22	27.066
418.58	26.727
418.93	27.457
419.29	27.626
419.64	26.763
420.00	26.585
420.35	26.841
420.71	26.898
421.06	27.387
421.42	27.251
421.77	26.682
422.12	26.334
422.48	26.012
422.83	27.024
423.19	26.740
423.54	27.220
423.90	27.188
424.25	27.080
424.61	26.726
424.96	26.181
425.31	26.689
425.67	26.685
426.02	26.229
426.38	27.717
426.73	26.975
427.09	28.024
427.44	27.257
427.79	26.279
428.15	27.738
428.50	27.033
428.85	27.950
429.21	26.781
429.56	27.061
429.92	26.673
430.27	26.713
430.62	26.062
430.98	27.141
431.33	26.753
431.68	27.539
432.04	26.305
432.39	27.813
432.74	28.007
433.10	27.391
433.45	27.988
433.80	26.497
434.16	26.763
434.51	26.368
434.86	26.967
435.22	27.793
435.57	27.477
435.92	26.858
436.28	26.631
436.63	27.373
436.98	27.476
437.34	27.609
437.69	28.121
438.04	27.094
438.39	27.761
438.75	27.949
439.10	26.648
439.45	28.867
439.81	27.976
440.16	27.047
440.51	28.354
440.86	27.504
441.22	27.642
441.57	27.866
441.92	27.431
442.27	27.072
442.63	27.014
442.98	28.845
443.33	27.446
443.68	27.310
444.03	27.282
444.39	27.264
444.74	28.030
445.09	27.817
445.44	27.884
445.79	27.363
446.15	28.534
446.50	28.541
446.85	27.801
447.20	27.945
447.55	28.420
447.91	27.468
448.26	28.047
448.61	28.717
448.96	29.070
449.31	29.415
449.66	28.025
450.02	27.131
450.37	28.401
450.72	28.539
451.07	28.641
451.42	28.024
451.77	28.949
452.12	28.118
452.47	28.296
452.83	29.604
453.18	29.340
453.53	29.623
453.88	28.943
454.23	29.348
454.58	28.407
454.93	29.943
455.28	29.302
455.63	29.490
455.98	30.536
456.34	28.894
456.69	29.368
457.04	29.226
457.39	28.814
457.74	28.961
458.09	29.730
458.44	29.304
458.79	28.037
459.14	28.499
459.49	29.247
459.84	28.476
460.19	28.403
460.54	28.704
460.89	29.183
461.24	29.569
461.59	30.564
461.94	28.915
462.29	28.961
462.64	29.228
462.99	28.692
463.34	29.267
463.69	29.206
464.04	29.159
464.39	29.043
464.74	28.639
465.09	29.192
465.44	29.418
465.79	28.076
466.14	27.969
466.49	28.865
466.84	28.955
467.19	28.908
467.54	29.500
467.89	28.872
468.24	28.796
468.59	29.365
468.94	28.406
469.29	29.049
469.64	29.518
469.99	29.296
470.34	29.326
470.68	30.172
471.03	28.367
471.38	30.160
471.73	29.647
472.08	29.934
472.43	28.769
472.78	28.440
473.13	28.947
473.48	28.402
473.83	29.024
474.17	28.749
474.52	29.529
474.87	29.772
475.22	29.193
475.57	28.963
475.92	28.200
476.27	28.861
476.61	28.627
476.96	28.092
477.31	28.467
477.66	28.556
478.01	28.437
478.36	29.455
478.70	28.453
479.05	28.381
479.40	28.966
479.75	28.012
480.10	28.827
480.45	28.510
480.79	27.664
481.14	28.425
481.49	28.429
481.84	28.212
482.19	28.487
482.53	27.615
482.88	28.246
483.23	28.785
483.58	28.207
483.92	28.257
484.27	27.451
484.62	28.793
484.97	27.316
485.31	28.356
485.66	27.483
486.01	26.050
486.36	25.427
486.70	24.561
487.05	25.553
487.40	26.302
487.75	26.342
488.09	26.994
488.44	27.418
488.79	27.848
489.13	28.571
489.48	28.589
489.83	27.924
490.17	28.146
490.52	28.122
490.87	28.358
491.22	28.104
491.56	27.563
491.91	27.734
492.26	27.239
492.60	28.295
492.95	27.689
493.30	28.131
493.64	28.185
493.99	26.880
494.34	27.983
494.68	28.388
495.03	28.759
495.37	28.060
495.72	28.558
496.07	28.399
496.41	27.478
496.76	27.792
497.11	27.195
497.45	27.667
497.80	27.639
498.14	28.502
498.49	27.659
498.84	28.571
499.18	26.762
499.53	27.968
499.87	26.934
500.22	28.026
500.56	28.350
500.91	27.212
501.26	27.691
501.60	27.575
501.95	27.681
502.29	27.976
502.64	28.073
502.98	28.004
503.33	27.239
503.67	28.213
504.02	28.064
504.36	28.311
504.71	27.553
505.06	28.289
505.40	27.321
505.75	27.097
506.09	27.940
506.44	27.479
506.78	28.544
507.13	28.269
507.47	28.232
507.82	28.014
508.16	27.710
508.51	28.361
508.85	27.656
509.19	28.827
509.54	27.755
509.88	27.409
510.23	28.432
510.57	28.328
510.92	27.965
511.26	27.338
511.61	28.112
511.95	27.557
512.30	27.572
512.64	28.318
512.98	28.349
513.33	28.319
513.67	28.335
514.02	28.030
514.36	28.236
514.70	28.500
515.05	28.946
515.39	29.333
515.74	28.491
516.08	28.508
516.42	28.579
516.77	29.766
517.11	28.024
517.46	28.837
517.80	28.920
518.14	27.968
518.49	27.946
518.83	28.352
519.17	29.330
519.52	28.466
519.86	28.523
520.20	28.786
520.55	28.785
520.89	28.954
521.23	29.554
521.58	28.872
521.92	27.802
522.26	28.676
522.61	28.660
522.95	28.484
523.29	27.998
523.64	29.512
523.98	29.636
524.32	29.071
524.66	28.443
525.01	28.676
525.35	29.182
525.69	27.525
526.04	28.349
526.38	28.859
526.72	28.221
527.06	28.625
527.41	27.847
527.75	28.424
528.09	28.581
528.43	28.617
528.78	28.703
529.12	28.545
529.46	28.904
529.80	28.713
530.15	27.913
530.49	28.185
530.83	28.544
531.17	29.634
531.51	29.637
531.86	28.774
532.20	29.987
532.54	29.020
532.88	29.140
533.22	27.233
533.57	28.889
533.91	28.537
534.25	27.886
534.59	28.737
534.93	28.138
535.27	28.244
535.62	28.510
535.96	28.060
536.30	28.608
536.64	28.525
536.98	28.932
537.32	28.901
537.66	28.867
538.01	28.571
538.35	28.248
538.69	29.100
539.03	27.940
539.37	26.965
539.71	27.738
540.05	28.170
540.39	28.239
540.73	28.008
541.07	29.202
541.42	28.767
541.76	28.839
542.10	28.266
542.44	28.212
542.78	28.129
543.12	27.575
543.46	28.590
543.80	28.107
544.14	26.637
544.48	28.063
544.82	28.865
545.16	27.716
545.50	28.149
545.84	27.554
546.18	28.754
546.52	28.217
546.86	28.591
547.20	28.051
547.54	27.455
547.88	28.253
548.22	27.958
548.56	27.987
548.90	26.953
549.24	27.677
549.58	28.718
549.92	27.610
550.26	27.557
550.60	27.732
550.94	28.099
551.28	28.530
551.62	28.253
551.96	27.088
552.30	28.396
552.64	27.654
552.98	28.542
553.32	27.984
553.66	28.630
554.00	27.591
554.34	28.571
554.68	28.755
555.02	27.151
555.36	27.905
555.69	26.793
556.03	27.322
556.37	27.217
556.71	27.149
557.05	28.922
557.39	28.202
557.73	28.229
558.07	28.281
558.41	27.352
558.75	27.553
559.08	28.486
559.42	28.647
559.76	28.676
560.10	27.266
560.44	27.044
560.78	27.545
561.12	27.573
561.45	27.445
561.79	27.357
562.13	27.163
562.47	27.937
562.81	27.685
563.15	27.692
563.48	27.321
563.82	27.071
564.16	26.488
564.50	25.977
564.84	25.790
565.17	26.384
565.51	27.412
565.85	26.586
566.19	26.675
566.52	26.726
566.86	26.100
567.20	27.300
567.54	27.683
567.88	26.073
568.21	26.561
568.55	26.289
568.89	25.681
569.23	25.624
569.56	25.385
569.90	25.358
570.24	24.758
570.57	24.311
570.91	24.047
571.25	24.027
571.59	24.242
571.92	24.050
572.26	24.437
572.60	23.994
572.93	24.108
573.27	24.283
573.61	24.288
573.95	23.902
574.28	23.869
574.62	23.931
574.96	23.154
575.29	23.303
575.63	23.857
575.97	23.562
576.30	24.456
576.64	23.503
576.98	22.970
577.31	24.006
577.65	23.496
577.98	23.321
578.32	23.074
578.66	23.291
578.99	23.602
579.33	23.287
579.67	23.036
580.00	23.376
580.34	23.968
580.67	23.328
581.01	24.331
581.35	23.768
581.68	22.875
582.02	22.739
582.35	22.911
582.69	23.195
583.02	23.080
583.36	23.565
583.70	24.326
584.03	24.112
584.37	24.822
584.70	23.798
585.04	23.777
585.37	23.369
585.71	23.520
586.04	23.484
586.38	23.955
586.72	24.606
587.05	23.635
587.39	23.298
587.72	23.525
588.06	23.719
588.39	24.198
588.73	23.878
589.06	24.618
589.40	25.017
589.73	24.921
590.07	24.342
590.40	24.187
590.73	25.176
591.07	24.990
591.40	24.757
591.74	25.844
592.07	25.785
592.41	24.680
592.74	24.307
593.08	23.951
593.41	23.980
593.75	23.392
594.08	24.036
594.41	24.496
594.75	24.399
595.08	23.908
595.42	24.483
595.75	24.608
596.09	24.972
596.42	24.637
596.75	25.327
597.09	25.325
597.42	25.084
597.75	24.881
598.09	25.087
598.42	24.785
598.76	24.524
599.09	23.413
599.42	24.017
599.76	24.451
600.09	23.934
600.42	23.192
600.76	24.179
601.09	24.007
601.42	24.277
601.76	24.402
602.09	24.229
602.42	25.119
602.76	24.627
603.09	24.626
603.42	24.951
603.76	23.666
604.09	23.614
604.42	24.664
604.76	24.884
605.09	24.596
605.42	24.455
605.75	24.421
606.09	24.237
606.42	24.520
606.75	24.803
607.09	24.655
607.42	24.561
607.75	23.460
608.08	24.620
608.42	24.563
608.75	24.887
609.08	24.191
609.41	24.988
609.75	24.964
610.08	25.778
610.41	24.441
610.74	24.882
611.07	24.704
611.41	25.859
611.74	25.792
612.07	25.466
612.40	25.971
612.73	25.158
613.07	24.784
613.40	25.487
613.73	24.646
614.06	25.000
614.39	25.957
614.72	25.579
615.06	25.368
615.39	24.575
615.72	24.642
616.05	25.253
616.38	25.514
616.71	26.010
617.05	25.442
617.38	24.534
617.71	25.105
618.04	26.262
618.37	25.370
618.70	25.638
619.03	26.184
619.36	26.884
619.69	26.408
620.03	27.129
620.36	26.203
620.69	26.027
621.02	27.065
621.35	26.155
621.68	26.558
622.01	27.709
622.34	26.853
622.67	26.616
623.00	25.312
623.33	26.519
623.66	27.019
623.99	26.951
624.32	26.748
624.65	26.059
624.99	26.841
625.32	25.706
625.65	26.446
625.98	26.979
626.31	27.605
626.64	26.939
626.97	27.515
627.30	28.013
627.63	28.220
627.96	28.175
628.29	28.521
628.62	28.820
628.95	28.396
629.28	28.376
629.61	28.323
629.94	29.048
630.26	27.264
630.59	27.550
630.92	27.874
