SpectraSuite Data File
++++++++++++++++++++++++++++++++++++
Date: Wed May 13 16:11:51 PDT 2015
User: schluterlab
Dark Spectrum Present: Yes
Reference Spectrum Present: Yes
Number of Sampled Component Spectra: 1
Spectrometers: USB2E3373
Integration Time (usec): 3000 (USB2E3373)
Spectra Averaged: 3 (USB2E3373)
Boxcar Smoothing: 0 (USB2E3373)
Correct for Electrical Dark: No (USB2E3373)
Strobe/Lamp Enabled: No (USB2E3373)
Correct for Detector Non-linearity: No (USB2E3373)
Correct for Stray Light: No (USB2E3373)
Number of Pixels in Processed Spectrum: 2048
>>>>>Begin Processed Spectral Data<<<<<
178.53	0.000
178.91	-875.000
179.29	-775.000
179.67	-172.222
180.04	-900.000
180.42	2050.000
180.80	640.000
181.18	-775.000
181.56	457.143
181.94	0.000
182.31	-442.857
182.69	1266.667
183.07	-412.500
183.45	-511.111
183.83	418.182
184.20	-320.000
184.58	1650.000
184.96	3900.000
185.34	-560.000
185.72	-475.000
186.09	-1950.000
186.47	2400.000
186.85	1900.000
187.23	3500.000
187.61	-1166.667
187.98	950.000
188.36	463.636
188.74	390.909
189.12	-520.000
189.49	480.000
189.87	-3500.000
190.25	-875.000
190.63	278.571
191.00	300.000
191.38	633.333
191.76	-975.000
192.14	1125.000
192.51	525.000
192.89	783.333
193.27	537.500
193.65	-675.000
194.02	370.000
194.40	640.000
194.78	470.000
195.15	433.333
195.53	500.000
195.91	-1450.000
196.29	237.500
196.66	242.105
197.04	-340.000
197.42	0.000
197.79	490.000
198.17	-2100.000
198.55	514.286
198.92	500.000
199.30	760.000
199.68	0.000
200.05	294.444
200.43	600.000
200.81	3900.000
201.18	1066.667
201.56	-1100.000
201.94	411.111
202.31	488.889
202.69	425.000
203.07	390.000
203.44	0.000
203.82	1025.000
204.19	585.714
204.57	364.286
204.95	625.000
205.32	1100.000
205.70	436.364
206.08	278.571
206.45	1950.000
206.83	325.000
207.20	533.333
207.58	380.000
207.96	255.556
208.33	612.500
208.71	-616.667
209.08	714.286
209.46	522.222
209.84	409.091
210.21	-1000.000
210.59	1300.000
210.96	-212.500
211.34	1800.000
211.71	440.000
212.09	650.000
212.46	0.000
212.84	1333.333
213.22	1275.000
213.59	-3300.000
213.97	616.667
214.34	700.000
214.72	481.818
215.09	660.000
215.47	-1700.000
215.84	-1350.000
216.22	1533.333
216.59	264.286
216.97	1075.000
217.34	436.364
217.72	-466.667
218.09	0.000
218.47	-4900.000
218.84	544.444
219.22	600.000
219.59	933.333
219.97	-542.857
220.34	920.000
220.72	-1266.667
221.09	357.143
221.47	1025.000
221.84	-633.333
222.22	0.000
222.59	1050.000
222.97	-1700.000
223.34	940.000
223.72	307.692
224.09	960.000
224.46	1800.000
224.84	-3200.000
225.21	-600.000
225.59	-3900.000
225.96	440.000
226.34	255.000
226.71	1900.000
227.08	512.500
227.46	350.000
227.83	-800.000
228.21	-1700.000
228.58	366.667
228.95	-1950.000
229.33	-1850.000
229.70	1333.333
230.08	657.143
230.45	-620.000
230.82	316.667
231.20	616.667
231.57	428.571
231.95	425.000
232.32	168.182
232.69	290.909
233.07	342.857
233.44	323.077
233.81	-1066.667
234.19	247.368
234.56	391.667
234.93	350.000
235.31	281.818
235.68	238.462
236.05	285.714
236.43	148.485
236.80	221.053
237.17	3800.000
237.55	128.571
237.92	178.571
238.29	204.762
238.67	158.065
239.04	151.724
239.41	102.778
239.79	104.348
240.16	116.667
240.53	68.182
240.91	39.216
241.28	88.000
241.65	70.000
242.02	60.870
242.40	79.032
242.77	70.000
243.14	58.065
243.51	61.798
243.89	55.294
244.26	46.667
244.63	53.763
245.00	47.872
245.38	51.485
245.75	40.187
246.12	38.532
246.49	51.095
246.87	46.400
247.24	49.231
247.61	38.571
247.98	38.562
248.36	29.730
248.73	39.490
249.10	36.943
249.47	32.768
249.84	39.037
250.22	33.155
250.59	40.237
250.96	34.848
251.33	32.227
251.70	37.624
252.08	31.905
252.45	26.457
252.82	26.957
253.19	31.064
253.56	29.412
253.94	34.440
254.31	30.078
254.68	32.692
255.05	30.258
255.42	24.390
255.79	27.206
256.16	25.993
256.54	22.615
256.91	27.402
257.28	23.741
257.65	27.063
258.02	25.776
258.39	24.606
258.76	24.749
259.14	27.679
259.51	22.796
259.88	24.845
260.25	24.773
260.62	22.543
260.99	22.981
261.36	25.826
261.73	21.203
262.10	21.802
262.47	24.225
262.85	22.841
263.22	20.228
263.59	23.362
263.96	21.154
264.33	22.193
264.70	22.105
265.07	24.552
265.44	22.727
265.81	20.681
266.18	22.613
266.55	22.683
266.92	21.622
267.29	21.065
267.66	21.101
268.03	18.409
268.40	21.729
268.77	19.093
269.14	19.369
269.51	22.799
269.88	20.280
270.25	19.639
270.62	19.775
270.99	22.151
271.36	21.245
271.73	19.626
272.10	22.391
272.47	20.000
272.84	22.294
273.21	21.174
273.58	18.122
273.95	20.126
274.32	19.835
274.69	20.343
275.06	20.276
275.43	21.277
275.80	21.242
276.17	19.145
276.54	19.335
276.91	19.170
277.28	19.922
277.65	22.050
278.02	21.532
278.39	23.047
278.76	20.727
279.13	19.811
279.50	18.622
279.87	18.127
280.23	17.764
280.60	18.762
280.97	20.518
281.34	18.407
281.71	21.273
282.08	20.537
282.45	18.364
282.82	19.361
283.19	17.112
283.56	19.649
283.92	21.320
284.29	19.753
284.66	20.145
285.03	20.253
285.40	20.599
285.77	18.182
286.14	18.653
286.51	17.833
286.87	20.000
287.24	20.684
287.61	17.657
287.98	17.532
288.35	19.017
288.72	17.445
289.08	17.684
289.45	18.451
289.82	17.886
290.19	16.170
290.56	17.917
290.93	14.804
291.29	17.638
291.66	20.354
292.03	20.058
292.40	18.209
292.77	18.787
293.13	18.358
293.50	17.930
293.87	19.259
294.24	18.370
294.60	17.904
294.97	19.767
295.34	19.182
295.71	18.892
296.08	17.521
296.44	18.294
296.81	19.155
297.18	18.564
297.55	15.172
297.91	17.942
298.28	17.403
298.65	20.104
299.02	18.445
299.38	17.795
299.75	17.520
300.12	18.391
300.48	18.375
300.85	18.742
301.22	18.854
301.59	17.803
301.95	19.018
302.32	18.100
302.69	19.116
303.05	18.667
303.42	17.531
303.79	20.159
304.15	18.298
304.52	18.656
304.89	18.467
305.25	17.749
305.62	18.800
305.99	18.772
306.35	19.911
306.72	19.395
307.09	19.423
307.45	19.032
307.82	18.973
308.19	20.309
308.55	20.820
308.92	20.945
309.29	19.007
309.65	18.982
310.02	19.556
310.38	20.000
310.75	21.119
311.12	20.368
311.48	21.003
311.85	22.432
312.22	21.748
312.58	20.686
312.95	21.859
313.31	20.194
313.68	21.830
314.05	23.373
314.41	21.910
314.78	22.558
315.14	22.741
315.51	22.348
315.87	22.673
316.24	22.642
316.61	22.710
316.97	22.896
317.34	21.820
317.70	24.187
318.07	24.158
318.43	23.092
318.80	25.773
319.16	24.105
319.53	23.827
319.89	24.762
320.26	26.500
320.62	25.992
320.99	26.465
321.35	25.758
321.72	26.591
322.08	26.259
322.45	28.259
322.81	28.004
323.18	28.516
323.54	28.571
323.91	28.396
324.27	27.342
324.64	28.611
325.00	28.224
325.37	31.119
325.73	30.610
326.10	30.450
326.46	29.122
326.83	29.681
327.19	31.170
327.56	30.226
327.92	31.146
328.29	31.588
328.65	30.663
329.01	30.686
329.38	31.822
329.74	29.455
330.11	30.914
330.47	30.946
330.84	31.250
331.20	31.148
331.56	31.468
331.93	32.870
332.29	32.121
332.66	32.655
333.02	31.261
333.38	32.520
333.75	32.086
334.11	32.117
334.48	31.588
334.84	33.272
335.20	33.818
335.57	31.006
335.93	31.518
336.29	31.319
336.66	32.281
337.02	29.864
337.38	32.130
337.75	30.660
338.11	30.081
338.47	31.308
338.84	31.897
339.20	31.376
339.56	32.482
339.93	29.909
340.29	30.435
340.65	31.016
341.02	31.239
341.38	31.228
341.74	30.351
342.11	31.179
342.47	30.573
342.83	31.164
343.20	31.775
343.56	31.171
343.92	30.965
344.28	30.952
344.65	31.212
345.01	31.061
345.37	30.017
345.73	31.134
346.10	31.714
346.46	31.102
346.82	31.054
347.19	31.746
347.55	30.296
347.91	30.502
348.27	30.731
348.63	31.689
349.00	30.906
349.36	31.117
349.72	31.596
350.08	31.605
350.45	31.001
350.81	30.544
351.17	32.091
351.53	30.549
351.89	30.446
352.26	32.281
352.62	31.275
352.98	31.442
353.34	31.717
353.70	30.033
354.07	31.452
354.43	31.111
354.79	31.134
355.15	30.567
355.51	31.575
355.87	30.939
356.24	30.700
356.60	31.516
356.96	31.617
357.32	31.398
357.68	32.598
358.04	30.721
358.40	31.591
358.77	31.534
359.13	31.728
359.49	32.863
359.85	30.873
360.21	31.659
360.57	32.996
360.93	32.154
361.29	32.124
361.66	31.347
362.02	30.821
362.38	31.711
362.74	31.994
363.10	30.348
363.46	30.814
363.82	32.048
364.18	31.498
364.54	31.798
364.90	32.436
365.26	32.500
365.62	33.309
365.98	31.337
366.35	31.232
366.71	32.610
367.07	32.119
367.43	33.237
367.79	32.477
368.15	33.477
368.51	31.904
368.87	33.048
369.23	32.480
369.59	33.164
369.95	32.353
370.31	32.194
370.67	32.899
371.03	32.959
371.39	32.799
371.75	33.529
372.11	32.077
372.47	33.504
372.83	33.501
373.19	33.092
373.55	33.777
373.91	33.947
374.27	34.227
374.63	33.600
374.99	34.887
375.35	33.426
375.71	34.202
376.07	33.882
376.42	35.351
376.78	34.526
377.14	34.057
377.50	34.768
377.86	34.309
378.22	34.703
378.58	34.211
378.94	33.878
379.30	35.369
379.66	34.645
380.02	34.828
380.38	34.183
380.74	35.234
381.09	35.208
381.45	35.403
381.81	35.811
382.17	35.605
382.53	35.283
382.89	36.358
383.25	36.335
383.61	35.812
383.97	35.522
384.32	35.496
384.68	35.006
385.04	35.771
385.40	35.604
385.76	35.442
386.12	34.780
386.48	36.879
386.83	37.845
387.19	37.106
387.55	36.178
387.91	35.792
388.27	35.561
388.62	36.570
388.98	36.364
389.34	36.170
389.70	35.868
390.06	37.516
390.42	35.992
390.77	36.323
391.13	38.354
391.49	38.261
391.85	36.028
392.20	35.773
392.56	36.995
392.92	36.492
393.28	35.444
393.64	36.631
393.99	36.408
394.35	36.166
394.71	37.077
395.07	37.321
395.42	36.774
395.78	36.705
396.14	36.685
396.50	37.030
396.85	37.699
397.21	36.560
397.57	37.632
397.92	37.500
398.28	35.930
398.64	36.679
399.00	37.157
399.35	35.928
399.71	36.863
400.07	36.428
400.42	36.994
400.78	36.610
401.14	37.195
401.49	36.896
401.85	37.508
402.21	36.168
402.57	35.965
402.92	37.327
403.28	36.415
403.63	36.757
403.99	36.815
404.35	37.152
404.70	36.930
405.06	36.517
405.42	36.494
405.77	35.429
406.13	35.440
406.49	36.724
406.84	35.499
407.20	35.461
407.55	36.758
407.91	36.067
408.27	36.375
408.62	36.303
408.98	35.478
409.34	36.039
409.69	35.161
410.05	35.440
410.40	35.963
410.76	35.484
411.11	35.223
411.47	34.952
411.83	35.431
412.18	35.436
412.54	36.177
412.89	35.000
413.25	35.773
413.60	36.689
413.96	34.608
414.31	34.872
414.67	35.995
415.03	36.026
415.38	35.631
415.74	35.884
416.09	36.512
416.45	34.806
416.80	36.087
417.16	36.059
417.51	35.501
417.87	34.811
418.22	36.215
418.58	34.345
418.93	35.135
419.29	35.201
419.64	35.139
420.00	34.634
420.35	35.594
420.71	35.146
421.06	35.680
421.42	35.263
421.77	35.258
422.12	34.868
422.48	33.621
422.83	35.935
423.19	34.530
423.54	35.926
423.90	35.652
424.25	34.785
424.61	35.476
424.96	35.802
425.31	35.327
425.67	34.157
426.02	34.857
426.38	35.531
426.73	36.396
427.09	36.657
427.44	35.710
427.79	35.480
428.15	35.893
428.50	35.225
428.85	35.459
429.21	35.064
429.56	35.096
429.92	34.977
430.27	35.005
430.62	34.562
430.98	35.288
431.33	35.258
431.68	35.759
432.04	34.665
432.39	35.979
432.74	36.685
433.10	35.937
433.45	36.560
433.80	35.477
434.16	36.004
434.51	35.421
434.86	36.488
435.22	35.631
435.57	36.292
435.92	35.635
436.28	37.782
436.63	36.700
436.98	35.489
437.34	35.778
437.69	36.464
438.04	35.863
438.39	36.836
438.75	36.607
439.10	36.201
439.45	37.190
439.81	35.891
440.16	35.517
440.51	37.083
440.86	36.653
441.22	36.429
441.57	36.730
441.92	35.824
442.27	36.383
442.63	35.756
442.98	37.014
443.33	35.598
443.68	35.622
444.03	35.822
444.39	36.173
444.74	35.335
445.09	36.604
445.44	35.539
445.79	36.714
446.15	34.833
446.50	36.834
446.85	36.331
447.20	36.104
447.55	37.018
447.91	36.790
448.26	36.950
448.61	36.292
448.96	37.043
449.31	37.064
449.66	36.016
450.02	36.602
450.37	35.431
450.72	37.169
451.07	36.137
451.42	35.441
451.77	37.581
452.12	36.605
452.47	37.313
452.83	36.189
453.18	36.614
453.53	38.219
453.88	36.031
454.23	36.461
454.58	37.068
454.93	37.826
455.28	37.157
455.63	36.772
455.98	37.619
456.34	37.060
456.69	36.882
457.04	36.533
457.39	36.704
457.74	36.158
458.09	36.860
458.44	36.260
458.79	35.195
459.14	36.230
459.49	36.602
459.84	35.900
460.19	35.946
460.54	36.343
460.89	36.478
461.24	36.369
461.59	36.781
461.94	36.252
462.29	36.736
462.64	36.886
462.99	36.760
463.34	36.667
463.69	35.897
464.04	36.464
464.39	35.768
464.74	36.482
465.09	35.525
465.44	35.789
465.79	35.962
466.14	34.866
466.49	35.873
466.84	35.668
467.19	35.848
467.54	36.000
467.89	35.954
468.24	36.300
468.59	36.081
468.94	35.492
469.29	36.440
469.64	36.011
469.99	36.401
470.34	36.262
470.68	36.638
471.03	35.850
471.38	36.067
471.73	37.375
472.08	36.579
472.43	35.867
472.78	35.484
473.13	36.393
473.48	36.142
473.83	35.549
474.17	35.345
474.52	35.732
474.87	36.602
475.22	35.171
475.57	34.820
475.92	36.166
476.27	35.795
476.61	35.576
476.96	35.404
477.31	35.374
477.66	34.628
478.01	35.599
478.36	35.960
478.70	34.631
479.05	35.889
479.40	35.977
479.75	34.316
480.10	35.139
480.45	34.365
480.79	34.161
481.14	34.198
481.49	35.263
481.84	34.888
482.19	35.030
482.53	34.771
482.88	35.458
483.23	36.262
483.58	34.440
483.92	35.333
484.27	33.638
484.62	33.879
484.97	34.529
485.31	34.452
485.66	32.891
486.01	31.024
486.36	29.778
486.70	29.484
487.05	29.747
487.40	31.410
487.75	31.846
488.09	32.696
488.44	32.955
488.79	34.250
489.13	33.919
489.48	34.013
489.83	33.448
490.17	34.415
490.52	34.145
490.87	34.645
491.22	34.334
491.56	33.485
491.91	33.876
492.26	33.762
492.60	33.917
492.95	32.928
493.30	34.112
493.64	33.784
493.99	33.751
494.34	34.320
494.68	34.249
495.03	34.164
495.37	34.109
495.72	34.259
496.07	33.875
496.41	32.743
496.76	33.597
497.11	33.048
497.45	33.768
497.80	33.349
498.14	34.010
498.49	34.488
498.84	34.276
499.18	33.476
499.53	34.188
499.87	33.271
500.22	33.161
500.56	33.544
500.91	34.087
501.26	33.713
501.60	33.745
501.95	32.310
502.29	34.114
502.64	33.240
502.98	33.053
503.33	33.135
503.67	32.993
504.02	33.396
504.36	32.616
504.71	33.512
505.06	33.446
505.40	33.495
505.75	32.642
506.09	33.285
506.44	33.103
506.78	33.853
507.13	33.872
507.47	33.990
507.82	33.941
508.16	34.448
508.51	34.145
508.85	32.920
509.19	33.316
509.54	33.520
509.88	33.179
510.23	33.470
510.57	33.953
510.92	33.195
511.26	32.682
511.61	34.025
511.95	33.090
512.30	33.987
512.64	33.907
512.98	34.727
513.33	34.315
513.67	32.657
514.02	32.576
514.36	33.097
514.70	33.481
515.05	32.962
515.39	33.595
515.74	33.221
516.08	33.930
516.42	34.406
516.77	34.002
517.11	33.185
517.46	34.312
517.80	34.030
518.14	32.831
518.49	33.664
518.83	33.182
519.17	33.372
519.52	33.333
519.86	32.972
520.20	34.162
520.55	35.069
520.89	34.246
521.23	34.379
521.58	34.034
521.92	34.905
522.26	32.947
522.61	34.704
522.95	33.579
523.29	34.145
523.64	34.268
523.98	33.826
524.32	33.474
524.66	33.434
525.01	34.007
525.35	33.395
525.69	33.251
526.04	33.022
526.38	33.862
526.72	32.515
527.06	33.710
527.41	32.426
527.75	34.405
528.09	34.040
528.43	33.971
528.78	33.866
529.12	32.788
529.46	34.231
529.80	33.540
530.15	32.960
530.49	32.062
530.83	33.797
531.17	33.681
531.51	34.565
531.86	33.161
532.20	34.355
532.54	34.657
532.88	33.248
533.22	32.605
533.57	32.222
533.91	32.450
534.25	33.171
534.59	32.215
534.93	32.362
535.27	32.046
535.62	32.112
535.96	32.643
536.30	32.041
536.64	33.741
536.98	32.979
537.32	32.126
537.66	33.600
538.01	33.311
538.35	32.450
538.69	31.908
539.03	31.774
539.37	31.246
539.71	31.303
540.05	32.288
540.39	32.625
540.73	31.177
541.07	32.382
541.42	32.224
541.76	32.839
542.10	32.277
542.44	31.788
542.78	31.291
543.12	30.902
543.46	31.607
543.80	32.271
544.14	31.643
544.48	31.937
544.82	31.174
545.16	32.271
545.50	30.784
545.84	31.922
546.18	32.054
546.52	32.416
546.86	31.546
547.20	32.030
547.54	31.597
547.88	31.824
548.22	30.012
548.56	31.509
548.90	29.834
549.24	30.842
549.58	32.196
549.92	32.692
550.26	31.605
550.60	30.567
550.94	31.620
551.28	31.309
551.62	32.423
551.96	30.947
552.30	31.809
552.64	31.305
552.98	32.068
553.32	30.681
553.66	32.038
554.00	31.572
554.34	30.228
554.68	31.044
555.02	31.312
555.36	31.802
555.69	30.379
556.03	32.234
556.37	30.696
556.71	30.559
557.05	30.252
557.39	31.001
557.73	31.616
558.07	32.632
558.41	30.825
558.75	31.374
559.08	31.618
559.42	32.200
559.76	31.544
560.10	31.335
560.44	30.049
560.78	29.075
561.12	29.420
561.45	31.943
561.79	30.257
562.13	30.785
562.47	30.943
562.81	30.614
563.15	29.632
563.48	30.172
563.82	30.137
564.16	29.366
564.50	29.883
564.84	29.140
565.17	30.438
565.51	30.799
565.85	29.188
566.19	29.555
566.52	29.322
566.86	28.210
567.20	29.894
567.54	28.539
567.88	27.811
568.21	29.048
568.55	27.755
568.89	27.578
569.23	26.916
569.56	26.923
569.90	25.962
570.24	26.444
570.57	25.876
570.91	25.048
571.25	25.355
571.59	25.037
571.92	24.885
572.26	24.899
572.60	25.015
572.93	24.858
573.27	25.288
573.61	24.902
573.95	25.116
574.28	24.598
574.62	24.271
574.96	23.704
575.29	23.497
575.63	24.441
575.97	23.874
576.30	24.642
576.64	24.033
576.98	23.991
577.31	23.383
577.65	24.191
577.98	23.422
578.32	23.014
578.66	23.354
578.99	24.013
579.33	23.602
579.67	23.425
580.00	23.639
580.34	23.730
580.67	23.422
581.01	24.219
581.35	23.706
581.68	23.377
582.02	22.512
582.35	22.604
582.69	22.911
583.02	22.808
583.36	23.449
583.70	23.876
584.03	24.399
584.37	24.769
584.70	24.112
585.04	24.095
585.37	23.625
585.71	23.849
586.04	23.411
586.38	24.164
586.72	24.800
587.05	23.390
587.39	23.562
587.72	24.401
588.06	24.013
588.39	24.307
588.73	24.318
589.06	24.712
589.40	25.455
589.73	24.991
590.07	25.516
590.40	24.845
590.73	25.410
591.07	25.926
591.40	25.137
591.74	25.801
592.07	25.873
592.41	25.506
592.74	25.019
593.08	24.117
593.41	24.454
593.75	23.548
594.08	23.466
594.41	24.744
594.75	24.695
595.08	24.767
595.42	24.203
595.75	24.430
596.09	25.310
596.42	25.501
596.75	25.496
597.09	25.368
597.42	24.663
597.75	25.054
598.09	25.174
598.42	25.988
598.76	25.294
599.09	24.819
599.42	24.127
599.76	24.561
600.09	23.570
600.42	23.630
600.76	24.143
601.09	24.117
601.42	23.896
601.76	24.402
602.09	24.308
602.42	24.960
602.76	24.506
603.09	24.784
603.42	24.834
603.76	24.314
604.09	23.614
604.42	24.338
604.76	25.264
605.09	24.902
605.42	25.053
605.75	24.834
606.09	24.481
606.42	24.561
606.75	24.388
607.09	24.487
607.42	24.818
607.75	24.641
608.08	24.316
608.42	25.190
608.75	23.986
609.08	25.624
609.41	24.417
609.75	25.012
610.08	25.353
610.41	24.534
610.74	24.409
611.07	25.593
611.41	25.221
611.74	26.144
612.07	26.242
612.40	26.338
612.73	26.053
613.07	26.078
613.40	26.330
613.73	25.223
614.06	25.645
614.39	25.852
614.72	26.105
615.06	25.683
615.39	25.637
615.72	24.744
616.05	24.402
616.38	26.014
616.71	26.247
617.05	26.855
617.38	25.917
617.71	26.246
618.04	27.103
618.37	25.310
618.70	26.322
619.03	27.500
619.36	27.088
619.69	27.958
620.03	26.580
620.36	27.406
620.69	27.123
621.02	26.917
621.35	27.330
621.68	27.648
622.01	29.334
622.34	28.290
622.67	27.909
623.00	26.412
623.33	26.733
623.66	27.448
623.99	27.688
624.32	26.890
624.65	26.271
624.99	26.487
625.32	27.371
625.65	27.724
625.98	28.209
626.31	28.149
626.64	28.163
626.97	27.764
627.30	26.850
627.63	27.564
627.96	29.773
628.29	28.521
628.62	29.186
628.95	30.283
629.28	29.471
629.61	29.056
629.94	29.619
630.26	29.361
630.59	28.980
630.92	28.640
631.25	29.319
