SpectraSuite Data File
++++++++++++++++++++++++++++++++++++
Date: Wed May 13 16:38:37 PDT 2015
User: schluterlab
Dark Spectrum Present: Yes
Reference Spectrum Present: Yes
Number of Sampled Component Spectra: 1
Spectrometers: USB2E3373
Integration Time (usec): 3000 (USB2E3373)
Spectra Averaged: 3 (USB2E3373)
Boxcar Smoothing: 0 (USB2E3373)
Correct for Electrical Dark: No (USB2E3373)
Strobe/Lamp Enabled: No (USB2E3373)
Correct for Detector Non-linearity: No (USB2E3373)
Correct for Stray Light: No (USB2E3373)
Number of Pixels in Processed Spectrum: 2048
>>>>>Begin Processed Spectral Data<<<<<
178.53	0.000
178.91	-1400.000
179.29	-1450.000
179.67	-227.778
180.04	-1250.000
180.42	2700.000
180.80	1020.000
181.18	-1225.000
181.56	742.857
181.94	0.000
182.31	-642.857
182.69	1433.333
183.07	-525.000
183.45	-533.333
183.83	536.364
184.20	-390.000
184.58	2600.000
184.96	6200.000
185.34	-900.000
185.72	-525.000
186.09	-2450.000
186.47	2450.000
186.85	2300.000
187.23	4800.000
187.61	-1766.667
187.98	1400.000
188.36	600.000
188.74	536.364
189.12	-880.000
189.49	610.000
189.87	-4500.000
190.25	-1250.000
190.63	442.857
191.00	430.769
191.38	766.667
191.76	-1175.000
192.14	1300.000
192.51	537.500
192.89	950.000
193.27	587.500
193.65	-1300.000
194.02	530.000
194.40	960.000
194.78	520.000
195.15	583.333
195.53	560.000
195.91	-2300.000
196.29	318.750
196.66	289.474
197.04	-280.000
197.42	0.000
197.79	660.000
198.17	-5000.000
198.55	714.286
198.92	575.000
199.30	700.000
199.68	0.000
200.05	316.667
200.43	785.714
200.81	4100.000
201.18	1466.667
201.56	-1633.333
201.94	577.778
202.31	644.444
202.69	375.000
203.07	550.000
203.44	0.000
203.82	1150.000
204.19	814.286
204.57	478.571
204.95	662.500
205.32	1566.667
205.70	454.545
206.08	328.571
206.45	2600.000
206.83	375.000
207.20	833.333
207.58	700.000
207.96	333.333
208.33	850.000
208.71	-833.333
209.08	828.571
209.46	555.556
209.84	509.091
210.21	-1400.000
210.59	1275.000
210.96	-537.500
211.34	2650.000
211.71	550.000
212.09	800.000
212.46	0.000
212.84	1466.667
213.22	1400.000
213.59	-4900.000
213.97	833.333
214.34	742.857
214.72	490.909
215.09	1040.000
215.47	-2050.000
215.84	-2600.000
216.22	1466.667
216.59	428.571
216.97	1425.000
217.34	463.636
217.72	-633.333
218.09	0.000
218.47	-6000.000
218.84	555.556
219.22	828.571
219.59	1433.333
219.97	-614.286
220.34	780.000
220.72	-1800.000
221.09	435.714
221.47	1475.000
221.84	-866.667
222.22	0.000
222.59	1600.000
222.97	-2850.000
223.34	1080.000
223.72	353.846
224.09	880.000
224.46	1850.000
224.84	-5000.000
225.21	-760.000
225.59	-5400.000
225.96	600.000
226.34	295.000
226.71	2850.000
227.08	662.500
227.46	580.000
227.83	-1375.000
228.21	-2550.000
228.58	611.111
228.95	-2200.000
229.33	-2450.000
229.70	1666.667
230.08	771.429
230.45	-580.000
230.82	400.000
231.20	850.000
231.57	700.000
231.95	458.333
232.32	254.545
232.69	445.455
233.07	742.857
233.44	400.000
233.81	-1566.667
234.19	326.316
234.56	416.667
234.93	358.333
235.31	490.909
235.68	415.385
236.05	371.429
236.43	190.909
236.80	294.737
237.17	3200.000
237.55	180.952
237.92	192.857
238.29	266.667
238.67	154.839
239.04	189.655
239.41	116.667
239.79	84.783
240.16	126.190
240.53	127.273
240.91	94.118
241.28	84.000
241.65	96.000
242.02	76.812
242.40	77.419
242.77	70.000
243.14	66.667
243.51	69.663
243.89	61.176
244.26	51.111
244.63	39.785
245.00	52.128
245.38	52.475
245.75	41.121
246.12	44.954
246.49	51.825
246.87	48.800
247.24	36.923
247.61	37.143
247.98	37.255
248.36	30.405
248.73	31.210
249.10	35.032
249.47	24.859
249.84	30.481
250.22	29.412
250.59	24.852
250.96	28.788
251.33	29.384
251.70	30.198
252.08	25.238
252.45	24.664
252.82	27.391
253.19	26.383
253.56	21.176
253.94	19.087
254.31	25.391
254.68	23.462
255.05	22.140
255.42	20.325
255.79	19.853
256.16	20.939
256.54	18.021
256.91	21.708
257.28	17.626
257.65	18.812
258.02	20.807
258.39	20.820
258.76	17.726
259.14	18.750
259.51	16.717
259.88	16.149
260.25	15.106
260.62	16.763
260.99	15.528
261.36	19.820
261.73	15.186
262.10	16.860
262.47	16.056
262.85	15.877
263.22	11.966
263.59	16.524
263.96	13.736
264.33	15.927
264.70	16.053
265.07	15.090
265.44	15.404
265.81	11.922
266.18	13.819
266.55	14.146
266.92	12.531
267.29	14.352
267.66	12.385
268.03	13.409
268.40	12.617
268.77	12.649
269.14	14.189
269.51	15.350
269.88	13.753
270.25	12.867
270.62	12.584
270.99	15.914
271.36	14.378
271.73	10.280
272.10	13.261
272.47	13.333
272.84	14.069
273.21	10.482
273.58	10.262
273.95	12.159
274.32	13.017
274.69	10.707
275.06	8.661
275.43	11.277
275.80	11.623
276.17	12.831
276.54	12.058
276.91	11.660
277.28	11.523
277.65	11.605
278.02	10.766
278.39	12.695
278.76	12.727
279.13	10.755
279.50	11.918
279.87	10.956
280.23	10.379
280.60	10.638
280.97	9.797
281.34	11.327
281.71	12.545
282.08	9.981
282.45	9.818
282.82	11.012
283.19	9.626
283.56	11.053
283.92	11.168
284.29	9.700
284.66	10.708
285.03	11.212
285.40	7.923
285.77	9.764
286.14	9.154
286.51	10.333
286.87	9.060
287.24	10.261
287.61	9.631
287.98	10.714
288.35	9.509
288.72	10.436
289.08	9.859
289.45	9.555
289.82	11.545
290.19	7.378
290.56	10.413
290.93	8.157
291.29	7.362
291.66	9.882
292.03	10.174
292.40	10.720
292.77	8.728
293.13	8.806
293.50	9.038
293.87	9.926
294.24	8.889
294.60	6.987
294.97	9.448
295.34	8.886
295.71	10.511
296.08	7.407
296.44	9.354
296.81	8.190
297.18	8.672
297.55	5.937
297.91	8.179
298.28	9.371
298.65	9.399
299.02	8.432
299.38	7.039
299.75	6.739
300.12	7.918
300.48	7.750
300.85	9.618
301.22	8.662
301.59	7.955
301.95	8.816
302.32	7.060
302.69	8.841
303.05	8.485
303.42	7.654
303.79	8.947
304.15	7.110
304.52	7.416
304.89	7.666
305.25	7.077
305.62	8.267
305.99	7.438
306.35	9.172
306.72	7.735
307.09	8.324
307.45	9.797
307.82	7.589
308.19	8.278
308.55	7.875
308.92	8.485
309.29	8.553
309.65	7.741
310.02	8.457
310.38	9.140
310.75	7.709
311.12	9.928
311.48	8.986
311.85	8.386
312.22	8.637
312.58	8.108
312.95	7.814
313.31	8.447
313.68	8.628
314.05	9.369
314.41	9.347
314.78	9.869
315.14	8.640
315.51	9.887
315.87	9.901
316.24	9.335
316.61	10.234
316.97	8.415
317.34	8.415
317.70	9.369
318.07	8.758
318.43	9.491
318.80	9.185
319.16	9.981
319.53	9.475
319.89	10.762
320.26	10.300
320.62	10.417
320.99	9.091
321.35	10.404
321.72	10.986
322.08	9.970
322.45	10.746
322.81	10.368
323.18	10.886
323.54	10.946
323.91	10.283
324.27	10.899
324.64	9.879
325.00	9.919
325.37	11.101
325.73	11.490
326.10	11.562
326.46	10.394
326.83	11.217
327.19	11.102
327.56	9.582
327.92	10.411
328.29	11.269
328.65	10.589
329.01	10.830
329.38	10.823
329.74	10.619
330.11	10.085
330.47	10.927
330.84	11.765
331.20	10.747
331.56	10.917
331.93	11.019
332.29	11.446
332.66	11.150
333.02	10.055
333.38	10.840
333.75	12.656
334.11	12.011
334.48	11.269
334.84	11.029
335.20	10.818
335.57	11.333
335.93	10.804
336.29	10.348
336.66	11.542
337.02	9.774
337.38	10.741
337.75	10.428
338.11	10.206
338.47	11.050
338.84	10.724
339.20	9.725
339.56	12.135
339.93	9.727
340.29	10.417
340.65	10.784
341.02	11.257
341.38	10.854
341.74	10.439
342.11	11.703
342.47	11.189
342.83	10.788
343.20	11.775
343.56	11.205
343.92	10.702
344.28	10.884
344.65	10.834
345.01	9.512
345.37	10.463
345.73	10.998
346.10	10.230
346.46	10.847
346.82	11.120
347.19	9.691
347.55	11.330
347.91	11.246
348.27	11.093
348.63	10.786
349.00	10.437
349.36	10.345
349.72	10.425
350.08	10.049
350.45	10.740
350.81	10.317
351.17	11.102
351.53	11.384
351.89	10.479
352.26	11.129
352.62	11.147
352.98	10.697
353.34	10.929
353.70	10.802
354.07	10.726
354.43	10.556
354.79	9.493
355.15	10.136
355.51	11.511
355.87	11.837
356.24	11.401
356.60	10.986
356.96	10.619
357.32	10.711
357.68	10.945
358.04	11.243
358.40	10.372
358.77	11.894
359.13	9.708
359.49	10.667
359.85	9.206
360.21	10.367
360.57	10.973
360.93	10.769
361.29	10.582
361.66	10.681
362.02	11.791
362.38	10.646
362.74	10.789
363.10	10.511
363.46	10.198
363.82	10.204
364.18	10.720
364.54	11.441
364.90	10.836
365.26	9.559
365.62	10.738
365.98	10.665
366.35	9.312
366.71	10.629
367.07	10.197
367.43	10.885
367.79	11.349
368.15	10.991
368.51	10.320
368.87	10.421
369.23	10.973
369.59	10.717
369.95	10.000
370.31	11.396
370.67	11.159
371.03	11.086
371.39	10.787
371.75	10.956
372.11	10.953
372.47	11.584
372.83	11.023
373.19	10.116
373.55	11.604
373.91	11.782
374.27	11.203
374.63	11.273
374.99	10.946
375.35	10.468
375.71	10.692
376.07	12.003
376.42	10.798
376.78	11.465
377.14	10.787
377.50	11.457
377.86	10.372
378.22	12.263
378.58	10.840
378.94	11.188
379.30	10.560
379.66	11.294
380.02	11.364
380.38	10.868
380.74	11.645
381.09	11.308
381.45	11.432
381.81	11.916
382.17	12.038
382.53	11.069
382.89	12.160
383.25	10.819
383.61	11.090
383.97	11.194
384.32	11.416
384.68	11.029
385.04	11.309
385.40	10.650
385.76	11.548
386.12	11.723
386.48	11.202
386.83	11.674
387.19	11.812
387.55	11.008
387.91	11.427
388.27	11.097
388.62	12.293
388.98	11.609
389.34	11.452
389.70	11.343
390.06	11.280
390.42	12.127
390.77	12.723
391.13	11.742
391.49	11.231
391.85	10.885
392.20	11.230
392.56	11.301
392.92	11.595
393.28	10.592
393.64	10.432
393.99	11.362
394.35	10.980
394.71	11.230
395.07	11.526
395.42	11.496
395.78	11.005
396.14	12.166
396.50	11.529
396.85	11.697
397.21	11.899
397.57	11.221
397.92	11.178
398.28	11.043
398.64	10.573
399.00	11.080
399.35	10.660
399.71	11.458
400.07	11.591
400.42	11.104
400.78	11.580
401.14	10.366
401.49	11.045
401.85	10.405
402.21	10.479
402.57	10.241
402.92	10.656
403.28	10.743
403.63	11.943
403.99	9.809
404.35	10.727
404.70	10.671
405.06	10.716
405.42	10.917
405.77	9.943
406.13	10.609
406.49	11.473
406.84	10.337
407.20	9.811
407.55	10.593
407.91	9.800
408.27	10.338
408.62	10.476
408.98	10.600
409.34	10.271
409.69	10.710
410.05	10.037
410.40	10.398
410.76	9.857
411.11	10.796
411.47	9.904
411.83	10.079
412.18	9.957
412.54	9.527
412.89	10.542
413.25	9.386
413.60	9.450
413.96	10.079
414.31	9.964
414.67	11.343
415.03	9.868
415.38	10.760
415.74	9.711
416.09	10.059
416.45	9.973
416.80	10.443
417.16	10.791
417.51	10.153
417.87	9.441
418.22	11.167
418.58	10.458
418.93	10.319
419.29	10.503
419.64	9.698
420.00	10.305
420.35	10.377
420.71	10.520
421.06	10.382
421.42	10.526
421.77	10.034
422.12	9.714
422.48	9.120
422.83	9.959
423.19	9.890
423.54	9.750
423.90	10.087
424.25	9.715
424.61	10.655
424.96	9.446
425.31	10.188
425.67	9.551
426.02	10.000
426.38	9.768
426.73	9.304
427.09	10.030
427.44	9.546
427.79	9.488
428.15	10.357
428.50	9.538
428.85	10.846
429.21	9.166
429.56	9.279
429.92	9.663
430.27	9.484
430.62	8.807
430.98	9.860
431.33	9.433
431.68	9.319
432.04	9.585
432.39	9.423
432.74	9.276
433.10	9.338
433.45	10.321
433.80	9.534
434.16	9.562
434.51	9.632
434.86	9.407
435.22	9.561
435.57	9.240
435.92	10.064
436.28	9.609
436.63	9.713
436.98	10.017
437.34	10.137
437.69	9.977
438.04	9.275
438.39	9.970
438.75	9.355
439.10	9.609
439.45	10.685
439.81	9.486
440.16	9.768
440.51	9.842
440.86	10.307
441.22	8.954
441.57	9.713
441.92	9.928
442.27	9.365
442.63	9.900
442.98	10.085
443.33	9.402
443.68	8.880
444.03	9.175
444.39	8.763
444.74	10.227
445.09	9.704
445.44	9.841
445.79	10.094
446.15	9.846
446.50	9.532
446.85	9.404
447.20	9.026
447.55	9.604
447.91	9.101
448.26	9.794
448.61	9.440
448.96	10.188
449.31	9.899
449.66	9.623
450.02	9.359
450.37	8.957
450.72	9.024
451.07	9.567
451.42	8.997
451.77	9.982
452.12	9.758
452.47	10.323
452.83	9.674
453.18	9.658
453.53	10.080
453.88	9.392
454.23	9.325
454.58	10.357
454.93	10.680
455.28	8.354
455.63	9.769
455.98	9.762
456.34	10.239
456.69	10.081
457.04	10.155
457.39	9.643
457.74	10.157
458.09	10.293
458.44	9.977
458.79	8.839
459.14	9.707
459.49	9.982
459.84	9.695
460.19	8.957
460.54	9.375
460.89	9.819
461.24	9.957
461.59	9.704
461.94	9.063
462.29	9.970
462.64	9.445
462.99	9.889
463.34	10.933
463.69	9.631
464.04	9.913
464.39	10.029
464.74	9.923
465.09	9.047
465.44	9.474
465.79	8.949
466.14	8.867
466.49	9.844
466.84	9.399
467.19	10.018
467.54	9.500
467.89	8.764
468.24	9.424
468.59	10.195
468.94	9.530
469.29	9.704
469.64	10.442
469.99	9.134
470.34	8.719
470.68	10.201
471.03	9.252
471.38	10.076
471.73	9.727
472.08	10.395
472.43	9.359
472.78	9.875
473.13	9.884
473.48	9.301
473.83	9.451
474.17	8.774
474.52	9.367
474.87	10.041
475.22	9.634
475.57	9.296
475.92	8.922
476.27	8.455
476.61	8.991
476.96	9.126
477.31	8.477
477.66	8.807
478.01	8.521
478.36	9.519
478.70	8.307
479.05	9.318
479.40	8.598
479.75	8.795
480.10	8.946
480.45	8.425
480.79	8.122
481.14	8.806
481.49	9.112
481.84	8.230
482.19	8.632
482.53	8.349
482.88	8.841
483.23	8.318
483.58	8.781
483.92	8.294
484.27	7.625
484.62	8.147
484.97	7.844
485.31	8.322
485.66	7.276
486.01	6.688
486.36	6.268
486.70	6.094
487.05	6.563
487.40	6.793
487.75	7.202
488.09	6.703
488.44	7.038
488.79	7.848
489.13	7.678
489.48	7.912
489.83	7.769
490.17	8.154
490.52	7.883
490.87	8.367
491.22	8.413
491.56	7.836
491.91	7.631
492.26	7.579
492.60	7.880
492.95	7.624
493.30	8.131
493.64	7.839
493.99	8.403
494.34	7.909
494.68	8.333
495.03	8.647
495.37	8.190
495.72	7.846
496.07	8.260
496.41	8.186
496.76	7.256
497.11	7.654
497.45	8.104
497.80	7.534
498.14	7.585
498.49	7.756
498.84	8.869
499.18	7.667
499.53	8.167
499.87	6.990
500.22	8.149
500.56	8.301
500.91	7.692
501.26	8.061
501.60	7.973
501.95	7.333
502.29	8.716
502.64	8.101
502.98	8.181
503.33	7.770
503.67	8.028
504.02	8.887
504.36	8.236
504.71	8.207
505.06	8.048
505.40	8.070
505.75	7.618
506.09	8.115
506.44	7.844
506.78	8.378
507.13	7.774
507.47	8.687
507.82	8.460
508.16	8.156
508.51	8.473
508.85	7.696
509.19	8.163
509.54	8.061
509.88	7.625
510.23	7.918
510.57	8.772
510.92	7.716
511.26	7.760
511.61	7.624
511.95	7.516
512.30	8.112
512.64	8.275
512.98	8.789
513.33	8.030
513.67	7.684
514.02	7.846
514.36	8.083
514.70	7.914
515.05	8.589
515.39	8.245
515.74	8.164
516.08	8.720
516.42	9.212
516.77	7.860
517.11	8.213
517.46	8.239
517.80	8.188
518.14	7.643
518.49	8.693
518.83	8.693
519.17	9.007
519.52	8.546
519.86	8.386
520.20	9.191
520.55	9.096
520.89	8.942
521.23	8.323
521.58	8.824
521.92	8.022
522.26	8.725
522.61	9.221
522.95	8.410
523.29	7.851
523.64	8.598
523.98	8.749
524.32	8.745
524.66	8.960
525.01	8.885
525.35	8.922
525.69	8.190
526.04	8.598
526.38	8.542
526.72	8.712
527.06	9.165
527.41	7.426
527.75	8.424
528.09	8.542
528.43	8.540
528.78	8.605
529.12	8.364
529.46	8.941
529.80	8.849
530.15	9.470
530.49	8.000
530.83	8.734
531.17	8.747
531.51	9.533
531.86	8.839
532.20	9.192
532.54	8.905
532.88	9.692
533.22	8.557
533.57	8.519
533.91	7.827
534.25	8.505
534.59	8.359
534.93	8.566
535.27	8.449
535.62	8.303
535.96	8.914
536.30	7.883
536.64	8.693
536.98	8.626
537.32	8.097
537.66	8.533
538.01	9.151
538.35	9.179
538.69	9.253
539.03	8.447
539.37	7.923
539.71	6.935
540.05	8.366
540.39	8.505
540.73	8.409
541.07	8.696
541.42	8.219
541.76	9.032
542.10	9.120
542.44	8.079
542.78	9.420
543.12	8.381
543.46	8.459
543.80	8.328
544.14	8.729
544.48	8.063
544.82	8.018
545.16	8.198
545.50	8.740
545.84	8.804
546.18	8.283
546.52	8.809
546.86	7.766
547.20	8.901
547.54	8.818
547.88	9.311
548.22	8.281
548.56	8.679
548.90	7.746
549.24	8.215
549.58	8.322
549.92	9.203
550.26	8.594
550.60	8.437
550.94	8.803
551.28	8.559
551.62	9.346
551.96	8.491
552.30	9.010
552.64	8.722
552.98	8.000
553.32	8.564
553.66	8.521
554.00	8.442
554.34	8.627
554.68	9.013
555.02	8.745
555.36	8.559
555.69	8.728
556.03	8.681
556.37	8.322
556.71	8.595
557.05	8.473
557.39	8.887
557.73	8.821
558.07	8.847
558.41	8.394
558.75	9.331
559.08	9.471
559.42	8.163
559.76	9.044
560.10	8.922
560.44	8.456
560.78	8.184
561.12	8.047
561.45	8.801
561.79	8.108
562.13	8.719
562.47	8.402
562.81	8.368
563.15	8.361
563.48	9.019
563.82	8.284
564.16	7.914
564.50	8.398
564.84	8.217
565.17	8.880
565.51	7.987
565.85	8.439
566.19	7.451
566.52	8.930
566.86	7.957
567.20	8.785
567.54	7.877
567.88	7.605
568.21	8.360
568.55	7.331
568.89	6.955
569.23	7.620
569.56	6.721
569.90	6.868
570.24	6.602
570.57	6.630
570.91	6.335
571.25	6.485
571.59	6.274
571.92	6.192
572.26	5.979
572.60	6.216
572.93	6.627
573.27	6.448
573.61	6.449
573.95	6.537
574.28	6.106
574.62	5.758
574.96	5.663
575.29	5.892
575.63	6.072
575.97	5.936
576.30	5.975
576.64	6.166
576.98	5.882
577.31	5.522
577.65	5.798
577.98	5.810
578.32	5.401
578.66	5.702
578.99	5.638
579.33	5.834
579.67	5.570
580.00	5.730
580.34	5.719
580.67	5.625
581.01	6.206
581.35	5.911
581.68	5.710
582.02	5.405
582.35	5.371
582.69	5.628
583.02	5.608
583.36	5.764
583.70	6.094
584.03	5.878
584.37	6.693
584.70	6.191
585.04	6.409
585.37	5.965
585.71	5.945
586.04	6.113
586.38	5.825
586.72	6.407
587.05	5.732
587.39	5.937
587.72	6.261
588.06	6.110
588.39	6.529
588.73	6.043
589.06	6.700
589.40	6.364
589.73	6.829
590.07	6.690
590.40	6.759
590.73	6.753
591.07	7.123
591.40	7.592
591.74	6.926
592.07	7.199
592.41	7.813
592.74	6.704
593.08	6.629
593.41	6.485
593.75	6.496
594.08	6.168
594.41	6.928
594.75	6.654
595.08	7.015
595.42	7.320
595.75	6.517
596.09	7.060
596.42	7.348
596.75	7.007
597.09	8.052
597.42	6.830
597.75	7.503
598.09	6.957
598.42	6.830
598.76	6.688
599.09	6.613
599.42	6.623
599.76	6.772
600.09	6.776
600.42	6.866
600.76	6.393
601.09	6.521
601.42	6.697
601.76	6.983
602.09	6.482
602.42	7.564
602.76	7.094
603.09	6.648
603.42	7.224
603.76	6.517
604.09	6.282
604.42	6.930
604.76	7.254
605.09	6.859
605.42	6.712
605.75	6.871
606.09	6.466
606.42	6.906
606.75	7.134
607.09	7.158
607.42	6.761
607.75	6.540
608.08	6.817
608.42	7.351
608.75	7.394
609.08	7.493
609.41	6.997
609.75	7.051
610.08	7.587
610.41	7.076
610.74	6.670
611.07	7.658
611.41	7.311
611.74	7.541
612.07	7.764
612.40	7.817
612.73	7.474
613.07	7.759
613.40	8.057
613.73	7.079
614.06	7.742
614.39	8.390
614.72	8.000
615.06	8.088
615.39	6.741
615.72	7.566
616.05	7.337
616.38	7.337
616.71	7.067
617.05	8.539
617.38	8.900
617.71	7.628
618.04	8.594
618.37	7.983
618.70	8.276
619.03	8.618
619.36	8.418
619.69	8.662
620.03	8.036
620.36	9.158
620.69	9.247
621.02	7.965
621.35	8.301
621.68	8.178
622.01	8.901
622.34	8.699
622.67	8.821
623.00	8.364
623.33	8.006
623.66	8.863
623.99	8.174
624.32	8.060
624.65	8.898
624.99	8.357
625.32	8.255
625.65	8.415
625.98	9.224
626.31	9.642
626.64	8.980
626.97	8.396
627.30	8.894
627.63	8.450
627.96	9.336
628.29	9.011
628.62	9.790
628.95	11.226
629.28	9.945
629.61	10.541
629.94	9.810
630.26	9.342
630.59	9.914
630.92	9.770
631.25	7.897
631.58	10.110
631.91	9.432
632.24	10.021
632.57	10.178
632.90	11.404
633.23	10.626
633.56	10.169
633.89	11.438
634.22	10.102
634.55	12.544
634.88	9.461
635.20	12.067
635.53	10.482
635.86	10.767
636.19	10.353
636.52	11.649
636.85	11.111
637.18	10.484
637.51	12.411
637.83	8.631
638.16	10.358
638.49	10.957
638.82	12.389
639.15	12.500
639.48	11.970
639.81	11.662
640.13	10.938
640.46	12.081
640.79	12.682
641.12	10.867
641.45	12.291
641.77	12.960
642.10	11.111
642.43	9.760
642.76	12.229
643.09	11.196
643.41	13.050
643.74	11.728
644.07	12.348
644.40	15.951
644.73	14.961
645.05	13.629
645.38	10.742
645.71	12.399
646.04	12.126
646.36	14.190
