SpectraSuite Data File
++++++++++++++++++++++++++++++++++++
Date: Wed May 13 16:22:04 PDT 2015
User: schluterlab
Dark Spectrum Present: Yes
Reference Spectrum Present: Yes
Number of Sampled Component Spectra: 1
Spectrometers: USB2E3373
Integration Time (usec): 3000 (USB2E3373)
Spectra Averaged: 3 (USB2E3373)
Boxcar Smoothing: 0 (USB2E3373)
Correct for Electrical Dark: No (USB2E3373)
Strobe/Lamp Enabled: No (USB2E3373)
Correct for Detector Non-linearity: No (USB2E3373)
Correct for Stray Light: No (USB2E3373)
Number of Pixels in Processed Spectrum: 2048
>>>>>Begin Processed Spectral Data<<<<<
178.53	0.000
178.91	-1325.000
179.29	-1275.000
179.67	-194.444
180.04	-1075.000
180.42	2150.000
180.80	1020.000
181.18	-1050.000
181.56	571.429
181.94	0.000
182.31	-657.143
182.69	1433.333
183.07	-587.500
183.45	-466.667
183.83	481.818
184.20	-380.000
184.58	1850.000
184.96	4100.000
185.34	-820.000
185.72	-612.500
186.09	-1850.000
186.47	2750.000
186.85	2050.000
187.23	4500.000
187.61	-1100.000
187.98	1175.000
188.36	527.273
188.74	527.273
189.12	-960.000
189.49	580.000
189.87	-4500.000
190.25	-1050.000
190.63	357.143
191.00	346.154
191.38	833.333
191.76	-1200.000
192.14	1000.000
192.51	612.500
192.89	966.667
193.27	537.500
193.65	-1025.000
194.02	470.000
194.40	840.000
194.78	500.000
195.15	458.333
195.53	580.000
195.91	-1950.000
196.29	331.250
196.66	294.737
197.04	-330.000
197.42	0.000
197.79	610.000
198.17	-4600.000
198.55	628.571
198.92	575.000
199.30	760.000
199.68	0.000
200.05	277.778
200.43	685.714
200.81	4000.000
201.18	1466.667
201.56	-1433.333
201.94	555.556
202.31	577.778
202.69	366.667
203.07	530.000
203.44	0.000
203.82	1075.000
204.19	771.429
204.57	414.286
204.95	562.500
205.32	1500.000
205.70	418.182
206.08	392.857
206.45	2250.000
206.83	300.000
207.20	900.000
207.58	700.000
207.96	322.222
208.33	637.500
208.71	-683.333
209.08	657.143
209.46	555.556
209.84	409.091
210.21	-1600.000
210.59	1400.000
210.96	-462.500
211.34	2500.000
211.71	590.000
212.09	816.667
212.46	0.000
212.84	1366.667
213.22	1025.000
213.59	-3800.000
213.97	600.000
214.34	771.429
214.72	490.909
215.09	1000.000
215.47	-1850.000
215.84	-2250.000
216.22	1400.000
216.59	364.286
216.97	1100.000
217.34	436.364
217.72	-583.333
218.09	0.000
218.47	-4300.000
218.84	577.778
219.22	700.000
219.59	1600.000
219.97	-700.000
220.34	820.000
220.72	-1300.000
221.09	400.000
221.47	1300.000
221.84	-983.333
222.22	0.000
222.59	1125.000
222.97	-1750.000
223.34	1060.000
223.72	376.923
224.09	960.000
224.46	1900.000
224.84	-4100.000
225.21	-1020.000
225.59	-3800.000
225.96	550.000
226.34	250.000
226.71	2450.000
227.08	637.500
227.46	510.000
227.83	-1025.000
228.21	-2050.000
228.58	488.889
228.95	-1950.000
229.33	-2250.000
229.70	1433.333
230.08	828.571
230.45	-860.000
230.82	416.667
231.20	866.667
231.57	785.714
231.95	475.000
232.32	227.273
232.69	445.455
233.07	500.000
233.44	361.538
233.81	-1433.333
234.19	268.421
234.56	433.333
234.93	350.000
235.31	472.727
235.68	292.308
236.05	321.429
236.43	160.606
236.80	252.632
237.17	3000.000
237.55	200.000
237.92	185.714
238.29	200.000
238.67	122.581
239.04	151.724
239.41	125.000
239.79	115.217
240.16	126.190
240.53	120.455
240.91	98.039
241.28	96.000
241.65	78.000
242.02	75.362
242.40	59.677
242.77	70.000
243.14	65.591
243.51	67.416
243.89	61.176
244.26	60.000
244.63	49.462
245.00	59.574
245.38	63.366
245.75	46.729
246.12	44.037
246.49	47.445
246.87	47.200
247.24	47.692
247.61	45.714
247.98	40.523
248.36	33.108
248.73	37.580
249.10	35.032
249.47	36.158
249.84	37.968
250.22	29.947
250.59	32.544
250.96	35.859
251.33	33.175
251.70	37.624
252.08	27.143
252.45	32.735
252.82	24.783
253.19	34.894
253.56	28.235
253.94	33.195
254.31	30.469
254.68	30.385
255.05	28.413
255.42	28.455
255.79	26.103
256.16	28.520
256.54	25.795
256.91	24.199
257.28	24.820
257.65	24.752
258.02	24.224
258.39	22.713
258.76	23.077
259.14	25.298
259.51	24.012
259.88	21.118
260.25	24.169
260.62	24.277
260.99	21.739
261.36	25.826
261.73	24.069
262.10	21.221
262.47	23.380
262.85	22.563
263.22	18.234
263.59	23.077
263.96	18.956
264.33	21.671
264.70	21.316
265.07	23.018
265.44	16.919
265.81	19.708
266.18	20.101
266.55	22.683
266.92	21.376
267.29	21.296
267.66	20.183
268.03	22.045
268.40	19.393
268.77	17.900
269.14	19.820
269.51	20.542
269.88	21.911
270.25	18.059
270.62	20.225
270.99	21.075
271.36	19.742
271.73	20.093
272.10	16.739
272.47	20.430
272.84	19.264
273.21	20.335
273.58	19.651
273.95	16.562
274.32	19.835
274.69	18.630
275.06	16.142
275.43	20.000
275.80	16.633
276.17	18.941
276.54	17.879
276.91	18.972
277.28	16.406
277.65	19.342
278.02	15.321
278.39	20.312
278.76	18.000
279.13	19.057
279.50	18.063
279.87	17.729
280.23	18.164
280.60	18.956
280.97	15.896
281.34	17.345
281.71	17.636
282.08	19.578
282.45	16.909
282.82	19.005
283.19	15.152
283.56	16.842
283.92	18.613
284.29	16.049
284.66	16.152
285.03	15.913
285.40	16.021
285.77	16.162
286.14	16.408
286.51	17.667
286.87	16.752
287.24	16.775
287.61	14.607
287.98	15.422
288.35	16.006
288.72	15.421
289.08	14.085
289.45	13.839
289.82	15.285
290.19	15.699
290.56	13.476
290.93	14.350
291.29	14.877
291.66	14.897
292.03	15.843
292.40	16.153
292.77	15.976
293.13	14.328
293.50	13.411
293.87	14.963
294.24	12.444
294.60	12.664
294.97	15.262
295.34	14.951
295.71	14.062
296.08	13.533
296.44	14.168
296.81	13.738
297.18	13.686
297.55	11.346
297.91	13.456
298.28	14.056
298.65	14.621
299.02	13.834
299.38	11.687
299.75	11.321
300.12	11.750
300.48	12.500
300.85	13.317
301.22	11.338
301.59	12.753
301.95	12.594
302.32	12.580
302.69	12.067
303.05	13.818
303.42	11.605
303.79	12.344
304.15	10.606
304.52	12.167
304.89	11.847
305.25	12.065
305.62	12.005
305.99	12.397
306.35	12.081
306.72	11.771
307.09	12.098
307.45	11.712
307.82	10.379
308.19	12.252
308.55	12.729
308.92	11.386
309.29	10.454
309.65	11.665
310.02	11.734
310.38	11.183
310.75	11.932
311.12	11.771
311.48	12.017
311.85	12.369
312.22	11.446
312.58	11.435
312.95	13.200
313.31	10.680
313.68	11.123
314.05	13.905
314.41	11.960
314.78	11.782
315.14	11.519
315.51	12.049
315.87	12.772
316.24	12.512
316.61	13.060
316.97	12.231
317.34	10.665
317.70	13.098
318.07	12.512
318.43	13.112
318.80	13.402
319.16	13.653
319.53	12.758
319.89	14.000
320.26	14.300
320.62	13.988
320.99	14.848
321.35	14.444
321.72	16.016
322.08	14.906
322.45	16.119
322.81	15.891
323.18	15.800
323.54	16.327
323.91	16.321
324.27	16.157
324.64	15.284
325.00	15.780
325.37	16.197
325.73	16.966
326.10	16.152
326.46	17.115
326.83	18.292
327.19	16.823
327.56	17.160
327.92	18.198
328.29	19.432
328.65	18.324
329.01	16.877
329.38	18.686
329.74	17.452
330.11	18.096
330.47	18.549
330.84	19.853
331.20	17.577
331.56	18.624
331.93	17.778
332.29	18.012
332.66	19.912
333.02	18.921
333.38	18.609
333.75	19.162
334.11	20.552
334.48	18.634
334.84	20.129
335.20	19.182
335.57	19.311
335.93	18.750
336.29	18.681
336.66	19.928
337.02	18.371
337.38	19.815
337.75	17.291
338.11	20.054
338.47	20.074
338.84	19.615
339.20	18.165
339.56	20.164
339.93	18.636
340.29	19.293
340.65	19.162
341.02	19.634
341.38	19.484
341.74	18.333
342.11	19.563
342.47	19.471
342.83	19.264
343.20	19.394
343.56	19.966
343.92	19.035
344.28	18.963
344.65	19.347
345.01	18.266
345.37	18.611
345.73	19.459
346.10	19.693
346.46	18.644
346.82	19.357
347.19	18.797
347.55	18.883
347.91	20.388
348.27	19.145
348.63	19.147
349.00	18.042
349.36	19.458
349.72	18.444
350.08	18.071
350.45	18.959
350.81	19.009
351.17	19.692
351.53	19.328
351.89	18.317
352.26	19.653
352.62	19.888
352.98	18.882
353.34	18.981
353.70	18.740
354.07	20.242
354.43	17.937
354.79	18.584
355.15	19.074
355.51	19.664
355.87	19.429
356.24	20.114
356.60	18.444
356.96	19.389
357.32	19.787
357.68	19.764
358.04	18.923
358.40	19.398
358.77	19.640
359.13	17.995
359.49	19.137
359.85	18.175
360.21	19.298
360.57	20.545
360.93	18.923
361.29	19.501
361.66	19.272
362.02	19.627
362.38	18.859
362.74	18.824
363.10	19.097
363.46	18.635
363.82	19.879
364.18	20.191
364.54	20.877
364.90	20.042
365.26	19.706
365.62	20.453
365.98	19.138
366.35	18.123
366.71	20.246
367.07	19.738
367.43	19.811
367.79	20.628
368.15	19.899
368.51	20.422
368.87	20.628
369.23	20.117
369.59	20.637
369.95	20.221
370.31	20.584
370.67	20.435
371.03	20.449
371.39	20.262
371.75	20.809
372.11	19.630
372.47	20.674
372.83	21.254
373.19	20.376
373.55	20.325
373.91	22.828
374.27	20.687
374.63	19.855
374.99	21.186
375.35	20.656
375.71	20.699
376.07	21.056
376.42	20.633
376.78	21.471
377.14	20.556
377.50	21.656
377.86	21.210
378.22	21.681
378.58	20.865
378.94	21.559
379.30	21.247
379.66	21.637
380.02	22.543
380.38	22.465
380.74	21.849
381.09	21.577
381.45	22.250
381.81	22.236
382.17	23.503
382.53	22.516
382.89	22.531
383.25	22.389
383.61	23.482
383.97	23.139
384.32	22.957
384.68	22.862
385.04	22.618
385.40	22.724
385.76	23.649
386.12	23.316
386.48	23.348
386.83	23.926
387.19	24.242
387.55	23.810
387.91	22.793
388.27	23.421
388.62	23.970
388.98	23.587
389.34	23.780
389.70	23.728
390.06	24.208
390.42	24.060
390.77	23.728
391.13	24.250
391.49	23.921
391.85	23.997
392.20	22.965
392.56	23.737
392.92	24.132
393.28	22.899
393.64	24.041
393.99	24.557
394.35	24.380
394.71	24.153
395.07	24.112
395.42	24.660
395.78	23.155
396.14	24.333
396.50	25.313
396.85	24.539
397.21	24.168
397.57	24.427
397.92	24.038
398.28	24.047
398.64	23.835
399.00	23.447
399.35	23.012
399.71	23.206
400.07	24.364
400.42	24.601
400.78	23.824
401.14	24.268
401.49	23.582
401.85	23.775
402.21	24.251
402.57	24.738
402.92	24.023
403.28	24.672
403.63	24.072
403.99	24.268
404.35	24.061
404.70	24.640
405.06	23.413
405.42	24.017
405.77	24.343
406.13	23.871
406.49	24.128
406.84	24.335
407.20	22.636
407.55	23.612
407.91	24.267
408.27	24.442
408.62	24.142
408.98	23.897
409.34	24.477
409.69	23.161
410.05	24.040
410.40	25.260
410.76	23.238
411.11	23.643
411.47	23.323
411.83	23.946
412.18	23.500
412.54	23.786
412.89	23.976
413.25	24.144
413.60	24.460
413.96	23.376
414.31	23.694
414.67	24.208
415.03	23.444
415.38	23.905
415.74	23.408
416.09	25.278
416.45	23.159
416.80	23.463
417.16	24.866
417.51	23.424
417.87	23.186
418.22	23.849
418.58	23.693
418.93	23.710
419.29	23.488
419.64	24.433
420.00	23.049
420.35	23.362
420.71	24.268
421.06	23.807
421.42	23.860
421.77	23.991
422.12	23.358
422.48	22.396
422.83	23.063
423.19	22.983
423.54	22.809
423.90	23.478
424.25	23.506
424.61	23.333
424.96	23.324
425.31	23.256
425.67	22.753
426.02	22.571
426.38	23.443
426.73	22.586
427.09	23.951
427.44	23.289
427.79	23.289
428.15	23.036
428.50	23.640
428.85	23.897
429.21	22.087
429.56	23.224
429.92	22.245
430.27	22.592
430.62	23.041
430.98	22.366
431.33	22.887
431.68	22.775
432.04	22.524
432.39	22.102
432.74	23.279
433.10	23.147
433.45	22.449
433.80	22.894
434.16	22.436
434.51	22.737
434.86	23.147
435.22	21.957
435.57	23.161
435.92	22.528
436.28	23.962
436.63	23.731
436.98	22.438
437.34	23.315
437.69	23.571
438.04	22.822
438.39	22.507
438.75	23.068
439.10	22.905
439.45	22.609
439.81	22.719
440.16	22.530
440.51	23.023
440.86	22.814
441.22	22.692
441.57	22.611
441.92	22.006
442.27	22.605
442.63	21.380
442.98	22.761
443.33	22.989
443.68	22.664
444.03	22.011
444.39	21.616
444.74	21.266
445.09	22.318
445.44	21.815
445.79	21.475
446.15	22.181
446.50	21.648
446.85	21.634
447.20	22.081
447.55	22.669
447.91	22.008
448.26	22.092
448.61	22.442
448.96	22.647
449.31	22.553
449.66	22.397
450.02	22.563
450.37	21.259
450.72	22.109
451.07	22.364
451.42	21.337
451.77	22.901
452.12	21.767
452.47	22.388
452.83	21.678
453.18	21.822
453.53	21.521
453.88	21.737
454.23	22.176
454.58	22.471
454.93	22.823
455.28	21.696
455.63	21.663
455.98	23.155
456.34	22.927
456.69	22.417
457.04	22.229
457.39	21.975
457.74	21.474
458.09	21.392
458.44	22.463
458.79	21.475
459.14	21.840
459.49	21.891
459.84	21.828
460.19	21.332
460.54	21.354
460.89	21.942
461.24	21.919
461.59	22.313
461.94	21.393
462.29	22.552
462.64	21.698
462.99	20.950
463.34	22.067
463.69	21.388
464.04	21.681
464.39	21.739
464.74	21.450
465.09	21.110
465.44	21.551
465.79	20.694
466.14	21.346
466.49	20.968
466.84	22.008
467.19	21.485
467.54	21.250
467.89	20.768
468.24	21.291
468.59	21.734
468.94	20.831
469.29	22.044
469.64	21.888
469.99	21.177
470.34	21.004
470.68	22.198
471.03	21.565
471.38	22.029
471.73	22.585
472.08	22.697
472.43	20.415
472.78	21.856
473.13	20.539
473.48	21.536
473.83	21.524
474.17	20.100
474.52	21.154
474.87	20.957
475.22	20.894
475.57	20.097
475.92	20.234
476.27	20.800
476.61	21.015
476.96	20.836
477.31	19.519
477.66	20.460
478.01	20.439
478.36	20.360
478.70	19.834
479.05	20.288
479.40	20.266
479.75	20.234
480.10	20.278
480.45	20.086
480.79	19.494
481.14	19.667
481.49	19.934
481.84	19.982
482.19	19.945
482.53	19.404
482.88	19.311
483.23	19.346
483.58	19.609
483.92	19.494
484.27	18.693
484.62	19.612
484.97	19.235
485.31	19.281
485.66	18.240
486.01	17.318
486.36	16.629
486.70	16.124
487.05	17.028
487.40	18.029
487.75	18.675
488.09	18.805
488.44	19.046
488.79	19.421
489.13	18.946
489.48	19.290
489.83	18.947
490.17	18.764
490.52	18.733
490.87	19.222
491.22	18.781
491.56	18.405
491.91	19.823
492.26	18.925
492.60	19.032
492.95	18.662
493.30	18.411
493.64	18.945
493.99	18.570
494.34	18.825
494.68	19.780
495.03	19.502
495.37	18.986
495.72	19.834
496.07	19.722
496.41	18.319
496.76	18.646
497.11	18.910
497.45	18.584
497.80	18.762
498.14	17.633
498.49	18.585
498.84	19.319
499.18	18.571
499.53	18.424
499.87	18.826
500.22	18.700
500.56	19.029
500.91	19.087
501.26	19.014
501.60	18.605
501.95	18.973
502.29	18.135
502.64	18.156
502.98	18.747
503.33	18.327
503.67	18.747
504.02	18.616
504.36	18.811
504.71	18.661
505.06	19.181
505.40	17.939
505.75	17.936
506.09	17.930
506.44	18.451
506.78	18.169
507.13	18.829
507.47	18.788
507.82	19.200
508.16	18.744
508.51	18.163
508.85	18.620
509.19	18.367
509.54	19.031
509.88	18.959
510.23	18.509
510.57	19.556
510.92	18.332
511.26	18.602
511.61	18.776
511.95	18.580
512.30	17.444
512.64	18.861
512.98	18.864
513.33	18.790
513.67	18.943
514.02	18.236
514.36	18.788
514.70	18.871
515.05	18.461
515.39	18.732
515.74	18.750
516.08	19.955
516.42	18.979
516.77	18.841
517.11	17.592
517.46	19.074
517.80	19.164
518.14	18.529
518.49	19.137
518.83	18.807
519.17	18.418
519.52	19.072
519.86	18.597
520.20	18.844
520.55	19.569
520.89	19.526
521.23	19.662
521.58	18.848
521.92	18.861
522.26	18.060
522.61	19.502
522.95	19.521
523.29	19.051
523.64	19.451
523.98	18.484
524.32	19.300
524.66	19.122
525.01	18.689
525.35	19.517
525.69	18.842
526.04	18.879
526.38	19.402
526.72	18.405
527.06	19.335
527.41	18.441
527.75	19.614
528.09	19.139
528.43	18.802
528.78	18.931
529.12	18.364
529.46	19.228
529.80	18.874
530.15	18.816
530.49	18.831
530.83	18.734
531.17	19.191
531.51	19.715
531.86	19.097
532.20	19.752
532.54	19.795
532.88	19.384
533.22	18.426
533.57	18.827
533.91	18.663
534.25	18.712
534.59	18.914
534.93	18.203
535.27	18.467
535.62	18.803
535.96	17.954
536.30	18.945
536.64	19.253
536.98	18.912
537.32	18.038
537.66	19.133
538.01	18.631
538.35	19.263
538.69	19.336
539.03	17.674
539.37	18.786
539.71	17.952
540.05	18.235
540.39	18.339
540.73	17.982
541.07	18.689
541.42	18.265
541.76	18.258
542.10	18.952
542.44	18.411
542.78	19.236
543.12	18.106
543.46	18.623
543.80	18.673
544.14	17.972
544.48	18.159
544.82	18.281
545.16	18.217
545.50	17.609
545.84	17.944
546.18	17.778
546.52	18.995
546.86	17.526
547.20	18.813
547.54	17.769
547.88	18.495
548.22	17.372
548.56	17.547
548.90	17.222
549.24	17.912
549.58	18.349
549.92	19.162
550.26	19.460
550.60	17.497
550.94	18.380
551.28	17.337
551.62	18.548
551.96	16.912
552.30	18.020
552.64	18.594
552.98	17.966
553.32	18.004
553.66	18.269
554.00	18.737
554.34	16.563
554.68	17.740
555.02	17.489
555.36	17.745
555.69	17.253
556.03	18.304
556.37	18.349
556.71	18.486
557.05	18.207
557.39	18.684
557.73	17.925
558.07	18.274
558.41	17.873
558.75	17.046
559.08	18.345
559.42	18.367
559.76	18.382
560.10	16.916
560.44	16.911
560.78	16.966
561.12	17.810
561.45	17.666
561.79	17.271
562.13	17.773
562.47	17.828
562.81	17.503
563.15	17.659
563.48	17.241
563.82	17.743
564.16	17.332
564.50	16.797
564.84	17.257
565.17	16.731
565.51	17.636
565.85	17.195
566.19	17.220
566.52	17.036
566.86	17.239
567.20	17.099
567.54	16.495
567.88	15.861
568.21	16.614
568.55	15.571
568.89	16.294
569.23	15.865
569.56	15.223
569.90	15.094
570.24	14.998
570.57	14.927
570.91	14.447
571.25	14.299
571.59	14.227
571.92	13.911
572.26	14.096
572.60	14.324
572.93	14.333
573.27	14.641
573.61	14.489
573.95	14.393
574.28	14.045
574.62	13.557
574.96	13.620
575.29	13.628
575.63	13.796
575.97	13.903
576.30	14.657
576.64	13.596
576.98	13.831
577.31	13.586
577.65	13.529
577.98	13.510
578.32	13.026
578.66	13.648
578.99	13.878
579.33	13.725
579.67	13.233
580.00	13.762
580.34	14.048
580.67	13.968
581.01	13.740
581.35	13.745
581.68	13.260
582.02	12.856
582.35	13.183
582.69	13.057
583.02	13.078
583.36	13.627
583.70	13.811
584.03	14.342
584.37	14.150
584.70	14.107
585.04	13.894
585.37	13.467
585.71	13.534
586.04	13.675
586.38	13.819
586.72	14.333
587.05	13.447
587.39	13.483
587.72	13.605
588.06	13.607
588.39	13.855
588.73	14.491
589.06	14.366
589.40	14.512
589.73	14.256
590.07	13.986
590.40	14.213
590.73	14.871
591.07	14.815
591.40	15.099
591.74	15.541
592.07	15.271
592.41	15.254
592.74	14.532
593.08	13.857
593.41	14.141
593.75	13.585
594.08	14.080
594.41	14.422
594.75	13.900
595.08	14.352
595.42	14.221
595.75	13.640
596.09	14.946
596.42	14.931
596.75	14.816
597.09	15.628
597.42	14.418
597.75	14.360
598.09	15.522
598.42	14.734
598.76	14.674
599.09	13.569
599.42	14.265
599.76	14.129
600.09	13.807
600.42	13.806
600.76	13.821
601.09	14.244
601.42	13.851
601.76	14.118
602.09	14.664
602.42	14.132
602.76	14.672
603.09	14.555
603.42	14.096
603.76	14.253
604.09	14.075
604.42	14.227
604.76	15.183
605.09	14.723
605.42	14.365
605.75	14.487
606.09	13.989
606.42	14.548
606.75	14.102
607.09	14.902
607.42	14.078
607.75	14.008
608.08	14.329
608.42	14.747
608.75	14.472
609.08	14.246
609.41	14.612
609.75	15.007
610.08	15.221
610.41	14.060
610.74	14.333
611.07	14.625
611.41	14.720
611.74	15.334
612.07	14.959
612.40	15.268
612.73	15.684
613.07	14.978
613.40	15.692
613.73	14.893
614.06	14.785
614.39	15.732
614.72	15.158
615.06	15.494
615.39	14.331
615.72	14.980
616.05	14.088
616.38	15.008
616.71	15.558
617.05	15.901
617.38	16.055
617.71	14.474
618.04	15.385
618.37	15.257
618.70	15.557
619.03	16.842
619.36	17.447
619.69	16.056
620.03	16.690
620.36	15.642
620.69	16.438
621.02	16.003
621.35	16.523
621.68	16.199
622.01	17.337
622.34	16.415
622.67	16.806
623.00	16.801
623.33	15.797
623.66	17.012
623.99	15.979
624.32	16.191
624.65	15.678
624.99	15.864
625.32	15.641
625.65	16.003
625.98	17.525
626.31	16.563
626.64	17.306
626.97	16.791
627.30	16.874
627.63	17.719
627.96	16.148
628.29	17.060
628.62	18.573
628.95	19.623
629.28	18.613
629.61	18.882
629.94	18.190
630.26	17.827
630.59	17.255
630.92	17.529
