SpectraSuite Data File
++++++++++++++++++++++++++++++++++++
Date: Wed May 13 16:36:38 PDT 2015
User: schluterlab
Dark Spectrum Present: Yes
Reference Spectrum Present: Yes
Number of Sampled Component Spectra: 1
Spectrometers: USB2E3373
Integration Time (usec): 3000 (USB2E3373)
Spectra Averaged: 3 (USB2E3373)
Boxcar Smoothing: 0 (USB2E3373)
Correct for Electrical Dark: No (USB2E3373)
Strobe/Lamp Enabled: No (USB2E3373)
Correct for Detector Non-linearity: No (USB2E3373)
Correct for Stray Light: No (USB2E3373)
Number of Pixels in Processed Spectrum: 2048
>>>>>Begin Processed Spectral Data<<<<<
178.53	0.000
178.91	-1075.000
179.29	-1475.000
179.67	-211.111
180.04	-1225.000
180.42	2750.000
180.80	1080.000
181.18	-1350.000
181.56	785.714
181.94	0.000
182.31	-642.857
182.69	1833.333
183.07	-562.500
183.45	-500.000
183.83	518.182
184.20	-340.000
184.58	2150.000
184.96	5500.000
185.34	-820.000
185.72	-575.000
186.09	-2400.000
186.47	2500.000
186.85	2750.000
187.23	4900.000
187.61	-1966.667
187.98	1225.000
188.36	509.091
188.74	572.727
189.12	-1040.000
189.49	570.000
189.87	-4500.000
190.25	-1200.000
190.63	435.714
191.00	423.077
191.38	866.667
191.76	-1325.000
192.14	1225.000
192.51	662.500
192.89	900.000
193.27	612.500
193.65	-1325.000
194.02	490.000
194.40	1060.000
194.78	590.000
195.15	475.000
195.53	700.000
195.91	-2050.000
196.29	356.250
196.66	273.684
197.04	-400.000
197.42	0.000
197.79	570.000
198.17	-4200.000
198.55	700.000
198.92	712.500
199.30	940.000
199.68	0.000
200.05	300.000
200.43	800.000
200.81	4300.000
201.18	1766.667
201.56	-1633.333
201.94	566.667
202.31	622.222
202.69	441.667
203.07	520.000
203.44	0.000
203.82	1150.000
204.19	771.429
204.57	392.857
204.95	637.500
205.32	1466.667
205.70	509.091
206.08	378.571
206.45	2650.000
206.83	318.750
207.20	833.333
207.58	840.000
207.96	350.000
208.33	712.500
208.71	-833.333
209.08	714.286
209.46	566.667
209.84	518.182
210.21	-1300.000
210.59	1525.000
210.96	-487.500
211.34	2550.000
211.71	640.000
212.09	716.667
212.46	0.000
212.84	1833.333
213.22	1475.000
213.59	-3900.000
213.97	866.667
214.34	842.857
214.72	518.182
215.09	1160.000
215.47	-2450.000
215.84	-2600.000
216.22	1600.000
216.59	442.857
216.97	1150.000
217.34	390.909
217.72	-683.333
218.09	0.000
218.47	-5900.000
218.84	644.444
219.22	671.429
219.59	1666.667
219.97	-685.714
220.34	840.000
220.72	-1566.667
221.09	357.143
221.47	1350.000
221.84	-916.667
222.22	0.000
222.59	1300.000
222.97	-2700.000
223.34	1180.000
223.72	392.308
224.09	1060.000
224.46	1850.000
224.84	-4200.000
225.21	-920.000
225.59	-4700.000
225.96	580.000
226.34	295.000
226.71	2950.000
227.08	775.000
227.46	490.000
227.83	-1275.000
228.21	-2550.000
228.58	611.111
228.95	-2250.000
229.33	-1650.000
229.70	1500.000
230.08	842.857
230.45	-700.000
230.82	425.000
231.20	750.000
231.57	771.429
231.95	483.333
232.32	236.364
232.69	445.455
233.07	614.286
233.44	330.769
233.81	-1466.667
234.19	278.947
234.56	408.333
234.93	283.333
235.31	390.909
235.68	361.538
236.05	400.000
236.43	169.697
236.80	289.474
237.17	4000.000
237.55	200.000
237.92	217.857
238.29	238.095
238.67	164.516
239.04	193.103
239.41	122.222
239.79	106.522
240.16	121.429
240.53	109.091
240.91	90.196
241.28	98.000
241.65	78.000
242.02	75.362
242.40	85.484
242.77	80.000
243.14	61.290
243.51	71.910
243.89	52.941
244.26	50.000
244.63	44.086
245.00	69.149
245.38	52.475
245.75	40.187
246.12	47.706
246.49	52.555
246.87	52.000
247.24	46.154
247.61	44.286
247.98	36.601
248.36	35.135
248.73	29.299
249.10	42.038
249.47	32.203
249.84	35.829
250.22	31.016
250.59	30.178
250.96	29.293
251.33	31.280
251.70	29.703
252.08	30.000
252.45	21.973
252.82	27.826
253.19	25.532
253.56	27.843
253.94	26.971
254.31	22.656
254.68	28.846
255.05	23.247
255.42	20.325
255.79	26.103
256.16	24.910
256.54	19.788
256.91	24.199
257.28	15.108
257.65	22.112
258.02	23.913
258.39	20.505
258.76	22.074
259.14	19.643
259.51	20.365
259.88	16.149
260.25	21.752
260.62	18.208
260.99	16.149
261.36	19.219
261.73	17.765
262.10	17.733
262.47	18.028
262.85	19.220
263.22	16.809
263.59	19.943
263.96	17.582
264.33	16.449
264.70	16.579
265.07	15.857
265.44	14.899
265.81	16.788
266.18	17.839
266.55	16.341
266.92	16.708
267.29	16.667
267.66	15.367
268.03	16.591
268.40	17.056
268.77	17.661
269.14	15.991
269.51	18.736
269.88	17.249
270.25	13.770
270.62	15.506
270.99	17.204
271.36	15.665
271.73	13.084
272.10	14.565
272.47	16.129
272.84	14.719
273.21	17.610
273.58	15.066
273.95	13.627
274.32	14.669
274.69	15.632
275.06	14.567
275.43	15.319
275.80	14.629
276.17	13.849
276.54	15.593
276.91	14.822
277.28	14.258
277.65	15.667
278.02	14.286
278.39	16.602
278.76	15.273
279.13	12.642
279.50	14.339
279.87	14.741
280.23	13.174
280.60	12.573
280.97	13.309
281.34	16.106
281.71	14.727
282.08	14.012
282.45	13.818
282.82	14.387
283.19	12.656
283.56	15.263
283.92	13.198
284.29	13.228
284.66	14.338
285.03	12.839
285.40	11.092
285.77	12.290
286.14	12.263
286.51	13.667
286.87	12.650
287.24	13.192
287.61	13.002
287.98	11.526
288.35	13.471
288.72	12.305
289.08	12.676
289.45	11.532
289.82	11.707
290.19	9.105
290.56	13.323
290.93	11.027
291.29	11.656
291.66	11.947
292.03	13.517
292.40	14.244
292.77	10.651
293.13	11.791
293.50	10.496
293.87	12.593
294.24	11.407
294.60	10.335
294.97	11.337
295.34	11.848
295.71	11.080
296.08	11.538
296.44	10.591
296.81	10.436
297.18	11.518
297.55	8.575
297.91	9.235
298.28	11.111
298.65	11.749
299.02	11.989
299.38	11.288
299.75	9.973
300.12	9.195
300.48	10.750
300.85	9.864
301.22	8.917
301.59	9.596
301.95	10.076
302.32	9.884
302.69	10.753
303.05	9.818
303.42	9.136
303.79	9.740
304.15	8.858
304.52	9.038
304.89	9.640
305.25	10.093
305.62	10.985
305.99	9.917
306.35	9.843
306.72	9.081
307.09	10.544
307.45	10.586
307.82	8.705
308.19	9.934
308.55	10.464
308.92	9.023
309.29	9.187
309.65	8.378
310.02	9.725
310.38	9.892
310.75	9.820
311.12	9.007
311.48	10.031
311.85	11.006
312.22	11.446
312.58	10.395
312.95	11.088
313.31	9.612
313.68	9.356
314.05	10.651
314.41	10.352
314.78	9.265
315.14	10.129
315.51	9.681
315.87	11.485
316.24	9.633
316.61	9.747
316.97	10.078
317.34	9.295
317.70	11.759
318.07	10.683
318.43	11.252
318.80	12.090
319.16	11.582
319.53	10.694
319.89	12.000
320.26	11.800
320.62	12.401
320.99	11.515
321.35	12.424
321.72	12.936
322.08	11.352
322.45	13.532
322.81	12.500
323.18	13.776
323.54	13.915
323.91	13.491
324.27	13.576
324.64	12.675
325.00	12.714
325.37	13.649
325.73	14.811
326.10	12.974
326.46	13.799
326.83	14.495
327.19	14.859
327.56	15.070
327.92	14.698
328.29	15.617
328.65	15.654
329.01	14.892
329.38	14.339
329.74	14.127
330.11	14.515
330.47	15.886
330.84	16.176
331.20	14.845
331.56	13.945
331.93	14.815
332.29	15.883
332.66	15.398
333.02	15.082
333.38	14.634
333.75	14.706
334.11	15.569
334.48	15.883
334.84	14.522
335.20	15.364
335.57	15.050
335.93	14.286
336.29	14.652
336.66	15.960
337.02	15.113
337.38	14.815
337.75	14.528
338.11	14.593
338.47	14.088
338.84	15.582
339.20	14.587
339.56	15.511
339.93	13.636
340.29	15.217
340.65	14.260
341.02	16.143
341.38	14.591
341.74	14.649
342.11	14.934
342.47	14.714
342.83	14.212
343.20	14.978
343.56	14.827
343.92	14.649
344.28	14.286
344.65	14.789
345.01	14.057
345.37	14.065
345.73	15.821
346.10	14.919
346.46	14.068
346.82	14.086
347.19	14.286
347.55	15.107
347.91	15.453
348.27	15.612
348.63	14.883
349.00	14.401
349.36	13.547
349.72	14.515
350.08	14.425
350.45	13.914
350.81	13.891
351.17	14.668
351.53	14.578
351.89	14.356
352.26	14.838
352.62	14.595
352.98	13.776
353.34	14.626
353.70	14.403
354.07	15.806
354.43	13.651
354.79	13.677
355.15	13.966
355.51	15.827
355.87	15.347
356.24	14.251
356.60	14.435
356.96	15.366
357.32	14.800
357.68	14.961
358.04	15.281
358.40	15.044
358.77	14.710
359.13	14.286
359.49	14.588
359.85	14.127
360.21	14.912
360.57	14.397
360.93	15.231
361.29	14.588
361.66	14.396
362.02	15.373
362.38	14.981
362.74	14.658
363.10	14.434
363.46	15.040
363.82	15.042
364.18	15.492
364.54	15.676
364.90	15.297
365.26	14.926
365.62	14.755
365.98	14.317
366.35	14.756
366.71	14.678
367.07	14.348
367.43	14.659
367.79	15.989
368.15	16.236
368.51	14.462
368.87	15.560
369.23	15.216
369.59	15.496
369.95	15.809
370.31	16.026
370.67	15.290
371.03	16.479
371.39	16.691
371.75	15.147
372.11	16.003
372.47	16.202
372.83	17.147
373.19	15.390
373.55	16.851
373.91	17.305
374.27	16.426
374.63	16.655
374.99	16.667
375.35	15.143
375.71	16.244
376.07	17.353
376.42	16.369
376.78	17.561
377.14	18.318
377.50	17.748
377.86	17.819
378.22	18.710
378.58	17.105
378.94	17.285
379.30	17.176
379.66	18.528
380.02	17.998
380.38	17.790
380.74	19.148
381.09	18.093
381.45	18.808
381.81	19.165
382.17	18.917
382.53	19.434
382.89	20.185
383.25	19.137
383.61	20.136
383.97	20.388
384.32	20.337
384.68	19.517
385.04	19.053
385.40	20.186
385.76	20.270
386.12	20.531
386.48	20.768
386.83	21.360
387.19	22.511
387.55	21.274
387.91	20.919
388.27	21.704
388.62	22.311
388.98	20.516
389.34	22.028
389.70	22.808
390.06	22.497
390.42	22.049
390.77	22.901
391.13	21.634
391.49	22.906
391.85	22.088
392.20	21.388
392.56	21.970
392.92	21.366
393.28	21.479
393.64	23.022
393.99	22.480
394.35	22.953
394.71	23.463
395.07	22.118
395.42	23.486
395.78	23.155
396.14	23.029
396.50	23.559
396.85	22.950
397.21	23.058
397.57	23.559
397.92	23.377
398.28	23.150
398.64	24.014
399.00	23.615
399.35	22.222
399.71	23.090
400.07	24.069
400.42	23.926
400.78	24.125
401.14	22.500
401.49	23.701
401.85	23.049
402.21	22.754
402.57	23.072
402.92	23.834
403.28	23.923
403.63	23.639
403.99	23.185
404.35	24.303
404.70	23.141
405.06	23.471
405.42	23.394
405.77	23.771
406.13	22.912
406.49	24.069
406.84	24.099
407.20	23.227
407.55	23.548
407.91	24.867
408.27	24.697
408.62	25.045
408.98	22.672
409.34	23.985
409.69	24.516
410.05	23.792
410.40	23.547
410.76	24.552
411.11	25.090
411.47	23.578
411.83	23.885
412.18	23.810
412.54	23.973
412.89	23.675
413.25	23.849
413.60	23.842
413.96	23.558
414.31	23.572
414.67	23.891
415.03	24.901
415.38	24.291
415.74	23.215
416.09	24.233
416.45	24.297
416.80	24.323
417.16	25.536
417.51	25.149
417.87	24.149
418.22	25.678
418.58	24.597
418.93	24.386
419.29	25.016
419.64	24.685
420.00	23.780
420.35	24.232
420.71	25.643
421.06	24.105
421.42	24.444
421.77	24.552
422.12	24.761
422.48	23.529
422.83	24.403
423.19	24.530
423.54	24.202
423.90	25.043
424.25	24.400
424.61	24.405
424.96	24.781
425.31	24.751
425.67	24.270
426.02	24.171
426.38	24.725
426.73	24.576
427.09	25.532
427.44	25.014
427.79	24.612
428.15	25.417
428.50	24.751
428.85	24.553
429.21	23.909
429.56	24.106
429.92	23.905
430.27	24.628
430.62	23.400
430.98	24.494
431.33	23.918
431.68	24.712
432.04	24.281
432.39	23.815
432.74	24.776
433.10	24.618
433.45	24.781
433.80	25.000
434.16	25.267
434.51	24.158
434.86	25.257
435.22	24.903
435.57	25.350
435.92	25.044
436.28	25.386
436.63	25.331
436.98	24.270
437.34	25.462
437.69	25.204
438.04	24.845
438.39	25.433
438.75	24.579
439.10	25.140
439.45	25.738
439.81	24.411
440.16	25.579
440.51	26.538
440.86	25.362
441.22	24.360
441.57	24.735
441.92	25.435
442.27	25.242
442.63	24.539
442.98	25.577
443.33	25.435
443.68	25.658
444.03	24.939
444.39	23.759
444.74	24.946
445.09	24.852
445.44	24.877
445.79	25.136
446.15	25.410
446.50	24.448
446.85	25.077
447.20	24.579
447.55	25.349
447.91	24.545
448.26	25.487
448.61	25.551
448.96	25.526
449.31	25.759
449.66	25.943
450.02	24.345
450.37	25.454
450.72	25.945
451.07	24.619
451.42	24.924
451.77	25.719
452.12	25.924
452.47	25.435
452.83	25.000
453.18	25.367
453.53	26.407
453.88	24.631
454.23	24.866
454.58	26.045
454.93	26.637
455.28	25.312
455.63	25.789
455.98	26.488
456.34	25.817
456.69	26.049
457.04	26.873
457.39	25.190
457.74	25.073
458.09	25.647
458.44	25.428
458.79	24.295
459.14	25.734
459.49	26.211
459.84	26.537
460.19	25.398
460.54	25.058
460.89	24.904
461.24	26.169
461.59	25.741
461.94	24.168
462.29	26.528
462.64	26.420
462.99	25.244
463.34	26.533
463.69	25.578
464.04	26.261
464.39	25.855
464.74	24.658
465.09	25.271
465.44	24.986
465.79	25.671
466.14	25.944
466.49	25.083
466.84	25.803
467.19	25.709
467.54	25.625
467.89	24.790
468.24	25.131
468.59	25.702
468.94	24.801
469.29	26.350
469.64	26.908
469.99	27.267
470.34	26.486
470.68	25.862
471.03	26.327
471.38	26.824
471.73	26.716
472.08	27.171
472.43	26.193
472.78	26.399
473.13	26.701
473.48	25.468
473.83	25.610
474.17	24.891
474.52	26.427
474.87	26.445
475.22	25.711
475.57	25.793
475.92	25.332
476.27	25.479
476.61	25.207
476.96	25.509
477.31	25.850
477.66	25.547
478.01	24.935
478.36	25.383
478.70	24.818
479.05	25.772
479.40	25.640
479.75	25.267
480.10	25.249
480.45	24.179
480.79	24.797
481.14	25.098
481.49	24.158
481.84	24.417
482.19	25.034
482.53	24.587
482.88	25.268
483.23	25.607
483.58	24.886
483.92	24.977
484.27	24.096
484.62	24.784
484.97	24.478
485.31	24.658
485.66	23.722
486.01	22.347
486.36	21.383
486.70	21.047
487.05	21.989
487.40	22.242
487.75	22.837
488.09	22.960
488.44	23.949
488.79	24.629
489.13	24.828
489.48	24.388
489.83	24.989
490.17	24.594
490.52	24.978
490.87	25.102
491.22	25.239
491.56	24.419
491.91	25.686
492.26	25.172
492.60	25.438
492.95	24.369
493.30	24.673
493.64	24.825
493.99	25.162
494.34	25.301
494.68	25.549
495.03	24.953
495.37	24.709
495.72	25.439
496.07	25.476
496.41	24.912
496.76	24.362
497.11	24.403
497.45	24.779
497.80	25.624
498.14	25.314
498.49	24.829
498.84	25.551
499.18	24.000
499.53	24.596
499.87	25.070
500.22	25.436
500.56	25.874
500.91	25.240
501.26	25.605
501.60	25.486
501.95	24.931
502.29	25.023
502.64	25.233
502.98	25.012
503.33	25.000
503.67	24.687
504.02	25.023
504.36	24.801
504.71	25.647
505.06	24.530
505.40	25.620
505.75	25.362
506.09	25.413
506.44	25.456
506.78	25.280
507.13	26.249
507.47	25.051
507.82	26.393
508.16	25.532
508.51	25.774
508.85	25.223
509.19	26.071
509.54	25.510
509.88	26.018
510.23	25.913
510.57	26.161
510.92	26.049
511.26	25.283
511.61	26.556
511.95	25.835
512.30	25.822
512.64	27.082
512.98	26.313
513.33	26.874
513.67	25.560
514.02	25.758
514.36	26.652
514.70	25.955
515.05	25.600
515.39	25.855
515.74	26.577
516.08	26.328
516.42	27.691
516.77	27.648
517.11	26.415
517.46	27.088
517.80	26.829
518.14	25.246
518.49	27.246
518.83	26.818
519.17	26.097
519.52	25.976
519.86	26.697
520.20	26.474
520.55	27.828
520.89	27.616
521.23	28.468
521.58	27.611
521.92	27.128
522.26	27.273
522.61	27.290
522.95	27.686
523.29	27.085
523.64	28.354
523.98	27.110
524.32	26.900
524.66	26.999
525.01	27.451
525.35	28.067
525.69	27.648
526.04	26.916
526.38	28.066
526.72	26.748
527.06	27.997
527.41	25.681
527.75	28.039
528.09	28.259
528.43	27.470
528.78	28.211
529.12	27.333
529.46	27.740
529.80	27.847
530.15	28.598
530.49	27.385
530.83	28.165
531.17	28.329
531.51	28.599
531.86	28.194
532.20	28.553
532.54	28.059
532.88	27.985
533.22	27.420
533.57	27.654
533.91	26.911
534.25	27.582
534.59	27.883
534.93	27.365
535.27	27.761
535.62	27.839
535.96	28.625
536.30	27.972
536.64	28.461
536.98	28.534
537.32	28.111
537.66	28.400
538.01	28.111
538.35	28.184
538.69	27.632
539.03	27.550
539.37	28.051
539.71	27.025
540.05	28.889
540.39	27.973
540.73	27.426
541.07	27.709
541.42	27.919
541.76	28.645
542.10	28.590
542.44	27.682
542.78	29.117
543.12	27.127
543.46	28.197
543.80	28.627
544.14	27.407
544.48	27.683
544.82	27.197
545.16	27.196
545.50	27.828
545.84	28.024
546.18	27.609
546.52	28.562
546.86	28.247
547.20	27.984
547.54	27.522
547.88	28.253
548.22	27.273
548.56	26.604
548.90	27.081
549.24	27.273
549.58	28.513
549.92	28.709
550.26	28.054
550.60	29.115
550.94	28.662
551.28	28.164
551.62	29.044
551.96	28.421
552.30	29.556
552.64	27.654
552.98	28.203
553.32	28.321
553.66	28.494
554.00	28.003
554.34	27.674
554.68	28.755
555.02	28.068
555.36	28.462
555.69	27.064
556.03	28.533
556.37	27.763
556.71	27.694
557.05	28.011
557.39	28.272
557.73	28.934
558.07	27.991
558.41	28.654
558.75	28.141
559.08	28.859
559.42	28.874
559.76	29.853
560.10	27.695
560.44	28.302
560.78	27.345
561.12	28.232
561.45	28.814
561.79	27.884
562.13	27.431
562.47	27.459
562.81	28.940
563.15	27.960
563.48	27.851
563.82	29.093
564.16	27.469
564.50	27.148
564.84	26.549
565.17	28.764
565.51	28.498
565.85	27.919
566.19	26.988
566.52	27.296
566.86	27.004
567.20	27.948
567.54	26.998
567.88	26.562
568.21	26.825
568.55	26.795
568.89	26.654
569.23	25.579
569.56	25.789
569.90	24.755
570.24	24.471
570.57	24.379
570.91	23.885
571.25	23.965
571.59	23.829
571.92	24.194
572.26	23.859
572.60	23.994
572.93	23.928
573.27	24.283
573.61	23.981
573.95	24.057
574.28	23.317
574.62	22.935
574.96	22.796
575.29	22.842
575.63	23.095
575.97	23.666
576.30	23.526
576.64	22.896
576.98	23.384
577.31	23.244
577.65	22.975
577.98	22.939
578.32	22.498
578.66	22.914
578.99	22.871
579.33	23.215
579.67	22.744
580.00	22.656
580.34	23.208
580.67	22.997
581.01	23.746
581.35	23.379
581.68	22.968
582.02	22.617
582.35	22.568
582.69	22.721
583.02	22.620
583.36	23.104
583.70	23.526
584.03	23.668
584.37	24.295
584.70	23.615
585.04	23.532
585.37	23.299
585.71	23.661
586.04	23.266
586.38	23.798
586.72	24.275
587.05	24.205
587.39	23.377
587.72	23.705
588.06	23.693
588.39	23.896
588.73	24.025
589.06	24.805
589.40	25.051
589.73	24.780
590.07	24.875
590.40	24.370
590.73	25.566
591.07	25.234
591.40	25.264
591.74	26.147
592.07	25.742
592.41	25.589
592.74	24.157
593.08	24.250
593.41	23.790
593.75	23.454
594.08	24.170
594.41	25.097
594.75	24.362
595.08	24.875
595.42	25.184
595.75	24.573
596.09	25.084
596.42	25.697
596.75	25.960
597.09	26.710
597.42	24.789
597.75	25.011
598.09	25.609
598.42	25.430
598.76	24.889
599.09	24.401
599.42	24.491
599.76	24.927
600.09	24.189
600.42	24.069
600.76	23.929
601.09	24.699
601.42	24.924
601.76	24.782
602.09	25.020
602.42	25.478
602.76	25.635
603.09	25.216
603.42	24.912
603.76	25.114
604.09	24.661
604.42	25.438
604.76	25.685
605.09	25.076
605.42	26.037
605.75	25.538
606.09	25.010
606.42	25.010
606.75	25.052
607.09	24.571
607.42	25.032
607.75	24.852
608.08	25.054
608.42	25.684
608.75	25.338
609.08	25.393
609.41	25.702
609.75	25.917
610.08	25.778
610.41	25.419
610.74	25.307
611.07	25.494
611.41	26.006
611.74	26.546
612.07	27.070
612.40	26.915
612.73	25.947
613.07	27.155
613.40	26.119
613.73	25.747
614.06	26.989
614.39	26.009
614.72	26.474
615.06	26.103
615.39	26.380
615.72	26.483
616.05	25.678
616.38	25.681
616.71	26.841
617.05	28.269
617.38	27.420
617.71	27.027
618.04	27.644
618.37	26.907
618.70	27.007
619.03	28.289
619.36	27.834
619.69	27.676
620.03	28.571
620.36	28.275
620.69	29.315
621.02	30.015
621.35	29.679
621.68	28.972
622.01	30.650
622.34	28.971
622.67	28.213
623.00	27.953
623.33	26.876
623.66	28.020
623.99	28.130
624.32	28.673
624.65	28.107
624.99	28.116
625.32	28.313
625.65	29.076
625.98	28.517
626.31	30.171
626.64	29.878
626.97	29.676
627.30	30.091
627.63	30.271
627.96	30.193
628.29	29.484
628.62	30.558
628.95	31.604
629.28	30.292
629.61	31.164
629.94	29.810
630.26	29.933
630.59	30.696
630.92	29.119
631.25	30.207
631.58	31.131
