SpectraSuite Data File
++++++++++++++++++++++++++++++++++++
Date: Wed May 13 16:13:45 PDT 2015
User: schluterlab
Dark Spectrum Present: Yes
Reference Spectrum Present: Yes
Number of Sampled Component Spectra: 1
Spectrometers: USB2E3373
Integration Time (usec): 3000 (USB2E3373)
Spectra Averaged: 3 (USB2E3373)
Boxcar Smoothing: 0 (USB2E3373)
Correct for Electrical Dark: No (USB2E3373)
Strobe/Lamp Enabled: No (USB2E3373)
Correct for Detector Non-linearity: No (USB2E3373)
Correct for Stray Light: No (USB2E3373)
Number of Pixels in Processed Spectrum: 2048
>>>>>Begin Processed Spectral Data<<<<<
178.53	0.000
178.91	-975.000
179.29	-1250.000
179.67	-166.667
180.04	-1050.000
180.42	1750.000
180.80	740.000
181.18	-900.000
181.56	742.857
181.94	0.000
182.31	-428.571
182.69	1466.667
183.07	-425.000
183.45	-511.111
183.83	500.000
184.20	-270.000
184.58	1300.000
184.96	3600.000
185.34	-680.000
185.72	-412.500
186.09	-1550.000
186.47	2100.000
186.85	2400.000
187.23	4700.000
187.61	-1633.333
187.98	1000.000
188.36	372.727
188.74	409.091
189.12	-720.000
189.49	340.000
189.87	-4600.000
190.25	-875.000
190.63	350.000
191.00	323.077
191.38	566.667
191.76	-900.000
192.14	1075.000
192.51	525.000
192.89	850.000
193.27	487.500
193.65	-950.000
194.02	300.000
194.40	620.000
194.78	450.000
195.15	458.333
195.53	510.000
195.91	-1450.000
196.29	356.250
196.66	215.789
197.04	-260.000
197.42	0.000
197.79	520.000
198.17	-3300.000
198.55	442.857
198.92	537.500
199.30	680.000
199.68	0.000
200.05	300.000
200.43	785.714
200.81	3700.000
201.18	1333.333
201.56	-1100.000
201.94	377.778
202.31	433.333
202.69	291.667
203.07	500.000
203.44	0.000
203.82	1000.000
204.19	771.429
204.57	371.429
204.95	450.000
205.32	1500.000
205.70	400.000
206.08	328.571
206.45	1850.000
206.83	281.250
207.20	583.333
207.58	680.000
207.96	250.000
208.33	512.500
208.71	-700.000
209.08	557.143
209.46	533.333
209.84	454.545
210.21	-1200.000
210.59	1050.000
210.96	-487.500
211.34	1600.000
211.71	580.000
212.09	566.667
212.46	0.000
212.84	1533.333
213.22	1125.000
213.59	-4100.000
213.97	650.000
214.34	700.000
214.72	372.727
215.09	840.000
215.47	-1950.000
215.84	-2300.000
216.22	1366.667
216.59	321.429
216.97	850.000
217.34	390.909
217.72	-533.333
218.09	0.000
218.47	-4200.000
218.84	522.222
219.22	542.857
219.59	1333.333
219.97	-485.714
220.34	780.000
220.72	-1233.333
221.09	328.571
221.47	1075.000
221.84	-833.333
222.22	0.000
222.59	1000.000
222.97	-1900.000
223.34	820.000
223.72	284.615
224.09	840.000
224.46	1550.000
224.84	-4800.000
225.21	-800.000
225.59	-3900.000
225.96	430.000
226.34	240.000
226.71	2550.000
227.08	475.000
227.46	540.000
227.83	-900.000
228.21	-1650.000
228.58	477.778
228.95	-1900.000
229.33	-2500.000
229.70	1266.667
230.08	571.429
230.45	-820.000
230.82	391.667
231.20	583.333
231.57	428.571
231.95	433.333
232.32	172.727
232.69	336.364
233.07	685.714
233.44	292.308
233.81	-1500.000
234.19	242.105
234.56	333.333
234.93	366.667
235.31	436.364
235.68	323.077
236.05	300.000
236.43	178.788
236.80	268.421
237.17	4800.000
237.55	300.000
237.92	235.714
238.29	238.095
238.67	187.097
239.04	251.724
239.41	169.444
239.79	132.609
240.16	166.667
240.53	165.909
240.91	133.333
241.28	148.000
241.65	156.000
242.02	120.290
242.40	140.323
242.77	145.000
243.14	95.699
243.51	106.742
243.89	109.412
244.26	100.000
244.63	96.774
245.00	92.553
245.38	96.040
245.75	90.654
246.12	99.083
246.49	89.051
246.87	114.400
247.24	95.385
247.61	95.714
247.98	79.739
248.36	80.405
248.73	89.172
249.10	90.446
249.47	78.531
249.84	82.353
250.22	82.353
250.59	89.941
250.96	82.828
251.33	79.147
251.70	79.703
252.08	78.571
252.45	81.166
252.82	79.130
253.19	83.830
253.56	73.725
253.94	79.668
254.31	76.562
254.68	79.231
255.05	78.598
255.42	78.455
255.79	76.471
256.16	78.339
256.54	71.378
256.91	77.936
257.28	73.022
257.65	77.558
258.02	74.224
258.39	72.555
258.76	75.585
259.14	71.131
259.51	72.948
259.88	71.118
260.25	71.903
260.62	69.942
260.99	74.534
261.36	73.574
261.73	74.785
262.10	75.291
262.47	74.366
262.85	70.474
263.22	68.376
263.59	72.080
263.96	71.703
264.33	71.279
264.70	71.053
265.07	73.146
265.44	72.475
265.81	62.287
266.18	72.111
266.55	69.512
266.92	69.287
267.29	71.296
267.66	68.349
268.03	65.227
268.40	70.093
268.77	68.496
269.14	66.667
269.51	66.817
269.88	72.028
270.25	69.300
270.62	68.315
270.99	69.892
271.36	67.811
271.73	70.327
272.10	66.522
272.47	67.312
272.84	66.667
273.21	65.199
273.58	67.031
273.95	66.038
274.32	67.149
274.69	67.880
275.06	63.780
275.43	68.723
275.80	66.333
276.17	66.599
276.54	67.983
276.91	66.601
277.28	65.430
277.65	64.990
278.02	66.460
278.39	69.531
278.76	63.091
279.13	66.226
279.50	62.756
279.87	64.940
280.23	64.671
280.60	66.344
280.97	65.989
281.34	63.894
281.71	62.364
282.08	67.946
282.45	64.545
282.82	64.476
283.19	62.923
283.56	64.386
283.92	64.467
284.29	63.492
284.66	62.250
285.03	62.749
285.40	60.915
285.77	63.636
286.14	60.967
286.51	65.167
286.87	60.000
287.24	59.772
287.61	62.279
287.98	58.604
288.35	59.271
288.72	57.165
289.08	57.121
289.45	58.484
289.82	57.236
290.19	56.672
290.56	55.896
290.93	53.776
291.29	57.822
291.66	55.457
292.03	58.140
292.40	57.709
292.77	53.994
293.13	54.478
293.50	53.936
293.87	54.074
294.24	54.667
294.60	52.547
294.97	52.180
295.34	51.622
295.71	51.278
296.08	50.712
296.44	51.032
296.81	51.123
297.18	52.439
297.55	49.077
297.91	46.966
298.28	51.539
298.65	50.000
299.02	48.090
299.38	48.738
299.75	48.113
300.12	47.126
300.48	48.000
300.85	47.965
301.22	48.025
301.59	48.232
301.95	48.363
302.32	47.497
302.69	46.237
303.05	45.212
303.42	47.284
303.79	46.772
304.15	45.338
304.52	43.801
304.89	45.877
305.25	45.244
305.62	44.281
305.99	45.455
306.35	45.414
306.72	46.413
307.09	46.504
307.45	47.072
307.82	43.973
308.19	47.130
308.55	44.984
308.92	44.898
309.29	44.351
309.65	43.054
310.02	44.292
310.38	43.548
310.75	45.723
311.12	44.012
311.48	45.768
311.85	45.493
312.22	42.976
312.58	44.283
312.95	44.984
313.31	43.495
313.68	44.491
314.05	45.069
314.41	45.829
314.78	43.807
315.14	44.389
315.51	45.005
315.87	45.446
316.24	43.595
316.61	44.055
316.97	44.521
317.34	45.108
317.70	45.315
318.07	45.332
318.43	47.358
318.80	45.455
319.16	45.104
319.53	45.028
319.89	46.190
320.26	46.500
320.62	44.940
320.99	44.949
321.35	45.960
321.72	48.255
322.08	46.298
322.45	46.169
322.81	45.349
323.18	46.435
323.54	45.826
323.91	46.415
324.27	48.184
324.64	46.132
325.00	46.078
325.37	48.954
325.73	48.294
326.10	47.838
326.46	47.043
326.83	47.972
327.19	46.968
327.56	47.474
327.92	48.206
328.29	49.068
328.65	48.895
329.01	47.383
329.38	48.566
329.74	48.292
330.11	48.445
330.47	46.832
330.84	47.426
331.20	48.087
331.56	48.349
331.93	48.519
332.29	48.358
332.66	48.761
333.02	48.537
333.38	48.419
333.75	47.683
334.11	47.954
334.48	47.294
334.84	48.805
335.20	47.727
335.57	48.051
335.93	47.232
336.29	46.978
336.66	49.234
337.02	45.882
337.38	47.685
337.75	44.474
338.11	45.479
338.47	47.330
338.84	47.388
339.20	46.514
339.56	48.358
339.93	47.273
340.29	48.098
340.65	45.722
341.02	47.120
341.38	47.153
341.74	47.895
342.11	46.376
342.47	47.225
342.83	45.548
343.20	47.446
343.56	46.841
343.92	47.368
344.28	47.194
344.65	47.635
345.01	46.549
345.37	46.484
345.73	47.377
346.10	46.547
346.46	46.864
346.82	46.129
347.19	47.034
347.55	45.813
347.91	46.845
348.27	46.508
348.63	46.488
349.00	45.631
349.36	46.798
349.72	45.389
350.08	45.138
350.45	47.111
350.81	46.629
351.17	45.786
351.53	46.683
351.89	47.360
352.26	47.040
352.62	48.436
352.98	46.353
353.34	47.083
353.70	45.336
354.07	46.855
354.43	45.952
354.79	45.052
355.15	46.449
355.51	47.082
355.87	47.020
356.24	46.336
356.60	47.153
356.96	47.868
357.32	48.406
357.68	46.929
358.04	46.318
358.40	46.318
358.77	46.557
359.13	46.014
359.49	47.608
359.85	44.524
360.21	46.970
360.57	47.471
360.93	47.846
361.29	46.788
361.66	45.666
362.02	46.045
362.38	47.681
362.74	46.503
363.10	45.300
363.46	46.588
363.82	46.334
364.18	46.329
364.54	47.920
364.90	48.017
365.26	47.426
365.62	48.795
365.98	46.092
366.35	46.777
366.71	49.168
367.07	47.050
367.43	47.533
367.79	47.894
368.15	48.707
368.51	48.692
368.87	47.966
369.23	48.793
369.59	48.805
369.95	46.618
370.31	46.795
370.67	47.319
371.03	48.839
371.39	48.980
371.75	48.676
372.11	49.289
372.47	48.387
372.83	49.928
373.19	47.327
373.55	50.037
373.91	50.515
374.27	47.560
374.63	49.382
374.99	49.364
375.35	50.454
375.71	49.349
376.07	49.931
376.42	50.413
376.78	50.099
377.14	50.950
377.50	50.927
377.86	50.399
378.22	51.075
378.58	51.692
378.94	51.351
379.30	51.399
379.66	51.713
380.02	52.150
380.38	50.759
380.74	53.001
381.09	52.078
381.45	52.981
381.81	51.536
382.17	53.121
382.53	52.390
382.89	54.136
383.25	54.409
383.61	53.656
383.97	53.096
384.32	53.587
384.68	53.160
385.04	53.104
385.40	53.932
385.76	53.686
386.12	54.793
386.48	55.255
386.83	55.677
387.19	56.339
387.55	55.535
387.91	55.320
388.27	54.874
388.62	56.116
388.98	54.668
389.34	56.195
389.70	54.813
390.06	57.224
390.42	55.966
390.77	56.679
391.13	56.669
391.49	57.297
391.85	56.397
392.20	56.278
392.56	57.134
392.92	58.799
393.28	56.036
393.64	57.374
393.99	56.323
394.35	56.948
394.71	57.277
395.07	56.885
395.42	58.405
395.78	56.743
396.14	56.487
396.50	58.145
396.85	58.868
397.21	57.522
397.57	57.595
397.92	58.233
398.28	57.175
398.64	59.498
399.00	59.037
399.35	57.642
399.71	57.002
400.07	58.486
400.42	58.405
400.78	58.745
401.14	57.927
401.49	58.269
401.85	59.347
402.21	57.725
402.57	58.236
402.92	58.827
403.28	58.838
403.63	58.911
403.99	60.892
404.35	58.606
404.70	57.974
405.06	59.348
405.42	61.135
405.77	58.229
406.13	58.634
406.49	59.018
406.84	58.358
407.20	57.151
407.55	60.243
407.91	60.333
408.27	60.306
408.62	58.338
408.98	59.743
409.34	61.439
409.69	60.516
410.05	59.108
410.40	59.021
410.76	60.036
411.11	58.625
411.47	59.297
411.83	58.277
412.18	58.627
412.54	60.212
412.89	59.578
413.25	59.622
413.60	61.458
413.96	58.045
414.31	59.478
414.67	59.316
415.03	59.338
415.38	59.536
415.74	60.900
416.09	60.353
416.45	59.772
416.80	61.005
417.16	60.121
417.51	60.849
417.87	59.152
418.22	60.568
418.58	60.103
418.93	59.644
419.29	61.744
419.64	60.013
420.00	59.573
420.35	60.058
420.71	60.610
421.06	60.084
421.42	58.713
421.77	60.426
422.12	59.966
422.48	58.824
422.83	61.037
423.19	59.779
423.54	61.114
423.90	58.667
424.25	59.185
424.61	59.821
424.96	59.650
425.31	59.081
425.67	58.315
426.02	59.486
426.38	60.745
426.73	59.274
427.09	59.149
427.44	59.057
427.79	60.207
428.15	59.643
428.50	60.211
428.85	60.489
429.21	59.746
429.56	60.342
429.92	59.134
430.27	59.136
430.62	58.730
430.98	59.574
431.33	58.660
431.68	59.738
432.04	58.466
432.39	59.566
432.74	59.964
433.10	60.045
433.45	60.991
433.80	60.865
434.16	59.562
434.51	59.105
434.86	59.692
435.22	59.867
435.57	59.331
435.92	60.620
436.28	61.329
436.63	60.375
436.98	60.389
437.34	60.167
437.69	60.035
438.04	60.989
438.39	60.597
438.75	61.360
439.10	60.056
439.45	59.681
439.81	59.154
440.16	59.853
440.51	59.637
440.86	60.567
441.22	60.289
441.57	59.926
441.92	59.877
442.27	60.495
442.63	59.663
442.98	60.958
443.33	59.348
443.68	59.990
444.03	59.883
444.39	60.078
444.74	61.634
445.09	60.323
445.44	58.885
445.79	58.931
446.15	58.655
446.50	59.882
446.85	59.353
447.20	59.918
447.55	61.139
447.91	59.239
448.26	60.657
448.61	61.673
448.96	60.465
449.31	60.461
449.66	60.945
450.02	60.613
450.37	58.220
450.72	60.745
451.07	59.476
451.42	58.602
451.77	60.482
452.12	58.834
452.47	59.266
452.83	60.023
453.18	60.269
453.53	59.617
453.88	59.362
454.23	60.610
454.58	60.085
454.93	61.157
455.28	59.040
455.63	60.619
455.98	62.262
456.34	60.616
456.69	60.551
457.04	61.053
457.39	59.556
457.74	59.257
458.09	58.999
458.44	59.065
458.79	59.328
459.14	59.255
459.49	60.420
459.84	58.781
460.19	58.928
460.54	58.738
460.89	59.682
461.24	58.895
461.59	59.675
461.94	59.186
462.29	59.110
462.64	58.839
462.99	58.295
463.34	60.000
463.69	59.162
464.04	59.130
464.39	57.159
464.74	58.942
465.09	57.961
465.44	58.615
465.79	58.277
466.14	57.964
466.49	57.453
466.84	58.319
467.19	57.634
467.54	57.375
467.89	58.223
468.24	57.882
468.59	58.303
468.94	55.467
469.29	59.512
469.64	58.434
469.99	59.878
470.34	59.775
470.68	59.052
471.03	58.095
471.38	59.347
471.73	58.561
472.08	59.079
472.43	58.354
472.78	57.867
473.13	58.023
473.48	58.115
473.83	57.805
474.17	57.374
474.52	57.568
474.87	57.910
475.22	58.212
475.57	58.141
475.92	57.143
476.27	56.652
476.61	56.757
476.96	56.295
477.31	55.835
477.66	56.947
478.01	55.829
478.36	57.377
478.70	56.023
479.05	56.869
479.40	57.369
479.75	56.889
480.10	55.318
480.45	56.449
480.79	55.614
481.14	56.751
481.49	55.672
481.84	55.738
482.19	56.247
482.53	55.917
482.88	56.212
483.23	56.449
483.58	56.051
483.92	55.904
484.27	54.684
484.62	56.595
484.97	55.104
485.31	57.500
485.66	58.456
486.01	56.614
486.36	54.367
486.70	51.592
487.05	52.165
487.40	53.882
487.75	53.039
488.09	52.988
488.44	53.336
488.79	54.141
489.13	54.431
489.48	53.589
489.83	54.942
490.17	54.669
490.52	54.473
490.87	55.314
491.22	54.388
491.56	53.895
491.91	53.327
492.26	52.458
492.60	53.088
492.95	54.022
493.30	53.131
493.64	52.823
493.99	53.110
494.34	53.747
494.68	54.533
495.03	54.135
495.37	52.862
495.72	54.386
496.07	52.900
496.41	52.434
496.76	54.090
497.11	53.805
497.45	53.051
497.80	52.447
498.14	53.527
498.49	53.366
498.84	53.116
499.18	53.381
499.53	52.089
499.87	53.588
500.22	52.379
500.56	53.689
500.91	52.260
501.26	52.963
501.60	53.204
501.95	52.246
502.29	53.936
502.64	52.281
502.98	52.548
503.33	51.554
503.67	52.111
504.02	51.356
504.36	51.661
504.71	52.809
505.06	51.470
505.40	51.288
505.75	51.543
506.09	51.749
506.44	52.393
506.78	52.606
507.13	52.549
507.47	52.525
507.82	52.280
508.16	52.229
508.51	52.004
508.85	50.894
509.19	52.500
509.54	52.194
509.88	51.623
510.23	51.825
510.57	52.683
510.92	51.424
511.26	51.028
511.61	51.867
511.95	50.365
512.30	50.053
512.64	51.424
512.98	50.804
513.33	51.445
513.67	50.694
514.02	50.541
514.36	52.103
514.70	51.024
515.05	50.530
515.39	51.094
515.74	50.619
516.08	50.475
516.42	50.999
516.77	51.895
517.11	50.388
517.46	51.072
517.80	50.929
518.14	50.261
518.49	52.159
518.83	50.795
519.17	51.212
519.52	50.594
519.86	50.428
520.20	50.636
520.55	51.346
520.89	51.034
521.23	50.965
521.58	51.020
521.92	50.765
522.26	49.908
522.61	51.215
522.95	51.258
523.29	50.761
523.64	50.000
523.98	50.832
524.32	50.121
524.66	49.609
525.01	50.735
525.35	49.257
525.69	49.076
526.04	50.530
526.38	49.359
526.72	47.607
527.06	50.471
527.41	47.649
527.75	49.518
528.09	51.124
528.43	50.733
528.78	51.076
529.12	49.939
529.46	49.908
529.80	49.752
530.15	49.969
530.49	48.615
530.83	48.418
531.17	50.196
531.51	50.973
531.86	50.129
532.20	50.782
532.54	48.943
532.88	50.449
533.22	48.157
533.57	49.568
533.91	48.766
534.25	49.028
534.59	49.237
534.93	48.780
535.27	49.065
535.62	49.023
535.96	49.027
536.30	48.824
536.64	48.809
536.98	49.436
537.32	47.860
537.66	48.067
538.01	48.980
538.35	47.899
538.69	48.883
539.03	48.668
539.37	47.220
539.71	46.338
540.05	49.804
540.39	47.907
540.73	47.801
541.07	48.151
541.42	48.271
541.76	49.161
542.10	48.448
542.44	47.616
542.78	49.078
543.12	47.025
543.46	48.656
543.80	47.885
544.14	47.561
544.48	49.206
544.82	47.595
545.16	48.731
545.50	47.237
545.84	48.723
546.18	47.744
546.52	48.176
546.86	49.897
547.20	48.281
547.54	48.564
547.88	48.087
548.22	47.385
548.56	47.925
548.90	46.863
549.24	47.205
549.58	47.544
549.92	47.871
550.26	47.443
550.60	46.473
550.94	46.831
551.28	46.672
551.62	47.664
551.96	47.719
552.30	47.577
552.64	47.803
552.98	47.525
553.32	46.662
553.66	48.057
554.00	47.769
554.34	46.170
554.68	48.069
555.02	46.756
555.36	47.112
555.69	45.805
556.03	46.433
556.37	46.794
556.71	45.157
557.05	47.269
557.39	45.346
557.73	46.295
558.07	46.483
558.41	46.816
558.75	46.730
559.08	46.085
559.42	46.410
559.76	46.765
560.10	45.896
560.44	46.052
560.78	47.638
561.12	46.306
561.45	46.023
561.79	46.144
562.13	46.747
562.47	45.560
562.81	47.001
563.15	45.351
563.48	46.088
563.82	46.053
564.16	45.389
564.50	46.159
564.84	45.575
565.17	45.946
565.51	45.559
565.85	45.241
566.19	44.521
566.52	46.675
566.86	44.726
567.20	46.639
567.54	45.662
567.88	45.410
568.21	46.402
568.55	45.551
568.89	46.693
569.23	45.722
569.56	45.911
569.90	45.170
570.24	45.856
570.57	44.917
570.91	45.055
571.25	44.781
571.59	44.477
571.92	44.844
572.26	44.425
572.60	44.084
572.93	43.538
573.27	44.691
573.61	44.556
573.95	45.349
574.28	44.045
574.62	44.776
574.96	44.229
575.29	44.229
575.63	43.826
575.97	43.374
576.30	44.264
576.64	44.402
576.98	43.826
577.31	43.715
577.65	44.734
577.98	44.612
578.32	43.824
578.66	43.459
578.99	43.734
579.33	43.428
579.67	43.298
580.00	43.371
580.34	43.261
580.67	43.772
581.01	43.647
581.35	44.467
581.68	44.839
582.02	43.694
582.35	43.689
582.69	43.472
583.02	43.273
583.36	43.071
583.70	43.007
584.03	43.391
584.37	43.241
584.70	44.201
585.04	43.542
585.37	43.639
585.71	43.515
586.04	43.223
586.38	43.861
586.72	43.717
587.05	42.977
587.39	43.430
587.72	43.391
588.06	42.663
588.39	43.594
588.73	42.769
589.06	43.191
589.40	43.266
589.73	42.661
590.07	42.811
590.40	42.199
590.73	42.974
591.07	43.061
591.40	43.357
591.74	43.939
592.07	43.106
592.41	43.778
592.74	43.783
593.08	43.738
593.41	44.733
593.75	41.911
594.08	42.642
594.41	42.276
594.75	42.773
595.08	42.770
595.42	43.573
595.75	42.877
596.09	43.297
596.42	43.065
596.75	43.647
597.09	44.502
597.42	42.159
597.75	41.958
598.09	42.783
598.42	42.268
598.76	42.643
599.09	42.531
599.42	42.504
599.76	41.801
600.09	42.149
600.42	42.221
600.76	42.036
601.09	41.166
601.42	42.884
601.76	41.746
602.09	42.411
602.42	42.436
602.76	42.563
603.09	42.644
603.42	43.069
603.76	41.997
604.09	41.722
604.42	42.275
604.76	42.978
605.09	42.551
605.42	42.411
605.75	42.467
606.09	43.270
606.42	43.073
606.75	41.850
607.09	41.775
607.42	42.619
607.75	41.646
608.08	41.294
608.42	41.596
608.75	41.839
609.08	41.119
609.41	41.456
609.75	41.544
610.08	42.177
610.41	42.505
610.74	42.621
611.07	42.342
611.41	41.658
611.74	43.439
612.07	42.598
612.40	42.812
612.73	41.316
613.07	42.511
613.40	41.969
613.73	41.741
614.06	42.258
614.39	41.321
614.72	40.632
615.06	40.494
615.39	41.614
615.72	41.922
616.05	40.510
616.38	41.356
616.71	42.577
617.05	41.991
617.38	41.852
617.71	42.162
618.04	42.548
618.37	41.159
618.70	40.635
619.03	41.579
619.36	41.616
619.69	41.338
620.03	42.651
620.36	40.976
620.69	41.370
621.02	42.109
621.35	39.702
621.68	40.576
622.01	41.641
622.34	42.890
622.67	41.597
623.00	40.499
623.33	41.244
623.66	42.173
623.99	41.973
624.32	40.799
624.65	41.172
624.99	40.935
625.32	41.057
625.65	40.721
625.98	40.815
626.31	41.369
626.64	41.469
626.97	41.563
627.30	42.145
627.63	41.756
627.96	41.211
628.29	40.420
628.62	40.714
628.95	41.887
629.28	41.606
629.61	42.988
629.94	42.286
630.26	41.277
630.59	42.517
630.92	40.038
