SpectraSuite Data File
++++++++++++++++++++++++++++++++++++
Date: Wed May 13 16:30:38 PDT 2015
User: schluterlab
Dark Spectrum Present: Yes
Reference Spectrum Present: Yes
Number of Sampled Component Spectra: 1
Spectrometers: USB2E3373
Integration Time (usec): 3000 (USB2E3373)
Spectra Averaged: 3 (USB2E3373)
Boxcar Smoothing: 0 (USB2E3373)
Correct for Electrical Dark: No (USB2E3373)
Strobe/Lamp Enabled: No (USB2E3373)
Correct for Detector Non-linearity: No (USB2E3373)
Correct for Stray Light: No (USB2E3373)
Number of Pixels in Processed Spectrum: 2048
>>>>>Begin Processed Spectral Data<<<<<
178.53	0.000
178.91	-950.000
179.29	-1450.000
179.67	-194.444
180.04	-1175.000
180.42	2100.000
180.80	900.000
181.18	-900.000
181.56	600.000
181.94	0.000
182.31	-528.571
182.69	1600.000
183.07	-537.500
183.45	-544.444
183.83	490.909
184.20	-280.000
184.58	2050.000
184.96	5400.000
185.34	-780.000
185.72	-687.500
186.09	-2350.000
186.47	2650.000
186.85	2200.000
187.23	4500.000
187.61	-1666.667
187.98	1200.000
188.36	545.455
188.74	454.545
189.12	-780.000
189.49	530.000
189.87	-4500.000
190.25	-1125.000
190.63	414.286
191.00	369.231
191.38	833.333
191.76	-1075.000
192.14	1325.000
192.51	575.000
192.89	950.000
193.27	500.000
193.65	-975.000
194.02	410.000
194.40	900.000
194.78	420.000
195.15	391.667
195.53	510.000
195.91	-1550.000
196.29	318.750
196.66	294.737
197.04	-270.000
197.42	0.000
197.79	610.000
198.17	-4400.000
198.55	714.286
198.92	750.000
199.30	700.000
199.68	0.000
200.05	300.000
200.43	700.000
200.81	3700.000
201.18	1500.000
201.56	-1400.000
201.94	444.444
202.31	500.000
202.69	400.000
203.07	470.000
203.44	0.000
203.82	1250.000
204.19	628.571
204.57	371.429
204.95	525.000
205.32	1266.667
205.70	427.273
206.08	321.429
206.45	2400.000
206.83	331.250
207.20	933.333
207.58	680.000
207.96	300.000
208.33	837.500
208.71	-650.000
209.08	728.571
209.46	566.667
209.84	472.727
210.21	-1266.667
210.59	1075.000
210.96	-462.500
211.34	2250.000
211.71	580.000
212.09	766.667
212.46	0.000
212.84	1600.000
213.22	1300.000
213.59	-4200.000
213.97	733.333
214.34	628.571
214.72	490.909
215.09	900.000
215.47	-1600.000
215.84	-2300.000
216.22	1233.333
216.59	342.857
216.97	1350.000
217.34	363.636
217.72	-533.333
218.09	0.000
218.47	-4900.000
218.84	488.889
219.22	742.857
219.59	1566.667
219.97	-557.143
220.34	700.000
220.72	-1533.333
221.09	371.429
221.47	1325.000
221.84	-783.333
222.22	0.000
222.59	1050.000
222.97	-2000.000
223.34	1000.000
223.72	353.846
224.09	920.000
224.46	1700.000
224.84	-4400.000
225.21	-860.000
225.59	-3700.000
225.96	570.000
226.34	220.000
226.71	1950.000
227.08	487.500
227.46	470.000
227.83	-625.000
228.21	-1900.000
228.58	544.444
228.95	-1900.000
229.33	-1700.000
229.70	1733.333
230.08	585.714
230.45	-740.000
230.82	391.667
231.20	800.000
231.57	742.857
231.95	433.333
232.32	222.727
232.69	318.182
233.07	600.000
233.44	323.077
233.81	-1500.000
234.19	263.158
234.56	366.667
234.93	341.667
235.31	354.545
235.68	253.846
236.05	278.571
236.43	157.576
236.80	231.579
237.17	3400.000
237.55	204.762
237.92	167.857
238.29	166.667
238.67	122.581
239.04	165.517
239.41	122.222
239.79	82.609
240.16	100.000
240.53	104.545
240.91	60.784
241.28	86.000
241.65	92.000
242.02	59.420
242.40	48.387
242.77	56.667
243.14	61.290
243.51	59.551
243.89	51.765
244.26	40.000
244.63	47.312
245.00	35.106
245.38	43.564
245.75	37.383
246.12	34.862
246.49	45.255
246.87	42.400
247.24	36.923
247.61	29.286
247.98	35.294
248.36	22.973
248.73	29.936
249.10	32.484
249.47	24.294
249.84	29.947
250.22	24.599
250.59	21.302
250.96	22.727
251.33	27.962
251.70	26.733
252.08	24.762
252.45	17.489
252.82	13.478
253.19	23.404
253.56	20.392
253.94	20.747
254.31	17.578
254.68	16.538
255.05	19.188
255.42	18.699
255.79	17.279
256.16	19.134
256.54	13.428
256.91	15.302
257.28	13.669
257.65	18.482
258.02	17.081
258.39	15.457
258.76	17.057
259.14	16.964
259.51	15.502
259.88	13.975
260.25	13.897
260.62	14.740
260.99	13.975
261.36	13.514
261.73	13.467
262.10	11.919
262.47	13.803
262.85	13.928
263.22	9.402
263.59	10.541
263.96	13.462
264.33	11.227
264.70	11.579
265.07	13.299
265.44	10.606
265.81	10.219
266.18	12.060
266.55	10.732
266.92	9.337
267.29	10.417
267.66	11.697
268.03	12.955
268.40	10.981
268.77	9.785
269.14	8.559
269.51	12.190
269.88	10.023
270.25	10.835
270.62	10.337
270.99	14.194
271.36	9.657
271.73	8.411
272.10	8.261
272.47	13.118
272.84	12.121
273.21	10.482
273.58	6.987
273.95	9.224
274.32	9.298
274.69	9.636
275.06	7.283
275.43	10.213
275.80	8.617
276.17	11.405
276.54	12.058
276.91	9.684
277.28	7.813
277.65	9.671
278.02	9.110
278.39	8.984
278.76	9.455
279.13	9.434
279.50	9.870
279.87	8.367
280.23	8.982
280.60	7.544
280.97	8.318
281.34	8.319
281.71	10.364
282.08	9.597
282.45	7.273
282.82	7.993
283.19	5.704
283.56	7.719
283.92	8.968
284.29	8.642
284.66	7.260
285.03	8.137
285.40	8.099
285.77	7.407
286.14	7.772
286.51	9.000
286.87	9.060
287.24	8.958
287.61	6.902
287.98	9.578
288.35	7.290
288.72	9.190
289.08	7.981
289.45	7.414
289.82	7.480
290.19	5.808
290.56	7.198
290.93	6.193
291.29	6.902
291.66	7.227
292.03	10.029
292.40	9.398
292.77	6.953
293.13	8.358
293.50	7.872
293.87	7.259
294.24	6.667
294.60	6.841
294.97	6.541
295.34	8.181
295.71	7.386
296.08	6.553
296.44	6.740
296.81	7.530
297.18	8.943
297.55	5.277
297.91	7.124
298.28	7.363
298.65	7.833
299.02	7.115
299.38	6.640
299.75	3.369
300.12	6.130
300.48	6.625
300.85	5.919
301.22	5.605
301.59	4.924
301.95	6.171
302.32	5.263
302.69	7.049
303.05	5.576
303.42	5.679
303.79	6.908
304.15	4.895
304.52	5.330
304.89	5.226
305.25	6.265
305.62	7.248
305.99	5.903
306.35	6.711
306.72	6.614
307.09	6.881
307.45	6.869
307.82	5.357
308.19	7.174
308.55	7.012
308.92	5.693
309.29	5.702
309.65	5.938
310.02	5.920
310.38	6.344
310.75	6.441
311.12	6.960
311.48	8.046
311.85	5.870
312.22	6.868
312.58	5.821
312.95	7.286
313.31	6.019
313.68	5.925
314.05	8.383
314.41	7.437
314.78	6.647
315.14	7.448
315.51	7.415
315.87	7.228
316.24	6.951
316.61	6.628
316.97	7.730
317.34	6.654
317.70	7.457
318.07	8.181
318.43	7.926
318.80	8.060
319.16	8.098
319.53	7.880
319.89	8.476
320.26	8.800
320.62	7.738
320.99	7.677
321.35	7.778
321.72	8.214
322.08	7.799
322.45	9.055
322.81	9.205
323.18	10.212
323.54	9.462
323.91	9.340
324.27	9.465
324.64	8.947
325.00	7.665
325.37	8.644
325.73	10.772
326.10	9.356
326.46	8.244
326.83	9.664
327.19	9.137
327.56	9.321
327.92	9.449
328.29	9.672
328.65	10.221
329.01	10.199
329.38	8.696
329.74	9.326
330.11	9.991
330.47	10.009
330.84	11.029
331.20	10.291
331.56	10.092
331.93	9.352
332.29	10.293
332.66	9.912
333.02	9.415
333.38	10.479
333.75	9.804
334.11	9.431
334.48	9.494
334.84	10.662
335.20	8.545
335.57	9.157
335.93	10.089
336.29	8.700
336.66	9.197
337.02	8.597
337.38	10.463
337.75	9.002
338.11	10.116
338.47	9.300
338.84	9.899
339.20	8.899
339.56	9.945
339.93	8.818
340.29	8.514
340.65	9.804
341.02	10.297
341.38	7.829
341.74	7.982
342.11	9.432
342.47	9.075
342.83	8.990
343.20	9.957
343.56	8.762
343.92	8.772
344.28	9.099
344.65	9.458
345.01	8.754
345.37	7.204
345.73	9.645
346.10	8.866
346.46	8.051
346.82	9.555
347.19	7.519
347.55	8.867
347.91	8.900
348.27	9.532
348.63	9.448
349.00	8.900
349.36	8.210
349.72	9.062
350.08	8.995
350.45	9.113
350.81	8.936
351.17	8.914
351.53	8.436
351.89	7.921
352.26	9.155
352.62	8.982
352.98	8.509
353.34	9.614
353.70	7.447
354.07	8.548
354.43	7.698
354.79	8.286
355.15	8.460
355.51	8.953
355.87	9.306
356.24	9.121
356.60	8.260
356.96	8.528
357.32	8.095
357.68	8.110
358.04	8.709
358.40	9.105
358.77	8.685
359.13	7.656
359.49	8.314
359.85	6.984
360.21	7.815
360.57	9.883
360.93	8.923
361.29	7.407
361.66	7.585
362.02	8.806
362.38	8.669
362.74	8.929
363.10	7.994
363.46	8.144
363.82	7.559
364.18	8.370
364.54	9.212
364.90	9.065
365.26	8.088
365.62	8.473
365.98	7.816
366.35	7.736
366.71	8.171
367.07	8.012
367.43	8.636
367.79	8.208
368.15	8.980
368.51	7.994
368.87	8.708
369.23	8.413
369.59	8.617
369.95	7.426
370.31	8.547
370.67	8.333
371.03	9.963
371.39	8.455
371.75	7.941
372.11	8.393
372.47	9.018
372.83	8.934
373.19	7.587
373.55	8.056
373.91	9.941
374.27	8.454
374.63	7.491
374.99	9.605
375.35	7.258
375.71	8.430
376.07	8.779
376.42	8.391
376.78	8.217
377.14	8.955
377.50	8.742
377.86	8.378
378.22	8.597
378.58	8.208
378.94	8.611
379.30	8.397
379.66	8.312
380.02	8.845
380.38	7.590
380.74	8.764
381.09	8.863
381.45	9.096
381.81	9.152
382.17	8.854
382.53	8.302
382.89	9.444
383.25	8.755
383.61	8.798
383.97	9.631
384.32	8.671
384.68	8.488
385.04	9.342
385.40	8.421
385.76	9.214
386.12	8.355
386.48	8.874
386.83	9.557
387.19	8.720
387.55	8.844
387.91	8.222
388.27	8.706
388.62	9.465
388.98	8.231
389.34	9.512
389.70	8.952
390.06	9.442
390.42	9.274
390.77	8.715
391.13	8.360
391.49	8.820
391.85	7.829
392.20	7.697
392.56	8.712
392.92	8.240
393.28	7.692
393.64	9.293
393.99	8.980
394.35	9.057
394.71	8.908
395.07	8.474
395.42	8.591
395.78	9.033
396.14	8.504
396.50	9.085
396.85	8.646
397.21	8.076
397.57	9.423
397.92	8.654
398.28	8.352
398.64	9.080
399.00	8.282
399.35	7.896
399.71	7.928
400.07	9.107
400.42	8.344
400.78	9.288
401.14	8.049
401.49	7.881
401.85	8.106
402.21	8.024
402.57	8.267
402.92	8.449
403.28	8.620
403.63	8.416
403.99	8.790
404.35	9.030
404.70	8.873
405.06	8.678
405.42	7.923
405.77	8.057
406.13	8.352
406.49	8.279
406.84	7.561
407.20	7.565
407.55	8.041
407.91	8.067
408.27	7.530
408.62	8.549
408.98	7.843
409.34	8.364
409.69	8.129
410.05	8.055
410.40	8.379
410.76	8.423
411.11	8.866
411.47	7.540
411.83	8.369
412.18	7.730
412.54	8.406
412.89	8.735
413.25	8.855
413.60	9.080
413.96	7.590
414.31	7.594
414.67	8.872
415.03	7.483
415.38	9.214
415.74	8.424
416.09	8.426
416.45	7.564
416.80	8.063
417.16	8.445
417.51	8.361
417.87	7.579
418.22	8.076
418.58	8.844
418.93	7.924
419.29	8.530
419.64	8.501
420.00	8.720
420.35	8.638
420.71	8.607
421.06	7.936
421.42	8.304
421.77	8.464
422.12	7.187
422.48	7.339
422.83	8.736
423.19	7.956
423.54	7.197
423.90	8.000
424.25	8.264
424.61	8.452
424.96	7.580
425.31	7.697
425.67	8.146
426.02	8.171
426.38	8.547
426.73	7.958
427.09	7.781
427.44	7.361
427.79	8.281
428.15	8.095
428.50	7.607
428.85	8.760
429.21	7.896
429.56	7.776
429.92	7.750
430.27	7.150
430.62	7.885
430.98	7.473
431.33	7.887
431.68	8.010
432.04	7.774
432.39	7.653
432.74	7.421
433.10	8.546
433.45	7.755
433.80	7.705
434.16	7.318
434.51	8.421
434.86	8.096
435.22	7.838
435.57	7.903
435.92	7.490
436.28	8.541
436.63	8.002
436.98	7.670
437.34	8.110
437.69	8.226
438.04	7.982
438.39	8.418
438.75	8.019
439.10	7.430
439.45	8.796
439.81	7.311
440.16	8.018
440.51	8.260
440.86	7.991
441.22	7.842
441.57	8.174
441.92	7.421
442.27	8.019
442.63	7.267
442.98	8.901
443.33	7.500
443.68	7.589
444.03	8.053
444.39	7.449
444.74	7.197
445.09	8.302
445.44	7.983
445.79	7.867
446.15	7.994
446.50	7.431
446.85	7.708
447.20	8.159
447.55	7.761
447.91	7.943
448.26	8.403
448.61	7.575
448.96	7.863
449.31	7.593
449.66	8.160
450.02	6.852
450.37	8.163
450.72	7.671
451.07	7.617
451.42	7.599
451.77	8.808
452.12	8.083
452.47	8.147
452.83	8.159
453.18	8.313
453.53	8.225
453.88	8.151
454.23	8.368
454.58	8.661
454.93	9.282
455.28	7.606
455.63	8.495
455.98	9.345
456.34	7.915
456.69	8.453
457.04	8.173
457.39	7.364
457.74	8.241
458.09	8.051
458.44	7.583
458.79	7.321
459.14	7.901
459.49	8.114
459.84	7.978
460.19	8.014
460.54	7.697
460.89	7.789
461.24	7.954
461.59	9.006
461.94	8.446
462.29	8.665
462.64	8.105
462.99	7.677
463.34	9.200
463.69	8.193
464.04	8.580
464.39	8.812
464.74	7.962
465.09	8.263
465.44	7.645
465.79	8.613
466.14	8.155
466.49	7.898
466.84	7.823
467.19	8.449
467.54	8.875
467.89	8.463
468.24	8.377
468.59	8.425
468.94	7.819
469.29	8.098
469.64	9.170
469.99	8.322
470.34	8.454
470.68	8.190
471.03	8.299
471.38	8.339
471.73	8.594
472.08	8.816
472.43	7.286
472.78	8.361
473.13	8.665
473.48	8.489
473.83	8.049
474.17	7.592
474.52	8.561
474.87	8.698
475.22	8.532
475.57	8.060
475.92	6.851
476.27	7.948
476.61	7.777
476.96	7.092
477.31	8.425
477.66	7.987
478.01	8.050
478.36	8.302
478.70	7.944
479.05	7.881
479.40	7.932
479.75	7.524
480.10	7.256
480.45	7.520
480.79	6.976
481.14	8.023
481.49	8.021
481.84	7.590
482.19	7.179
482.53	7.936
482.88	7.957
483.23	7.944
483.58	7.825
483.92	7.638
484.27	7.015
484.62	7.457
484.97	6.898
485.31	7.260
485.66	6.465
486.01	5.803
486.36	5.559
486.70	5.582
487.05	5.796
487.40	6.027
487.75	6.298
488.09	6.733
488.44	6.738
488.79	7.125
489.13	7.563
489.48	6.892
489.83	6.862
490.17	7.847
490.52	7.573
490.87	7.508
491.22	7.049
491.56	7.289
491.91	6.887
492.26	7.625
492.60	7.419
492.95	6.829
493.30	7.897
493.64	6.533
493.99	7.707
494.34	7.817
494.68	7.784
495.03	7.660
495.37	8.143
495.72	7.212
496.07	7.935
496.41	7.301
496.76	7.388
497.11	7.429
497.45	7.266
497.80	7.246
498.14	7.198
498.49	7.024
498.84	7.478
499.18	7.190
499.53	7.692
499.87	7.316
500.22	7.819
500.56	8.058
500.91	7.067
501.26	6.970
501.60	8.021
501.95	7.241
502.29	8.107
502.64	7.169
502.98	7.200
503.33	7.130
503.67	7.471
504.02	8.185
504.36	8.049
504.71	7.523
505.06	7.566
505.40	7.584
505.75	7.088
506.09	7.677
506.44	7.400
506.78	7.842
507.13	7.420
507.47	8.030
507.82	8.460
508.16	7.751
508.51	8.168
508.85	7.547
509.19	8.316
509.54	7.449
509.88	7.676
510.23	7.661
510.57	8.204
510.92	7.923
511.26	7.554
511.61	7.780
511.95	7.307
512.30	7.423
512.64	7.684
512.98	8.574
513.33	8.030
513.67	7.577
514.02	7.035
514.36	8.356
514.70	7.360
515.05	7.697
515.39	7.852
515.74	7.489
516.08	8.105
516.42	8.158
516.77	8.919
517.11	7.714
517.46	8.296
517.80	8.304
518.14	7.991
518.49	8.343
518.83	8.409
519.17	7.679
519.52	8.319
519.86	7.986
520.20	8.613
520.55	8.737
520.89	8.394
521.23	8.987
521.58	8.163
521.92	8.083
522.26	8.176
522.61	8.474
522.95	8.656
523.29	8.034
523.64	8.476
523.98	8.749
524.32	8.866
524.66	8.298
525.01	7.904
525.35	8.550
525.69	8.190
526.04	8.287
526.38	8.237
526.72	8.773
527.06	9.165
527.41	7.488
527.75	8.746
528.09	8.157
528.43	9.050
528.78	8.666
529.12	8.061
529.46	8.818
529.80	9.035
530.15	9.097
530.49	8.554
530.83	8.608
531.17	9.073
531.51	9.403
531.86	8.323
532.20	8.605
532.54	9.225
532.88	9.307
533.22	7.933
533.57	8.210
533.91	8.730
534.25	8.809
534.59	7.871
534.93	8.031
535.27	8.570
535.62	8.425
535.96	8.726
536.30	8.074
536.64	9.079
536.98	8.361
537.32	8.492
537.66	8.800
538.01	8.822
538.35	9.050
538.69	9.253
539.03	8.187
539.37	8.051
539.71	7.129
540.05	7.974
540.39	8.571
540.73	7.827
541.07	8.501
541.42	8.611
541.76	9.677
542.10	8.409
542.44	8.940
542.78	7.905
543.12	7.550
543.46	9.115
543.80	9.044
544.14	8.151
544.48	8.508
544.82	8.275
545.16	8.718
545.50	7.776
545.84	8.333
546.18	8.687
546.52	9.153
546.86	7.904
547.20	9.103
547.54	8.283
547.88	9.247
548.22	8.780
548.56	8.553
548.90	7.682
549.24	8.215
549.58	8.799
549.92	8.516
550.26	9.162
550.60	9.129
550.94	9.014
551.28	7.681
551.62	9.058
551.96	8.140
552.30	8.805
552.64	8.587
552.98	8.271
553.32	9.710
553.66	8.862
554.00	8.854
554.34	8.558
554.68	8.655
555.02	8.392
555.36	8.768
555.69	8.254
556.03	9.017
556.37	8.117
556.71	8.390
557.05	9.174
557.39	9.167
557.73	8.963
558.07	8.484
558.41	8.394
558.75	9.699
559.08	9.247
559.42	8.617
559.76	8.162
560.10	7.709
560.44	8.805
560.78	8.849
561.12	8.047
561.45	8.866
561.79	8.767
562.13	7.579
562.47	9.153
562.81	8.856
563.15	7.893
563.48	8.952
563.82	8.676
564.16	7.652
564.50	7.487
564.84	8.344
565.17	7.465
565.51	8.179
565.85	8.756
566.19	7.514
566.52	8.740
566.86	8.077
567.20	7.960
567.54	7.934
567.88	7.550
568.21	7.725
568.55	8.089
568.89	7.344
569.23	6.996
569.56	7.126
569.90	6.906
570.24	6.674
570.57	6.188
570.91	6.173
571.25	6.269
571.59	6.362
571.92	6.048
572.26	6.181
572.60	6.216
572.93	6.147
573.27	6.625
573.61	6.198
573.95	5.943
574.28	6.080
574.62	5.588
574.96	5.950
575.29	5.529
575.63	5.894
575.97	6.118
576.30	5.975
576.64	5.560
576.98	6.028
577.31	5.776
577.65	5.668
577.98	5.388
578.32	5.620
578.66	5.786
578.99	5.638
579.33	5.858
579.67	5.984
580.00	5.898
580.34	5.743
580.67	5.743
581.01	6.004
581.35	5.604
581.68	5.486
582.02	5.405
582.35	5.226
582.69	5.439
583.02	5.566
583.36	5.718
583.70	6.019
584.03	5.904
584.37	6.087
584.70	5.460
585.04	5.993
585.37	5.918
585.71	5.945
586.04	5.726
586.38	6.034
586.72	6.297
587.05	5.488
587.39	5.910
587.72	6.158
588.06	5.630
588.39	6.200
588.73	6.072
589.06	6.139
589.40	6.498
589.73	6.195
590.07	6.548
590.40	6.211
590.73	6.479
591.07	6.838
591.40	6.748
591.74	7.013
592.07	6.806
592.41	6.738
592.74	6.367
593.08	6.462
593.41	6.106
593.75	5.778
594.08	6.034
594.41	6.716
594.75	6.543
595.08	6.156
595.42	6.445
595.75	6.090
596.09	6.496
596.42	6.876
596.75	6.923
597.09	7.186
597.42	6.661
597.75	6.684
598.09	6.913
598.42	6.443
598.76	5.797
599.09	6.157
599.42	6.332
599.76	6.698
600.09	6.084
600.42	5.990
600.76	6.143
601.09	6.266
601.42	5.898
601.76	6.376
602.09	6.719
602.42	6.807
602.76	6.852
603.09	6.412
603.42	6.287
603.76	6.136
604.09	6.475
604.42	6.930
604.76	7.128
605.09	6.553
605.42	6.499
605.75	6.747
606.09	6.303
606.42	6.171
606.75	6.678
607.09	6.949
607.42	6.718
607.75	6.329
608.08	6.383
608.42	7.127
608.75	6.898
609.08	6.984
609.41	6.616
609.75	6.908
610.08	7.022
610.41	6.006
610.74	6.764
611.07	6.522
611.41	6.919
611.74	7.441
612.07	7.091
612.40	7.555
612.73	7.474
613.07	7.651
613.40	7.530
613.73	6.397
614.06	7.204
614.39	7.499
614.72	8.263
615.06	7.826
615.39	7.113
615.72	7.669
616.05	7.018
616.38	7.560
616.71	7.779
617.05	7.656
617.38	7.517
617.71	7.027
618.04	7.692
618.37	7.629
618.70	7.965
619.03	8.158
619.36	7.604
619.69	8.310
620.03	8.654
620.36	8.489
620.69	8.767
621.02	8.186
621.35	9.162
621.68	8.645
622.01	7.895
622.34	8.094
622.67	7.909
623.00	7.410
623.33	8.292
623.66	8.506
623.99	7.585
624.32	7.989
624.65	9.393
624.99	7.649
625.32	7.893
625.65	8.640
625.98	8.378
626.31	9.565
626.64	8.816
626.97	8.396
627.30	7.814
627.63	9.844
627.96	8.999
628.29	8.661
628.62	8.783
628.95	10.755
629.28	7.755
629.61	9.441
629.94	9.048
630.26	7.817
630.59	8.770
630.92	9.770
631.25	8.588
631.58	10.010
631.91	8.519
632.24	8.544
632.57	9.864
632.90	9.101
633.23	9.955
633.56	9.831
633.89	10.646
634.22	10.897
634.55	11.361
634.88	9.341
635.20	12.067
635.53	11.687
635.86	10.520
636.19	11.059
636.52	10.727
636.85	9.393
637.18	9.332
637.51	12.057
637.83	8.755
638.16	9.591
638.49	10.831
638.82	10.114
639.15	11.250
639.48	11.471
639.81	11.394
640.13	10.547
640.46	11.007
640.79	10.568
641.12	9.078
641.45	11.453
641.77	10.898
642.10	13.450
642.43	10.210
642.76	12.693
643.09	10.583
643.41	11.836
643.74	11.420
644.07	10.366
644.40	13.190
644.73	13.543
645.05	13.946
645.38	12.164
645.71	12.560
646.04	13.953
646.36	14.524
646.69	13.211
647.02	13.605
647.35	13.230
647.67	11.504
648.00	14.146
648.33	12.706
648.66	10.758
648.98	11.244
649.31	10.314
649.64	12.706
649.96	11.624
650.29	12.164
650.62	13.269
650.94	14.911
651.27	13.682
651.60	12.812
651.92	14.377
652.25	10.586
652.58	12.461
652.90	12.638
653.23	10.940
653.56	11.654
