SpectraSuite Data File
++++++++++++++++++++++++++++++++++++
Date: Wed May 13 16:17:34 PDT 2015
User: schluterlab
Dark Spectrum Present: Yes
Reference Spectrum Present: Yes
Number of Sampled Component Spectra: 1
Spectrometers: USB2E3373
Integration Time (usec): 3000 (USB2E3373)
Spectra Averaged: 3 (USB2E3373)
Boxcar Smoothing: 0 (USB2E3373)
Correct for Electrical Dark: No (USB2E3373)
Strobe/Lamp Enabled: No (USB2E3373)
Correct for Detector Non-linearity: No (USB2E3373)
Correct for Stray Light: No (USB2E3373)
Number of Pixels in Processed Spectrum: 2048
>>>>>Begin Processed Spectral Data<<<<<
178.53	0.000
178.91	-1075.000
179.29	-1125.000
179.67	-172.222
180.04	-1050.000
180.42	2050.000
180.80	780.000
181.18	-1075.000
181.56	614.286
181.94	0.000
182.31	-528.571
182.69	1533.333
183.07	-525.000
183.45	-444.444
183.83	518.182
184.20	-320.000
184.58	1700.000
184.96	3900.000
185.34	-660.000
185.72	-475.000
186.09	-1550.000
186.47	3000.000
186.85	1650.000
187.23	3400.000
187.61	-1266.667
187.98	1000.000
188.36	418.182
188.74	500.000
189.12	-620.000
189.49	430.000
189.87	-3500.000
190.25	-875.000
190.63	321.429
191.00	407.692
191.38	733.333
191.76	-925.000
192.14	1275.000
192.51	550.000
192.89	833.333
193.27	425.000
193.65	-1000.000
194.02	320.000
194.40	760.000
194.78	440.000
195.15	408.333
195.53	500.000
195.91	-1500.000
196.29	250.000
196.66	315.789
197.04	-240.000
197.42	0.000
197.79	460.000
198.17	-3500.000
198.55	628.571
198.92	512.500
199.30	620.000
199.68	0.000
200.05	338.889
200.43	685.714
200.81	3700.000
201.18	1400.000
201.56	-866.667
201.94	444.444
202.31	422.222
202.69	358.333
203.07	460.000
203.44	0.000
203.82	1125.000
204.19	600.000
204.57	314.286
204.95	475.000
205.32	1500.000
205.70	381.818
206.08	271.429
206.45	2150.000
206.83	262.500
207.20	716.667
207.58	500.000
207.96	277.778
208.33	612.500
208.71	-666.667
209.08	700.000
209.46	455.556
209.84	363.636
210.21	-1333.333
210.59	925.000
210.96	-362.500
211.34	1950.000
211.71	590.000
212.09	650.000
212.46	0.000
212.84	1466.667
213.22	1150.000
213.59	-4300.000
213.97	650.000
214.34	614.286
214.72	427.273
215.09	920.000
215.47	-1700.000
215.84	-1850.000
216.22	1066.667
216.59	321.429
216.97	1000.000
217.34	409.091
217.72	-516.667
218.09	0.000
218.47	-4300.000
218.84	522.222
219.22	514.286
219.59	1400.000
219.97	-471.429
220.34	880.000
220.72	-1200.000
221.09	278.571
221.47	1175.000
221.84	-766.667
222.22	0.000
222.59	950.000
222.97	-2700.000
223.34	1000.000
223.72	376.923
224.09	640.000
224.46	1400.000
224.84	-4300.000
225.21	-720.000
225.59	-3700.000
225.96	580.000
226.34	215.000
226.71	2350.000
227.08	512.500
227.46	590.000
227.83	-950.000
228.21	-1950.000
228.58	511.111
228.95	-1750.000
229.33	-2100.000
229.70	1666.667
230.08	685.714
230.45	-800.000
230.82	325.000
231.20	533.333
231.57	557.143
231.95	366.667
232.32	240.909
232.69	290.909
233.07	457.143
233.44	253.846
233.81	-1000.000
234.19	236.842
234.56	341.667
234.93	316.667
235.31	327.273
235.68	338.462
236.05	207.143
236.43	136.364
236.80	231.579
237.17	3000.000
237.55	128.571
237.92	157.143
238.29	200.000
238.67	129.032
239.04	148.276
239.41	102.778
239.79	86.957
240.16	102.381
240.53	95.455
240.91	70.588
241.28	84.000
241.65	58.000
242.02	73.913
242.40	61.290
242.77	45.000
243.14	44.086
243.51	62.921
243.89	52.941
244.26	46.667
244.63	38.710
245.00	29.787
245.38	37.624
245.75	28.972
246.12	30.275
246.49	40.876
246.87	42.400
247.24	37.692
247.61	30.000
247.98	31.373
248.36	24.324
248.73	33.121
249.10	28.025
249.47	24.859
249.84	31.016
250.22	25.668
250.59	28.994
250.96	28.283
251.33	29.384
251.70	25.743
252.08	20.952
252.45	21.525
252.82	17.826
253.19	20.851
253.56	16.863
253.94	19.917
254.31	19.922
254.68	22.308
255.05	16.605
255.42	19.512
255.79	16.176
256.16	19.134
256.54	18.728
256.91	15.658
257.28	14.748
257.65	19.142
258.02	20.807
258.39	13.565
258.76	13.378
259.14	17.262
259.51	13.070
259.88	15.839
260.25	17.825
260.62	17.052
260.99	9.627
261.36	14.414
261.73	12.321
262.10	14.826
262.47	11.268
262.85	11.978
263.22	8.832
263.59	12.821
263.96	10.989
264.33	14.099
264.70	13.684
265.07	14.066
265.44	11.616
265.81	12.409
266.18	13.065
266.55	13.171
266.92	11.057
267.29	12.963
267.66	13.303
268.03	13.864
268.40	10.748
268.77	10.024
269.14	11.261
269.51	14.447
269.88	10.723
270.25	9.255
270.62	11.910
270.99	13.548
271.36	11.373
271.73	7.009
272.10	9.783
272.47	12.258
272.84	10.823
273.21	13.836
273.58	9.389
273.95	11.321
274.32	11.364
274.69	11.563
275.06	12.008
275.43	10.213
275.80	11.022
276.17	10.591
276.54	10.811
276.91	11.660
277.28	10.547
277.65	11.025
278.02	9.317
278.39	9.766
278.76	11.636
279.13	12.264
279.50	12.477
279.87	10.757
280.23	9.581
280.60	11.605
280.97	9.982
281.34	10.442
281.71	11.455
282.08	9.597
282.45	9.455
282.82	11.723
283.19	6.774
283.56	9.649
283.92	11.844
284.29	8.289
284.66	10.345
285.03	8.499
285.40	8.451
285.77	8.418
286.14	8.981
286.51	10.167
286.87	9.573
287.24	9.772
287.61	8.507
287.98	10.877
288.35	8.558
288.72	7.788
289.08	9.233
289.45	8.567
289.82	8.618
290.19	8.477
290.56	7.351
290.93	7.704
291.29	7.669
291.66	8.555
292.03	10.756
292.40	10.573
292.77	8.432
293.13	9.403
293.50	9.767
293.87	7.259
294.24	9.037
294.60	6.259
294.97	8.576
295.34	9.027
295.71	8.665
296.08	8.974
296.44	9.078
296.81	7.266
297.18	9.079
297.55	6.332
297.91	6.860
298.28	8.835
298.65	8.747
299.02	8.696
299.38	7.835
299.75	5.930
300.12	6.386
300.48	7.500
300.85	7.645
301.22	7.898
301.59	7.828
301.95	8.060
302.32	9.371
302.69	7.288
303.05	7.394
303.42	7.407
303.79	7.588
304.15	6.993
304.52	7.068
304.89	6.272
305.25	7.309
305.62	8.720
305.99	8.737
306.35	8.054
306.72	7.175
307.09	8.546
307.45	8.784
307.82	7.366
308.19	9.051
308.55	8.414
308.92	7.519
309.29	7.603
309.65	7.847
310.02	8.351
310.38	7.419
310.75	7.814
311.12	9.007
311.48	9.613
311.85	7.966
312.22	8.637
312.58	8.316
312.95	8.870
313.31	7.767
313.68	7.380
314.05	9.566
314.41	7.839
314.78	9.668
315.14	8.242
315.51	9.166
315.87	8.317
316.24	8.640
316.61	8.480
316.97	8.513
317.34	8.121
317.70	8.509
318.07	8.277
318.43	7.828
318.80	8.622
319.16	10.734
319.53	7.786
319.89	10.095
320.26	9.500
320.62	9.127
320.99	10.606
321.35	9.899
321.72	9.856
322.08	11.254
322.45	10.547
322.81	10.950
323.18	10.116
323.54	10.853
323.91	10.660
324.27	10.229
324.64	10.252
325.00	9.197
325.37	9.827
325.73	11.759
326.10	10.768
326.46	9.677
326.83	11.907
327.19	10.077
327.56	11.237
327.92	10.499
328.29	13.221
328.65	12.431
329.01	11.552
329.38	11.841
329.74	11.634
330.11	11.876
330.47	11.478
330.84	13.603
331.20	11.749
331.56	11.927
331.93	11.296
332.29	12.156
332.66	13.186
333.02	12.157
333.38	13.008
333.75	12.478
334.11	11.477
334.48	12.511
334.84	11.949
335.20	13.000
335.57	13.509
335.93	11.161
336.29	12.637
336.66	11.903
337.02	12.579
337.38	13.611
337.75	11.676
338.11	11.996
338.47	12.247
338.84	11.274
339.20	11.835
339.56	13.960
339.93	11.909
340.29	11.504
340.65	11.676
341.02	11.257
341.38	12.811
341.74	12.018
342.11	11.965
342.47	12.511
342.83	13.014
343.20	11.775
343.56	11.626
343.92	11.053
344.28	12.500
344.65	11.866
345.01	10.522
345.37	12.178
345.73	12.183
346.10	11.765
346.46	11.780
346.82	11.779
347.19	10.359
347.55	11.084
347.91	12.136
348.27	12.490
348.63	11.455
349.00	11.246
349.36	11.987
349.72	11.628
350.08	11.588
350.45	11.961
350.81	12.429
351.17	11.831
351.53	11.466
351.89	11.469
352.26	11.839
352.62	11.307
352.98	11.426
353.34	11.339
353.70	10.802
354.07	11.855
354.43	10.794
354.79	11.102
355.15	10.375
355.51	11.751
355.87	11.020
356.24	10.993
356.60	10.505
356.96	11.504
357.32	11.365
357.68	11.496
358.04	11.164
358.40	12.035
358.77	10.720
359.13	10.339
359.49	11.137
359.85	10.159
360.21	9.809
360.57	10.661
360.93	10.769
361.29	10.960
361.66	10.372
362.02	10.970
362.38	11.255
362.74	10.342
363.10	10.215
363.46	10.271
363.82	10.733
364.18	10.646
364.54	10.327
364.90	10.836
365.26	10.515
365.62	10.519
365.98	10.080
366.35	9.670
366.71	10.918
367.07	10.051
367.43	9.869
367.79	10.350
368.15	11.279
368.51	10.392
368.87	10.350
369.23	9.876
369.59	10.138
369.95	10.221
370.31	10.470
370.67	10.725
371.03	10.861
371.39	10.277
371.75	10.221
372.11	10.526
372.47	11.437
372.83	10.375
373.19	10.260
373.55	10.126
373.91	10.972
374.27	10.584
374.63	10.182
374.99	10.099
375.35	9.630
375.71	10.829
376.07	10.768
376.42	10.248
376.78	12.061
377.14	10.719
377.50	9.934
377.86	9.574
378.22	10.556
378.58	9.837
378.94	9.428
379.30	9.224
379.66	10.216
380.02	10.504
380.38	9.350
380.74	10.204
381.09	10.147
381.45	10.449
381.81	10.627
382.17	9.936
382.53	9.308
382.89	10.370
383.25	9.881
383.61	10.409
383.97	10.507
384.32	9.170
384.68	9.480
385.04	10.756
385.40	9.598
385.76	10.074
386.12	10.168
386.48	10.321
386.83	9.750
387.19	10.451
387.55	9.338
387.91	10.580
388.27	8.890
388.62	10.572
388.98	9.582
389.34	10.075
389.70	10.178
390.06	10.203
390.42	10.182
390.77	10.433
391.13	9.572
391.49	10.216
391.85	9.357
392.20	9.148
392.56	9.217
392.92	10.065
393.28	8.402
393.64	9.892
393.99	9.774
394.35	9.801
394.71	9.348
395.07	8.847
395.42	9.456
395.78	9.733
396.14	9.683
396.50	9.962
396.85	10.108
397.21	9.309
397.57	9.299
397.92	8.834
398.28	8.800
398.64	9.677
399.00	8.954
399.35	8.911
399.71	8.333
400.07	9.462
400.42	9.387
400.78	9.771
401.14	8.780
401.49	8.836
401.85	9.195
402.21	9.162
402.57	8.390
402.92	8.953
403.28	9.619
403.63	7.921
403.99	8.599
404.35	8.848
404.70	8.453
405.06	8.853
405.42	8.609
405.77	8.457
406.13	7.957
406.49	9.225
406.84	8.506
407.20	8.570
407.55	8.743
407.91	8.600
408.27	8.232
408.62	8.248
408.98	8.027
409.34	8.426
409.69	8.387
410.05	7.807
410.40	7.706
410.76	7.706
411.11	8.444
411.47	8.626
411.83	8.125
412.18	7.978
412.54	7.970
412.89	8.675
413.25	8.323
413.60	8.400
413.96	8.743
414.31	7.837
414.67	8.619
415.03	8.146
415.38	8.827
415.74	8.296
416.09	8.883
416.45	7.831
416.80	7.997
417.16	8.445
417.51	8.295
417.87	8.157
418.22	8.391
418.58	8.586
418.93	8.415
419.29	8.339
419.64	8.627
420.00	8.963
420.35	8.058
420.71	8.308
421.06	7.995
421.42	8.304
421.77	8.800
422.12	7.243
422.48	7.285
422.83	8.212
423.19	8.785
423.54	7.893
423.90	8.580
424.25	8.654
424.61	8.274
424.96	9.329
425.31	7.752
425.67	7.584
426.02	7.829
426.38	9.524
426.73	8.367
427.09	8.571
427.44	7.706
427.79	8.108
428.15	8.393
428.50	8.133
428.85	8.999
429.21	8.448
429.56	8.139
429.92	7.901
430.27	8.342
430.62	7.783
430.98	8.303
431.33	8.351
431.68	8.272
432.04	8.307
432.39	7.938
432.74	8.498
433.10	8.376
433.45	8.222
433.80	8.315
434.16	8.494
434.51	8.211
434.86	8.666
435.22	8.004
435.57	9.240
435.92	8.250
436.28	8.897
436.63	9.106
436.98	8.701
437.34	8.945
437.69	8.810
438.04	8.544
438.39	8.896
438.75	9.297
439.10	9.497
439.45	8.442
439.81	8.520
440.16	9.204
440.51	9.080
440.86	9.670
441.22	8.065
441.57	8.970
441.92	8.905
442.27	9.150
442.63	8.425
442.98	9.915
443.33	9.511
443.68	9.293
444.03	8.882
444.39	8.423
444.74	9.199
445.09	9.488
445.44	9.513
445.79	9.104
446.15	9.529
446.50	9.370
446.85	8.787
447.20	9.281
447.55	9.715
447.91	9.322
448.26	9.572
448.61	8.988
448.96	9.911
449.31	9.674
449.66	10.017
450.02	9.136
450.37	8.503
450.72	9.532
451.07	8.531
451.42	10.091
451.77	10.041
452.12	9.873
452.47	9.950
452.83	9.557
453.18	9.719
453.53	10.142
453.88	9.214
454.23	9.444
454.58	11.084
454.93	10.935
455.28	8.728
455.63	9.466
455.98	10.417
456.34	9.987
456.69	11.083
457.04	10.341
457.39	9.760
457.74	10.157
458.09	10.121
458.44	9.977
458.79	9.002
459.14	9.819
459.49	10.158
459.84	10.083
460.19	10.077
460.54	10.185
460.89	9.654
461.24	10.018
461.59	11.273
461.94	10.789
462.29	11.039
462.64	10.211
462.99	10.345
463.34	11.600
463.69	10.194
464.04	10.667
464.39	10.551
464.74	10.933
465.09	9.891
465.44	10.139
465.79	9.899
466.14	10.454
466.49	10.011
466.84	9.924
467.19	10.260
467.54	11.312
467.89	10.804
468.24	10.413
468.59	10.440
468.94	9.957
469.29	10.283
469.64	11.111
469.99	10.622
470.34	10.634
470.68	10.991
471.03	10.544
471.38	10.285
471.73	10.993
472.08	10.395
472.43	9.987
472.78	10.402
473.13	10.911
473.48	11.298
473.83	10.427
474.17	10.268
474.52	11.352
474.87	10.741
475.22	11.085
475.57	10.210
475.92	9.984
476.27	10.823
476.61	10.535
476.96	10.885
477.31	10.518
477.66	10.230
478.01	9.880
478.36	10.365
478.70	9.865
479.05	9.851
479.40	11.105
479.75	10.625
480.10	10.636
480.45	10.424
480.79	9.699
481.14	9.980
481.49	10.394
481.84	10.334
482.19	10.450
482.53	9.679
482.88	9.586
483.23	10.140
483.58	10.965
483.92	10.309
484.27	9.630
484.62	9.440
484.97	10.209
485.31	10.205
485.66	9.292
486.01	8.935
486.36	8.556
486.70	8.254
487.05	9.066
487.40	9.397
487.75	9.502
488.09	9.857
488.44	9.473
488.79	9.693
489.13	10.390
489.48	10.767
489.83	10.099
490.17	9.908
490.52	10.319
490.87	10.176
491.22	9.868
491.56	10.342
491.91	10.796
492.26	10.519
492.60	10.184
492.95	10.150
493.30	10.421
493.64	10.219
493.99	10.353
494.34	10.453
494.68	10.668
495.03	10.056
495.37	9.958
495.72	10.916
496.07	10.070
496.41	10.442
496.76	10.378
497.11	10.086
497.45	10.340
497.80	10.317
498.14	10.048
498.49	10.341
498.84	10.499
499.18	10.333
499.53	10.494
499.87	10.252
500.22	11.163
500.56	10.825
500.91	10.240
501.26	10.289
501.60	10.346
501.95	9.945
502.29	10.497
502.64	10.801
502.98	10.332
503.33	10.146
503.67	10.951
504.02	10.617
504.36	10.763
504.71	10.503
505.06	10.651
505.40	10.549
505.75	10.463
506.09	10.982
506.44	10.952
506.78	10.472
507.13	11.055
507.47	11.364
507.82	10.588
508.16	11.094
508.51	10.249
508.85	10.675
509.19	11.122
509.54	11.122
509.88	11.180
510.23	10.848
510.57	11.610
510.92	11.134
511.26	11.100
511.61	11.255
511.95	10.282
512.30	11.135
512.64	11.177
512.98	10.236
513.33	11.670
513.67	10.779
514.02	9.470
514.36	11.196
514.70	10.736
515.05	11.099
515.39	10.881
515.74	10.304
516.08	12.074
516.42	11.654
516.77	11.706
517.11	10.377
517.46	10.948
517.80	10.743
518.14	10.828
518.49	10.968
518.83	11.136
519.17	11.028
519.52	10.922
519.86	11.751
520.20	11.156
520.55	11.789
520.89	11.010
521.23	11.821
521.58	10.564
521.92	11.758
522.26	10.250
522.61	11.713
522.95	11.418
523.29	10.590
523.64	10.915
523.98	12.015
524.32	11.158
524.66	11.365
525.01	11.213
525.35	11.152
525.69	10.406
526.04	11.589
526.38	10.921
526.72	11.963
527.06	10.672
527.41	10.272
527.75	10.161
528.09	11.432
528.43	11.536
528.78	11.063
529.12	10.848
529.46	11.145
529.80	12.067
530.15	11.277
530.49	10.892
530.83	11.772
531.17	11.031
531.51	12.516
531.86	11.419
532.20	11.930
532.54	11.403
532.88	11.232
533.22	11.368
533.57	12.099
533.91	10.897
534.25	11.422
534.59	11.165
534.93	11.660
535.27	10.923
535.62	10.867
535.96	11.488
536.30	10.871
536.64	10.947
536.98	11.082
537.32	10.599
537.66	11.000
538.01	11.389
538.35	11.571
538.69	11.806
539.03	11.371
539.37	10.607
539.71	10.110
540.05	11.373
540.39	11.229
540.73	11.061
541.07	12.265
541.42	12.003
541.76	11.613
542.10	12.096
542.44	10.728
542.78	11.660
543.12	10.237
543.46	11.344
543.80	10.800
544.14	11.040
544.48	11.365
544.82	10.006
545.16	10.865
545.50	11.311
545.84	11.626
546.18	10.572
546.52	11.493
546.86	11.340
547.20	11.666
547.54	12.024
547.88	12.054
548.22	11.021
548.56	11.321
548.90	10.691
549.24	10.101
549.58	11.869
549.92	11.607
550.26	11.719
550.60	10.719
550.94	10.493
551.28	9.802
551.62	11.071
551.96	10.947
552.30	11.331
552.64	11.359
552.98	10.441
553.32	10.587
553.66	11.247
554.00	11.050
554.34	11.111
554.68	12.017
555.02	11.001
555.36	10.299
555.69	10.690
556.03	10.229
556.37	11.323
556.71	10.846
557.05	10.784
557.39	11.407
557.73	10.797
558.07	11.458
558.41	9.986
558.75	11.315
559.08	11.409
559.42	10.884
559.76	11.765
560.10	10.635
560.44	12.020
560.78	10.512
561.12	10.290
561.45	11.213
561.79	10.679
562.13	10.932
562.47	10.929
562.81	10.530
563.15	10.100
563.48	10.942
563.82	11.155
564.16	10.137
564.50	10.807
564.84	11.125
565.17	10.167
565.51	10.288
565.85	10.850
566.19	10.895
566.52	10.640
566.86	10.307
567.20	11.026
567.54	10.046
567.88	9.777
568.21	10.582
568.55	9.909
568.89	9.776
569.23	9.848
569.56	9.514
569.90	9.283
570.24	9.114
570.57	8.705
570.91	8.985
571.25	8.802
571.59	8.778
571.92	8.641
572.26	9.185
572.60	9.069
572.93	8.666
573.27	9.287
573.61	8.934
573.95	8.915
574.28	8.291
574.62	8.892
574.96	8.698
575.29	8.293
575.63	8.460
575.97	8.826
576.30	8.603
576.64	8.415
576.98	8.386
577.31	8.618
577.65	8.599
577.98	8.444
578.32	8.161
578.66	8.344
578.99	8.468
579.33	8.327
579.67	8.708
580.00	8.559
580.34	8.519
580.67	8.461
581.01	8.702
581.35	8.325
581.68	8.071
582.02	7.924
582.35	8.065
582.69	8.376
583.02	8.433
583.36	8.370
583.70	8.516
584.03	9.065
584.37	8.854
584.70	8.882
585.04	8.684
585.37	8.388
585.71	8.647
586.04	8.601
586.38	8.621
586.72	8.754
587.05	8.720
587.39	8.417
587.72	8.503
588.06	8.458
588.39	8.807
588.73	8.947
589.06	8.881
589.40	8.788
589.73	9.328
590.07	8.897
590.40	8.550
590.73	9.329
591.07	9.524
591.40	9.321
591.74	10.087
592.07	9.380
592.41	9.756
592.74	9.176
593.08	9.094
593.41	8.890
593.75	8.557
594.08	8.884
594.41	9.014
594.75	9.242
595.08	9.091
595.42	9.562
595.75	8.654
596.09	9.050
596.42	9.666
596.75	9.118
597.09	9.784
597.42	9.317
597.75	9.746
598.09	9.522
598.42	9.450
598.76	8.756
599.09	8.704
599.42	9.389
599.76	8.748
600.09	8.780
600.42	8.839
600.76	8.750
601.09	9.180
601.42	8.600
601.76	9.488
602.09	8.735
602.42	9.554
602.76	8.908
603.09	8.773
603.42	9.332
603.76	8.918
604.09	8.104
604.42	9.499
604.76	9.026
605.09	9.174
605.42	9.021
605.75	8.816
606.09	9.028
606.42	8.664
606.75	9.000
607.09	9.041
607.42	8.858
607.75	8.523
608.08	8.554
608.42	9.144
608.75	8.702
609.08	9.297
609.41	9.234
609.75	9.576
610.08	9.472
610.41	9.218
610.74	8.988
611.07	8.794
611.41	9.078
611.74	10.055
612.07	9.524
612.40	10.021
612.73	9.368
613.07	9.429
613.40	9.637
613.73	8.547
614.06	8.817
614.39	10.016
614.72	9.632
615.06	10.032
615.39	9.342
615.72	9.100
616.05	8.931
616.38	9.005
616.71	9.620
617.05	11.013
617.38	9.441
617.71	9.309
618.04	10.757
618.37	9.758
618.70	10.268
619.03	10.789
619.36	10.115
619.69	9.930
620.03	10.096
620.36	10.695
620.69	10.274
621.02	10.472
621.35	10.258
621.68	9.891
622.01	9.985
622.34	11.195
622.67	10.798
623.00	9.391
623.33	9.936
623.66	10.365
623.99	9.867
624.32	10.271
624.65	9.110
624.99	9.207
625.32	9.703
625.65	9.692
625.98	10.453
626.31	10.731
626.64	10.857
626.97	10.723
627.30	11.222
627.63	11.403
627.96	10.849
628.29	11.286
628.62	11.070
628.95	11.698
629.28	11.131
629.61	11.274
629.94	12.286
630.26	10.772
630.59	10.010
630.92	10.536
631.25	10.464
631.58	11.612
631.91	10.446
632.24	10.970
632.57	12.592
632.90	12.171
633.23	10.850
633.56	11.864
633.89	11.325
634.22	12.372
634.55	12.663
634.88	11.856
635.20	11.708
635.53	12.048
635.86	11.757
636.19	12.941
636.52	12.341
636.85	11.226
637.18	11.175
637.51	12.411
637.83	10.481
638.16	12.276
638.49	11.965
638.82	10.619
639.15	13.875
639.48	12.843
639.81	12.064
640.13	12.760
640.46	12.752
640.79	12.946
641.12	12.792
641.45	12.570
641.77	12.960
642.10	12.135
