SpectraSuite Data File
++++++++++++++++++++++++++++++++++++
Date: Wed May 13 16:16:06 PDT 2015
User: schluterlab
Dark Spectrum Present: Yes
Reference Spectrum Present: Yes
Number of Sampled Component Spectra: 1
Spectrometers: USB2E3373
Integration Time (usec): 3000 (USB2E3373)
Spectra Averaged: 3 (USB2E3373)
Boxcar Smoothing: 0 (USB2E3373)
Correct for Electrical Dark: No (USB2E3373)
Strobe/Lamp Enabled: No (USB2E3373)
Correct for Detector Non-linearity: No (USB2E3373)
Correct for Stray Light: No (USB2E3373)
Number of Pixels in Processed Spectrum: 2048
>>>>>Begin Processed Spectral Data<<<<<
178.53	0.000
178.91	-1125.000
179.29	-1050.000
179.67	-155.556
180.04	-925.000
180.42	2150.000
180.80	860.000
181.18	-975.000
181.56	471.429
181.94	0.000
182.31	-528.571
182.69	1666.667
183.07	-412.500
183.45	-400.000
183.83	381.818
184.20	-340.000
184.58	1800.000
184.96	5500.000
185.34	-700.000
185.72	-400.000
186.09	-2200.000
186.47	1650.000
186.85	1700.000
187.23	3700.000
187.61	-1633.333
187.98	1225.000
188.36	481.818
188.74	409.091
189.12	-720.000
189.49	420.000
189.87	-4700.000
190.25	-1175.000
190.63	392.857
191.00	276.923
191.38	616.667
191.76	-800.000
192.14	1325.000
192.51	575.000
192.89	733.333
193.27	500.000
193.65	-850.000
194.02	380.000
194.40	940.000
194.78	430.000
195.15	450.000
195.53	610.000
195.91	-1650.000
196.29	337.500
196.66	278.947
197.04	-280.000
197.42	0.000
197.79	520.000
198.17	-3400.000
198.55	628.571
198.92	575.000
199.30	880.000
199.68	0.000
200.05	288.889
200.43	628.571
200.81	4000.000
201.18	1266.667
201.56	-1733.333
201.94	500.000
202.31	444.444
202.69	383.333
203.07	390.000
203.44	0.000
203.82	1000.000
204.19	771.429
204.57	335.714
204.95	587.500
205.32	1300.000
205.70	427.273
206.08	342.857
206.45	2550.000
206.83	312.500
207.20	650.000
207.58	780.000
207.96	305.556
208.33	650.000
208.71	-716.667
209.08	671.429
209.46	555.556
209.84	509.091
210.21	-1200.000
210.59	1025.000
210.96	-250.000
211.34	2050.000
211.71	420.000
212.09	716.667
212.46	0.000
212.84	1166.667
213.22	975.000
213.59	-3800.000
213.97	566.667
214.34	571.429
214.72	445.455
215.09	740.000
215.47	-1600.000
215.84	-2000.000
216.22	1200.000
216.59	342.857
216.97	950.000
217.34	345.455
217.72	-566.667
218.09	0.000
218.47	-4800.000
218.84	500.000
219.22	500.000
219.59	1400.000
219.97	-542.857
220.34	860.000
220.72	-1433.333
221.09	378.571
221.47	1250.000
221.84	-733.333
222.22	0.000
222.59	975.000
222.97	-1750.000
223.34	880.000
223.72	361.538
224.09	960.000
224.46	1650.000
224.84	-4200.000
225.21	-980.000
225.59	-4100.000
225.96	440.000
226.34	255.000
226.71	2250.000
227.08	462.500
227.46	460.000
227.83	-775.000
228.21	-1900.000
228.58	511.111
228.95	-2300.000
229.33	-1750.000
229.70	1566.667
230.08	557.143
230.45	-640.000
230.82	391.667
231.20	716.667
231.57	528.571
231.95	500.000
232.32	213.636
232.69	381.818
233.07	557.143
233.44	315.385
233.81	-1933.333
234.19	294.737
234.56	408.333
234.93	333.333
235.31	390.909
235.68	292.308
236.05	350.000
236.43	166.667
236.80	252.632
237.17	4100.000
237.55	266.667
237.92	217.857
238.29	252.381
238.67	200.000
239.04	244.828
239.41	180.556
239.79	145.652
240.16	188.095
240.53	159.091
240.91	129.412
241.28	134.000
241.65	154.000
242.02	126.087
242.40	119.355
242.77	155.000
243.14	107.527
243.51	124.719
243.89	115.294
244.26	113.333
244.63	101.075
245.00	93.617
245.38	104.950
245.75	92.523
246.12	104.587
246.49	102.920
246.87	103.200
247.24	96.923
247.61	99.286
247.98	86.928
248.36	83.108
248.73	87.898
249.10	93.631
249.47	87.571
249.84	83.422
250.22	85.027
250.59	91.716
250.96	92.424
251.33	84.360
251.70	93.069
252.08	84.762
252.45	83.408
252.82	82.174
253.19	83.404
253.56	79.216
253.94	80.498
254.31	79.687
254.68	87.692
255.05	81.550
255.42	80.894
255.79	75.735
256.16	79.422
256.54	76.678
256.91	78.292
257.28	72.662
257.65	73.927
258.02	71.739
258.39	73.817
258.76	83.612
259.14	74.702
259.51	75.684
259.88	76.398
260.25	77.039
260.62	73.410
260.99	79.814
261.36	76.577
261.73	80.802
262.10	79.070
262.47	71.831
262.85	73.259
263.22	72.365
263.59	76.068
263.96	72.802
264.33	71.802
264.70	76.316
265.07	75.448
265.44	75.253
265.81	73.723
266.18	79.397
266.55	69.756
266.92	72.236
267.29	73.380
267.66	69.725
268.03	71.364
268.40	74.766
268.77	76.134
269.14	72.523
269.51	72.009
269.88	75.758
270.25	70.429
270.62	70.562
270.99	72.043
271.36	71.030
271.73	72.196
272.10	70.000
272.47	70.323
272.84	72.727
273.21	70.021
273.58	70.306
273.95	69.602
274.32	65.909
274.69	70.664
275.06	68.898
275.43	72.340
275.80	71.142
276.17	69.043
276.54	71.310
276.91	70.356
277.28	67.578
277.65	67.698
278.02	66.874
278.39	67.578
278.76	66.000
279.13	69.623
279.50	65.549
279.87	68.327
280.23	68.663
280.60	66.731
280.97	67.283
281.34	65.487
281.71	66.364
282.08	69.482
282.45	66.909
282.82	67.318
283.19	65.597
283.56	65.789
283.92	66.667
284.29	64.903
284.66	64.428
285.03	64.919
285.40	65.141
285.77	65.320
286.14	65.285
286.51	64.833
286.87	62.222
287.24	63.355
287.61	60.674
287.98	62.338
288.35	63.074
288.72	60.903
289.08	59.937
289.45	63.097
289.82	59.675
290.19	60.126
290.56	58.499
290.93	57.553
291.29	61.350
291.66	57.817
292.03	59.593
292.40	56.975
292.77	56.953
293.13	54.179
293.50	56.268
293.87	58.815
294.24	54.815
294.60	53.421
294.97	55.523
295.34	53.738
295.71	53.977
296.08	54.416
296.44	54.883
296.81	53.501
297.18	53.794
297.55	49.604
297.91	52.639
298.28	51.539
298.65	52.742
299.02	52.569
299.38	51.793
299.75	50.000
300.12	49.681
300.48	49.000
300.85	49.568
301.22	50.701
301.59	49.495
301.95	51.134
302.32	49.294
302.69	47.670
303.05	48.364
303.42	49.630
303.79	46.886
304.15	45.105
304.52	47.856
304.89	47.038
305.25	47.332
305.62	46.546
305.99	47.580
306.35	48.434
306.72	47.309
307.09	46.615
307.45	47.635
307.82	44.978
308.19	47.020
308.55	47.896
308.92	46.617
309.29	45.090
309.65	47.720
310.02	44.715
310.38	45.914
310.75	47.096
311.12	45.241
311.48	46.708
311.85	46.855
312.22	45.161
312.58	45.426
312.95	46.885
313.31	44.466
313.68	46.570
314.05	47.436
314.41	46.834
314.78	47.533
315.14	45.184
315.51	48.198
315.87	47.228
316.24	46.177
316.61	46.784
316.97	45.793
317.34	46.282
317.70	47.706
318.07	47.546
318.43	48.043
318.80	47.329
319.16	46.328
319.53	46.811
319.89	47.810
320.26	48.400
320.62	48.512
320.99	47.677
321.35	47.172
321.72	48.563
322.08	49.161
322.45	50.448
322.81	49.612
323.18	50.193
323.54	48.701
323.91	48.302
324.27	50.191
324.64	49.021
325.00	47.881
325.37	52.593
325.73	51.706
326.10	50.750
326.46	50.358
326.83	51.079
327.19	52.690
327.56	52.352
327.92	53.456
328.29	52.085
328.65	53.683
329.01	51.444
329.38	52.081
329.74	53.278
330.11	52.780
330.47	53.719
330.84	53.125
331.20	52.459
331.56	50.550
331.93	53.889
332.29	53.416
332.66	53.717
333.02	52.834
333.38	53.026
333.75	53.030
334.11	53.292
334.48	53.594
334.84	53.585
335.20	52.364
335.57	54.488
335.93	52.054
336.29	52.564
336.66	54.103
337.02	52.579
337.38	53.981
337.75	52.585
338.11	51.925
338.47	53.959
338.84	52.246
339.20	51.743
339.56	54.927
339.93	53.091
340.29	51.902
340.65	50.891
341.02	53.229
341.38	53.381
341.74	51.404
342.11	54.760
342.47	52.952
342.83	50.771
343.20	52.814
343.56	52.233
343.92	52.807
344.28	52.636
344.65	53.654
345.01	52.273
345.37	52.058
345.73	51.100
346.10	52.941
346.46	51.186
346.82	51.483
347.19	51.963
347.55	51.396
347.91	51.699
348.27	52.917
348.63	52.843
349.00	51.861
349.36	52.135
349.72	51.083
350.08	51.945
350.45	52.807
350.81	51.990
351.17	52.674
351.53	51.925
351.89	51.238
352.26	51.855
352.62	52.927
352.98	52.026
353.34	52.260
353.70	52.537
354.07	51.855
354.43	50.794
354.79	52.132
355.15	52.674
355.51	53.317
355.87	53.551
356.24	52.362
356.60	51.002
356.96	52.373
357.32	53.066
357.68	52.992
358.04	51.781
358.40	53.444
358.77	52.191
359.13	52.092
359.49	50.902
359.85	52.540
360.21	52.392
360.57	53.852
360.93	53.077
361.29	53.137
361.66	51.935
362.02	52.239
362.38	52.700
362.74	52.381
363.10	52.480
363.46	52.971
363.82	52.305
364.18	52.349
364.54	53.640
364.90	52.479
365.26	53.750
365.62	53.616
365.98	53.324
366.35	52.221
366.71	53.507
367.07	52.731
367.43	54.935
367.79	55.318
368.15	55.101
368.51	53.634
368.87	53.890
369.23	54.499
369.59	53.802
369.95	55.515
370.31	54.487
370.67	54.420
371.03	55.281
371.39	55.248
371.75	56.103
372.11	53.556
372.47	57.331
372.83	56.988
373.19	53.902
373.55	56.763
373.91	58.321
374.27	54.777
374.63	57.018
374.99	56.427
375.35	56.036
375.71	56.477
376.07	56.722
376.42	57.497
376.78	57.787
377.14	57.259
377.50	57.550
377.86	57.646
378.22	57.016
378.58	56.579
378.94	56.945
379.30	58.969
379.66	59.518
380.02	59.091
380.38	58.895
380.74	59.424
381.09	59.413
381.45	60.356
381.81	60.381
382.17	59.936
382.53	59.937
382.89	60.556
383.25	59.850
383.61	60.905
383.97	60.038
384.32	61.385
384.68	60.347
385.04	61.586
385.40	61.115
385.76	61.118
386.12	62.306
386.48	61.611
386.83	62.925
387.19	63.451
387.55	63.203
387.91	62.696
388.27	63.519
388.62	61.401
388.98	61.425
389.34	64.706
389.70	63.397
390.06	64.449
390.42	63.748
390.77	63.550
391.13	63.689
391.49	64.277
391.85	63.781
392.20	64.038
392.56	65.404
392.92	65.450
393.28	64.024
393.64	64.568
393.99	64.264
394.35	65.757
394.71	64.868
395.07	64.112
395.42	67.120
395.78	65.840
396.14	64.556
396.50	66.103
396.85	66.942
397.21	65.290
397.57	65.592
397.92	66.286
398.28	66.143
398.64	65.173
399.00	66.144
399.35	65.426
399.71	66.782
400.07	66.765
400.42	66.442
400.78	66.586
401.14	66.768
401.49	67.761
401.85	67.030
402.21	66.347
402.57	67.551
402.92	67.907
403.28	67.895
403.63	67.265
403.99	67.834
404.35	67.091
404.70	66.966
405.06	68.084
405.42	68.871
405.77	67.829
406.13	66.309
406.49	68.125
406.84	67.631
407.20	66.903
407.55	68.092
407.91	70.133
408.27	69.368
408.62	68.633
408.98	67.034
409.34	67.774
409.69	68.516
410.05	67.410
410.40	69.419
410.76	67.742
411.11	66.285
411.47	68.626
411.83	67.685
412.18	68.089
412.54	69.365
412.89	67.169
413.25	68.005
413.60	69.179
413.96	66.727
414.31	67.618
414.67	67.807
415.03	69.007
415.38	67.784
415.74	67.395
416.09	70.477
416.45	69.009
416.80	69.002
417.16	70.442
417.51	70.737
417.87	68.401
418.22	68.770
418.58	69.464
418.93	69.410
419.29	67.919
419.64	69.207
420.00	69.146
420.35	68.348
420.71	69.635
421.06	68.795
421.42	69.708
421.77	68.890
422.12	68.782
422.48	68.645
422.83	69.715
423.19	67.735
423.54	68.717
423.90	69.043
424.25	68.565
424.61	69.524
424.96	69.796
425.31	68.771
425.67	68.090
426.02	68.457
426.38	69.475
426.73	69.397
427.09	68.997
427.44	70.040
427.79	69.235
428.15	70.655
428.50	69.924
428.85	68.951
429.21	69.740
429.56	69.673
429.92	68.495
430.27	68.421
430.62	68.305
430.98	70.161
431.33	68.196
431.68	69.843
432.04	68.051
432.39	71.045
432.74	70.018
433.10	70.232
433.45	71.020
433.80	70.676
434.16	69.071
434.51	68.526
434.86	71.323
435.22	70.206
435.57	70.091
435.92	70.977
436.28	72.005
436.63	70.530
436.98	71.036
437.34	72.630
437.69	71.412
438.04	70.489
438.39	70.866
438.75	71.644
439.10	70.782
439.45	70.779
439.81	70.453
440.16	69.339
440.51	70.709
440.86	71.453
441.22	70.467
441.57	70.223
441.92	70.573
442.27	70.452
442.63	70.037
442.98	72.282
443.33	69.239
443.68	69.334
444.03	70.278
444.39	69.182
444.74	71.266
445.09	70.566
445.44	69.929
445.79	70.757
446.15	70.037
446.50	72.429
446.85	70.863
447.20	70.678
447.55	71.189
447.91	70.822
448.26	70.840
448.61	70.718
448.96	71.595
449.31	70.697
449.66	69.949
450.02	70.641
450.37	69.898
450.72	70.671
451.07	70.140
451.42	70.517
451.77	70.757
452.12	70.612
452.47	69.776
452.83	71.853
453.18	69.988
453.53	71.367
453.88	71.294
454.23	70.652
454.58	71.048
454.93	72.791
455.28	70.885
455.63	72.087
455.98	72.143
456.34	70.666
456.69	72.448
457.04	71.022
457.39	71.186
457.74	70.226
458.09	71.248
458.44	70.981
458.79	69.523
459.14	71.275
459.49	71.745
459.84	69.806
460.19	71.067
460.54	68.692
460.89	70.653
461.24	70.978
461.59	70.482
461.94	70.530
462.29	71.395
462.64	71.921
462.99	70.397
463.34	71.400
463.69	70.732
464.04	69.971
464.39	70.841
464.74	70.945
465.09	70.084
465.44	69.030
465.79	70.414
466.14	68.582
466.49	67.186
466.84	69.235
467.19	68.799
467.54	71.000
467.89	69.568
468.24	69.401
468.59	70.635
468.94	69.456
469.29	71.915
469.64	69.009
469.99	70.433
470.34	71.136
470.68	71.193
471.03	71.361
471.38	71.647
471.73	69.021
472.08	70.987
472.43	70.038
472.78	69.980
473.13	70.796
473.48	71.598
473.83	72.378
474.17	70.255
474.52	71.154
474.87	70.461
475.22	70.110
475.57	69.318
475.92	69.145
476.27	68.546
476.61	70.601
476.96	69.324
477.31	69.335
477.66	70.131
478.01	68.897
478.36	70.280
478.70	69.418
479.05	69.382
479.40	69.140
479.75	70.107
480.10	69.483
480.45	67.587
480.79	68.610
481.14	68.738
481.49	69.293
481.84	68.724
482.19	69.287
482.53	68.394
482.88	68.869
483.23	69.720
483.58	69.654
483.92	69.353
484.27	67.451
484.62	67.802
484.97	68.546
485.31	69.726
485.66	68.781
486.01	65.512
486.36	63.052
486.70	61.439
487.05	63.013
487.40	65.398
487.75	65.033
488.09	65.848
488.44	66.945
488.79	69.222
489.13	68.640
489.48	69.046
489.83	68.364
490.17	69.706
490.52	67.936
490.87	69.064
491.22	67.212
491.56	66.970
491.91	67.752
492.26	68.075
492.60	67.465
492.95	67.119
493.30	66.869
493.64	68.735
493.99	67.502
494.34	69.010
494.68	67.903
495.03	68.045
495.37	66.729
495.72	69.201
496.07	68.306
496.41	66.814
496.76	67.722
497.11	67.762
497.45	68.048
497.80	68.378
498.14	68.792
498.49	69.268
498.84	68.313
499.18	67.667
499.53	68.851
499.87	68.034
500.22	67.216
500.56	68.932
500.91	67.067
501.26	68.184
501.60	68.771
501.95	67.278
502.29	68.369
502.64	67.691
502.98	67.508
503.33	66.819
503.67	68.074
504.02	67.072
504.36	67.384
504.71	68.197
505.06	67.566
505.40	67.914
505.75	66.635
506.09	67.590
506.44	69.216
506.78	68.047
507.13	67.592
507.47	67.778
507.82	68.541
508.16	68.541
508.51	69.102
508.85	67.428
509.19	68.571
509.54	68.010
509.88	67.800
510.23	69.357
510.57	69.143
510.92	68.980
511.26	68.294
511.61	67.946
511.95	67.641
512.30	68.452
512.64	68.512
512.98	68.542
513.33	68.630
513.67	67.769
514.02	68.615
514.36	69.853
514.70	68.677
515.05	69.771
515.39	69.097
515.74	69.032
516.08	70.095
516.42	70.422
516.77	70.401
517.11	68.091
517.46	69.470
517.80	69.744
518.14	69.716
518.49	68.903
518.83	70.284
519.17	70.727
519.52	69.327
519.86	69.823
520.20	70.925
520.55	70.975
520.89	70.803
521.23	70.989
521.58	70.948
521.92	70.851
522.26	69.799
522.61	71.277
522.95	68.877
523.29	70.603
523.64	71.037
523.98	70.610
524.32	69.421
524.66	69.393
525.01	70.037
525.35	69.641
525.69	69.273
526.04	70.592
526.38	69.738
526.72	69.018
527.06	70.747
527.41	67.265
527.75	72.283
528.09	69.942
528.43	71.511
528.78	71.051
529.12	68.970
529.46	70.361
529.80	69.988
530.15	69.969
530.49	67.262
530.83	69.810
531.17	71.149
531.51	70.558
531.86	70.710
532.20	70.795
532.54	69.891
532.88	69.384
533.22	69.019
533.57	69.012
533.91	69.536
534.25	69.016
534.59	69.311
534.93	67.341
535.27	67.894
535.62	69.292
535.96	68.738
536.30	68.595
536.64	69.736
536.98	68.812
537.32	69.322
537.66	70.867
538.01	69.124
538.35	69.037
538.69	68.347
539.03	68.876
539.37	68.243
539.71	67.596
540.05	67.647
540.39	69.435
540.73	68.629
541.07	69.241
541.42	68.428
541.76	69.355
542.10	68.241
542.44	68.411
542.78	68.841
543.12	66.347
543.46	68.721
543.80	69.421
544.14	67.330
544.48	67.683
544.82	67.992
545.16	68.055
545.50	67.609
545.84	68.280
546.18	69.293
546.52	69.374
546.86	68.385
547.20	68.780
547.54	69.205
547.88	67.921
548.22	67.435
548.56	66.289
548.90	66.453
549.24	67.340
549.58	68.486
549.92	68.475
550.26	69.318
550.60	67.012
550.94	68.662
551.28	68.252
551.62	70.022
551.96	68.140
552.30	68.874
552.64	68.019
552.98	67.661
553.32	67.229
553.66	68.575
554.00	69.595
554.34	68.323
554.68	70.887
555.02	69.323
555.36	68.406
555.69	66.576
556.03	68.641
556.37	68.281
556.71	66.849
557.05	67.927
557.39	66.620
557.73	68.243
558.07	69.036
558.41	67.583
558.75	69.802
559.08	69.799
559.42	69.690
559.76	68.235
560.10	68.451
560.44	67.505
560.78	66.999
561.12	66.821
561.45	65.906
561.79	65.392
562.13	67.002
562.47	67.691
562.81	68.201
563.15	67.492
563.48	66.048
563.82	66.471
564.16	65.991
564.50	66.016
564.84	64.159
565.17	67.246
565.51	67.476
565.85	67.005
566.19	64.934
566.52	67.828
566.86	64.557
567.20	66.156
567.54	66.039
567.88	64.367
568.21	64.550
568.55	63.852
568.89	64.154
569.23	62.923
569.56	61.619
569.90	61.094
570.24	60.890
570.57	59.878
570.91	58.436
571.25	59.141
571.59	59.116
571.92	59.044
572.26	58.550
572.60	58.619
572.93	58.921
573.27	60.041
573.61	59.241
573.95	58.915
574.28	58.392
574.62	58.066
574.96	57.037
575.29	57.953
575.63	57.978
575.97	57.277
576.30	58.285
576.64	58.352
576.98	57.997
577.31	58.641
577.65	57.459
577.98	57.439
578.32	56.195
578.66	56.331
578.99	56.950
579.33	56.814
579.67	56.799
580.00	57.396
580.34	58.828
580.67	57.268
581.01	57.454
581.35	57.374
581.68	56.500
582.02	56.061
582.35	55.986
582.69	55.998
583.02	56.037
583.36	57.044
583.70	57.767
584.03	58.412
584.37	58.419
584.70	58.490
585.04	57.950
585.37	57.619
585.71	57.636
586.04	56.584
586.38	57.341
586.72	58.299
587.05	58.028
587.39	57.282
587.72	57.202
588.06	57.657
588.39	57.833
588.73	57.788
589.06	58.741
589.40	58.889
589.73	58.501
590.07	59.288
590.40	58.824
590.73	59.719
591.07	60.399
591.40	58.878
591.74	60.736
592.07	60.428
592.41	60.232
592.74	57.678
593.08	57.861
593.41	57.767
593.75	55.746
594.08	57.191
594.41	57.653
594.75	57.930
595.08	57.946
595.42	57.968
595.75	58.583
596.09	59.144
596.42	59.018
596.75	59.688
597.09	60.216
597.42	58.179
597.75	60.328
598.09	58.478
598.42	58.033
598.76	57.762
599.09	57.697
599.42	56.441
599.76	56.991
600.09	57.377
600.42	57.451
600.76	56.500
601.09	56.721
601.42	57.953
601.76	57.343
602.09	58.221
602.42	57.763
602.76	58.525
603.09	58.222
603.42	58.141
603.76	57.774
604.09	56.844
604.42	57.807
604.76	57.444
605.09	58.322
605.42	57.375
605.75	58.609
606.09	57.422
606.42	58.439
606.75	57.652
607.09	57.681
607.42	58.665
607.75	57.046
608.08	57.230
608.42	57.956
608.75	58.431
609.08	56.892
609.41	58.639
609.75	58.599
610.08	58.200
610.41	57.728
610.74	59.224
611.07	60.474
611.41	58.391
611.74	58.723
612.07	60.248
612.40	59.391
612.73	58.105
613.07	60.129
613.40	58.926
613.73	58.626
614.06	58.763
614.39	58.836
614.72	57.263
615.06	59.979
615.39	59.076
615.72	58.333
616.05	57.629
616.38	59.144
616.71	60.154
617.05	59.835
617.38	58.749
617.71	60.480
618.04	61.478
618.37	59.137
618.70	60.859
619.03	62.105
619.36	60.828
619.69	61.831
620.03	61.058
620.36	60.027
620.69	61.986
621.02	63.127
621.35	62.803
621.68	61.760
622.01	63.622
622.34	63.691
622.67	62.814
623.00	60.895
623.33	61.330
623.66	61.687
623.99	62.003
624.32	61.626
624.65	61.653
624.99	60.836
625.32	61.477
625.65	61.758
625.98	62.952
626.31	61.509
626.64	63.918
626.97	63.425
627.30	62.594
627.63	61.854
627.96	64.087
628.29	63.342
628.62	66.148
628.95	65.755
629.28	65.237
629.61	64.986
629.94	65.810
630.26	66.063
630.59	64.061
630.92	65.230
