SpectraSuite Data File
++++++++++++++++++++++++++++++++++++
Date: Wed May 13 16:22:00 PDT 2015
User: schluterlab
Dark Spectrum Present: Yes
Reference Spectrum Present: Yes
Number of Sampled Component Spectra: 1
Spectrometers: USB2E3373
Integration Time (usec): 3000 (USB2E3373)
Spectra Averaged: 3 (USB2E3373)
Boxcar Smoothing: 0 (USB2E3373)
Correct for Electrical Dark: No (USB2E3373)
Strobe/Lamp Enabled: No (USB2E3373)
Correct for Detector Non-linearity: No (USB2E3373)
Correct for Stray Light: No (USB2E3373)
Number of Pixels in Processed Spectrum: 2048
>>>>>Begin Processed Spectral Data<<<<<
178.53	0.000
178.91	-1300.000
179.29	-1375.000
179.67	-183.333
180.04	-1175.000
180.42	2600.000
180.80	1000.000
181.18	-975.000
181.56	600.000
181.94	0.000
182.31	-657.143
182.69	1566.667
183.07	-700.000
183.45	-566.667
183.83	590.909
184.20	-410.000
184.58	2200.000
184.96	4700.000
185.34	-800.000
185.72	-450.000
186.09	-2350.000
186.47	2750.000
186.85	2250.000
187.23	3600.000
187.61	-1433.333
187.98	1325.000
188.36	536.364
188.74	472.727
189.12	-1080.000
189.49	570.000
189.87	-4300.000
190.25	-1375.000
190.63	392.857
191.00	415.385
191.38	750.000
191.76	-1050.000
192.14	1275.000
192.51	612.500
192.89	900.000
193.27	562.500
193.65	-1050.000
194.02	480.000
194.40	700.000
194.78	510.000
195.15	491.667
195.53	510.000
195.91	-1900.000
196.29	318.750
196.66	331.579
197.04	-370.000
197.42	0.000
197.79	590.000
198.17	-3800.000
198.55	571.429
198.92	575.000
199.30	940.000
199.68	0.000
200.05	266.667
200.43	685.714
200.81	4200.000
201.18	1366.667
201.56	-1500.000
201.94	477.778
202.31	622.222
202.69	458.333
203.07	420.000
203.44	0.000
203.82	1200.000
204.19	771.429
204.57	400.000
204.95	650.000
205.32	1600.000
205.70	472.727
206.08	407.143
206.45	2000.000
206.83	300.000
207.20	833.333
207.58	680.000
207.96	266.667
208.33	675.000
208.71	-783.333
209.08	557.143
209.46	522.222
209.84	390.909
210.21	-1400.000
210.59	1575.000
210.96	-537.500
211.34	2250.000
211.71	490.000
212.09	700.000
212.46	0.000
212.84	1433.333
213.22	1275.000
213.59	-4700.000
213.97	733.333
214.34	785.714
214.72	500.000
215.09	1040.000
215.47	-2300.000
215.84	-2650.000
216.22	1300.000
216.59	400.000
216.97	1225.000
217.34	481.818
217.72	-833.333
218.09	0.000
218.47	-3200.000
218.84	611.111
219.22	628.571
219.59	1600.000
219.97	-542.857
220.34	800.000
220.72	-1566.667
221.09	421.429
221.47	1425.000
221.84	-750.000
222.22	0.000
222.59	1225.000
222.97	-2400.000
223.34	1120.000
223.72	438.462
224.09	1120.000
224.46	2550.000
224.84	-5400.000
225.21	-860.000
225.59	-4500.000
225.96	500.000
226.34	260.000
226.71	2250.000
227.08	600.000
227.46	550.000
227.83	-1150.000
228.21	-2300.000
228.58	544.444
228.95	-1800.000
229.33	-2550.000
229.70	1566.667
230.08	700.000
230.45	-840.000
230.82	441.667
231.20	516.667
231.57	600.000
231.95	466.667
232.32	263.636
232.69	381.818
233.07	585.714
233.44	323.077
233.81	-1366.667
234.19	257.895
234.56	366.667
234.93	341.667
235.31	463.636
235.68	269.231
236.05	335.714
236.43	160.606
236.80	321.053
237.17	4000.000
237.55	247.619
237.92	225.000
238.29	242.857
238.67	193.548
239.04	210.345
239.41	147.222
239.79	117.391
240.16	133.333
240.53	127.273
240.91	105.882
241.28	102.000
241.65	106.000
242.02	98.551
242.40	101.613
242.77	108.333
243.14	80.645
243.51	82.022
243.89	84.706
244.26	76.667
244.63	72.043
245.00	72.340
245.38	67.327
245.75	58.879
246.12	55.963
246.49	53.285
246.87	70.400
247.24	64.615
247.61	60.000
247.98	60.784
248.36	57.432
248.73	52.866
249.10	58.599
249.47	51.977
249.84	56.684
250.22	46.524
250.59	50.888
250.96	52.525
251.33	51.659
251.70	54.950
252.08	47.619
252.45	43.049
252.82	49.130
253.19	44.255
253.56	46.667
253.94	48.133
254.31	41.797
254.68	43.846
255.05	44.280
255.42	38.211
255.79	47.059
256.16	42.599
256.54	43.110
256.91	44.840
257.28	42.086
257.65	39.934
258.02	40.373
258.39	40.063
258.76	39.465
259.14	39.881
259.51	43.161
259.88	39.130
260.25	40.483
260.62	39.884
260.99	37.267
261.36	41.141
261.73	36.963
262.10	39.826
262.47	41.408
262.85	39.554
263.22	34.473
263.59	41.595
263.96	38.187
264.33	35.770
264.70	35.789
265.07	39.386
265.44	37.626
265.81	36.253
266.18	39.447
266.55	36.098
266.92	38.329
267.29	38.194
267.66	33.945
268.03	35.682
268.40	36.682
268.77	37.470
269.14	33.559
269.51	35.892
269.88	36.364
270.25	33.183
270.62	35.281
270.99	36.774
271.36	34.549
271.73	38.084
272.10	35.652
272.47	35.914
272.84	37.662
273.21	35.849
273.58	34.279
273.95	32.495
274.32	34.504
274.69	37.687
275.06	33.268
275.43	35.957
275.80	35.471
276.17	35.031
276.54	33.680
276.91	34.980
277.28	33.789
277.65	36.170
278.02	35.818
278.39	35.937
278.76	31.818
279.13	36.604
279.50	34.823
279.87	34.064
280.23	34.731
280.60	32.689
280.97	33.457
281.34	32.389
281.71	35.091
282.08	34.741
282.45	32.727
282.82	33.215
283.19	32.086
283.56	32.456
283.92	32.657
284.29	30.688
284.66	32.668
285.03	32.731
285.40	31.690
285.77	31.650
286.14	32.297
286.51	31.500
286.87	31.282
287.24	34.202
287.61	31.461
287.98	31.981
288.35	31.379
288.72	28.349
289.08	30.986
289.45	30.313
289.82	28.618
290.19	28.100
290.56	29.556
290.93	26.737
291.29	29.448
291.66	28.614
292.03	31.831
292.40	30.837
292.77	28.994
293.13	27.164
293.50	29.009
293.87	27.852
294.24	28.741
294.60	28.530
294.97	28.488
295.34	27.221
295.71	28.835
296.08	25.783
296.44	28.473
296.81	27.213
297.18	27.236
297.55	25.066
297.91	25.726
298.28	27.979
298.65	27.023
299.02	27.668
299.38	24.967
299.75	24.798
300.12	25.287
300.48	25.250
300.85	26.141
301.22	26.879
301.59	25.379
301.95	27.204
302.32	25.674
302.69	24.851
303.05	26.061
303.42	25.309
303.79	25.368
304.15	24.476
304.52	24.913
304.89	23.926
305.25	24.594
305.62	25.255
305.99	26.092
306.35	25.503
306.72	25.448
307.09	26.082
307.45	26.014
307.82	24.107
308.19	24.503
308.55	25.135
308.92	24.919
309.29	23.865
309.65	24.814
310.02	25.687
310.38	25.806
310.75	26.188
311.12	24.974
311.48	25.287
311.85	25.996
312.22	25.078
312.58	26.195
312.95	27.561
313.31	25.243
313.68	27.651
314.05	27.022
314.41	27.337
314.78	27.593
315.14	26.713
315.51	29.248
315.87	28.119
316.24	28.898
316.61	27.973
316.97	27.495
317.34	27.006
317.70	28.776
318.07	28.585
318.43	30.431
318.80	28.960
319.16	29.944
319.53	29.456
319.89	30.381
320.26	31.700
320.62	30.456
320.99	31.818
321.35	32.828
321.72	33.881
322.08	34.551
322.45	34.726
322.81	34.593
323.18	35.453
323.54	35.343
323.91	36.792
324.27	36.520
324.64	36.067
325.00	35.798
325.37	38.217
325.73	39.587
326.10	39.982
326.46	38.530
326.83	41.846
327.19	39.710
327.56	42.683
327.92	42.870
328.29	42.680
328.65	43.186
329.01	43.412
329.38	44.218
329.74	44.506
330.11	46.183
330.47	45.914
330.84	46.691
331.20	45.902
331.56	45.780
331.93	46.296
332.29	44.632
332.66	45.487
333.02	47.441
333.38	48.509
333.75	47.148
334.11	47.064
334.48	47.116
334.84	47.794
335.20	48.182
335.57	47.779
335.93	47.232
336.29	47.436
336.66	48.332
337.02	47.602
337.38	50.185
337.75	47.415
338.11	48.970
338.47	48.711
338.84	48.946
339.20	46.147
339.56	48.723
339.93	49.273
340.29	49.728
340.65	48.128
341.02	49.564
341.38	49.822
341.74	47.895
342.11	48.035
342.47	48.899
342.83	48.373
343.20	49.177
343.56	47.767
343.92	49.649
344.28	48.724
344.65	49.785
345.01	46.549
345.37	47.427
345.73	49.239
346.10	47.997
346.46	48.559
346.82	47.282
347.19	49.958
347.55	49.261
347.91	49.757
348.27	50.534
348.63	48.829
349.00	47.816
349.36	48.851
349.72	48.196
350.08	47.812
350.45	50.122
350.81	50.041
351.17	48.703
351.53	48.649
351.89	49.340
352.26	49.566
352.62	49.238
352.98	49.595
353.34	49.055
353.70	48.691
354.07	49.516
354.43	47.619
354.79	49.236
355.15	49.322
355.51	50.040
355.87	49.551
356.24	49.511
356.60	49.639
356.96	50.201
357.32	49.060
357.68	50.157
358.04	49.010
358.40	49.406
358.77	50.000
359.13	49.408
359.49	49.647
359.85	49.048
360.21	50.957
360.57	50.817
360.93	49.231
361.29	49.962
361.66	48.452
362.02	50.000
362.38	50.798
362.74	50.521
363.10	49.297
363.46	50.404
363.82	49.660
364.18	48.972
364.54	51.412
364.90	50.567
365.26	49.632
365.62	51.644
365.98	50.475
366.35	49.499
366.71	50.181
367.07	50.765
367.43	51.887
367.79	51.392
368.15	50.934
368.51	49.709
368.87	50.607
369.23	50.183
369.59	52.788
369.95	51.544
370.31	50.356
370.67	48.913
371.03	52.659
371.39	50.437
371.75	50.882
372.11	50.071
372.47	51.393
372.83	52.666
373.19	50.939
373.55	52.698
373.91	51.105
374.27	50.997
374.63	50.473
374.99	51.977
375.35	50.942
375.71	51.748
376.07	50.754
376.42	51.582
376.78	52.021
377.14	51.425
377.50	52.119
377.86	51.130
378.22	51.138
378.58	50.501
378.94	51.980
379.30	52.163
379.66	52.094
380.02	50.799
380.38	50.152
380.74	52.281
381.09	50.672
381.45	52.182
381.81	52.518
382.17	51.783
382.53	51.195
382.89	52.963
383.25	52.095
383.61	53.903
383.97	51.345
384.32	51.216
384.68	50.743
385.04	51.998
385.40	51.517
385.76	52.580
386.12	51.490
386.48	51.605
386.83	51.507
387.19	53.123
387.55	52.752
387.91	52.418
388.27	51.380
388.62	51.936
388.98	50.799
389.34	51.940
389.70	51.134
390.06	52.915
390.42	53.048
390.77	52.163
391.13	52.521
391.49	52.919
391.85	51.750
392.20	51.167
392.56	52.399
392.92	51.265
393.28	50.828
393.64	50.600
393.99	51.130
394.35	50.993
394.71	51.066
395.07	50.467
395.42	51.298
395.78	51.081
396.14	50.652
396.50	51.942
396.85	52.257
397.21	50.986
397.57	51.209
397.92	50.721
398.28	49.776
398.64	51.434
399.00	51.427
399.35	50.705
399.71	51.389
400.07	51.153
400.42	50.982
400.78	51.025
401.14	50.854
401.49	50.866
401.85	49.788
402.21	49.222
402.57	49.969
402.92	49.874
403.28	50.344
403.63	50.804
403.99	49.873
404.35	49.818
404.70	49.940
405.06	50.553
405.42	50.405
405.77	48.400
406.13	49.944
406.49	50.384
406.84	49.557
407.20	49.468
407.55	50.989
407.91	51.333
408.27	50.670
408.62	49.247
408.98	49.877
409.34	49.200
409.69	50.968
410.05	49.442
410.40	50.092
410.76	49.283
411.11	49.156
411.47	49.393
411.83	50.336
412.18	48.176
412.54	50.249
412.89	49.096
413.25	49.351
413.60	50.525
413.96	48.998
414.31	48.724
414.67	49.430
415.03	49.603
415.38	50.966
415.74	49.389
416.09	50.751
416.45	48.728
416.80	49.504
417.16	50.268
417.51	50.431
417.87	48.619
418.22	49.338
418.58	50.032
418.93	49.939
419.29	50.541
419.64	50.945
420.00	49.085
420.35	48.406
420.71	49.133
421.06	49.045
421.42	48.655
421.77	49.776
422.12	49.130
422.48	48.678
422.83	48.515
423.19	50.331
423.54	48.868
423.90	49.159
424.25	49.246
424.61	49.940
424.96	50.496
425.31	49.834
425.67	47.978
426.02	49.257
426.38	51.160
426.73	49.678
427.09	49.726
427.44	50.719
427.79	49.224
428.15	50.238
428.50	48.625
428.85	48.927
429.21	48.758
429.56	49.508
429.92	49.472
430.27	48.610
430.62	48.387
430.98	49.818
431.33	48.041
431.68	50.157
432.04	48.190
432.39	50.257
432.74	50.090
433.10	50.198
433.45	49.913
433.80	49.557
434.16	47.917
434.51	49.526
434.86	48.974
435.22	49.361
435.57	50.760
435.92	49.386
436.28	49.763
436.63	49.338
436.98	49.456
437.34	50.209
437.69	51.225
438.04	50.646
438.39	48.537
438.75	50.203
439.10	49.888
439.45	50.000
439.81	50.574
440.16	50.875
440.51	50.908
440.86	50.261
441.22	49.388
441.57	49.310
441.92	50.409
442.27	50.484
442.63	49.236
442.98	50.141
443.33	50.652
443.68	49.664
444.03	49.732
444.39	49.075
444.74	50.433
445.09	49.757
445.44	49.645
445.79	50.025
446.15	49.074
446.50	49.973
446.85	50.103
447.20	49.975
447.55	50.642
447.91	50.193
448.26	49.193
448.61	49.972
448.96	50.775
449.31	50.337
449.66	49.015
450.02	50.251
450.37	49.660
450.72	49.915
451.07	49.421
451.42	49.544
451.77	50.793
452.12	49.480
452.47	51.057
452.83	50.291
453.18	49.450
453.53	50.588
453.88	51.388
454.23	50.867
454.58	51.181
454.93	51.621
455.28	49.751
455.63	50.667
455.98	52.202
456.34	51.005
456.69	50.282
457.04	50.650
457.39	50.847
457.74	48.636
458.09	49.741
458.44	49.829
458.79	48.807
459.14	50.903
459.49	51.080
459.84	50.416
460.19	50.737
460.54	48.264
460.89	50.247
461.24	50.577
461.59	51.365
461.94	50.062
462.29	51.217
462.64	49.904
462.99	50.293
463.34	51.467
463.69	50.844
464.04	50.493
464.39	49.275
464.74	50.505
465.09	50.422
465.44	49.086
465.79	50.224
466.14	49.699
466.49	48.832
466.84	49.854
467.19	49.306
467.54	51.312
467.89	49.040
468.24	50.320
468.59	50.000
468.94	49.603
469.29	51.414
469.64	50.937
469.99	51.218
470.34	51.057
470.68	51.365
471.03	50.136
471.38	52.328
471.73	50.433
472.08	50.855
472.43	50.565
472.78	50.560
473.13	49.936
473.48	50.499
473.83	49.939
474.17	49.347
474.52	50.806
474.87	50.963
475.22	49.971
475.57	48.415
475.92	48.964
476.27	49.324
476.61	49.035
476.96	50.082
477.31	49.346
477.66	50.328
478.01	48.562
478.36	50.978
478.70	49.896
479.05	48.882
479.40	49.130
479.75	48.856
480.10	48.757
480.45	48.263
480.79	48.686
481.14	48.875
481.49	49.502
481.84	48.560
482.19	48.069
482.53	48.670
482.88	48.162
483.23	48.879
483.58	48.681
483.92	49.672
484.27	47.582
484.62	47.931
484.97	47.458
485.31	49.281
485.66	46.903
486.01	44.436
486.36	42.749
486.70	41.325
487.05	42.670
487.40	44.305
487.75	45.318
488.09	47.073
488.44	46.231
488.79	47.993
489.13	48.969
489.48	48.409
489.83	47.907
490.17	48.794
490.52	48.184
490.87	48.213
491.22	48.113
491.56	47.426
491.91	48.162
492.26	47.267
492.60	47.650
492.95	48.082
493.30	47.336
493.64	47.830
493.99	47.168
494.34	48.289
494.68	48.260
495.03	49.436
495.37	47.697
495.72	49.318
496.07	48.213
496.41	46.549
496.76	47.581
497.11	46.961
497.45	47.182
497.80	47.601
498.14	48.406
498.49	48.488
498.84	47.843
499.18	48.333
499.53	48.053
499.87	47.297
500.22	47.904
500.56	49.126
500.91	47.067
501.26	47.606
501.60	48.742
501.95	47.984
502.29	47.282
502.64	47.952
502.98	48.574
503.33	47.441
503.67	47.053
504.02	47.708
504.36	47.169
504.71	46.849
505.06	46.940
505.40	48.274
505.75	47.155
506.09	46.501
506.44	47.509
506.78	47.930
507.13	48.006
507.47	48.333
507.82	49.037
508.16	47.214
508.51	48.300
508.85	48.312
509.19	48.163
509.54	47.347
509.88	47.295
510.23	48.740
510.57	48.504
510.92	48.213
511.26	47.071
511.61	47.614
511.95	47.756
512.30	47.402
512.64	49.167
512.98	49.303
513.33	48.287
513.67	48.132
514.02	47.890
514.36	48.662
514.70	47.925
515.05	48.745
515.39	49.131
515.74	48.142
516.08	48.519
516.42	48.668
516.77	48.774
517.11	47.725
517.46	47.573
517.80	48.897
518.14	49.276
518.49	49.942
518.83	49.261
519.17	48.326
519.52	48.444
519.86	47.918
520.20	48.208
520.55	48.235
520.89	49.939
521.23	49.698
521.58	49.460
521.92	49.112
522.26	47.468
522.61	49.533
522.95	48.066
523.29	49.483
523.64	49.512
523.98	50.031
524.32	47.407
524.66	48.707
525.01	48.713
525.35	47.893
525.69	48.153
526.04	48.910
526.38	48.200
526.72	48.466
527.06	48.462
527.41	47.030
527.75	49.582
528.09	48.298
528.43	49.777
528.78	48.248
529.12	47.455
529.46	48.990
529.80	46.968
530.15	49.595
530.49	47.692
530.83	48.987
531.17	49.086
531.51	49.416
531.86	48.516
532.20	47.784
532.54	48.110
532.88	48.267
533.22	46.846
533.57	48.086
533.91	47.321
534.25	47.570
534.59	47.651
534.93	47.174
535.27	47.556
535.62	47.375
535.96	47.395
536.30	47.934
536.64	47.521
536.98	49.701
537.32	47.860
537.66	49.200
538.01	47.597
538.35	46.412
538.69	48.437
539.03	46.979
539.37	46.645
539.71	46.727
540.05	47.190
540.39	47.708
540.73	46.119
541.07	48.475
541.42	46.641
541.76	47.742
542.10	47.477
542.44	47.550
542.78	48.155
543.12	45.553
543.46	47.082
543.80	47.951
544.14	45.828
544.48	47.619
544.82	46.055
545.16	47.105
545.50	46.658
545.84	47.177
546.18	47.744
546.52	46.800
546.86	46.873
547.20	48.146
547.54	46.359
547.88	47.577
548.22	46.762
548.56	45.472
548.90	45.903
549.24	46.195
549.58	45.907
549.92	46.772
550.26	48.224
550.60	46.957
550.94	47.394
551.28	47.842
551.62	48.598
551.96	47.158
552.30	47.304
552.64	46.991
552.98	46.983
553.32	46.864
553.66	47.239
554.00	46.328
554.34	46.032
554.68	47.353
555.02	46.685
555.36	46.834
555.69	44.723
556.03	45.895
556.37	45.703
556.71	45.293
557.05	46.148
557.39	46.396
557.73	45.872
558.07	48.513
558.41	46.816
558.75	46.363
559.08	48.098
559.42	49.206
559.76	47.132
560.10	45.610
560.44	46.191
560.78	44.578
561.12	44.987
561.45	44.980
561.79	44.891
562.13	45.808
562.47	46.585
562.81	45.537
563.15	45.619
563.48	46.883
563.82	46.119
564.16	45.585
564.50	44.987
564.84	45.133
565.17	44.659
565.51	46.006
565.85	45.495
566.19	44.208
566.52	45.472
566.86	44.364
567.20	44.340
567.54	43.836
567.88	42.966
568.21	43.280
568.55	43.124
568.89	42.169
569.23	41.934
569.56	40.405
569.90	40.113
570.24	39.541
570.57	39.408
570.91	38.138
571.25	38.450
571.59	38.409
571.92	38.508
572.26	38.128
572.60	38.979
572.93	37.991
573.27	38.539
573.61	38.135
573.95	37.649
574.28	37.412
574.62	37.415
574.96	37.324
575.29	37.051
575.63	37.475
575.97	37.464
576.30	37.414
576.64	37.453
576.98	37.360
577.31	37.361
577.65	37.698
577.98	36.349
578.32	35.882
578.66	36.352
578.99	36.499
579.33	36.190
579.67	36.074
580.00	36.634
580.34	37.613
580.67	36.563
581.01	37.418
581.35	36.920
581.68	36.191
582.02	35.403
582.35	35.787
582.69	35.740
583.02	36.116
583.36	36.730
583.70	37.488
584.03	37.409
584.37	37.602
584.70	37.905
585.04	37.231
585.37	36.883
585.71	36.231
586.04	36.506
586.38	36.912
586.72	37.973
587.05	37.435
587.39	37.493
587.72	36.872
588.06	37.193
588.39	37.531
588.73	37.489
589.06	38.174
589.40	38.114
589.73	39.141
590.07	38.505
590.40	38.436
590.73	39.149
591.07	40.130
591.40	39.941
591.74	40.649
592.07	39.921
592.41	39.148
592.74	38.165
593.08	38.374
593.41	37.172
593.75	36.727
594.08	37.714
594.41	37.752
594.75	37.597
595.08	37.867
595.42	37.723
595.75	38.070
596.09	38.077
596.42	39.607
596.75	38.328
597.09	39.913
597.42	38.744
597.75	39.543
598.09	38.261
598.42	38.531
598.76	38.427
599.09	37.438
599.42	37.300
599.76	37.701
600.09	37.596
600.42	37.473
600.76	37.143
601.09	36.903
601.42	38.052
601.76	37.647
602.09	37.866
602.42	38.097
602.76	38.936
603.09	38.710
603.42	37.563
603.76	37.767
604.09	38.038
604.42	39.462
604.76	39.266
605.09	39.318
605.42	38.478
605.75	38.038
606.09	37.617
606.42	39.027
606.75	37.453
607.09	38.049
607.42	38.554
607.75	37.300
608.08	37.690
608.42	38.817
608.75	38.593
609.08	37.928
609.41	38.410
609.75	38.542
610.08	39.255
610.41	38.268
610.74	38.505
611.07	39.377
611.41	39.205
611.74	39.266
612.07	39.493
612.40	40.294
612.73	39.000
613.07	40.086
613.40	39.389
613.73	37.598
614.06	40.000
614.39	38.437
614.72	39.316
615.06	38.918
615.39	39.384
615.72	39.008
616.05	38.490
616.38	39.633
616.71	40.321
617.05	39.282
617.38	39.327
617.71	41.261
618.04	40.204
618.37	38.971
618.70	39.826
619.03	41.974
619.36	42.227
619.69	41.972
620.03	41.827
620.36	40.374
620.69	40.616
621.02	41.667
621.35	41.738
621.68	42.913
622.01	42.415
622.34	42.663
622.67	42.281
623.00	41.673
623.33	40.315
623.66	42.816
623.99	41.900
624.32	40.870
624.65	40.607
624.99	41.076
625.32	40.985
625.65	41.773
625.98	42.352
626.31	41.680
626.64	42.122
626.97	43.059
627.30	41.397
627.63	43.150
627.96	43.818
628.29	44.444
628.62	44.556
628.95	45.189
629.28	44.526
629.61	45.096
629.94	44.857
630.26	44.328
630.59	45.377
630.92	43.870
