SpectraSuite Data File
++++++++++++++++++++++++++++++++++++
Date: Wed May 13 16:53:19 PDT 2015
User: schluterlab
Dark Spectrum Present: Yes
Reference Spectrum Present: Yes
Number of Sampled Component Spectra: 1
Spectrometers: USB2E3373
Integration Time (usec): 3000 (USB2E3373)
Spectra Averaged: 3 (USB2E3373)
Boxcar Smoothing: 0 (USB2E3373)
Correct for Electrical Dark: No (USB2E3373)
Strobe/Lamp Enabled: No (USB2E3373)
Correct for Detector Non-linearity: No (USB2E3373)
Correct for Stray Light: No (USB2E3373)
Number of Pixels in Processed Spectrum: 2048
>>>>>Begin Processed Spectral Data<<<<<
178.53	0.000
178.91	-1450.000
179.29	-1475.000
179.67	-166.667
180.04	-1075.000
180.42	2500.000
180.80	1220.000
181.18	-925.000
181.56	885.714
181.94	0.000
182.31	-785.714
182.69	1733.333
183.07	-587.500
183.45	-566.667
183.83	509.091
184.20	-410.000
184.58	2400.000
184.96	5100.000
185.34	-740.000
185.72	-550.000
186.09	-2450.000
186.47	3150.000
186.85	2500.000
187.23	5700.000
187.61	-1866.667
187.98	1325.000
188.36	527.273
188.74	572.727
189.12	-800.000
189.49	630.000
189.87	-4100.000
190.25	-1075.000
190.63	442.857
191.00	461.538
191.38	883.333
191.76	-1225.000
192.14	1350.000
192.51	737.500
192.89	983.333
193.27	587.500
193.65	-1100.000
194.02	500.000
194.40	1040.000
194.78	480.000
195.15	550.000
195.53	660.000
195.91	-2100.000
196.29	331.250
196.66	294.737
197.04	-400.000
197.42	0.000
197.79	590.000
198.17	-5500.000
198.55	685.714
198.92	812.500
199.30	780.000
199.68	0.000
200.05	316.667
200.43	714.286
200.81	4500.000
201.18	1633.333
201.56	-1566.667
201.94	533.333
202.31	566.667
202.69	416.667
203.07	510.000
203.44	0.000
203.82	1275.000
204.19	828.571
204.57	435.714
204.95	650.000
205.32	1400.000
205.70	536.364
206.08	392.857
206.45	2700.000
206.83	350.000
207.20	833.333
207.58	780.000
207.96	327.778
208.33	687.500
208.71	-850.000
209.08	700.000
209.46	644.444
209.84	436.364
210.21	-1633.333
210.59	1425.000
210.96	-437.500
211.34	2300.000
211.71	510.000
212.09	683.333
212.46	0.000
212.84	1566.667
213.22	1525.000
213.59	-4600.000
213.97	883.333
214.34	814.286
214.72	609.091
215.09	900.000
215.47	-2100.000
215.84	-1900.000
216.22	1633.333
216.59	378.571
216.97	1225.000
217.34	390.909
217.72	-783.333
218.09	0.000
218.47	-5000.000
218.84	688.889
219.22	685.714
219.59	1633.333
219.97	-600.000
220.34	960.000
220.72	-1866.667
221.09	414.286
221.47	1475.000
221.84	-1033.333
222.22	0.000
222.59	1225.000
222.97	-2900.000
223.34	1140.000
223.72	492.308
224.09	1060.000
224.46	1450.000
224.84	-3900.000
225.21	-940.000
225.59	-5200.000
225.96	550.000
226.34	320.000
226.71	2850.000
227.08	650.000
227.46	510.000
227.83	-1050.000
228.21	-2250.000
228.58	633.333
228.95	-2250.000
229.33	-2550.000
229.70	1466.667
230.08	757.143
230.45	-860.000
230.82	433.333
231.20	800.000
231.57	857.143
231.95	483.333
232.32	218.182
232.69	445.455
233.07	628.571
233.44	307.692
233.81	-1600.000
234.19	278.947
234.56	475.000
234.93	333.333
235.31	427.273
235.68	276.923
236.05	335.714
236.43	190.909
236.80	226.316
237.17	5200.000
237.55	228.571
237.92	189.286
238.29	252.381
238.67	145.161
239.04	196.552
239.41	152.778
239.79	93.478
240.16	133.333
240.53	125.000
240.91	76.471
241.28	98.000
241.65	84.000
242.02	91.304
242.40	70.968
242.77	73.333
243.14	55.914
243.51	58.427
243.89	49.412
244.26	62.222
244.63	37.634
245.00	41.489
245.38	37.624
245.75	40.187
246.12	42.202
246.49	40.146
246.87	56.800
247.24	34.615
247.61	36.429
247.98	37.255
248.36	26.351
248.73	31.210
249.10	30.573
249.47	24.294
249.84	34.759
250.22	26.203
250.59	23.077
250.96	31.818
251.33	22.749
251.70	26.733
252.08	22.857
252.45	20.628
252.82	18.696
253.19	19.574
253.56	23.529
253.94	20.747
254.31	23.047
254.68	18.462
255.05	22.140
255.42	21.951
255.79	17.279
256.16	22.744
256.54	18.375
256.91	18.149
257.28	14.748
257.65	16.502
258.02	17.702
258.39	15.457
258.76	14.047
259.14	16.369
259.51	17.629
259.88	14.907
260.25	19.940
260.62	13.584
260.99	15.217
261.36	18.018
261.73	11.175
262.10	11.919
262.47	15.775
262.85	13.649
263.22	8.547
263.59	16.809
263.96	13.187
264.33	13.055
264.70	11.579
265.07	15.090
265.44	14.394
265.81	12.409
266.18	14.573
266.55	12.683
266.92	14.496
267.29	14.352
267.66	9.862
268.03	14.545
268.40	13.551
268.77	9.069
269.14	10.811
269.51	13.093
269.88	12.121
270.25	10.609
270.62	11.461
270.99	14.409
271.36	10.730
271.73	10.748
272.10	11.522
272.47	11.828
272.84	12.121
273.21	12.369
273.58	10.699
273.95	11.321
274.32	9.711
274.69	10.921
275.06	10.827
275.43	11.915
275.80	9.619
276.17	10.998
276.54	11.850
276.91	9.289
277.28	10.156
277.65	11.412
278.02	7.660
278.39	13.672
278.76	10.364
279.13	10.755
279.50	10.801
279.87	12.351
280.23	7.984
280.60	9.284
280.97	8.688
281.34	10.619
281.71	12.182
282.08	9.405
282.45	8.000
282.82	10.480
283.19	6.774
283.56	8.947
283.92	10.491
284.29	8.289
284.66	7.260
285.03	8.499
285.40	9.859
285.77	7.407
286.14	6.563
286.51	9.500
286.87	8.376
287.24	9.609
287.61	7.223
287.98	8.929
288.35	7.924
288.72	9.502
289.08	9.077
289.45	7.743
289.82	8.130
290.19	6.907
290.56	9.035
290.93	7.251
291.29	9.969
291.66	7.375
292.03	9.448
292.40	9.251
292.77	6.361
293.13	9.254
293.50	8.455
293.87	7.704
294.24	7.704
294.60	6.696
294.97	7.703
295.34	9.450
295.71	8.381
296.08	6.553
296.44	6.327
296.81	6.473
297.18	7.724
297.55	5.013
297.91	6.860
298.28	7.631
298.65	7.180
299.02	7.905
299.38	7.304
299.75	4.717
300.12	5.364
300.48	5.625
300.85	6.042
301.22	5.350
301.59	6.439
301.95	6.927
302.32	5.777
302.69	6.930
303.05	6.545
303.42	6.790
303.79	5.889
304.15	4.895
304.52	6.025
304.89	4.646
305.25	5.916
305.62	6.682
305.99	6.139
306.35	5.705
306.72	6.502
307.09	6.326
307.45	6.419
307.82	5.357
308.19	6.402
308.55	7.335
308.92	5.156
309.29	5.491
309.65	5.726
310.02	6.977
310.38	5.484
310.75	6.230
311.12	6.448
311.48	5.225
311.85	6.709
312.22	5.619
312.58	5.509
312.95	6.019
313.31	4.757
313.68	4.990
314.05	7.199
314.41	5.628
314.78	4.834
315.14	4.965
315.51	5.870
315.87	6.535
316.24	6.455
316.61	6.140
316.97	4.892
317.34	3.620
317.70	6.405
318.07	5.390
318.43	4.892
318.80	6.467
319.16	6.121
319.53	4.972
319.89	6.952
320.26	7.500
320.62	6.151
320.99	6.162
321.35	5.960
321.72	5.236
322.08	7.305
322.45	7.761
322.81	6.589
323.18	6.840
323.54	6.215
323.91	6.604
324.27	6.597
324.64	4.939
325.00	5.771
325.37	6.915
325.73	6.912
326.10	5.649
326.46	4.928
326.83	6.644
327.19	6.063
327.56	5.923
327.92	6.299
328.29	6.300
328.65	6.814
329.01	6.498
329.38	5.643
329.74	6.371
330.11	6.409
330.47	7.254
330.84	7.261
331.20	6.740
331.56	7.064
331.93	6.667
332.29	7.276
332.66	7.080
333.02	6.947
333.38	6.865
333.75	6.417
334.11	6.050
334.48	5.856
334.84	5.882
335.20	6.727
335.57	5.984
335.93	4.554
336.29	6.044
336.66	6.853
337.02	5.973
337.38	6.204
337.75	5.704
338.11	5.909
338.47	6.446
338.84	5.683
339.20	5.505
339.56	6.387
339.93	5.364
340.29	5.072
340.65	5.971
341.02	6.370
341.38	6.139
341.74	7.018
342.11	7.162
342.47	5.198
342.83	5.993
343.20	7.273
343.56	6.740
343.92	5.789
344.28	6.803
344.65	6.535
345.01	6.313
345.37	4.631
345.73	6.430
346.10	5.882
346.46	5.763
346.82	5.766
347.19	4.762
347.55	5.665
347.91	5.987
348.27	6.245
348.63	5.853
349.00	6.230
349.36	5.665
349.72	5.854
350.08	5.429
350.45	6.184
350.81	4.955
351.17	6.483
351.53	5.324
351.89	5.363
352.26	5.604
352.62	5.774
352.98	5.348
353.34	5.259
353.70	5.728
354.07	5.968
354.43	6.270
354.79	5.310
355.15	6.065
355.51	6.715
355.87	5.633
356.24	5.456
356.60	5.373
356.96	5.551
357.32	5.315
357.68	5.827
358.04	5.384
358.40	6.176
358.77	6.182
359.13	5.130
359.49	5.569
359.85	4.048
360.21	5.024
360.57	6.070
360.93	5.462
361.29	5.215
361.66	4.721
362.02	5.672
362.38	6.008
362.74	5.506
363.10	4.811
363.46	4.989
363.82	5.593
364.18	5.433
364.54	5.721
364.90	5.524
365.26	5.735
365.62	5.551
365.98	5.113
366.35	4.943
366.71	5.423
367.07	5.462
367.43	5.007
367.79	5.710
368.15	6.466
368.51	4.215
368.87	5.853
369.23	5.413
369.59	5.286
369.95	5.662
370.31	5.342
370.67	5.290
371.03	6.292
371.39	5.977
371.75	5.221
372.11	5.619
372.47	5.352
372.83	5.620
373.19	4.841
373.55	5.026
373.91	5.965
374.27	4.948
374.63	4.727
374.99	5.367
375.35	4.676
375.71	5.278
376.07	6.447
376.42	4.677
376.78	5.765
377.14	5.088
377.50	5.364
377.86	4.122
378.22	4.994
378.58	4.762
378.94	4.965
379.30	4.389
379.66	5.013
380.02	4.853
380.38	4.554
380.74	5.522
381.09	5.501
381.45	5.655
381.81	5.037
382.17	5.159
382.53	4.969
382.89	5.185
383.25	3.815
383.61	4.647
383.97	5.316
384.32	5.178
384.68	4.585
385.04	5.470
385.40	5.015
385.76	4.853
386.12	4.598
386.48	5.412
386.83	5.709
387.19	5.751
387.55	5.257
387.91	4.776
388.27	5.273
388.62	5.224
388.98	5.405
389.34	5.382
389.70	5.028
390.06	5.387
390.42	4.345
390.77	5.216
391.13	5.169
391.49	5.393
391.85	4.838
392.20	4.479
392.56	4.924
392.92	5.121
393.28	4.024
393.64	5.276
393.99	5.620
394.35	4.777
394.71	5.395
395.07	4.860
395.42	5.192
395.78	5.407
396.14	4.842
396.50	5.702
396.85	5.213
397.21	4.871
397.57	5.332
397.92	4.808
398.28	4.540
398.64	5.137
399.00	5.036
399.35	4.569
399.71	4.861
400.07	4.967
400.42	5.276
400.78	5.730
401.14	4.268
401.49	4.657
401.85	4.537
402.21	4.910
402.57	5.182
402.92	4.918
403.28	5.122
403.63	5.012
403.99	4.204
404.35	4.848
404.70	4.197
405.06	4.601
405.42	4.866
405.77	4.514
406.13	4.402
406.49	4.731
406.84	4.843
407.20	4.019
407.55	4.531
407.91	4.800
408.27	4.659
408.62	5.238
408.98	4.350
409.34	4.920
409.69	4.710
410.05	4.275
410.40	4.709
410.76	3.943
411.11	5.127
411.47	4.473
411.83	5.376
412.18	4.453
412.54	4.732
412.89	5.181
413.25	4.959
413.60	4.632
413.96	5.100
414.31	4.860
414.67	4.943
415.03	4.967
415.38	5.477
415.74	4.952
416.09	5.029
416.45	4.953
416.80	4.891
417.16	4.893
417.51	4.645
417.87	4.367
418.22	5.931
418.58	5.358
418.93	5.528
419.29	5.411
419.64	5.353
420.00	5.183
420.35	4.812
420.71	5.439
421.06	4.415
421.42	3.977
421.77	4.821
422.12	4.267
422.48	3.346
422.83	4.659
423.19	4.751
423.54	4.701
423.90	4.696
424.25	4.634
424.61	4.107
424.96	4.198
425.31	4.430
425.67	4.326
426.02	4.857
426.38	4.335
426.73	4.389
427.09	3.891
427.44	4.255
427.79	3.968
428.15	4.464
428.50	5.266
428.85	5.066
429.21	4.197
429.56	4.821
429.92	4.227
430.27	4.220
430.62	4.352
430.98	5.138
431.33	4.433
431.68	4.346
432.04	4.153
432.39	4.340
432.74	5.087
433.10	3.962
433.45	4.315
433.80	3.936
434.16	4.808
434.51	4.947
434.86	4.333
435.22	4.447
435.57	5.228
435.92	4.564
436.28	5.160
436.63	5.243
436.98	4.007
437.34	4.532
437.69	4.726
438.04	4.384
438.39	4.537
438.75	4.881
439.10	4.637
439.45	4.900
439.81	3.927
440.16	4.348
440.51	4.159
440.86	4.806
441.22	4.171
441.57	4.777
441.92	4.094
442.27	4.629
442.63	3.844
442.98	4.901
443.33	4.185
443.68	4.233
444.03	4.002
444.39	3.603
444.74	4.167
445.09	4.528
445.44	4.265
445.79	4.156
446.15	5.029
446.50	4.146
446.85	4.368
447.20	4.488
447.55	4.188
447.91	4.688
448.26	4.508
448.61	4.748
448.96	5.094
449.31	4.556
449.66	4.389
450.02	4.457
450.37	4.705
450.72	4.230
451.07	4.692
451.42	4.195
451.77	5.402
452.12	5.254
452.47	5.348
452.83	4.837
453.18	4.890
453.53	4.453
453.88	4.253
454.23	4.603
454.58	5.754
454.93	5.213
455.28	4.613
455.63	4.430
455.98	5.893
456.34	4.146
456.69	5.197
457.04	5.263
457.39	4.734
457.74	4.701
458.09	4.543
458.44	5.074
458.79	4.501
459.14	4.797
459.49	5.020
459.84	4.100
460.19	4.478
460.54	4.051
460.89	5.156
461.24	4.918
461.59	6.159
461.94	4.686
462.29	5.697
462.64	5.105
462.99	4.489
463.34	6.267
463.69	5.253
464.04	4.986
464.39	4.870
464.74	5.348
465.09	4.524
465.44	4.543
465.79	4.754
466.14	4.871
466.49	4.672
466.84	4.729
467.19	5.673
467.54	5.000
467.89	4.382
468.24	5.526
468.59	5.067
468.94	5.192
469.29	4.627
469.64	5.689
469.99	5.074
470.34	4.161
470.68	4.598
471.03	4.422
471.38	5.629
471.73	5.463
472.08	5.461
472.43	5.402
472.78	4.542
473.13	5.135
473.48	5.618
473.83	4.878
474.17	3.983
474.52	5.583
474.87	4.962
475.22	4.875
475.57	4.621
475.92	4.461
476.27	4.679
476.61	4.082
476.96	4.398
477.31	4.605
477.66	4.705
478.01	4.861
478.36	4.495
478.70	3.894
479.05	4.207
479.40	4.350
479.75	4.169
480.10	3.926
480.45	4.141
480.79	4.157
481.14	3.669
481.49	4.556
481.84	4.527
482.19	4.407
482.53	4.174
482.88	4.421
483.23	4.346
483.58	4.914
483.92	4.030
484.27	3.704
484.62	4.181
484.97	3.784
485.31	3.801
485.66	3.048
486.01	2.542
486.36	2.804
486.70	2.471
487.05	2.842
487.40	3.090
487.75	3.067
488.09	3.276
488.44	3.269
488.79	3.761
489.13	3.820
489.48	3.834
489.83	4.014
490.17	4.077
490.52	4.074
490.87	3.844
491.22	3.729
491.56	3.645
491.91	4.467
492.26	4.410
492.60	4.470
492.95	3.882
493.30	4.065
493.64	4.106
493.99	3.900
494.34	4.255
494.68	3.846
495.03	4.135
495.37	4.095
495.72	4.337
496.07	4.084
496.41	3.673
496.76	3.914
497.11	4.277
497.45	4.145
497.80	4.319
498.14	3.623
498.49	3.561
498.84	4.506
499.18	4.143
499.53	4.036
499.87	3.868
500.22	4.098
500.56	4.417
500.91	3.558
501.26	4.599
501.60	4.082
501.95	4.629
502.29	4.405
502.64	4.097
502.98	4.021
503.33	4.433
503.67	4.455
504.02	3.929
504.36	4.539
504.71	4.104
505.06	4.482
505.40	3.986
505.75	4.098
506.09	4.568
506.44	3.996
506.78	4.871
507.13	4.543
507.47	4.747
507.82	4.813
508.16	4.407
508.51	4.211
508.85	3.873
509.19	4.082
509.54	3.980
509.88	4.482
510.23	3.805
510.57	5.263
510.92	4.661
511.26	4.522
511.61	4.564
511.95	4.175
512.30	3.871
512.64	4.782
512.98	4.180
513.33	5.032
513.67	4.589
514.02	4.329
514.36	4.697
514.70	4.206
515.05	4.183
515.39	4.375
515.74	4.730
516.08	5.310
516.42	4.828
516.77	5.072
517.11	4.550
517.46	5.079
517.80	4.762
518.14	3.764
518.49	4.667
518.83	4.943
519.17	4.734
519.52	4.924
519.86	5.077
520.20	5.434
520.55	4.847
520.89	5.292
521.23	5.609
521.58	4.442
521.92	5.450
522.26	4.881
522.61	5.234
522.95	4.236
523.29	5.295
523.64	4.878
523.98	4.806
524.32	4.644
524.66	5.352
525.01	5.025
525.35	4.585
525.69	4.926
526.04	5.171
526.38	5.552
526.72	5.583
527.06	5.461
527.41	4.022
527.75	5.080
528.09	4.432
528.43	4.908
528.78	4.179
529.12	4.848
529.46	5.328
529.80	5.507
530.15	4.860
530.49	4.492
530.83	5.823
531.17	5.679
531.51	5.447
531.86	5.548
532.20	5.997
532.54	5.317
532.88	5.263
533.22	5.309
533.57	5.309
533.91	5.178
534.25	5.772
534.59	4.820
534.93	5.354
535.27	5.311
535.62	4.884
535.96	5.273
536.30	5.022
536.64	5.795
536.98	4.711
537.32	4.740
537.66	5.067
538.01	5.464
538.35	5.107
538.69	5.616
539.03	5.003
539.37	5.176
539.71	4.083
540.05	5.359
540.39	5.050
540.73	4.916
541.07	5.581
541.42	5.610
541.76	5.161
542.10	5.110
542.44	5.364
542.78	5.731
543.12	4.543
543.46	6.230
543.80	5.530
544.14	5.327
544.48	5.397
544.82	4.875
545.16	4.945
545.50	4.692
545.84	4.906
546.18	5.185
546.52	5.850
546.86	4.605
547.20	6.069
547.54	4.876
547.88	6.569
548.22	5.293
548.56	5.472
548.90	5.186
549.24	5.051
549.58	5.321
549.92	5.357
550.26	5.256
550.60	5.463
550.94	5.141
551.28	5.340
551.62	5.607
551.96	4.632
552.30	6.553
552.64	5.409
552.98	6.305
553.32	5.866
553.66	5.453
554.00	5.628
554.34	5.590
554.68	5.222
555.02	5.853
555.36	5.776
555.69	5.480
556.03	4.913
556.37	5.798
556.71	4.843
557.05	5.532
557.39	6.298
557.73	5.293
558.07	5.439
558.41	5.137
558.75	4.923
559.08	5.742
559.42	4.989
559.76	5.662
560.10	4.711
560.44	6.219
560.78	5.323
561.12	4.617
561.45	5.606
561.79	4.812
562.13	4.695
562.47	5.943
562.81	4.951
563.15	5.217
563.48	5.438
563.82	4.827
564.16	5.036
564.50	4.362
564.84	5.120
565.17	4.376
565.51	5.495
565.85	5.330
566.19	4.571
566.52	4.750
566.86	4.882
567.20	5.248
567.54	5.194
567.88	4.345
568.21	4.656
568.55	4.601
568.89	4.377
569.23	3.877
569.56	4.332
569.90	3.925
570.24	3.588
570.57	3.536
570.91	3.264
571.25	3.582
571.59	3.417
571.92	3.341
572.26	3.351
572.60	3.063
572.93	3.268
573.27	3.608
573.61	3.406
573.95	3.463
574.28	3.216
574.62	3.061
574.96	2.987
575.29	3.104
575.63	3.354
575.97	3.176
576.30	3.346
576.64	3.285
576.98	2.868
577.31	3.189
577.65	2.975
577.98	2.915
578.32	2.820
578.66	3.166
578.99	3.127
579.33	2.784
579.67	2.676
580.00	2.901
580.34	3.275
580.67	3.143
581.01	3.283
581.35	2.904
581.68	2.938
582.02	2.711
582.35	2.821
582.69	2.824
583.02	2.699
583.36	3.205
583.70	3.072
584.03	2.978
584.37	3.505
584.70	2.874
585.04	3.033
585.37	2.959
585.71	3.148
586.04	3.310
586.38	3.187
586.72	3.480
587.05	3.151
587.39	3.008
587.72	3.221
588.06	3.415
588.39	3.347
588.73	2.875
589.06	3.677
589.40	3.199
589.73	3.379
590.07	3.737
590.40	3.398
590.73	3.825
591.07	4.233
591.40	3.965
591.74	3.983
592.07	4.450
592.41	3.803
592.74	3.858
593.08	3.564
593.41	3.733
593.75	3.435
594.08	3.185
594.41	3.853
594.75	3.401
595.08	3.865
595.42	4.028
595.75	3.775
596.09	3.980
596.42	4.401
596.75	4.179
597.09	4.892
597.42	3.583
597.75	4.226
598.09	4.522
598.42	4.081
598.76	3.972
599.09	3.573
599.42	3.857
599.76	4.026
600.09	3.898
600.42	3.360
600.76	3.464
601.09	3.825
601.42	3.919
601.76	4.099
602.09	3.794
602.42	4.260
602.76	4.071
603.09	3.855
603.42	4.256
603.76	3.773
604.09	4.071
604.42	4.036
604.76	4.850
605.09	4.194
605.42	4.318
605.75	3.891
606.09	3.497
606.42	3.719
606.75	4.148
607.09	4.604
607.42	3.466
607.75	3.460
608.08	3.995
608.42	4.213
608.75	4.193
609.08	4.487
609.41	3.998
609.75	4.335
610.08	4.807
610.41	3.724
610.74	3.974
611.07	4.891
611.41	4.269
611.74	4.726
612.07	4.348
612.40	4.617
612.73	4.842
613.07	4.634
613.40	4.845
613.73	3.985
614.06	4.355
614.39	4.929
614.72	5.000
615.06	4.832
615.39	4.777
615.72	4.550
616.05	4.306
616.38	4.669
616.71	5.048
617.05	5.418
617.38	4.690
617.71	4.024
618.04	5.349
618.37	4.908
618.70	5.974
619.03	5.592
619.36	5.838
619.69	5.915
620.03	5.563
620.36	5.481
620.69	6.370
621.02	6.047
621.35	5.560
621.68	5.218
622.01	6.192
622.34	5.673
622.67	4.259
623.00	4.769
623.33	4.861
623.66	6.076
623.99	5.523
624.32	4.993
624.65	5.014
624.99	5.099
625.32	5.069
625.65	5.409
625.98	6.226
626.31	6.454
626.64	6.041
626.97	5.819
627.30	5.237
627.63	6.317
627.96	6.308
628.29	6.299
628.62	6.404
628.95	7.547
629.28	7.026
629.61	6.874
629.94	6.095
630.26	6.006
630.59	7.912
630.92	6.418
631.25	5.726
631.58	7.908
631.91	7.606
632.24	5.591
632.57	7.555
632.90	6.908
633.23	6.935
633.56	6.780
633.89	7.588
634.22	7.719
634.55	8.166
634.88	6.228
635.20	8.961
635.53	8.916
635.86	7.302
636.19	7.765
636.52	7.728
636.85	8.820
637.18	7.949
637.51	9.102
637.83	5.549
638.16	7.673
638.49	8.564
638.82	8.091
639.15	10.000
639.48	9.227
639.81	8.043
640.13	7.943
640.46	8.725
640.79	9.908
641.12	7.153
641.45	7.821
641.77	8.247
642.10	8.480
642.43	8.258
642.76	9.288
643.09	8.896
643.41	9.408
643.74	7.407
644.07	7.774
644.40	10.890
644.73	12.126
645.05	10.935
645.38	8.531
645.71	8.052
646.04	11.296
646.36	10.684
646.69	10.702
647.02	11.054
647.35	10.653
647.67	9.735
648.00	9.756
648.33	8.416
648.66	9.394
648.98	9.745
649.31	8.371
649.64	9.567
649.96	8.197
650.29	9.953
650.62	8.414
650.94	11.183
651.27	9.628
651.60	8.985
651.92	9.744
652.25	8.632
652.58	7.944
652.90	9.479
653.23	8.629
653.56	9.921
653.88	10.301
654.21	9.795
