SpectraSuite Data File
++++++++++++++++++++++++++++++++++++
Date: Wed May 13 16:25:22 PDT 2015
User: schluterlab
Dark Spectrum Present: Yes
Reference Spectrum Present: Yes
Number of Sampled Component Spectra: 1
Spectrometers: USB2E3373
Integration Time (usec): 3000 (USB2E3373)
Spectra Averaged: 3 (USB2E3373)
Boxcar Smoothing: 0 (USB2E3373)
Correct for Electrical Dark: No (USB2E3373)
Strobe/Lamp Enabled: No (USB2E3373)
Correct for Detector Non-linearity: No (USB2E3373)
Correct for Stray Light: No (USB2E3373)
Number of Pixels in Processed Spectrum: 2048
>>>>>Begin Processed Spectral Data<<<<<
178.53	0.000
178.91	-1125.000
179.29	-1225.000
179.67	-244.444
180.04	-1200.000
180.42	2850.000
180.80	1200.000
181.18	-1025.000
181.56	557.143
181.94	0.000
182.31	-557.143
182.69	1600.000
183.07	-600.000
183.45	-466.667
183.83	572.727
184.20	-410.000
184.58	1750.000
184.96	4400.000
185.34	-780.000
185.72	-575.000
186.09	-2450.000
186.47	2300.000
186.85	2000.000
187.23	4000.000
187.61	-1633.333
187.98	1075.000
188.36	527.273
188.74	490.909
189.12	-960.000
189.49	480.000
189.87	-4700.000
190.25	-1225.000
190.63	428.571
191.00	407.692
191.38	733.333
191.76	-875.000
192.14	1675.000
192.51	637.500
192.89	1116.667
193.27	562.500
193.65	-1150.000
194.02	430.000
194.40	900.000
194.78	590.000
195.15	500.000
195.53	610.000
195.91	-2200.000
196.29	337.500
196.66	289.474
197.04	-410.000
197.42	0.000
197.79	670.000
198.17	-4100.000
198.55	671.429
198.92	700.000
199.30	820.000
199.68	0.000
200.05	322.222
200.43	785.714
200.81	4200.000
201.18	1600.000
201.56	-1633.333
201.94	577.778
202.31	600.000
202.69	375.000
203.07	480.000
203.44	0.000
203.82	1200.000
204.19	800.000
204.57	450.000
204.95	600.000
205.32	1733.333
205.70	509.091
206.08	421.429
206.45	2300.000
206.83	356.250
207.20	883.333
207.58	620.000
207.96	266.667
208.33	675.000
208.71	-700.000
209.08	728.571
209.46	577.778
209.84	418.182
210.21	-1500.000
210.59	1100.000
210.96	-662.500
211.34	2000.000
211.71	550.000
212.09	683.333
212.46	0.000
212.84	1900.000
213.22	1475.000
213.59	-4900.000
213.97	850.000
214.34	757.143
214.72	572.727
215.09	920.000
215.47	-2250.000
215.84	-2300.000
216.22	1766.667
216.59	278.571
216.97	1150.000
217.34	472.727
217.72	-766.667
218.09	0.000
218.47	-5400.000
218.84	700.000
219.22	757.143
219.59	1633.333
219.97	-500.000
220.34	780.000
220.72	-1766.667
221.09	364.286
221.47	1075.000
221.84	-783.333
222.22	0.000
222.59	1500.000
222.97	-1850.000
223.34	1060.000
223.72	446.154
224.09	1160.000
224.46	2500.000
224.84	-4900.000
225.21	-980.000
225.59	-4500.000
225.96	550.000
226.34	230.000
226.71	2600.000
227.08	525.000
227.46	450.000
227.83	-975.000
228.21	-2300.000
228.58	566.667
228.95	-2300.000
229.33	-2500.000
229.70	1666.667
230.08	771.429
230.45	-880.000
230.82	433.333
231.20	716.667
231.57	785.714
231.95	425.000
232.32	259.091
232.69	490.909
233.07	614.286
233.44	423.077
233.81	-1466.667
234.19	257.895
234.56	500.000
234.93	450.000
235.31	418.182
235.68	276.923
236.05	278.571
236.43	175.758
236.80	257.895
237.17	3800.000
237.55	238.095
237.92	171.429
238.29	276.190
238.67	190.323
239.04	206.897
239.41	161.111
239.79	121.739
240.16	152.381
240.53	159.091
240.91	113.725
241.28	98.000
241.65	104.000
242.02	85.507
242.40	104.839
242.77	96.667
243.14	77.419
243.51	82.022
243.89	87.059
244.26	72.222
244.63	80.645
245.00	75.532
245.38	70.297
245.75	66.355
246.12	66.972
246.49	63.504
246.87	70.400
247.24	64.615
247.61	58.571
247.98	58.824
248.36	52.703
248.73	51.592
249.10	56.688
249.47	46.328
249.84	54.011
250.22	50.267
250.59	53.846
250.96	51.010
251.33	52.133
251.70	50.000
252.08	49.524
252.45	42.152
252.82	46.957
253.19	46.383
253.56	43.137
253.94	49.378
254.31	46.875
254.68	44.231
255.05	47.232
255.42	41.870
255.79	45.221
256.16	44.765
256.54	38.163
256.91	42.349
257.28	36.691
257.65	40.924
258.02	40.994
258.39	41.640
258.76	42.140
259.14	41.369
259.51	38.298
259.88	38.509
260.25	42.598
260.62	36.127
260.99	38.509
261.36	39.039
261.73	40.688
262.10	39.535
262.47	38.028
262.85	38.719
263.22	36.467
263.59	39.031
263.96	36.538
264.33	37.859
264.70	36.053
265.07	38.107
265.44	37.879
265.81	35.280
266.18	37.437
266.55	37.561
266.92	37.838
267.29	37.963
267.66	38.761
268.03	36.818
268.40	35.748
268.77	33.652
269.14	35.586
269.51	37.246
269.88	36.364
270.25	34.537
270.62	31.685
270.99	37.849
271.36	36.481
271.73	32.710
272.10	35.652
272.47	33.978
272.84	38.095
273.21	32.285
273.58	33.188
273.95	31.656
274.32	33.058
274.69	35.118
275.06	32.874
275.43	37.021
275.80	32.064
276.17	32.179
276.54	37.214
276.91	34.980
277.28	33.594
277.65	33.462
278.02	33.333
278.39	34.570
278.76	32.909
279.13	33.962
279.50	32.775
279.87	34.064
280.23	32.735
280.60	31.915
280.97	32.163
281.34	32.389
281.71	32.182
282.08	34.549
282.45	32.545
282.82	31.083
283.19	31.194
283.56	33.333
283.92	32.826
284.29	31.570
284.66	32.305
285.03	30.922
285.40	33.451
285.77	30.303
286.14	31.779
286.51	33.000
286.87	30.427
287.24	32.573
287.61	27.448
287.98	30.844
288.35	30.586
288.72	30.218
289.08	31.299
289.45	29.160
289.82	29.756
290.19	29.670
290.56	28.637
290.93	29.154
291.29	29.601
291.66	26.844
292.03	29.942
292.40	28.928
292.77	27.219
293.13	28.060
293.50	28.280
293.87	25.481
294.24	26.815
294.60	25.036
294.97	27.180
295.34	26.375
295.71	27.983
296.08	24.644
296.44	26.272
296.81	24.439
297.18	24.932
297.55	23.351
297.91	24.142
298.28	27.443
298.65	25.065
299.02	24.769
299.38	25.365
299.75	23.181
300.12	24.904
300.48	24.125
300.85	23.181
301.22	23.567
301.59	22.727
301.95	24.055
302.32	22.850
302.69	22.581
303.05	24.000
303.42	22.593
303.79	23.216
304.15	22.844
304.52	22.364
304.89	24.158
305.25	22.506
305.62	23.330
305.99	23.022
306.35	23.602
306.72	23.991
307.09	24.306
307.45	22.748
307.82	21.429
308.19	23.400
308.55	22.977
308.92	22.127
309.29	20.591
309.65	21.421
310.02	22.622
310.38	22.151
310.75	22.598
311.12	21.290
311.48	23.720
311.85	22.642
312.22	23.621
312.58	22.141
312.95	23.654
313.31	22.427
313.68	23.077
314.05	24.359
314.41	23.417
314.78	22.659
315.14	22.046
315.51	22.760
315.87	25.347
316.24	22.542
316.61	22.417
316.97	22.896
317.34	21.820
317.70	23.709
318.07	24.350
318.43	24.168
318.80	24.180
319.16	23.164
319.53	23.546
319.89	24.095
320.26	26.000
320.62	25.198
320.99	25.960
321.35	26.465
321.72	26.489
322.08	25.666
322.45	27.065
322.81	25.097
323.18	26.686
323.54	26.160
323.91	25.943
324.27	27.055
324.64	25.815
325.00	26.420
325.37	28.025
325.73	28.007
326.10	28.155
326.46	28.405
326.83	28.387
327.19	28.437
327.56	28.484
327.92	28.171
328.29	29.104
328.65	29.834
329.01	29.874
329.38	28.492
329.74	28.624
330.11	28.746
330.47	29.660
330.84	29.871
331.20	28.871
331.56	30.000
331.93	29.352
332.29	29.991
332.66	30.442
333.02	29.982
333.38	30.533
333.75	29.679
334.11	30.249
334.48	29.814
334.84	28.952
335.20	31.000
335.57	29.737
335.93	29.911
336.29	29.487
336.66	29.847
337.02	29.502
337.38	31.111
337.75	29.144
338.11	30.439
338.47	29.834
338.84	31.347
339.20	28.716
339.56	31.022
339.93	31.000
340.29	28.714
340.65	31.373
341.02	31.152
341.38	30.605
341.74	29.825
342.11	29.956
342.47	29.692
342.83	30.223
343.20	30.563
343.56	28.138
343.92	30.175
344.28	30.187
344.65	31.126
345.01	29.714
345.37	29.417
345.73	29.188
346.10	30.605
346.46	30.169
346.82	30.148
347.19	29.073
347.55	28.818
347.91	30.583
348.27	31.964
348.63	29.849
349.00	30.421
349.36	29.146
349.72	29.751
350.08	29.903
350.45	30.024
350.81	28.838
351.17	30.065
351.53	28.993
351.89	28.795
352.26	31.097
352.62	30.072
352.98	30.389
353.34	30.485
353.70	29.460
354.07	30.968
354.43	29.603
354.79	29.847
355.15	29.130
355.51	31.415
355.87	30.041
356.24	30.700
356.60	30.152
356.96	30.813
357.32	30.989
357.68	31.260
358.04	29.929
358.40	31.591
358.77	30.908
359.13	29.282
359.49	29.725
359.85	28.651
360.21	30.223
360.57	30.739
360.93	29.615
361.29	30.234
361.66	30.805
362.02	30.746
362.38	30.875
362.74	30.580
363.10	30.644
363.46	30.081
363.82	30.612
364.18	30.910
364.54	30.758
364.90	30.382
365.26	30.147
365.62	31.118
365.98	29.657
366.35	30.516
366.71	31.598
367.07	30.663
367.43	31.277
367.79	31.049
368.15	31.825
368.51	30.814
368.87	30.121
369.23	30.724
369.59	31.209
369.95	30.735
370.31	31.909
370.67	31.304
371.03	31.685
371.39	31.997
371.75	32.059
372.11	32.290
372.47	31.598
372.83	32.565
373.19	31.503
373.55	32.373
373.91	32.253
374.27	31.890
374.63	30.764
374.99	33.757
375.35	32.170
375.71	32.557
376.07	33.059
376.42	33.150
376.78	32.671
377.14	32.768
377.50	32.848
377.86	32.048
378.22	33.628
378.58	32.519
378.94	32.370
379.30	32.570
379.66	33.756
380.02	33.845
380.38	32.240
380.74	33.794
381.09	33.252
381.45	34.358
381.81	33.722
382.17	34.459
382.53	33.522
382.89	34.074
383.25	33.646
383.61	34.572
383.97	33.709
384.32	34.248
384.68	33.767
385.04	34.419
385.40	33.932
385.76	34.091
386.12	34.715
386.48	36.186
386.83	36.177
387.19	35.745
387.55	34.818
387.91	34.220
388.27	35.806
388.62	36.140
388.98	34.459
389.34	36.108
389.70	35.254
390.06	36.882
390.42	36.900
390.77	36.260
391.13	36.631
391.49	37.119
391.85	34.691
392.20	35.899
392.56	36.174
392.92	36.904
393.28	36.272
393.64	36.751
393.99	36.652
394.35	36.290
394.71	36.010
395.07	36.075
395.42	36.650
395.78	37.277
396.14	35.940
396.50	37.970
396.85	38.271
397.21	36.190
397.57	37.632
397.92	37.440
398.28	36.491
398.64	37.336
399.00	37.045
399.35	36.774
399.71	37.037
400.07	37.670
400.42	36.810
400.78	37.214
401.14	37.439
401.49	37.254
401.85	36.298
402.21	37.246
402.57	36.952
402.92	38.083
403.28	37.352
403.63	37.252
403.99	37.197
404.35	37.879
404.70	37.290
405.06	37.391
405.42	36.931
405.77	37.714
406.13	37.020
406.49	37.493
406.84	37.744
407.20	36.288
407.55	36.694
407.91	38.200
408.27	37.971
408.62	37.628
408.98	37.561
409.34	38.684
409.69	38.258
410.05	38.352
410.40	38.043
410.76	37.694
411.11	37.696
411.47	37.508
411.83	38.119
412.18	37.972
412.54	38.854
412.89	37.651
413.25	37.308
413.60	38.789
413.96	37.098
414.31	37.971
414.67	37.643
415.03	38.609
415.38	38.595
415.74	39.035
416.09	38.733
416.45	37.952
416.80	38.004
417.16	38.941
417.51	37.823
417.87	36.802
418.22	38.549
418.58	38.025
418.93	36.732
419.29	38.320
419.64	38.098
420.00	38.049
420.35	38.203
420.71	39.211
421.06	37.947
421.42	37.778
421.77	37.724
422.12	38.069
422.48	36.643
422.83	38.905
423.19	37.348
423.54	37.551
423.90	37.565
424.25	37.242
424.61	37.976
424.96	37.668
425.31	37.320
425.67	36.011
426.02	37.429
426.38	39.560
426.73	36.864
427.09	37.751
427.44	36.170
427.79	37.090
428.15	37.857
428.50	37.390
428.85	37.247
429.21	37.162
429.56	37.273
429.92	37.343
430.27	36.941
430.62	36.354
430.98	37.208
431.33	36.701
431.68	36.440
432.04	35.836
432.39	36.265
432.74	37.522
433.10	37.634
433.45	37.609
433.80	36.641
434.16	36.538
434.51	36.368
434.86	37.514
435.22	37.132
435.57	37.264
435.92	35.576
436.28	37.307
436.63	37.528
436.98	36.405
437.34	36.673
437.69	37.923
438.04	37.212
438.39	36.179
438.75	36.897
439.10	37.263
439.45	37.013
439.81	37.462
440.16	37.436
440.51	36.087
440.86	36.537
441.22	35.539
441.57	36.306
441.92	36.899
442.27	36.598
442.63	35.598
442.98	36.507
443.33	36.196
443.68	36.913
444.03	36.310
444.39	35.784
444.74	36.039
445.09	36.442
445.44	34.445
445.79	35.181
446.15	36.474
446.50	35.595
446.85	35.817
447.20	35.747
447.55	36.237
447.91	35.852
448.26	35.337
448.61	35.048
448.96	36.379
449.31	35.714
449.66	35.791
450.02	35.153
450.37	35.488
450.72	35.984
451.07	34.735
451.42	34.833
451.77	36.289
452.12	35.277
452.47	36.132
452.83	35.431
453.18	35.819
453.53	35.745
453.88	35.027
454.23	35.087
454.58	35.796
454.93	36.427
455.28	35.536
455.63	35.619
455.98	35.952
456.34	34.925
456.69	35.003
457.04	36.161
457.39	34.483
457.74	34.939
458.09	35.078
458.44	34.265
458.79	33.894
459.14	34.989
459.49	34.559
459.84	34.792
460.19	34.355
460.54	33.507
460.89	33.845
461.24	34.487
461.59	35.154
461.94	33.785
462.29	34.243
462.64	34.014
462.99	33.572
463.34	35.600
463.69	34.209
464.04	34.667
464.39	34.435
464.74	34.462
465.09	33.836
465.44	33.296
465.79	33.613
466.14	33.060
466.49	33.204
466.84	33.567
467.19	33.313
467.54	33.875
467.89	33.433
468.24	33.799
468.59	33.944
468.94	32.987
469.29	33.483
469.64	34.471
469.99	35.115
470.34	33.686
470.68	33.333
471.03	32.041
471.38	34.329
471.73	33.511
472.08	33.158
472.43	32.977
472.78	33.180
473.13	33.440
473.48	33.084
473.83	33.049
474.17	31.923
474.52	32.692
474.87	32.691
475.22	32.269
475.57	31.220
475.92	31.545
476.27	31.680
476.61	31.991
476.96	31.721
477.31	32.025
477.66	31.783
478.01	31.730
478.36	32.152
478.70	31.828
479.05	31.523
479.40	30.860
479.75	31.876
480.10	30.865
480.45	30.224
480.79	31.343
481.14	31.751
481.49	31.182
481.84	31.870
482.19	31.804
482.53	30.917
482.88	30.572
483.23	31.028
483.58	31.256
483.92	30.787
484.27	30.370
484.62	30.862
484.97	30.154
485.31	31.301
485.66	31.293
486.01	29.974
486.36	28.392
486.70	27.324
487.05	27.898
487.40	28.856
487.75	28.067
488.09	28.753
488.44	28.853
488.79	29.259
489.13	28.877
489.48	30.057
489.83	29.866
490.17	29.110
490.52	29.451
490.87	29.534
491.22	29.741
491.56	28.383
491.91	29.316
492.26	29.306
492.60	29.493
492.95	29.093
493.30	28.972
493.64	29.118
493.99	29.201
494.34	28.677
494.68	29.853
495.03	29.088
495.37	28.432
495.72	28.704
496.07	29.559
496.41	29.071
496.76	29.156
497.11	29.041
497.45	28.551
497.80	29.223
498.14	28.164
498.49	28.878
498.84	28.523
499.18	29.048
499.53	28.870
499.87	28.239
500.22	28.403
500.56	29.078
500.91	28.750
501.26	28.212
501.60	29.236
501.95	28.277
502.29	29.756
502.64	28.538
502.98	28.331
503.33	27.742
503.67	27.842
504.02	28.531
504.36	28.077
504.71	28.627
505.06	28.723
505.40	28.099
505.75	27.965
506.09	28.377
506.44	28.071
506.78	27.716
507.13	27.713
507.47	28.939
507.82	27.457
508.16	28.014
508.51	28.108
508.85	28.054
509.19	27.602
509.54	28.010
509.88	27.512
510.23	27.249
510.57	28.896
510.92	27.913
511.26	28.058
511.61	27.905
511.95	26.931
512.30	26.405
512.64	28.372
512.98	27.385
513.33	27.730
513.67	27.481
514.02	26.894
514.36	26.980
514.70	27.559
515.05	26.548
515.39	27.987
515.74	27.140
516.08	27.054
516.42	28.024
516.77	28.317
517.11	27.026
517.46	28.217
517.80	27.875
518.14	27.331
518.49	27.830
518.83	27.727
519.17	27.598
519.52	27.051
519.86	27.039
520.20	27.688
520.55	27.887
520.89	27.737
521.23	27.744
521.58	27.611
521.92	27.863
522.26	27.029
522.61	26.417
522.95	27.563
523.29	26.719
523.64	28.110
523.98	27.788
524.32	27.081
524.66	27.661
525.01	27.022
525.35	27.200
525.69	26.416
526.04	26.916
526.38	27.334
526.72	28.037
527.06	26.491
527.41	26.485
527.75	27.588
528.09	28.067
528.43	27.852
528.78	27.843
529.12	26.788
529.46	27.863
529.80	27.475
530.15	27.352
530.49	25.662
530.83	27.152
531.17	27.154
531.51	28.664
531.86	26.710
532.20	27.836
532.54	27.675
532.88	26.380
533.22	26.109
533.57	27.531
533.91	26.610
534.25	26.124
534.59	27.273
534.93	26.591
535.27	25.287
535.62	26.862
535.96	27.872
536.30	25.747
536.64	27.302
536.98	26.941
537.32	26.596
537.66	26.867
538.01	27.123
538.35	27.279
538.69	27.377
539.03	26.511
539.37	25.304
539.71	25.211
540.05	26.797
540.39	25.847
540.73	26.261
541.07	27.515
541.42	26.354
541.76	26.839
542.10	27.167
542.44	26.755
542.78	26.680
543.12	25.720
543.46	27.148
543.80	26.350
544.14	25.995
544.48	26.603
544.82	26.299
545.16	25.179
545.50	25.771
545.84	26.546
546.18	26.397
546.52	25.877
546.86	25.773
547.20	26.770
547.54	26.253
547.88	25.829
548.22	25.405
548.56	26.541
548.90	25.480
549.24	25.185
549.58	26.126
549.92	25.549
550.26	27.557
550.60	26.556
550.94	26.056
551.28	24.945
551.62	25.521
551.96	26.456
552.30	26.485
552.64	25.828
552.98	26.576
553.32	25.489
553.66	26.721
554.00	25.738
554.34	24.983
554.68	25.250
555.02	25.388
555.36	25.678
555.69	24.154
556.03	25.774
556.37	26.194
556.71	24.966
557.05	24.650
557.39	25.122
557.73	25.688
558.07	26.251
558.41	25.687
558.75	25.422
559.08	25.652
559.42	25.548
559.76	25.515
560.10	24.839
560.44	25.297
560.78	25.017
561.12	25.000
561.45	25.815
561.79	25.049
562.13	25.889
562.47	26.093
562.81	25.174
563.15	24.682
563.48	25.928
563.82	24.918
564.16	25.376
564.50	24.479
564.84	25.221
565.17	25.161
565.51	25.495
565.85	24.873
566.19	24.483
566.52	24.509
566.86	25.136
567.20	25.059
567.54	24.829
567.88	24.226
568.21	24.974
568.55	25.228
568.89	24.611
569.23	24.733
569.56	24.170
569.90	24.415
570.24	23.968
570.57	24.005
570.91	23.400
571.25	23.595
571.59	23.623
571.92	23.157
572.26	23.310
572.60	23.063
572.93	23.058
573.27	23.691
573.61	23.786
573.95	23.747
574.28	23.116
574.62	22.838
574.96	22.772
575.29	22.672
575.63	22.485
575.97	22.260
576.30	23.234
576.64	22.820
576.98	23.262
577.31	22.805
577.65	23.279
577.98	23.241
578.32	22.399
578.66	22.830
578.99	22.438
579.33	22.585
579.67	22.306
580.00	23.208
580.34	23.351
580.67	23.091
581.01	22.869
581.35	23.461
581.68	23.191
582.02	22.862
582.35	22.712
582.69	22.759
583.02	22.515
583.36	22.942
583.70	22.702
584.03	22.571
584.37	23.083
584.70	23.067
585.04	22.896
585.37	22.903
585.71	22.932
586.04	22.904
586.38	23.067
586.72	23.336
587.05	22.738
587.39	22.480
587.72	23.396
588.06	22.625
588.39	22.743
588.73	22.998
589.06	22.686
589.40	22.727
589.73	22.809
590.07	22.847
590.40	22.689
590.73	22.600
591.07	23.606
591.40	23.239
591.74	24.026
592.07	23.298
592.41	23.233
592.74	23.371
593.08	23.917
593.41	23.126
593.75	22.829
594.08	22.628
594.41	22.906
594.75	23.401
595.08	23.658
595.42	23.468
595.75	23.219
596.09	22.831
596.42	23.222
596.75	23.174
597.09	23.853
597.42	22.892
597.75	22.984
598.09	23.348
598.42	22.723
598.76	23.470
599.09	22.387
599.42	22.307
599.76	22.804
600.09	23.133
600.42	22.425
600.76	22.429
601.09	22.550
601.42	22.679
601.76	23.378
602.09	22.372
602.42	23.368
602.76	23.257
603.09	22.856
603.42	22.765
603.76	22.599
604.09	22.451
604.42	23.441
604.76	23.113
605.09	23.198
605.42	23.215
605.75	23.262
606.09	22.814
606.42	22.844
606.75	22.729
607.09	22.729
607.42	22.807
607.75	22.068
608.08	22.883
608.42	22.949
608.75	22.588
609.08	22.387
609.41	22.323
609.75	22.392
610.08	22.809
610.41	21.462
610.74	23.368
611.07	22.974
611.41	22.179
611.74	23.027
612.07	22.930
612.40	23.085
612.73	22.895
613.07	23.707
613.40	23.539
613.73	22.234
614.06	22.527
614.39	23.073
614.72	23.000
615.06	22.374
615.39	22.665
615.72	23.262
616.05	21.956
616.38	23.180
616.71	22.625
617.05	23.675
617.38	23.331
617.71	24.144
618.04	23.798
618.37	22.768
618.70	23.647
619.03	24.342
619.36	24.440
619.69	24.225
620.03	24.725
620.36	24.465
620.69	23.836
621.02	23.009
621.35	23.806
621.68	23.131
622.01	24.303
622.34	24.206
622.67	24.106
623.00	22.744
623.33	23.803
623.66	23.517
623.99	24.227
624.32	23.752
624.65	24.082
624.99	22.946
625.32	22.520
625.65	23.216
625.98	24.135
626.31	24.417
626.64	24.735
626.97	24.439
627.30	24.023
627.63	24.364
627.96	24.979
628.29	24.147
628.62	25.160
628.95	25.283
629.28	24.361
629.61	25.298
629.94	24.571
630.26	25.167
630.59	23.642
630.92	23.755
