SpectraSuite Data File
++++++++++++++++++++++++++++++++++++
Date: Wed May 13 16:15:33 PDT 2015
User: schluterlab
Dark Spectrum Present: Yes
Reference Spectrum Present: Yes
Number of Sampled Component Spectra: 1
Spectrometers: USB2E3373
Integration Time (usec): 3000 (USB2E3373)
Spectra Averaged: 3 (USB2E3373)
Boxcar Smoothing: 0 (USB2E3373)
Correct for Electrical Dark: No (USB2E3373)
Strobe/Lamp Enabled: No (USB2E3373)
Correct for Detector Non-linearity: No (USB2E3373)
Correct for Stray Light: No (USB2E3373)
Number of Pixels in Processed Spectrum: 2048
>>>>>Begin Processed Spectral Data<<<<<
178.53	0.000
178.91	-1050.000
179.29	-1000.000
179.67	-166.667
180.04	-850.000
180.42	1500.000
180.80	780.000
181.18	-800.000
181.56	557.143
181.94	0.000
182.31	-514.286
182.69	1700.000
183.07	-450.000
183.45	-388.889
183.83	418.182
184.20	-410.000
184.58	1750.000
184.96	3900.000
185.34	-580.000
185.72	-362.500
186.09	-1850.000
186.47	2200.000
186.85	1750.000
187.23	3000.000
187.61	-1100.000
187.98	1275.000
188.36	427.273
188.74	427.273
189.12	-740.000
189.49	580.000
189.87	-4000.000
190.25	-825.000
190.63	371.429
191.00	376.923
191.38	716.667
191.76	-975.000
192.14	1325.000
192.51	525.000
192.89	666.667
193.27	500.000
193.65	-975.000
194.02	510.000
194.40	880.000
194.78	500.000
195.15	366.667
195.53	620.000
195.91	-1900.000
196.29	325.000
196.66	273.684
197.04	-250.000
197.42	0.000
197.79	570.000
198.17	-3600.000
198.55	700.000
198.92	637.500
199.30	720.000
199.68	0.000
200.05	261.111
200.43	785.714
200.81	3600.000
201.18	1366.667
201.56	-1100.000
201.94	477.778
202.31	488.889
202.69	341.667
203.07	540.000
203.44	0.000
203.82	900.000
204.19	685.714
204.57	385.714
204.95	550.000
205.32	1533.333
205.70	381.818
206.08	307.143
206.45	1900.000
206.83	375.000
207.20	766.667
207.58	540.000
207.96	233.333
208.33	625.000
208.71	-733.333
209.08	614.286
209.46	511.111
209.84	418.182
210.21	-1266.667
210.59	1100.000
210.96	-387.500
211.34	1750.000
211.71	530.000
212.09	516.667
212.46	0.000
212.84	1566.667
213.22	1300.000
213.59	-3800.000
213.97	800.000
214.34	714.286
214.72	490.909
215.09	800.000
215.47	-1750.000
215.84	-2250.000
216.22	1433.333
216.59	300.000
216.97	1000.000
217.34	490.909
217.72	-500.000
218.09	0.000
218.47	-4600.000
218.84	522.222
219.22	600.000
219.59	1700.000
219.97	-485.714
220.34	620.000
220.72	-1533.333
221.09	335.714
221.47	1225.000
221.84	-766.667
222.22	0.000
222.59	975.000
222.97	-2150.000
223.34	880.000
223.72	361.538
224.09	980.000
224.46	2100.000
224.84	-5100.000
225.21	-740.000
225.59	-3600.000
225.96	520.000
226.34	265.000
226.71	2200.000
227.08	512.500
227.46	450.000
227.83	-950.000
228.21	-2100.000
228.58	444.444
228.95	-1900.000
229.33	-2300.000
229.70	1766.667
230.08	614.286
230.45	-500.000
230.82	383.333
231.20	750.000
231.57	671.429
231.95	350.000
232.32	218.182
232.69	309.091
233.07	528.571
233.44	361.538
233.81	-1533.333
234.19	263.158
234.56	358.333
234.93	358.333
235.31	427.273
235.68	315.385
236.05	300.000
236.43	154.545
236.80	231.579
237.17	4600.000
237.55	180.952
237.92	200.000
238.29	195.238
238.67	164.516
239.04	200.000
239.41	150.000
239.79	113.043
240.16	150.000
240.53	118.182
240.91	113.725
241.28	132.000
241.65	124.000
242.02	118.841
242.40	95.161
242.77	108.333
243.14	75.269
243.51	95.506
243.89	77.647
244.26	83.333
244.63	83.871
245.00	74.468
245.38	69.307
245.75	78.505
246.12	71.560
246.49	70.073
246.87	81.600
247.24	77.692
247.61	65.714
247.98	69.281
248.36	68.243
248.73	66.879
249.10	71.975
249.47	62.147
249.84	65.775
250.22	65.241
250.59	57.988
250.96	62.626
251.33	62.559
251.70	64.356
252.08	60.000
252.45	53.363
252.82	54.348
253.19	56.596
253.56	53.725
253.94	60.166
254.31	60.547
254.68	58.846
255.05	53.506
255.42	58.130
255.79	56.985
256.16	58.845
256.54	52.297
256.91	58.007
257.28	52.518
257.65	54.455
258.02	54.037
258.39	51.735
258.76	49.833
259.14	54.464
259.51	52.888
259.88	49.689
260.25	53.172
260.62	50.000
260.99	54.037
261.36	51.652
261.73	48.711
262.10	53.488
262.47	54.648
262.85	52.089
263.22	51.282
263.59	54.131
263.96	47.527
264.33	50.131
264.70	51.579
265.07	51.662
265.44	50.253
265.81	46.959
266.18	52.764
266.55	51.951
266.92	50.369
267.29	48.611
267.66	49.312
268.03	48.182
268.40	48.364
268.77	47.255
269.14	48.423
269.51	50.790
269.88	48.485
270.25	47.178
270.62	47.640
270.99	48.817
271.36	47.210
271.73	47.897
272.10	48.261
272.47	48.602
272.84	50.000
273.21	46.122
273.58	47.162
273.95	45.912
274.32	48.140
274.69	50.964
275.06	47.638
275.43	47.872
275.80	48.297
276.17	46.436
276.54	48.233
276.91	48.221
277.28	48.438
277.65	47.776
278.02	46.998
278.39	48.828
278.76	44.182
279.13	46.604
279.50	47.858
279.87	44.622
280.23	46.906
280.60	45.455
280.97	46.580
281.34	45.841
281.71	44.182
282.08	46.065
282.45	42.909
282.82	43.872
283.19	43.316
283.56	43.158
283.92	42.809
284.29	45.150
284.66	45.917
285.03	43.400
285.40	44.542
285.77	43.771
286.14	41.105
286.51	46.333
286.87	41.026
287.24	41.368
287.61	44.944
287.98	43.994
288.35	42.155
288.72	42.212
289.08	41.002
289.45	44.152
289.82	40.813
290.19	40.031
290.56	41.501
290.93	39.275
291.29	40.031
291.66	39.971
292.03	40.552
292.40	41.410
292.77	36.834
293.13	37.612
293.50	38.338
293.87	38.815
294.24	37.778
294.60	35.662
294.97	37.791
295.34	37.518
295.71	36.080
296.08	34.900
296.44	35.901
296.81	34.082
297.18	37.127
297.55	34.697
297.91	34.037
298.28	37.617
298.65	33.943
299.02	35.046
299.38	35.591
299.75	32.749
300.12	34.610
300.48	33.625
300.85	33.539
301.22	33.885
301.59	33.965
301.95	33.753
302.32	34.403
302.69	32.855
303.05	32.970
303.42	33.210
303.79	32.729
304.15	31.585
304.52	33.835
304.89	32.753
305.25	31.671
305.62	31.937
305.99	31.523
306.35	34.116
306.72	32.735
307.09	32.408
307.45	33.221
307.82	30.692
308.19	32.892
308.55	32.470
308.92	31.686
309.29	29.989
309.65	32.450
310.02	32.135
310.38	31.828
310.75	31.890
311.12	32.753
311.48	31.870
311.85	33.333
312.22	33.091
312.58	31.497
312.95	32.524
313.31	30.291
313.68	32.017
314.05	32.840
314.41	33.568
314.78	33.233
315.14	32.572
315.51	33.883
315.87	31.188
316.24	31.778
316.61	32.066
316.97	31.898
317.34	32.387
317.70	33.078
318.07	34.071
318.43	34.344
318.80	33.927
319.16	33.804
319.53	32.833
319.89	34.095
320.26	35.000
320.62	34.524
320.99	34.848
321.35	35.455
321.72	34.908
322.08	35.143
322.45	36.915
322.81	35.271
323.18	35.838
323.54	36.735
323.91	37.358
324.27	36.998
324.64	36.719
325.00	36.790
325.37	37.944
325.73	38.689
326.10	39.276
326.46	39.516
326.83	38.999
327.19	40.051
327.56	39.895
327.92	41.207
328.29	40.639
328.65	42.541
329.01	41.968
329.38	42.091
329.74	40.997
330.11	43.261
330.47	43.893
330.84	43.474
331.20	42.896
331.56	42.936
331.93	43.981
332.29	42.236
332.66	44.513
333.02	43.693
333.38	44.715
333.75	44.563
334.11	43.861
334.48	44.987
334.84	44.853
335.20	45.727
335.57	43.880
335.93	43.036
336.29	43.956
336.66	45.627
337.02	44.253
337.38	45.463
337.75	43.939
338.11	45.479
338.47	45.304
338.84	45.555
339.20	45.046
339.56	45.347
339.93	45.545
340.29	45.109
340.65	45.722
341.02	46.248
341.38	45.907
341.74	45.088
342.11	46.812
342.47	44.846
342.83	45.205
343.20	45.455
343.56	44.145
343.92	45.965
344.28	46.088
344.65	45.056
345.01	44.444
345.37	45.798
345.73	47.039
346.10	45.610
346.46	45.847
346.82	45.799
347.19	46.199
347.55	45.074
347.91	45.146
348.27	46.919
348.63	46.572
349.00	44.417
349.36	45.649
349.72	45.950
350.08	46.110
350.45	45.484
350.81	45.167
351.17	45.867
351.53	45.946
351.89	44.802
352.26	45.856
352.62	44.908
352.98	45.138
353.34	45.193
353.70	45.090
354.07	46.048
354.43	44.921
354.79	45.133
355.15	45.012
355.51	46.123
355.87	46.857
356.24	47.313
356.60	45.309
356.96	46.983
357.32	45.380
357.68	48.189
358.04	44.576
358.40	46.714
358.77	47.731
359.13	46.330
359.49	46.353
359.85	46.746
360.21	46.810
360.57	48.405
360.93	46.769
361.29	45.729
361.66	46.904
362.02	47.015
362.38	47.681
362.74	48.214
363.10	45.522
363.46	45.781
363.82	47.014
364.18	47.797
364.54	48.514
364.90	47.309
365.26	48.162
365.62	48.283
365.98	47.261
366.35	47.206
366.71	46.782
367.07	47.997
367.43	48.331
367.79	48.822
368.15	48.563
368.51	47.820
368.87	48.537
369.23	49.890
369.59	49.167
369.95	49.265
370.31	48.219
370.67	48.623
371.03	49.438
371.39	49.052
371.75	48.456
372.11	48.009
372.47	51.026
372.83	51.297
373.19	48.194
373.55	51.441
373.91	51.988
374.27	49.622
374.63	50.618
374.99	50.847
375.35	49.965
375.71	50.994
376.07	51.646
376.42	51.788
376.78	52.021
377.14	51.696
377.50	52.119
377.86	51.729
378.22	52.655
378.58	52.005
378.94	52.986
379.30	52.481
379.66	53.744
380.02	53.317
380.38	53.005
380.74	53.541
381.09	53.851
381.45	53.719
381.81	52.887
382.17	54.013
382.53	52.893
382.89	55.000
383.25	54.784
383.61	55.390
383.97	55.785
384.32	54.897
384.68	54.461
385.04	56.054
385.40	55.170
385.76	54.423
386.12	56.930
386.48	57.206
386.83	56.895
387.19	57.328
387.55	56.648
387.91	56.832
388.27	55.733
388.62	56.238
388.98	56.143
389.34	57.259
389.70	57.572
390.06	57.224
390.42	59.144
390.77	58.524
391.13	58.775
391.49	57.868
391.85	58.243
392.20	57.603
392.56	57.323
392.92	57.563
393.28	57.278
393.64	57.734
393.99	57.911
394.35	58.251
394.71	58.908
395.07	58.754
395.42	59.394
395.78	59.478
396.14	59.032
396.50	61.529
396.85	60.458
397.21	59.618
397.57	59.764
397.92	59.495
398.28	57.567
398.64	59.379
399.00	59.205
399.35	59.504
399.71	59.606
400.07	59.728
400.42	60.368
400.78	60.736
401.14	61.341
401.49	61.910
401.85	60.920
402.21	59.641
402.57	60.888
402.92	59.899
403.28	61.149
403.63	62.438
403.99	61.274
404.35	61.758
404.70	61.391
405.06	61.561
405.42	62.133
405.77	60.229
406.13	60.948
406.49	61.739
406.84	61.607
407.20	59.929
407.55	60.753
407.91	63.400
408.27	62.285
408.62	61.168
408.98	61.949
409.34	62.485
409.69	62.710
410.05	62.454
410.40	61.835
410.76	61.708
411.11	62.123
411.47	62.875
411.83	61.515
412.18	61.657
412.54	62.578
412.89	62.831
413.25	62.810
413.60	63.743
413.96	61.688
414.31	63.123
414.67	63.561
415.03	63.444
415.38	63.660
415.74	62.894
416.09	64.272
416.45	64.056
416.80	64.442
417.16	64.879
417.51	64.964
417.87	63.712
418.22	64.479
418.58	63.977
418.93	64.988
419.29	65.372
419.64	65.365
420.00	64.512
420.35	64.116
420.71	65.929
421.06	64.558
421.42	63.626
421.77	64.966
422.12	64.009
422.48	63.627
422.83	64.997
423.19	65.083
423.54	66.744
423.90	65.043
424.25	65.159
424.61	64.405
424.96	66.006
425.31	65.006
425.67	64.213
426.02	66.000
426.38	67.582
426.73	65.184
427.09	66.869
427.44	66.993
427.79	66.245
428.15	66.250
428.50	67.291
428.85	67.998
429.21	67.145
429.56	66.407
429.92	66.935
430.27	65.789
430.62	65.387
430.98	67.878
431.33	66.237
431.68	66.806
432.04	66.667
432.39	67.276
432.74	69.001
433.10	69.157
433.45	68.921
433.80	68.570
434.16	67.842
434.51	67.526
434.86	68.415
435.22	69.650
435.57	69.544
435.92	68.988
436.28	70.819
436.63	68.653
436.98	68.517
437.34	70.006
437.69	70.653
438.04	69.815
438.39	70.567
438.75	70.482
439.10	69.944
439.45	69.953
439.81	70.634
440.16	69.339
440.51	70.357
440.86	71.511
441.22	70.356
441.57	70.913
441.92	70.829
442.27	70.022
442.63	69.932
442.98	71.268
443.33	70.380
443.68	71.038
444.03	70.717
444.39	70.399
444.74	72.240
445.09	70.350
445.44	70.093
445.79	70.807
446.15	70.196
446.50	71.567
446.85	71.223
447.20	71.341
447.55	72.920
447.91	72.035
448.26	71.842
448.61	71.566
448.96	72.702
449.31	72.553
449.66	71.469
450.02	72.925
450.37	72.336
450.72	73.491
451.07	71.664
451.42	73.131
451.77	72.460
452.12	72.979
452.47	72.326
452.83	73.718
453.18	72.555
453.53	74.459
453.88	73.892
454.23	74.836
454.58	74.197
454.93	76.605
455.28	72.943
455.63	74.393
455.98	74.464
456.34	75.942
456.69	74.202
457.04	75.789
457.39	74.459
457.74	73.999
458.09	75.216
458.44	75.086
458.79	73.915
459.14	74.605
459.49	75.832
459.84	74.349
460.19	76.429
460.54	72.859
460.89	74.328
461.24	76.017
461.59	76.583
461.94	75.709
462.29	76.439
462.64	74.410
462.99	72.609
463.34	75.933
463.69	77.486
464.04	75.826
464.39	73.565
464.74	74.569
465.09	76.357
465.44	74.017
465.79	74.888
466.14	75.588
466.49	73.026
466.84	73.905
467.19	74.774
467.54	76.625
467.89	74.490
468.24	76.149
468.59	76.007
468.94	73.977
469.29	77.635
469.64	78.179
469.99	77.673
470.34	77.873
470.68	78.807
471.03	77.959
471.38	78.735
471.73	77.615
472.08	80.066
472.43	76.822
472.78	77.551
473.13	76.380
473.48	76.592
473.83	77.744
474.17	76.353
474.52	78.412
474.87	77.408
475.22	78.758
475.57	75.605
475.92	77.377
476.27	75.141
476.61	77.275
476.96	76.306
477.31	76.452
477.66	78.665
478.01	77.313
478.36	77.208
478.70	77.207
479.05	76.944
479.40	79.734
479.75	78.902
480.10	76.938
480.45	76.392
480.79	75.872
481.14	78.131
481.49	78.548
481.84	78.052
482.19	76.829
482.53	77.385
482.88	78.315
483.23	78.271
483.58	78.298
483.92	78.022
484.27	76.296
484.62	77.284
484.97	75.601
485.31	78.527
485.66	76.868
486.01	72.163
486.36	69.256
486.70	67.515
487.05	69.147
487.40	70.761
487.75	71.605
488.09	72.611
488.44	73.382
488.79	75.986
489.13	76.585
489.48	76.427
489.83	77.385
490.17	78.080
490.52	77.325
490.87	78.517
491.22	78.718
491.56	77.631
491.91	79.293
492.26	77.308
492.60	78.802
492.95	78.017
493.30	78.551
493.64	79.281
493.99	78.087
494.34	78.631
494.68	79.212
495.03	79.370
495.37	78.641
495.72	79.825
496.07	81.485
496.41	77.743
496.76	78.892
497.11	78.478
497.45	79.227
497.80	79.127
498.14	79.130
498.49	79.024
498.84	79.770
499.18	80.286
499.53	78.443
499.87	80.056
500.22	78.992
500.56	82.039
500.91	79.760
501.26	80.275
501.60	81.016
501.95	78.277
502.29	79.803
502.64	79.562
502.98	80.224
503.33	78.382
503.67	79.490
504.02	80.028
504.36	78.615
504.71	78.945
505.06	79.277
505.40	80.554
505.75	78.881
506.09	79.592
506.44	81.500
506.78	79.981
507.13	81.272
507.47	81.414
507.82	81.966
508.16	81.510
508.51	82.040
508.85	80.884
509.19	81.837
509.54	81.122
509.88	81.350
510.23	82.879
510.57	82.766
510.92	83.273
511.26	80.473
511.61	83.091
511.95	80.793
512.30	81.919
512.64	82.644
512.98	83.976
513.33	82.602
513.67	81.377
514.02	83.279
514.36	84.107
514.70	83.619
515.05	82.264
515.39	84.464
515.74	84.685
516.08	83.846
516.42	83.851
516.77	85.229
517.11	84.018
517.46	85.158
517.80	86.411
518.14	86.219
518.49	86.698
518.83	84.830
519.17	85.335
519.52	84.833
519.86	84.084
520.20	86.127
520.55	86.894
520.89	88.260
521.23	87.274
521.58	87.155
521.92	88.242
522.26	85.967
522.61	87.290
522.95	87.109
523.29	86.366
523.64	88.049
523.98	87.307
524.32	87.334
524.66	86.711
525.01	87.071
525.35	85.502
525.69	85.406
526.04	87.103
526.38	86.272
526.72	84.908
527.06	87.759
527.41	84.097
527.75	88.810
528.09	89.403
528.43	89.165
528.78	84.757
529.12	84.667
529.46	86.160
529.80	86.696
530.15	86.729
530.49	84.492
530.83	87.215
531.17	89.099
531.51	89.689
531.86	87.613
532.20	87.158
532.54	87.572
532.88	87.099
533.22	85.696
533.57	84.383
533.91	85.551
534.25	85.358
534.59	84.869
534.93	84.830
535.27	84.912
535.62	85.592
535.96	86.566
536.30	86.968
536.64	88.088
536.98	87.392
537.32	87.492
537.66	87.333
538.01	87.097
538.35	86.037
538.69	86.535
539.03	86.225
539.37	84.920
539.71	85.353
540.05	86.013
540.39	86.512
540.73	84.994
541.07	85.918
541.42	87.410
541.76	86.065
542.10	86.934
542.44	86.821
542.78	87.813
543.12	85.285
543.46	87.541
543.80	85.231
544.14	85.366
544.48	85.270
544.82	85.888
545.16	87.183
545.50	84.704
545.84	87.097
546.18	85.320
546.52	85.134
546.86	86.873
547.20	86.649
547.54	85.504
547.88	85.906
548.22	83.375
548.56	84.465
548.90	84.379
549.24	87.003
549.58	87.449
549.92	87.843
550.26	88.778
550.60	85.892
550.94	87.746
551.28	87.345
551.62	88.426
551.96	86.877
552.30	87.031
552.64	86.275
552.98	86.847
553.32	85.570
553.66	87.117
554.00	86.548
554.34	85.990
554.68	89.485
555.02	87.659
555.36	86.291
555.69	85.859
556.03	87.079
556.37	86.085
556.71	86.630
557.05	86.275
557.39	86.494
557.73	87.156
558.07	90.500
558.41	88.423
558.75	87.730
559.08	89.411
559.42	92.366
559.76	87.868
560.10	87.937
560.44	88.819
560.78	85.961
561.12	87.203
561.45	85.593
561.79	85.300
562.13	88.464
562.47	86.749
562.81	87.517
563.15	84.548
563.48	84.814
563.82	87.084
564.16	85.939
564.50	85.221
564.84	85.019
565.17	87.387
565.51	86.773
565.85	85.470
566.19	83.845
566.52	85.370
566.86	84.629
567.20	84.847
567.54	84.418
567.88	82.184
568.21	82.910
568.55	81.193
568.89	81.274
569.23	79.947
569.56	78.623
569.90	77.396
570.24	76.677
570.57	75.485
570.91	74.337
571.25	73.873
571.59	73.549
571.92	73.848
572.26	73.050
572.60	73.934
572.93	72.954
573.27	73.854
573.61	74.232
573.95	73.049
574.28	72.111
574.62	71.599
574.96	71.135
575.29	71.096
575.63	71.646
575.97	72.637
576.30	72.464
576.64	72.479
576.98	72.217
577.31	71.835
577.65	71.922
577.98	71.512
578.32	69.460
578.66	69.518
578.99	70.555
579.33	70.879
579.67	71.029
580.00	71.518
580.34	71.737
580.67	71.023
581.01	71.082
581.35	71.282
581.68	71.043
582.02	69.599
582.35	69.675
582.69	68.808
583.02	69.931
583.36	71.340
583.70	72.078
584.03	70.585
584.37	73.518
584.70	73.354
585.04	71.257
585.37	71.598
585.71	71.711
586.04	70.790
586.38	72.153
586.72	73.378
587.05	72.018
587.39	71.873
587.72	72.584
588.06	71.718
588.39	71.770
588.73	72.279
589.06	73.574
589.40	74.512
589.73	75.290
590.07	74.840
590.40	74.900
590.73	75.722
591.07	76.638
591.40	75.791
591.74	77.056
592.07	76.571
592.41	76.478
592.74	74.382
593.08	74.450
593.41	73.300
593.75	71.237
594.08	73.047
594.41	74.125
594.75	74.787
595.08	74.159
595.42	74.046
595.75	74.038
596.09	75.516
596.42	74.695
596.75	75.179
597.09	76.580
597.42	74.958
597.75	76.585
598.09	75.522
598.42	75.945
598.76	75.801
599.09	74.572
599.42	74.199
599.76	74.414
600.09	72.787
600.42	73.411
600.76	73.679
601.09	73.698
601.42	73.896
601.76	73.928
602.09	74.941
602.42	74.920
602.76	76.622
603.09	75.649
603.42	75.674
603.76	74.428
604.09	73.866
604.42	75.377
604.76	76.128
605.09	75.797
605.42	75.203
605.75	75.662
606.09	75.193
606.42	75.603
606.75	74.533
607.09	73.964
607.42	75.695
607.75	74.430
608.08	74.338
608.42	76.154
608.75	74.572
609.08	75.116
609.41	75.297
609.75	75.465
610.08	76.579
610.41	75.978
610.74	76.254
611.07	77.273
611.41	76.840
611.74	77.124
612.07	79.296
612.40	78.227
612.73	76.684
613.07	79.903
613.40	78.094
613.73	77.399
614.06	78.280
614.39	75.406
614.72	76.263
615.06	76.681
615.39	77.495
615.72	75.767
616.05	76.555
616.38	77.932
616.71	80.819
617.05	80.035
617.38	79.375
617.71	79.039
618.04	81.490
618.37	79.480
618.70	80.647
619.03	81.118
619.36	82.145
619.69	81.127
620.03	83.860
620.36	80.882
620.69	85.274
621.02	81.932
621.35	84.573
621.68	83.879
622.01	84.830
622.34	84.871
622.67	84.259
623.00	82.685
623.33	81.630
623.66	82.988
623.99	84.094
624.32	81.526
624.65	82.839
624.99	82.365
625.32	82.332
625.65	85.124
625.98	86.164
626.31	83.359
626.64	85.878
626.97	86.866
627.30	86.617
627.63	85.480
627.96	86.039
628.29	88.276
628.62	87.191
628.95	91.698
629.28	87.682
629.61	86.893
629.94	89.333
630.26	88.847
630.59	87.417
630.92	89.080
631.25	88.746
