SpectraSuite Data File
++++++++++++++++++++++++++++++++++++
Date: Wed May 13 16:49:31 PDT 2015
User: schluterlab
Dark Spectrum Present: Yes
Reference Spectrum Present: Yes
Number of Sampled Component Spectra: 1
Spectrometers: USB2E3373
Integration Time (usec): 3000 (USB2E3373)
Spectra Averaged: 3 (USB2E3373)
Boxcar Smoothing: 0 (USB2E3373)
Correct for Electrical Dark: No (USB2E3373)
Strobe/Lamp Enabled: No (USB2E3373)
Correct for Detector Non-linearity: No (USB2E3373)
Correct for Stray Light: No (USB2E3373)
Number of Pixels in Processed Spectrum: 2048
>>>>>Begin Processed Spectral Data<<<<<
178.53	0.000
178.91	-1250.000
179.29	-1100.000
179.67	-233.333
180.04	-1250.000
180.42	2600.000
180.80	1020.000
181.18	-1025.000
181.56	742.857
181.94	0.000
182.31	-742.857
182.69	1566.667
183.07	-600.000
183.45	-533.333
183.83	472.727
184.20	-510.000
184.58	2600.000
184.96	5900.000
185.34	-860.000
185.72	-512.500
186.09	-2300.000
186.47	2250.000
186.85	2250.000
187.23	4300.000
187.61	-1300.000
187.98	1275.000
188.36	518.182
188.74	518.182
189.12	-800.000
189.49	520.000
189.87	-4400.000
190.25	-1150.000
190.63	371.429
191.00	446.154
191.38	883.333
191.76	-1125.000
192.14	1150.000
192.51	600.000
192.89	800.000
193.27	625.000
193.65	-1075.000
194.02	390.000
194.40	1000.000
194.78	410.000
195.15	516.667
195.53	660.000
195.91	-1750.000
196.29	381.250
196.66	310.526
197.04	-260.000
197.42	0.000
197.79	460.000
198.17	-4200.000
198.55	700.000
198.92	875.000
199.30	1040.000
199.68	0.000
200.05	316.667
200.43	714.286
200.81	3900.000
201.18	1333.333
201.56	-1266.667
201.94	533.333
202.31	644.444
202.69	441.667
203.07	640.000
203.44	0.000
203.82	1075.000
204.19	771.429
204.57	485.714
204.95	575.000
205.32	1366.667
205.70	527.273
206.08	378.571
206.45	2300.000
206.83	356.250
207.20	750.000
207.58	700.000
207.96	244.444
208.33	637.500
208.71	-950.000
209.08	771.429
209.46	666.667
209.84	509.091
210.21	-1700.000
210.59	1300.000
210.96	-425.000
211.34	2900.000
211.71	610.000
212.09	533.333
212.46	0.000
212.84	1533.333
213.22	1475.000
213.59	-4500.000
213.97	850.000
214.34	714.286
214.72	527.273
215.09	1160.000
215.47	-2100.000
215.84	-2800.000
216.22	1633.333
216.59	507.143
216.97	1550.000
217.34	463.636
217.72	-700.000
218.09	0.000
218.47	-4500.000
218.84	555.556
219.22	885.714
219.59	1666.667
219.97	-428.571
220.34	960.000
220.72	-1633.333
221.09	414.286
221.47	1575.000
221.84	-1050.000
222.22	0.000
222.59	1325.000
222.97	-2650.000
223.34	1140.000
223.72	400.000
224.09	960.000
224.46	1700.000
224.84	-5100.000
225.21	-900.000
225.59	-5100.000
225.96	560.000
226.34	320.000
226.71	2750.000
227.08	612.500
227.46	450.000
227.83	-1075.000
228.21	-2300.000
228.58	555.556
228.95	-2150.000
229.33	-2100.000
229.70	1700.000
230.08	842.857
230.45	-800.000
230.82	433.333
231.20	716.667
231.57	642.857
231.95	441.667
232.32	222.727
232.69	500.000
233.07	785.714
233.44	269.231
233.81	-1566.667
234.19	242.105
234.56	400.000
234.93	291.667
235.31	363.636
235.68	292.308
236.05	364.286
236.43	166.667
236.80	257.895
237.17	4800.000
237.55	233.333
237.92	214.286
238.29	204.762
238.67	161.290
239.04	200.000
239.41	161.111
239.79	100.000
240.16	154.762
240.53	131.818
240.91	68.627
241.28	116.000
241.65	92.000
242.02	91.304
242.40	96.774
242.77	81.667
243.14	64.516
243.51	83.146
243.89	75.294
244.26	61.111
244.63	61.290
245.00	52.128
245.38	45.545
245.75	60.748
246.12	52.294
246.49	58.394
246.87	53.600
247.24	45.385
247.61	43.571
247.98	42.484
248.36	43.243
248.73	38.217
249.10	45.223
249.47	39.548
249.84	44.385
250.22	36.364
250.59	31.361
250.96	39.899
251.33	39.336
251.70	40.594
252.08	35.238
252.45	32.735
252.82	31.304
253.19	29.787
253.56	30.588
253.94	30.290
254.31	33.203
254.68	34.231
255.05	28.413
255.42	27.236
255.79	27.206
256.16	29.242
256.54	25.442
256.91	28.826
257.28	25.540
257.65	27.063
258.02	27.019
258.39	27.445
258.76	25.084
259.14	23.810
259.51	25.836
259.88	27.640
260.25	25.076
260.62	24.855
260.99	26.087
261.36	25.225
261.73	22.063
262.10	23.837
262.47	25.070
262.85	25.070
263.22	21.937
263.59	26.496
263.96	22.802
264.33	22.977
264.70	25.000
265.07	23.274
265.44	24.242
265.81	19.465
266.18	19.849
266.55	20.488
266.92	20.639
267.29	22.685
267.66	21.789
268.03	20.909
268.40	21.028
268.77	20.048
269.14	19.369
269.51	24.379
269.88	21.445
270.25	22.348
270.62	17.528
270.99	20.430
271.36	20.386
271.73	17.523
272.10	21.304
272.47	22.796
272.84	20.779
273.21	23.899
273.58	18.341
273.95	19.497
274.32	22.314
274.69	19.272
275.06	20.079
275.43	21.489
275.80	20.240
276.17	19.959
276.54	19.543
276.91	20.158
277.28	17.383
277.65	19.729
278.02	17.805
278.39	19.531
278.76	19.273
279.13	20.000
279.50	17.877
279.87	18.725
280.23	19.960
280.60	17.795
280.97	17.930
281.34	17.876
281.71	20.727
282.08	20.345
282.45	16.545
282.82	19.538
283.19	16.043
283.56	17.719
283.92	20.643
284.29	17.284
284.66	17.786
285.03	17.541
285.40	17.254
285.77	18.855
286.14	17.098
286.51	17.667
286.87	18.120
287.24	17.101
287.61	17.657
287.98	17.045
288.35	17.750
288.72	17.757
289.08	18.779
289.45	16.639
289.82	19.512
290.19	16.484
290.56	15.773
290.93	15.559
291.29	17.945
291.66	16.372
292.03	19.041
292.40	19.090
292.77	15.680
293.13	17.612
293.50	17.347
293.87	16.148
294.24	16.741
294.60	15.429
294.97	15.552
295.34	19.464
295.71	17.756
296.08	16.667
296.44	15.681
296.81	16.380
297.18	16.531
297.55	13.061
297.91	16.491
298.28	17.269
298.65	16.188
299.02	16.996
299.38	17.397
299.75	14.960
300.12	15.964
300.48	17.500
300.85	16.400
301.22	15.669
301.59	14.899
301.95	14.987
302.32	16.560
302.69	15.890
303.05	15.152
303.42	15.432
303.79	16.874
304.15	14.452
304.52	15.527
304.89	15.331
305.25	14.733
305.62	16.648
305.99	16.529
306.35	15.324
306.72	16.816
307.09	16.870
307.45	16.892
307.82	15.179
308.19	16.115
308.55	17.476
308.92	16.649
309.29	15.523
309.65	15.907
310.02	16.068
310.38	16.022
310.75	16.579
311.12	16.172
311.48	17.241
311.85	17.610
312.22	18.002
312.58	16.216
312.95	17.846
313.31	16.214
313.68	17.256
314.05	18.836
314.41	16.683
314.78	16.918
315.14	17.279
315.51	18.332
315.87	18.119
316.24	17.577
316.61	16.959
316.97	16.634
317.34	17.319
317.70	17.878
318.07	17.517
318.43	19.080
318.80	19.119
319.16	17.608
319.53	17.824
319.89	18.476
320.26	19.800
320.62	19.544
320.99	18.889
321.35	18.586
321.72	19.302
322.08	20.237
322.45	20.000
322.81	21.027
323.18	22.447
323.54	20.315
323.91	20.660
324.27	22.180
324.64	20.130
325.00	21.100
325.37	21.656
325.73	22.083
326.10	20.918
326.46	21.864
326.83	22.692
327.19	22.801
327.56	22.387
327.92	21.872
328.29	23.602
328.65	24.770
329.01	23.105
329.38	23.589
329.74	22.438
330.11	23.374
330.47	23.875
330.84	24.449
331.20	23.133
331.56	23.119
331.93	23.426
332.29	23.780
332.66	23.540
333.02	24.132
333.38	24.481
333.75	24.421
334.11	24.199
334.48	23.425
334.84	24.449
335.20	24.182
335.57	23.481
335.93	23.750
336.29	22.253
336.66	24.076
337.02	23.258
337.38	24.167
337.75	23.619
338.11	23.456
338.47	22.836
338.84	24.656
339.20	22.661
339.56	23.905
339.93	23.091
340.29	23.188
340.65	24.064
341.02	24.695
341.38	24.555
341.74	23.860
342.11	23.668
342.47	23.789
342.83	22.517
343.20	23.723
343.56	22.578
343.92	21.667
344.28	23.299
344.65	22.528
345.01	23.064
345.37	24.185
345.73	23.435
346.10	23.274
346.46	23.729
346.82	24.876
347.19	22.891
347.55	23.399
347.91	23.301
348.27	24.404
348.63	25.167
349.00	22.977
349.36	22.742
349.72	23.095
350.08	22.204
350.45	23.027
350.81	22.827
351.17	23.825
351.53	22.850
351.89	23.597
352.26	22.731
352.62	23.496
352.98	23.744
353.34	23.747
353.70	22.095
354.07	23.629
354.43	22.540
354.79	23.572
355.15	23.065
355.51	24.141
355.87	23.673
356.24	23.697
356.60	23.176
356.96	23.170
357.32	23.876
357.68	24.094
358.04	23.990
358.40	23.595
358.77	24.491
359.13	23.204
359.49	24.000
359.85	22.857
360.21	24.721
360.57	23.580
360.93	23.692
361.29	23.961
361.66	23.452
362.02	24.254
362.38	23.650
362.74	23.958
363.10	23.834
363.46	23.404
363.82	23.810
364.18	24.449
364.54	25.780
364.90	24.717
365.26	23.456
365.62	24.543
365.98	23.156
366.35	23.782
366.71	24.801
367.07	24.108
367.43	24.383
367.79	24.411
368.15	25.431
368.51	24.201
368.87	24.982
369.23	24.726
369.59	24.765
369.95	24.191
370.31	23.932
370.67	24.203
371.03	25.243
371.39	25.437
371.75	25.441
372.11	25.605
372.47	25.073
372.83	26.297
373.19	24.566
373.55	25.721
373.91	25.700
374.27	24.605
374.63	25.600
374.99	25.847
375.35	24.285
375.71	26.251
376.07	26.612
376.42	26.341
376.78	26.839
377.14	26.526
377.50	26.556
377.86	26.596
378.22	27.054
378.58	26.566
378.94	26.713
379.30	27.036
379.66	27.094
380.02	26.413
380.38	25.987
380.74	28.031
381.09	26.956
381.45	27.966
381.81	27.580
382.17	28.217
382.53	26.981
382.89	28.210
383.25	27.892
383.61	28.686
383.97	28.580
384.32	28.509
384.68	28.191
385.04	28.396
385.40	28.111
385.76	28.133
386.12	29.404
386.48	29.075
386.83	29.314
387.19	29.685
387.55	29.004
387.91	29.988
388.27	28.571
388.62	29.441
388.98	28.747
389.34	30.601
389.70	29.552
390.06	30.482
390.42	30.674
390.77	29.326
391.13	30.185
391.49	31.662
391.85	30.045
392.20	30.599
392.56	29.798
392.92	30.253
393.28	30.118
393.64	30.815
393.99	29.933
394.35	29.529
394.71	30.615
395.07	30.156
395.42	30.841
395.78	31.552
396.14	31.099
396.50	31.266
396.85	32.104
397.21	30.086
397.57	31.804
397.92	30.469
398.28	30.886
398.64	30.765
399.00	30.946
399.35	30.231
399.71	31.481
400.07	31.047
400.42	31.350
400.78	31.182
401.14	30.732
401.49	31.881
401.85	30.490
402.21	30.299
402.57	31.771
402.92	30.706
403.28	32.167
403.63	32.302
403.99	32.357
404.35	31.636
404.70	31.175
405.06	31.858
405.42	33.001
405.77	31.486
406.13	30.982
406.49	31.875
406.84	32.014
407.20	31.383
407.55	31.908
407.91	32.933
408.27	33.057
408.62	32.450
408.98	31.618
409.34	32.165
409.69	33.806
410.05	32.714
410.40	33.394
410.76	32.019
411.11	32.449
411.47	32.204
411.83	32.682
412.18	32.529
412.54	32.877
412.89	32.349
413.25	31.523
413.60	31.748
413.96	31.694
414.31	31.652
414.67	32.446
415.03	32.318
415.38	32.796
415.74	32.026
416.09	32.462
416.45	32.062
416.80	32.254
417.16	33.579
417.51	33.776
417.87	32.241
418.22	34.385
418.58	33.570
418.93	32.862
419.29	33.036
419.64	32.935
420.00	32.073
420.35	32.464
420.71	32.995
421.06	31.683
421.42	33.275
421.77	33.072
422.12	31.836
422.48	32.650
422.83	33.430
423.19	32.928
423.54	33.198
423.90	32.928
424.25	31.937
424.61	32.024
424.96	32.945
425.31	33.112
425.67	31.966
426.02	32.286
426.38	33.578
426.73	31.890
427.09	32.948
427.44	32.777
427.79	32.720
428.15	33.631
428.50	32.534
428.85	33.492
429.21	32.413
429.56	32.297
429.92	32.864
430.27	31.927
430.62	32.565
430.98	33.005
431.33	31.959
431.68	32.199
432.04	32.535
432.39	33.752
432.74	33.573
433.10	32.541
433.45	33.236
433.80	33.315
434.16	33.013
434.51	32.579
434.86	33.067
435.22	33.241
435.57	34.103
435.92	32.651
436.28	34.223
436.63	33.830
436.98	33.887
437.34	32.737
437.69	33.897
438.04	32.715
438.39	32.179
438.75	33.120
439.10	33.464
439.45	33.353
439.81	32.749
440.16	32.806
440.51	33.861
440.86	33.700
441.22	32.759
441.57	33.227
441.92	32.549
442.27	33.800
442.63	32.965
442.98	33.690
443.33	33.696
443.68	33.299
444.03	32.552
444.39	32.035
444.74	32.738
445.09	32.237
445.44	33.078
445.79	32.954
446.15	33.192
446.50	32.526
446.85	33.402
447.20	33.707
447.55	33.836
447.91	33.039
448.26	32.944
448.61	33.013
448.96	33.499
449.31	34.533
449.66	33.427
450.02	32.981
450.37	32.710
450.72	32.318
451.07	32.724
451.42	32.766
451.77	33.294
452.12	33.141
452.47	33.147
452.83	32.925
453.18	33.068
453.53	34.694
453.88	32.723
454.23	33.652
454.58	34.949
454.93	34.266
455.28	33.915
455.63	34.163
455.98	34.345
456.34	33.606
456.69	34.815
457.04	33.684
457.39	33.431
457.74	34.010
458.09	33.295
458.44	33.067
458.79	32.375
459.14	33.126
459.49	34.326
459.84	32.521
460.19	32.292
460.54	32.118
460.89	33.790
461.24	34.183
461.59	33.585
461.94	32.799
462.29	34.065
462.64	34.525
462.99	32.791
463.34	34.667
463.69	33.646
464.04	33.681
464.39	33.797
464.74	32.858
465.09	32.992
465.44	32.798
465.79	32.494
466.14	33.498
466.49	33.204
466.84	34.209
467.19	33.675
467.54	33.625
467.89	33.313
468.24	33.159
468.59	34.310
468.94	33.476
469.29	33.098
469.64	34.337
469.99	34.168
470.34	33.686
470.68	34.626
471.03	34.014
471.38	34.399
471.73	34.577
472.08	33.553
472.43	33.229
472.78	32.785
473.13	33.633
473.48	33.208
473.83	33.476
474.17	33.043
474.52	33.933
474.87	34.267
475.22	33.314
475.57	32.563
475.92	33.192
476.27	32.638
476.61	32.874
476.96	32.930
477.31	32.601
477.66	33.096
478.01	32.985
478.36	33.316
478.70	32.814
479.05	32.801
479.40	32.907
479.75	33.554
480.10	32.853
480.45	32.413
480.79	32.537
481.14	32.681
481.49	32.701
481.84	32.327
482.19	32.349
482.53	33.165
482.88	32.713
483.23	32.897
483.58	32.894
483.92	32.709
484.27	31.983
484.62	32.198
484.97	31.770
485.31	32.260
485.66	30.703
486.01	28.832
486.36	27.715
486.70	27.562
487.05	28.394
487.40	29.571
487.75	30.066
488.09	30.604
488.44	31.755
488.79	32.043
489.13	32.200
489.48	32.055
489.83	32.154
490.17	32.617
490.52	31.621
490.87	32.791
491.22	31.833
491.56	30.524
491.91	31.829
492.26	31.649
492.60	31.613
492.95	31.618
493.30	31.916
493.64	31.451
493.99	31.848
494.34	32.054
494.68	32.555
495.03	33.036
495.37	32.527
495.72	32.456
496.07	32.204
496.41	31.062
496.76	32.674
497.11	32.103
497.45	32.464
497.80	32.006
498.14	31.304
498.49	31.854
498.84	31.927
499.18	31.571
499.53	32.146
499.87	31.827
500.22	31.465
500.56	32.524
500.91	32.837
501.26	32.622
501.60	32.843
501.95	31.531
502.29	31.959
502.64	31.611
502.98	31.697
503.33	30.941
503.67	31.369
504.02	31.665
504.36	31.820
504.71	31.510
505.06	31.855
505.40	31.842
505.75	32.690
506.09	31.050
506.44	31.968
506.78	32.440
507.13	31.600
507.47	32.374
507.82	33.131
508.16	32.016
508.51	32.319
508.85	32.075
509.19	32.296
509.54	31.786
509.88	32.664
510.23	32.339
510.57	33.437
510.92	32.833
511.26	32.374
511.61	32.780
511.95	31.942
512.30	32.291
512.64	32.241
512.98	33.280
513.33	33.351
513.67	31.697
514.02	32.035
514.36	32.332
514.70	32.485
515.05	33.129
515.39	32.866
515.74	33.164
516.08	33.259
516.42	32.963
516.77	33.668
517.11	32.408
517.46	32.393
517.80	32.985
518.14	32.774
518.49	32.905
518.83	33.693
519.17	33.083
519.52	33.503
519.86	32.402
520.20	33.757
520.55	34.231
520.89	34.124
521.23	33.353
521.58	33.914
521.92	33.497
522.26	33.252
522.61	34.891
522.95	33.702
523.29	33.962
523.64	33.232
523.98	33.888
524.32	33.776
524.66	34.336
525.01	33.333
525.35	33.643
525.69	32.882
526.04	33.520
526.38	34.899
526.72	32.883
527.06	33.019
527.41	32.921
527.75	34.277
528.09	34.425
528.43	34.736
528.78	34.358
529.12	32.909
529.46	34.476
529.80	34.035
530.15	34.766
530.49	32.369
530.83	33.608
531.17	33.812
531.51	34.501
531.86	32.323
532.20	33.572
532.54	34.593
532.88	35.109
533.22	32.917
533.57	32.654
533.91	33.052
534.25	31.956
534.59	33.252
534.93	32.302
535.27	32.046
535.62	32.479
535.96	34.024
536.30	32.867
536.64	33.290
536.98	34.506
537.32	33.772
537.66	32.933
538.01	33.904
538.35	33.807
538.69	33.823
539.03	32.489
539.37	32.652
539.71	32.275
540.05	34.118
540.39	33.422
540.73	32.665
541.07	33.615
541.42	33.986
541.76	33.806
542.10	33.571
542.44	33.377
542.78	33.992
543.12	32.374
543.46	33.246
543.80	32.986
544.14	32.478
544.48	32.508
544.82	32.328
545.16	33.702
545.50	32.969
545.84	33.669
546.18	34.074
546.52	33.586
546.86	33.883
547.20	33.581
547.54	33.467
547.88	33.673
548.22	32.503
548.56	33.082
548.90	32.010
549.24	33.131
549.58	34.038
549.92	33.860
550.26	33.097
550.60	32.503
550.94	33.592
551.28	33.577
551.62	33.573
551.96	32.632
552.30	33.720
552.64	33.807
552.98	33.966
553.32	32.839
553.66	33.674
554.00	33.219
554.34	33.402
554.68	34.120
555.02	33.780
555.36	33.125
555.69	32.679
556.03	33.715
556.37	32.810
556.71	32.538
557.05	33.193
557.39	32.610
557.73	33.522
558.07	34.590
558.41	33.864
558.75	33.137
559.08	33.706
559.42	33.787
559.76	33.897
560.10	33.191
560.44	33.194
560.78	32.269
561.12	33.575
561.45	33.507
561.79	32.828
562.13	31.321
562.47	34.016
562.81	33.752
563.15	32.375
563.48	32.759
563.82	32.681
564.16	33.094
564.50	32.227
564.84	32.491
565.17	31.467
565.51	31.885
565.85	33.058
566.19	32.373
566.52	32.552
566.86	31.826
567.20	31.958
567.54	31.336
567.88	31.668
568.21	31.799
568.55	30.940
568.89	30.447
569.23	30.214
569.56	29.393
569.90	29.623
570.24	28.418
570.57	28.970
570.91	28.022
571.25	27.857
571.59	27.865
571.92	27.448
572.26	27.787
572.60	28.318
572.93	28.156
573.27	28.571
573.61	27.554
573.95	28.346
574.28	26.533
574.62	27.284
574.96	27.049
575.29	26.528
575.63	27.160
575.97	27.415
576.30	27.456
576.64	27.192
576.98	26.860
577.31	27.010
577.65	26.927
577.98	26.940
578.32	26.350
578.66	26.457
578.99	26.432
579.33	27.257
579.67	27.122
580.00	26.924
580.34	26.887
580.67	26.873
581.01	27.254
581.35	26.672
581.68	26.725
582.02	26.168
582.35	25.967
582.69	26.227
583.02	26.575
583.36	27.023
583.70	27.797
584.03	27.482
584.37	28.011
584.70	27.821
585.04	27.495
585.37	27.586
585.71	27.091
586.04	27.205
586.38	27.351
586.72	27.534
587.05	27.167
587.39	26.992
587.72	27.261
588.06	27.134
588.39	27.435
588.73	27.691
589.06	28.451
589.40	28.552
589.73	28.652
590.07	28.719
590.40	28.827
590.73	28.728
591.07	29.385
591.40	29.186
591.74	30.390
592.07	29.407
592.41	29.558
592.74	28.427
593.08	28.015
593.41	27.903
593.75	27.171
594.08	27.456
594.41	28.031
594.75	28.355
595.08	27.989
595.42	28.932
595.75	27.778
596.09	28.502
596.42	28.802
596.75	28.493
597.09	29.351
597.42	28.541
597.75	29.194
598.09	29.217
598.42	29.038
598.76	28.172
599.09	27.936
599.42	27.984
599.76	28.075
600.09	27.286
600.42	27.684
600.76	27.607
601.09	28.452
601.42	28.463
601.76	28.235
602.09	28.696
602.42	28.463
602.76	28.658
603.09	29.032
603.42	27.958
603.76	27.515
604.09	28.228
604.42	28.781
604.76	28.596
605.09	28.091
605.42	28.046
605.75	28.684
606.09	28.142
606.42	28.484
606.75	29.034
607.09	28.715
607.42	28.541
607.75	28.481
608.08	27.964
608.42	29.673
608.75	28.674
609.08	28.076
609.41	28.796
609.75	28.728
610.08	29.123
610.41	28.212
610.74	28.855
611.07	29.496
611.41	29.048
611.74	30.216
612.07	30.072
612.40	29.958
612.73	29.632
613.07	29.310
613.40	29.910
613.73	29.051
614.06	29.032
614.39	29.523
614.72	29.158
615.06	29.044
615.39	28.662
615.72	28.323
616.05	29.240
616.38	29.683
616.71	30.523
617.05	30.801
617.38	30.066
617.71	30.090
618.04	30.108
618.37	29.687
618.70	30.554
619.03	31.447
619.36	31.840
619.69	30.845
620.03	31.937
620.36	31.417
620.69	31.712
621.02	31.785
621.35	32.106
621.68	31.854
622.01	31.192
622.34	31.316
622.67	33.080
623.00	31.621
623.33	31.165
623.66	30.951
623.99	31.517
624.32	30.243
624.65	30.508
624.99	29.391
625.32	31.137
625.65	32.006
625.98	32.206
626.31	31.960
626.64	34.041
626.97	33.832
627.30	32.253
627.63	32.978
627.96	32.969
628.29	32.896
628.62	33.669
628.95	34.340
629.28	33.759
629.61	33.639
629.94	34.095
630.26	33.937
630.59	32.793
630.92	32.759
