SpectraSuite Data File
++++++++++++++++++++++++++++++++++++
Date: Wed May 13 16:00:00 PDT 2015
User: schluterlab
Dark Spectrum Present: Yes
Reference Spectrum Present: Yes
Number of Sampled Component Spectra: 1
Spectrometers: USB2E3373
Integration Time (usec): 3000 (USB2E3373)
Spectra Averaged: 3 (USB2E3373)
Boxcar Smoothing: 0 (USB2E3373)
Correct for Electrical Dark: No (USB2E3373)
Strobe/Lamp Enabled: No (USB2E3373)
Correct for Detector Non-linearity: No (USB2E3373)
Correct for Stray Light: No (USB2E3373)
Number of Pixels in Processed Spectrum: 2048
>>>>>Begin Processed Spectral Data<<<<<
178.53	0.000
178.91	-375.000
179.29	-425.000
179.67	-38.889
180.04	-375.000
180.42	350.000
180.80	360.000
181.18	-150.000
181.56	185.714
181.94	0.000
182.31	-185.714
182.69	766.667
183.07	-87.500
183.45	-33.333
183.83	218.182
184.20	-0.000
184.58	650.000
184.96	1600.000
185.34	-80.000
185.72	-162.500
186.09	-200.000
186.47	750.000
186.85	150.000
187.23	1600.000
187.61	-766.667
187.98	475.000
188.36	145.455
188.74	118.182
189.12	-40.000
189.49	180.000
189.87	-300.000
190.25	-325.000
190.63	107.143
191.00	69.231
191.38	66.667
191.76	-100.000
192.14	575.000
192.51	125.000
192.89	216.667
193.27	75.000
193.65	-400.000
194.02	140.000
194.40	120.000
194.78	150.000
195.15	166.667
195.53	200.000
195.91	-200.000
196.29	106.250
196.66	100.000
197.04	-20.000
197.42	0.000
197.79	300.000
198.17	-1600.000
198.55	214.286
198.92	200.000
199.30	280.000
199.68	0.000
200.05	116.667
200.43	200.000
200.81	600.000
201.18	433.333
201.56	-333.333
201.94	122.222
202.31	55.556
202.69	125.000
203.07	80.000
203.44	0.000
203.82	500.000
204.19	300.000
204.57	142.857
204.95	212.500
205.32	366.667
205.70	190.909
206.08	164.286
206.45	950.000
206.83	131.250
207.20	216.667
207.58	-100.000
207.96	83.333
208.33	312.500
208.71	-233.333
209.08	128.571
209.46	144.444
209.84	54.545
210.21	-100.000
210.59	400.000
210.96	-75.000
211.34	650.000
211.71	200.000
212.09	216.667
212.46	0.000
212.84	300.000
213.22	275.000
213.59	-900.000
213.97	166.667
214.34	271.429
214.72	172.727
215.09	420.000
215.47	-550.000
215.84	-550.000
216.22	266.667
216.59	171.429
216.97	500.000
217.34	154.545
217.72	-100.000
218.09	0.000
218.47	-900.000
218.84	166.667
219.22	157.143
219.59	66.667
219.97	-28.571
220.34	320.000
220.72	-566.667
221.09	121.429
221.47	475.000
221.84	-366.667
222.22	0.000
222.59	650.000
222.97	-1050.000
223.34	320.000
223.72	84.615
224.09	280.000
224.46	500.000
224.84	-600.000
225.21	-260.000
225.59	-1000.000
225.96	260.000
226.34	120.000
226.71	700.000
227.08	250.000
227.46	160.000
227.83	-50.000
228.21	-450.000
228.58	266.667
228.95	-700.000
229.33	-150.000
229.70	333.333
230.08	285.714
230.45	-280.000
230.82	175.000
231.20	133.333
231.57	57.143
231.95	166.667
232.32	63.636
232.69	72.727
233.07	157.143
233.44	92.308
233.81	-333.333
234.19	142.105
234.56	150.000
234.93	75.000
235.31	136.364
235.68	38.462
236.05	35.714
236.43	66.667
236.80	115.789
237.17	1300.000
237.55	80.952
237.92	89.286
238.29	66.667
238.67	38.710
239.04	79.310
239.41	58.333
239.79	32.609
240.16	38.095
240.53	43.182
240.91	19.608
241.28	32.000
241.65	10.000
242.02	31.884
242.40	25.806
242.77	28.333
243.14	29.032
243.51	43.820
243.89	23.529
244.26	14.444
244.63	31.183
245.00	21.277
245.38	26.733
245.75	23.364
246.12	11.927
246.49	29.197
246.87	35.200
247.24	26.923
247.61	19.286
247.98	22.876
248.36	15.541
248.73	18.471
249.10	27.389
249.47	22.034
249.84	27.273
250.22	20.856
250.59	21.302
250.96	30.808
251.33	27.014
251.70	27.723
252.08	23.333
252.45	24.215
252.82	23.043
253.19	22.979
253.56	20.392
253.94	25.726
254.31	23.437
254.68	23.846
255.05	18.081
255.42	20.325
255.79	26.103
256.16	24.549
256.54	19.081
256.91	19.573
257.28	16.187
257.65	19.802
258.02	22.981
258.39	17.035
258.76	15.050
259.14	21.429
259.51	18.845
259.88	17.081
260.25	19.940
260.62	23.699
260.99	20.807
261.36	20.420
261.73	20.630
262.10	18.895
262.47	20.282
262.85	20.891
263.22	17.379
263.59	20.513
263.96	16.209
264.33	20.104
264.70	20.263
265.07	19.437
265.44	21.212
265.81	16.545
266.18	20.101
266.55	21.951
266.92	19.165
267.29	18.750
267.66	17.202
268.03	20.682
268.40	19.159
268.77	18.377
269.14	19.369
269.51	18.284
269.88	18.648
270.25	16.930
270.62	18.652
270.99	19.570
271.36	20.386
271.73	18.925
272.10	19.348
272.47	18.065
272.84	20.563
273.21	18.029
273.58	18.122
273.95	16.143
274.32	17.975
274.69	19.914
275.06	15.157
275.43	18.936
275.80	18.838
276.17	16.293
276.54	19.751
276.91	19.763
277.28	16.992
277.65	16.248
278.02	18.427
278.39	17.187
278.76	18.727
279.13	18.679
279.50	15.642
279.87	17.331
280.23	17.764
280.60	16.634
280.97	16.821
281.34	17.345
281.71	16.364
282.08	19.578
282.45	14.909
282.82	19.183
283.19	16.399
283.56	17.193
283.92	17.936
284.29	16.049
284.66	17.967
285.03	16.637
285.40	15.317
285.77	18.013
286.14	15.889
286.51	17.000
286.87	17.265
287.24	17.264
287.61	16.854
287.98	16.558
288.35	16.165
288.72	15.265
289.08	16.588
289.45	14.168
289.82	15.610
290.19	15.699
290.56	15.467
290.93	13.897
291.29	15.337
291.66	15.634
292.03	17.297
292.40	16.446
292.77	14.201
293.13	15.672
293.50	15.015
293.87	15.556
294.24	15.111
294.60	13.974
294.97	14.244
295.34	16.361
295.71	15.199
296.08	15.242
296.44	15.406
296.81	14.003
297.18	14.770
297.55	12.533
297.91	13.852
298.28	14.859
298.65	15.927
299.02	14.625
299.38	13.811
299.75	13.208
300.12	13.538
300.48	14.250
300.85	14.920
301.22	11.847
301.59	12.374
301.95	15.869
302.32	13.992
302.69	14.934
303.05	13.939
303.42	14.321
303.79	13.703
304.15	13.287
304.52	12.862
304.89	13.357
305.25	13.341
305.62	13.703
305.99	14.168
306.35	13.199
306.72	12.892
307.09	14.428
307.45	14.640
307.82	13.170
308.19	15.232
308.55	14.024
308.92	14.286
309.29	13.939
309.65	13.150
310.02	13.848
310.38	14.086
310.75	14.044
311.12	14.739
311.48	14.734
311.85	14.361
312.22	14.672
312.58	14.761
312.95	14.995
313.31	14.563
313.68	14.865
314.05	17.061
314.41	14.673
314.78	14.703
315.14	15.194
315.51	16.787
315.87	15.941
316.24	15.492
316.61	14.912
316.97	14.971
317.34	15.656
317.70	17.017
318.07	16.939
318.43	16.536
318.80	17.901
319.16	16.761
319.53	16.604
319.89	17.238
320.26	17.400
320.62	19.444
320.99	19.293
321.35	17.677
321.72	18.789
322.08	17.769
322.45	18.607
322.81	17.926
323.18	18.497
323.54	19.666
323.91	19.057
324.27	19.120
324.64	18.826
325.00	19.116
325.37	21.019
325.73	20.467
326.10	20.124
326.46	19.176
326.83	21.829
327.19	21.691
327.56	20.645
327.92	20.647
328.29	21.473
328.65	23.112
329.01	20.397
329.38	20.352
329.74	21.145
330.11	21.018
330.47	22.957
330.84	21.324
331.20	21.311
331.56	22.202
331.93	21.111
332.29	22.360
332.66	22.389
333.02	21.298
333.38	22.042
333.75	22.014
334.11	21.797
334.48	21.650
334.84	21.140
335.20	21.091
335.57	21.396
335.93	19.375
336.29	20.421
336.66	21.912
337.02	20.905
337.38	21.574
337.75	21.034
338.11	21.934
338.47	22.007
338.84	22.548
339.20	20.459
339.56	21.715
339.93	20.727
340.29	22.101
340.65	20.143
341.02	21.640
341.38	22.776
341.74	21.579
342.11	20.699
342.47	22.643
342.83	20.976
343.20	20.952
343.56	21.398
343.92	20.877
344.28	22.194
344.65	22.012
345.01	21.212
345.37	21.184
345.73	21.066
346.10	21.398
346.46	21.525
346.82	21.417
347.19	20.635
347.55	20.525
347.91	22.006
348.27	23.090
348.63	21.488
349.00	21.359
349.36	21.921
349.72	21.010
350.08	20.583
350.45	23.027
350.81	20.877
351.17	21.961
351.53	21.458
351.89	19.967
352.26	21.626
352.62	21.331
352.98	21.475
353.34	22.186
353.70	20.949
354.07	21.371
354.43	20.635
354.79	19.630
355.15	20.750
355.51	22.862
355.87	20.980
356.24	22.476
356.60	20.930
356.96	20.515
357.32	22.077
357.68	22.205
358.04	21.536
358.40	21.774
358.77	21.753
359.13	21.863
359.49	22.196
359.85	20.873
360.21	21.132
360.57	22.724
360.93	22.385
361.29	21.088
361.66	20.820
362.02	21.269
362.38	22.357
362.74	21.801
363.10	22.354
363.46	21.497
363.82	21.466
364.18	21.806
364.54	22.734
364.90	23.513
365.26	21.324
365.62	22.936
365.98	20.526
366.35	21.203
366.71	23.138
367.07	22.287
367.43	22.061
367.79	23.340
368.15	23.491
368.51	21.512
368.87	22.769
369.23	22.604
369.59	22.592
369.95	22.132
370.31	22.721
370.67	21.522
371.03	22.547
371.39	22.959
371.75	23.088
372.11	23.044
372.47	23.094
372.83	22.334
373.19	21.315
373.55	23.799
373.91	24.153
374.27	22.955
374.63	23.273
374.99	22.528
375.35	21.912
375.71	22.892
376.07	24.005
376.42	23.521
376.78	22.929
377.14	22.795
377.50	23.245
377.86	21.809
378.22	22.819
378.58	22.494
378.94	23.130
379.30	23.982
379.66	23.921
380.02	23.894
380.38	23.437
380.74	23.709
381.09	24.205
381.45	23.786
381.81	24.509
382.17	23.949
382.53	23.648
382.89	24.259
383.25	24.328
383.61	24.783
383.97	24.765
384.32	23.518
384.68	24.040
385.04	24.155
385.40	24.272
385.76	24.324
386.12	25.000
386.48	25.488
386.83	25.273
387.19	25.727
387.55	25.727
387.91	24.849
388.27	24.893
388.62	24.647
388.98	24.263
389.34	25.782
389.70	25.261
390.06	25.095
390.42	23.606
390.77	24.364
391.13	24.633
391.49	25.571
391.85	24.634
392.20	24.416
392.56	24.747
392.92	24.367
393.28	24.852
393.64	24.880
393.99	24.313
394.35	25.000
394.71	24.341
395.07	24.735
395.42	25.031
395.78	24.873
396.14	24.581
396.50	25.313
396.85	25.429
397.21	24.846
397.57	24.613
397.92	24.880
398.28	24.271
398.64	25.508
399.00	25.406
399.35	24.873
399.71	24.306
400.07	25.251
400.42	26.319
400.78	24.910
401.14	25.366
401.49	25.493
401.85	24.017
402.21	25.210
402.57	23.751
402.92	25.032
403.28	25.422
403.63	25.619
403.99	25.287
404.35	24.970
404.70	24.820
405.06	25.160
405.42	25.078
405.77	24.400
406.13	25.395
406.49	25.784
406.84	25.281
407.20	24.764
407.55	25.526
407.91	25.667
408.27	24.314
408.62	24.624
408.98	25.306
409.34	26.138
409.69	25.032
410.05	25.093
410.40	25.810
410.76	24.492
411.11	25.935
411.47	24.345
411.83	25.168
412.18	24.552
412.54	25.592
412.89	24.940
413.25	25.089
413.60	25.880
413.96	24.529
414.31	25.030
414.67	25.032
415.03	25.298
415.38	26.224
415.74	25.916
416.09	26.388
416.45	25.033
416.80	25.446
417.16	25.335
417.51	25.680
417.87	24.277
418.22	25.868
418.58	26.469
418.93	24.939
419.29	26.416
419.64	25.693
420.00	25.427
420.35	25.275
420.71	25.284
421.06	25.298
421.42	25.497
421.77	25.617
422.12	25.547
422.48	24.771
422.83	25.684
423.19	24.972
423.54	26.001
423.90	26.203
424.25	24.902
424.61	25.476
424.96	25.773
425.31	25.914
425.67	25.843
426.02	25.314
426.38	26.252
426.73	25.161
427.09	25.471
427.44	25.934
427.79	25.992
428.15	25.833
428.50	26.273
428.85	25.626
429.21	24.848
429.56	26.283
429.92	25.767
430.27	25.273
430.62	24.629
430.98	26.051
431.33	25.979
431.68	26.073
432.04	26.092
432.39	25.528
432.74	26.391
433.10	26.655
433.45	26.064
433.80	25.554
434.16	26.229
434.51	26.000
434.86	26.739
435.22	26.848
435.57	26.991
435.92	26.565
436.28	26.275
436.63	26.159
436.98	26.674
437.34	27.788
437.69	27.538
438.04	26.532
438.39	26.149
438.75	27.368
439.10	26.872
439.45	27.686
439.81	26.586
440.16	26.708
440.51	27.651
440.86	26.867
441.22	26.863
441.57	27.442
441.92	27.687
442.27	27.287
442.63	26.804
442.98	27.831
443.33	27.228
443.68	26.897
444.03	26.647
444.39	26.923
444.74	27.868
445.09	27.224
445.44	27.337
445.79	27.759
446.15	28.110
446.50	27.356
446.85	27.030
447.20	27.486
447.55	27.359
447.91	27.468
448.26	28.047
448.61	27.360
448.96	28.350
449.31	28.515
449.66	27.406
450.02	27.521
450.37	28.061
450.72	27.580
451.07	26.813
451.42	26.687
451.77	28.890
452.12	27.887
452.47	28.980
452.83	28.671
453.18	27.384
453.53	28.448
453.88	27.466
454.23	28.392
454.58	27.801
454.93	29.371
455.28	27.993
455.63	28.216
455.98	28.512
456.34	28.455
456.69	28.804
457.04	28.854
457.39	28.229
457.74	27.452
458.09	28.062
458.44	28.449
458.79	26.681
459.14	28.781
459.49	28.021
459.84	28.199
460.19	28.167
460.54	27.951
460.89	28.140
461.24	29.265
461.59	29.460
461.94	27.867
462.29	28.902
462.64	28.334
462.99	27.521
463.34	29.800
463.69	28.143
464.04	28.754
464.39	28.348
464.74	28.402
465.09	28.709
465.44	28.587
465.79	28.468
466.14	28.626
466.49	28.031
466.84	28.138
467.19	28.002
467.54	28.562
467.89	28.872
468.24	27.865
468.59	29.548
468.94	28.467
469.29	28.856
469.64	29.719
469.99	30.853
470.34	28.666
470.68	28.520
471.03	28.435
471.38	30.368
471.73	28.981
472.08	30.658
472.43	28.769
472.78	28.440
473.13	29.076
473.48	29.588
473.83	29.756
474.17	29.060
474.52	30.211
474.87	28.780
475.22	29.541
475.57	28.533
475.92	29.262
476.27	29.087
476.61	29.178
476.96	28.642
477.31	28.728
477.66	29.595
478.01	29.273
478.36	29.984
478.70	28.920
479.05	29.766
479.40	29.120
479.75	29.283
480.10	28.777
480.45	29.129
480.79	28.667
481.14	29.697
481.49	29.710
481.84	29.035
482.19	28.532
482.53	28.349
482.88	28.804
483.23	28.879
483.58	29.163
483.92	30.037
484.27	29.368
484.62	28.491
484.97	28.419
485.31	28.904
485.66	28.073
486.01	26.934
486.36	26.732
486.70	25.988
487.05	26.410
487.40	26.685
487.75	26.972
488.09	27.085
488.44	26.751
488.79	27.342
489.13	28.533
489.48	27.977
489.83	28.744
490.17	29.724
490.52	29.274
490.87	28.358
491.22	28.422
491.56	29.021
491.91	29.967
492.26	29.077
492.60	29.032
492.95	28.391
493.30	28.645
493.64	29.211
493.99	29.294
494.34	29.371
494.68	29.899
495.03	30.169
495.37	29.176
495.72	29.971
496.07	30.162
496.41	29.248
496.76	29.815
497.11	29.671
497.45	29.576
497.80	30.278
498.14	28.889
498.49	29.220
498.84	29.674
499.18	29.095
499.53	30.009
499.87	29.217
500.22	29.628
500.56	31.117
500.91	29.856
501.26	29.825
501.60	29.995
501.95	29.973
502.29	30.272
502.64	30.587
502.98	30.341
503.33	29.982
503.67	29.791
504.02	29.888
504.36	29.715
504.71	29.507
505.06	29.976
505.40	30.433
505.75	30.714
506.09	30.321
506.44	30.242
506.78	30.638
507.13	30.591
507.47	31.364
507.82	31.054
508.16	31.358
508.51	31.558
508.85	30.586
509.19	31.684
509.54	31.122
509.88	31.118
510.23	31.722
510.57	32.250
510.92	31.020
511.26	31.809
511.61	31.224
511.95	30.637
512.30	31.336
512.64	31.220
512.98	32.047
513.33	31.745
513.67	31.377
514.02	31.764
514.36	32.059
514.70	32.042
515.05	32.181
515.39	32.025
515.74	31.982
516.08	32.812
516.42	32.686
516.77	33.055
517.11	32.408
517.46	32.506
517.80	33.159
518.14	32.774
518.49	33.022
518.83	32.330
519.17	34.065
519.52	32.654
519.86	32.744
520.20	33.064
520.55	33.453
520.89	34.063
521.23	33.896
521.58	33.433
521.92	34.109
522.26	33.130
522.61	34.393
522.95	33.333
523.29	33.110
523.64	34.756
523.98	34.750
524.32	33.836
524.66	33.975
525.01	33.395
525.35	32.962
525.69	33.805
526.04	33.645
526.38	33.496
526.72	32.761
527.06	34.149
527.41	32.550
527.75	33.633
528.09	34.425
528.43	34.481
528.78	33.620
529.12	33.697
529.46	33.619
529.80	33.725
530.15	34.393
530.49	33.169
530.83	33.987
531.17	35.313
531.51	34.047
531.86	34.323
532.20	34.811
532.54	34.081
532.88	33.954
533.22	33.417
533.57	34.444
533.91	33.353
534.25	32.807
534.59	33.252
534.93	33.670
535.27	33.072
535.62	33.028
535.96	33.333
536.30	34.139
536.64	34.127
536.98	34.439
537.32	32.521
537.66	33.067
538.01	32.587
538.35	33.420
538.69	35.035
539.03	32.619
539.37	32.268
539.71	32.340
540.05	33.791
540.39	33.821
540.73	32.859
541.07	34.393
541.42	32.616
541.76	34.710
542.10	33.765
542.44	33.311
542.78	34.058
543.12	33.589
543.46	34.689
543.80	33.442
544.14	33.440
544.48	33.778
544.82	32.842
545.16	32.986
545.50	33.098
545.84	32.527
546.18	32.862
546.52	33.517
546.86	33.814
547.20	33.918
547.54	33.200
547.88	32.589
548.22	32.254
548.56	32.516
548.90	33.355
549.24	32.593
549.58	33.288
549.92	32.898
550.26	35.156
550.60	32.642
550.94	33.028
551.28	32.772
551.62	33.357
551.96	33.895
552.30	33.311
552.64	33.671
552.98	34.441
553.32	33.648
553.66	34.015
554.00	33.837
554.34	32.919
554.68	33.691
555.02	33.992
555.36	32.707
555.69	32.544
556.03	33.984
556.37	33.629
556.71	32.742
557.05	33.403
557.39	33.730
557.73	33.028
558.07	33.503
558.41	32.200
558.75	33.137
559.08	34.750
559.42	33.862
559.76	35.147
560.10	32.405
560.44	32.914
560.78	32.003
561.12	33.707
561.45	33.246
561.79	32.037
562.13	34.004
562.47	32.855
562.81	33.682
563.15	32.642
563.48	33.554
563.82	33.203
564.16	32.636
564.50	32.682
564.84	32.174
565.17	32.368
565.51	32.907
565.85	32.614
566.19	30.933
566.52	31.982
566.86	31.163
567.20	32.606
567.54	31.849
567.88	31.450
568.21	32.434
568.55	31.193
568.89	30.837
569.23	29.545
569.56	29.919
569.90	29.736
570.24	29.064
570.57	28.120
570.91	28.119
571.25	28.351
571.59	27.982
571.92	28.226
572.26	27.585
572.60	27.628
572.93	26.777
573.27	27.891
573.61	27.387
573.95	27.700
574.28	26.834
574.62	26.895
574.96	27.192
575.29	27.110
575.63	26.499
575.97	26.946
576.30	27.005
576.64	26.889
576.98	27.467
577.31	26.155
577.65	26.471
577.98	26.498
578.32	26.152
578.66	26.226
578.99	26.478
579.33	26.507
579.67	26.101
580.00	26.397
580.34	26.364
580.67	26.471
581.01	26.490
581.35	26.631
581.68	26.706
582.02	26.045
582.35	25.949
582.69	25.734
583.02	26.198
583.36	25.917
583.70	26.424
584.03	26.228
584.37	26.667
584.70	26.881
585.04	26.003
585.37	26.281
585.71	26.715
586.04	26.359
586.38	26.463
586.72	26.512
587.05	26.650
587.39	25.778
587.72	26.797
588.06	26.547
588.39	27.078
588.73	26.606
589.06	26.675
589.40	26.936
589.73	27.350
590.07	26.904
590.40	26.525
590.73	27.244
591.07	28.246
591.40	28.553
591.74	28.312
592.07	28.185
592.41	27.987
592.74	28.015
593.08	27.315
593.41	27.270
593.75	26.796
594.08	26.819
594.41	27.466
594.75	27.246
595.08	26.807
595.42	27.110
595.75	27.422
596.09	26.812
596.42	27.741
596.75	27.142
597.09	28.355
597.42	27.361
597.75	27.684
598.09	27.739
598.42	27.448
598.76	27.564
599.09	27.328
599.42	26.492
599.76	27.343
600.09	26.667
600.42	27.502
600.76	26.786
601.09	26.922
601.42	27.626
601.76	27.059
602.09	27.312
602.42	27.070
602.76	27.570
603.09	27.380
603.42	27.763
603.76	27.058
604.09	27.414
604.42	27.191
604.76	27.836
605.09	27.348
605.42	26.977
605.75	27.028
606.09	27.328
606.42	26.767
606.75	25.923
607.09	26.831
607.42	27.428
607.75	26.287
608.08	27.269
608.42	28.149
608.75	27.638
609.08	27.197
609.41	27.178
609.75	26.918
610.08	27.333
610.41	27.747
610.74	27.294
611.07	28.261
611.41	28.165
611.74	28.054
612.07	27.950
612.40	28.174
612.73	27.526
613.07	28.502
613.40	28.857
613.73	27.320
614.06	29.140
614.39	27.950
614.72	28.053
615.06	28.256
615.39	27.495
615.72	28.579
616.05	28.230
616.38	28.016
616.71	28.444
617.05	29.211
617.38	28.382
617.71	28.649
618.04	29.207
618.37	27.794
618.70	29.247
619.03	28.750
619.36	28.649
619.69	29.437
620.03	28.915
620.36	30.214
620.69	30.205
621.02	30.383
621.35	29.287
621.68	29.361
622.01	29.876
622.34	31.165
622.67	29.734
623.00	29.274
623.33	29.378
623.66	30.021
623.99	29.897
624.32	29.101
624.65	29.944
624.99	29.108
625.32	29.254
625.65	30.503
625.98	30.284
626.31	30.171
626.64	29.796
626.97	30.424
627.30	28.678
627.63	31.255
627.96	32.464
628.29	31.059
628.62	31.016
628.95	31.415
629.28	31.022
629.61	32.264
629.94	30.667
630.26	32.031
630.59	32.316
630.92	31.609
631.25	30.602
631.58	31.732
631.91	32.353
632.24	30.169
632.57	32.319
632.90	31.908
