SpectraSuite Data File
++++++++++++++++++++++++++++++++++++
Date: Wed May 13 16:05:47 PDT 2015
User: schluterlab
Dark Spectrum Present: Yes
Reference Spectrum Present: Yes
Number of Sampled Component Spectra: 1
Spectrometers: USB2E3373
Integration Time (usec): 3000 (USB2E3373)
Spectra Averaged: 3 (USB2E3373)
Boxcar Smoothing: 0 (USB2E3373)
Correct for Electrical Dark: No (USB2E3373)
Strobe/Lamp Enabled: No (USB2E3373)
Correct for Detector Non-linearity: No (USB2E3373)
Correct for Stray Light: No (USB2E3373)
Number of Pixels in Processed Spectrum: 2048
>>>>>Begin Processed Spectral Data<<<<<
178.53	0.000
178.91	-625.000
179.29	-800.000
179.67	-100.000
180.04	-675.000
180.42	1750.000
180.80	820.000
181.18	-575.000
181.56	328.571
181.94	0.000
182.31	-371.429
182.69	1000.000
183.07	-362.500
183.45	-266.667
183.83	300.000
184.20	-260.000
184.58	1200.000
184.96	3300.000
185.34	-480.000
185.72	-437.500
186.09	-1300.000
186.47	1750.000
186.85	1150.000
187.23	2700.000
187.61	-733.333
187.98	925.000
188.36	345.455
188.74	290.909
189.12	-500.000
189.49	350.000
189.87	-2300.000
190.25	-875.000
190.63	278.571
191.00	269.231
191.38	483.333
191.76	-550.000
192.14	950.000
192.51	237.500
192.89	600.000
193.27	350.000
193.65	-600.000
194.02	290.000
194.40	740.000
194.78	270.000
195.15	408.333
195.53	380.000
195.91	-1200.000
196.29	200.000
196.66	210.526
197.04	-140.000
197.42	0.000
197.79	440.000
198.17	-2200.000
198.55	485.714
198.92	537.500
199.30	560.000
199.68	0.000
200.05	233.333
200.43	557.143
200.81	2700.000
201.18	1000.000
201.56	-1133.333
201.94	333.333
202.31	344.444
202.69	258.333
203.07	300.000
203.44	0.000
203.82	675.000
204.19	514.286
204.57	250.000
204.95	300.000
205.32	933.333
205.70	254.545
206.08	242.857
206.45	1250.000
206.83	250.000
207.20	683.333
207.58	420.000
207.96	216.667
208.33	400.000
208.71	-500.000
209.08	600.000
209.46	366.667
209.84	363.636
210.21	-666.667
210.59	775.000
210.96	-200.000
211.34	1400.000
211.71	370.000
212.09	533.333
212.46	0.000
212.84	1166.667
213.22	800.000
213.59	-2400.000
213.97	350.000
214.34	357.143
214.72	381.818
215.09	620.000
215.47	-950.000
215.84	-1250.000
216.22	900.000
216.59	228.571
216.97	800.000
217.34	245.455
217.72	-283.333
218.09	0.000
218.47	-2200.000
218.84	422.222
219.22	342.857
219.59	1166.667
219.97	-371.429
220.34	480.000
220.72	-966.667
221.09	307.143
221.47	825.000
221.84	-616.667
222.22	0.000
222.59	900.000
222.97	-1750.000
223.34	660.000
223.72	253.846
224.09	720.000
224.46	1550.000
224.84	-2500.000
225.21	-680.000
225.59	-1900.000
225.96	350.000
226.34	205.000
226.71	1400.000
227.08	325.000
227.46	320.000
227.83	-475.000
228.21	-1450.000
228.58	388.889
228.95	-1450.000
229.33	-1250.000
229.70	1366.667
230.08	500.000
230.45	-320.000
230.82	258.333
231.20	633.333
231.57	300.000
231.95	200.000
232.32	150.000
232.69	118.182
233.07	428.571
233.44	161.538
233.81	-1000.000
234.19	163.158
234.56	233.333
234.93	208.333
235.31	327.273
235.68	223.077
236.05	235.714
236.43	118.182
236.80	168.421
237.17	2100.000
237.55	157.143
237.92	135.714
238.29	166.667
238.67	96.774
239.04	144.828
239.41	119.444
239.79	78.261
240.16	114.286
240.53	79.545
240.91	80.392
241.28	78.000
241.65	76.000
242.02	59.420
242.40	77.419
242.77	66.667
243.14	59.140
243.51	68.539
243.89	55.294
244.26	47.778
244.63	49.462
245.00	54.255
245.38	57.426
245.75	55.140
246.12	54.128
246.49	56.934
246.87	66.400
247.24	60.769
247.61	47.857
247.98	49.020
248.36	48.649
248.73	45.860
249.10	54.777
249.47	47.458
249.84	44.920
250.22	45.989
250.59	47.337
250.96	48.485
251.33	45.498
251.70	45.050
252.08	42.381
252.45	40.359
252.82	41.739
253.19	41.702
253.56	42.353
253.94	43.568
254.31	35.937
254.68	43.846
255.05	39.483
255.42	38.211
255.79	38.235
256.16	46.931
256.54	37.102
256.91	38.434
257.28	35.971
257.65	41.254
258.02	37.888
258.39	39.117
258.76	39.130
259.14	40.774
259.51	37.082
259.88	36.646
260.25	38.066
260.62	38.439
260.99	41.925
261.36	40.240
261.73	40.688
262.10	37.500
262.47	37.183
262.85	33.983
263.22	34.758
263.59	37.322
263.96	35.714
264.33	32.898
264.70	36.316
265.07	39.130
265.44	37.374
265.81	33.333
266.18	34.422
266.55	35.610
266.92	36.364
267.29	36.806
267.66	35.550
268.03	36.136
268.40	35.047
268.77	35.322
269.14	35.360
269.51	35.214
269.88	35.198
270.25	33.183
270.62	34.382
270.99	35.699
271.36	37.124
271.73	36.449
272.10	34.348
272.47	37.419
272.84	35.931
273.21	35.849
273.58	35.153
273.95	34.591
274.32	32.645
274.69	34.904
275.06	33.071
275.43	34.255
275.80	35.671
276.17	36.253
276.54	35.551
276.91	35.771
277.28	31.445
277.65	35.977
278.02	32.505
278.39	34.570
278.76	33.636
279.13	33.774
279.50	33.147
279.87	36.853
280.23	33.134
280.60	35.010
280.97	33.641
281.34	35.398
281.71	34.182
282.08	33.589
282.45	33.091
282.82	30.018
283.19	31.907
283.56	32.105
283.92	33.164
284.29	31.922
284.66	34.483
285.03	35.081
285.40	33.803
285.77	33.838
286.14	32.470
286.51	33.000
286.87	34.359
287.24	33.062
287.61	31.621
287.98	29.870
288.35	29.477
288.72	30.218
289.08	30.203
289.45	30.807
289.82	33.496
290.19	28.885
290.56	29.862
290.93	28.097
291.29	31.595
291.66	30.973
292.03	30.814
292.40	30.690
292.77	29.734
293.13	28.955
293.50	29.592
293.87	29.037
294.24	27.111
294.60	27.948
294.97	30.087
295.34	28.773
295.71	29.972
296.08	27.350
296.44	28.611
296.81	28.402
297.18	28.997
297.55	26.781
297.91	26.385
298.28	27.443
298.65	28.721
299.02	29.381
299.38	26.826
299.75	25.876
300.12	26.820
300.48	27.500
300.85	26.141
301.22	28.280
301.59	26.263
301.95	28.967
302.32	26.829
302.69	27.001
303.05	27.030
303.42	26.914
303.79	26.614
304.15	24.825
304.52	27.346
304.89	26.365
305.25	26.102
305.62	27.520
305.99	28.335
306.35	26.734
306.72	27.466
307.09	27.525
307.45	28.604
307.82	24.777
308.19	26.821
308.55	29.018
308.92	27.497
309.29	27.244
309.65	27.147
310.02	27.590
310.38	27.097
310.75	27.561
311.12	27.738
311.48	28.736
311.85	28.197
312.22	27.888
312.58	29.834
312.95	27.666
313.31	27.864
313.68	29.314
314.05	29.389
314.41	29.347
314.78	28.802
315.14	30.189
315.51	29.866
315.87	30.198
316.24	30.288
316.61	29.532
316.97	29.843
317.34	28.767
317.70	30.402
318.07	30.510
318.43	30.626
318.80	31.303
319.16	31.450
319.53	30.488
319.89	32.000
320.26	31.900
320.62	31.349
320.99	32.323
321.35	32.020
321.72	32.444
322.08	33.465
322.45	34.527
322.81	34.787
323.18	33.815
323.54	33.859
323.91	33.774
324.27	33.556
324.64	35.322
325.00	34.536
325.37	34.850
325.73	36.445
326.10	35.834
326.46	35.305
326.83	36.324
327.19	35.611
327.56	37.108
327.92	37.270
328.29	37.711
328.65	38.029
329.01	36.643
329.38	38.575
329.74	38.227
330.11	37.323
330.47	37.925
330.84	39.246
331.20	36.157
331.56	38.440
331.93	37.870
332.29	37.356
332.66	38.230
333.02	37.751
333.38	38.031
333.75	38.859
334.11	38.345
334.48	37.799
334.84	38.511
335.20	38.091
335.57	37.806
335.93	36.071
336.29	36.905
336.66	37.782
337.02	37.285
337.38	37.685
337.75	35.740
338.11	38.227
338.47	37.937
338.84	38.497
339.20	37.431
339.56	38.686
339.93	38.364
340.29	38.225
340.65	38.235
341.02	36.998
341.38	38.523
341.74	37.807
342.11	38.079
342.47	39.119
342.83	37.757
343.20	38.182
343.56	37.489
343.92	39.211
344.28	37.840
344.65	39.123
345.01	39.310
345.37	36.621
345.73	37.986
346.10	37.852
346.46	38.898
346.82	37.644
347.19	37.845
347.55	37.931
347.91	39.968
348.27	39.030
348.63	38.294
349.00	38.916
349.36	38.342
349.72	38.492
350.08	38.250
350.45	38.812
350.81	38.424
351.17	37.925
351.53	38.165
351.89	38.366
352.26	38.200
352.62	39.374
352.98	39.060
353.34	39.359
353.70	38.707
354.07	38.790
354.43	38.730
354.79	38.375
355.15	38.867
355.51	39.808
355.87	39.429
356.24	39.495
356.60	38.172
356.96	40.225
357.32	40.147
357.68	40.630
358.04	39.430
358.40	40.222
358.77	39.671
359.13	39.227
359.49	40.314
359.85	40.159
360.21	38.836
360.57	40.156
360.93	40.231
361.29	40.287
361.66	40.093
362.02	41.119
362.38	40.456
362.74	41.220
363.10	39.526
363.46	39.545
363.82	40.438
364.18	40.382
364.54	41.010
364.90	40.510
365.26	41.544
365.62	40.394
365.98	40.687
366.35	39.398
366.71	42.082
367.07	41.515
367.43	42.090
367.79	41.399
368.15	41.595
368.51	40.334
368.87	41.970
369.23	40.673
369.59	42.578
369.95	41.544
370.31	41.453
370.67	41.957
371.03	40.974
371.39	42.347
371.75	42.500
372.11	40.825
372.47	43.988
372.83	43.948
373.19	42.124
373.55	43.016
373.91	43.741
374.27	42.131
374.63	42.764
374.99	42.090
375.35	43.126
375.71	42.426
376.07	42.867
376.42	43.673
376.78	43.009
377.14	43.148
377.50	42.781
377.86	42.819
378.22	43.173
378.58	43.170
378.94	43.872
379.30	43.003
379.66	43.845
380.02	43.428
380.38	43.291
380.74	43.517
381.09	43.765
381.45	44.561
381.81	44.779
382.17	44.459
382.53	43.648
382.89	44.753
383.25	43.840
383.61	45.477
383.97	43.902
384.32	44.916
384.68	43.247
385.04	44.069
385.40	44.520
385.76	44.287
386.12	45.272
386.48	45.689
386.83	45.863
387.19	46.382
387.55	45.145
387.91	45.466
388.27	45.187
388.62	45.913
388.98	45.270
389.34	45.119
389.70	44.880
390.06	46.705
390.42	46.693
390.77	45.420
391.13	45.501
391.49	46.256
391.85	45.003
392.20	45.363
392.56	45.644
392.92	46.439
393.28	44.911
393.64	45.983
393.99	45.388
394.35	45.782
394.71	45.546
395.07	45.545
395.42	45.983
395.78	45.802
396.14	46.120
396.50	46.115
396.85	46.599
397.21	44.575
397.57	46.373
397.92	45.974
398.28	45.348
398.64	45.759
399.00	44.992
399.35	45.572
399.71	45.833
400.07	45.890
400.42	46.012
400.78	46.441
401.14	45.427
401.49	45.194
401.85	44.525
402.21	44.850
402.57	45.342
402.92	47.163
403.28	46.408
403.63	46.473
403.99	45.860
404.35	44.970
404.70	45.803
405.06	44.380
405.42	44.791
405.77	44.629
406.13	44.808
406.49	44.766
406.84	45.363
407.20	44.385
407.55	44.416
407.91	45.333
408.27	46.011
408.62	44.371
408.98	45.282
409.34	44.280
409.69	44.710
410.05	45.663
410.40	45.443
410.76	43.907
411.11	43.064
411.47	44.089
411.83	44.716
412.18	44.651
412.54	44.583
412.89	44.880
413.25	44.215
413.60	45.028
413.96	43.169
414.31	45.383
414.67	45.437
415.03	44.238
415.38	43.943
415.74	43.859
416.09	45.460
416.45	44.645
416.80	44.679
417.16	44.973
417.51	44.658
417.87	43.802
418.22	44.921
418.58	44.416
418.93	44.840
419.29	44.239
419.64	44.899
420.00	43.720
420.35	44.348
420.71	44.471
421.06	43.258
421.42	45.380
421.77	43.386
422.12	43.066
422.48	43.173
422.83	43.564
423.19	44.033
423.54	44.283
423.90	44.812
424.25	43.774
424.61	43.810
424.96	44.257
425.31	44.574
425.67	43.427
426.02	43.200
426.38	45.849
426.73	44.822
427.09	44.134
427.44	45.256
427.79	44.048
428.15	43.750
428.50	44.002
428.85	44.041
429.21	44.671
429.56	44.427
429.92	44.036
430.27	43.694
430.62	43.062
430.98	44.058
431.33	43.814
431.68	44.450
432.04	43.504
432.39	44.660
432.74	44.225
433.10	44.086
433.45	44.665
433.80	44.457
434.16	43.964
434.51	43.789
434.86	44.185
435.22	44.747
435.57	45.897
435.92	44.470
436.28	46.323
436.63	44.923
436.98	44.190
437.34	45.498
437.69	45.041
438.04	45.868
438.39	44.896
438.75	46.601
439.10	46.089
439.45	44.864
439.81	45.378
440.16	45.116
440.51	44.991
440.86	46.381
441.22	45.940
441.57	45.276
441.92	45.241
442.27	46.986
442.63	45.024
442.98	46.535
443.33	46.413
443.68	45.483
444.03	45.925
444.39	45.667
444.74	46.104
445.09	45.229
445.44	45.325
445.79	46.017
446.15	45.474
446.50	45.234
446.85	46.660
447.20	45.385
447.55	46.231
447.91	45.725
448.26	45.743
448.61	46.976
448.96	46.179
449.31	45.838
449.66	45.920
450.02	44.735
450.37	46.712
450.72	45.290
451.07	45.338
451.42	45.957
451.77	46.565
452.12	45.554
452.47	45.958
452.83	46.737
453.18	46.638
453.53	46.197
453.88	46.013
454.23	46.503
454.58	46.638
454.93	46.408
455.28	46.322
455.63	46.602
455.98	48.274
456.34	46.859
456.69	46.900
457.04	47.121
457.39	46.406
457.74	46.663
458.09	46.521
458.44	46.123
458.79	45.011
459.14	45.880
459.49	46.760
459.84	46.150
460.19	45.551
460.54	44.560
460.89	46.736
461.24	46.630
461.59	46.368
461.94	45.931
462.29	46.469
462.64	46.203
462.99	44.958
463.34	46.800
463.69	46.404
464.04	46.783
464.39	45.913
464.74	45.217
465.09	45.959
465.44	45.097
465.79	45.414
466.14	45.211
466.49	44.994
466.84	46.060
467.19	45.202
467.54	45.000
467.89	45.438
468.24	46.248
468.59	47.070
468.94	45.449
469.29	46.208
469.64	46.787
469.99	47.564
470.34	46.103
470.68	47.342
471.03	46.667
471.38	47.603
471.73	46.369
472.08	47.895
472.43	45.854
472.78	46.412
473.13	47.047
473.48	46.380
473.83	46.463
474.17	45.800
474.52	47.208
474.87	46.935
475.22	45.850
475.57	45.513
475.92	45.141
476.27	46.280
476.61	46.222
476.96	45.190
477.31	45.264
477.66	46.225
478.01	45.112
478.36	45.584
478.70	45.223
479.05	46.486
479.40	46.418
479.75	46.009
480.10	44.881
480.45	44.645
480.79	44.768
481.14	44.863
481.49	45.373
481.84	44.490
482.19	45.434
482.53	45.183
482.88	44.114
483.23	45.654
483.58	44.722
483.92	46.157
484.27	44.183
484.62	44.957
484.97	44.501
485.31	45.411
485.66	43.117
486.01	41.544
486.36	40.090
486.70	39.257
487.05	40.077
487.40	41.241
487.75	41.621
488.09	43.282
488.44	43.496
488.79	43.906
489.13	44.652
489.48	44.617
489.83	44.411
490.17	46.032
490.52	45.306
490.87	44.821
491.22	44.566
491.56	44.282
491.91	44.439
492.26	45.062
492.60	44.654
492.95	44.060
493.30	43.925
493.64	44.797
493.99	44.615
494.34	44.958
494.68	45.147
495.03	45.677
495.37	44.905
495.72	45.127
496.07	44.965
496.41	44.071
496.76	45.075
497.11	43.404
497.45	44.993
497.80	44.194
498.14	44.976
498.49	45.024
498.84	45.494
499.18	43.905
499.53	45.014
499.87	44.268
500.22	44.136
500.56	45.971
500.91	44.519
501.26	45.614
501.60	45.657
501.95	43.630
502.29	45.314
502.64	44.600
502.98	43.806
503.33	44.378
503.67	43.434
504.02	44.808
504.36	44.034
504.71	44.846
505.06	45.349
505.40	45.017
505.75	43.828
506.09	44.752
506.44	44.697
506.78	44.569
507.13	44.674
507.47	45.505
507.82	44.934
508.16	45.745
508.51	45.611
508.85	45.233
509.19	45.306
509.54	44.898
509.88	44.874
510.23	45.193
510.57	45.511
510.92	45.313
511.26	45.427
511.61	44.865
511.95	44.676
512.30	45.652
512.64	45.137
512.98	46.302
513.33	46.681
513.67	45.838
514.02	45.184
514.36	45.385
514.70	45.711
515.05	45.008
515.39	46.663
515.74	45.608
516.08	46.730
516.42	46.504
516.77	47.213
517.11	46.282
517.46	45.429
517.80	47.096
518.14	46.265
518.49	47.200
518.83	46.136
519.17	47.171
519.52	47.029
519.86	45.750
520.20	47.168
520.55	46.978
520.89	48.662
521.23	46.984
521.58	48.019
521.92	48.622
522.26	45.943
522.61	47.788
522.95	47.759
523.29	46.196
523.64	46.951
523.98	47.320
524.32	46.261
524.66	45.520
525.01	46.201
525.35	45.911
525.69	46.059
526.04	48.287
526.38	46.065
526.72	46.380
527.06	46.893
527.41	45.483
527.75	46.238
528.09	47.784
528.43	47.992
528.78	47.019
529.12	46.303
529.46	46.663
529.80	46.287
530.15	47.414
530.49	45.662
530.83	45.949
531.17	46.345
531.51	47.471
531.86	46.258
532.20	46.349
532.54	47.406
532.88	46.791
533.22	45.846
533.57	45.432
533.91	45.936
534.25	45.626
534.59	46.309
534.93	44.259
535.27	45.263
535.62	45.971
535.96	45.888
536.30	44.437
536.64	45.589
536.98	46.583
537.32	45.820
537.66	46.267
538.01	45.688
538.35	46.283
538.69	46.394
539.03	45.094
539.37	45.112
539.71	44.200
540.05	44.902
540.39	45.050
540.73	44.761
541.07	47.112
541.42	45.336
541.76	46.000
542.10	45.602
542.44	45.298
542.78	46.179
543.12	44.402
543.46	44.787
543.80	45.608
544.14	43.389
544.48	44.254
544.82	43.233
545.16	44.632
545.50	44.794
545.84	45.228
546.18	45.589
546.52	44.253
546.86	44.880
547.20	44.976
547.54	44.289
547.88	46.110
548.22	43.524
548.56	45.031
548.90	44.686
549.24	44.377
549.58	45.907
549.92	45.398
550.26	44.744
550.60	45.090
550.94	44.648
551.28	44.916
551.62	44.788
551.96	45.053
552.30	44.710
552.64	45.436
552.98	44.746
553.32	44.639
553.66	43.286
554.00	45.916
554.34	44.030
554.68	46.137
555.02	44.358
555.36	44.328
555.69	43.031
556.03	45.087
556.37	43.997
556.71	43.315
557.05	45.448
557.39	44.927
557.73	44.742
558.07	44.598
558.41	45.224
558.75	44.820
559.08	46.085
559.42	45.276
559.76	45.882
560.10	43.540
560.44	44.864
560.78	42.848
561.12	43.668
561.45	44.915
561.79	42.584
562.13	43.327
562.47	44.126
562.81	44.770
563.15	44.214
563.48	43.767
563.82	44.749
564.16	43.362
564.50	43.099
564.84	42.351
565.17	42.857
565.51	42.748
565.85	42.513
566.19	42.517
566.52	42.749
566.86	41.832
567.20	42.689
567.54	42.751
567.88	41.771
568.21	41.958
568.55	41.001
568.89	40.564
569.23	39.973
569.56	38.664
569.90	38.189
570.24	38.285
570.57	37.606
570.91	37.233
571.25	37.091
571.59	36.789
571.92	37.327
572.26	37.060
572.60	37.447
572.93	36.882
573.27	37.474
573.61	36.851
573.95	37.339
574.28	36.407
574.62	36.443
574.96	36.057
575.29	36.154
575.63	36.662
575.97	36.683
576.30	36.591
576.64	36.442
576.98	36.582
577.31	35.813
577.65	36.004
577.98	35.384
578.32	34.631
578.66	35.597
578.99	35.152
579.33	35.488
579.67	35.831
580.00	35.531
580.34	36.426
580.67	35.949
581.01	35.620
581.35	35.754
581.68	35.689
582.02	34.616
582.35	35.063
582.69	34.641
583.02	35.279
583.36	35.647
583.70	36.414
584.03	36.207
584.37	36.943
584.70	36.782
585.04	36.032
585.37	35.974
585.71	35.832
586.04	35.129
586.38	36.233
586.72	36.454
587.05	35.507
587.39	35.515
587.72	36.073
588.06	36.393
588.39	36.077
588.73	36.462
589.06	36.927
589.40	36.936
589.73	37.029
590.07	37.153
590.40	37.157
590.73	38.251
591.07	38.624
591.40	38.085
591.74	39.177
592.07	38.307
592.41	37.412
592.74	36.517
593.08	35.643
593.41	35.811
593.75	35.197
594.08	36.138
594.41	37.080
594.75	36.858
595.08	36.256
595.42	36.637
595.75	36.432
596.09	37.589
596.42	36.896
596.75	37.062
597.09	38.398
597.42	36.931
597.75	36.999
598.09	37.130
598.42	37.285
598.76	37.495
599.09	36.146
599.42	36.390
599.76	36.164
600.09	36.284
600.42	35.939
600.76	35.000
601.09	35.993
601.42	35.693
601.76	36.167
602.09	36.324
602.42	36.863
602.76	36.074
603.09	36.703
603.42	37.056
603.76	36.395
604.09	35.556
604.42	36.690
604.76	37.495
605.09	36.610
605.42	36.469
605.75	36.507
606.09	36.560
606.42	36.330
606.75	36.168
607.09	36.082
607.42	36.671
607.75	35.570
608.08	37.256
608.42	36.710
608.75	36.790
609.08	37.049
609.41	36.840
609.75	35.636
610.08	37.135
610.41	36.546
610.74	36.660
611.07	37.352
611.41	36.997
611.74	37.959
612.07	36.905
612.40	38.038
612.73	37.053
613.07	38.416
613.40	37.125
613.73	36.969
614.06	37.258
614.39	36.759
614.72	37.579
615.06	36.660
615.39	36.146
615.72	35.225
616.05	36.789
616.38	37.743
616.71	37.945
617.05	38.221
617.38	38.004
617.71	37.838
618.04	38.341
618.37	36.901
618.70	38.021
619.03	38.421
619.36	38.425
619.69	39.437
620.03	39.423
620.36	38.636
620.69	39.041
621.02	40.118
621.35	39.937
621.68	39.486
622.01	39.628
622.34	39.410
622.67	39.772
623.00	38.225
623.33	38.885
623.66	38.599
623.99	38.218
624.32	37.874
624.65	39.548
624.99	39.093
625.32	37.581
625.65	38.918
625.98	39.354
626.31	39.347
626.64	40.245
626.97	40.150
627.30	39.485
627.63	39.212
627.96	40.286
628.29	38.933
628.62	42.177
628.95	42.358
629.28	40.511
629.61	40.880
629.94	41.714
630.26	40.610
630.59	40.133
630.92	42.529
631.25	41.955
631.58	40.541
