SpectraSuite Data File
++++++++++++++++++++++++++++++++++++
Date: Wed May 13 16:30:41 PDT 2015
User: schluterlab
Dark Spectrum Present: Yes
Reference Spectrum Present: Yes
Number of Sampled Component Spectra: 1
Spectrometers: USB2E3373
Integration Time (usec): 3000 (USB2E3373)
Spectra Averaged: 3 (USB2E3373)
Boxcar Smoothing: 0 (USB2E3373)
Correct for Electrical Dark: No (USB2E3373)
Strobe/Lamp Enabled: No (USB2E3373)
Correct for Detector Non-linearity: No (USB2E3373)
Correct for Stray Light: No (USB2E3373)
Number of Pixels in Processed Spectrum: 2048
>>>>>Begin Processed Spectral Data<<<<<
178.53	0.000
178.91	-1400.000
179.29	-1425.000
179.67	-216.667
180.04	-1100.000
180.42	1950.000
180.80	840.000
181.18	-850.000
181.56	542.857
181.94	0.000
182.31	-628.571
182.69	1833.333
183.07	-512.500
183.45	-444.444
183.83	563.636
184.20	-320.000
184.58	2050.000
184.96	4100.000
185.34	-620.000
185.72	-612.500
186.09	-1950.000
186.47	2500.000
186.85	1900.000
187.23	4700.000
187.61	-1666.667
187.98	1225.000
188.36	527.273
188.74	500.000
189.12	-800.000
189.49	610.000
189.87	-5400.000
190.25	-1375.000
190.63	400.000
191.00	423.077
191.38	916.667
191.76	-1025.000
192.14	1200.000
192.51	537.500
192.89	950.000
193.27	562.500
193.65	-1150.000
194.02	490.000
194.40	980.000
194.78	550.000
195.15	500.000
195.53	540.000
195.91	-2000.000
196.29	268.750
196.66	284.211
197.04	-340.000
197.42	0.000
197.79	620.000
198.17	-4500.000
198.55	600.000
198.92	612.500
199.30	740.000
199.68	0.000
200.05	327.778
200.43	657.143
200.81	3800.000
201.18	1800.000
201.56	-1233.333
201.94	500.000
202.31	611.111
202.69	375.000
203.07	510.000
203.44	0.000
203.82	1250.000
204.19	600.000
204.57	435.714
204.95	500.000
205.32	1400.000
205.70	500.000
206.08	364.286
206.45	2500.000
206.83	300.000
207.20	783.333
207.58	820.000
207.96	300.000
208.33	650.000
208.71	-683.333
209.08	714.286
209.46	566.667
209.84	427.273
210.21	-1233.333
210.59	1000.000
210.96	-325.000
211.34	2650.000
211.71	530.000
212.09	683.333
212.46	0.000
212.84	1500.000
213.22	1075.000
213.59	-4000.000
213.97	766.667
214.34	585.714
214.72	518.182
215.09	880.000
215.47	-2150.000
215.84	-1850.000
216.22	1466.667
216.59	378.571
216.97	1175.000
217.34	481.818
217.72	-683.333
218.09	0.000
218.47	-4400.000
218.84	566.667
219.22	628.571
219.59	1666.667
219.97	-585.714
220.34	1080.000
220.72	-1600.000
221.09	414.286
221.47	1150.000
221.84	-666.667
222.22	0.000
222.59	1175.000
222.97	-2450.000
223.34	1120.000
223.72	415.385
224.09	920.000
224.46	2350.000
224.84	-4200.000
225.21	-960.000
225.59	-4800.000
225.96	520.000
226.34	300.000
226.71	2250.000
227.08	525.000
227.46	580.000
227.83	-825.000
228.21	-1850.000
228.58	622.222
228.95	-2000.000
229.33	-2300.000
229.70	1466.667
230.08	614.286
230.45	-580.000
230.82	391.667
231.20	850.000
231.57	642.857
231.95	400.000
232.32	254.545
232.69	300.000
233.07	542.857
233.44	307.692
233.81	-1633.333
234.19	263.158
234.56	441.667
234.93	333.333
235.31	381.818
235.68	292.308
236.05	300.000
236.43	163.636
236.80	236.842
237.17	3700.000
237.55	233.333
237.92	157.143
238.29	233.333
238.67	141.935
239.04	179.310
239.41	102.778
239.79	102.174
240.16	116.667
240.53	125.000
240.91	84.314
241.28	88.000
241.65	78.000
242.02	82.609
242.40	66.129
242.77	65.000
243.14	62.366
243.51	58.427
243.89	52.941
244.26	48.889
244.63	43.011
245.00	39.362
245.38	45.545
245.75	36.449
246.12	32.110
246.49	38.686
246.87	42.400
247.24	37.692
247.61	35.714
247.98	34.641
248.36	29.054
248.73	24.204
249.10	24.841
249.47	28.814
249.84	28.877
250.22	26.203
250.59	24.852
250.96	29.798
251.33	24.171
251.70	27.723
252.08	21.429
252.45	20.179
252.82	22.174
253.19	20.426
253.56	20.000
253.94	25.726
254.31	19.141
254.68	25.000
255.05	19.188
255.42	18.699
255.79	18.015
256.16	18.412
256.54	15.901
256.91	22.420
257.28	12.950
257.65	16.172
258.02	18.634
258.39	13.880
258.76	14.716
259.14	16.369
259.51	15.502
259.88	13.665
260.25	14.804
260.62	16.474
260.99	15.839
261.36	14.114
261.73	15.186
262.10	9.884
262.47	12.394
262.85	14.485
263.22	10.256
263.59	15.385
263.96	11.538
264.33	15.144
264.70	12.895
265.07	14.322
265.44	12.879
265.81	9.976
266.18	13.568
266.55	12.439
266.92	11.302
267.29	14.120
267.66	11.009
268.03	12.955
268.40	10.280
268.77	9.547
269.14	12.162
269.51	13.093
269.88	11.189
270.25	11.964
270.62	8.539
270.99	13.118
271.36	12.661
271.73	8.645
272.10	11.522
272.47	9.677
272.84	9.740
273.21	13.836
273.58	12.009
273.95	10.063
274.32	8.884
274.69	10.278
275.06	8.661
275.43	10.213
275.80	9.820
276.17	9.980
276.54	12.058
276.91	8.893
277.28	9.961
277.65	12.573
278.02	8.075
278.39	13.281
278.76	10.909
279.13	11.887
279.50	10.428
279.87	7.968
280.23	9.182
280.60	8.511
280.97	7.209
281.34	9.204
281.71	9.636
282.08	8.829
282.45	8.727
282.82	9.059
283.19	8.556
283.56	11.053
283.92	9.306
284.29	6.349
284.66	7.623
285.03	7.233
285.40	8.451
285.77	8.418
286.14	7.427
286.51	7.500
286.87	9.231
287.24	9.772
287.61	7.063
287.98	8.279
288.35	8.082
288.72	9.502
289.08	8.920
289.45	7.249
289.82	8.293
290.19	6.907
290.56	8.882
290.93	8.610
291.29	8.282
291.66	8.407
292.03	9.738
292.40	8.811
292.77	6.805
293.13	9.254
293.50	6.706
293.87	8.148
294.24	6.963
294.60	7.715
294.97	7.849
295.34	8.181
295.71	8.523
296.08	7.977
296.44	9.216
296.81	7.530
297.18	9.350
297.55	6.069
297.91	7.520
298.28	7.764
298.65	8.877
299.02	7.378
299.38	5.445
299.75	5.526
300.12	6.386
300.48	6.750
300.85	8.385
301.22	6.242
301.59	6.061
301.95	7.809
302.32	7.189
302.69	6.691
303.05	8.364
303.42	6.914
303.79	7.361
304.15	7.459
304.52	6.721
304.89	7.549
305.25	7.425
305.62	8.607
305.99	6.848
306.35	7.047
306.72	7.511
307.09	8.102
307.45	8.446
307.82	6.585
308.19	6.954
308.55	7.228
308.92	7.626
309.29	7.181
309.65	7.423
310.02	7.928
310.38	8.172
310.75	8.553
311.12	8.495
311.48	7.524
311.85	8.491
312.22	8.741
312.58	7.900
312.95	9.187
313.31	7.767
313.68	8.524
314.05	10.256
314.41	8.442
314.78	8.359
315.14	8.143
315.51	9.166
315.87	9.208
316.24	9.136
316.61	8.480
316.97	9.295
317.34	9.002
317.70	9.847
318.07	9.817
318.43	9.198
318.80	10.684
319.16	11.770
319.53	9.568
319.89	10.571
320.26	10.700
320.62	10.218
320.99	10.000
321.35	10.303
321.72	10.678
322.08	11.056
322.45	12.239
322.81	10.659
323.18	11.175
323.54	11.967
323.91	11.698
324.27	11.759
324.64	10.904
325.00	11.271
325.37	12.466
325.73	11.939
326.10	12.268
326.46	10.842
326.83	12.511
327.19	11.956
327.56	12.718
327.92	12.511
328.29	14.286
328.65	12.615
329.01	13.357
329.38	11.101
329.74	12.835
330.11	12.253
330.47	13.039
330.84	13.879
331.20	12.204
331.56	12.936
331.93	11.944
332.29	13.310
332.66	12.832
333.02	13.254
333.38	12.918
333.75	12.923
334.11	13.256
334.48	12.689
334.84	12.960
335.20	14.727
335.57	12.874
335.93	12.054
336.29	13.004
336.66	12.804
337.02	12.670
337.38	12.870
337.75	13.102
338.11	12.175
338.47	12.983
338.84	12.924
339.20	11.468
339.56	14.325
339.93	11.727
340.29	12.772
340.65	11.854
341.02	13.176
341.38	12.633
341.74	12.632
342.11	13.974
342.47	11.542
342.83	12.757
343.20	14.113
343.56	12.047
343.92	12.105
344.28	12.245
344.65	11.780
345.01	12.037
345.37	11.492
345.73	11.929
346.10	11.679
346.46	12.712
346.82	12.026
347.19	11.947
347.55	12.315
347.91	11.893
348.27	12.408
348.63	12.625
349.00	11.165
349.36	11.248
349.72	13.312
350.08	11.669
350.45	12.775
350.81	11.779
351.17	12.399
351.53	12.285
351.89	12.211
352.26	12.470
352.62	11.548
352.98	12.561
353.34	12.572
353.70	10.311
354.07	12.903
354.43	11.746
354.79	10.941
355.15	11.732
355.51	11.831
355.87	11.184
356.24	12.378
356.60	11.868
356.96	11.022
357.32	11.938
357.68	12.913
358.04	11.481
358.40	13.222
358.77	12.598
359.13	10.655
359.49	11.765
359.85	10.635
360.21	11.563
360.57	12.763
360.93	11.538
361.29	10.960
361.66	11.068
362.02	12.239
362.38	12.548
362.74	12.202
363.10	11.029
363.46	11.739
363.82	11.640
364.18	11.601
364.54	12.704
364.90	11.756
365.26	11.838
365.62	11.980
365.98	11.322
366.35	11.103
366.71	12.581
367.07	11.435
367.43	11.030
367.79	12.562
368.15	12.716
368.51	10.828
368.87	12.134
369.23	11.046
369.59	12.382
369.95	10.809
370.31	12.179
370.67	11.232
371.03	12.135
371.39	12.099
371.75	12.059
372.11	10.242
372.47	11.510
372.83	12.392
373.19	11.055
373.55	12.121
373.91	12.666
374.27	11.959
374.63	10.909
374.99	12.359
375.35	10.816
375.71	11.720
376.07	12.757
376.42	12.036
376.78	12.326
377.14	12.212
377.50	12.119
377.86	11.170
378.22	12.453
378.58	11.028
378.94	11.879
379.30	11.387
379.66	11.358
380.02	13.145
380.38	11.111
380.74	12.065
381.09	11.858
381.45	12.723
381.81	12.469
382.17	12.611
382.53	11.635
382.89	12.346
383.25	10.944
383.61	12.144
383.97	11.632
384.32	11.915
384.68	11.772
385.04	11.985
385.40	11.703
385.76	11.548
386.12	12.047
386.48	12.775
386.83	12.187
387.19	12.430
387.55	12.554
387.91	12.152
388.27	12.262
388.62	12.293
388.98	12.101
389.34	12.829
389.70	12.017
390.06	12.864
390.42	12.451
390.77	13.232
391.13	12.125
391.49	12.500
391.85	12.031
392.20	11.798
392.56	12.058
392.92	12.184
393.28	11.893
393.64	11.631
393.99	12.217
394.35	12.531
394.71	12.484
395.07	12.150
395.42	12.732
395.78	12.723
396.14	13.035
396.50	12.970
396.85	12.142
397.21	12.022
397.57	12.027
397.92	11.538
398.28	11.267
398.64	11.888
399.00	11.975
399.35	10.886
399.71	11.921
400.07	11.709
400.42	11.288
400.78	12.364
401.14	11.768
401.49	12.478
401.85	10.889
402.21	11.257
402.57	10.611
402.92	11.665
403.28	11.680
403.63	11.572
403.99	11.656
404.35	11.939
404.70	11.511
405.06	11.066
405.42	11.666
405.77	11.829
406.13	11.287
406.49	11.709
406.84	11.518
407.20	10.875
407.55	12.061
407.91	11.400
408.27	11.551
408.62	11.680
408.98	11.520
409.34	11.624
409.69	11.355
410.05	11.648
410.40	11.682
410.76	11.649
411.11	11.821
411.47	11.182
411.83	10.996
412.18	11.070
412.54	11.146
412.89	11.687
413.25	10.980
413.60	12.477
413.96	11.050
414.31	11.300
414.67	11.787
415.03	11.391
415.38	11.405
415.74	11.383
416.09	11.822
416.45	11.446
416.80	11.765
417.16	12.064
417.51	12.276
417.87	11.175
418.22	12.681
418.58	12.331
418.93	11.364
419.29	11.394
419.64	11.776
420.00	11.524
420.35	11.478
420.71	12.014
421.06	11.814
421.42	11.111
421.77	11.211
422.12	10.724
422.48	9.822
422.83	11.415
423.19	11.271
423.54	11.376
423.90	11.710
424.25	12.172
424.61	10.952
424.96	11.720
425.31	11.794
425.67	11.011
426.02	10.914
426.38	11.783
426.73	10.650
427.09	11.368
427.44	11.098
427.79	10.753
428.15	11.310
428.50	10.942
428.85	11.979
429.21	11.154
429.56	10.835
429.92	10.971
430.27	10.576
430.62	11.162
430.98	11.676
431.33	10.876
431.68	11.361
432.04	11.608
432.39	11.593
432.74	11.490
433.10	10.696
433.45	10.904
433.80	10.920
434.16	11.058
434.51	12.053
434.86	11.517
435.22	11.173
435.57	11.185
435.92	11.001
436.28	12.218
436.63	12.196
436.98	11.048
437.34	11.986
437.69	12.660
438.04	11.580
438.39	11.343
438.75	11.795
439.10	11.229
439.45	11.983
439.81	11.662
440.16	11.519
440.51	12.009
440.86	11.639
441.22	10.957
441.57	11.465
441.92	12.231
442.27	11.410
442.63	11.111
442.98	12.732
443.33	11.793
443.68	11.668
444.03	11.420
444.39	11.003
444.74	11.364
445.09	11.914
445.44	11.591
445.79	11.381
446.15	11.805
446.50	11.632
446.85	11.562
447.20	11.525
447.55	11.390
447.91	11.583
448.26	12.020
448.61	11.136
448.96	12.016
449.31	12.036
449.66	11.761
450.02	10.641
450.37	11.791
450.72	11.506
451.07	11.578
451.42	11.672
451.77	11.979
452.12	12.125
452.47	11.318
452.83	11.888
453.18	11.919
453.53	11.874
453.88	11.341
454.23	11.835
454.58	11.993
454.93	12.079
455.28	11.783
455.63	11.954
455.98	12.976
456.34	12.249
456.69	12.398
457.04	12.446
457.39	12.040
457.74	10.969
458.09	12.191
458.44	11.688
458.79	11.226
459.14	12.020
459.49	12.434
459.84	11.247
460.19	11.314
460.54	11.748
460.89	12.671
461.24	11.900
461.59	12.725
461.94	11.652
462.29	12.582
462.64	12.189
462.99	12.492
463.34	12.200
463.69	12.258
464.04	12.638
464.39	11.884
464.74	12.894
465.09	11.821
465.44	11.080
465.79	11.353
466.14	12.151
466.49	11.680
466.84	12.551
467.19	11.949
467.54	12.250
467.89	12.305
468.24	11.751
468.59	12.454
468.94	12.034
469.29	11.440
469.64	12.985
469.99	11.976
470.34	11.493
470.68	12.213
471.03	12.109
471.38	13.065
471.73	12.658
472.08	12.039
472.43	12.186
472.78	11.718
473.13	12.516
473.48	11.673
473.83	12.012
474.17	11.699
474.52	12.097
474.87	12.493
475.22	11.724
475.57	11.553
475.92	11.312
476.27	11.894
476.61	11.528
476.96	11.820
477.31	11.565
477.66	11.597
478.01	11.657
478.36	11.211
478.70	11.682
479.05	12.194
479.40	11.566
479.75	11.998
480.10	11.481
480.45	11.233
480.79	10.941
481.14	11.008
481.49	11.391
481.84	11.706
482.19	11.722
482.53	10.826
482.88	11.494
483.23	11.542
483.58	11.738
483.92	11.059
484.27	10.893
484.62	11.422
484.97	10.248
485.31	10.753
485.66	9.931
486.01	9.396
486.36	8.927
486.70	8.876
487.05	9.630
487.40	10.061
487.75	9.830
488.09	10.889
488.44	10.707
488.79	11.103
489.13	11.039
489.48	11.215
489.83	11.135
490.17	11.486
490.52	10.762
490.87	11.081
491.22	11.505
491.56	10.296
491.91	11.447
492.26	11.484
492.60	11.106
492.95	10.758
493.30	11.402
493.64	11.246
493.99	11.003
494.34	11.240
494.68	11.722
495.03	11.090
495.37	10.889
495.72	11.598
496.07	11.369
496.41	10.531
496.76	11.082
497.11	10.986
497.45	11.411
497.80	11.948
498.14	11.014
498.49	10.829
498.84	11.409
499.18	11.571
499.53	11.301
499.87	11.556
500.22	11.823
500.56	10.874
500.91	11.346
501.26	11.238
501.60	12.008
501.95	11.045
502.29	11.387
502.64	11.918
502.98	11.173
503.33	11.335
503.67	10.998
504.02	11.366
504.36	11.511
504.71	11.334
505.06	11.181
505.40	11.279
505.75	11.283
506.09	11.467
506.44	11.840
506.78	12.275
507.13	10.954
507.47	12.071
507.82	11.854
508.16	11.854
508.51	11.923
508.85	11.569
509.19	10.765
509.54	11.837
509.88	11.386
510.23	11.105
510.57	12.332
510.92	11.963
511.26	11.151
511.61	11.929
511.95	11.848
512.30	11.241
512.64	12.037
512.98	12.004
513.33	11.884
513.67	12.006
514.02	11.580
514.36	11.742
514.70	11.898
515.05	11.991
515.39	13.404
515.74	11.881
516.08	12.297
516.42	12.264
516.77	12.542
517.11	11.765
517.46	12.754
517.80	13.647
518.14	12.044
518.49	12.427
518.83	12.330
519.17	12.413
519.52	12.224
519.86	12.721
520.20	12.197
520.55	13.166
520.89	12.348
521.23	13.088
521.58	12.425
521.92	12.860
522.26	11.897
522.61	12.835
522.95	11.541
523.29	12.295
523.64	12.073
523.98	12.631
524.32	11.821
524.66	12.147
525.01	13.051
525.35	11.338
525.69	12.131
526.04	12.025
526.38	12.081
526.72	12.270
527.06	12.680
527.41	11.386
527.75	12.669
528.09	11.689
528.43	12.811
528.78	11.494
529.12	12.364
529.46	12.615
529.80	11.696
530.15	12.648
530.49	12.492
530.83	12.468
531.17	12.533
531.51	13.619
531.86	12.710
532.20	12.712
532.54	12.556
532.88	13.350
533.22	12.867
533.57	12.160
533.91	11.439
534.25	12.454
534.59	12.630
534.93	12.433
535.27	12.010
535.62	11.844
535.96	12.555
536.30	12.206
536.64	12.299
536.98	13.271
537.32	12.969
537.66	12.667
538.01	12.179
538.35	13.058
538.69	12.955
539.03	11.956
539.37	11.821
539.71	11.212
540.05	12.810
540.39	11.561
540.73	12.096
541.07	12.914
541.42	12.655
541.76	12.387
542.10	12.872
542.44	11.722
542.78	12.451
543.12	11.772
543.46	12.459
543.80	12.297
544.14	11.682
544.48	12.698
544.82	12.187
545.16	12.232
545.50	12.404
545.84	13.575
546.18	12.525
546.52	12.663
546.86	11.890
547.20	12.610
547.54	13.427
547.88	13.010
548.22	13.014
548.56	12.516
548.90	11.460
549.24	11.178
549.58	13.097
549.92	12.431
550.26	13.352
550.60	12.794
550.94	12.465
551.28	13.094
551.62	12.221
551.96	12.702
552.30	13.515
552.64	12.914
552.98	12.271
553.32	12.744
553.66	12.611
554.00	12.423
554.34	13.043
554.68	12.947
555.02	12.271
555.36	12.317
555.69	12.585
556.03	12.315
556.37	13.097
556.71	12.005
557.05	12.395
557.39	12.596
557.73	12.632
558.07	12.980
558.41	12.012
558.75	13.226
559.08	12.826
559.42	12.094
559.76	13.382
560.10	13.205
560.44	12.369
560.78	12.109
561.12	12.203
561.45	12.516
561.79	12.591
562.13	12.274
562.47	12.568
562.81	13.040
563.15	11.906
563.48	12.135
563.82	12.524
564.16	12.296
564.50	11.393
564.84	11.631
565.17	12.033
565.51	11.502
565.85	12.500
566.19	12.398
566.52	11.590
566.86	11.634
567.20	12.677
567.54	11.130
567.88	11.298
568.21	12.275
568.55	11.122
568.89	11.041
569.23	10.695
569.56	10.405
569.90	10.377
570.24	10.011
570.57	10.541
570.91	10.019
571.25	10.068
571.59	9.661
571.92	9.303
572.26	9.879
572.60	10.000
572.93	9.625
573.27	9.879
573.61	9.631
573.95	9.664
574.28	9.296
574.62	9.159
574.96	9.295
575.29	9.311
575.63	9.223
575.97	9.477
576.30	9.373
576.64	9.199
576.98	9.212
577.31	9.150
577.65	9.186
577.98	9.047
578.32	8.975
578.66	8.973
578.99	9.085
579.33	8.666
579.67	9.414
580.00	9.206
580.34	9.018
580.67	9.265
581.01	9.624
581.35	9.123
581.68	9.001
582.02	8.588
582.35	8.716
582.69	8.831
583.02	9.019
583.36	9.200
583.70	9.191
584.03	9.431
584.37	9.802
584.70	9.431
585.04	9.369
585.37	9.203
585.71	9.492
586.04	9.157
586.38	9.561
586.72	10.080
587.05	9.046
587.39	9.077
587.72	9.405
588.06	9.338
588.39	9.684
588.73	10.032
589.06	10.159
589.40	9.697
589.73	10.067
590.07	10.142
590.40	9.609
590.73	10.304
591.07	10.989
591.40	10.628
591.74	10.433
592.07	10.733
592.41	10.335
592.74	10.075
593.08	10.393
593.41	9.364
593.75	9.213
594.08	9.454
594.41	10.004
594.75	9.797
595.08	9.986
595.42	10.228
595.75	10.256
596.09	10.477
596.42	10.491
596.75	10.469
597.09	11.039
597.42	10.371
597.75	10.737
598.09	11.130
598.42	10.266
598.76	10.215
599.09	9.654
599.42	10.080
599.76	10.469
600.09	9.982
600.42	9.788
600.76	9.643
601.09	9.727
601.42	9.551
601.76	10.095
602.09	10.395
602.42	11.067
602.76	11.286
603.09	10.228
603.42	10.269
603.76	9.870
604.09	9.732
604.42	10.232
604.76	10.375
605.09	10.398
605.42	10.603
605.75	10.513
606.09	9.719
606.42	9.767
606.75	10.245
607.09	10.716
607.42	10.398
607.75	9.831
608.08	9.944
608.42	10.489
608.75	10.234
609.08	10.268
609.41	10.614
609.75	10.719
610.08	10.792
610.41	9.683
610.74	10.123
611.07	10.425
611.41	10.304
611.74	10.910
612.07	10.818
612.40	11.175
612.73	10.316
613.07	11.261
613.40	10.795
613.73	10.540
614.06	11.183
614.39	11.222
614.72	10.947
615.06	10.977
615.39	10.510
615.72	11.145
616.05	10.473
616.38	10.784
616.71	10.986
617.05	11.955
617.38	10.643
617.71	11.171
618.04	11.418
618.37	10.822
618.70	11.139
619.03	11.974
619.36	11.405
619.69	11.620
620.03	12.706
620.36	12.099
620.69	12.055
621.02	13.496
621.35	11.903
621.68	12.305
622.01	12.229
622.34	12.179
622.67	12.776
623.00	12.179
623.33	11.294
623.66	11.723
623.99	10.972
624.32	12.054
624.65	11.723
624.99	11.331
625.32	12.093
625.65	12.923
625.98	12.298
626.31	12.908
626.64	12.408
626.97	13.051
627.30	12.635
627.63	12.961
627.96	13.541
628.29	12.686
628.62	14.639
628.95	14.717
629.28	13.504
629.61	13.749
629.94	13.048
630.26	14.395
630.59	13.918
630.92	12.739
631.25	13.327
631.58	14.515
631.91	14.300
632.24	13.819
632.57	16.055
632.90	15.461
633.23	14.877
633.56	14.350
633.89	13.364
634.22	16.572
634.55	16.450
634.88	14.132
635.20	15.532
