SpectraSuite Data File
++++++++++++++++++++++++++++++++++++
Date: Wed May 13 16:25:29 PDT 2015
User: schluterlab
Dark Spectrum Present: Yes
Reference Spectrum Present: Yes
Number of Sampled Component Spectra: 1
Spectrometers: USB2E3373
Integration Time (usec): 3000 (USB2E3373)
Spectra Averaged: 3 (USB2E3373)
Boxcar Smoothing: 0 (USB2E3373)
Correct for Electrical Dark: No (USB2E3373)
Strobe/Lamp Enabled: No (USB2E3373)
Correct for Detector Non-linearity: No (USB2E3373)
Correct for Stray Light: No (USB2E3373)
Number of Pixels in Processed Spectrum: 2048
>>>>>Begin Processed Spectral Data<<<<<
178.53	0.000
178.91	-1225.000
179.29	-1100.000
179.67	-211.111
180.04	-1025.000
180.42	2450.000
180.80	1040.000
181.18	-875.000
181.56	571.429
181.94	0.000
182.31	-628.571
182.69	1333.333
183.07	-562.500
183.45	-522.222
183.83	518.182
184.20	-320.000
184.58	2250.000
184.96	4600.000
185.34	-780.000
185.72	-562.500
186.09	-1850.000
186.47	2300.000
186.85	2250.000
187.23	5100.000
187.61	-1566.667
187.98	1250.000
188.36	481.818
188.74	472.727
189.12	-960.000
189.49	600.000
189.87	-4700.000
190.25	-1000.000
190.63	392.857
191.00	423.077
191.38	966.667
191.76	-1175.000
192.14	1175.000
192.51	537.500
192.89	766.667
193.27	675.000
193.65	-1150.000
194.02	530.000
194.40	780.000
194.78	450.000
195.15	425.000
195.53	650.000
195.91	-1650.000
196.29	312.500
196.66	273.684
197.04	-370.000
197.42	0.000
197.79	550.000
198.17	-4400.000
198.55	642.857
198.92	687.500
199.30	820.000
199.68	0.000
200.05	361.111
200.43	657.143
200.81	4700.000
201.18	1733.333
201.56	-1233.333
201.94	477.778
202.31	577.778
202.69	400.000
203.07	500.000
203.44	0.000
203.82	1500.000
204.19	757.143
204.57	414.286
204.95	550.000
205.32	1300.000
205.70	509.091
206.08	392.857
206.45	2900.000
206.83	443.750
207.20	816.667
207.58	600.000
207.96	288.889
208.33	675.000
208.71	-650.000
209.08	771.429
209.46	577.778
209.84	381.818
210.21	-1400.000
210.59	1450.000
210.96	-512.500
211.34	2100.000
211.71	550.000
212.09	783.333
212.46	0.000
212.84	1733.333
213.22	1375.000
213.59	-5200.000
213.97	733.333
214.34	800.000
214.72	563.636
215.09	1020.000
215.47	-2250.000
215.84	-2350.000
216.22	1800.000
216.59	357.143
216.97	1325.000
217.34	454.545
217.72	-733.333
218.09	0.000
218.47	-5000.000
218.84	488.889
219.22	671.429
219.59	1633.333
219.97	-542.857
220.34	1000.000
220.72	-1466.667
221.09	414.286
221.47	1325.000
221.84	-816.667
222.22	0.000
222.59	1200.000
222.97	-2450.000
223.34	1100.000
223.72	400.000
224.09	1100.000
224.46	2100.000
224.84	-4100.000
225.21	-1040.000
225.59	-4200.000
225.96	600.000
226.34	290.000
226.71	2750.000
227.08	675.000
227.46	530.000
227.83	-1100.000
228.21	-2100.000
228.58	633.333
228.95	-2800.000
229.33	-2450.000
229.70	1300.000
230.08	771.429
230.45	-660.000
230.82	350.000
231.20	583.333
231.57	700.000
231.95	425.000
232.32	236.364
232.69	472.727
233.07	842.857
233.44	246.154
233.81	-1533.333
234.19	247.368
234.56	375.000
234.93	350.000
235.31	500.000
235.68	269.231
236.05	357.143
236.43	169.697
236.80	242.105
237.17	4100.000
237.55	190.476
237.92	175.000
238.29	238.095
238.67	145.161
239.04	186.207
239.41	133.333
239.79	93.478
240.16	121.429
240.53	120.455
240.91	82.353
241.28	106.000
241.65	96.000
242.02	88.406
242.40	72.581
242.77	80.000
243.14	65.591
243.51	69.663
243.89	57.647
244.26	57.778
244.63	53.763
245.00	54.255
245.38	57.426
245.75	42.056
246.12	39.450
246.49	51.825
246.87	52.800
247.24	44.615
247.61	40.714
247.98	35.948
248.36	34.459
248.73	40.764
249.10	43.312
249.47	33.898
249.84	33.690
250.22	35.829
250.59	30.178
250.96	28.788
251.33	30.332
251.70	30.198
252.08	27.143
252.45	30.493
252.82	22.174
253.19	28.085
253.56	26.667
253.94	25.726
254.31	25.391
254.68	24.615
255.05	23.616
255.42	19.919
255.79	23.529
256.16	27.437
256.54	22.615
256.91	25.267
257.28	20.144
257.65	19.472
258.02	24.534
258.39	20.189
258.76	18.729
259.14	21.726
259.51	20.061
259.88	18.634
260.25	20.242
260.62	17.052
260.99	17.081
261.36	20.120
261.73	20.630
262.10	16.570
262.47	21.127
262.85	17.827
263.22	17.949
263.59	21.937
263.96	18.956
264.33	18.538
264.70	18.158
265.07	19.437
265.44	14.141
265.81	17.762
266.18	19.849
266.55	16.341
266.92	17.199
267.29	18.056
267.66	18.578
268.03	14.773
268.40	13.551
268.77	17.184
269.14	14.865
269.51	15.801
269.88	17.483
270.25	17.833
270.62	20.899
270.99	17.849
271.36	19.528
271.73	14.486
272.10	15.000
272.47	17.419
272.84	16.450
273.21	16.771
273.58	14.192
273.95	17.400
274.32	16.116
274.69	16.060
275.06	13.780
275.43	16.809
275.80	16.032
276.17	16.497
276.54	14.345
276.91	16.601
277.28	12.695
277.65	16.441
278.02	14.286
278.39	14.258
278.76	14.000
279.13	15.094
279.50	15.642
279.87	14.741
280.23	14.172
280.60	14.894
280.97	14.048
281.34	15.752
281.71	16.000
282.08	14.779
282.45	12.909
282.82	14.032
283.19	12.478
283.56	13.509
283.92	14.213
284.29	12.346
284.66	12.523
285.03	13.201
285.40	12.676
285.77	12.795
286.14	12.953
286.51	12.667
286.87	12.821
287.24	13.192
287.61	14.607
287.98	13.961
288.35	15.214
288.72	14.486
289.08	13.146
289.45	13.344
289.82	12.846
290.19	12.245
290.56	12.711
290.93	11.782
291.29	11.043
291.66	12.242
292.03	13.663
292.40	13.069
292.77	11.538
293.13	12.239
293.50	12.099
293.87	12.000
294.24	12.444
294.60	10.917
294.97	13.808
295.34	12.976
295.71	12.500
296.08	12.536
296.44	10.729
296.81	10.172
297.18	11.924
297.55	9.763
297.91	10.158
298.28	11.245
298.65	13.446
299.02	10.804
299.38	9.960
299.75	8.625
300.12	8.812
300.48	11.250
300.85	11.097
301.22	10.701
301.59	8.586
301.95	10.705
302.32	10.526
302.69	9.677
303.05	8.970
303.42	9.506
303.79	9.966
304.15	8.508
304.52	9.270
304.89	9.292
305.25	9.745
305.62	10.759
305.99	11.216
306.35	8.837
306.72	10.874
307.09	10.322
307.45	9.797
307.82	8.929
308.19	9.492
308.55	11.111
308.92	10.311
309.29	9.820
309.65	9.120
310.02	10.148
310.38	8.387
310.75	9.398
311.12	9.314
311.48	9.195
311.85	10.168
312.22	9.781
312.58	9.148
312.95	10.560
313.31	9.709
313.68	9.875
314.05	10.454
314.41	9.347
314.78	9.668
315.14	10.228
315.51	9.681
315.87	10.396
316.24	9.633
316.61	10.624
316.97	10.274
317.34	9.198
317.70	11.472
318.07	10.395
318.43	9.980
318.80	10.872
319.16	10.829
319.53	11.257
319.89	11.429
320.26	11.600
320.62	11.706
320.99	12.323
321.35	11.717
321.72	10.986
322.08	13.623
322.45	13.433
322.81	13.081
323.18	14.355
323.54	12.338
323.91	12.925
324.27	12.524
324.64	11.650
325.00	12.353
325.37	13.467
325.73	13.914
326.10	13.857
326.46	12.186
326.83	13.978
327.19	12.980
327.56	12.456
327.92	13.386
328.29	13.842
328.65	13.720
329.01	13.809
329.38	12.581
329.74	11.727
330.11	13.195
330.47	13.866
330.84	15.717
331.20	13.843
331.56	12.844
331.93	13.889
332.29	13.842
332.66	14.690
333.02	14.077
333.38	14.182
333.75	15.330
334.11	14.146
334.48	13.931
334.84	13.879
335.20	13.818
335.57	13.781
335.93	13.839
336.29	13.919
336.66	14.518
337.02	13.032
337.38	14.537
337.75	13.280
338.11	13.787
338.47	13.168
338.84	14.299
339.20	13.028
339.56	14.690
339.93	13.182
340.29	14.674
340.65	14.617
341.02	14.223
341.38	14.057
341.74	12.895
342.11	13.886
342.47	14.097
342.83	13.699
343.20	13.247
343.56	13.479
343.92	13.860
344.28	13.946
344.65	13.586
345.01	13.973
345.37	12.521
345.73	14.298
346.10	13.129
346.46	14.661
346.82	13.015
347.19	13.200
347.55	13.875
347.91	14.563
348.27	14.873
348.63	14.799
349.00	12.621
349.36	13.957
349.72	14.034
350.08	13.857
350.45	13.751
350.81	13.160
351.17	13.776
351.53	13.350
351.89	13.284
352.26	15.154
352.62	14.675
352.98	13.047
353.34	14.544
353.70	13.257
354.07	13.871
354.43	12.778
354.79	13.194
355.15	13.727
355.51	14.149
355.87	13.469
356.24	13.518
356.60	12.350
356.96	13.837
357.32	13.491
357.68	13.858
358.04	13.539
358.40	13.935
358.77	13.537
359.13	12.786
359.49	13.255
359.85	12.619
360.21	12.520
360.57	13.541
360.93	13.615
361.29	13.681
361.66	11.765
362.02	14.104
362.38	14.221
362.74	13.690
363.10	13.175
363.46	13.280
363.82	13.605
364.18	12.996
364.54	14.413
364.90	14.518
365.26	13.676
365.62	13.367
365.98	13.806
366.35	13.109
366.71	13.883
367.07	13.401
367.43	13.933
367.79	14.276
368.15	15.517
368.51	14.099
368.87	13.633
369.23	14.338
369.59	13.758
369.95	14.338
370.31	13.818
370.67	13.188
371.03	13.633
371.39	13.703
371.75	13.897
372.11	13.087
372.47	15.029
372.83	14.553
373.19	14.306
373.55	14.191
373.91	16.127
374.27	13.608
374.63	13.527
374.99	15.042
375.35	13.398
375.71	14.188
376.07	15.501
376.42	13.686
376.78	14.579
377.14	14.111
377.50	15.430
377.86	13.497
378.22	15.487
378.58	14.536
378.94	14.519
379.30	14.313
379.66	14.404
380.02	15.541
380.38	14.208
380.74	15.246
381.09	14.731
381.45	14.567
381.81	15.786
382.17	15.287
382.53	15.535
382.89	15.741
383.25	14.321
383.61	15.799
383.97	14.447
384.32	15.034
384.68	14.994
385.04	15.366
385.40	15.046
385.76	15.295
386.12	15.933
386.48	16.048
386.83	16.357
387.19	16.327
387.55	15.646
387.91	15.357
388.27	15.451
388.62	16.103
388.98	15.479
389.34	16.771
389.70	16.983
390.06	16.413
390.42	16.213
390.77	16.221
391.13	15.954
391.49	16.815
391.85	16.550
392.20	14.637
392.56	16.288
392.92	15.951
393.28	14.852
393.64	16.007
393.99	16.249
394.35	15.819
394.71	16.437
395.07	15.950
395.42	17.244
395.78	16.667
396.14	16.574
396.50	17.481
396.85	16.720
397.21	16.276
397.57	17.545
397.92	17.308
398.28	15.975
398.64	17.085
399.00	16.340
399.35	15.116
399.71	16.493
400.07	17.268
400.42	16.933
400.78	16.828
401.14	16.341
401.49	16.537
401.85	16.213
402.21	16.108
402.57	15.731
402.92	16.898
403.28	16.802
403.63	17.079
403.99	16.178
404.35	16.848
404.70	16.847
405.06	17.006
405.42	16.968
405.77	16.229
406.13	16.422
406.49	16.795
406.84	17.011
407.20	15.898
407.55	17.167
407.91	16.800
408.27	17.103
408.62	16.797
408.98	16.912
409.34	16.298
409.69	16.903
410.05	17.224
410.40	17.370
410.76	16.010
411.11	17.310
411.47	16.869
411.83	18.265
412.18	16.265
412.54	16.999
412.89	16.687
413.25	16.883
413.60	15.812
413.96	16.454
414.31	16.221
414.67	16.920
415.03	16.623
415.38	18.170
415.74	16.656
416.09	17.374
416.45	17.068
416.80	17.449
417.16	16.823
417.51	17.054
417.87	16.570
418.22	17.792
418.58	17.431
418.93	16.830
419.29	17.123
419.64	17.884
420.00	16.829
420.35	17.391
420.71	17.215
421.06	16.945
421.42	16.959
421.77	17.209
422.12	16.171
422.48	15.866
422.83	17.006
423.19	17.403
423.54	16.889
423.90	16.754
424.25	17.811
424.61	17.262
424.96	16.910
425.31	16.999
425.67	16.517
426.02	16.457
426.38	17.033
426.73	16.735
427.09	16.778
427.44	17.424
427.79	16.791
428.15	17.083
428.50	16.852
428.85	17.223
429.21	16.510
429.56	16.278
429.92	16.306
430.27	16.038
430.62	15.719
430.98	16.866
431.33	15.825
431.68	16.387
432.04	16.454
432.39	16.105
432.74	16.637
433.10	17.148
433.45	16.676
433.80	15.854
434.16	16.880
434.51	15.947
434.86	16.477
435.22	16.176
435.57	17.021
435.92	16.676
436.28	17.082
436.63	17.770
436.98	15.856
437.34	16.756
437.69	17.270
438.04	17.088
438.39	16.179
438.75	16.967
439.10	17.430
439.45	16.293
439.81	16.918
440.16	16.657
440.51	16.989
440.86	16.966
441.22	16.073
441.57	16.879
441.92	16.888
442.27	16.093
442.63	16.640
442.98	17.465
443.33	16.576
443.68	16.262
444.03	16.837
444.39	15.677
444.74	16.667
445.09	16.765
445.44	16.566
445.79	16.774
446.15	17.152
446.50	16.370
446.85	16.804
447.20	16.726
447.55	17.755
447.91	16.657
448.26	16.861
448.61	16.337
448.96	17.996
449.31	17.717
449.66	16.545
450.02	16.379
450.37	16.723
450.72	16.695
451.07	16.697
451.42	16.231
451.77	16.853
452.12	16.801
452.47	16.915
452.83	16.200
453.18	16.565
453.53	17.625
453.88	16.421
454.23	17.215
454.58	17.747
454.93	16.910
455.28	16.209
455.63	16.444
455.98	17.798
456.34	16.080
456.69	17.157
457.04	16.594
457.39	15.956
457.74	15.902
458.09	17.136
458.44	16.021
458.79	15.889
459.14	17.156
459.49	16.521
459.84	16.177
460.19	15.852
460.54	16.377
460.89	16.566
461.24	17.001
461.59	17.374
461.94	16.153
462.29	16.736
462.64	16.146
462.99	16.851
463.34	17.333
463.69	17.073
464.04	17.217
464.39	16.928
464.74	16.815
465.09	16.647
465.44	15.845
465.79	16.387
466.14	16.420
466.49	16.574
466.84	16.579
467.19	17.019
467.54	16.938
467.89	16.327
468.24	16.638
468.59	15.629
468.94	15.455
469.29	16.067
469.64	17.336
469.99	15.968
470.34	16.645
470.68	17.241
471.03	16.054
471.38	16.261
471.73	17.255
472.08	16.382
472.43	16.394
472.78	16.261
473.13	16.688
473.48	16.479
473.83	15.000
474.17	15.681
474.52	16.253
474.87	15.820
475.22	16.193
475.57	15.046
475.92	15.879
476.27	15.502
476.61	15.720
476.96	15.613
477.31	14.600
477.66	15.919
478.01	15.630
478.36	16.552
478.70	15.317
479.05	15.389
479.40	16.325
479.75	15.658
480.10	15.308
480.45	15.231
480.79	14.763
481.14	14.579
481.49	15.425
481.84	15.546
482.19	14.766
482.53	14.679
482.88	15.589
483.23	14.720
483.58	15.059
483.92	14.902
484.27	14.336
484.62	14.914
484.97	14.624
485.31	14.555
485.66	13.840
486.01	12.693
486.36	12.359
486.70	12.171
487.05	13.013
487.40	13.483
487.75	13.801
488.09	14.346
488.44	14.043
488.79	15.298
489.13	14.553
489.48	14.478
489.83	14.372
490.17	14.160
490.52	14.482
490.87	14.699
491.22	14.188
491.56	13.941
491.91	14.891
492.26	14.378
492.60	14.286
492.95	14.359
493.30	14.346
493.64	14.606
493.99	14.717
494.34	14.662
494.68	15.339
495.03	14.145
495.37	14.425
495.72	14.376
496.07	14.478
496.41	13.496
496.76	14.556
497.11	14.003
497.45	14.672
497.80	14.107
498.14	13.913
498.49	14.049
498.84	14.430
499.18	14.429
499.53	13.913
499.87	14.119
500.22	13.943
500.56	15.097
500.91	13.990
501.26	14.177
501.60	14.570
501.95	13.153
502.29	14.902
502.64	14.385
502.98	14.446
503.33	13.848
503.67	14.153
504.02	14.359
504.36	14.272
504.71	14.118
505.06	13.976
505.40	13.952
505.75	13.452
506.09	13.994
506.44	13.764
506.78	14.710
507.13	14.538
507.47	14.747
507.82	14.640
508.16	14.438
508.51	14.815
508.85	14.250
509.19	14.235
509.54	14.337
509.88	13.756
510.23	14.036
510.57	14.912
510.92	14.345
511.26	14.594
511.61	14.315
511.95	14.457
512.30	14.475
512.64	14.777
512.98	15.166
513.33	14.240
513.67	14.354
514.02	15.206
514.36	14.910
514.70	14.388
515.05	15.003
515.39	14.246
515.74	14.977
516.08	15.372
516.42	15.094
516.77	15.552
517.11	14.040
517.46	15.406
517.80	15.157
518.14	13.492
518.49	14.819
518.83	15.114
519.17	15.069
519.52	14.827
519.86	15.003
520.20	14.509
520.55	15.081
520.89	15.328
521.23	14.717
521.58	14.826
521.92	15.248
522.26	14.887
522.61	14.953
522.95	14.672
523.29	15.277
523.64	15.183
523.98	14.541
524.32	14.536
524.66	14.853
525.01	14.890
525.35	14.498
525.69	15.394
526.04	14.642
526.38	15.436
526.72	14.356
527.06	15.191
527.41	14.295
527.75	15.048
528.09	15.286
528.43	14.978
528.78	15.427
529.12	14.485
529.46	15.738
529.80	15.532
530.15	15.202
530.49	15.569
530.83	15.253
531.17	15.666
531.51	15.564
531.86	15.484
532.20	15.645
532.54	15.567
532.88	15.661
533.22	15.116
533.57	14.691
533.91	14.690
534.25	15.067
534.59	14.704
534.93	14.872
535.27	14.665
535.62	15.263
535.96	14.062
536.30	14.495
536.64	15.325
536.98	14.798
537.32	14.417
537.66	15.867
538.01	15.207
538.35	14.221
538.69	15.380
539.03	14.750
539.37	14.249
539.71	14.128
540.05	14.771
540.39	14.817
540.73	14.360
541.07	15.380
541.42	15.329
541.76	15.548
542.10	15.330
542.44	14.967
542.78	15.020
543.12	14.203
543.46	14.820
543.80	15.224
544.14	13.928
544.48	14.730
544.82	13.791
545.16	15.224
545.50	14.653
545.84	14.516
546.18	14.478
546.52	14.591
546.86	15.464
547.20	14.902
547.54	14.696
547.88	15.434
548.22	14.633
548.56	14.654
548.90	13.252
549.24	14.209
549.58	14.325
549.92	13.668
550.26	15.909
550.60	15.560
550.94	14.648
551.28	13.606
551.62	14.234
551.96	14.316
552.30	15.085
552.64	15.213
552.98	15.186
553.32	15.105
553.66	14.860
554.00	14.962
554.34	14.562
554.68	15.165
555.02	14.880
555.36	14.544
555.69	14.817
556.03	14.199
556.37	14.393
556.71	14.802
557.05	13.936
557.39	14.766
557.73	14.749
558.07	14.938
558.41	15.412
558.75	14.475
559.08	15.884
559.42	13.757
559.76	14.853
560.10	14.775
560.44	14.885
560.78	14.105
561.12	14.776
561.45	14.276
561.79	14.239
562.13	14.420
562.47	14.208
562.81	14.505
563.15	13.980
563.48	14.854
563.82	14.220
564.16	14.127
564.50	14.062
564.84	14.159
565.17	14.543
565.51	14.888
565.85	14.404
566.19	13.275
566.52	14.693
566.86	13.502
567.20	13.325
567.54	14.326
567.88	12.710
568.21	13.545
568.55	13.650
568.89	13.132
569.23	12.522
569.56	12.713
569.90	12.226
570.24	11.841
570.57	11.697
570.91	11.926
571.25	11.674
571.59	12.018
571.92	11.607
572.26	11.410
572.60	11.622
572.93	11.904
573.27	11.920
573.61	11.893
573.95	12.093
574.28	11.533
574.62	11.370
574.96	11.374
575.29	10.960
575.63	11.433
575.97	11.039
576.30	11.445
576.64	11.524
576.98	11.181
577.31	11.414
577.65	11.336
577.98	10.836
578.32	10.981
578.66	11.111
578.99	11.048
579.33	10.990
579.67	11.068
580.00	11.604
580.34	11.414
580.67	11.605
581.01	11.221
581.35	10.943
581.68	11.159
582.02	10.670
582.35	10.651
582.69	10.896
583.02	10.714
583.36	11.483
583.70	11.164
584.03	11.651
584.37	11.726
584.70	11.546
585.04	11.399
585.37	11.067
585.71	11.701
586.04	11.041
586.38	11.468
586.72	11.875
587.05	11.464
587.39	11.530
587.72	11.286
588.06	11.073
588.39	11.715
588.73	11.528
589.06	12.029
589.40	11.818
589.73	12.249
590.07	12.028
590.40	11.619
590.73	12.451
591.07	12.780
591.40	12.484
591.74	12.944
592.07	12.391
592.41	12.567
592.74	12.547
593.08	12.125
593.41	11.642
593.75	11.118
594.08	11.498
594.41	12.513
594.75	12.458
595.08	11.560
595.42	11.874
595.75	11.895
596.09	12.542
596.42	12.417
596.75	12.917
597.09	13.074
597.42	12.226
597.75	12.031
598.09	12.609
598.42	12.758
598.76	12.323
599.09	11.669
599.42	11.499
599.76	11.786
600.09	11.730
600.42	11.395
600.76	11.250
601.09	11.876
601.42	11.492
601.76	11.992
602.09	11.542
602.42	12.221
602.76	12.253
603.09	11.526
603.42	12.378
603.76	12.005
604.09	12.098
604.42	11.863
604.76	12.273
605.09	11.839
605.42	11.629
605.75	12.334
606.09	11.753
606.42	12.015
606.75	12.277
607.09	12.767
607.42	11.896
607.75	11.857
608.08	11.724
608.42	12.416
608.75	11.632
609.08	12.720
609.41	12.375
609.75	12.101
610.08	12.818
610.41	11.685
610.74	11.116
611.07	12.302
611.41	12.807
611.74	12.217
612.07	12.164
612.40	12.854
612.73	12.737
613.07	12.608
613.40	12.428
613.73	12.428
614.06	12.688
614.39	12.113
614.72	12.842
615.06	12.447
615.39	12.367
615.72	12.372
616.05	12.972
616.38	11.673
616.71	13.064
617.05	13.015
617.38	12.508
617.71	12.492
618.04	12.680
618.37	12.596
618.70	12.943
619.03	14.342
619.36	13.781
619.69	13.662
620.03	13.736
620.36	13.570
620.69	13.630
621.02	13.643
621.35	14.252
621.68	12.539
622.01	13.777
622.34	13.918
622.67	13.688
623.00	13.426
623.33	13.224
623.66	13.724
623.99	12.592
624.32	13.909
624.65	13.630
624.99	12.748
625.32	12.455
625.65	13.449
625.98	13.605
626.31	14.308
626.64	13.878
626.97	13.300
627.30	13.965
627.63	14.356
627.96	14.886
628.29	15.836
628.62	14.913
628.95	14.528
629.28	14.416
629.61	15.032
629.94	14.952
630.26	14.395
630.59	13.918
630.92	14.464
631.25	14.709
631.58	15.015
