SpectraSuite Data File
++++++++++++++++++++++++++++++++++++
Date: Wed May 13 15:57:54 PDT 2015
User: schluterlab
Dark Spectrum Present: Yes
Reference Spectrum Present: Yes
Number of Sampled Component Spectra: 1
Spectrometers: USB2E3373
Integration Time (usec): 3000 (USB2E3373)
Spectra Averaged: 3 (USB2E3373)
Boxcar Smoothing: 0 (USB2E3373)
Correct for Electrical Dark: No (USB2E3373)
Strobe/Lamp Enabled: No (USB2E3373)
Correct for Detector Non-linearity: No (USB2E3373)
Correct for Stray Light: No (USB2E3373)
Number of Pixels in Processed Spectrum: 2048
>>>>>Begin Processed Spectral Data<<<<<
178.53	0.000
178.91	-150.000
179.29	-100.000
179.67	-16.667
180.04	-150.000
180.42	300.000
180.80	240.000
181.18	175.000
181.56	-57.143
181.94	0.000
182.31	-28.571
182.69	600.000
183.07	-87.500
183.45	-100.000
183.83	109.091
184.20	-60.000
184.58	100.000
184.96	1800.000
185.34	-120.000
185.72	-125.000
186.09	100.000
186.47	900.000
186.85	100.000
187.23	900.000
187.61	-366.667
187.98	275.000
188.36	63.636
188.74	118.182
189.12	120.000
189.49	120.000
189.87	-400.000
190.25	-250.000
190.63	78.571
191.00	146.154
191.38	83.333
191.76	-25.000
192.14	400.000
192.51	37.500
192.89	366.667
193.27	37.500
193.65	-25.000
194.02	110.000
194.40	0.000
194.78	130.000
195.15	183.333
195.53	280.000
195.91	250.000
196.29	100.000
196.66	84.211
197.04	60.000
197.42	0.000
197.79	190.000
198.17	-1200.000
198.55	128.571
198.92	175.000
199.30	200.000
199.68	0.000
200.05	72.222
200.43	200.000
200.81	100.000
201.18	33.333
201.56	-300.000
201.94	-33.333
202.31	33.333
202.69	158.333
203.07	60.000
203.44	0.000
203.82	175.000
204.19	171.429
204.57	114.286
204.95	87.500
205.32	400.000
205.70	127.273
206.08	121.429
206.45	250.000
206.83	137.500
207.20	250.000
207.58	20.000
207.96	105.556
208.33	175.000
208.71	-50.000
209.08	114.286
209.46	122.222
209.84	72.727
210.21	-133.333
210.59	575.000
210.96	187.500
211.34	300.000
211.71	120.000
212.09	200.000
212.46	0.000
212.84	333.333
213.22	325.000
213.59	-100.000
213.97	133.333
214.34	185.714
214.72	290.909
215.09	180.000
215.47	-50.000
215.84	-300.000
216.22	166.667
216.59	107.143
216.97	275.000
217.34	45.455
217.72	66.667
218.09	0.000
218.47	-900.000
218.84	177.778
219.22	285.714
219.59	500.000
219.97	-14.286
220.34	100.000
220.72	-533.333
221.09	128.571
221.47	225.000
221.84	-116.667
222.22	0.000
222.59	150.000
222.97	-500.000
223.34	220.000
223.72	115.385
224.09	320.000
224.46	350.000
224.84	-400.000
225.21	-240.000
225.59	-1200.000
225.96	200.000
226.34	90.000
226.71	600.000
227.08	175.000
227.46	40.000
227.83	100.000
228.21	-150.000
228.58	111.111
228.95	200.000
229.33	-500.000
229.70	66.667
230.08	114.286
230.45	180.000
230.82	158.333
231.20	133.333
231.57	171.429
231.95	100.000
232.32	36.364
232.69	45.455
233.07	128.571
233.44	30.769
233.81	-200.000
234.19	73.684
234.56	83.333
234.93	25.000
235.31	54.545
235.68	-23.077
236.05	28.571
236.43	18.182
236.80	0.000
237.17	400.000
237.55	19.048
237.92	39.286
238.29	0.000
238.67	35.484
239.04	62.069
239.41	2.778
239.79	17.391
240.16	35.714
240.53	31.818
240.91	11.765
241.28	38.000
241.65	24.000
242.02	36.232
242.40	19.355
242.77	15.000
243.14	19.355
243.51	13.483
243.89	23.529
244.26	23.333
244.63	12.903
245.00	12.766
245.38	11.881
245.75	7.477
246.12	1.835
246.49	26.277
246.87	28.000
247.24	20.769
247.61	12.143
247.98	19.608
248.36	16.892
248.73	16.561
249.10	15.924
249.47	11.864
249.84	19.786
250.22	17.112
250.59	11.834
250.96	17.677
251.33	18.009
251.70	18.812
252.08	14.286
252.45	10.314
252.82	17.391
253.19	11.915
253.56	14.510
253.94	15.768
254.31	13.672
254.68	17.308
255.05	14.022
255.42	13.415
255.79	14.338
256.16	16.968
256.54	12.014
256.91	16.726
257.28	8.633
257.65	10.561
258.02	14.596
258.39	15.773
258.76	12.375
259.14	11.310
259.51	12.462
259.88	8.385
260.25	13.293
260.62	11.850
260.99	13.043
261.36	15.015
261.73	11.748
262.10	12.209
262.47	13.521
262.85	10.585
263.22	8.547
263.59	13.960
263.96	8.516
264.33	11.749
264.70	12.895
265.07	14.578
265.44	14.394
265.81	11.679
266.18	11.055
266.55	12.927
266.92	14.742
267.29	13.657
267.66	15.367
268.03	11.591
268.40	14.720
268.77	11.217
269.14	10.586
269.51	12.867
269.88	11.655
270.25	11.512
270.62	10.562
270.99	13.548
271.36	11.803
271.73	12.150
272.10	10.000
272.47	13.118
272.84	11.688
273.21	13.208
273.58	11.135
273.95	10.482
274.32	10.744
274.69	12.634
275.06	10.039
275.43	12.553
275.80	12.625
276.17	11.405
276.54	12.058
276.91	12.846
277.28	11.133
277.65	13.346
278.02	10.973
278.39	12.109
278.76	11.636
279.13	11.887
279.50	11.918
279.87	12.948
280.23	9.780
280.60	10.638
280.97	10.721
281.34	11.150
281.71	12.000
282.08	10.173
282.45	10.182
282.82	12.789
283.19	10.695
283.56	11.404
283.92	10.998
284.29	12.169
284.66	11.797
285.03	10.488
285.40	11.796
285.77	12.290
286.14	11.226
286.51	9.667
286.87	12.991
287.24	12.378
287.61	11.557
287.98	9.903
288.35	10.777
288.72	10.748
289.08	12.520
289.45	7.743
289.82	10.732
290.19	8.634
290.56	10.413
290.93	9.668
291.29	9.663
291.66	10.619
292.03	11.919
292.40	12.041
292.77	9.172
293.13	10.448
293.50	10.058
293.87	8.889
294.24	9.630
294.60	8.151
294.97	8.866
295.34	10.437
295.71	8.949
296.08	8.262
296.44	9.904
296.81	7.794
297.18	11.111
297.55	7.388
297.91	9.631
298.28	10.576
298.65	8.486
299.02	9.881
299.38	9.695
299.75	6.604
300.12	8.557
300.48	8.875
300.85	9.125
301.22	9.045
301.59	8.207
301.95	7.935
302.32	7.831
302.69	8.602
303.05	8.727
303.42	8.519
303.79	8.494
304.15	7.809
304.52	8.111
304.89	7.317
305.25	8.353
305.62	9.060
305.99	8.619
306.35	7.942
306.72	8.632
307.09	7.991
307.45	9.122
307.82	8.259
308.19	9.161
308.55	8.306
308.92	8.378
309.29	7.075
309.65	7.211
310.02	7.611
310.38	7.634
310.75	8.131
311.12	7.881
311.48	9.195
311.85	8.281
312.22	8.221
312.58	7.796
312.95	8.765
313.31	7.961
313.68	8.108
314.05	10.355
314.41	7.940
314.78	9.265
315.14	8.143
315.51	8.548
315.87	8.713
316.24	7.944
316.61	7.700
316.97	8.317
317.34	6.849
317.70	9.082
318.07	9.336
318.43	8.121
318.80	8.810
319.16	8.380
319.53	7.974
319.89	8.286
320.26	7.800
320.62	8.532
320.99	7.273
321.35	7.980
321.72	8.830
322.08	8.885
322.45	8.557
322.81	8.818
323.18	8.285
323.54	9.555
323.91	8.491
324.27	8.222
324.64	8.015
325.00	8.296
325.37	8.280
325.73	9.336
326.10	8.473
326.46	8.692
326.83	8.456
327.19	8.796
327.56	7.840
327.92	7.524
328.29	9.849
328.65	8.932
329.01	7.671
329.38	7.678
329.74	8.126
330.11	7.446
330.47	8.081
330.84	10.110
331.20	7.923
331.56	7.890
331.93	8.426
332.29	8.696
332.66	8.673
333.02	7.313
333.38	8.311
333.75	9.180
334.11	8.274
334.48	7.276
334.84	8.640
335.20	7.818
335.57	8.432
335.93	6.875
336.29	7.967
336.66	8.386
337.02	7.692
337.38	7.037
337.75	7.041
338.11	7.341
338.47	6.538
338.84	7.608
339.20	6.972
339.56	8.120
339.93	7.091
340.29	8.333
340.65	7.576
341.02	8.464
341.38	8.007
341.74	7.105
342.11	8.472
342.47	8.634
342.83	8.134
343.20	8.485
343.56	7.582
343.92	8.509
344.28	7.653
344.65	8.426
345.01	7.155
345.37	7.547
345.73	8.714
346.10	6.223
346.46	7.458
346.82	7.743
347.19	6.934
347.55	7.471
347.91	8.172
348.27	7.560
348.63	8.110
349.00	8.252
349.36	7.635
349.72	7.137
350.08	7.293
350.45	8.055
350.81	8.205
351.17	8.266
351.53	8.108
351.89	5.941
352.26	8.603
352.62	8.340
352.98	7.780
353.34	7.231
353.70	6.792
354.07	7.177
354.43	6.746
354.79	7.080
355.15	7.422
355.51	7.674
355.87	7.592
356.24	8.062
356.60	7.698
356.96	7.401
357.32	7.359
357.68	7.638
358.04	7.047
358.40	7.918
358.77	6.729
359.13	6.788
359.49	6.510
359.85	5.873
360.21	5.981
360.57	6.926
360.93	7.000
361.29	7.634
361.66	6.811
362.02	7.612
362.38	8.137
362.74	7.440
363.10	6.070
363.46	7.483
363.82	7.559
364.18	6.975
364.54	8.024
364.90	7.507
365.26	6.912
365.62	7.743
365.98	6.866
366.35	7.235
366.71	7.375
367.07	8.012
367.43	7.402
367.79	8.066
368.15	7.759
368.51	6.759
368.87	7.923
369.23	7.023
369.59	7.965
369.95	6.985
370.31	8.405
370.67	7.029
371.03	8.839
371.39	7.507
371.75	6.985
372.11	7.895
372.47	8.284
372.83	7.421
373.19	6.431
373.55	7.613
373.91	7.953
374.27	7.560
374.63	6.255
374.99	7.980
375.35	6.839
375.71	7.745
376.07	8.573
376.42	7.497
376.78	8.284
377.14	7.531
377.50	8.079
377.86	7.181
378.22	7.775
378.58	7.331
378.94	7.228
379.30	7.061
379.66	7.931
380.02	7.924
380.38	7.043
380.74	8.403
381.09	8.252
381.45	8.175
381.81	8.292
382.17	8.280
382.53	7.736
382.89	8.272
383.25	7.692
383.61	8.798
383.97	7.630
384.32	8.297
384.68	7.745
385.04	7.867
385.40	7.183
385.76	8.477
386.12	8.161
386.48	8.181
386.83	8.916
387.19	9.029
387.55	8.225
387.91	7.557
388.27	8.277
388.62	8.789
388.98	7.801
389.34	8.573
389.70	8.400
390.06	8.619
390.42	8.042
390.77	8.015
391.13	8.360
391.49	9.010
391.85	7.193
392.20	7.508
392.56	7.765
392.92	8.417
393.28	7.515
393.64	8.573
393.99	8.491
394.35	8.189
394.71	8.971
395.07	8.660
395.42	9.023
395.78	8.206
396.14	9.311
396.50	9.148
396.85	8.837
397.21	8.200
397.57	7.750
397.92	8.594
398.28	7.848
398.64	8.602
399.00	8.898
399.35	7.783
399.71	9.028
400.07	8.575
400.42	7.791
400.78	9.168
401.14	7.256
401.49	8.418
401.85	8.348
402.21	8.383
402.57	8.698
402.92	8.953
403.28	7.870
403.63	8.045
403.99	8.217
404.35	7.879
404.70	8.273
405.06	8.037
405.42	8.609
405.77	8.457
406.13	8.183
406.49	8.516
406.84	8.447
407.20	7.861
407.55	8.296
407.91	8.533
408.27	7.913
408.62	8.730
408.98	7.904
409.34	8.487
409.69	8.387
410.05	8.364
410.40	8.196
410.76	8.124
411.11	8.504
411.47	8.562
411.83	8.186
412.18	7.669
412.54	8.780
412.89	8.614
413.25	8.264
413.60	8.833
413.96	7.407
414.31	8.505
414.67	8.302
415.03	7.682
415.38	8.247
415.74	8.489
416.09	8.491
416.45	8.501
416.80	7.997
417.16	8.311
417.51	7.830
417.87	7.643
418.22	8.644
418.58	9.038
418.93	8.415
419.29	8.784
419.64	8.879
420.00	8.232
420.35	8.406
420.71	8.189
421.06	8.473
421.42	8.421
421.77	8.128
422.12	8.198
422.48	7.825
422.83	8.678
423.19	7.956
423.54	8.416
423.90	8.406
424.25	8.487
424.61	8.274
424.96	8.455
425.31	9.579
425.67	7.753
426.02	8.686
426.38	8.669
426.73	8.484
427.09	8.146
427.44	7.878
427.79	7.706
428.15	8.036
428.50	7.958
428.85	8.820
429.21	8.172
429.56	7.672
429.92	7.197
430.27	8.441
430.62	7.834
430.98	7.940
431.33	8.196
431.68	7.906
432.04	8.520
432.39	8.110
432.74	8.139
433.10	7.980
433.45	8.397
433.80	7.705
434.16	8.440
434.51	8.421
434.86	8.666
435.22	8.004
435.57	8.085
435.92	7.958
436.28	8.066
436.63	9.327
436.98	8.529
437.34	7.812
437.69	8.868
438.04	8.094
438.39	8.000
438.75	8.425
439.10	7.933
439.45	8.796
439.81	8.218
440.16	8.357
440.51	7.733
440.86	8.107
441.22	8.343
441.57	8.280
441.92	8.137
442.27	8.396
442.63	8.583
442.98	8.789
443.33	8.913
443.68	7.589
444.03	8.785
444.39	7.741
444.74	7.792
445.09	8.194
445.44	7.983
445.79	8.115
446.15	8.735
446.50	8.078
446.85	8.016
447.20	8.108
447.55	7.929
447.91	8.329
448.26	8.403
448.61	7.801
448.96	8.749
449.31	8.436
449.66	7.991
450.02	8.691
450.37	8.107
450.72	8.291
451.07	7.495
451.42	7.964
451.77	8.749
452.12	7.852
452.47	8.769
452.83	8.741
453.18	8.007
453.53	8.101
453.88	8.151
454.23	8.548
454.58	9.025
454.93	8.837
455.28	8.167
455.63	8.617
455.98	8.869
456.34	8.417
456.69	8.140
457.04	8.297
457.39	7.773
457.74	8.590
458.09	7.706
458.44	8.837
458.79	8.134
459.14	8.465
459.49	8.698
459.84	8.643
460.19	8.191
460.54	8.507
460.89	8.612
461.24	7.832
461.59	9.181
461.94	7.707
462.29	8.902
462.64	8.360
462.99	8.003
463.34	9.067
463.69	8.881
464.04	9.623
464.39	8.406
464.74	8.259
465.09	8.444
465.44	8.310
465.79	7.774
466.14	8.484
466.49	7.731
466.84	8.056
467.19	8.932
467.54	8.688
467.89	7.983
468.24	8.784
468.59	8.486
468.94	7.636
469.29	8.033
469.64	8.701
469.99	9.337
470.34	8.388
470.68	8.477
471.03	8.503
471.38	8.548
471.73	8.794
472.08	8.421
472.43	8.543
472.78	8.558
473.13	9.178
473.48	9.238
473.83	8.232
474.17	7.965
474.52	8.065
474.87	8.815
475.22	8.706
475.57	8.436
475.92	8.072
476.27	8.117
476.61	8.660
476.96	8.026
477.31	8.530
477.66	8.972
478.01	8.782
478.36	8.461
478.70	8.048
479.05	8.733
479.40	8.956
479.75	8.744
480.10	8.350
480.45	8.377
480.79	8.409
481.14	8.415
481.49	8.638
481.84	8.322
482.19	8.314
482.53	8.532
482.88	8.562
483.23	7.944
483.58	8.417
483.92	7.826
484.27	7.974
484.62	8.190
484.97	8.356
485.31	8.116
485.66	8.186
486.01	7.461
486.36	7.187
486.70	7.559
487.05	7.668
487.40	7.891
487.75	7.612
488.09	8.129
488.44	7.672
488.79	8.246
489.13	8.136
489.48	8.075
489.83	7.898
490.17	8.374
490.52	8.193
490.87	7.870
491.22	8.458
491.56	7.517
491.91	8.888
492.26	8.314
492.60	8.802
492.95	7.998
493.30	7.617
493.64	8.819
493.99	8.124
494.34	8.603
494.68	8.745
495.03	8.600
495.37	8.655
495.72	8.041
496.07	8.585
496.41	8.053
496.76	8.399
497.11	8.014
497.45	8.430
497.80	8.061
498.14	8.551
498.49	8.585
498.84	8.533
499.18	8.048
499.53	8.310
499.87	8.201
500.22	9.044
500.56	8.689
500.91	7.933
501.26	8.914
501.60	8.401
501.95	8.478
502.29	8.669
502.64	8.240
502.98	8.602
503.33	7.907
503.67	8.910
504.02	7.811
504.36	8.938
504.71	8.403
505.06	8.771
505.40	8.605
505.75	8.341
506.09	7.969
506.44	7.992
506.78	8.622
507.13	8.783
507.47	9.394
507.82	8.916
508.16	8.359
508.51	9.285
508.85	9.086
509.19	8.316
509.54	8.827
509.88	9.377
510.23	9.049
510.57	9.804
510.92	8.286
511.26	8.736
511.61	9.284
511.95	8.873
512.30	8.537
512.64	9.511
512.98	9.218
513.33	8.994
513.67	8.538
514.02	8.712
514.36	9.885
514.70	10.127
515.05	8.533
515.39	9.591
515.74	9.065
516.08	8.999
516.42	9.323
516.77	9.309
517.11	8.768
517.46	10.045
517.80	8.943
518.14	7.991
518.49	9.860
518.83	9.602
519.17	9.584
519.52	9.564
519.86	9.469
520.20	10.289
520.55	9.156
520.89	9.550
521.23	9.288
521.58	9.664
521.92	9.920
522.26	8.786
522.61	8.972
522.95	9.576
523.29	9.556
523.64	9.695
523.98	9.735
524.32	9.710
524.66	9.561
525.01	10.049
525.35	8.674
525.69	9.421
526.04	9.470
526.38	10.189
526.72	9.509
527.06	9.416
527.41	8.911
527.75	9.839
528.09	9.698
528.43	9.178
528.78	9.711
529.12	9.455
529.46	9.920
529.80	10.272
530.15	10.031
530.49	9.354
530.83	9.620
531.17	9.987
531.51	10.765
531.86	9.290
532.20	10.235
532.54	10.890
532.88	10.398
533.22	9.057
533.57	9.753
533.91	8.910
534.25	9.113
534.59	9.762
534.93	9.161
535.27	9.415
535.62	9.890
535.96	9.542
536.30	9.345
536.64	10.238
536.98	9.954
537.32	8.953
537.66	9.533
538.01	10.007
538.35	10.343
538.69	10.466
539.03	9.032
539.37	9.010
539.71	8.944
540.05	9.412
540.39	8.837
540.73	10.220
541.07	9.669
541.42	10.111
541.76	10.387
542.10	10.220
542.44	9.404
542.78	10.474
543.12	8.765
543.46	10.295
543.80	9.369
544.14	9.307
544.48	9.587
544.82	8.852
545.16	9.889
545.50	8.869
545.84	9.207
546.18	9.091
546.52	9.291
546.86	9.416
547.20	9.305
547.54	10.220
547.88	10.395
548.22	9.465
548.56	9.686
548.90	8.963
549.24	9.024
549.58	9.413
549.92	8.929
550.26	10.369
550.60	9.474
550.94	9.648
551.28	8.925
551.62	8.843
551.96	9.965
552.30	10.512
552.64	9.669
552.98	9.220
553.32	9.575
553.66	10.020
554.00	8.922
554.34	8.972
554.68	10.157
555.02	9.450
555.36	9.673
555.69	9.066
556.03	8.748
556.37	9.891
556.71	9.141
557.05	9.594
557.39	9.237
557.73	9.245
558.07	9.790
558.41	10.275
558.75	9.478
559.08	9.620
559.42	9.599
559.76	10.735
560.10	9.493
560.44	10.482
560.78	8.583
561.12	9.499
561.45	9.974
561.79	9.624
562.13	9.591
562.47	10.109
562.81	8.926
563.15	9.699
563.48	9.549
563.82	9.067
564.16	10.137
564.50	8.984
564.84	9.608
565.17	8.752
565.51	9.585
565.85	9.645
566.19	9.393
566.52	8.930
566.86	8.981
567.20	9.375
567.54	8.562
567.88	8.691
568.21	9.365
568.55	9.252
568.89	8.706
569.23	8.824
569.56	8.947
569.90	8.679
570.24	8.181
570.57	7.922
570.91	7.951
571.25	8.647
571.59	8.306
571.92	8.410
572.26	8.521
572.60	8.048
572.93	8.426
573.27	8.696
573.61	8.068
573.95	8.630
574.28	7.864
574.62	8.090
574.96	7.933
575.29	7.953
575.63	8.130
575.97	7.967
576.30	8.444
576.64	8.137
576.98	7.900
577.31	8.272
577.65	7.991
577.98	7.961
578.32	7.784
578.66	8.323
578.99	7.989
579.33	8.037
579.67	7.711
580.00	7.960
580.34	8.021
580.67	8.012
581.01	8.095
581.35	7.977
581.68	7.923
582.02	8.116
582.35	7.613
582.69	8.073
583.02	7.931
583.36	7.955
583.70	8.092
584.03	8.150
584.37	8.485
584.70	7.863
585.04	8.146
585.37	8.062
585.71	8.459
586.04	8.021
586.38	8.098
586.72	8.589
587.05	8.259
587.39	8.100
587.72	8.091
588.06	7.818
588.39	8.395
588.73	7.979
589.06	8.757
589.40	8.384
589.73	8.166
590.07	8.541
590.40	8.440
590.73	8.821
591.07	9.158
591.40	8.309
591.74	8.701
592.07	8.421
592.41	8.847
592.74	8.502
593.08	8.461
593.41	8.194
593.75	8.307
594.08	8.481
594.41	8.766
594.75	8.392
595.08	8.482
595.42	8.897
595.75	8.048
596.09	8.299
596.42	9.077
596.75	8.442
597.09	9.654
597.42	8.769
597.75	8.452
598.09	8.913
598.42	8.119
598.76	7.985
599.09	8.134
599.42	8.188
599.76	8.675
600.09	7.905
600.42	8.145
600.76	8.286
601.09	8.488
601.42	8.371
601.76	8.539
602.09	8.538
602.42	8.678
602.76	8.746
603.09	8.851
603.42	8.747
603.76	8.194
604.09	8.104
604.42	8.398
604.76	8.984
605.09	8.825
605.42	8.935
605.75	8.816
606.09	9.150
606.42	7.887
606.75	8.710
607.09	9.209
607.42	8.045
607.75	7.764
608.08	8.424
608.42	8.606
608.75	8.476
609.08	8.557
609.41	8.901
609.75	8.623
610.08	8.907
610.41	8.520
610.74	7.900
611.07	9.190
611.41	8.538
611.74	8.999
612.07	9.006
612.40	8.814
612.73	9.368
613.07	8.728
613.40	9.321
613.73	8.862
614.06	8.925
614.39	8.705
614.72	9.368
615.06	8.771
615.39	8.174
615.72	8.742
616.05	8.240
616.38	8.505
616.71	8.610
617.05	8.716
617.38	8.358
617.71	8.408
618.04	9.135
618.37	8.575
618.70	8.961
619.03	9.079
619.36	9.640
619.69	8.944
620.03	8.997
620.36	9.559
620.69	8.630
621.02	9.218
621.35	8.379
621.68	8.879
622.01	9.443
622.34	9.758
622.67	9.354
623.00	8.731
623.33	9.149
623.66	9.793
623.99	9.573
624.32	9.486
624.65	9.110
624.99	9.136
625.32	8.689
625.65	9.542
625.98	8.301
626.31	10.109
626.64	10.531
626.97	9.476
627.30	9.227
627.63	9.926
627.96	9.588
628.29	8.661
628.62	10.704
628.95	10.094
629.28	9.124
629.61	10.082
629.94	8.286
630.26	9.342
630.59	9.056
630.92	10.153
631.25	9.181
631.58	9.409
631.91	9.939
632.24	9.810
632.57	10.493
632.90	9.539
633.23	9.843
633.56	11.412
633.89	10.872
634.22	9.989
634.55	11.479
634.88	9.102
635.20	10.633
635.53	11.325
635.86	10.149
636.19	9.882
636.52	9.919
636.85	11.569
637.18	8.986
637.51	11.111
637.83	9.741
638.16	9.335
638.49	9.698
638.82	11.504
639.15	11.875
639.48	10.100
639.81	9.383
640.13	11.979
640.46	9.396
640.79	12.021
641.12	9.216
641.45	9.497
641.77	11.340
642.10	12.135
642.43	10.210
642.76	11.300
643.09	10.583
643.41	8.953
643.74	11.574
644.07	10.213
644.40	10.276
644.73	11.654
645.05	11.727
645.38	11.690
645.71	10.467
646.04	10.631
646.36	11.853
646.69	11.037
647.02	10.204
647.35	10.825
647.67	10.088
648.00	11.220
648.33	9.076
648.66	10.455
648.98	11.544
649.31	8.072
649.64	9.716
649.96	10.432
650.29	10.269
650.62	10.032
650.94	11.507
651.27	11.486
651.60	10.649
651.92	13.578
652.25	9.121
652.58	11.215
652.90	11.690
653.23	8.937
653.56	8.504
653.88	11.410
654.21	10.742
654.54	10.066
