SpectraSuite Data File
++++++++++++++++++++++++++++++++++++
Date: Fri May 15 20:16:09 PDT 2015
User: schluterlab
Dark Spectrum Present: Yes
Reference Spectrum Present: Yes
Number of Sampled Component Spectra: 1
Spectrometers: USB2E3373
Integration Time (usec): 3000 (USB2E3373)
Spectra Averaged: 3 (USB2E3373)
Boxcar Smoothing: 0 (USB2E3373)
Correct for Electrical Dark: No (USB2E3373)
Strobe/Lamp Enabled: No (USB2E3373)
Correct for Detector Non-linearity: No (USB2E3373)
Correct for Stray Light: No (USB2E3373)
Number of Pixels in Processed Spectrum: 2048
>>>>>Begin Processed Spectral Data<<<<<
178.53	0.000
178.91	0.000
179.29	50.000
179.67	-600.000
180.04	-14.286
180.42	250.000
180.80	-1300.000
181.18	33.333
181.56	-150.000
181.94	-250.000
182.31	1000.000
182.69	120.000
183.07	-200.000
183.45	-20.000
183.83	200.000
184.20	54.545
184.58	-0.000
184.96	-150.000
185.34	33.333
185.72	-500.000
186.09	115.385
186.47	-1000.000
186.85	66.667
187.23	111.111
187.61	600.000
187.98	-500.000
188.36	22.222
188.74	-66.667
189.12	0.000
189.49	77.778
189.87	0.000
190.25	-21.429
190.63	250.000
191.00	-366.667
191.38	-31.579
191.76	650.000
192.14	-50.000
192.51	-100.000
192.89	-122.222
193.27	-128.571
193.65	183.333
194.02	63.636
194.40	100.000
194.78	-87.500
195.15	-25.000
195.53	-112.500
195.91	350.000
196.29	-25.000
196.66	146.154
197.04	171.429
197.42	33.333
197.79	-800.000
198.17	-107.692
198.55	900.000
198.92	-200.000
199.30	-100.000
199.68	-40.000
200.05	-266.667
200.43	0.000
200.81	-233.333
201.18	-33.333
201.56	1200.000
201.94	-300.000
202.31	-100.000
202.69	-180.000
203.07	25.000
203.44	400.000
203.82	0.000
204.19	28.571
204.57	-433.333
204.95	25.000
205.32	40.000
205.70	-14.286
206.08	100.000
206.45	33.333
206.83	142.857
207.20	-185.714
207.58	400.000
207.96	-300.000
208.33	-40.000
208.71	-75.000
209.08	50.000
209.46	-800.000
209.84	0.000
210.21	-500.000
210.59	71.429
210.96	16.667
211.34	-25.000
211.71	113.333
212.09	-57.143
212.46	-1400.000
212.84	0.000
213.22	100.000
213.59	400.000
213.97	61.538
214.34	72.727
214.72	33.333
215.09	550.000
215.47	-7.692
215.84	18.182
216.22	-366.667
216.59	37.500
216.97	250.000
217.34	-175.000
217.72	-120.000
218.09	150.000
218.47	212.500
218.84	-500.000
219.22	-66.667
219.59	-20.000
219.97	233.333
220.34	425.000
220.72	-85.714
221.09	-25.000
221.47	100.000
221.84	-700.000
222.22	-700.000
222.59	27.273
222.97	0.000
223.34	33.333
223.72	-7.143
224.09	57.143
224.46	25.000
224.84	666.667
225.21	10.000
225.59	-20.000
225.96	-100.000
226.34	250.000
226.71	-71.429
227.08	-16.667
227.46	-50.000
227.83	-650.000
228.21	-55.556
228.58	0.000
228.95	-37.500
229.33	120.000
229.70	43.750
230.08	-50.000
230.45	0.000
230.82	71.429
231.20	-13.333
231.57	71.429
231.95	-42.857
232.32	-100.000
232.69	7.143
233.07	-166.667
233.44	-100.000
233.81	-200.000
234.19	0.000
234.56	41.176
234.93	200.000
235.31	-100.000
235.68	-360.000
236.05	-146.154
236.43	-65.000
236.80	-5.882
237.17	21.875
237.55	-25.000
237.92	3.704
238.29	-8.333
238.67	-16.667
239.04	11.765
239.41	-9.756
239.79	6.667
240.16	24.390
240.53	10.526
240.91	-23.913
241.28	7.937
241.65	23.214
242.02	12.329
242.40	1.667
242.77	0.000
243.14	-9.091
243.51	-1.250
243.89	9.195
244.26	-2.299
244.63	8.333
245.00	1.031
245.38	11.340
245.75	-8.989
246.12	0.862
246.49	4.132
246.87	-0.962
247.24	0.000
247.61	-15.789
247.98	6.504
248.36	3.750
248.73	5.263
249.10	2.597
249.47	3.165
249.84	2.614
250.22	4.706
250.59	4.575
250.96	14.085
251.33	0.000
251.70	3.529
252.08	6.599
252.45	3.960
252.82	5.528
253.19	10.599
253.56	0.467
253.94	5.856
254.31	8.261
254.68	8.333
255.05	2.362
255.42	7.424
255.79	7.722
256.16	3.502
256.54	9.701
256.91	4.563
257.28	4.461
257.65	3.371
258.02	1.418
258.39	9.428
258.76	6.227
259.14	6.312
259.51	3.883
259.88	3.780
260.25	4.902
260.62	6.944
260.99	1.695
261.36	1.370
261.73	2.215
262.10	5.167
262.47	7.975
262.85	5.329
263.22	6.462
263.59	3.738
263.96	7.764
264.33	6.364
264.70	5.357
265.07	4.167
265.44	4.249
265.81	7.345
266.18	5.738
266.55	6.427
266.92	5.440
267.29	8.616
267.66	7.673
268.03	5.497
268.40	3.916
268.77	7.219
269.14	5.516
269.51	5.398
269.88	6.234
270.25	3.061
270.62	3.902
270.99	3.836
271.36	5.623
271.73	5.399
272.10	5.109
272.47	6.147
272.84	3.218
273.21	7.657
273.58	7.229
273.95	5.492
274.32	3.464
274.69	4.977
275.06	7.589
275.43	3.628
275.80	4.636
276.17	2.759
276.54	4.283
276.91	4.825
277.28	5.240
277.65	8.264
278.02	6.809
278.39	4.158
278.76	4.403
279.13	3.527
279.50	6.303
279.87	6.911
280.23	3.441
280.60	7.407
280.97	4.848
281.34	4.231
281.71	5.133
282.08	4.499
282.45	5.284
282.82	5.212
283.19	5.416
283.56	5.010
283.92	4.175
284.29	3.846
284.66	4.845
285.03	5.501
285.40	3.403
285.77	6.151
286.14	5.054
286.51	8.856
286.87	6.581
287.24	4.788
287.61	4.762
287.98	7.193
288.35	5.719
288.72	6.480
289.08	5.035
289.45	6.854
289.82	3.671
290.19	3.072
290.56	2.916
290.93	3.535
291.29	4.006
291.66	6.457
292.03	4.625
292.40	6.452
292.77	3.987
293.13	2.435
293.50	3.945
293.87	5.191
294.24	5.100
294.60	5.216
294.97	5.357
295.34	5.521
295.71	5.067
296.08	4.036
296.44	2.134
296.81	3.472
297.18	4.928
297.55	4.607
297.91	4.658
298.28	6.860
298.65	3.392
299.02	4.043
299.38	2.189
299.75	4.138
300.12	3.927
300.48	3.557
300.85	3.169
301.22	3.766
301.59	3.289
301.95	4.557
302.32	3.761
302.69	5.224
303.05	4.579
303.42	3.985
303.79	5.257
304.15	5.615
304.52	3.210
304.89	3.743
305.25	4.479
305.62	3.734
305.99	3.977
306.35	5.087
306.72	2.812
307.09	4.447
307.45	5.166
307.82	3.935
308.19	4.413
308.55	3.599
308.92	5.447
309.29	4.469
309.65	4.198
310.02	3.630
310.38	3.842
310.75	5.792
311.12	4.952
311.48	3.924
311.85	5.864
312.22	4.008
312.58	5.945
312.95	4.482
313.31	4.037
313.68	5.236
314.05	4.082
314.41	5.361
314.78	5.052
315.14	5.961
315.51	4.451
315.87	5.635
316.24	6.977
316.61	6.004
316.97	6.052
317.34	6.543
317.70	5.832
318.07	5.865
318.43	6.765
318.80	7.197
319.16	7.324
319.53	8.452
319.89	6.988
320.26	6.781
320.62	8.526
320.99	7.098
321.35	8.633
321.72	9.761
322.08	7.956
322.45	9.442
322.81	9.921
323.18	9.519
323.54	10.425
323.91	10.127
324.27	11.328
324.64	12.172
325.00	12.956
325.37	13.315
325.73	12.330
326.10	13.442
326.46	13.543
326.83	14.173
327.19	14.996
327.56	14.509
327.92	15.845
328.29	15.893
328.65	16.038
329.01	16.268
329.38	17.696
329.74	17.469
330.11	17.702
330.47	17.069
330.84	19.038
331.20	20.152
331.56	17.870
331.93	19.909
332.29	20.348
332.66	20.724
333.02	21.004
333.38	19.523
333.75	22.436
334.11	20.949
334.48	21.396
334.84	22.436
335.20	20.586
335.57	22.031
335.93	22.313
336.29	24.033
336.66	22.525
337.02	21.004
337.38	22.315
337.75	22.636
338.11	23.625
338.47	22.901
338.84	23.937
339.20	23.126
339.56	24.404
339.93	24.082
340.29	23.486
340.65	24.283
341.02	23.936
341.38	23.451
341.74	22.703
342.11	23.917
342.47	23.043
342.83	23.616
343.20	23.258
343.56	24.609
343.92	22.941
344.28	25.192
344.65	24.180
345.01	23.077
345.37	24.138
345.73	25.356
346.10	24.245
346.46	24.054
346.82	24.141
347.19	23.774
347.55	24.144
347.91	24.676
348.27	24.010
348.63	24.957
349.00	24.610
349.36	24.023
349.72	24.378
350.08	24.262
350.45	25.379
350.81	23.671
351.17	23.779
351.53	24.653
351.89	23.782
352.26	24.160
352.62	25.403
352.98	23.936
353.34	24.879
353.70	25.081
354.07	24.919
354.43	23.459
354.79	24.277
355.15	26.429
355.51	24.209
355.87	24.272
356.24	24.715
356.60	24.414
356.96	25.476
357.32	24.840
357.68	24.472
358.04	25.283
358.40	25.723
358.77	24.880
359.13	25.620
359.49	23.729
359.85	25.195
360.21	25.997
360.57	24.943
360.93	25.643
361.29	24.547
361.66	26.176
362.02	26.136
362.38	25.438
362.74	24.300
363.10	26.712
363.46	25.352
363.82	27.122
364.18	26.273
364.54	25.588
364.90	25.663
365.26	26.128
365.62	26.423
365.98	26.173
366.35	27.531
366.71	26.755
367.07	26.488
367.43	26.096
367.79	26.643
368.15	26.777
368.51	26.803
368.87	25.915
369.23	26.498
369.59	25.802
369.95	27.199
370.31	26.662
370.67	26.866
371.03	25.990
371.39	25.602
371.75	27.033
372.11	26.819
372.47	27.145
372.83	27.395
373.19	27.247
373.55	27.220
373.91	27.430
374.27	28.278
374.63	27.925
374.99	27.518
375.35	27.716
375.71	28.531
376.07	28.862
376.42	27.755
376.78	28.658
377.14	28.436
377.50	28.088
377.86	28.046
378.22	28.207
378.58	28.910
378.94	29.049
379.30	29.445
379.66	29.091
380.02	28.326
380.38	28.424
380.74	29.204
381.09	29.816
381.45	29.358
381.81	29.426
382.17	29.632
382.53	30.044
382.89	29.755
383.25	30.243
383.61	29.878
383.97	30.159
384.32	29.769
384.68	29.474
385.04	29.167
385.40	30.243
385.76	31.006
386.12	30.918
386.48	30.587
386.83	30.945
387.19	31.197
387.55	31.054
387.91	30.746
388.27	30.098
388.62	31.466
388.98	31.123
389.34	31.230
389.70	31.697
390.06	31.152
390.42	29.987
390.77	31.916
391.13	30.643
391.49	30.660
391.85	31.124
392.20	31.073
392.56	31.151
392.92	31.415
393.28	31.014
393.64	30.871
393.99	31.850
394.35	30.867
394.71	31.162
395.07	30.358
395.42	31.148
395.78	31.205
396.14	31.841
396.50	32.530
396.85	31.874
397.21	31.328
397.57	31.285
397.92	31.815
398.28	32.241
398.64	32.108
399.00	32.111
399.35	31.095
399.71	30.500
400.07	31.802
400.42	30.783
400.78	32.211
401.14	30.792
401.49	31.864
401.85	31.566
402.21	31.265
402.57	31.938
402.92	30.803
403.28	31.266
403.63	32.598
403.99	31.441
404.35	32.605
404.70	30.774
405.06	31.904
405.42	31.635
405.77	31.028
406.13	31.607
406.49	30.787
406.84	32.763
407.20	32.029
407.55	31.294
407.91	31.684
408.27	31.230
408.62	32.308
408.98	31.238
409.34	32.466
409.69	31.783
410.05	31.712
410.40	31.420
410.76	31.966
411.11	32.375
411.47	32.873
411.83	32.203
412.18	32.497
412.54	31.648
412.89	30.296
413.25	31.709
413.60	31.615
413.96	30.736
414.31	31.646
414.67	30.853
415.03	31.292
415.38	30.352
415.74	32.443
416.09	31.287
416.45	31.668
416.80	31.725
417.16	32.735
417.51	31.845
417.87	31.747
418.22	33.290
418.58	33.311
418.93	33.856
419.29	31.178
419.64	33.052
420.00	33.879
420.35	32.836
420.71	32.382
421.06	32.781
421.42	33.173
421.77	32.659
422.12	32.406
422.48	32.269
422.83	32.831
423.19	32.336
423.54	33.275
423.90	33.922
424.25	33.927
424.61	33.231
424.96	32.927
425.31	34.315
425.67	33.451
426.02	33.628
426.38	33.626
426.73	33.535
427.09	34.557
427.44	34.118
427.79	34.826
428.15	34.527
428.50	34.040
428.85	32.801
429.21	34.012
429.56	34.663
429.92	35.285
430.27	34.135
430.62	33.037
430.98	34.130
431.33	35.226
431.68	35.060
432.04	34.153
432.39	34.683
432.74	33.915
433.10	36.034
433.45	34.648
433.80	35.519
434.16	34.127
434.51	35.753
434.86	35.134
435.22	35.222
435.57	35.745
435.92	35.329
436.28	34.705
436.63	35.425
436.98	36.095
437.34	35.148
437.69	36.434
438.04	35.157
438.39	35.431
438.75	35.883
439.10	36.220
439.45	36.458
439.81	36.147
440.16	36.461
440.51	37.134
440.86	37.462
441.22	35.633
441.57	36.755
441.92	37.093
442.27	37.472
442.63	37.313
442.98	36.760
443.33	36.950
443.68	36.552
444.03	36.711
444.39	37.334
444.74	38.127
445.09	37.639
445.44	37.094
445.79	37.906
446.15	36.784
446.50	37.659
446.85	38.576
447.20	38.008
447.55	38.281
447.91	37.902
448.26	38.475
448.61	37.881
448.96	37.407
449.31	37.919
449.66	37.805
450.02	38.505
450.37	38.352
450.72	38.087
451.07	39.810
451.42	37.890
451.77	39.542
452.12	37.978
452.47	38.377
452.83	37.574
453.18	38.583
453.53	39.128
453.88	38.494
454.23	38.353
454.58	39.610
454.93	39.369
455.28	37.905
455.63	39.182
455.98	39.447
456.34	39.591
456.69	38.755
457.04	40.076
457.39	38.639
457.74	39.178
458.09	38.611
458.44	38.268
458.79	38.207
459.14	40.332
459.49	40.179
459.84	39.932
460.19	40.473
460.54	39.976
460.89	39.432
461.24	40.248
461.59	39.133
461.94	39.497
462.29	40.772
462.64	40.399
462.99	39.675
463.34	40.125
463.69	39.254
464.04	40.133
464.39	39.236
464.74	39.693
465.09	39.364
465.44	40.335
465.79	39.853
466.14	40.707
466.49	40.138
466.84	39.560
467.19	40.300
467.54	40.996
467.89	40.177
468.24	39.294
468.59	40.952
468.94	40.571
469.29	39.672
469.64	40.260
469.99	40.925
470.34	40.273
470.68	40.790
471.03	40.269
471.38	39.943
471.73	40.546
472.08	40.231
472.43	40.805
472.78	39.136
473.13	40.000
473.48	39.739
473.83	39.041
474.17	41.192
474.52	40.332
474.87	39.879
475.22	40.757
475.57	40.429
475.92	41.251
476.27	40.803
476.61	41.088
476.96	40.100
477.31	40.833
477.66	40.000
478.01	40.090
478.36	41.068
478.70	41.544
479.05	41.593
479.40	40.806
479.75	40.980
480.10	40.860
480.45	40.950
480.79	41.088
481.14	42.213
481.49	40.739
481.84	42.181
482.19	40.365
482.53	40.144
482.88	40.334
483.23	40.547
483.58	40.377
483.92	40.416
484.27	39.471
484.62	40.520
484.97	39.842
485.31	39.921
485.66	40.032
486.01	40.896
486.36	40.678
486.70	41.027
487.05	41.121
487.40	40.951
487.75	40.592
488.09	40.822
488.44	40.956
488.79	40.717
489.13	41.386
489.48	41.214
489.83	40.314
490.17	40.809
490.52	41.109
490.87	40.722
491.22	41.309
491.56	41.129
491.91	42.113
492.26	42.343
492.60	41.411
492.95	42.450
493.30	41.573
493.64	41.552
493.99	41.111
494.34	41.359
494.68	41.476
495.03	41.411
495.37	41.904
495.72	41.242
496.07	41.220
496.41	41.840
496.76	41.824
497.11	40.987
497.45	41.814
497.80	41.826
498.14	41.381
498.49	41.798
498.84	41.218
499.18	41.867
499.53	42.063
499.87	41.051
500.22	40.999
500.56	42.410
500.91	41.365
501.26	41.275
501.60	42.154
501.95	41.533
502.29	41.308
502.64	42.375
502.98	41.539
503.33	41.018
503.67	41.542
504.02	43.157
504.36	41.663
504.71	41.768
505.06	41.017
505.40	41.168
505.75	41.959
506.09	40.953
506.44	42.505
506.78	42.959
507.13	42.244
507.47	41.044
507.82	40.438
508.16	41.363
508.51	42.760
508.85	42.700
509.19	41.831
509.54	43.110
509.88	41.100
510.23	41.958
510.57	42.437
510.92	41.205
511.26	42.717
511.61	42.464
511.95	42.137
512.30	41.962
512.64	41.792
512.98	41.550
513.33	42.809
513.67	41.956
514.02	43.135
514.36	42.971
514.70	43.531
515.05	42.832
515.39	41.972
515.74	43.473
516.08	43.096
516.42	44.287
516.77	42.481
517.11	41.780
517.46	43.746
517.80	42.431
518.14	42.498
518.49	41.827
518.83	42.163
519.17	41.904
519.52	41.445
519.86	42.377
520.20	42.892
520.55	41.714
520.89	43.036
521.23	43.319
521.58	43.596
521.92	42.179
522.26	42.811
522.61	41.948
522.95	43.709
523.29	42.186
523.64	42.884
523.98	43.098
524.32	42.332
524.66	43.662
525.01	44.026
525.35	43.487
525.69	42.492
526.04	41.931
526.38	45.006
526.72	42.315
527.06	42.931
527.41	43.074
527.75	42.091
528.09	42.724
528.43	45.442
528.78	43.498
529.12	42.194
529.46	43.535
529.80	43.002
530.15	42.706
530.49	43.704
530.83	43.776
531.17	42.646
531.51	44.118
531.86	42.556
532.20	43.285
532.54	43.839
532.88	42.779
533.22	43.145
533.57	42.529
533.91	43.930
534.25	45.182
534.59	41.950
534.93	41.536
535.27	41.751
535.62	42.515
535.96	42.922
536.30	42.678
536.64	43.487
536.98	42.300
537.32	44.310
537.66	43.408
538.01	42.867
538.35	43.828
538.69	42.410
539.03	40.602
539.37	42.598
539.71	45.467
540.05	42.566
540.39	42.452
540.73	44.351
541.07	43.577
541.42	44.220
541.76	43.359
542.10	43.221
542.44	42.738
542.78	42.257
543.12	42.033
543.46	43.741
543.80	43.442
544.14	40.854
544.48	43.438
544.82	43.541
545.16	43.648
545.50	43.458
545.84	44.051
546.18	42.908
546.52	43.331
546.86	41.697
547.20	43.634
547.54	42.332
547.88	42.188
548.22	41.420
548.56	42.348
548.90	42.925
549.24	42.906
549.58	41.396
549.92	41.959
550.26	42.051
550.60	43.420
550.94	43.689
551.28	42.658
551.62	43.385
551.96	42.406
552.30	42.544
552.64	42.243
552.98	43.952
553.32	42.582
553.66	42.235
554.00	43.504
554.34	43.279
554.68	41.888
555.02	43.824
555.36	42.334
555.69	42.491
556.03	42.256
556.37	42.349
556.71	43.177
557.05	42.953
557.39	41.413
557.73	42.804
558.07	45.400
558.41	43.338
558.75	43.882
559.08	43.656
559.42	43.413
559.76	42.674
560.10	43.349
560.44	42.070
560.78	43.007
561.12	42.736
561.45	45.186
561.79	44.048
562.13	43.435
562.47	43.237
562.81	41.859
563.15	43.300
563.48	43.777
563.82	43.377
564.16	42.758
564.50	42.365
564.84	42.570
565.17	43.461
565.51	43.511
565.85	43.896
566.19	43.833
566.52	44.705
566.86	44.344
567.20	43.400
567.54	44.161
567.88	44.112
568.21	43.665
568.55	42.880
568.89	42.351
569.23	43.284
569.56	42.601
569.90	43.402
570.24	42.538
570.57	42.945
570.91	42.872
571.25	42.190
571.59	41.732
571.92	40.978
572.26	41.606
572.60	41.674
572.93	41.481
573.27	41.285
573.61	41.408
573.95	41.780
574.28	41.499
574.62	41.775
574.96	40.663
575.29	41.040
575.63	39.699
575.97	40.580
576.30	41.692
576.64	40.927
576.98	41.750
577.31	41.681
577.65	42.018
577.98	41.314
578.32	41.376
578.66	40.426
578.99	40.314
579.33	40.495
579.67	40.449
580.00	41.316
580.34	41.020
580.67	40.727
581.01	41.234
581.35	41.214
581.68	40.760
582.02	40.943
582.35	41.058
582.69	41.196
583.02	41.209
583.36	41.211
583.70	42.030
584.03	42.869
584.37	42.264
584.70	41.593
585.04	40.959
585.37	41.400
585.71	40.583
586.04	41.200
586.38	41.318
586.72	41.521
587.05	41.594
587.39	41.683
587.72	42.182
588.06	41.185
588.39	41.327
588.73	41.880
589.06	42.368
589.40	41.479
589.73	42.424
590.07	42.296
590.40	42.724
590.73	42.669
591.07	42.197
591.40	41.541
591.74	43.213
592.07	42.857
592.41	43.242
592.74	41.697
593.08	41.670
593.41	41.516
593.75	41.184
594.08	41.435
594.41	41.703
594.75	41.260
595.08	41.922
595.42	42.584
595.75	42.358
596.09	42.377
596.42	42.456
596.75	42.540
597.09	41.412
597.42	42.005
597.75	42.327
598.09	42.191
598.42	41.652
598.76	41.785
599.09	41.466
599.42	40.735
599.76	41.159
600.09	41.063
600.42	41.471
600.76	40.527
601.09	41.603
601.42	41.598
601.76	41.763
602.09	41.502
602.42	41.997
602.76	41.766
603.09	41.902
603.42	42.224
603.76	41.250
604.09	41.110
604.42	41.751
604.76	42.813
605.09	42.185
605.42	40.903
605.75	41.988
606.09	41.699
606.42	41.618
606.75	40.563
607.09	41.451
607.42	41.249
607.75	40.764
608.08	41.285
608.42	42.028
608.75	42.361
609.08	42.302
609.41	41.878
609.75	42.339
610.08	43.535
610.41	41.208
610.74	41.443
611.07	41.912
611.41	42.916
611.74	42.431
612.07	40.257
612.40	42.396
612.73	42.260
613.07	42.407
613.40	41.904
613.73	41.802
614.06	41.959
614.39	41.906
614.72	41.905
615.06	41.844
615.39	40.993
615.72	40.689
616.05	41.453
616.38	40.912
616.71	41.346
617.05	42.804
617.38	42.049
617.71	41.635
618.04	42.603
618.37	44.010
618.70	42.508
619.03	43.056
619.36	41.172
619.69	44.124
620.03	43.901
620.36	43.491
620.69	41.470
621.02	43.043
621.35	45.062
621.68	44.558
622.01	41.750
622.34	42.538
622.67	44.401
623.00	42.420
623.33	43.216
623.66	42.334
623.99	42.965
624.32	43.574
624.65	42.406
624.99	44.545
625.32	42.532
625.65	44.226
625.98	43.916
626.31	42.311
626.64	43.068
626.97	43.630
627.30	42.995
627.63	42.894
627.96	43.396
628.29	43.108
628.62	45.133
628.95	43.186
629.28	43.750
629.61	44.666
629.94	44.966
630.26	44.862
630.59	43.809
630.92	44.513
631.25	42.769
631.58	45.485
631.91	42.105
632.24	43.463
632.57	43.636
632.90	43.891
633.23	44.353
633.56	45.088
633.89	42.787
634.22	43.951
634.55	45.235
634.88	43.806
635.20	44.744
635.53	45.600
635.86	43.303
636.19	45.408
636.52	44.515
636.85	42.680
637.18	44.025
637.51	44.277
637.83	42.970
