SpectraSuite Data File
++++++++++++++++++++++++++++++++++++
Date: Fri May 15 20:05:46 PDT 2015
User: schluterlab
Dark Spectrum Present: Yes
Reference Spectrum Present: Yes
Number of Sampled Component Spectra: 1
Spectrometers: USB2E3373
Integration Time (usec): 3000 (USB2E3373)
Spectra Averaged: 3 (USB2E3373)
Boxcar Smoothing: 0 (USB2E3373)
Correct for Electrical Dark: No (USB2E3373)
Strobe/Lamp Enabled: No (USB2E3373)
Correct for Detector Non-linearity: No (USB2E3373)
Correct for Stray Light: No (USB2E3373)
Number of Pixels in Processed Spectrum: 2048
>>>>>Begin Processed Spectral Data<<<<<
178.53	0.000
178.91	0.000
179.29	50.000
179.67	-550.000
180.04	100.000
180.42	100.000
180.80	100.000
181.18	333.333
181.56	450.000
181.94	-400.000
182.31	200.000
182.69	-180.000
183.07	-166.667
183.45	-20.000
183.83	150.000
184.20	100.000
184.58	100.000
184.96	100.000
185.34	-200.000
185.72	-700.000
186.09	23.077
186.47	-300.000
186.85	250.000
187.23	55.556
187.61	400.000
187.98	-33.333
188.36	0.000
188.74	-66.667
189.12	-17.647
189.49	0.000
189.87	0.000
190.25	85.714
190.63	350.000
191.00	33.333
191.38	5.263
191.76	700.000
192.14	225.000
192.51	50.000
192.89	-111.111
193.27	-42.857
193.65	166.667
194.02	118.182
194.40	0.000
194.78	-100.000
195.15	8.333
195.53	-75.000
195.91	350.000
196.29	-50.000
196.66	100.000
197.04	100.000
197.42	-55.556
197.79	-333.333
198.17	-30.769
198.55	200.000
198.92	-66.667
199.30	-400.000
199.68	-60.000
200.05	-166.667
200.43	0.000
200.81	-133.333
201.18	100.000
201.56	400.000
201.94	-50.000
202.31	-0.000
202.69	-300.000
203.07	350.000
203.44	800.000
203.82	0.000
204.19	57.143
204.57	-366.667
204.95	12.500
205.32	70.000
205.70	28.571
206.08	0.000
206.45	255.556
206.83	64.286
207.20	-42.857
207.58	-100.000
207.96	-66.667
208.33	40.000
208.71	75.000
209.08	-100.000
209.46	-1100.000
209.84	40.000
210.21	-600.000
210.59	114.286
210.96	-133.333
211.34	100.000
211.71	-13.333
212.09	-85.714
212.46	-1100.000
212.84	0.000
213.22	140.000
213.59	600.000
213.97	23.077
214.34	27.273
214.72	0.000
215.09	125.000
215.47	7.692
215.84	-63.636
216.22	-200.000
216.59	-25.000
216.97	-150.000
217.34	-125.000
217.72	-140.000
218.09	87.500
218.47	100.000
218.84	-800.000
219.22	-66.667
219.59	120.000
219.97	433.333
220.34	325.000
220.72	0.000
221.09	-275.000
221.47	-250.000
221.84	-1250.000
222.22	-150.000
222.59	-36.364
222.97	0.000
223.34	-200.000
223.72	42.857
224.09	47.619
224.46	3.571
224.84	533.333
225.21	-40.000
225.59	33.333
225.96	-400.000
226.34	375.000
226.71	-14.286
227.08	66.667
227.46	-12.500
227.83	-150.000
228.21	-44.444
228.58	54.545
228.95	62.500
229.33	130.000
229.70	50.000
230.08	-87.500
230.45	57.143
230.82	14.286
231.20	-6.667
231.57	85.714
231.95	-228.571
232.32	-60.000
232.69	35.714
233.07	-166.667
233.44	40.000
233.81	-110.000
234.19	66.667
234.56	-5.882
234.93	350.000
235.31	50.000
235.68	-180.000
236.05	-61.538
236.43	-10.000
236.80	-17.647
237.17	40.625
237.55	-40.000
237.92	-51.852
238.29	5.556
238.67	3.333
239.04	-29.412
239.41	-24.390
239.79	-36.667
240.16	19.512
240.53	-10.526
240.91	-6.522
241.28	-1.587
241.65	1.786
242.02	12.329
242.40	3.333
242.77	-22.034
243.14	-1.515
243.51	-8.750
243.89	13.793
244.26	-1.149
244.63	3.571
245.00	9.278
245.38	-4.124
245.75	-24.719
246.12	-6.034
246.49	5.785
246.87	7.692
247.24	-6.723
247.61	-6.140
247.98	7.317
248.36	6.250
248.73	11.842
249.10	-5.844
249.47	4.430
249.84	3.922
250.22	7.059
250.59	1.307
250.96	7.981
251.33	2.907
251.70	5.294
252.08	5.584
252.45	-2.475
252.82	1.508
253.19	5.069
253.56	-5.607
253.94	3.604
254.31	3.478
254.68	3.947
255.05	5.906
255.42	3.930
255.79	3.475
256.16	1.946
256.54	9.701
256.91	-1.901
257.28	4.833
257.65	2.622
258.02	1.418
258.39	0.000
258.76	6.227
259.14	5.648
259.51	7.120
259.88	1.375
260.25	2.288
260.62	8.333
260.99	-1.356
261.36	0.685
261.73	2.848
262.10	3.343
262.47	1.227
262.85	3.448
263.22	5.231
263.59	5.607
263.96	2.484
264.33	1.515
264.70	3.571
265.07	2.976
265.44	3.683
265.81	1.695
266.18	2.459
266.55	7.712
266.92	2.850
267.29	3.394
267.66	2.046
268.03	1.832
268.40	2.611
268.77	5.615
269.14	5.276
269.51	3.856
269.88	2.244
270.25	1.276
270.62	-0.244
270.99	-1.023
271.36	1.222
271.73	4.930
272.10	2.433
272.47	3.783
272.84	1.980
273.21	4.640
273.58	3.133
273.95	4.805
274.32	1.617
274.69	1.810
275.06	2.902
275.43	4.308
275.80	2.649
276.17	-0.690
276.54	3.854
276.91	3.070
277.28	2.620
277.65	4.132
278.02	4.468
278.39	3.501
278.76	4.193
279.13	-1.452
279.50	3.151
279.87	3.240
280.23	2.796
280.60	3.899
280.97	2.828
281.34	2.308
281.71	4.928
282.08	1.431
282.45	2.544
282.82	1.158
283.19	3.288
283.56	4.432
283.92	-0.759
284.29	0.769
284.66	2.907
285.03	0.982
285.40	1.134
285.77	1.757
286.14	4.332
286.51	4.428
286.87	2.377
287.24	0.737
287.61	2.116
287.98	4.386
288.35	1.040
288.72	2.627
289.08	3.299
289.45	3.691
289.82	3.671
290.19	1.024
290.56	2.573
290.93	1.347
291.29	2.157
291.66	2.362
292.03	2.073
292.40	2.581
292.77	2.233
293.13	1.623
293.50	2.580
293.87	2.901
294.24	1.236
294.60	2.981
294.97	2.976
295.34	1.840
295.71	1.937
296.08	1.196
296.44	1.707
296.81	1.250
297.18	2.464
297.55	3.523
297.91	2.740
298.28	4.090
298.65	2.714
299.02	2.561
299.38	0.137
299.75	2.759
300.12	1.571
300.48	1.976
300.85	3.929
301.22	1.948
301.59	0.921
301.95	2.911
302.32	3.632
302.69	0.995
303.05	2.847
303.42	1.494
303.79	2.453
304.15	2.151
304.52	0.713
304.89	1.520
305.25	1.816
305.62	2.684
305.99	2.807
306.35	1.965
306.72	1.575
307.09	0.798
307.45	4.133
307.82	1.852
308.19	2.323
308.55	2.399
308.92	2.832
309.29	1.229
309.65	1.938
310.02	2.970
310.38	3.293
310.75	3.825
311.12	3.122
311.48	3.287
311.85	2.513
312.22	2.743
312.58	3.822
312.95	2.988
313.31	2.174
313.68	4.398
314.05	3.367
314.41	4.742
314.78	4.536
315.14	6.372
315.51	5.797
315.87	6.352
316.24	6.977
316.61	6.201
316.97	7.341
317.34	6.934
317.70	7.170
318.07	7.500
318.43	8.137
318.80	8.712
319.16	10.254
319.53	10.636
319.89	10.236
320.26	11.336
320.62	12.136
320.99	12.317
321.35	12.025
321.72	14.330
322.08	14.502
322.45	15.127
322.81	15.324
323.18	17.272
323.54	18.340
323.91	19.572
324.27	20.410
324.64	22.472
325.00	23.449
325.37	25.069
325.73	24.751
326.10	26.885
326.46	28.789
326.83	29.309
327.19	31.299
327.56	32.233
327.92	34.067
328.29	33.929
328.65	36.698
329.01	36.673
329.38	37.788
329.74	40.227
330.11	40.037
330.47	39.703
330.84	41.346
331.20	46.103
331.56	43.426
331.93	46.301
332.29	46.288
332.66	43.620
333.02	45.353
333.38	45.830
333.75	47.161
334.11	47.001
334.48	50.136
334.84	49.451
335.20	49.314
335.57	48.413
335.93	49.503
336.29	50.092
336.66	50.500
337.02	50.465
337.38	50.370
337.75	52.273
338.11	53.381
338.47	52.828
338.84	53.235
339.20	52.834
339.56	52.477
339.93	53.984
340.29	54.312
340.65	53.674
341.02	52.926
341.38	54.159
341.74	52.473
342.11	53.726
342.47	55.694
342.83	56.488
343.20	55.401
343.56	55.043
343.92	54.916
344.28	56.362
344.65	54.663
345.01	54.538
345.37	55.425
345.73	56.151
346.10	58.930
346.46	56.770
346.82	56.219
347.19	54.780
347.55	56.475
347.91	55.502
348.27	56.103
348.63	56.559
349.00	56.276
349.36	58.437
349.72	56.965
350.08	57.541
350.45	56.983
350.81	57.724
351.17	57.410
351.53	57.959
351.89	58.382
352.26	57.920
352.62	58.065
352.98	57.028
353.34	57.810
353.70	58.900
354.07	58.145
354.43	58.127
354.79	59.372
355.15	60.397
355.51	59.019
355.87	59.142
356.24	58.238
356.60	59.903
356.96	59.365
357.32	59.105
357.68	59.656
358.04	60.178
358.40	60.289
358.77	60.048
359.13	60.288
359.49	58.475
359.85	60.842
360.21	61.802
360.57	59.220
360.93	60.741
361.29	60.725
361.66	61.755
362.02	62.045
362.38	62.452
362.74	62.528
363.10	63.807
363.46	62.639
363.82	63.561
364.18	62.583
364.54	61.324
364.90	63.799
365.26	63.100
365.62	65.547
365.98	63.856
366.35	64.822
366.71	64.819
367.07	65.312
367.43	64.198
367.79	64.947
368.15	65.686
368.51	64.894
368.87	65.039
369.23	65.415
369.59	66.108
369.95	66.349
370.31	67.341
370.67	64.851
371.03	66.841
371.39	66.156
371.75	66.886
372.11	66.762
372.47	68.639
372.83	67.991
373.19	68.402
373.55	68.087
373.91	68.395
374.27	68.958
374.63	69.562
374.99	69.858
375.35	70.543
375.71	70.070
376.07	70.365
376.42	70.952
376.78	71.007
377.14	70.345
377.50	70.916
377.86	71.084
378.22	71.729
378.58	71.731
378.94	71.078
379.30	72.551
379.66	73.292
380.02	71.061
380.38	72.611
380.74	72.292
381.09	73.681
381.45	73.456
381.81	73.041
382.17	72.906
382.53	73.517
382.89	73.886
383.25	74.984
383.61	74.268
383.97	74.984
384.32	73.296
384.68	74.365
385.04	75.306
385.40	74.736
385.76	77.610
386.12	76.326
386.48	75.990
386.83	76.221
387.19	76.557
387.55	77.604
387.91	77.139
388.27	74.969
388.62	78.099
388.98	76.734
389.34	76.640
389.70	77.315
390.06	76.086
390.42	78.951
390.77	77.698
391.13	74.968
391.49	77.878
391.85	78.622
392.20	78.154
392.56	78.640
392.92	76.629
393.28	77.889
393.64	76.937
393.99	78.370
394.35	78.495
394.71	77.522
395.07	76.618
395.42	76.624
395.78	79.023
396.14	78.752
396.50	78.060
396.85	79.137
397.21	77.945
397.57	79.185
397.92	77.412
398.28	78.218
398.64	77.048
399.00	76.637
399.35	76.975
399.71	76.335
400.07	78.718
400.42	76.438
400.78	77.893
401.14	75.923
401.49	78.797
401.85	77.879
402.21	76.446
402.57	78.000
402.92	76.286
403.28	77.068
403.63	78.499
403.99	77.041
404.35	78.951
404.70	75.476
405.06	76.557
405.42	76.196
405.77	76.583
406.13	77.241
406.49	76.732
406.84	78.117
407.20	76.520
407.55	77.721
407.91	76.203
408.27	75.590
408.62	76.308
408.98	76.340
409.34	76.394
409.69	75.452
410.05	74.631
410.40	76.543
410.76	76.417
411.11	76.812
411.47	74.622
411.83	75.581
412.18	77.671
412.54	74.532
412.89	74.569
413.25	77.798
413.60	75.031
413.96	73.865
414.31	76.037
414.67	74.727
415.03	76.232
415.38	75.783
415.74	76.678
416.09	76.551
416.45	75.490
416.80	75.347
417.16	77.003
417.51	75.416
417.87	76.597
418.22	76.943
418.58	77.659
418.93	76.803
419.29	75.864
419.64	75.697
420.00	77.708
420.35	75.522
420.71	77.339
421.06	76.489
421.42	76.623
421.77	77.457
422.12	75.993
422.48	75.528
422.83	76.914
423.19	75.621
423.54	76.661
423.90	76.796
424.25	76.464
424.61	78.641
424.96	75.203
425.31	78.163
425.67	77.758
426.02	78.386
426.38	78.084
426.73	78.087
427.09	79.937
427.44	77.059
427.79	77.608
428.15	77.731
428.50	78.256
428.85	77.088
429.21	77.363
429.56	77.790
429.92	77.658
430.27	76.190
430.62	77.156
430.98	79.565
431.33	77.708
431.68	76.871
432.04	79.206
432.39	77.638
432.74	78.352
433.10	78.563
433.45	77.360
433.80	80.789
434.16	77.729
434.51	79.086
434.86	78.513
435.22	77.510
435.57	80.412
435.92	78.204
436.28	78.652
436.63	79.236
436.98	78.158
437.34	78.584
437.69	80.143
438.04	78.803
438.39	79.902
438.75	80.571
439.10	78.834
439.45	79.915
439.81	82.018
440.16	81.116
440.51	78.985
440.86	81.208
441.22	79.072
441.57	80.464
441.92	81.480
442.27	81.763
442.63	80.567
442.98	80.988
443.33	80.245
443.68	79.894
444.03	80.576
444.39	81.358
444.74	82.274
445.09	81.403
445.44	81.481
445.79	83.703
446.15	80.837
446.50	79.312
446.85	81.562
447.20	81.856
447.55	81.083
447.91	80.203
448.26	80.535
448.61	80.196
448.96	81.583
449.31	81.445
449.66	81.417
450.02	80.719
450.37	81.150
450.72	80.928
451.07	83.165
451.42	81.086
451.77	80.591
452.12	80.203
452.47	79.652
452.83	79.859
453.18	81.025
453.53	80.215
453.88	81.117
454.23	81.930
454.58	81.486
454.93	80.284
455.28	78.984
455.63	80.967
455.98	80.998
456.34	80.524
456.69	81.576
457.04	81.727
457.39	81.045
457.74	82.225
458.09	79.164
458.44	79.403
458.79	80.168
459.14	81.007
459.49	80.358
459.84	79.583
460.19	81.675
460.54	81.174
460.89	81.080
461.24	80.621
461.59	80.404
461.94	79.119
462.29	80.458
462.64	80.266
462.99	79.959
463.34	79.207
463.69	79.730
464.04	79.843
464.39	79.381
464.74	77.975
465.09	79.788
465.44	78.938
465.79	78.345
466.14	79.361
466.49	79.126
466.84	78.049
467.19	79.850
467.54	77.203
467.89	78.964
468.24	78.345
468.59	80.444
468.94	77.905
469.29	79.410
469.64	79.494
469.99	80.378
470.34	77.952
470.68	80.835
471.03	79.122
471.38	78.602
471.73	78.291
472.08	78.494
472.43	79.060
472.78	76.765
473.13	79.932
473.48	79.544
473.83	78.082
474.17	78.756
474.52	77.537
474.87	79.333
475.22	78.096
475.57	77.527
475.92	78.223
476.27	78.638
476.61	78.819
476.96	76.799
477.31	77.664
477.66	77.640
478.01	79.225
478.36	78.377
478.70	78.902
479.05	77.747
479.40	78.113
479.75	77.112
480.10	78.085
480.45	77.950
480.79	77.644
481.14	79.355
481.49	78.030
481.84	78.282
482.19	77.409
482.53	78.321
482.88	76.945
483.23	76.775
483.58	76.274
483.92	76.815
484.27	75.524
484.62	76.871
484.97	75.746
485.31	76.301
485.66	75.067
486.01	76.724
486.36	76.982
486.70	77.297
487.05	77.619
487.40	76.965
487.75	75.606
488.09	74.845
488.44	75.103
488.79	75.532
489.13	76.723
489.48	76.571
489.83	76.009
490.17	75.371
490.52	76.166
490.87	74.271
491.22	76.361
491.56	76.376
491.91	74.379
492.26	77.637
492.60	77.015
492.95	77.177
493.30	75.281
493.64	76.572
493.99	75.894
494.34	75.388
494.68	77.429
495.03	75.620
495.37	76.889
495.72	76.376
496.07	75.220
496.41	76.226
496.76	76.232
497.11	74.662
497.45	75.131
497.80	76.287
498.14	74.367
498.49	75.267
498.84	75.549
499.18	75.151
499.53	75.546
499.87	74.076
500.22	74.481
500.56	76.097
500.91	74.749
501.26	74.345
501.60	75.307
501.95	75.885
502.29	74.576
502.64	75.434
502.98	76.517
503.33	74.448
503.67	75.181
504.02	74.682
504.36	76.002
504.71	74.495
505.06	72.622
505.40	75.381
505.75	75.103
506.09	73.746
506.44	76.591
506.78	75.051
507.13	76.836
507.47	74.256
507.82	75.534
508.16	74.802
508.51	76.076
508.85	75.824
509.19	75.146
509.54	74.531
509.88	74.218
510.23	75.363
510.57	74.987
510.92	72.868
511.26	73.977
511.61	75.028
511.95	75.397
512.30	74.834
512.64	74.012
512.98	75.295
513.33	74.594
513.67	75.270
514.02	75.458
514.36	74.571
514.70	75.758
515.05	75.852
515.39	74.852
515.74	77.305
516.08	75.314
516.42	75.795
516.77	75.717
517.11	75.490
517.46	76.002
517.80	75.864
518.14	74.525
518.49	73.678
518.83	75.395
519.17	72.529
519.52	73.949
519.86	74.910
520.20	75.881
520.55	74.422
520.89	74.216
521.23	74.288
521.58	75.521
521.92	75.064
522.26	75.211
522.61	75.325
522.95	75.828
523.29	73.634
523.64	74.079
523.98	76.280
524.32	76.031
524.66	76.697
525.01	76.429
525.35	74.076
525.69	75.488
526.04	74.669
526.38	74.968
526.72	73.643
527.06	74.773
527.41	74.208
527.75	75.067
528.09	74.551
528.43	75.692
528.78	75.842
529.12	74.452
529.46	75.179
529.80	73.781
530.15	75.644
530.49	75.219
530.83	74.624
531.17	74.345
531.51	74.829
531.86	74.847
532.20	73.904
532.54	76.378
532.88	75.359
533.22	74.194
533.57	73.919
533.91	74.804
534.25	75.977
534.59	73.060
534.93	72.121
535.27	71.954
535.62	73.040
535.96	73.320
536.30	74.670
536.64	74.363
536.98	73.240
537.32	75.249
537.66	74.614
538.01	74.476
538.35	74.202
538.69	73.835
539.03	73.753
539.37	74.697
539.71	73.756
540.05	73.659
540.39	74.792
540.73	74.826
541.07	74.517
541.42	73.925
541.76	75.224
542.10	74.329
542.44	73.801
542.78	72.333
543.12	72.390
543.46	72.114
543.80	75.295
544.14	71.228
544.48	73.884
544.82	74.641
545.16	75.546
545.50	73.698
545.84	74.079
546.18	73.759
546.52	74.045
546.86	76.132
547.20	74.177
547.54	72.862
547.88	74.864
548.22	72.321
548.56	73.087
548.90	74.730
549.24	72.452
549.58	72.214
549.92	72.194
550.26	74.432
550.60	74.572
550.94	74.235
551.28	73.416
551.62	75.538
551.96	74.586
552.30	74.561
552.64	73.272
552.98	74.754
553.32	73.466
553.66	74.528
554.00	73.796
554.34	75.554
554.68	72.419
555.02	73.661
555.36	72.401
555.69	74.212
556.03	73.448
556.37	72.384
556.71	73.646
557.05	76.063
557.39	73.383
557.73	72.714
558.07	76.094
558.41	74.273
558.75	73.500
559.08	73.286
559.42	73.413
559.76	75.580
560.10	74.006
560.44	73.641
560.78	72.378
561.12	74.542
561.45	74.420
561.79	72.409
562.13	75.515
562.47	74.532
562.81	73.631
563.15	73.625
563.48	75.389
563.82	74.056
564.16	74.304
564.50	72.027
564.84	73.963
565.17	73.105
565.51	76.571
565.85	75.377
566.19	74.005
566.52	76.005
566.86	75.064
567.20	74.595
567.54	74.331
567.88	74.927
568.21	75.848
568.55	74.348
568.89	74.743
569.23	75.012
569.56	73.949
569.90	75.193
570.24	71.753
570.57	74.073
570.91	74.381
571.25	73.035
571.59	72.501
571.92	71.230
572.26	73.249
572.60	73.116
572.93	72.043
573.27	71.881
573.61	73.091
573.95	72.993
574.28	71.743
574.62	71.421
574.96	71.528
575.29	72.034
575.63	70.744
575.97	70.995
576.30	71.408
576.64	70.808
576.98	71.969
577.31	71.910
577.65	72.431
577.98	72.253
578.32	71.721
578.66	71.029
578.99	71.385
579.33	71.371
579.67	71.133
580.00	71.949
580.34	71.468
580.67	71.093
581.01	72.214
581.35	71.512
581.68	72.505
582.02	72.619
582.35	72.572
582.69	72.556
583.02	72.570
583.36	73.314
583.70	73.468
584.03	73.255
584.37	73.970
584.70	72.088
585.04	72.021
585.37	72.162
585.71	72.303
586.04	72.113
586.38	72.206
586.72	72.798
587.05	73.397
587.39	73.833
587.72	74.494
588.06	74.343
588.39	72.600
588.73	72.314
589.06	74.364
589.40	71.552
589.73	73.311
590.07	74.660
590.40	73.684
590.73	75.206
591.07	74.088
591.40	74.043
591.74	73.846
592.07	73.052
592.41	74.735
592.74	73.835
593.08	72.581
593.41	73.608
593.75	73.471
594.08	73.773
594.41	72.999
594.75	74.008
595.08	73.931
595.42	73.721
595.75	75.103
596.09	74.433
596.42	73.584
596.75	74.378
597.09	74.487
597.42	74.616
597.75	75.401
598.09	73.110
598.42	73.736
598.76	73.745
599.09	74.559
599.42	72.641
599.76	72.235
600.09	72.813
600.42	73.465
600.76	73.217
601.09	73.511
601.42	72.934
601.76	74.712
602.09	73.226
602.42	75.316
602.76	73.939
603.09	74.336
603.42	75.753
603.76	73.629
604.09	74.241
604.42	74.408
604.76	74.811
605.09	74.589
605.42	74.221
605.75	75.438
606.09	75.414
606.42	73.686
606.75	74.242
607.09	73.143
607.42	73.195
607.75	74.156
608.08	73.181
608.42	72.133
608.75	76.337
609.08	75.286
609.41	75.381
609.75	75.050
610.08	75.237
610.41	73.865
610.74	75.378
611.07	76.227
611.41	76.025
611.74	76.279
612.07	74.358
612.40	75.164
612.73	77.627
613.07	74.916
613.40	74.015
613.73	74.650
614.06	74.680
614.39	77.101
614.72	73.445
615.06	75.754
615.39	73.908
615.72	74.112
616.05	75.698
616.38	73.504
616.71	75.046
617.05	76.652
617.38	75.299
617.71	75.535
618.04	76.698
618.37	75.914
618.70	75.710
619.03	77.292
619.36	75.977
619.69	77.331
620.03	78.013
620.36	74.821
620.69	76.588
621.02	76.070
621.35	78.672
621.68	79.507
622.01	78.833
622.34	76.935
622.67	76.341
623.00	76.953
623.33	77.287
623.66	76.290
623.99	77.231
624.32	76.502
624.65	77.444
624.99	79.458
625.32	76.118
625.65	77.533
625.98	79.371
626.31	76.060
626.64	78.163
626.97	76.702
627.30	78.371
627.63	77.903
627.96	77.628
628.29	77.891
628.62	76.696
628.95	76.553
629.28	80.544
629.61	79.661
629.94	79.961
630.26	77.470
630.59	81.478
630.92	78.462
631.25	76.000
631.58	77.753
631.91	79.934
632.24	80.275
632.57	78.523
632.90	77.580
633.23	76.353
633.56	81.360
633.89	79.531
634.22	80.864
634.55	80.686
634.88	81.098
635.20	77.308
635.53	80.667
635.86	78.934
636.19	80.595
636.52	81.122
636.85	79.404
637.18	80.503
637.51	79.119
