SpectraSuite Data File
++++++++++++++++++++++++++++++++++++
Date: Fri May 15 20:16:01 PDT 2015
User: schluterlab
Dark Spectrum Present: Yes
Reference Spectrum Present: Yes
Number of Sampled Component Spectra: 1
Spectrometers: USB2E3373
Integration Time (usec): 3000 (USB2E3373)
Spectra Averaged: 3 (USB2E3373)
Boxcar Smoothing: 0 (USB2E3373)
Correct for Electrical Dark: No (USB2E3373)
Strobe/Lamp Enabled: No (USB2E3373)
Correct for Detector Non-linearity: No (USB2E3373)
Correct for Stray Light: No (USB2E3373)
Number of Pixels in Processed Spectrum: 2048
>>>>>Begin Processed Spectral Data<<<<<
178.53	0.000
178.91	0.000
179.29	62.500
179.67	-400.000
180.04	-57.143
180.42	-50.000
180.80	-700.000
181.18	133.333
181.56	300.000
181.94	-100.000
182.31	400.000
182.69	-40.000
183.07	-400.000
183.45	-180.000
183.83	83.333
184.20	-18.182
184.58	133.333
184.96	-250.000
185.34	133.333
185.72	-150.000
186.09	30.769
186.47	-100.000
186.85	-33.333
187.23	144.444
187.61	-200.000
187.98	133.333
188.36	-11.111
188.74	-200.000
189.12	5.882
189.49	77.778
189.87	0.000
190.25	21.429
190.63	400.000
191.00	100.000
191.38	15.789
191.76	450.000
192.14	-0.000
192.51	500.000
192.89	0.000
193.27	-114.286
193.65	183.333
194.02	127.273
194.40	10.000
194.78	-75.000
195.15	-8.333
195.53	50.000
195.91	-50.000
196.29	200.000
196.66	38.462
197.04	128.571
197.42	0.000
197.79	-533.333
198.17	-46.154
198.55	700.000
198.92	-300.000
199.30	-400.000
199.68	60.000
200.05	-133.333
200.43	0.000
200.81	100.000
201.18	-166.667
201.56	1400.000
201.94	-250.000
202.31	100.000
202.69	-180.000
203.07	125.000
203.44	0.000
203.82	0.000
204.19	7.143
204.57	-366.667
204.95	25.000
205.32	0.000
205.70	42.857
206.08	-200.000
206.45	211.111
206.83	64.286
207.20	-142.857
207.58	200.000
207.96	-366.667
208.33	-50.000
208.71	125.000
209.08	-250.000
209.46	-900.000
209.84	-280.000
210.21	-800.000
210.59	57.143
210.96	-16.667
211.34	150.000
211.71	6.667
212.09	-142.857
212.46	-1200.000
212.84	0.000
213.22	30.000
213.59	250.000
213.97	38.462
214.34	90.909
214.72	-16.667
215.09	400.000
215.47	23.077
215.84	81.818
216.22	-133.333
216.59	-75.000
216.97	0.000
217.34	-125.000
217.72	-180.000
218.09	25.000
218.47	112.500
218.84	-300.000
219.22	-77.778
219.59	40.000
219.97	533.333
220.34	-25.000
220.72	42.857
221.09	-100.000
221.47	150.000
221.84	-150.000
222.22	-500.000
222.59	-18.182
222.97	91.667
223.34	-500.000
223.72	14.286
224.09	-14.286
224.46	7.143
224.84	266.667
225.21	40.000
225.59	46.667
225.96	-500.000
226.34	325.000
226.71	-114.286
227.08	-150.000
227.46	-112.500
227.83	-650.000
228.21	77.778
228.58	54.545
228.95	-75.000
229.33	40.000
229.70	-6.250
230.08	-37.500
230.45	14.286
230.82	-42.857
231.20	33.333
231.57	57.143
231.95	-100.000
232.32	-80.000
232.69	21.429
233.07	-366.667
233.44	-240.000
233.81	-10.000
234.19	22.222
234.56	-17.647
234.93	350.000
235.31	200.000
235.68	-240.000
236.05	-46.154
236.43	-65.000
236.80	11.765
237.17	0.000
237.55	-30.000
237.92	-22.222
238.29	0.000
238.67	-26.667
239.04	17.647
239.41	0.000
239.79	-26.667
240.16	29.268
240.53	-26.316
240.91	-15.217
241.28	-1.587
241.65	1.786
242.02	16.438
242.40	-6.667
242.77	-13.559
243.14	-10.606
243.51	3.750
243.89	9.195
244.26	-1.149
244.63	2.381
245.00	2.062
245.38	11.340
245.75	-16.854
246.12	-6.897
246.49	-1.653
246.87	6.731
247.24	-6.723
247.61	-7.018
247.98	2.439
248.36	-1.250
248.73	4.605
249.10	-5.195
249.47	1.899
249.84	-3.268
250.22	2.941
250.59	-5.229
250.96	8.451
251.33	-5.233
251.70	-2.353
252.08	0.508
252.45	2.475
252.82	3.015
253.19	-0.461
253.56	-2.804
253.94	0.901
254.31	3.043
254.68	2.632
255.05	0.394
255.42	-1.747
255.79	4.247
256.16	0.778
256.54	5.224
256.91	1.141
257.28	1.487
257.65	-2.996
258.02	-0.709
258.39	2.020
258.76	4.396
259.14	1.661
259.51	-0.324
259.88	1.375
260.25	1.961
260.62	1.736
260.99	-1.017
261.36	-1.712
261.73	-0.316
262.10	3.040
262.47	1.227
262.85	0.627
263.22	-0.615
263.59	0.312
263.96	2.484
264.33	0.909
264.70	-3.274
265.07	0.298
265.44	4.816
265.81	4.520
266.18	0.000
266.55	2.828
266.92	3.627
267.29	2.350
267.66	3.069
268.03	5.236
268.40	0.783
268.77	4.545
269.14	2.398
269.51	3.342
269.88	-0.998
270.25	0.765
270.62	1.463
270.99	-1.535
271.36	-1.467
271.73	1.878
272.10	2.433
272.47	0.946
272.84	0.743
273.21	2.320
273.58	1.205
273.95	3.661
274.32	0.462
274.69	0.226
275.06	3.125
275.43	0.680
275.80	2.649
276.17	0.000
276.54	2.141
276.91	1.535
277.28	-0.873
277.65	2.479
278.02	2.340
278.39	1.532
278.76	2.306
279.13	-0.830
279.50	0.630
279.87	0.864
280.23	-0.860
280.60	1.754
280.97	2.222
281.34	-0.192
281.71	3.285
282.08	1.636
282.45	1.370
282.82	0.000
283.19	2.321
283.56	1.541
283.92	0.759
284.29	1.154
284.66	-0.194
285.03	-1.572
285.40	2.647
285.77	1.406
286.14	2.166
286.51	3.321
286.87	0.000
287.24	1.105
287.61	0.882
287.98	3.684
288.35	0.520
288.72	2.977
289.08	0.694
289.45	2.285
289.82	1.399
290.19	1.365
290.56	0.686
290.93	1.684
291.29	1.387
291.66	2.677
292.03	1.276
292.40	1.613
292.77	1.595
293.13	0.325
293.50	1.366
293.87	1.679
294.24	0.927
294.60	0.298
294.97	2.679
295.34	-1.534
295.71	0.447
296.08	0.448
296.44	0.142
296.81	0.417
297.18	1.304
297.55	2.304
297.91	0.959
298.28	2.243
298.65	1.357
299.02	2.830
299.38	-0.274
299.75	0.552
300.12	0.524
300.48	0.791
300.85	2.788
301.22	1.169
301.59	0.789
301.95	2.911
302.32	3.632
302.69	1.119
303.05	1.733
303.42	2.864
303.79	1.752
304.15	2.867
304.52	0.119
304.89	1.520
305.25	0.363
305.62	0.467
305.99	1.520
306.35	0.000
306.72	0.000
307.09	0.798
307.45	1.607
307.82	1.157
308.19	1.394
308.55	0.981
308.92	1.961
309.29	0.670
309.65	2.368
310.02	2.420
310.38	1.317
310.75	1.967
311.12	1.830
311.48	1.803
311.85	1.361
312.22	2.004
312.58	2.123
312.95	2.134
313.31	2.277
313.68	1.466
314.05	1.224
314.41	2.268
314.78	1.443
315.14	3.083
315.51	3.313
315.87	2.152
316.24	2.831
316.61	3.839
316.97	2.282
317.34	2.734
317.70	3.920
318.07	3.365
318.43	3.235
318.80	3.409
319.16	3.418
319.53	4.463
319.89	4.823
320.26	4.656
320.62	4.614
320.99	2.923
321.35	3.289
321.72	4.673
322.08	5.136
322.45	4.467
322.81	5.403
323.18	4.809
323.54	4.151
323.91	4.869
324.27	5.859
324.64	6.180
325.00	5.931
325.37	7.622
325.73	7.797
326.10	7.629
326.46	7.713
326.83	8.486
327.19	8.021
327.56	8.167
327.92	9.331
328.29	8.839
328.65	8.868
329.01	9.099
329.38	10.046
329.74	9.915
330.11	10.751
330.47	10.761
330.84	11.154
331.20	12.928
331.56	11.852
331.93	12.603
332.29	13.841
332.66	12.760
333.02	13.383
333.38	12.557
333.75	13.645
334.11	13.071
334.48	13.871
334.84	14.194
335.20	14.456
335.57	13.237
335.93	15.266
336.29	15.470
336.66	14.078
337.02	14.033
337.38	13.611
337.75	15.545
338.11	15.600
338.47	16.241
338.84	16.636
339.20	15.174
339.56	15.688
339.93	15.577
340.29	14.954
340.65	15.860
341.02	14.982
341.38	15.664
341.74	15.283
342.11	14.211
342.47	14.502
342.83	16.436
343.20	16.028
343.56	15.826
343.92	17.095
344.28	16.652
344.65	15.371
345.01	14.952
345.37	16.400
345.73	16.067
346.10	15.444
346.46	15.055
346.82	14.812
347.19	13.965
347.55	16.124
347.91	16.181
348.27	15.683
348.63	15.503
349.00	14.766
349.36	14.796
349.72	16.501
350.08	14.672
350.45	15.722
350.81	14.037
351.17	15.147
351.53	15.755
351.89	15.029
352.26	15.760
352.62	15.726
352.98	14.940
353.34	14.493
353.70	16.424
354.07	15.161
354.43	15.853
354.79	15.524
355.15	16.429
355.51	15.981
355.87	16.586
356.24	15.008
356.60	14.875
356.96	16.270
357.32	15.655
357.68	15.637
358.04	15.670
358.40	14.952
358.77	16.029
359.13	14.892
359.49	15.254
359.85	15.289
360.21	16.746
360.57	15.379
360.93	15.356
361.29	14.577
361.66	15.361
362.02	16.061
362.38	16.299
362.74	14.989
363.10	16.629
363.46	15.938
363.82	17.130
364.18	15.351
364.54	15.809
364.90	16.129
365.26	16.012
365.62	16.277
365.98	15.689
366.35	15.878
366.71	16.999
367.07	16.763
367.43	15.888
367.79	15.760
368.15	15.793
368.51	15.805
368.87	15.650
369.23	15.812
369.59	15.306
369.95	16.496
370.31	16.691
370.67	16.866
371.03	16.804
371.39	15.682
371.75	16.996
372.11	17.404
372.47	17.604
372.83	16.820
373.19	16.976
373.55	16.679
373.91	16.487
374.27	18.285
374.63	18.521
374.99	18.652
375.35	17.618
375.71	17.133
376.07	16.573
376.42	16.939
376.78	17.785
377.14	17.129
377.50	17.596
377.86	18.742
378.22	17.996
378.58	18.141
378.94	17.139
379.30	17.530
379.66	18.495
380.02	17.903
380.38	16.981
380.74	17.953
381.09	19.202
381.45	18.960
381.81	18.692
382.17	18.274
382.53	18.738
382.89	19.209
383.25	19.104
383.61	19.634
383.97	18.476
384.32	19.074
384.68	19.876
385.04	18.505
385.40	18.917
385.76	20.692
386.12	20.116
386.48	20.179
386.83	19.784
387.19	20.208
387.55	19.824
387.91	19.010
388.27	19.780
388.62	20.516
388.98	19.398
389.34	18.863
389.70	20.883
390.06	19.698
390.42	19.171
390.77	19.817
391.13	19.987
391.49	19.858
391.85	19.883
392.20	20.088
392.56	21.297
392.92	20.258
393.28	20.342
393.64	19.099
393.99	21.066
394.35	20.367
394.71	19.923
395.07	19.862
395.42	18.883
395.78	21.303
396.14	20.618
396.50	19.531
396.85	20.283
397.21	19.925
397.57	21.254
397.92	20.192
398.28	19.828
398.64	19.699
399.00	20.824
399.35	19.808
399.71	20.218
400.07	20.738
400.42	20.196
400.78	20.269
401.14	20.085
401.49	19.952
401.85	19.927
402.21	19.880
402.57	20.312
402.92	19.573
403.28	20.614
403.63	20.492
403.99	20.026
404.35	20.924
404.70	20.893
405.06	20.270
405.42	19.640
405.77	19.640
406.13	18.568
406.49	19.716
406.84	19.377
407.20	20.169
407.55	19.639
407.91	19.318
408.27	19.567
408.62	19.877
408.98	19.285
409.34	20.260
409.69	19.703
410.05	19.520
410.40	19.753
410.76	19.361
411.11	20.062
411.47	19.921
411.83	19.397
412.18	19.112
412.54	20.037
412.89	18.473
413.25	19.856
413.60	19.130
413.96	19.141
414.31	21.037
414.67	19.243
415.03	20.306
415.38	19.256
415.74	20.391
416.09	20.379
416.45	20.054
416.80	19.101
417.16	20.649
417.51	20.586
417.87	19.166
418.22	19.819
418.58	19.666
418.93	19.875
419.29	19.270
419.64	19.054
420.00	19.899
420.35	19.582
420.71	19.684
421.06	19.214
421.42	19.772
421.77	20.867
422.12	19.694
422.48	19.599
422.83	19.548
423.19	20.203
423.54	19.342
423.90	19.788
424.25	20.264
424.61	19.217
424.96	20.557
425.31	20.277
425.67	19.718
426.02	20.907
426.38	20.100
426.73	20.581
427.09	21.013
427.44	20.706
427.79	20.153
428.15	20.146
428.50	19.564
428.85	19.533
429.21	20.204
429.56	21.132
429.92	19.723
430.27	19.198
430.62	19.812
430.98	19.374
431.33	19.821
431.68	20.251
432.04	20.626
432.39	20.023
432.74	20.265
433.10	21.782
433.45	20.430
433.80	21.300
434.16	19.834
434.51	20.161
434.86	20.790
435.22	20.191
435.57	21.148
435.92	20.299
436.28	19.738
436.63	21.050
436.98	20.394
437.34	19.964
437.69	21.467
438.04	21.481
438.39	19.792
438.75	20.401
439.10	20.883
439.45	21.120
439.81	20.795
440.16	21.318
440.51	21.433
440.86	21.813
441.22	20.758
441.57	21.082
441.92	21.301
442.27	21.729
442.63	21.734
442.98	20.908
443.33	21.369
443.68	20.690
444.03	21.311
444.39	21.495
444.74	21.237
445.09	21.158
445.44	22.051
445.79	21.403
446.15	22.357
446.50	21.464
446.85	21.732
447.20	22.002
447.55	22.098
447.91	21.545
448.26	21.628
448.61	21.301
448.96	21.457
449.31	21.272
449.66	21.254
450.02	22.076
450.37	21.873
450.72	22.165
451.07	21.646
451.42	20.662
451.77	21.579
452.12	20.754
452.47	20.219
452.83	21.673
453.18	21.569
453.53	21.871
453.88	21.676
454.23	20.836
454.58	22.418
454.93	22.358
455.28	21.206
455.63	22.257
455.98	22.069
456.34	22.031
456.69	22.490
457.04	22.873
457.39	21.385
457.74	21.584
458.09	21.130
458.44	21.006
458.79	21.289
459.14	21.854
459.49	21.612
459.84	21.884
460.19	22.633
460.54	22.738
460.89	21.420
461.24	21.553
461.59	22.743
461.94	21.384
462.29	22.859
462.64	23.056
462.99	23.223
463.34	21.627
463.69	21.493
464.04	21.308
464.39	22.862
464.74	21.718
465.09	22.021
465.44	22.735
465.79	21.599
466.14	21.836
466.49	21.277
466.84	22.130
467.19	22.466
467.54	21.839
467.89	22.047
468.24	21.898
468.59	22.730
468.94	21.778
469.29	23.213
469.64	21.736
469.99	22.635
470.34	21.229
470.68	23.266
471.03	23.992
471.38	22.325
471.73	21.779
472.08	21.506
472.43	22.013
472.78	22.138
473.13	22.721
473.48	22.671
473.83	21.669
474.17	22.733
474.52	21.315
474.87	22.424
475.22	22.636
475.57	22.191
475.92	22.710
476.27	22.701
476.61	22.396
476.96	22.030
477.31	22.607
477.66	22.247
478.01	22.403
478.36	22.222
478.70	23.274
479.05	22.637
479.40	22.311
479.75	22.211
480.10	22.120
480.45	22.750
480.79	23.011
481.14	23.412
481.49	22.217
481.84	22.442
482.19	21.796
482.53	23.165
482.88	22.291
483.23	22.409
483.58	22.689
483.92	21.733
484.27	22.106
484.62	22.232
484.97	21.766
485.31	21.893
485.66	21.574
486.01	21.607
486.36	21.349
486.70	22.252
487.05	21.756
487.40	21.846
487.75	22.028
488.09	22.621
488.44	22.215
488.79	22.675
489.13	22.396
489.48	22.317
489.83	22.152
490.17	22.067
490.52	22.494
490.87	21.425
491.22	22.636
491.56	22.486
491.91	22.849
492.26	23.189
492.60	22.745
492.95	23.119
493.30	22.228
493.64	23.035
493.99	22.609
494.34	22.670
494.68	23.143
495.03	21.800
495.37	22.767
495.72	22.009
496.07	22.585
496.41	22.406
496.76	22.478
497.11	21.984
497.45	22.912
497.80	22.654
498.14	23.448
498.49	23.007
498.84	22.555
499.18	23.544
499.53	22.917
499.87	22.714
500.22	23.046
500.56	23.147
500.91	22.841
501.26	22.590
501.60	22.725
501.95	22.319
502.29	23.148
502.64	22.346
502.98	21.855
503.33	22.142
503.67	22.506
504.02	22.776
504.36	23.206
504.71	22.677
505.06	23.201
505.40	22.335
505.75	22.320
506.09	22.707
506.44	22.895
506.78	22.704
507.13	23.733
507.47	22.298
507.82	22.970
508.16	21.817
508.51	23.400
508.85	23.914
509.19	22.831
509.54	23.539
509.88	22.654
510.23	23.400
510.57	23.196
510.92	21.908
511.26	23.186
511.61	23.157
511.95	22.904
512.30	22.949
512.64	22.983
512.98	23.077
513.33	23.223
513.67	22.285
514.02	24.886
514.36	24.057
514.70	23.660
515.05	24.207
515.39	23.672
515.74	24.072
516.08	23.849
516.42	24.441
516.77	24.225
517.11	24.451
517.46	24.177
517.80	23.897
518.14	23.760
518.49	23.798
518.83	23.998
519.17	23.347
519.52	23.268
519.86	23.049
520.20	23.755
520.55	22.389
520.89	24.467
521.23	23.369
521.58	24.479
521.92	24.487
522.26	23.878
522.61	24.416
522.95	24.834
523.29	23.380
523.64	24.841
523.98	24.887
524.32	24.034
524.66	24.648
525.01	24.481
525.35	25.146
525.69	24.512
526.04	23.810
526.38	24.903
526.72	23.218
527.06	24.319
527.41	24.340
527.75	23.995
528.09	24.319
528.43	24.781
528.78	24.026
529.12	24.968
529.46	24.431
529.80	24.003
530.15	25.083
530.49	24.310
530.83	24.897
531.17	24.312
531.51	24.966
531.86	24.337
532.20	24.635
532.54	24.506
532.88	25.051
533.22	24.328
533.57	25.164
533.91	24.739
534.25	25.846
534.59	24.375
534.93	24.795
535.27	23.794
535.62	23.461
535.96	24.266
536.30	25.660
536.64	24.742
536.98	24.878
537.32	25.391
537.66	24.684
538.01	24.825
538.35	24.549
538.69	24.767
539.03	24.607
539.37	25.437
539.71	24.676
540.05	24.847
540.39	25.623
540.73	25.035
541.07	25.414
541.42	24.933
541.76	26.015
542.10	25.602
542.44	25.087
542.78	24.639
543.12	24.313
543.46	24.478
543.80	25.260
544.14	25.033
544.48	24.117
544.82	24.744
545.16	24.795
545.50	24.700
545.84	25.071
546.18	25.177
546.52	25.379
546.86	23.436
547.20	25.823
547.54	24.028
547.88	25.136
548.22	24.129
548.56	24.868
548.90	25.809
549.24	24.793
549.58	24.894
549.92	23.803
550.26	25.128
550.60	24.833
550.94	24.795
551.28	24.034
551.62	25.923
551.96	25.865
552.30	24.635
552.64	24.189
552.98	24.121
553.32	24.608
553.66	23.803
554.00	24.964
554.34	24.889
554.68	25.074
555.02	25.149
555.36	24.607
555.69	24.103
556.03	24.483
556.37	24.057
556.71	24.332
557.05	25.802
557.39	24.461
557.73	25.337
558.07	25.867
558.41	25.115
558.75	24.552
559.08	24.901
559.42	25.635
559.76	25.140
560.10	24.159
560.44	25.838
560.78	25.524
561.12	24.189
561.45	24.736
561.79	24.790
562.13	25.266
562.47	24.820
562.81	24.424
563.15	25.882
563.48	25.813
563.82	26.012
564.16	24.513
564.50	25.203
564.84	24.967
565.17	24.547
565.51	25.546
565.85	24.760
566.19	25.464
566.52	24.866
566.86	24.936
567.20	23.848
567.54	24.148
567.88	24.429
568.21	23.756
568.55	24.293
568.89	24.743
569.23	24.218
569.56	24.387
569.90	23.873
570.24	22.925
570.57	23.418
570.91	23.527
571.25	23.019
571.59	22.672
571.92	22.459
572.26	23.007
572.60	22.946
572.93	22.843
573.27	22.163
573.61	22.464
573.95	22.583
574.28	22.802
574.62	21.892
574.96	22.239
575.29	22.312
575.63	21.715
575.97	22.120
576.30	22.041
576.64	22.278
576.98	22.162
577.31	22.192
577.65	22.110
577.98	22.084
578.32	21.981
578.66	21.470
578.99	22.274
579.33	22.458
579.67	21.877
580.00	21.747
580.34	22.139
580.67	21.637
581.01	22.502
581.35	21.792
581.68	22.141
582.02	21.710
582.35	21.968
582.69	22.088
583.02	22.239
583.36	21.907
583.70	22.897
584.03	23.019
584.37	22.530
584.70	22.225
585.04	21.762
585.37	21.966
585.71	22.093
586.04	21.558
586.38	22.059
586.72	22.009
587.05	22.848
587.39	22.533
587.72	22.417
588.06	22.308
588.39	22.159
588.73	22.527
589.06	22.277
589.40	22.503
589.73	22.234
590.07	22.659
590.40	22.949
590.73	23.394
591.07	22.434
591.40	22.796
591.74	23.167
592.07	23.701
592.41	22.482
592.74	22.660
593.08	22.249
593.41	22.010
593.75	22.244
594.08	22.348
594.41	22.780
594.75	22.023
595.08	22.739
595.42	22.746
595.75	22.381
596.09	22.009
596.42	22.695
596.75	23.757
597.09	22.825
597.42	22.629
597.75	23.042
598.09	22.725
598.42	22.338
598.76	22.394
599.09	22.596
599.42	22.054
599.76	21.746
600.09	21.493
600.42	21.948
600.76	21.508
601.09	22.061
601.42	22.288
601.76	22.033
602.09	22.318
602.42	22.620
602.76	22.581
603.09	22.757
603.42	23.119
603.76	22.056
604.09	21.993
604.42	22.673
604.76	22.875
605.09	22.715
605.42	22.664
605.75	22.417
606.09	22.378
606.42	22.269
606.75	22.554
607.09	23.165
607.42	22.020
607.75	22.647
608.08	22.058
608.42	22.476
608.75	22.940
609.08	23.019
609.41	23.147
609.75	22.631
610.08	23.315
610.41	21.932
610.74	21.892
611.07	23.411
611.41	22.574
611.74	22.122
612.07	22.859
612.40	22.867
612.73	23.390
613.07	22.778
613.40	23.578
613.73	22.888
614.06	22.538
614.39	22.786
614.72	22.353
615.06	22.682
615.39	22.980
615.72	22.390
616.05	23.017
616.38	21.823
616.71	22.385
617.05	23.101
617.38	23.382
617.71	23.648
618.04	23.683
618.37	23.140
618.70	23.498
619.03	23.819
619.36	22.793
619.69	24.488
620.03	24.251
620.36	23.462
620.69	23.769
621.02	24.083
621.35	23.900
621.68	24.150
622.01	25.083
622.34	24.022
622.67	23.975
623.00	23.583
623.33	24.085
623.66	23.560
623.99	23.298
624.32	23.802
624.65	23.008
624.99	24.003
625.32	22.214
625.65	23.252
625.98	23.368
626.31	23.441
626.64	24.870
626.97	24.346
627.30	23.555
627.63	24.263
627.96	24.438
628.29	25.162
628.62	24.680
628.95	25.251
629.28	24.899
629.61	24.227
629.94	23.558
630.26	24.407
630.59	24.558
630.92	24.513
631.25	22.974
631.58	25.771
631.91	24.452
632.24	23.853
632.57	26.136
632.90	24.081
633.23	25.765
633.56	25.945
633.89	27.004
634.22	27.531
634.55	24.651
634.88	26.309
635.20	26.795
635.53	23.867
635.86	24.967
636.19	26.649
636.52	24.235
636.85	25.186
637.18	25.031
637.51	24.151
637.83	24.310
