SpectraSuite Data File
++++++++++++++++++++++++++++++++++++
Date: Fri May 15 20:16:07 PDT 2015
User: schluterlab
Dark Spectrum Present: Yes
Reference Spectrum Present: Yes
Number of Sampled Component Spectra: 1
Spectrometers: USB2E3373
Integration Time (usec): 3000 (USB2E3373)
Spectra Averaged: 3 (USB2E3373)
Boxcar Smoothing: 0 (USB2E3373)
Correct for Electrical Dark: No (USB2E3373)
Strobe/Lamp Enabled: No (USB2E3373)
Correct for Detector Non-linearity: No (USB2E3373)
Correct for Stray Light: No (USB2E3373)
Number of Pixels in Processed Spectrum: 2048
>>>>>Begin Processed Spectral Data<<<<<
178.53	0.000
178.91	0.000
179.29	75.000
179.67	-600.000
180.04	-85.714
180.42	250.000
180.80	-600.000
181.18	66.667
181.56	550.000
181.94	-650.000
182.31	100.000
182.69	-80.000
183.07	-33.333
183.45	-20.000
183.83	83.333
184.20	27.273
184.58	166.667
184.96	-50.000
185.34	33.333
185.72	-450.000
186.09	38.462
186.47	-1300.000
186.85	166.667
187.23	22.222
187.61	-100.000
187.98	-266.667
188.36	44.444
188.74	-33.333
189.12	11.765
189.49	44.444
189.87	0.000
190.25	85.714
190.63	450.000
191.00	100.000
191.38	36.842
191.76	450.000
192.14	-0.000
192.51	150.000
192.89	-44.444
193.27	-14.286
193.65	100.000
194.02	145.455
194.40	-10.000
194.78	0.000
195.15	-58.333
195.53	-50.000
195.91	400.000
196.29	-100.000
196.66	115.385
197.04	142.857
197.42	-55.556
197.79	-100.000
198.17	7.692
198.55	800.000
198.92	133.333
199.30	200.000
199.68	-300.000
200.05	-133.333
200.43	0.000
200.81	-66.667
201.18	-66.667
201.56	900.000
201.94	-300.000
202.31	-66.667
202.69	-80.000
203.07	25.000
203.44	600.000
203.82	0.000
204.19	42.857
204.57	-466.667
204.95	100.000
205.32	-40.000
205.70	-14.286
206.08	-175.000
206.45	177.778
206.83	64.286
207.20	0.000
207.58	-0.000
207.96	-66.667
208.33	-140.000
208.71	-75.000
209.08	-116.667
209.46	-600.000
209.84	-20.000
210.21	-1000.000
210.59	71.429
210.96	33.333
211.34	-100.000
211.71	66.667
212.09	-142.857
212.46	-1900.000
212.84	0.000
213.22	60.000
213.59	250.000
213.97	69.231
214.34	45.455
214.72	-50.000
215.09	475.000
215.47	-92.308
215.84	-90.909
216.22	-333.333
216.59	-125.000
216.97	450.000
217.34	25.000
217.72	-120.000
218.09	137.500
218.47	125.000
218.84	-1400.000
219.22	11.111
219.59	-180.000
219.97	266.667
220.34	550.000
220.72	42.857
221.09	-75.000
221.47	-200.000
221.84	-500.000
222.22	-150.000
222.59	36.364
222.97	166.667
223.34	-233.333
223.72	7.143
224.09	14.286
224.46	25.000
224.84	466.667
225.21	-30.000
225.59	13.333
225.96	-400.000
226.34	425.000
226.71	-71.429
227.08	50.000
227.46	-87.500
227.83	-250.000
228.21	22.222
228.58	-27.273
228.95	-62.500
229.33	130.000
229.70	-6.250
230.08	-50.000
230.45	-157.143
230.82	-85.714
231.20	-73.333
231.57	14.286
231.95	71.429
232.32	-110.000
232.69	-21.429
233.07	100.000
233.44	40.000
233.81	-90.000
234.19	22.222
234.56	-35.294
234.93	200.000
235.31	25.000
235.68	-360.000
236.05	-92.308
236.43	-35.000
236.80	0.000
237.17	21.875
237.55	-5.000
237.92	-14.815
238.29	-13.889
238.67	43.333
239.04	5.882
239.41	-14.634
239.79	-46.667
240.16	0.000
240.53	-13.158
240.91	2.174
241.28	-6.349
241.65	-5.357
242.02	13.699
242.40	1.667
242.77	3.390
243.14	-22.727
243.51	0.000
243.89	10.345
244.26	-9.195
244.63	4.762
245.00	8.247
245.38	-3.093
245.75	-3.371
246.12	-6.034
246.49	0.000
246.87	2.885
247.24	-3.361
247.61	-0.877
247.98	-2.439
248.36	0.000
248.73	3.289
249.10	4.545
249.47	-2.532
249.84	1.307
250.22	4.118
250.59	-3.922
250.96	8.920
251.33	-1.744
251.70	1.176
252.08	4.569
252.45	4.950
252.82	4.523
253.19	2.765
253.56	-2.336
253.94	3.153
254.31	4.348
254.68	3.509
255.05	1.969
255.42	-1.747
255.79	1.931
256.16	0.000
256.54	6.716
256.91	3.802
257.28	0.372
257.65	3.371
258.02	1.418
258.39	8.081
258.76	4.029
259.14	0.000
259.51	5.825
259.88	0.687
260.25	1.961
260.62	2.083
260.99	3.051
261.36	2.397
261.73	3.797
262.10	5.775
262.47	0.307
262.85	0.313
263.22	2.462
263.59	-0.623
263.96	3.727
264.33	3.030
264.70	-2.976
265.07	0.000
265.44	3.966
265.81	3.107
266.18	0.820
266.55	4.627
266.92	1.295
267.29	0.522
267.66	3.325
268.03	1.047
268.40	2.089
268.77	5.348
269.14	3.118
269.51	2.057
269.88	2.993
270.25	0.510
270.62	0.732
270.99	2.046
271.36	2.689
271.73	3.286
272.10	3.406
272.47	1.418
272.84	0.990
273.21	2.088
273.58	3.855
273.95	4.805
274.32	1.848
274.69	0.452
275.06	2.902
275.43	2.041
275.80	3.974
276.17	2.529
276.54	3.854
276.91	1.096
277.28	2.183
277.65	2.479
278.02	3.404
278.39	3.282
278.76	2.516
279.13	0.000
279.50	1.681
279.87	4.968
280.23	1.075
280.60	3.899
280.97	3.434
281.34	0.000
281.71	5.133
282.08	3.067
282.45	1.370
282.82	2.124
283.19	5.803
283.56	2.890
283.92	1.898
284.29	0.577
284.66	1.938
285.03	1.179
285.40	3.403
285.77	2.109
286.14	3.069
286.51	4.982
286.87	1.463
287.24	0.184
287.61	1.235
287.98	2.456
288.35	1.560
288.72	4.028
289.08	3.819
289.45	3.866
289.82	3.497
290.19	1.706
290.56	1.029
290.93	1.684
291.29	1.849
291.66	3.780
292.03	2.871
292.40	0.968
292.77	3.030
293.13	-0.649
293.50	1.517
293.87	1.832
294.24	2.318
294.60	3.577
294.97	2.381
295.34	0.613
295.71	2.981
296.08	2.093
296.44	0.853
296.81	2.639
297.18	2.464
297.55	3.523
297.91	2.055
298.28	3.298
298.65	1.628
299.02	2.561
299.38	0.000
299.75	2.621
300.12	2.487
300.48	0.922
300.85	3.042
301.22	2.078
301.59	1.316
301.95	2.911
302.32	4.021
302.69	2.239
303.05	1.980
303.42	3.736
303.79	3.154
304.15	2.867
304.52	2.021
304.89	2.105
305.25	2.300
305.62	3.384
305.99	1.520
306.35	0.694
306.72	2.250
307.09	1.596
307.45	2.526
307.82	1.505
308.19	2.555
308.55	2.835
308.92	3.377
309.29	1.341
309.65	2.799
310.02	2.310
310.38	2.525
310.75	3.934
311.12	3.660
311.48	2.227
311.85	2.827
312.22	2.532
312.58	3.185
312.95	2.988
313.31	2.795
313.68	3.246
314.05	3.878
314.41	4.433
314.78	3.608
315.14	4.933
315.51	5.280
315.87	4.406
316.24	5.460
316.61	5.217
316.97	6.151
317.34	6.738
317.70	5.354
318.07	6.154
318.43	6.569
318.80	7.102
319.16	6.445
319.53	7.882
319.89	7.972
320.26	8.704
320.62	8.425
320.99	8.455
321.35	8.530
321.72	8.827
322.08	8.459
322.45	10.051
322.81	10.314
323.18	10.402
323.54	10.328
323.91	11.100
324.27	12.305
324.64	12.079
325.00	13.504
325.37	14.968
325.73	13.509
326.10	14.805
326.46	15.695
326.83	16.098
327.19	15.955
327.56	17.897
327.92	17.165
328.29	17.054
328.65	18.396
329.01	19.669
329.38	20.092
329.74	21.341
330.11	21.223
330.47	20.594
330.84	19.615
331.20	24.240
331.56	21.019
331.93	23.014
332.29	24.381
332.66	25.068
333.02	25.000
333.38	23.373
333.75	24.451
334.11	24.440
334.48	24.388
334.84	25.458
335.20	25.069
335.57	25.657
335.93	25.926
336.29	28.269
336.66	25.159
337.02	26.301
337.38	26.574
337.75	26.455
338.11	27.863
338.47	27.464
338.84	27.172
339.20	26.782
339.56	27.431
339.93	29.006
340.29	28.899
340.65	28.853
341.02	26.950
341.38	28.230
341.74	26.678
342.11	27.383
342.47	27.402
342.83	28.893
343.20	27.875
343.56	28.696
343.92	28.255
344.28	28.950
344.65	27.893
345.01	28.263
345.37	28.259
345.73	28.033
346.10	29.681
346.46	28.680
346.82	28.151
347.19	28.180
347.55	28.488
347.91	29.531
348.27	27.809
348.63	29.472
349.00	29.861
349.36	28.429
349.72	29.353
350.08	29.344
350.45	28.891
350.81	29.319
351.17	28.094
351.53	28.735
351.89	28.819
352.26	28.960
352.62	29.677
352.98	28.273
353.34	28.986
353.70	28.641
354.07	28.710
354.43	28.823
354.79	28.654
355.15	29.841
355.51	30.380
355.87	30.987
356.24	28.303
356.60	28.860
356.96	29.603
357.32	29.313
357.68	29.242
358.04	29.483
358.40	30.305
358.77	29.745
359.13	29.384
359.49	29.507
359.85	30.031
360.21	30.303
360.57	30.298
360.93	30.484
361.29	29.381
361.66	31.348
362.02	31.061
362.38	30.465
362.74	29.145
363.10	31.603
363.46	30.541
363.82	31.705
364.18	30.627
364.54	30.809
364.90	31.326
365.26	30.277
365.62	32.336
365.98	30.865
366.35	32.411
366.71	31.190
367.07	30.624
367.43	31.129
367.79	31.378
368.15	32.448
368.51	32.775
368.87	30.940
369.23	31.625
369.59	32.799
369.95	31.891
370.31	31.864
370.67	31.791
371.03	31.665
371.39	31.291
371.75	33.187
372.11	32.026
372.47	33.654
372.83	32.718
373.19	32.596
373.55	32.058
373.91	33.045
374.27	34.798
374.63	33.094
374.99	33.262
375.35	34.331
375.71	34.056
376.07	33.848
376.42	34.014
376.78	33.826
377.14	34.936
377.50	34.661
377.86	34.538
378.22	34.461
378.58	35.064
378.94	34.468
379.30	34.997
379.66	34.671
380.02	34.519
380.38	34.267
380.74	34.710
381.09	36.442
381.45	35.535
381.81	35.472
382.17	35.406
382.53	35.728
382.89	36.158
383.25	37.274
383.61	35.610
383.97	35.937
384.32	36.210
384.68	35.604
385.04	34.743
385.40	35.159
385.76	38.428
386.12	37.128
386.48	38.570
386.83	36.145
387.19	36.691
387.55	38.833
387.91	38.142
388.27	37.057
388.62	38.452
388.98	37.815
389.34	38.164
389.70	38.595
390.06	37.067
390.42	38.148
390.77	37.018
391.13	37.264
391.49	38.357
391.85	38.142
392.20	37.414
392.56	38.334
392.92	38.696
393.28	37.323
393.64	37.357
393.99	39.060
394.35	38.773
394.71	39.527
395.07	38.215
395.42	37.948
395.78	38.111
396.14	38.840
396.50	39.505
396.85	38.442
397.21	38.596
397.57	37.429
397.92	39.185
398.28	38.908
398.64	37.651
399.00	38.600
399.35	37.472
399.71	38.369
400.07	39.117
400.42	38.617
400.78	40.171
401.14	39.806
401.49	38.773
401.85	38.330
402.21	38.133
402.57	38.063
402.92	37.641
403.28	38.972
403.63	38.840
403.99	38.329
404.35	39.725
404.70	37.738
405.06	38.778
405.42	38.222
405.77	37.653
406.13	38.882
406.49	38.780
406.84	38.936
407.20	40.096
407.55	38.699
407.91	38.703
408.27	38.432
408.62	39.200
408.98	38.632
409.34	39.653
409.69	38.824
410.05	37.685
410.40	38.086
410.76	40.109
411.11	39.000
411.47	37.804
411.83	39.234
412.18	39.254
412.54	38.639
412.89	37.438
413.25	39.230
413.60	38.447
413.96	37.546
414.31	38.476
414.67	38.871
415.03	39.747
415.38	38.969
415.74	37.524
416.09	39.974
416.45	40.378
416.80	39.656
417.16	39.917
417.51	40.173
417.87	38.396
418.22	38.860
418.58	39.866
418.93	40.502
419.29	39.437
419.64	39.404
420.00	40.050
420.35	38.746
420.71	39.672
421.06	39.902
421.42	39.483
421.77	40.116
422.12	39.784
422.48	40.011
422.83	39.849
423.19	40.237
423.54	39.389
423.90	40.695
424.25	41.160
424.61	40.942
424.96	40.534
425.31	41.248
425.67	42.019
426.02	41.932
426.38	42.642
426.73	41.768
427.09	42.532
427.44	41.412
427.79	42.605
428.15	41.990
428.50	42.096
428.85	40.418
429.21	41.030
429.56	42.156
429.92	42.167
430.27	40.501
430.62	41.401
430.98	40.870
431.33	42.219
431.68	42.229
432.04	42.202
432.39	42.213
432.74	41.612
433.10	43.621
433.45	43.250
433.80	42.426
434.16	41.773
434.51	42.419
434.86	42.683
435.22	42.681
435.57	43.294
435.92	42.934
436.28	42.457
436.63	42.270
436.98	42.178
437.34	42.589
437.69	43.709
438.04	43.020
438.39	42.700
438.75	43.898
439.10	43.746
439.45	44.005
439.81	44.037
440.16	44.952
440.51	44.597
440.86	45.498
441.22	42.760
441.57	44.150
441.92	44.648
442.27	44.346
442.63	43.951
442.98	44.342
443.33	43.461
443.68	43.767
444.03	44.858
444.39	43.384
444.74	44.928
445.09	44.933
445.44	43.932
445.79	45.952
446.15	44.989
446.50	44.537
446.85	45.218
447.20	43.952
447.55	45.368
447.91	44.332
448.26	45.418
448.61	45.826
448.96	45.611
449.31	44.624
449.66	45.006
450.02	46.891
450.37	45.169
450.72	45.074
451.07	45.696
451.42	45.506
451.77	45.449
452.12	44.737
452.47	44.301
452.83	44.759
453.18	44.908
453.53	45.575
453.88	45.112
454.23	45.605
454.58	46.788
454.93	45.554
455.28	44.889
455.63	45.877
455.98	45.400
456.34	44.572
456.69	45.870
457.04	45.999
457.39	45.747
457.74	45.405
458.09	44.909
458.44	45.231
458.79	45.490
459.14	46.053
459.49	46.269
459.84	45.854
460.19	46.056
460.54	47.494
460.89	47.500
461.24	45.404
461.59	46.378
461.94	45.975
462.29	46.683
462.64	45.914
462.99	46.242
463.34	45.410
463.69	46.332
464.04	45.521
464.39	45.543
464.74	46.380
465.09	46.101
465.44	46.624
465.79	44.841
466.14	46.009
466.49	46.176
466.84	45.628
467.19	45.745
467.54	46.616
467.89	46.557
468.24	45.560
468.59	46.984
468.94	45.651
469.29	45.836
469.64	46.343
469.99	48.283
470.34	46.075
470.68	46.682
471.03	47.205
471.38	44.437
471.73	46.849
472.08	45.997
472.43	46.040
472.78	45.442
473.13	46.122
473.48	46.906
473.83	45.517
474.17	46.762
474.52	45.373
474.87	46.545
475.22	45.638
475.57	46.697
475.92	45.420
476.27	46.217
476.61	45.833
476.96	45.733
477.31	46.295
477.66	46.348
478.01	46.042
478.36	46.024
478.70	47.200
479.05	45.330
479.40	46.423
479.75	45.673
480.10	46.134
480.45	45.800
480.79	47.080
481.14	47.080
481.49	46.059
481.84	46.236
482.19	45.931
482.53	47.434
482.88	45.871
483.23	46.545
483.58	46.462
483.92	46.031
484.27	46.308
484.62	46.168
484.97	45.647
485.31	45.918
485.66	45.701
486.01	45.944
486.36	46.820
486.70	46.324
487.05	46.192
487.40	46.148
487.75	45.887
488.09	45.457
488.44	45.117
488.79	45.872
489.13	46.715
489.48	46.387
489.83	46.323
490.17	45.933
490.52	47.667
490.87	45.257
491.22	46.657
491.56	45.683
491.91	46.272
492.26	46.184
492.60	46.353
492.95	46.385
493.30	45.725
493.64	48.379
493.99	46.425
494.34	46.553
494.68	46.143
495.03	46.764
495.37	45.289
495.72	46.694
496.07	46.634
496.41	45.802
496.76	46.891
497.11	45.645
497.45	47.780
497.80	47.629
498.14	45.306
498.49	47.638
498.84	47.156
499.18	47.088
499.53	47.768
499.87	46.887
500.22	46.489
500.56	45.335
500.91	46.687
501.26	45.774
501.60	46.385
501.95	46.773
502.29	46.683
502.64	47.201
502.98	46.670
503.33	46.013
503.67	46.072
504.02	46.139
504.36	47.254
504.71	45.152
505.06	46.553
505.40	46.650
505.75	46.701
506.09	46.275
506.44	46.766
506.78	47.347
507.13	46.898
507.47	45.796
507.82	46.848
508.16	45.906
508.51	46.747
508.85	46.729
509.19	46.514
509.54	47.185
509.88	46.009
510.23	47.068
510.57	47.354
510.92	46.055
511.26	47.027
511.61	46.315
511.95	46.630
512.30	45.953
512.64	47.078
512.98	47.052
513.33	46.670
513.67	46.845
514.02	46.911
514.36	46.857
514.70	47.611
515.05	46.651
515.39	47.166
515.74	47.844
516.08	46.563
516.42	48.410
516.77	47.513
517.11	47.656
517.46	47.995
517.80	47.914
518.14	47.520
518.49	46.394
518.83	47.388
519.17	46.574
519.52	46.300
519.86	45.618
520.20	46.780
520.55	46.717
520.89	46.801
521.23	48.132
521.58	47.508
521.92	46.346
522.26	46.519
522.61	46.818
522.95	49.470
523.29	47.840
523.64	46.950
523.98	47.959
524.32	46.392
524.66	48.143
525.01	46.494
525.35	48.023
525.69	48.215
526.04	47.553
526.38	47.082
526.72	45.128
527.06	45.850
527.41	47.098
527.75	46.180
528.09	46.910
528.43	48.346
528.78	46.865
529.12	46.968
529.46	47.628
529.80	46.548
530.15	47.195
530.49	47.407
530.83	47.948
531.17	46.743
531.51	47.264
531.86	46.907
532.20	45.929
532.54	45.882
532.88	46.270
533.22	46.707
533.57	48.231
533.91	47.063
534.25	48.177
534.59	46.376
534.93	45.689
535.27	45.876
535.62	46.403
535.96	47.423
536.30	48.219
536.64	48.243
536.98	47.596
537.32	47.155
537.66	46.844
538.01	47.902
538.35	47.157
538.69	46.405
539.03	46.275
539.37	47.308
539.71	47.103
540.05	47.047
540.39	47.715
540.73	46.792
541.07	46.409
541.42	47.312
541.76	46.800
542.10	47.281
542.44	46.421
542.78	45.423
543.12	46.909
543.46	47.983
543.80	47.398
544.14	46.395
544.48	46.502
544.82	47.095
545.16	48.156
545.50	45.728
545.84	47.875
546.18	46.028
546.52	46.503
546.86	45.938
547.20	46.066
547.54	45.795
547.88	46.060
548.22	46.943
548.56	44.921
548.90	46.698
549.24	45.110
549.58	45.628
549.92	44.031
550.26	47.033
550.60	48.030
550.94	46.303
551.28	47.604
551.62	47.538
551.96	48.496
552.30	46.418
552.64	46.897
552.98	46.976
553.32	46.719
553.66	46.734
554.00	48.029
554.34	46.750
554.68	46.239
555.02	47.321
555.36	47.644
555.69	45.421
556.03	47.109
556.37	46.762
556.71	47.220
557.05	47.800
557.39	47.435
557.73	47.676
558.07	47.436
558.41	47.014
558.75	46.687
559.08	48.069
559.42	46.587
559.76	48.038
560.10	46.636
560.44	47.059
560.78	46.294
561.12	46.756
561.45	48.559
561.79	47.759
562.13	47.126
562.47	46.115
562.81	47.190
563.15	46.756
563.48	46.110
563.82	47.220
564.16	46.448
564.50	46.486
564.84	46.452
565.17	46.345
565.51	48.429
565.85	47.737
566.19	46.751
566.52	47.185
566.86	47.237
567.20	46.638
567.54	46.472
567.88	47.627
568.21	47.851
568.55	46.141
568.89	46.869
569.23	47.376
569.56	46.410
569.90	46.935
570.24	45.478
570.57	47.018
570.91	46.915
571.25	46.070
571.59	45.002
571.92	44.741
572.26	44.565
572.60	44.651
572.93	45.591
573.27	44.859
573.61	45.137
573.95	45.767
574.28	45.101
574.62	45.156
574.96	44.652
575.29	44.624
575.63	43.949
575.97	44.728
576.30	45.403
576.64	44.344
576.98	45.380
577.31	45.761
577.65	45.780
577.98	44.928
578.32	44.526
578.66	44.616
578.99	44.782
579.33	44.891
579.67	44.310
580.00	44.304
580.34	44.751
580.67	44.683
581.01	44.476
581.35	44.897
581.68	45.129
582.02	44.889
582.35	45.070
582.69	44.683
583.02	44.862
583.36	44.902
583.70	45.249
584.03	45.399
584.37	45.200
584.70	44.093
585.04	44.249
585.37	44.545
585.71	44.878
586.04	43.974
586.38	44.545
586.72	45.509
587.05	45.927
587.39	45.178
587.72	45.571
588.06	44.838
588.39	45.172
588.73	44.933
589.06	45.564
589.40	44.867
589.73	45.820
590.07	45.884
590.40	44.737
590.73	46.293
591.07	46.226
591.40	45.013
591.74	45.656
592.07	45.640
592.41	46.025
592.74	45.082
593.08	44.115
593.41	45.107
593.75	45.044
594.08	44.834
594.41	45.742
594.75	45.191
595.08	45.365
595.42	44.829
595.75	45.813
596.09	44.918
596.42	45.721
596.75	45.426
597.09	45.103
597.42	44.670
597.75	45.579
598.09	44.500
598.42	44.720
598.76	45.217
599.09	44.151
599.42	43.918
599.76	45.448
600.09	44.646
600.42	44.276
600.76	43.053
601.09	44.924
601.42	44.379
601.76	44.462
602.09	44.554
602.42	44.819
602.76	45.501
603.09	45.598
603.42	46.321
603.76	45.323
604.09	44.957
604.42	45.220
604.76	46.907
605.09	45.064
605.42	44.921
605.75	45.490
606.09	44.671
606.42	44.495
606.75	44.589
607.09	44.747
607.42	43.996
607.75	44.094
608.08	44.025
608.42	43.947
608.75	45.157
609.08	45.889
609.41	45.025
609.75	44.355
610.08	44.833
610.41	44.106
610.74	44.954
611.07	45.891
611.41	45.615
611.74	44.883
612.07	43.790
612.40	44.584
612.73	45.989
613.07	44.657
613.40	46.772
613.73	45.271
614.06	45.632
614.39	45.629
614.72	44.034
615.06	45.028
615.39	43.832
615.72	44.726
616.05	44.693
616.38	44.729
616.71	44.954
617.05	45.337
617.38	46.135
617.71	45.597
618.04	47.048
618.37	45.776
618.70	44.554
619.03	47.083
619.36	44.501
619.69	46.096
620.03	46.969
620.36	45.351
620.69	45.753
621.02	45.031
621.35	47.137
621.68	46.173
622.01	46.917
622.34	45.092
622.67	45.741
623.00	44.717
623.33	45.884
623.66	44.278
623.99	45.764
624.32	45.551
624.65	44.586
624.99	45.899
625.32	44.958
625.65	45.483
625.98	46.656
626.31	47.132
626.64	47.400
626.97	45.986
627.30	45.184
627.63	45.754
627.96	46.002
628.29	47.364
628.62	47.493
628.95	46.393
629.28	46.774
629.61	46.859
629.94	47.214
630.26	46.640
630.59	47.347
630.92	47.282
631.25	44.821
631.58	47.797
631.91	46.711
632.24	46.674
632.57	46.136
632.90	46.619
633.23	45.647
633.56	47.481
633.89	46.979
634.22	46.914
634.55	47.649
634.88	46.871
635.20	47.308
635.53	48.133
635.86	45.384
636.19	46.960
636.52	46.556
636.85	45.285
637.18	45.660
637.51	46.415
637.83	46.255
