SpectraSuite Data File
++++++++++++++++++++++++++++++++++++
Date: Fri May 15 20:13:12 PDT 2015
User: schluterlab
Dark Spectrum Present: Yes
Reference Spectrum Present: Yes
Number of Sampled Component Spectra: 1
Spectrometers: USB2E3373
Integration Time (usec): 3000 (USB2E3373)
Spectra Averaged: 3 (USB2E3373)
Boxcar Smoothing: 0 (USB2E3373)
Correct for Electrical Dark: No (USB2E3373)
Strobe/Lamp Enabled: No (USB2E3373)
Correct for Detector Non-linearity: No (USB2E3373)
Correct for Stray Light: No (USB2E3373)
Number of Pixels in Processed Spectrum: 2048
>>>>>Begin Processed Spectral Data<<<<<
178.53	0.000
178.91	0.000
179.29	37.500
179.67	100.000
180.04	-114.286
180.42	75.000
180.80	300.000
181.18	-233.333
181.56	-250.000
181.94	250.000
182.31	600.000
182.69	-60.000
183.07	0.000
183.45	20.000
183.83	116.667
184.20	63.636
184.58	133.333
184.96	-50.000
185.34	-233.333
185.72	-300.000
186.09	15.385
186.47	-700.000
186.85	216.667
187.23	100.000
187.61	-300.000
187.98	66.667
188.36	-22.222
188.74	33.333
189.12	23.529
189.49	0.000
189.87	0.000
190.25	28.571
190.63	-50.000
191.00	0.000
191.38	5.263
191.76	100.000
192.14	-50.000
192.51	550.000
192.89	-77.778
193.27	-128.571
193.65	183.333
194.02	227.273
194.40	90.000
194.78	-112.500
195.15	41.667
195.53	-50.000
195.91	300.000
196.29	-25.000
196.66	69.231
197.04	200.000
197.42	-88.889
197.79	-466.667
198.17	-115.385
198.55	800.000
198.92	-366.667
199.30	300.000
199.68	20.000
200.05	66.667
200.43	0.000
200.81	66.667
201.18	200.000
201.56	2000.000
201.94	-400.000
202.31	-233.333
202.69	-160.000
203.07	-25.000
203.44	1100.000
203.82	0.000
204.19	50.000
204.57	-233.333
204.95	62.500
205.32	-30.000
205.70	-71.429
206.08	25.000
206.45	322.222
206.83	50.000
207.20	-114.286
207.58	600.000
207.96	133.333
208.33	-170.000
208.71	-125.000
209.08	-33.333
209.46	100.000
209.84	-160.000
210.21	-1800.000
210.59	42.857
210.96	-116.667
211.34	175.000
211.71	53.333
212.09	28.571
212.46	-200.000
212.84	0.000
213.22	120.000
213.59	150.000
213.97	61.538
214.34	90.909
214.72	-16.667
215.09	150.000
215.47	-69.231
215.84	72.727
216.22	233.333
216.59	-25.000
216.97	250.000
217.34	25.000
217.72	20.000
218.09	-125.000
218.47	62.500
218.84	-300.000
219.22	22.222
219.59	60.000
219.97	100.000
220.34	50.000
220.72	14.286
221.09	-25.000
221.47	100.000
221.84	-250.000
222.22	-400.000
222.59	45.455
222.97	133.333
223.34	-266.667
223.72	-28.571
224.09	4.762
224.46	21.429
224.84	366.667
225.21	50.000
225.59	46.667
225.96	-150.000
226.34	200.000
226.71	114.286
227.08	50.000
227.46	25.000
227.83	-150.000
228.21	-22.222
228.58	54.545
228.95	-25.000
229.33	150.000
229.70	68.750
230.08	50.000
230.45	-42.857
230.82	171.429
231.20	-33.333
231.57	100.000
231.95	100.000
232.32	-10.000
232.69	21.429
233.07	133.333
233.44	-120.000
233.81	-60.000
234.19	66.667
234.56	41.176
234.93	250.000
235.31	125.000
235.68	-160.000
236.05	-61.538
236.43	-50.000
236.80	47.059
237.17	18.750
237.55	-15.000
237.92	22.222
238.29	8.333
238.67	-13.333
239.04	-17.647
239.41	-17.073
239.79	26.667
240.16	0.000
240.53	7.895
240.91	-19.565
241.28	4.762
241.65	8.929
242.02	1.370
242.40	-10.000
242.77	-10.169
243.14	-12.121
243.51	-10.000
243.89	22.989
244.26	1.149
244.63	0.000
245.00	10.309
245.38	3.093
245.75	-12.360
246.12	-7.759
246.49	3.306
246.87	4.808
247.24	-3.361
247.61	-13.158
247.98	-11.382
248.36	-1.250
248.73	2.632
249.10	-6.494
249.47	2.532
249.84	0.654
250.22	0.000
250.59	-0.654
250.96	5.634
251.33	0.581
251.70	1.765
252.08	1.523
252.45	-1.980
252.82	0.000
253.19	2.304
253.56	-1.869
253.94	1.351
254.31	4.783
254.68	2.632
255.05	0.787
255.42	0.000
255.79	0.772
256.16	2.724
256.54	3.731
256.91	1.521
257.28	0.743
257.65	0.000
258.02	-1.773
258.39	4.040
258.76	2.198
259.14	0.664
259.51	3.236
259.88	-0.687
260.25	1.634
260.62	5.208
260.99	-3.051
261.36	-0.342
261.73	0.316
262.10	0.912
262.47	-0.307
262.85	-0.627
263.22	-0.308
263.59	-2.492
263.96	1.242
264.33	-1.515
264.70	0.893
265.07	-0.595
265.44	1.983
265.81	0.847
266.18	0.273
266.55	4.884
266.92	1.554
267.29	1.305
267.66	2.302
268.03	1.832
268.40	0.000
268.77	0.000
269.14	1.439
269.51	2.057
269.88	1.995
270.25	0.765
270.62	-3.902
270.99	-2.302
271.36	-0.733
271.73	4.225
272.10	0.487
272.47	0.236
272.84	0.000
273.21	2.552
273.58	0.723
273.95	1.831
274.32	-0.231
274.69	-0.452
275.06	2.679
275.43	-1.134
275.80	0.221
276.17	-0.690
276.54	3.212
276.91	0.219
277.28	-1.528
277.65	1.240
278.02	1.915
278.39	0.000
278.76	1.468
279.13	-0.622
279.50	2.521
279.87	1.512
280.23	-0.860
280.60	1.559
280.97	1.010
281.34	1.923
281.71	2.875
282.08	1.022
282.45	0.391
282.82	0.000
283.19	-0.193
283.56	0.771
283.92	-0.190
284.29	0.769
284.66	-0.775
285.03	-0.786
285.40	-1.512
285.77	0.351
286.14	-0.903
286.51	2.030
286.87	-0.914
287.24	-0.552
287.61	0.705
287.98	2.105
288.35	0.867
288.72	2.277
289.08	-0.521
289.45	0.351
289.82	1.049
290.19	0.171
290.56	-0.172
290.93	-0.168
291.29	-0.154
291.66	2.992
292.03	1.754
292.40	0.806
292.77	-0.159
293.13	-1.461
293.50	-0.152
293.87	1.527
294.24	1.082
294.60	1.490
294.97	1.488
295.34	-1.380
295.71	0.000
296.08	0.448
296.44	-0.711
296.81	0.000
297.18	0.870
297.55	1.626
297.91	1.233
298.28	1.187
298.65	1.357
299.02	0.809
299.38	-0.547
299.75	0.414
300.12	1.832
300.48	-0.395
300.85	1.521
301.22	1.169
301.59	0.658
301.95	1.899
302.32	1.686
302.69	0.995
303.05	1.238
303.42	0.747
303.79	3.154
304.15	2.151
304.52	0.713
304.89	0.702
305.25	1.332
305.62	0.467
305.99	0.585
306.35	0.116
306.72	0.225
307.09	2.509
307.45	2.641
307.82	1.157
308.19	0.697
308.55	0.763
308.92	2.288
309.29	-0.223
309.65	0.753
310.02	1.980
310.38	1.537
310.75	2.404
311.12	1.399
311.48	1.909
311.85	0.942
312.22	0.316
312.58	1.486
312.95	1.494
313.31	-0.311
313.68	1.466
314.05	1.429
314.41	1.856
314.78	2.577
315.14	2.158
315.51	1.656
315.87	2.561
316.24	3.741
316.61	3.445
316.97	3.373
317.34	3.516
317.70	3.633
318.07	2.885
318.43	3.725
318.80	2.936
319.16	4.590
319.53	6.173
319.89	4.823
320.26	4.960
320.62	5.617
320.99	5.950
321.35	6.989
321.72	7.996
322.08	8.157
322.45	8.223
322.81	8.055
323.18	8.047
323.54	7.915
323.91	9.932
324.27	10.352
324.64	10.487
325.00	12.591
325.37	12.856
325.73	12.239
326.10	14.260
326.46	16.233
326.83	16.623
327.19	17.088
327.56	17.463
327.92	19.542
328.29	20.179
328.65	21.038
329.01	22.426
329.38	23.041
329.74	24.363
330.11	25.487
330.47	26.252
330.84	26.346
331.20	29.373
331.56	28.241
331.93	28.858
332.29	32.172
332.66	30.769
333.02	30.669
333.38	31.164
333.75	32.601
334.11	32.498
334.48	34.814
334.84	35.348
335.20	35.224
335.57	35.267
335.93	35.501
336.29	36.004
336.66	36.331
337.02	37.268
337.38	36.296
337.75	37.818
338.11	38.593
338.47	38.504
338.84	40.665
339.20	38.665
339.56	39.083
339.93	38.585
340.29	40.550
340.65	40.771
341.02	39.184
341.38	38.673
341.74	39.753
342.11	40.121
342.47	41.014
342.83	40.484
343.20	39.895
343.56	40.522
343.92	39.415
344.28	41.332
344.65	40.328
345.01	40.363
345.37	40.202
345.73	42.092
346.10	42.537
346.46	40.538
346.82	40.998
347.19	40.316
347.55	42.022
347.91	41.667
348.27	41.714
348.63	42.249
349.00	40.853
349.36	41.480
349.72	41.874
350.08	40.984
350.45	41.022
350.81	41.113
351.17	40.147
351.53	41.633
351.89	40.380
352.26	41.120
352.62	41.935
352.98	40.321
353.34	40.499
353.70	41.586
354.07	43.145
354.43	40.272
354.79	42.197
355.15	42.302
355.51	42.642
355.87	43.447
356.24	41.517
356.60	43.088
356.96	41.349
357.32	42.812
357.68	42.455
358.04	42.084
358.40	42.363
358.77	43.780
359.13	42.434
359.49	40.986
359.85	42.278
360.21	43.620
360.57	42.081
360.93	43.797
361.29	43.202
361.66	42.476
362.02	42.955
362.38	43.412
362.74	43.830
363.10	43.491
363.46	43.958
363.82	44.252
364.18	43.247
364.54	43.897
364.90	43.584
365.26	43.231
365.62	46.131
365.98	43.622
366.35	45.448
366.71	44.124
367.07	44.702
367.43	44.213
367.79	43.887
368.15	44.508
368.51	44.938
368.87	45.585
369.23	44.549
369.59	44.971
369.95	45.235
370.31	46.171
370.67	44.776
371.03	43.839
371.39	45.952
371.75	45.641
372.11	44.722
372.47	47.559
372.83	46.913
373.19	46.077
373.55	44.765
373.91	45.500
374.27	46.704
374.63	46.734
374.99	45.603
375.35	47.702
375.71	47.343
376.07	47.612
376.42	47.143
376.78	47.919
377.14	47.800
377.50	48.008
377.86	47.122
378.22	47.735
378.58	48.333
378.94	48.582
379.30	47.349
379.66	48.589
380.02	48.682
380.38	48.326
380.74	49.013
381.09	50.184
381.45	48.746
381.81	49.291
382.17	49.112
382.53	49.594
382.89	50.345
383.25	51.773
383.61	51.098
383.97	49.524
384.32	50.657
384.68	51.084
385.04	49.755
385.40	50.156
385.76	51.321
386.12	52.523
386.48	51.788
386.83	51.617
387.19	52.259
387.55	51.945
387.91	52.200
388.27	51.587
388.62	52.738
388.98	51.136
389.34	53.404
389.70	52.828
390.06	50.787
390.42	51.036
390.77	53.041
391.13	52.018
391.49	52.652
391.85	52.502
392.20	52.417
392.56	53.719
392.92	52.907
393.28	53.243
393.64	53.393
393.99	54.483
394.35	53.953
394.71	53.959
395.07	52.734
395.42	52.641
395.78	53.290
396.14	52.270
396.50	53.266
396.85	54.346
397.21	52.882
397.57	53.605
397.92	53.865
398.28	54.195
398.64	52.048
399.00	52.878
399.35	52.257
399.71	52.958
400.07	54.232
400.42	52.326
400.78	54.501
401.14	54.083
401.49	53.484
401.85	52.712
402.21	53.072
402.57	53.375
402.92	52.133
403.28	52.820
403.63	53.720
403.99	53.125
404.35	52.904
404.70	53.452
405.06	53.055
405.42	53.014
405.77	52.179
406.13	53.958
406.49	51.687
406.84	53.362
407.20	53.341
407.55	52.801
407.91	53.810
408.27	52.964
408.62	52.554
408.98	53.050
409.34	52.726
409.69	53.036
410.05	52.463
410.40	52.531
410.76	53.679
411.11	53.125
411.47	52.071
411.83	51.726
412.18	54.440
412.54	52.684
412.89	52.894
413.25	52.286
413.60	53.043
413.96	52.025
414.31	52.744
414.67	53.175
415.03	52.463
415.38	52.219
415.74	54.332
416.09	53.690
416.45	53.275
416.80	51.950
417.16	54.282
417.51	52.831
417.87	52.999
418.22	54.469
418.58	53.311
418.93	52.915
419.29	51.536
419.64	53.856
420.00	55.290
420.35	52.657
420.71	54.070
421.06	53.775
421.42	53.606
421.77	53.757
422.12	52.724
422.48	53.276
422.83	53.364
423.19	53.725
423.54	52.792
423.90	53.651
424.25	54.133
424.61	55.692
424.96	53.078
425.31	55.517
425.67	54.988
426.02	54.417
426.38	55.542
426.73	55.448
427.09	54.747
427.44	55.353
427.79	55.097
428.15	53.277
428.50	53.967
428.85	54.545
429.21	54.726
429.56	54.717
429.92	53.416
430.27	53.734
430.62	54.992
430.98	54.459
431.33	54.101
431.68	54.265
432.04	55.338
432.39	54.421
432.74	53.518
433.10	56.207
433.45	54.421
433.80	55.369
434.16	54.848
434.51	54.946
434.86	54.413
435.22	56.085
435.57	55.708
435.92	55.808
436.28	54.919
436.63	54.934
436.98	55.678
437.34	55.354
437.69	56.052
438.04	55.613
438.39	54.795
438.75	56.223
439.10	54.556
439.45	56.482
439.81	54.924
440.16	57.185
440.51	57.015
440.86	56.858
441.22	55.486
441.57	56.788
441.92	57.450
442.27	57.040
442.63	55.942
442.98	56.117
443.33	55.259
443.68	55.862
444.03	57.228
444.39	56.222
444.74	56.856
445.09	56.514
445.44	56.353
445.79	57.452
446.15	56.057
446.50	56.129
446.85	57.226
447.20	56.986
447.55	56.529
447.91	56.120
448.26	56.631
448.61	56.074
448.96	55.651
449.31	58.092
449.66	56.446
450.02	57.159
450.37	57.499
450.72	56.472
451.07	56.456
451.42	56.367
451.77	55.877
452.12	56.280
452.47	56.729
452.83	57.892
453.18	55.092
453.53	57.838
453.88	58.591
454.23	56.730
454.58	57.494
454.93	58.119
455.28	54.667
455.63	57.347
455.98	56.404
456.34	57.471
456.69	57.687
457.04	57.404
457.39	56.865
457.74	57.739
458.09	55.268
458.44	56.524
458.79	56.471
459.14	57.437
459.49	56.896
459.84	57.642
460.19	57.039
460.54	58.435
460.89	57.159
461.24	57.019
461.59	57.185
461.94	56.541
462.29	58.444
462.64	58.538
462.99	56.263
463.34	55.981
463.69	57.079
464.04	57.506
464.39	56.640
464.74	57.362
465.09	57.455
465.44	57.415
465.79	55.499
466.14	57.070
466.49	57.332
466.84	56.811
467.19	56.696
467.54	57.152
467.89	55.843
468.24	56.022
468.59	58.857
468.94	56.698
469.29	57.967
469.64	57.280
469.99	57.954
470.34	57.884
470.68	57.867
471.03	58.033
471.38	56.562
471.73	56.443
472.08	57.802
472.43	57.181
472.78	57.300
473.13	56.667
473.48	56.547
473.83	56.600
474.17	57.383
474.52	57.052
474.87	56.303
475.22	57.047
475.57	56.578
475.92	55.897
476.27	57.334
476.61	58.218
476.96	56.051
477.31	57.166
477.66	56.798
478.01	57.327
478.36	57.516
478.70	57.096
479.05	57.527
479.40	56.916
479.75	56.309
480.10	56.375
480.45	56.800
480.79	58.207
481.14	58.504
481.49	57.291
481.84	57.191
482.19	56.268
482.53	57.938
482.88	56.850
483.23	57.678
483.58	56.085
483.92	56.825
484.27	55.880
484.62	57.149
484.97	56.758
485.31	56.214
485.66	54.890
486.01	55.726
486.36	55.366
486.70	56.216
487.05	56.064
487.40	56.101
487.75	55.887
488.09	55.624
488.44	56.259
488.79	56.668
489.13	57.091
489.48	56.135
489.83	56.323
490.17	57.079
490.52	56.028
490.87	56.409
491.22	57.641
491.56	56.404
491.91	54.924
492.26	56.636
492.60	57.821
492.95	58.337
493.30	55.642
493.64	57.073
493.99	57.005
494.34	56.359
494.68	56.381
495.03	56.886
495.37	57.115
495.72	56.941
496.07	56.976
496.41	56.368
496.76	56.794
497.11	56.171
497.45	57.184
497.80	57.820
498.14	56.036
498.49	56.475
498.84	57.186
499.18	57.279
499.53	56.944
499.87	56.226
500.22	57.962
500.56	57.640
500.91	57.129
501.26	55.808
501.60	56.567
501.95	56.574
502.29	57.530
502.64	57.095
502.98	57.671
503.33	56.724
503.67	56.578
504.02	56.403
504.36	57.496
504.71	56.010
505.06	56.568
505.40	56.599
505.75	58.351
506.09	56.462
506.44	57.495
506.78	56.582
507.13	56.825
507.47	56.971
507.82	57.585
508.16	56.630
508.51	57.083
508.85	57.561
509.19	56.732
509.54	57.694
509.88	55.825
510.23	58.203
510.57	58.578
510.92	54.691
511.26	56.519
511.61	57.811
511.95	57.041
512.30	57.317
512.64	56.817
512.98	56.485
513.33	56.799
513.67	56.168
514.02	58.238
514.36	58.629
514.70	58.566
515.05	59.283
515.39	57.379
515.74	58.503
516.08	58.159
516.42	58.304
516.77	57.168
517.11	58.754
517.46	58.947
517.80	58.582
518.14	58.298
518.49	58.413
518.83	58.870
519.17	58.217
519.52	57.312
519.86	56.963
520.20	57.959
520.55	56.598
520.89	57.905
521.23	58.138
521.58	58.864
521.92	58.397
522.26	58.556
522.61	58.701
522.95	59.801
523.29	57.624
523.64	56.480
523.98	59.106
524.32	57.216
524.66	59.411
525.01	58.247
525.35	57.745
525.69	57.912
526.04	56.548
526.38	59.014
526.72	57.358
527.06	57.717
527.41	58.443
527.75	57.641
528.09	57.542
528.43	58.069
528.78	57.360
529.12	57.806
529.46	58.285
529.80	57.568
530.15	58.548
530.49	58.182
530.83	58.824
531.17	56.615
531.51	58.482
531.86	56.492
532.20	57.481
532.54	56.909
532.88	57.495
533.22	57.056
533.57	57.339
533.91	56.789
534.25	59.115
534.59	57.024
534.93	56.451
535.27	56.916
535.62	56.967
535.96	56.099
536.30	58.179
536.64	57.271
536.98	57.073
537.32	58.179
537.66	58.135
538.01	58.531
538.35	57.698
538.69	56.325
539.03	56.869
539.37	57.537
539.71	57.464
540.05	56.483
540.39	56.994
540.73	57.322
541.07	57.528
541.42	58.132
541.76	56.986
542.10	56.641
542.44	57.957
542.78	57.811
543.12	57.349
543.46	57.650
543.80	58.501
544.14	54.940
544.48	56.429
544.82	57.143
545.16	57.104
545.50	56.208
545.84	57.790
546.18	58.440
546.52	57.751
546.86	57.656
547.20	58.298
547.54	56.113
547.88	57.541
548.22	55.819
548.56	56.596
548.90	56.267
549.24	55.441
549.58	55.642
549.92	55.969
550.26	56.703
550.60	56.506
550.94	57.058
551.28	56.491
551.62	57.385
551.96	55.714
552.30	57.018
552.64	56.841
552.98	56.610
553.32	57.061
553.66	55.443
554.00	57.518
554.34	58.198
554.68	56.858
555.02	57.217
555.36	56.395
555.69	56.337
556.03	56.888
556.37	57.011
556.71	57.112
557.05	57.644
557.39	55.019
557.73	58.021
558.07	56.938
558.41	58.040
558.75	57.599
559.08	58.392
559.42	58.492
559.76	57.326
560.10	56.651
560.44	57.334
560.78	55.804
561.12	56.347
561.45	55.938
561.79	57.213
562.13	56.636
562.47	56.691
562.81	55.908
563.15	55.078
563.48	57.284
563.82	57.310
564.16	57.451
564.50	55.811
564.84	55.957
565.17	57.076
565.51	57.582
565.85	57.133
566.19	55.438
566.52	56.501
566.86	57.005
567.20	55.106
567.54	57.178
567.88	56.239
568.21	57.353
568.55	56.033
568.89	56.263
569.23	56.042
569.56	54.947
569.90	56.110
570.24	53.480
570.57	55.200
570.91	55.176
571.25	54.653
571.59	53.504
571.92	52.919
572.26	53.382
572.60	53.271
572.93	52.651
573.27	53.197
573.61	53.908
573.95	52.949
574.28	52.781
574.62	52.530
574.96	51.982
575.29	52.272
575.63	51.956
575.97	52.372
576.30	52.966
576.64	52.026
576.98	53.076
577.31	53.478
577.65	52.936
577.98	53.085
578.32	52.742
578.66	51.472
578.99	51.802
579.33	51.886
579.67	50.871
580.00	52.405
580.34	53.085
580.67	51.978
581.01	52.906
581.35	52.369
581.68	52.313
582.02	51.624
582.35	51.811
582.69	51.987
583.02	52.168
583.36	52.472
583.70	52.830
584.03	52.822
584.37	53.077
584.70	52.500
585.04	51.969
585.37	51.916
585.71	51.716
586.04	52.143
586.38	51.934
586.72	52.539
587.05	52.455
587.39	52.866
587.72	53.253
588.06	52.034
588.39	52.692
588.73	52.656
589.06	53.229
589.40	51.884
589.73	53.779
590.07	53.437
590.40	52.941
590.73	53.748
591.07	53.986
591.40	53.695
591.74	53.575
592.07	53.989
592.41	53.224
592.74	53.047
593.08	51.834
593.41	51.763
593.75	51.587
594.08	51.837
594.41	52.074
594.75	53.015
595.08	53.159
595.42	53.184
595.75	54.037
596.09	53.049
596.42	52.873
596.75	53.064
597.09	53.349
597.42	54.155
597.75	53.596
598.09	51.833
598.42	53.384
598.76	53.153
599.09	52.123
599.42	51.194
599.76	51.956
600.09	51.772
600.42	52.426
600.76	51.857
601.09	51.412
601.42	51.351
601.76	51.886
602.09	52.682
602.42	53.286
602.76	52.971
603.09	53.073
603.42	55.268
603.76	52.258
604.09	52.248
604.42	53.003
604.76	54.384
605.09	51.920
605.42	52.144
605.75	52.627
606.09	52.824
606.42	51.835
606.75	52.511
607.09	52.484
607.42	52.237
607.75	51.776
608.08	51.348
608.42	50.571
608.75	53.060
609.08	53.662
609.41	53.046
609.75	53.730
610.08	53.769
610.41	51.981
610.74	52.170
611.07	54.057
611.41	52.621
611.74	53.678
612.07	52.570
612.40	54.431
612.73	54.802
613.07	52.756
613.40	52.626
613.73	52.994
614.06	52.532
614.39	53.356
614.72	52.941
615.06	52.626
615.39	51.965
615.72	52.368
616.05	53.631
616.38	51.966
616.71	53.272
617.05	53.428
617.38	53.991
617.71	53.774
618.04	54.984
618.37	53.216
618.70	53.993
619.03	55.278
619.36	53.690
619.69	55.421
620.03	53.908
620.36	54.864
620.69	53.961
621.02	54.587
621.35	56.598
621.68	55.017
622.01	55.250
622.34	55.706
622.67	55.521
623.00	54.518
623.33	54.802
623.66	55.423
623.99	55.068
624.32	54.068
624.65	53.985
624.99	55.831
625.32	53.980
625.65	56.167
625.98	55.439
626.31	54.780
626.64	54.593
626.97	56.195
627.30	54.816
627.63	56.239
627.96	56.155
628.29	54.487
628.62	56.735
628.95	55.010
629.28	56.754
629.61	56.730
629.94	56.891
630.26	55.731
630.59	57.024
630.92	56.205
631.25	54.256
631.58	56.057
631.91	56.689
632.24	57.225
632.57	56.136
632.90	56.465
633.23	56.471
633.56	58.312
633.89	57.460
634.22	57.037
634.55	58.323
634.88	58.365
635.20	56.026
635.53	57.867
635.86	55.657
636.19	57.180
636.52	58.418
636.85	56.948
637.18	56.352
