SpectraSuite Data File
++++++++++++++++++++++++++++++++++++
Date: Fri May 15 20:14:15 PDT 2015
User: schluterlab
Dark Spectrum Present: Yes
Reference Spectrum Present: Yes
Number of Sampled Component Spectra: 1
Spectrometers: USB2E3373
Integration Time (usec): 3000 (USB2E3373)
Spectra Averaged: 3 (USB2E3373)
Boxcar Smoothing: 0 (USB2E3373)
Correct for Electrical Dark: No (USB2E3373)
Strobe/Lamp Enabled: No (USB2E3373)
Correct for Detector Non-linearity: No (USB2E3373)
Correct for Stray Light: No (USB2E3373)
Number of Pixels in Processed Spectrum: 2048
>>>>>Begin Processed Spectral Data<<<<<
178.53	0.000
178.91	0.000
179.29	-25.000
179.67	-200.000
180.04	-85.714
180.42	150.000
180.80	-500.000
181.18	-233.333
181.56	-100.000
181.94	250.000
182.31	200.000
182.69	-20.000
183.07	-233.333
183.45	-120.000
183.83	50.000
184.20	-18.182
184.58	66.667
184.96	-50.000
185.34	33.333
185.72	-400.000
186.09	46.154
186.47	-700.000
186.85	50.000
187.23	44.444
187.61	500.000
187.98	-66.667
188.36	0.000
188.74	-100.000
189.12	35.294
189.49	55.556
189.87	0.000
190.25	35.714
190.63	300.000
191.00	-166.667
191.38	-15.789
191.76	600.000
192.14	-50.000
192.51	50.000
192.89	-44.444
193.27	114.286
193.65	116.667
194.02	100.000
194.40	-20.000
194.78	-187.500
195.15	8.333
195.53	-75.000
195.91	-0.000
196.29	125.000
196.66	92.308
197.04	100.000
197.42	-88.889
197.79	-300.000
198.17	-69.231
198.55	400.000
198.92	-300.000
199.30	-500.000
199.68	120.000
200.05	-200.000
200.43	0.000
200.81	-133.333
201.18	-66.667
201.56	1300.000
201.94	-50.000
202.31	-0.000
202.69	-220.000
203.07	75.000
203.44	1000.000
203.82	0.000
204.19	71.429
204.57	0.000
204.95	100.000
205.32	-10.000
205.70	42.857
206.08	150.000
206.45	255.556
206.83	100.000
207.20	-57.143
207.58	300.000
207.96	33.333
208.33	-150.000
208.71	0.000
209.08	16.667
209.46	300.000
209.84	-60.000
210.21	100.000
210.59	0.000
210.96	16.667
211.34	150.000
211.71	53.333
212.09	-71.429
212.46	-700.000
212.84	0.000
213.22	150.000
213.59	500.000
213.97	30.769
214.34	172.727
214.72	-16.667
215.09	275.000
215.47	15.385
215.84	-45.455
216.22	-66.667
216.59	-125.000
216.97	250.000
217.34	-175.000
217.72	-100.000
218.09	25.000
218.47	125.000
218.84	-800.000
219.22	-33.333
219.59	40.000
219.97	-66.667
220.34	50.000
220.72	42.857
221.09	25.000
221.47	50.000
221.84	-250.000
222.22	-350.000
222.59	9.091
222.97	33.333
223.34	166.667
223.72	-42.857
224.09	23.810
224.46	32.143
224.84	366.667
225.21	-10.000
225.59	46.667
225.96	-350.000
226.34	375.000
226.71	-42.857
227.08	-50.000
227.46	25.000
227.83	-250.000
228.21	100.000
228.58	27.273
228.95	37.500
229.33	120.000
229.70	6.250
230.08	-200.000
230.45	-85.714
230.82	0.000
231.20	-80.000
231.57	28.571
231.95	-85.714
232.32	-60.000
232.69	50.000
233.07	166.667
233.44	-160.000
233.81	-130.000
234.19	-100.000
234.56	-5.882
234.93	400.000
235.31	0.000
235.68	-240.000
236.05	0.000
236.43	-15.000
236.80	-47.059
237.17	25.000
237.55	-10.000
237.92	-3.704
238.29	30.556
238.67	20.000
239.04	0.000
239.41	-17.073
239.79	36.667
240.16	4.878
240.53	-10.526
240.91	6.522
241.28	11.111
241.65	12.500
242.02	10.959
242.40	10.000
242.77	13.559
243.14	12.121
243.51	20.000
243.89	13.793
244.26	-9.195
244.63	4.762
245.00	5.155
245.38	8.247
245.75	-7.865
246.12	1.724
246.49	4.959
246.87	8.654
247.24	6.723
247.61	-2.632
247.98	4.878
248.36	7.500
248.73	7.895
249.10	4.545
249.47	10.127
249.84	-1.307
250.22	8.824
250.59	9.150
250.96	13.146
251.33	2.907
251.70	8.824
252.08	9.137
252.45	10.396
252.82	4.523
253.19	4.147
253.56	6.075
253.94	8.559
254.31	8.696
254.68	13.596
255.05	5.118
255.42	6.987
255.79	9.653
256.16	6.615
256.54	8.582
256.91	6.084
257.28	7.063
257.65	4.869
258.02	4.965
258.39	7.407
258.76	9.158
259.14	8.970
259.51	6.149
259.88	6.529
260.25	5.229
260.62	7.986
260.99	1.356
261.36	1.027
261.73	4.430
262.10	6.991
262.47	6.442
262.85	6.270
263.22	6.462
263.59	8.723
263.96	6.211
264.33	7.576
264.70	3.869
265.07	2.976
265.44	9.065
265.81	10.734
266.18	4.098
266.55	10.283
266.92	7.513
267.29	6.266
267.66	9.207
268.03	4.712
268.40	4.700
268.77	10.695
269.14	6.475
269.51	7.969
269.88	5.237
270.25	3.316
270.62	6.585
270.99	5.627
271.36	5.623
271.73	6.808
272.10	7.786
272.47	7.092
272.84	4.455
273.21	6.265
273.58	7.470
273.95	7.780
274.32	5.081
274.69	4.977
275.06	8.036
275.43	5.896
275.80	6.181
276.17	4.368
276.54	4.283
276.91	5.482
277.28	5.240
277.65	7.645
278.02	4.894
278.39	6.565
278.76	5.451
279.13	2.490
279.50	5.672
279.87	6.048
280.23	7.527
280.60	7.407
280.97	8.687
281.34	5.769
281.71	7.598
282.08	4.499
282.45	4.110
282.82	5.405
283.19	6.576
283.56	6.166
283.92	6.072
284.29	4.038
284.66	6.589
285.03	3.536
285.40	5.671
285.77	4.745
286.14	5.957
286.51	9.225
286.87	4.570
287.24	4.604
287.61	4.233
287.98	5.965
288.35	5.373
288.72	6.130
289.08	4.861
289.45	6.854
289.82	7.343
290.19	4.778
290.56	5.660
290.93	5.724
291.29	5.239
291.66	6.457
292.03	4.147
292.40	4.355
292.77	6.220
293.13	3.571
293.50	5.159
293.87	6.107
294.24	5.564
294.60	5.216
294.97	4.464
295.34	3.528
295.71	5.961
296.08	5.232
296.44	2.845
296.81	4.306
297.18	5.217
297.55	6.911
297.91	4.384
298.28	5.541
298.65	4.613
299.02	4.852
299.38	2.599
299.75	5.517
300.12	4.581
300.48	4.611
300.85	4.943
301.22	5.584
301.59	4.211
301.95	5.063
302.32	4.150
302.69	4.851
303.05	5.569
303.42	4.732
303.79	5.257
304.15	5.137
304.52	2.497
304.89	5.029
305.25	4.600
305.62	3.967
305.99	4.561
306.35	3.237
306.72	4.387
307.09	3.307
307.45	4.592
307.82	3.588
308.19	4.065
308.55	3.926
308.92	5.556
309.29	3.352
309.65	4.521
310.02	3.630
310.38	4.610
310.75	4.590
311.12	3.767
311.48	3.606
311.85	4.188
312.22	4.958
312.58	3.822
312.95	2.988
313.31	3.416
313.68	3.037
314.05	4.490
314.41	4.845
314.78	4.742
315.14	4.419
315.51	4.348
315.87	3.381
316.24	6.370
316.61	5.217
316.97	5.060
317.34	4.102
317.70	4.111
318.07	4.423
318.43	4.314
318.80	4.451
319.16	4.785
319.53	5.318
319.89	4.724
320.26	4.150
320.62	4.213
320.99	3.445
321.35	5.344
321.72	4.361
322.08	3.827
322.45	4.365
322.81	4.420
323.18	4.318
323.54	4.344
323.91	3.311
324.27	4.102
324.64	4.682
325.00	4.927
325.37	5.693
325.73	3.536
326.10	5.268
326.46	4.843
326.83	5.074
327.19	4.795
327.56	5.474
327.92	5.546
328.29	3.125
328.65	5.283
329.01	4.504
329.38	5.069
329.74	3.777
330.11	4.541
330.47	3.803
330.84	4.135
331.20	5.133
331.56	4.352
331.93	4.658
332.29	4.400
332.66	4.796
333.02	4.740
333.38	3.850
333.75	4.853
334.11	3.671
334.48	5.984
334.84	4.121
335.20	3.660
335.57	3.989
335.93	5.059
336.29	4.972
336.66	4.087
337.02	3.253
337.38	3.889
337.75	4.818
338.11	5.320
338.47	4.653
338.84	5.268
339.20	4.845
339.56	4.220
339.93	6.177
340.29	4.771
340.65	4.839
341.02	3.989
341.38	4.513
341.74	4.064
342.11	4.766
342.47	4.181
342.83	4.325
343.20	4.530
343.56	4.783
343.92	4.163
344.28	4.184
344.65	3.627
345.01	4.235
345.37	5.046
345.73	5.774
346.10	4.745
346.46	4.121
346.82	4.828
347.19	4.904
347.55	5.681
347.91	5.097
348.27	5.497
348.63	4.685
349.00	4.266
349.36	4.489
349.72	5.058
350.08	5.082
350.45	5.826
350.81	3.488
351.17	4.560
351.53	5.061
351.89	3.716
352.26	4.880
352.62	4.677
352.98	4.578
353.34	5.072
353.70	5.744
354.07	4.355
354.43	4.003
354.79	4.377
355.15	5.873
355.51	4.984
355.87	3.722
356.24	4.078
356.60	5.255
356.96	5.397
357.32	5.751
357.68	3.909
358.04	4.120
358.40	3.859
358.77	5.104
359.13	4.163
359.49	5.008
359.85	5.070
360.21	4.306
360.57	4.438
360.93	5.446
361.29	4.079
361.66	5.016
362.02	4.621
362.38	4.798
362.74	4.239
363.10	4.590
363.46	5.263
363.82	5.259
364.18	5.609
364.54	5.074
364.90	4.946
365.26	4.076
365.62	4.964
365.98	4.399
366.35	5.171
366.71	4.287
367.07	5.443
367.43	3.882
367.79	4.594
368.15	4.594
368.51	4.734
368.87	4.235
369.23	3.899
369.59	4.665
369.95	4.912
370.31	4.191
370.67	4.403
371.03	4.854
371.39	4.595
371.75	4.762
372.11	5.635
372.47	4.660
372.83	4.968
373.19	5.350
373.55	5.054
373.91	5.400
374.27	4.748
374.63	5.384
374.99	4.326
375.35	4.875
375.71	5.175
376.07	5.197
376.42	5.578
376.78	5.503
377.14	5.416
377.50	4.914
377.86	5.154
378.22	4.531
378.58	4.936
378.94	4.474
379.30	4.991
379.66	5.078
380.02	5.334
380.38	4.808
380.74	5.506
381.09	5.460
381.45	5.505
381.81	5.367
382.17	5.266
382.53	4.747
382.89	5.273
383.25	5.663
383.61	5.122
383.97	4.635
384.32	5.316
384.68	4.644
385.04	5.576
385.40	4.667
385.76	5.283
386.12	5.692
386.48	5.811
386.83	4.756
387.19	6.593
387.55	6.462
387.91	5.562
388.27	6.166
388.62	5.979
388.98	5.463
389.34	6.371
389.70	6.588
390.06	5.538
390.42	6.477
390.77	6.082
391.13	5.422
391.49	5.369
391.85	5.588
392.20	6.026
392.56	5.531
392.92	5.989
393.28	6.073
393.64	5.706
393.99	6.708
394.35	5.440
394.71	6.258
395.07	6.034
395.42	5.282
395.78	6.059
396.14	6.305
396.50	6.151
396.85	5.666
397.21	6.579
397.57	6.583
397.92	5.872
398.28	6.494
398.64	5.663
399.00	5.756
399.35	5.361
399.71	5.744
400.07	5.925
400.42	5.936
400.78	6.307
401.14	6.473
401.49	6.135
401.85	5.789
402.21	6.265
402.57	5.750
402.92	4.768
403.28	6.704
403.63	6.368
403.99	5.421
404.35	6.121
404.70	5.595
405.06	5.758
405.42	6.339
405.77	5.752
406.13	5.588
406.49	5.802
406.84	5.990
407.20	6.321
407.55	5.731
407.91	5.882
408.27	5.481
408.62	6.708
408.98	5.607
409.34	5.576
409.69	5.620
410.05	5.049
410.40	6.111
410.76	6.273
411.11	6.312
411.47	5.917
411.83	5.022
412.18	5.663
412.54	5.993
412.89	5.357
413.25	5.776
413.60	5.839
413.96	6.135
414.31	6.463
414.67	5.645
415.03	5.859
415.38	6.005
415.74	6.580
416.09	6.270
416.45	5.739
416.80	5.420
417.16	6.215
417.51	6.196
417.87	5.867
418.22	5.570
418.58	5.418
418.93	7.022
419.29	5.250
419.64	4.990
420.00	5.856
420.35	5.672
420.71	5.893
421.06	6.077
421.42	6.310
421.77	6.012
422.12	5.675
422.48	6.064
422.83	6.323
423.19	6.433
423.54	5.232
423.90	6.066
424.25	5.913
424.61	5.814
424.96	5.923
425.31	6.181
425.67	5.458
426.02	6.537
426.38	6.637
426.73	6.053
427.09	6.582
427.44	6.176
427.79	6.305
428.15	7.039
428.50	6.299
428.85	6.265
429.21	6.904
429.56	6.146
429.92	6.112
430.27	5.915
430.62	6.221
430.98	6.210
431.33	6.204
431.68	6.332
432.04	6.037
432.39	5.876
432.74	5.893
433.10	6.552
433.45	6.033
433.80	6.094
434.16	5.374
434.51	7.204
434.86	6.330
435.22	6.338
435.57	6.488
435.92	5.509
436.28	6.440
436.63	6.218
436.98	6.315
437.34	6.413
437.69	6.500
438.04	6.439
438.39	5.559
438.75	6.193
439.10	6.282
439.45	6.269
439.81	5.688
440.16	5.998
440.51	6.866
440.86	7.009
441.22	6.278
441.57	6.512
441.92	6.663
442.27	6.763
442.63	7.388
442.98	6.663
443.33	6.566
443.68	6.154
444.03	6.557
444.39	6.886
444.74	6.800
445.09	7.127
445.44	6.496
445.79	7.427
446.15	6.498
446.50	6.212
446.85	5.951
447.20	6.048
447.55	7.143
447.91	6.599
448.26	6.773
448.61	7.081
448.96	6.827
449.31	5.780
449.66	6.852
450.02	6.788
450.37	6.165
450.72	6.873
451.07	7.089
451.42	7.615
451.77	6.751
452.12	7.117
452.47	6.632
452.83	7.126
453.18	7.084
453.53	7.522
453.88	6.800
454.23	7.068
454.58	7.620
454.93	7.603
455.28	6.032
455.63	7.316
455.98	7.336
456.34	7.024
456.69	8.005
457.04	7.309
457.39	6.258
457.74	6.771
458.09	5.945
458.44	6.437
458.79	6.611
459.14	7.323
459.49	7.463
459.84	7.389
460.19	6.978
460.54	6.418
460.89	6.932
461.24	6.584
461.59	6.591
461.94	6.478
462.29	7.841
462.64	7.110
462.99	7.312
463.34	6.537
463.69	6.757
464.04	6.840
464.39	7.762
464.74	7.423
465.09	7.611
465.44	7.559
465.79	7.200
466.14	7.013
466.49	6.498
466.84	7.436
467.19	6.758
467.54	7.216
467.89	6.507
468.24	6.326
468.59	7.302
468.94	7.238
469.29	7.148
469.64	8.134
469.99	7.708
470.34	6.416
470.68	6.935
471.03	7.006
471.38	7.347
471.73	6.933
472.08	6.649
472.43	7.181
472.78	6.923
473.13	7.143
473.48	7.883
473.83	7.098
474.17	8.225
474.52	7.147
474.87	7.515
475.22	6.711
475.57	7.115
475.92	7.021
476.27	7.916
476.61	7.060
476.96	7.083
477.31	7.896
477.66	6.966
478.01	7.299
478.36	7.625
478.70	6.525
479.05	7.418
479.40	8.002
479.75	7.091
480.10	7.015
480.45	7.750
480.79	7.452
481.14	7.070
481.49	7.537
481.84	7.288
482.19	6.501
482.53	7.818
482.88	7.446
483.23	7.006
483.58	7.264
483.92	7.115
484.27	7.931
484.62	7.441
484.97	6.924
485.31	6.973
485.66	6.905
486.01	7.150
486.36	7.094
486.70	7.117
487.05	7.237
487.40	7.187
487.75	7.155
488.09	7.138
488.44	7.703
488.79	7.845
489.13	7.853
489.48	7.610
489.83	7.444
490.17	7.146
490.52	7.390
490.87	7.126
491.22	7.402
491.56	7.543
491.91	7.457
492.26	7.584
492.60	7.102
492.95	7.919
493.30	7.230
493.64	7.859
493.99	7.633
494.34	6.845
494.68	7.905
495.03	7.251
495.37	7.066
495.72	6.815
496.07	7.122
496.41	7.877
496.76	7.784
497.11	6.474
497.45	7.446
497.80	7.770
498.14	7.998
498.49	7.212
498.84	7.784
499.18	7.631
499.53	7.738
499.87	6.858
500.22	7.517
500.56	7.413
500.91	7.831
501.26	7.168
501.60	7.477
501.95	7.763
502.29	7.748
502.64	7.336
502.98	7.795
503.33	7.253
503.67	7.711
504.02	7.527
504.36	7.620
504.71	7.323
505.06	7.599
505.40	7.513
505.75	7.938
506.09	7.299
506.44	8.522
506.78	7.959
507.13	7.859
507.47	7.311
507.82	7.532
508.16	7.501
508.51	7.975
508.85	7.849
509.19	7.025
509.54	8.257
509.88	8.198
510.23	7.854
510.57	8.124
510.92	7.729
511.26	7.856
511.61	7.701
511.95	8.055
512.30	7.816
512.64	8.792
512.98	7.805
513.33	9.121
513.67	7.277
514.02	9.096
514.36	8.800
514.70	8.392
515.05	8.696
515.39	8.442
515.74	9.281
516.08	8.548
516.42	8.775
516.77	8.309
517.11	8.605
517.46	8.259
517.80	9.416
518.14	8.573
518.49	7.812
518.83	8.566
519.17	8.551
519.52	7.993
519.86	8.523
520.20	8.931
520.55	8.005
520.89	9.034
521.23	8.043
521.58	8.896
521.92	8.205
522.26	8.979
522.61	8.377
522.95	8.543
523.29	9.276
523.64	8.513
523.98	8.879
524.32	7.990
524.66	9.475
525.01	9.675
525.35	9.916
525.69	7.811
526.04	8.466
526.38	9.079
526.72	8.437
527.06	9.403
527.41	9.235
527.75	8.110
528.09	8.970
528.43	9.723
528.78	8.383
529.12	8.774
529.46	8.772
529.80	9.120
530.15	9.901
530.49	8.283
530.83	9.166
531.17	8.664
531.51	9.371
531.86	8.430
532.20	8.699
532.54	9.190
532.88	8.898
533.22	8.737
533.57	8.650
533.91	8.159
534.25	9.180
534.59	9.622
534.93	9.188
535.27	8.058
535.62	8.620
535.96	9.132
536.30	9.037
536.64	8.890
536.98	8.780
537.32	9.673
537.66	9.187
538.01	9.231
538.35	8.252
538.69	9.321
539.03	9.296
539.37	9.152
539.71	9.134
540.05	9.301
540.39	9.557
540.73	9.484
541.07	9.945
541.42	9.879
541.76	9.635
542.10	8.190
542.44	8.200
542.78	7.777
543.12	9.066
543.46	8.136
543.80	9.160
544.14	8.478
544.48	9.260
544.82	9.706
545.16	9.358
545.50	9.546
545.84	9.136
546.18	9.433
546.52	9.229
546.86	8.555
547.20	9.585
547.54	8.410
547.88	9.783
548.22	8.679
548.56	8.773
548.90	9.097
549.24	8.333
549.58	8.956
549.92	8.649
550.26	9.377
550.60	9.963
550.94	9.186
551.28	9.119
551.62	9.308
551.96	8.571
552.30	9.357
552.64	7.969
552.98	8.509
553.32	9.486
553.66	8.055
554.00	9.635
554.34	8.567
554.68	9.587
555.02	10.342
555.36	8.975
555.69	8.571
556.03	8.637
556.37	8.968
556.71	9.531
557.05	9.545
557.39	8.625
557.73	9.445
558.07	8.899
558.41	9.035
558.75	8.496
559.08	8.589
559.42	8.333
559.76	9.367
560.10	8.486
560.44	9.233
560.78	9.510
561.12	9.450
561.45	9.838
561.79	8.824
562.13	8.446
562.47	9.353
562.81	8.790
563.15	9.944
563.48	10.042
563.82	9.472
564.16	9.540
564.50	8.851
564.84	9.304
565.17	9.323
565.51	9.973
565.85	9.534
566.19	9.483
566.52	9.786
566.86	10.090
567.20	8.655
567.54	8.273
567.88	9.373
568.21	9.842
568.55	8.533
568.89	9.240
569.23	9.196
569.56	8.888
569.90	9.176
570.24	8.746
570.57	8.618
570.91	9.306
571.25	8.583
571.59	8.782
571.92	8.593
572.26	8.092
572.60	8.403
572.93	8.974
573.27	8.213
573.61	8.562
573.95	8.438
574.28	8.395
574.62	8.314
574.96	8.477
575.29	8.152
575.63	8.629
575.97	8.051
576.30	8.322
576.64	8.079
576.98	8.906
577.31	8.307
577.65	8.532
577.98	8.686
578.32	8.175
578.66	8.102
578.99	8.353
579.33	8.094
579.67	8.554
580.00	8.633
580.34	8.831
580.67	8.309
581.01	8.189
581.35	8.226
581.68	8.207
582.02	8.552
582.35	8.022
582.69	8.298
583.02	8.353
583.36	8.588
583.70	8.982
584.03	8.952
584.37	9.430
584.70	8.929
585.04	8.472
585.37	8.698
585.71	8.467
586.04	8.850
586.38	8.856
586.72	9.211
587.05	9.099
587.39	9.393
587.72	9.404
588.06	8.912
588.39	9.143
588.73	9.310
589.06	9.198
589.40	9.471
589.73	9.346
590.07	9.366
590.40	9.404
590.73	9.638
591.07	8.906
591.40	9.261
591.74	9.593
592.07	10.204
592.41	9.806
592.74	9.359
593.08	9.291
593.41	8.995
593.75	9.290
594.08	9.131
594.41	9.316
594.75	9.389
595.08	9.762
595.42	9.606
595.75	9.425
596.09	9.226
596.42	9.508
596.75	9.591
597.09	9.977
597.42	9.530
597.75	9.208
598.09	10.095
598.42	9.296
598.76	9.481
599.09	9.896
599.42	9.246
599.76	9.217
600.09	9.314
600.42	9.894
600.76	9.212
601.09	9.466
601.42	9.362
601.76	9.488
602.09	9.488
602.42	10.531
602.76	9.805
603.09	10.133
603.42	10.410
603.76	9.194
604.09	9.397
604.42	9.602
604.76	10.547
605.09	9.232
605.42	9.977
605.75	9.413
606.09	9.682
606.42	9.633
606.75	9.567
607.09	10.989
607.42	9.127
607.75	9.458
608.08	9.344
608.42	9.913
608.75	10.602
609.08	9.616
609.41	9.746
609.75	10.433
610.08	10.085
610.41	9.807
610.74	9.556
611.07	10.233
611.41	9.704
611.74	10.768
612.07	9.743
612.40	10.230
612.73	9.605
613.07	9.561
613.40	10.722
613.73	9.177
614.06	10.072
614.39	10.321
614.72	9.916
615.06	10.000
615.39	9.607
615.72	10.118
616.05	10.168
616.38	9.744
616.71	10.092
617.05	10.191
617.38	10.685
617.71	10.126
618.04	9.968
618.37	11.349
618.70	10.627
619.03	10.833
619.36	9.768
619.69	10.917
620.03	11.468
620.36	11.159
620.69	10.350
621.02	9.862
621.35	10.954
621.68	10.459
622.01	11.333
622.34	10.136
622.67	10.804
623.00	10.873
623.33	10.595
623.66	10.621
623.99	10.061
624.32	10.114
624.65	10.301
624.99	11.136
625.32	9.629
625.65	11.312
625.98	11.039
626.31	10.391
626.64	11.179
626.97	11.344
627.30	11.821
627.63	10.399
627.96	10.782
628.29	10.916
628.62	11.799
628.95	10.521
629.28	11.593
629.61	9.771
629.94	12.903
630.26	10.474
630.59	10.926
630.92	12.513
631.25	10.872
631.58	11.674
631.91	9.320
632.24	10.321
632.57	12.159
632.90	12.337
633.23	11.176
633.56	10.076
633.89	10.974
634.22	12.840
634.55	11.817
634.88	8.940
635.20	10.513
635.53	11.333
635.86	10.533
636.19	12.031
636.52	9.821
636.85	11.290
637.18	10.692
637.51	10.818
637.83	11.432
638.16	12.824
638.49	11.717
638.82	11.711
639.15	10.448
639.48	12.517
639.81	12.134
640.13	11.688
640.46	12.828
640.79	11.782
641.12	11.669
641.45	10.210
641.77	10.370
642.10	14.692
642.43	11.415
642.76	11.551
643.09	11.793
643.41	10.680
643.74	11.203
644.07	13.629
644.40	12.838
644.73	12.785
645.05	11.913
645.38	11.464
645.71	11.170
646.04	13.824
646.36	12.943
646.69	12.950
647.02	13.043
647.35	12.500
647.67	12.980
648.00	13.060
648.33	12.628
648.66	14.237
648.98	9.883
649.31	10.083
649.64	8.948
649.96	11.994
650.29	11.073
650.62	11.282
650.94	12.407
651.27	9.870
651.60	10.811
651.92	14.510
652.25	10.480
652.58	12.667
652.90	13.208
653.23	11.933
653.56	11.675
653.88	11.684
654.21	10.508
654.54	11.885
654.86	13.243
655.19	12.135
655.52	12.152
655.84	9.330
656.17	10.338
656.49	13.608
