SpectraSuite Data File
++++++++++++++++++++++++++++++++++++
Date: Fri May 15 17:32:52 PDT 2015
User: schluterlab
Dark Spectrum Present: Yes
Reference Spectrum Present: Yes
Number of Sampled Component Spectra: 1
Spectrometers: USB2E3373
Integration Time (usec): 3000 (USB2E3373)
Spectra Averaged: 3 (USB2E3373)
Boxcar Smoothing: 0 (USB2E3373)
Correct for Electrical Dark: No (USB2E3373)
Strobe/Lamp Enabled: No (USB2E3373)
Correct for Detector Non-linearity: No (USB2E3373)
Correct for Stray Light: No (USB2E3373)
Number of Pixels in Processed Spectrum: 2048
>>>>>Begin Processed Spectral Data<<<<<
178.53	0.000
178.91	0.000
179.29	-25.000
179.67	-350.000
180.04	71.429
180.42	250.000
180.80	-400.000
181.18	-66.667
181.56	550.000
181.94	150.000
182.31	200.000
182.69	-20.000
183.07	-333.333
183.45	0.000
183.83	100.000
184.20	27.273
184.58	88.889
184.96	275.000
185.34	-166.667
185.72	-200.000
186.09	107.692
186.47	-600.000
186.85	-16.667
187.23	44.444
187.61	-600.000
187.98	-33.333
188.36	44.444
188.74	-333.333
189.12	58.824
189.49	-5.556
189.87	0.000
190.25	85.714
190.63	550.000
191.00	133.333
191.38	47.368
191.76	400.000
192.14	-0.000
192.51	-250.000
192.89	0.000
193.27	71.429
193.65	33.333
194.02	163.636
194.40	70.000
194.78	-12.500
195.15	75.000
195.53	-100.000
195.91	200.000
196.29	-25.000
196.66	92.308
197.04	-42.857
197.42	-11.111
197.79	-333.333
198.17	-92.308
198.55	500.000
198.92	-100.000
199.30	600.000
199.68	-20.000
200.05	-433.333
200.43	0.000
200.81	66.667
201.18	166.667
201.56	1000.000
201.94	-500.000
202.31	-100.000
202.69	0.000
203.07	125.000
203.44	300.000
203.82	0.000
204.19	71.429
204.57	-700.000
204.95	150.000
205.32	110.000
205.70	100.000
206.08	100.000
206.45	277.778
206.83	57.143
207.20	100.000
207.58	-400.000
207.96	-66.667
208.33	-60.000
208.71	50.000
209.08	-16.667
209.46	-800.000
209.84	-40.000
210.21	-500.000
210.59	142.857
210.96	16.667
211.34	-25.000
211.71	60.000
212.09	-71.429
212.46	-1000.000
212.84	0.000
213.22	100.000
213.59	150.000
213.97	15.385
214.34	100.000
214.72	133.333
215.09	75.000
215.47	0.000
215.84	36.364
216.22	33.333
216.59	-37.500
216.97	300.000
217.34	225.000
217.72	-100.000
218.09	50.000
218.47	137.500
218.84	300.000
219.22	122.222
219.59	140.000
219.97	-33.333
220.34	-0.000
220.72	28.571
221.09	-25.000
221.47	-100.000
221.84	-400.000
222.22	-450.000
222.59	81.818
222.97	108.333
223.34	-100.000
223.72	64.286
224.09	28.571
224.46	35.714
224.84	200.000
225.21	30.000
225.59	73.333
225.96	100.000
226.34	25.000
226.71	-100.000
227.08	116.667
227.46	100.000
227.83	-350.000
228.21	177.778
228.58	63.636
228.95	-37.500
229.33	10.000
229.70	6.250
230.08	-125.000
230.45	114.286
230.82	171.429
231.20	-26.667
231.57	71.429
231.95	100.000
232.32	10.000
232.69	42.857
233.07	233.333
233.44	60.000
233.81	70.000
234.19	55.556
234.56	0.000
234.93	-50.000
235.31	150.000
235.68	0.000
236.05	107.692
236.43	-15.000
236.80	70.588
237.17	37.500
237.55	25.000
237.92	25.926
238.29	72.222
238.67	33.333
239.04	29.412
239.41	26.829
239.79	50.000
240.16	26.829
240.53	44.737
240.91	58.696
241.28	38.095
241.65	69.643
242.02	54.795
242.40	61.667
242.77	42.373
243.14	45.455
243.51	58.750
243.89	63.218
244.26	36.782
244.63	51.190
245.00	52.577
245.38	54.639
245.75	52.809
246.12	48.276
246.49	42.149
246.87	49.038
247.24	49.580
247.61	46.491
247.98	47.154
248.36	43.750
248.73	56.579
249.10	51.299
249.47	51.266
249.84	56.209
250.22	55.294
250.59	55.556
250.96	52.113
251.33	45.349
251.70	55.294
252.08	53.807
252.45	51.485
252.82	54.271
253.19	55.760
253.56	46.729
253.94	50.000
254.31	50.435
254.68	52.193
255.05	51.181
255.42	53.712
255.79	47.876
256.16	52.918
256.54	47.388
256.91	47.148
257.28	50.929
257.65	50.562
258.02	49.645
258.39	53.535
258.76	58.242
259.14	48.505
259.51	42.718
259.88	53.608
260.25	54.248
260.62	52.431
260.99	51.186
261.36	49.658
261.73	52.532
262.10	48.936
262.47	50.000
262.85	53.292
263.22	49.846
263.59	50.779
263.96	53.416
264.33	48.485
264.70	51.786
265.07	50.595
265.44	47.592
265.81	51.695
266.18	53.005
266.55	48.843
266.92	47.927
267.29	52.742
267.66	47.826
268.03	52.356
268.40	46.736
268.77	54.011
269.14	47.962
269.51	50.643
269.88	46.633
270.25	48.980
270.62	50.976
270.99	48.849
271.36	48.900
271.73	50.000
272.10	50.608
272.47	50.827
272.84	48.267
273.21	50.116
273.58	49.157
273.95	49.886
274.32	47.575
274.69	48.190
275.06	49.554
275.43	47.392
275.80	50.993
276.17	49.885
276.54	44.325
276.91	49.781
277.28	48.908
277.65	48.760
278.02	46.596
278.39	50.109
278.76	46.751
279.13	44.606
279.50	46.008
279.87	44.276
280.23	49.032
280.60	46.004
280.97	49.293
281.34	46.154
281.71	48.049
282.08	46.830
282.45	46.380
282.82	45.753
283.19	46.228
283.56	45.279
283.92	45.161
284.29	45.769
284.66	43.992
285.03	43.615
285.40	44.612
285.77	43.409
286.14	42.960
286.51	45.941
286.87	42.413
287.24	45.120
287.61	44.268
287.98	43.860
288.35	44.887
288.72	44.483
289.08	42.708
289.45	41.301
289.82	43.881
290.19	42.491
290.56	43.225
290.93	41.246
291.29	38.521
291.66	41.575
292.03	40.670
292.40	39.677
292.77	38.915
293.13	37.662
293.50	35.812
293.87	38.321
294.24	38.640
294.60	37.705
294.97	37.351
295.34	36.963
295.71	35.618
296.08	35.127
296.44	35.420
296.81	34.444
297.18	37.681
297.55	37.398
297.91	35.890
298.28	35.620
298.65	33.650
299.02	34.097
299.38	31.190
299.75	33.793
300.12	31.806
300.48	32.675
300.85	33.967
301.22	32.987
301.59	34.211
301.95	33.544
302.32	33.852
302.69	32.836
303.05	31.807
303.42	31.382
303.79	32.593
304.15	32.975
304.52	30.797
304.89	30.175
305.25	29.782
305.62	30.105
305.99	29.825
306.35	30.058
306.72	30.146
307.09	29.647
307.45	31.688
307.82	30.440
308.19	31.243
308.55	30.425
308.92	30.065
309.29	31.844
309.65	31.216
310.02	30.033
310.38	30.406
310.75	31.148
311.12	30.893
311.48	29.586
311.85	29.529
312.22	29.325
312.58	28.981
312.95	28.175
313.31	28.468
313.68	30.157
314.05	28.061
314.41	30.412
314.78	28.144
315.14	30.627
315.51	28.675
315.87	28.791
316.24	32.255
316.61	28.839
316.97	28.968
317.34	29.980
317.70	28.776
318.07	28.942
318.43	28.824
318.80	28.693
319.16	29.785
319.53	29.060
319.89	28.740
320.26	29.049
320.62	29.689
320.99	28.497
321.35	28.469
321.72	29.387
322.08	29.204
322.45	30.051
322.81	28.389
323.18	29.441
323.54	28.378
323.91	28.140
324.27	28.906
324.64	28.277
325.00	29.380
325.37	29.385
325.73	26.927
326.10	27.884
326.46	28.610
326.83	28.171
327.19	28.073
327.56	29.626
327.92	29.313
328.29	27.857
328.65	29.717
329.01	28.401
329.38	28.756
329.74	28.329
330.11	27.062
330.47	27.644
330.84	27.308
331.20	28.422
331.56	26.019
331.93	29.315
332.29	27.956
332.66	27.602
333.02	27.230
333.38	26.214
333.75	28.297
334.11	28.201
334.48	27.471
334.84	28.663
335.20	27.905
335.57	28.196
335.93	26.829
336.29	27.901
336.66	28.520
337.02	26.952
337.38	27.222
337.75	27.727
338.11	26.781
338.47	27.828
338.84	27.079
339.20	26.051
339.56	27.064
339.93	27.574
340.29	26.147
340.65	27.061
341.02	27.482
341.38	27.434
341.74	25.707
342.11	24.870
342.47	25.356
342.83	27.163
343.20	26.829
343.56	27.217
343.92	26.484
344.28	27.412
344.65	27.202
345.01	25.843
345.37	26.493
345.73	26.695
346.10	26.747
346.46	27.670
346.82	25.041
347.19	25.187
347.55	26.399
347.91	26.699
348.27	25.869
348.63	26.320
349.00	25.185
349.36	25.935
349.72	26.036
350.08	26.148
350.45	25.459
350.81	25.415
351.17	25.977
351.53	24.980
351.89	25.186
352.26	25.840
352.62	25.484
352.98	24.177
353.34	24.235
353.70	25.485
354.07	25.403
354.43	25.220
354.79	25.103
355.15	26.349
355.51	25.237
355.87	25.000
356.24	24.715
356.60	25.707
356.96	25.873
357.32	25.000
357.68	24.550
358.04	25.767
358.40	24.759
358.77	25.359
359.13	25.300
359.49	24.730
359.85	24.493
360.21	24.402
360.57	25.631
360.93	24.660
361.29	24.169
361.66	24.765
362.02	26.288
362.38	24.067
362.74	24.830
363.10	25.207
363.46	25.204
363.82	25.695
364.18	23.616
364.54	24.485
364.90	24.875
365.26	24.964
365.62	25.328
365.98	23.021
366.35	24.472
366.71	24.908
367.07	25.181
367.43	23.940
367.79	24.099
368.15	23.977
368.51	24.181
368.87	24.264
369.23	23.682
369.59	23.907
369.95	24.267
370.31	24.350
370.67	24.403
371.03	24.272
371.39	23.632
371.75	23.297
372.11	23.395
372.47	25.074
372.83	24.982
373.19	23.966
373.55	23.610
373.91	23.758
374.27	25.443
374.63	25.054
374.99	24.326
375.35	23.955
375.71	23.287
376.07	24.719
376.42	24.014
376.78	24.295
377.14	23.426
377.50	23.772
377.86	24.431
378.22	24.314
378.58	24.808
378.94	23.440
379.30	23.893
379.66	24.263
380.02	23.605
380.38	23.494
380.74	24.297
381.09	25.092
381.45	24.465
381.81	23.998
382.17	24.937
382.53	23.111
382.89	23.854
383.25	24.642
383.61	24.207
383.97	23.238
384.32	23.890
384.68	22.663
385.04	23.284
385.40	22.900
385.76	25.031
386.12	24.580
386.48	24.777
386.83	24.604
387.19	24.054
387.55	24.780
387.91	24.939
388.27	24.359
388.62	24.166
388.98	24.125
389.34	24.297
389.70	24.860
390.06	24.229
390.42	24.676
390.77	24.330
391.13	23.518
391.49	23.545
391.85	24.496
392.20	24.733
392.56	24.984
392.92	25.250
393.28	24.469
393.64	24.685
393.99	25.016
394.35	24.478
394.71	24.904
395.07	24.827
395.42	24.469
395.78	24.300
396.14	24.968
396.50	24.921
396.85	24.598
397.21	25.125
397.57	24.639
397.92	24.326
398.28	25.000
398.64	23.976
399.00	24.718
399.35	23.251
399.71	24.411
400.07	25.151
400.42	24.602
400.78	24.923
401.14	24.743
401.49	24.598
401.85	24.680
402.21	24.819
402.57	25.188
402.92	24.529
403.28	25.376
403.63	24.905
403.99	25.128
404.35	24.922
404.70	24.643
405.06	24.089
405.42	24.549
405.77	24.056
406.13	24.913
406.49	24.275
406.84	25.122
407.20	24.925
407.55	25.177
407.91	24.532
408.27	24.665
408.62	25.169
408.98	24.214
409.34	25.527
409.69	25.065
410.05	24.754
410.40	25.185
410.76	25.090
411.11	25.187
411.47	24.918
411.83	24.733
412.18	24.968
412.54	24.969
412.89	24.507
413.25	25.090
413.60	24.720
413.96	25.337
414.31	24.756
414.67	25.016
415.03	24.434
415.38	25.261
415.74	25.798
416.09	25.343
416.45	25.118
416.80	25.116
417.16	24.931
417.51	26.649
417.87	24.576
418.22	25.000
418.58	26.087
418.93	26.646
419.29	23.944
419.64	24.757
420.00	26.071
420.35	25.075
420.71	25.638
421.06	25.414
421.42	25.661
421.77	25.202
422.12	24.915
422.48	25.338
422.83	25.406
423.19	25.451
423.54	24.927
423.90	25.442
424.25	26.005
424.61	25.826
424.96	25.494
425.31	26.228
425.67	26.467
426.02	25.324
426.38	26.111
426.73	25.605
427.09	26.266
427.44	26.235
427.79	26.164
428.15	26.396
428.50	25.863
428.85	24.877
429.21	26.825
429.56	26.739
429.92	26.040
430.27	25.464
430.62	25.405
430.98	25.796
431.33	26.078
431.68	26.060
432.04	25.433
432.39	25.157
432.74	24.654
433.10	26.667
433.45	25.448
433.80	27.104
434.16	25.319
434.51	25.699
434.86	26.249
435.22	26.865
435.57	26.138
435.92	26.228
436.28	26.118
436.63	26.412
436.98	26.304
437.34	25.892
437.69	27.013
438.04	26.667
438.39	25.412
438.75	26.655
439.10	25.976
439.45	27.024
439.81	26.422
440.16	26.366
440.51	26.030
440.86	27.372
441.22	26.640
441.57	26.490
441.92	26.863
442.27	26.829
442.63	26.767
442.98	27.226
443.33	26.043
443.68	27.162
444.03	26.776
444.39	26.365
444.74	27.090
445.09	26.169
445.44	26.154
445.79	26.663
446.15	25.881
446.50	25.901
446.85	26.567
447.20	26.642
447.55	28.181
447.91	25.719
448.26	26.978
448.61	26.540
448.96	26.162
449.31	27.225
449.66	26.945
450.02	26.754
450.37	26.675
450.72	26.976
451.07	27.152
451.42	27.403
451.77	28.451
452.12	26.495
452.47	26.851
452.83	26.796
453.18	26.945
453.53	27.876
453.88	27.140
454.23	26.921
454.58	27.267
454.93	27.899
455.28	25.968
455.63	26.844
455.98	27.420
456.34	27.586
456.69	26.366
457.04	27.725
457.39	26.974
457.74	27.267
458.09	26.722
458.44	27.618
458.79	26.611
459.14	28.318
459.49	26.746
459.84	27.411
460.19	26.335
460.54	27.078
460.89	27.102
461.24	27.640
461.59	27.672
461.94	26.415
462.29	27.503
462.64	27.774
462.99	28.436
463.34	27.260
463.69	26.384
464.04	26.877
464.39	27.289
464.74	27.055
465.09	28.072
465.44	27.755
465.79	26.814
466.14	27.024
466.49	26.337
466.84	26.591
467.19	27.597
467.54	27.395
467.89	27.669
468.24	27.311
468.59	27.810
468.94	27.619
469.29	28.525
469.64	27.888
469.99	28.381
470.34	26.553
470.68	28.934
471.03	29.229
471.38	27.817
471.73	28.011
472.08	27.476
472.43	27.450
472.78	27.210
473.13	27.823
473.48	27.296
473.83	27.584
474.17	27.591
474.52	27.632
474.87	27.455
475.22	28.737
475.57	26.200
475.92	28.250
476.27	27.939
476.61	27.662
476.96	27.050
477.31	27.474
477.66	27.472
478.01	28.018
478.36	27.342
478.70	28.004
479.05	28.297
479.40	28.776
479.75	27.372
480.10	27.752
480.45	27.450
480.79	28.701
481.14	28.125
481.49	27.685
481.84	28.330
482.19	27.643
482.53	27.914
482.88	27.971
483.23	28.263
483.58	27.594
483.92	28.170
484.27	27.894
484.62	27.790
484.97	27.653
485.31	27.493
485.66	26.249
486.01	25.751
486.36	25.338
486.70	25.604
487.05	26.134
487.40	26.215
487.75	26.930
488.09	27.163
488.44	27.613
488.79	27.269
489.13	28.245
489.48	28.388
489.83	27.713
490.17	27.596
490.52	28.176
490.87	27.025
491.22	28.510
491.56	27.941
491.91	27.820
492.26	28.099
492.60	29.079
492.95	27.988
493.30	27.553
493.64	29.322
493.99	29.034
494.34	28.350
494.68	28.190
495.03	28.467
495.37	29.244
495.72	28.521
496.07	29.024
496.41	27.736
496.76	28.052
497.11	28.086
497.45	28.401
497.80	28.910
498.14	28.018
498.49	29.050
498.84	28.643
499.18	28.514
499.53	28.869
499.87	27.675
500.22	28.932
500.56	29.349
500.91	28.916
501.26	28.473
501.60	28.578
501.95	28.481
502.29	28.717
502.64	28.378
502.98	28.022
503.33	28.434
503.67	29.639
504.02	28.690
504.36	28.946
504.71	28.586
505.06	28.686
505.40	29.239
505.75	28.351
506.09	28.485
506.44	28.901
506.78	28.673
507.13	28.956
507.47	28.877
507.82	28.846
508.16	29.371
508.51	28.961
508.85	29.252
509.19	28.366
509.54	28.901
509.88	28.803
510.23	29.532
510.57	29.449
510.92	28.038
511.26	29.460
511.61	29.428
511.95	29.425
512.30	29.656
512.64	28.826
512.98	28.579
513.33	29.379
513.67	28.880
514.02	31.121
514.36	30.571
514.70	30.420
515.05	30.435
515.39	29.752
515.74	31.078
516.08	30.544
516.42	30.212
516.77	30.720
517.11	30.801
517.46	31.239
517.80	31.168
518.14	29.822
518.49	30.108
518.83	31.106
519.17	28.927
519.52	30.491
519.86	29.772
520.20	30.194
520.55	30.144
520.89	31.556
521.23	30.462
521.58	30.726
521.92	31.474
522.26	30.579
522.61	31.169
522.95	32.252
523.29	31.385
523.64	30.432
523.98	31.432
524.32	30.477
524.66	30.986
525.01	31.558
525.35	30.914
525.69	31.448
526.04	30.886
526.38	32.101
526.72	30.739
527.06	31.128
527.41	31.596
527.75	30.362
528.09	30.831
528.43	32.005
528.78	30.495
529.12	31.097
529.46	29.240
529.80	31.032
530.15	31.287
530.49	31.717
530.83	32.421
531.17	30.154
531.51	31.943
531.86	31.611
532.20	30.898
532.54	31.586
532.88	32.033
533.22	31.586
533.57	31.258
533.91	29.634
534.25	30.729
534.59	31.302
534.93	30.271
535.27	30.203
535.62	30.006
535.96	30.463
536.30	30.937
536.64	30.462
536.98	31.498
537.32	31.792
537.66	32.048
538.01	31.049
538.35	30.583
538.69	30.360
539.03	30.759
539.37	31.494
539.71	30.948
540.05	30.210
540.39	31.094
540.73	32.078
541.07	32.528
541.42	31.720
541.76	30.764
542.10	30.282
542.44	31.202
542.78	29.732
543.12	30.563
543.46	31.641
543.80	31.783
544.14	30.708
544.48	32.245
544.82	30.417
545.16	31.284
545.50	31.175
545.84	31.161
546.18	31.206
546.52	31.579
546.86	31.129
547.20	30.758
547.54	30.530
547.88	31.046
548.22	30.440
548.56	30.409
548.90	30.323
549.24	30.372
549.58	32.087
549.92	29.878
550.26	31.062
550.60	31.004
550.94	31.516
551.28	31.221
551.62	31.615
551.96	31.429
552.30	32.164
552.64	31.171
552.98	31.364
553.32	31.241
553.66	31.060
554.00	30.584
554.34	30.428
554.68	31.490
555.02	31.473
555.36	31.937
555.69	30.623
556.03	29.764
556.37	31.032
556.71	30.903
557.05	31.842
557.39	31.450
557.73	31.709
558.07	31.976
558.41	31.623
558.75	31.645
559.08	32.861
559.42	31.984
559.76	32.186
560.10	31.728
560.44	31.646
560.78	31.399
561.12	31.312
561.45	32.607
561.79	30.252
562.13	31.441
562.47	31.223
562.81	31.556
563.15	30.677
563.48	30.905
563.82	30.885
564.16	31.407
564.50	30.405
564.84	30.656
565.17	30.382
565.51	30.464
565.85	31.824
566.19	30.769
566.52	31.166
566.86	32.584
567.20	29.390
567.54	30.049
567.88	29.818
568.21	31.165
568.55	30.163
568.89	30.031
569.23	29.995
569.56	28.853
569.90	29.963
570.24	28.359
570.57	28.582
570.91	28.581
571.25	27.261
571.59	27.219
571.92	26.519
572.26	27.506
572.60	27.132
572.93	27.487
573.27	27.649
573.61	27.208
573.95	26.816
574.28	26.986
574.62	26.112
574.96	26.527
575.29	26.754
575.63	26.354
575.97	26.457
576.30	26.792
576.64	26.490
576.98	26.770
577.31	26.812
577.65	26.789
577.98	26.564
578.32	26.152
578.66	26.327
578.99	26.065
579.33	26.080
579.67	26.318
580.00	26.582
580.34	27.040
580.67	26.533
581.01	26.801
581.35	26.357
581.68	26.294
582.02	25.876
582.35	26.202
582.69	26.159
583.02	26.469
583.36	26.686
583.70	27.077
584.03	27.245
584.37	28.035
584.70	27.280
585.04	26.839
585.37	26.486
585.71	26.635
586.04	26.425
586.38	26.594
586.72	27.088
587.05	27.065
587.39	27.230
587.72	27.283
588.06	26.931
588.39	26.944
588.73	27.015
589.06	27.919
589.40	27.860
589.73	27.966
590.07	28.134
590.40	28.599
590.73	28.913
591.07	28.075
591.40	29.519
591.74	28.643
592.07	28.479
592.41	29.108
592.74	28.355
593.08	26.720
593.41	26.919
593.75	26.627
594.08	27.154
594.41	27.547
594.75	26.679
595.08	27.696
595.42	27.236
595.75	27.976
596.09	27.991
596.42	27.656
596.75	28.020
597.09	28.519
597.42	28.907
597.75	27.989
598.09	27.931
598.42	27.933
598.76	27.585
599.09	27.083
599.42	27.473
599.76	27.239
600.09	26.848
600.42	27.597
600.76	27.415
601.09	26.870
601.42	27.184
601.76	27.312
602.09	27.351
602.42	28.475
602.76	28.098
603.09	28.405
603.42	28.303
603.76	26.532
604.09	28.352
604.42	28.130
604.76	28.660
605.09	28.336
605.42	28.713
605.75	27.408
606.09	27.643
606.42	27.815
606.75	28.225
607.09	27.429
607.42	28.135
607.75	27.620
608.08	27.538
608.42	27.410
608.75	28.386
609.08	28.102
609.41	29.086
609.75	27.520
610.08	28.407
610.41	27.391
610.74	28.913
611.07	28.734
611.41	28.957
611.74	28.998
612.07	28.640
612.40	29.212
612.73	29.379
613.07	28.909
613.40	29.540
613.73	29.211
614.06	28.770
614.39	29.160
614.72	28.796
615.06	28.547
615.39	28.876
615.72	28.579
616.05	29.050
616.38	28.376
616.71	30.031
617.05	29.092
617.38	29.227
617.71	29.623
618.04	30.413
618.37	29.067
618.70	30.231
619.03	30.347
619.36	29.450
619.69	31.463
620.03	31.264
620.36	30.329
620.69	30.478
621.02	29.893
621.35	30.788
621.68	32.313
622.01	31.917
622.34	31.604
622.67	31.309
623.00	30.704
623.33	30.488
623.66	30.965
623.99	30.787
624.32	31.179
624.65	30.000
624.99	31.076
625.32	30.402
625.65	32.443
625.98	31.990
626.31	31.505
626.64	31.629
626.97	31.675
627.30	32.574
627.63	32.149
627.96	31.536
628.29	31.915
628.62	32.547
628.95	32.064
629.28	32.661
629.61	31.306
629.94	33.333
630.26	32.806
630.59	33.507
630.92	32.513
631.25	31.897
631.58	32.048
631.91	34.539
632.24	32.913
632.57	35.682
632.90	34.638
633.23	35.412
633.56	34.509
633.89	33.662
