SpectraSuite Data File
++++++++++++++++++++++++++++++++++++
Date: Fri May 15 17:16:10 PDT 2015
User: schluterlab
Dark Spectrum Present: Yes
Reference Spectrum Present: Yes
Number of Sampled Component Spectra: 1
Spectrometers: USB2E3373
Integration Time (usec): 3000 (USB2E3373)
Spectra Averaged: 3 (USB2E3373)
Boxcar Smoothing: 0 (USB2E3373)
Correct for Electrical Dark: No (USB2E3373)
Strobe/Lamp Enabled: No (USB2E3373)
Correct for Detector Non-linearity: No (USB2E3373)
Correct for Stray Light: No (USB2E3373)
Number of Pixels in Processed Spectrum: 2048
>>>>>Begin Processed Spectral Data<<<<<
178.53	0.000
178.91	0.000
179.29	200.000
179.67	-400.000
180.04	-42.857
180.42	25.000
180.80	500.000
181.18	66.667
181.56	200.000
181.94	500.000
182.31	100.000
182.69	220.000
183.07	133.333
183.45	-40.000
183.83	16.667
184.20	45.455
184.58	133.333
184.96	-275.000
185.34	-133.333
185.72	-150.000
186.09	46.154
186.47	100.000
186.85	-100.000
187.23	22.222
187.61	-500.000
187.98	133.333
188.36	22.222
188.74	233.333
189.12	64.706
189.49	105.556
189.87	0.000
190.25	114.286
190.63	300.000
191.00	-66.667
191.38	31.579
191.76	400.000
192.14	-75.000
192.51	100.000
192.89	-77.778
193.27	-42.857
193.65	83.333
194.02	109.091
194.40	70.000
194.78	-12.500
195.15	-16.667
195.53	-37.500
195.91	25.000
196.29	25.000
196.66	23.077
197.04	-14.286
197.42	-11.111
197.79	-100.000
198.17	46.154
198.55	300.000
198.92	100.000
199.30	700.000
199.68	-80.000
200.05	-200.000
200.43	0.000
200.81	133.333
201.18	500.000
201.56	200.000
201.94	-50.000
202.31	33.333
202.69	60.000
203.07	-200.000
203.44	300.000
203.82	0.000
204.19	150.000
204.57	-266.667
204.95	-50.000
205.32	110.000
205.70	28.571
206.08	-25.000
206.45	311.111
206.83	164.286
207.20	0.000
207.58	100.000
207.96	66.667
208.33	-30.000
208.71	200.000
209.08	-50.000
209.46	500.000
209.84	-40.000
210.21	-100.000
210.59	85.714
210.96	116.667
211.34	250.000
211.71	100.000
212.09	-71.429
212.46	-900.000
212.84	0.000
213.22	120.000
213.59	-500.000
213.97	38.462
214.34	136.364
214.72	150.000
215.09	75.000
215.47	30.769
215.84	45.455
216.22	66.667
216.59	87.500
216.97	250.000
217.34	125.000
217.72	-60.000
218.09	137.500
218.47	-37.500
218.84	1000.000
219.22	11.111
219.59	40.000
219.97	266.667
220.34	175.000
220.72	14.286
221.09	25.000
221.47	350.000
221.84	-100.000
222.22	-650.000
222.59	118.182
222.97	-16.667
223.34	-133.333
223.72	28.571
224.09	66.667
224.46	57.143
224.84	133.333
225.21	70.000
225.59	20.000
225.96	250.000
226.34	-25.000
226.71	85.714
227.08	83.333
227.46	62.500
227.83	-250.000
228.21	155.556
228.58	36.364
228.95	187.500
229.33	-20.000
229.70	37.500
230.08	-12.500
230.45	71.429
230.82	71.429
231.20	-6.667
231.57	85.714
231.95	71.429
232.32	-10.000
232.69	107.143
233.07	200.000
233.44	-20.000
233.81	-20.000
234.19	122.222
234.56	17.647
234.93	250.000
235.31	275.000
235.68	-40.000
236.05	23.077
236.43	20.000
236.80	105.882
237.17	65.625
237.55	40.000
237.92	48.148
238.29	13.889
238.67	60.000
239.04	47.059
239.41	39.024
239.79	50.000
240.16	48.780
240.53	21.053
240.91	21.739
241.28	39.683
241.65	78.571
242.02	49.315
242.40	41.667
242.77	45.763
243.14	42.424
243.51	35.000
243.89	51.724
244.26	35.632
244.63	34.524
245.00	42.268
245.38	65.979
245.75	37.079
246.12	46.552
246.49	33.058
246.87	40.385
247.24	41.176
247.61	34.211
247.98	46.341
248.36	36.875
248.73	46.711
249.10	27.273
249.47	43.038
249.84	40.523
250.22	41.765
250.59	41.830
250.96	40.845
251.33	38.953
251.70	47.059
252.08	39.086
252.45	40.594
252.82	39.698
253.19	44.240
253.56	37.850
253.94	40.991
254.31	36.522
254.68	42.105
255.05	35.039
255.42	43.668
255.79	42.857
256.16	40.856
256.54	43.284
256.91	38.403
257.28	38.662
257.65	38.577
258.02	41.489
258.39	37.037
258.76	39.927
259.14	39.535
259.51	38.188
259.88	40.206
260.25	38.235
260.62	41.319
260.99	37.627
261.36	37.329
261.73	37.342
262.10	38.906
262.47	36.503
262.85	39.498
263.22	39.385
263.59	42.368
263.96	38.820
264.33	39.091
264.70	37.798
265.07	36.310
265.44	40.510
265.81	42.090
266.18	37.432
266.55	36.504
266.92	38.083
267.29	36.815
267.66	39.130
268.03	40.314
268.40	39.687
268.77	40.642
269.14	35.731
269.51	40.360
269.88	37.656
270.25	41.837
270.62	36.585
270.99	38.875
271.36	37.653
271.73	39.202
272.10	37.956
272.47	38.061
272.84	37.871
273.21	36.659
273.58	39.036
273.95	37.300
274.32	38.337
274.69	35.294
275.06	37.946
275.43	37.188
275.80	40.397
276.17	37.471
276.54	38.330
276.91	36.842
277.28	39.083
277.65	38.223
278.02	37.234
278.39	38.512
278.76	36.897
279.13	34.855
279.50	36.765
279.87	37.581
280.23	35.054
280.60	33.723
280.97	37.172
281.34	34.615
281.71	40.862
282.08	34.151
282.45	34.051
282.82	36.293
283.19	32.302
283.56	35.645
283.92	31.879
284.29	34.423
284.66	32.558
285.03	35.167
285.40	34.405
285.77	32.865
286.14	33.574
286.51	37.085
286.87	31.079
287.24	32.781
287.61	33.510
287.98	33.860
288.35	31.196
288.72	33.275
289.08	32.986
289.45	33.568
289.82	33.741
290.19	30.717
290.56	31.561
290.93	32.660
291.29	30.354
291.66	31.181
292.03	31.898
292.40	31.613
292.77	29.027
293.13	30.844
293.50	28.225
293.87	30.229
294.24	29.675
294.60	28.018
294.97	27.530
295.34	26.687
295.71	26.975
296.08	26.906
296.44	26.458
296.81	25.833
297.18	27.826
297.55	27.778
297.91	27.397
298.28	26.385
298.65	27.815
299.02	26.415
299.38	24.350
299.75	25.241
300.12	24.607
300.48	26.219
300.85	24.968
301.22	25.065
301.59	24.211
301.95	25.823
302.32	26.329
302.69	25.746
303.05	25.743
303.42	24.658
303.79	25.234
304.15	23.178
304.52	24.019
304.89	24.211
305.25	24.455
305.62	22.520
305.99	22.339
306.35	24.624
306.72	21.710
307.09	24.173
307.45	23.536
307.82	22.917
308.19	24.971
308.55	23.446
308.92	26.362
309.29	22.346
309.65	22.282
310.02	22.552
310.38	23.271
310.75	25.574
311.12	23.789
311.48	23.330
311.85	24.188
312.22	22.996
312.58	22.824
312.95	22.092
313.31	23.292
313.68	23.979
314.05	21.939
314.41	23.814
314.78	23.299
315.14	24.049
315.51	24.327
315.87	22.541
316.24	25.177
316.61	24.311
316.97	25.397
317.34	23.633
317.70	25.143
318.07	24.519
318.43	25.490
318.80	25.284
319.16	25.781
319.53	26.686
319.89	26.476
320.26	26.721
320.62	28.485
320.99	28.392
321.35	27.544
321.72	29.491
322.08	30.010
322.45	29.543
322.81	29.764
323.18	30.128
323.54	30.598
323.91	31.353
324.27	33.887
324.64	34.176
325.00	34.489
325.37	36.088
325.73	35.993
326.10	37.784
326.46	38.924
326.83	39.020
327.19	40.279
327.56	39.618
327.92	40.845
328.29	42.054
328.65	44.623
329.01	44.669
329.38	44.977
329.74	46.270
330.11	46.988
330.47	48.516
330.84	48.077
331.20	49.715
331.56	48.056
331.93	51.689
332.29	52.521
332.66	49.774
333.02	51.022
333.38	50.596
333.75	53.297
334.11	52.372
334.48	53.309
334.84	53.938
335.20	53.248
335.57	52.584
335.93	52.846
336.29	56.077
336.66	55.041
337.02	55.297
337.38	53.611
337.75	55.545
338.11	55.996
338.47	55.748
338.84	56.747
339.20	55.667
339.56	57.156
339.93	55.953
340.29	56.881
340.65	56.720
341.02	55.408
341.38	56.549
341.74	56.802
342.11	55.806
342.47	56.762
342.83	56.228
343.20	56.533
343.56	56.174
343.92	56.776
344.28	56.618
344.65	54.836
345.01	57.822
345.37	56.013
345.73	56.736
346.10	57.981
346.46	56.854
346.82	56.219
347.19	56.359
347.55	57.728
347.91	58.252
348.27	56.912
348.63	56.985
349.00	57.506
349.36	57.107
349.72	58.624
350.08	58.197
350.45	56.664
350.81	56.645
351.17	55.619
351.53	57.878
351.89	55.574
352.26	57.440
352.62	56.935
352.98	56.627
353.34	56.683
353.70	58.091
354.07	57.258
354.43	56.685
354.79	57.638
355.15	57.778
355.51	58.544
355.87	58.172
356.24	57.423
356.60	58.933
356.96	58.333
357.32	58.546
357.68	57.232
358.04	60.016
358.40	59.084
358.77	57.735
359.13	59.247
359.49	56.934
359.85	58.658
360.21	59.330
360.57	56.924
360.93	59.304
361.29	57.251
361.66	59.953
362.02	59.470
362.38	59.634
362.74	61.317
363.10	61.174
363.46	59.970
363.82	61.307
364.18	59.410
364.54	59.265
364.90	60.215
365.26	59.461
365.62	62.336
365.98	62.610
366.35	62.200
366.71	60.976
367.07	62.264
367.43	61.179
367.79	61.837
368.15	62.527
368.51	63.074
368.87	62.240
369.23	62.022
369.59	64.504
369.95	63.856
370.31	63.150
370.67	62.388
371.03	64.078
371.39	63.676
371.75	63.736
372.11	63.267
372.47	63.757
372.83	64.727
373.19	64.408
373.55	61.949
373.91	64.363
374.27	66.052
374.63	66.260
374.99	64.823
375.35	66.365
375.71	65.594
376.07	67.556
376.42	66.667
376.78	66.040
377.14	66.622
377.50	67.596
377.86	67.336
378.22	68.411
378.58	67.628
378.94	67.864
379.30	66.438
379.66	68.966
380.02	67.443
380.38	68.229
380.74	68.163
381.09	70.184
381.45	68.624
381.81	69.833
382.17	69.226
382.53	70.331
382.89	71.375
383.25	70.753
383.61	72.195
383.97	71.556
384.32	70.607
384.68	72.384
385.04	71.814
385.40	71.562
385.76	73.585
386.12	73.221
386.48	73.499
386.83	72.923
387.19	72.527
387.55	74.906
387.91	75.367
388.27	73.321
388.62	75.016
388.98	74.770
389.34	75.953
389.70	74.643
390.06	73.317
390.42	76.101
390.77	77.109
391.13	74.275
391.49	76.843
391.85	76.283
392.20	75.455
392.56	76.860
392.92	77.217
393.28	76.179
393.64	76.517
393.99	78.307
394.35	77.609
394.71	77.395
395.07	75.361
395.42	76.260
395.78	77.394
396.14	76.482
396.50	78.503
396.85	78.751
397.21	77.882
397.57	77.743
397.92	78.191
398.28	78.793
398.64	78.133
399.00	79.515
399.35	78.555
399.71	77.369
400.07	78.235
400.42	77.417
400.78	78.996
401.14	77.616
401.49	79.154
401.85	78.123
402.21	78.614
402.57	79.500
402.92	78.356
403.28	78.634
403.63	80.139
403.99	80.230
404.35	79.950
404.70	77.917
405.06	78.320
405.42	79.180
405.77	78.966
406.13	78.987
406.49	78.034
406.84	79.279
407.20	79.530
407.55	78.364
407.91	78.743
408.27	79.095
408.62	79.323
408.98	79.606
409.34	79.244
409.69	78.101
410.05	78.325
410.40	79.259
410.76	80.519
411.11	80.062
411.47	78.107
411.83	80.038
412.18	80.631
412.54	77.840
412.89	78.387
413.25	80.084
413.60	80.311
413.96	78.589
414.31	79.512
414.67	79.346
415.03	77.896
415.38	79.308
415.74	80.261
416.09	79.491
416.45	79.001
416.80	79.775
417.16	82.182
417.51	79.280
417.87	77.966
418.22	81.736
418.58	81.271
418.93	80.439
419.29	79.449
419.64	81.141
420.00	82.116
420.35	80.060
420.71	82.382
421.06	81.768
421.42	82.692
421.77	83.468
422.12	82.406
422.48	82.133
422.83	80.800
423.19	83.014
423.54	83.245
423.90	80.801
424.25	82.606
424.61	83.170
424.96	82.927
425.31	84.575
425.67	84.683
426.02	84.452
426.38	84.033
426.73	84.867
427.09	83.608
427.44	84.118
427.79	84.502
428.15	83.434
428.50	84.252
428.85	83.968
429.21	83.758
429.56	86.199
429.92	84.129
430.27	84.561
430.62	85.363
430.98	85.881
431.33	86.383
431.68	83.778
432.04	86.361
432.39	84.084
432.74	83.403
433.10	86.149
433.45	85.544
433.80	87.348
434.16	86.704
434.51	86.398
434.86	86.469
435.22	85.979
435.57	86.900
435.92	88.383
436.28	86.404
436.63	86.423
436.98	87.196
437.34	87.175
437.69	88.491
438.04	87.236
438.39	87.111
438.75	88.646
439.10	87.153
439.45	89.714
439.81	87.523
440.16	91.033
440.51	88.000
440.86	90.514
441.22	87.726
441.57	90.508
441.92	91.291
442.27	91.741
442.63	89.561
442.98	89.029
443.33	87.590
443.68	89.867
444.03	90.512
444.39	90.802
444.74	91.360
445.09	91.147
445.44	91.567
445.79	92.728
446.15	88.987
446.50	91.126
446.85	91.605
447.20	90.876
447.55	91.853
447.91	90.130
448.26	91.577
448.61	91.192
448.96	93.058
449.31	92.081
449.66	92.393
450.02	92.356
450.37	92.887
450.72	89.347
451.07	91.203
451.42	91.823
451.77	91.139
452.12	92.524
452.47	91.243
452.83	91.637
453.18	91.082
453.53	92.035
453.88	91.318
454.23	91.825
454.58	92.191
454.93	91.559
455.28	88.825
455.63	91.259
455.98	91.942
456.34	90.230
456.69	90.915
457.04	91.871
457.39	91.312
457.74	92.987
458.09	89.347
458.44	91.223
458.79	92.661
459.14	91.705
459.49	91.284
459.84	90.355
460.19	91.566
460.54	90.587
460.89	92.159
461.24	92.422
461.59	91.271
461.94	89.686
462.29	91.677
462.64	89.967
462.99	89.844
463.34	90.195
463.69	90.734
464.04	91.344
464.39	92.420
464.74	91.472
465.09	91.890
465.44	91.806
465.79	89.456
466.14	90.764
466.49	89.822
466.84	91.077
467.19	89.549
467.54	88.378
467.89	89.514
468.24	88.747
468.59	91.048
468.94	87.746
469.29	88.328
469.64	89.337
469.99	90.540
470.34	88.191
470.68	89.485
471.03	87.757
471.38	88.730
471.73	87.535
472.08	87.313
472.43	87.450
472.78	88.828
473.13	89.592
473.48	88.143
473.83	86.488
474.17	89.054
474.52	88.832
474.87	88.667
475.22	89.445
475.57	87.916
475.92	90.016
476.27	87.253
476.61	89.410
476.96	86.392
477.31	86.209
477.66	87.135
478.01	87.704
478.36	87.745
478.70	88.472
479.05	86.978
479.40	86.433
479.75	85.245
480.10	87.762
480.45	87.750
480.79	88.771
481.14	88.678
481.49	86.995
481.84	89.093
482.19	86.857
482.53	86.427
482.88	85.871
483.23	85.509
483.58	86.132
483.92	86.157
484.27	85.871
484.62	85.926
484.97	86.318
485.31	88.259
485.66	90.596
486.01	93.361
486.36	91.838
486.70	90.144
487.05	90.038
487.40	87.746
487.75	87.887
488.09	86.125
488.44	85.076
488.79	84.199
489.13	85.377
489.48	85.421
489.83	86.323
490.17	83.416
490.52	83.695
490.87	82.277
491.22	85.291
491.56	83.586
491.91	82.027
492.26	83.228
492.60	83.349
492.95	83.128
493.30	81.876
493.64	84.528
493.99	84.010
494.34	83.107
494.68	83.714
495.03	82.530
495.37	83.366
495.72	83.392
496.07	84.293
496.41	83.255
496.76	83.326
497.11	82.347
497.45	82.673
497.80	81.584
498.14	82.166
498.49	82.224
498.84	81.687
499.18	83.434
499.53	82.490
499.87	82.004
500.22	82.542
500.56	82.400
500.91	82.229
501.26	82.353
501.60	81.604
501.95	82.145
502.29	82.373
502.64	82.432
502.98	83.572
503.33	81.796
503.67	81.349
504.02	82.209
504.36	82.731
504.71	81.162
505.06	79.416
505.40	81.066
505.75	81.753
506.09	80.639
506.44	81.930
506.78	81.531
507.13	80.403
507.47	78.851
507.82	80.983
508.16	80.243
508.51	81.742
508.85	81.476
509.19	80.841
509.54	79.249
509.88	79.558
510.23	80.581
510.57	80.866
510.92	78.571
511.26	80.851
511.61	81.573
511.95	80.603
512.30	78.437
512.64	77.796
512.98	79.001
513.33	79.239
513.67	79.079
514.02	80.835
514.36	80.000
514.70	81.876
515.05	79.201
515.39	77.332
515.74	80.299
516.08	79.259
516.42	79.682
516.77	80.105
517.11	79.763
517.46	79.174
517.80	78.546
518.14	78.322
518.49	77.284
518.83	78.007
519.17	77.926
519.52	77.442
519.86	77.311
520.20	78.068
520.55	77.361
520.89	78.294
521.23	77.517
521.58	77.792
521.92	77.949
522.26	76.383
522.61	78.117
522.95	79.536
523.29	76.938
523.64	77.510
523.98	78.224
524.32	77.964
524.66	76.825
525.01	77.208
525.35	74.919
525.69	78.384
526.04	75.331
526.38	77.821
526.72	74.297
527.06	75.227
527.41	75.858
527.75	76.139
528.09	75.947
528.43	77.718
528.78	76.634
529.12	76.581
529.46	79.207
529.80	75.554
530.15	76.172
530.49	77.239
530.83	77.633
531.17	76.293
531.51	76.744
531.86	75.663
532.20	75.852
532.54	75.902
532.88	76.865
533.22	76.277
533.57	76.671
533.91	78.264
534.25	78.516
534.59	76.844
534.93	76.526
535.27	77.094
535.62	77.447
535.96	77.430
536.30	76.715
536.64	76.568
536.98	75.679
537.32	78.307
537.66	76.648
538.01	77.692
538.35	77.046
538.69	74.767
539.03	76.897
539.37	76.447
539.71	76.687
540.05	75.492
540.39	76.385
540.73	75.244
541.07	78.867
541.42	76.546
541.76	76.875
542.10	77.013
542.44	77.067
542.78	75.017
543.12	77.335
543.46	76.704
543.80	75.989
544.14	75.167
544.48	77.015
544.82	76.828
545.16	77.801
545.50	76.702
545.84	78.116
546.18	77.234
546.52	76.208
546.86	77.283
547.20	75.322
547.54	76.608
547.88	78.397
548.22	76.331
548.56	76.781
548.90	77.022
549.24	76.997
549.58	76.305
549.92	75.054
550.26	75.092
550.60	76.431
550.94	74.981
551.28	76.584
551.62	76.846
551.96	77.143
552.30	76.243
552.64	76.728
552.98	75.457
553.32	75.321
553.66	75.472
554.00	76.642
554.34	75.997
554.68	74.779
555.02	76.116
555.36	75.841
555.69	76.264
556.03	75.232
556.37	75.872
556.71	76.101
557.05	75.839
557.39	74.721
557.73	74.738
558.07	76.320
558.41	75.038
558.75	75.838
559.08	74.704
559.42	75.794
559.76	75.741
560.10	75.917
560.44	76.620
560.78	74.755
561.12	78.068
561.45	78.637
561.79	77.731
562.13	77.431
562.47	76.763
562.81	75.720
563.15	74.965
563.48	76.803
563.82	76.115
564.16	78.203
564.50	75.541
564.84	77.376
565.17	76.660
565.51	79.167
565.85	78.601
566.19	76.592
566.52	78.753
566.86	78.213
567.20	79.701
567.54	81.144
567.88	82.835
568.21	81.109
568.55	81.250
568.89	83.162
569.23	83.630
569.56	82.049
569.90	85.668
570.24	83.625
570.57	86.509
570.91	85.640
571.25	84.873
571.59	83.899
571.92	83.881
572.26	85.085
572.60	83.721
572.93	83.778
573.27	84.169
573.61	85.024
573.95	86.483
574.28	85.408
574.62	85.177
574.96	84.468
575.29	84.907
575.63	82.146
575.97	83.735
576.30	84.369
576.64	83.232
576.98	86.512
577.31	86.655
577.65	86.399
577.98	87.046
578.32	86.674
578.66	84.526
578.99	84.909
579.33	83.437
579.67	82.993
580.00	84.835
580.34	84.876
580.67	83.877
581.01	85.711
581.35	86.585
581.68	86.400
582.02	87.392
582.35	86.444
582.69	86.638
583.02	85.516
583.36	85.096
583.70	85.618
584.03	85.599
584.37	86.166
584.70	85.385
585.04	84.948
585.37	85.799
585.71	86.621
586.04	85.981
586.38	85.970
586.72	85.624
587.05	85.991
587.39	86.721
587.72	87.890
588.06	86.742
588.39	86.727
588.73	86.813
589.06	86.204
589.40	84.100
589.73	85.469
590.07	84.781
590.40	85.062
590.73	86.614
591.07	83.715
591.40	83.660
591.74	84.027
592.07	83.813
592.41	85.027
592.74	86.061
593.08	84.701
593.41	86.820
593.75	86.097
594.08	84.964
594.41	84.425
594.75	84.580
595.08	85.358
595.42	86.088
595.75	86.932
596.09	85.887
596.42	84.456
596.75	84.725
597.09	82.870
597.42	83.785
597.75	85.570
598.09	81.847
598.42	83.800
598.76	84.084
599.09	84.816
599.42	83.933
599.76	84.725
600.09	84.955
600.42	84.572
600.76	84.993
601.09	84.313
601.42	84.841
601.76	84.994
602.09	85.355
602.42	85.510
602.76	85.441
603.09	86.669
603.42	88.043
603.76	85.605
604.09	85.460
604.42	85.406
604.76	86.159
605.09	84.918
605.42	84.605
605.75	85.026
606.09	85.180
606.42	84.946
606.75	84.242
607.09	84.703
607.42	84.183
607.75	84.103
608.08	83.827
608.42	81.453
608.75	84.193
609.08	85.650
609.41	84.416
609.75	83.669
610.08	84.074
610.41	83.623
610.74	83.423
611.07	84.289
611.41	84.120
611.74	85.181
612.07	82.923
612.40	84.136
612.73	83.559
613.07	84.027
613.40	83.972
613.73	84.387
614.06	82.972
614.39	83.813
614.72	84.090
615.06	82.905
615.39	84.225
615.72	82.508
616.05	83.408
616.38	81.595
616.71	83.303
617.05	81.594
617.38	82.338
617.71	82.201
618.04	83.810
618.37	83.607
618.70	82.574
619.03	82.917
619.36	81.187
619.69	82.866
620.03	82.907
620.36	82.403
620.69	82.227
621.02	79.434
621.35	80.249
621.68	80.782
622.01	80.167
622.34	80.846
622.67	79.890
623.00	80.551
623.33	82.546
623.66	82.274
623.99	79.274
624.32	80.837
624.65	81.955
624.99	82.017
625.32	80.516
625.65	81.068
625.98	80.258
626.31	78.886
626.64	80.936
626.97	80.803
627.30	79.422
627.63	80.503
627.96	79.605
628.29	77.428
628.62	77.286
628.95	78.156
629.28	78.730
629.61	77.866
629.94	77.908
630.26	77.273
630.59	79.084
630.92	79.590
631.25	75.897
631.58	77.863
631.91	77.083
632.24	77.064
632.57	77.500
632.90	77.224
633.23	75.412
633.56	78.589
633.89	75.462
