SpectraSuite Data File
++++++++++++++++++++++++++++++++++++
Date: Fri May 15 20:04:59 PDT 2015
User: schluterlab
Dark Spectrum Present: Yes
Reference Spectrum Present: Yes
Number of Sampled Component Spectra: 1
Spectrometers: USB2E3373
Integration Time (usec): 3000 (USB2E3373)
Spectra Averaged: 3 (USB2E3373)
Boxcar Smoothing: 0 (USB2E3373)
Correct for Electrical Dark: No (USB2E3373)
Strobe/Lamp Enabled: No (USB2E3373)
Correct for Detector Non-linearity: No (USB2E3373)
Correct for Stray Light: No (USB2E3373)
Number of Pixels in Processed Spectrum: 2048
>>>>>Begin Processed Spectral Data<<<<<
178.53	0.000
178.91	0.000
179.29	62.500
179.67	-250.000
180.04	-0.000
180.42	-150.000
180.80	-500.000
181.18	-100.000
181.56	100.000
181.94	-100.000
182.31	800.000
182.69	-40.000
183.07	-166.667
183.45	-120.000
183.83	33.333
184.20	45.455
184.58	111.111
184.96	-100.000
185.34	-33.333
185.72	-50.000
186.09	61.538
186.47	-300.000
186.85	66.667
187.23	55.556
187.61	-0.000
187.98	-166.667
188.36	66.667
188.74	-33.333
189.12	-23.529
189.49	33.333
189.87	0.000
190.25	35.714
190.63	250.000
191.00	-133.333
191.38	57.895
191.76	500.000
192.14	125.000
192.51	50.000
192.89	-55.556
193.27	-114.286
193.65	200.000
194.02	81.818
194.40	60.000
194.78	-112.500
195.15	0.000
195.53	-100.000
195.91	325.000
196.29	25.000
196.66	15.385
197.04	128.571
197.42	44.444
197.79	-266.667
198.17	-107.692
198.55	600.000
198.92	-266.667
199.30	200.000
199.68	60.000
200.05	-400.000
200.43	0.000
200.81	-166.667
201.18	-233.333
201.56	900.000
201.94	350.000
202.31	-0.000
202.69	-100.000
203.07	175.000
203.44	0.000
203.82	0.000
204.19	35.714
204.57	-366.667
204.95	187.500
205.32	60.000
205.70	28.571
206.08	-75.000
206.45	188.889
206.83	42.857
207.20	-42.857
207.58	200.000
207.96	-400.000
208.33	-160.000
208.71	-150.000
209.08	-83.333
209.46	-1000.000
209.84	-120.000
210.21	-300.000
210.59	171.429
210.96	-66.667
211.34	-75.000
211.71	46.667
212.09	-142.857
212.46	-1800.000
212.84	0.000
213.22	140.000
213.59	50.000
213.97	92.308
214.34	-36.364
214.72	-66.667
215.09	200.000
215.47	0.000
215.84	-27.273
216.22	-266.667
216.59	-12.500
216.97	0.000
217.34	50.000
217.72	-240.000
218.09	12.500
218.47	150.000
218.84	-1100.000
219.22	0.000
219.59	120.000
219.97	233.333
220.34	200.000
220.72	-114.286
221.09	-150.000
221.47	0.000
221.84	-400.000
222.22	-950.000
222.59	63.636
222.97	8.333
223.34	-100.000
223.72	-28.571
224.09	19.048
224.46	14.286
224.84	300.000
225.21	-10.000
225.59	40.000
225.96	200.000
226.34	450.000
226.71	-28.571
227.08	50.000
227.46	37.500
227.83	-300.000
228.21	-44.444
228.58	36.364
228.95	87.500
229.33	70.000
229.70	18.750
230.08	-50.000
230.45	-157.143
230.82	0.000
231.20	-13.333
231.57	85.714
231.95	-85.714
232.32	-100.000
232.69	7.143
233.07	-100.000
233.44	-120.000
233.81	-90.000
234.19	11.111
234.56	17.647
234.93	750.000
235.31	250.000
235.68	-340.000
236.05	-53.846
236.43	-25.000
236.80	-11.765
237.17	6.250
237.55	-10.000
237.92	-11.111
238.29	-11.111
238.67	6.667
239.04	-14.706
239.41	-39.024
239.79	-30.000
240.16	19.512
240.53	0.000
240.91	-23.913
241.28	-11.111
241.65	12.500
242.02	8.219
242.40	-8.333
242.77	-6.780
243.14	-15.152
243.51	-11.250
243.89	8.046
244.26	-3.448
244.63	-10.714
245.00	-2.062
245.38	7.216
245.75	-13.483
246.12	-6.897
246.49	4.959
246.87	-7.692
247.24	-10.924
247.61	-7.895
247.98	-0.813
248.36	-1.250
248.73	0.000
249.10	-1.948
249.47	3.165
249.84	-6.536
250.22	1.765
250.59	0.654
250.96	0.469
251.33	-6.977
251.70	-2.941
252.08	0.000
252.45	-1.980
252.82	-3.518
253.19	0.461
253.56	-7.009
253.94	-6.306
254.31	-0.435
254.68	-3.509
255.05	-1.181
255.42	-1.747
255.79	-1.158
256.16	-2.335
256.54	-1.119
256.91	-1.141
257.28	0.000
257.65	-5.618
258.02	-0.355
258.39	-0.337
258.76	1.465
259.14	0.000
259.51	0.324
259.88	-1.375
260.25	-0.980
260.62	-0.347
260.99	-6.102
261.36	-5.822
261.73	-1.266
262.10	0.608
262.47	-0.613
262.85	-0.940
263.22	-1.231
263.59	0.000
263.96	1.242
264.33	0.606
264.70	-3.274
265.07	-4.167
265.44	-0.567
265.81	0.565
266.18	-1.639
266.55	1.542
266.92	0.259
267.29	-1.044
267.66	-1.279
268.03	0.000
268.40	-2.611
268.77	1.337
269.14	1.439
269.51	0.000
269.88	-0.249
270.25	-1.531
270.62	0.488
270.99	-3.069
271.36	-2.445
271.73	-0.235
272.10	-0.730
272.47	0.709
272.84	-2.475
273.21	-0.464
273.58	0.482
273.95	-0.686
274.32	-0.924
274.69	-1.357
275.06	0.670
275.43	-0.454
275.80	-0.442
276.17	-2.069
276.54	-0.857
276.91	-2.193
277.28	-1.528
277.65	0.826
278.02	-1.064
278.39	-1.313
278.76	0.419
279.13	-3.527
279.50	1.261
279.87	0.000
280.23	-2.796
280.60	1.949
280.97	-0.808
281.34	-1.923
281.71	1.232
282.08	0.818
282.45	-2.544
282.82	-0.772
283.19	0.387
283.56	0.000
283.92	-2.657
284.29	-2.115
284.66	-0.581
285.03	-0.196
285.40	-0.756
285.77	-0.879
286.14	0.903
286.51	0.554
286.87	-1.463
287.24	-2.947
287.61	-1.058
287.98	0.877
288.35	0.173
288.72	2.102
289.08	-0.521
289.45	0.879
289.82	-0.699
290.19	-1.536
290.56	-1.029
290.93	-0.505
291.29	-2.003
291.66	-0.157
292.03	-0.797
292.40	-0.484
292.77	-1.276
293.13	-1.786
293.50	1.214
293.87	0.153
294.24	-1.700
294.60	0.149
294.97	1.339
295.34	-1.380
295.71	0.596
296.08	-0.598
296.44	-0.427
296.81	-0.278
297.18	-1.159
297.55	1.626
297.91	-0.548
298.28	1.055
298.65	-0.271
299.02	0.539
299.38	-2.736
299.75	-1.241
300.12	0.393
300.48	-0.791
300.85	-0.253
301.22	-0.519
301.59	-1.579
301.95	0.127
302.32	0.259
302.69	0.498
303.05	0.000
303.42	0.000
303.79	-0.117
304.15	0.956
304.52	-1.308
304.89	-0.234
305.25	-1.453
305.62	-1.750
305.99	-0.468
306.35	-2.428
306.72	-0.675
307.09	-0.570
307.45	0.459
307.82	-1.736
308.19	0.465
308.55	-1.091
308.92	0.545
309.29	-1.006
309.65	0.753
310.02	-0.550
310.38	-0.768
310.75	-0.656
311.12	-1.615
311.48	-1.273
311.85	-1.047
312.22	-0.844
312.58	-0.637
312.95	-1.067
313.31	-1.656
313.68	-0.942
314.05	-0.918
314.41	-0.619
314.78	-0.412
315.14	0.514
315.51	-0.207
315.87	-0.717
316.24	0.101
316.61	-0.591
316.97	-0.893
317.34	0.098
317.70	-0.669
318.07	0.000
318.43	-1.275
318.80	0.189
319.16	0.391
319.53	1.045
319.89	-0.591
320.26	-0.304
320.62	0.401
320.99	-1.044
321.35	0.411
321.72	0.519
322.08	0.302
322.45	-0.406
322.81	0.098
323.18	-0.785
323.54	0.000
323.91	-0.195
324.27	0.098
324.64	0.094
325.00	0.456
325.37	-0.092
325.73	-0.635
326.10	0.091
326.46	0.359
326.83	0.000
327.19	-0.087
327.56	-0.521
327.92	0.264
328.29	-0.446
328.65	-0.755
329.01	-0.092
329.38	0.184
329.74	-1.228
330.11	0.278
330.47	-0.371
330.84	-1.058
331.20	0.570
331.56	-0.741
331.93	0.091
332.29	0.458
332.66	-0.271
333.02	-0.279
333.38	-1.008
333.75	-0.549
334.11	-0.179
334.48	0.181
334.84	0.092
335.20	-0.183
335.57	-1.088
335.93	0.723
336.29	0.000
336.66	-1.453
337.02	-0.743
337.38	-1.296
337.75	1.000
338.11	0.541
338.47	0.365
338.84	0.000
339.20	-0.640
339.56	-1.284
339.93	0.985
340.29	0.459
340.65	0.269
341.02	-0.532
341.38	0.177
341.74	-0.530
342.11	-0.780
342.47	-0.712
342.83	0.260
343.20	-1.132
343.56	-0.348
343.92	-0.089
344.28	1.366
344.65	0.086
345.01	-0.778
345.37	0.505
345.73	0.000
346.10	0.345
346.46	-0.336
346.82	-0.245
347.19	-1.247
347.55	0.251
347.91	-0.243
348.27	1.051
348.63	0.170
349.00	-0.082
349.36	-0.665
349.72	-0.249
350.08	0.000
350.45	0.239
350.81	-1.412
351.17	-0.814
351.53	0.408
351.89	-0.908
352.26	0.160
352.62	0.161
352.98	-0.562
353.34	-0.242
353.70	0.243
354.07	-0.242
354.43	0.801
354.79	-0.826
355.15	0.714
355.51	0.237
355.87	-0.081
356.24	-1.305
356.60	-0.162
356.96	0.397
357.32	-0.240
357.68	0.156
358.04	-0.727
358.40	-0.804
358.77	0.478
359.13	0.000
359.49	0.154
359.85	-0.156
360.21	-0.080
360.57	-0.765
360.93	0.530
361.29	-0.982
361.66	0.313
362.02	0.833
362.38	0.228
362.74	-0.454
363.10	-0.301
363.46	0.297
363.82	0.451
364.18	-0.517
364.54	-0.147
364.90	0.000
365.26	-0.364
365.62	0.365
365.98	0.587
366.35	0.291
366.71	0.222
367.07	0.290
367.43	-1.006
367.79	0.000
368.15	-0.431
368.51	0.364
368.87	-0.790
369.23	-0.144
369.59	-0.729
369.95	-0.073
370.31	0.289
370.67	-0.299
371.03	-0.822
371.39	-1.021
371.75	-0.293
372.11	-0.143
372.47	-0.518
372.83	-0.284
373.19	0.143
373.55	0.072
373.91	0.144
374.27	0.496
374.63	0.287
374.99	0.496
375.35	0.696
375.71	0.000
376.07	0.281
376.42	0.340
376.78	0.537
377.14	-0.271
377.50	-0.398
377.86	0.000
378.22	0.000
378.58	-0.705
378.94	-0.693
379.30	0.187
379.66	0.815
380.02	0.123
380.38	-0.609
380.74	-0.658
381.09	-0.245
381.45	-0.367
381.81	0.308
382.17	0.000
382.53	0.187
382.89	-0.879
383.25	-0.187
383.61	0.915
383.97	-0.762
384.32	-0.125
384.68	0.372
385.04	0.000
385.40	-0.996
385.76	0.189
386.12	0.259
386.48	-0.255
386.83	0.000
387.19	0.366
387.55	0.188
387.91	-0.122
388.27	0.305
388.62	-0.629
388.98	-0.552
389.34	0.562
389.70	0.932
390.06	-0.252
390.42	0.065
390.77	-0.196
391.13	-0.378
391.49	0.129
391.85	-0.390
392.20	-0.251
392.56	-0.381
392.92	0.822
393.28	0.118
393.64	-0.480
393.99	0.690
394.35	-0.696
394.71	0.383
395.07	0.189
395.42	-0.121
395.78	0.195
396.14	0.631
396.50	-0.127
396.85	-0.322
397.21	0.313
397.57	0.188
397.92	0.300
398.28	-0.230
398.64	-0.843
399.00	0.339
399.35	-0.282
399.71	0.172
400.07	0.726
400.42	-0.184
400.78	0.184
401.14	0.121
401.49	0.715
401.85	0.000
402.21	0.241
402.57	0.125
402.92	-0.502
403.28	0.188
403.63	-0.315
403.99	-0.829
404.35	0.562
404.70	-0.179
405.06	0.176
405.42	0.062
405.77	-0.232
406.13	-0.349
406.49	0.651
406.84	-0.672
407.20	0.361
407.55	-0.580
407.91	-0.602
408.27	0.064
408.62	1.046
408.98	0.123
409.34	0.186
409.69	0.323
410.05	0.123
410.40	0.000
410.76	0.663
411.11	0.813
411.47	-0.066
411.83	-0.502
412.18	0.129
412.54	0.062
412.89	-0.246
413.25	0.301
413.60	-0.124
413.96	0.123
414.31	0.610
414.67	0.064
415.03	0.533
415.38	0.457
415.74	0.065
416.09	0.784
416.45	0.000
416.80	0.066
417.16	-0.207
417.51	0.600
417.87	0.717
418.22	0.389
418.58	-0.134
418.93	0.627
419.29	-0.512
419.64	0.648
420.00	1.134
420.35	0.239
420.71	0.668
421.06	0.246
421.42	0.781
421.77	0.462
422.12	-0.227
422.48	1.029
422.83	0.696
423.19	0.677
423.54	-0.176
423.90	0.530
424.25	0.287
424.61	0.184
424.96	0.755
425.31	0.462
425.67	0.235
426.02	0.824
426.38	0.376
426.73	0.303
427.09	0.380
427.44	0.471
427.79	0.118
428.15	1.456
428.50	0.061
428.85	-0.430
429.21	0.283
429.56	0.755
429.92	1.079
430.27	0.752
430.62	-0.209
430.98	0.425
431.33	1.367
431.68	0.628
432.04	-0.168
432.39	0.342
432.74	0.421
433.10	0.862
433.45	0.239
433.80	0.116
434.16	-0.665
434.51	0.860
434.86	0.290
435.22	1.178
435.57	0.811
435.92	0.419
436.28	0.656
436.63	0.970
436.98	0.058
437.34	0.121
437.69	0.477
438.04	0.627
438.39	0.061
438.75	-0.304
439.10	0.453
439.45	0.243
439.81	-0.183
440.16	0.772
440.51	1.134
440.86	0.846
441.22	0.848
441.57	0.497
441.92	1.102
442.27	0.166
442.63	0.964
442.98	0.919
443.33	0.000
443.68	0.159
444.03	0.745
444.39	0.492
444.74	0.948
445.09	0.947
445.44	0.285
445.79	0.980
446.15	0.826
446.50	0.610
446.85	0.797
447.20	0.261
447.55	1.004
447.91	0.677
448.26	0.341
448.61	0.461
448.96	0.861
449.31	0.405
449.66	0.581
450.02	1.198
450.37	0.474
450.72	0.573
451.07	1.139
451.42	0.811
451.77	1.025
452.12	0.419
452.47	-0.064
452.83	0.589
453.18	0.633
453.53	0.126
453.88	0.607
454.23	0.615
454.58	0.882
454.93	1.031
455.28	0.317
455.63	1.178
455.98	0.842
456.34	0.639
456.69	0.635
457.04	0.882
457.39	0.547
457.74	0.544
458.09	0.177
458.44	0.410
458.79	0.672
459.14	2.117
459.49	1.313
459.84	1.184
460.19	0.364
460.54	1.284
460.89	0.966
461.24	0.559
461.59	1.544
461.94	0.314
462.29	1.025
462.64	1.262
462.99	1.490
463.34	0.209
463.69	1.094
464.04	0.545
464.39	0.546
464.74	0.675
465.09	1.123
465.44	0.923
465.79	0.567
466.14	1.311
466.49	0.518
466.84	0.952
467.19	1.564
467.54	1.213
467.89	0.063
468.24	0.487
468.59	0.698
468.94	0.762
469.29	1.049
469.64	1.162
469.99	0.771
470.34	0.000
470.68	1.641
471.03	1.203
471.38	0.713
471.73	0.840
472.08	0.475
472.43	-0.067
472.78	0.754
473.13	0.884
473.48	1.107
473.83	0.934
474.17	1.295
474.52	0.191
474.87	1.273
475.22	0.671
475.57	0.169
475.92	1.262
476.27	0.698
476.61	1.389
476.96	0.948
477.31	0.919
477.66	0.449
478.01	0.618
478.36	0.980
478.70	0.816
479.05	1.484
479.40	1.007
479.75	1.303
480.10	1.178
480.45	0.950
480.79	1.611
481.14	0.768
481.49	0.690
481.84	0.869
482.19	0.702
482.53	0.863
482.88	1.050
483.23	1.248
483.58	0.896
483.92	0.436
484.27	1.185
484.62	0.717
484.97	1.327
485.31	1.084
485.66	1.021
486.01	1.395
486.36	1.018
486.70	1.045
487.05	1.184
487.40	1.163
487.75	0.901
488.09	0.587
488.44	0.928
488.79	1.009
489.13	1.162
489.48	0.727
489.83	0.897
490.17	0.629
490.52	0.647
490.87	0.740
491.22	0.907
491.56	0.617
491.91	0.621
492.26	0.681
492.60	1.392
492.95	1.377
493.30	0.830
493.64	1.130
493.99	1.353
494.34	0.194
494.68	0.857
495.03	0.487
495.37	1.325
495.72	1.060
496.07	0.732
496.41	1.321
496.76	0.783
497.11	0.512
497.45	1.527
497.80	0.757
498.14	0.695
498.49	0.660
498.84	1.098
499.18	1.155
499.53	1.141
499.87	0.632
500.22	1.039
500.56	0.656
500.91	0.954
501.26	0.939
501.60	0.246
501.95	0.873
502.29	1.211
502.64	1.689
502.98	0.543
503.33	0.048
503.67	0.964
504.02	1.222
504.36	1.682
504.71	0.101
505.06	0.302
505.40	0.863
505.75	1.134
506.09	1.166
506.44	1.181
506.78	1.224
507.13	0.776
507.47	0.679
507.82	0.160
508.16	-0.106
508.51	0.944
508.85	0.628
509.19	0.053
509.54	0.804
509.88	0.917
510.23	0.914
510.57	0.748
510.92	-0.160
511.26	0.327
511.61	0.440
511.95	0.767
512.30	0.887
512.64	1.169
512.98	0.225
513.33	1.343
513.67	0.512
514.02	1.659
514.36	1.029
514.70	0.991
515.05	1.175
515.39	0.826
515.74	0.719
516.08	0.956
516.42	1.708
516.77	1.638
517.11	0.712
517.46	1.077
517.80	1.371
518.14	0.061
518.49	1.142
518.83	1.033
519.17	0.243
519.52	0.770
519.86	0.240
520.20	-0.061
520.55	0.063
520.89	1.506
521.23	0.000
521.58	1.009
521.92	1.282
522.26	0.976
522.61	0.390
522.95	0.927
523.29	1.207
523.64	1.906
523.98	0.907
524.32	0.000
524.66	0.896
525.01	1.039
525.35	0.778
525.69	0.539
526.04	0.860
526.38	1.881
526.72	0.131
527.06	0.973
527.41	1.385
527.75	0.536
528.09	0.332
528.43	1.958
528.78	0.660
529.12	1.355
529.46	0.780
529.80	0.507
530.15	1.122
530.49	0.673
530.83	0.000
531.17	0.537
531.51	1.231
531.86	0.816
532.20	0.418
532.54	1.157
532.88	0.479
533.22	1.075
533.57	0.983
533.91	0.065
534.25	1.628
534.59	1.090
534.93	1.070
535.27	0.127
535.62	0.454
535.96	1.957
536.30	1.649
536.64	1.172
536.98	0.627
537.32	0.853
537.66	1.403
538.01	1.119
538.35	0.555
538.69	1.731
539.03	0.137
539.37	0.740
539.71	1.295
540.05	1.697
540.39	1.316
540.73	0.488
541.07	1.105
541.42	0.874
541.76	1.032
542.10	1.239
542.44	0.695
542.78	-0.069
543.12	0.687
543.46	1.878
543.80	0.972
544.14	0.534
544.48	1.133
544.82	0.547
545.16	1.093
545.50	1.736
545.84	0.637
546.18	0.851
546.52	0.793
546.86	0.719
547.20	1.359
547.54	0.777
547.88	0.747
548.22	1.183
548.56	0.726
548.90	1.819
549.24	1.515
549.58	1.199
549.92	0.929
550.26	1.465
550.60	0.743
550.94	0.747
551.28	0.773
551.62	0.615
551.96	1.504
552.30	0.804
552.64	0.635
552.98	0.844
553.32	1.355
553.66	0.290
554.00	0.365
554.34	1.625
554.68	0.885
555.02	1.562
555.36	0.673
555.69	-0.440
556.03	-0.357
556.37	0.498
556.71	0.505
557.05	0.895
557.39	0.595
557.73	0.225
558.07	0.980
558.41	-0.230
558.75	0.779
559.08	0.946
559.42	0.476
559.76	0.560
560.10	0.382
560.44	0.670
560.78	1.469
561.12	0.846
561.45	0.914
561.79	0.560
562.13	0.568
562.47	0.719
562.81	0.720
563.15	0.987
563.48	0.849
563.82	1.030
564.16	0.348
564.50	0.743
564.84	0.937
565.17	0.604
565.51	0.205
565.85	0.343
566.19	0.862
566.52	1.340
566.86	0.771
567.20	0.436
567.54	1.338
567.88	0.586
568.21	1.244
568.55	0.380
568.89	1.283
569.23	0.818
569.56	0.701
569.90	1.299
570.24	0.968
570.57	0.764
570.91	1.325
571.25	1.250
571.59	0.903
571.92	1.007
572.26	0.664
572.60	0.837
572.93	1.161
573.27	0.596
573.61	0.716
573.95	1.147
574.28	1.059
574.62	0.814
574.96	1.197
575.29	0.984
575.63	1.037
575.97	1.193
576.30	0.675
576.64	1.007
576.98	1.364
577.31	0.958
577.65	1.216
577.98	1.014
578.32	0.959
578.66	0.817
578.99	0.959
579.33	0.774
579.67	1.211
580.00	0.937
580.34	1.070
580.67	0.816
581.01	0.889
581.35	1.120
581.68	0.886
582.02	0.807
582.35	0.966
582.69	0.915
583.02	0.705
583.36	1.136
583.70	1.142
584.03	0.890
584.37	0.932
584.70	1.044
585.04	0.933
585.37	1.032
585.71	1.061
586.04	1.059
586.38	0.960
586.72	1.033
587.05	0.924
587.39	1.034
587.72	1.093
588.06	0.581
588.39	0.997
588.73	0.977
589.06	1.044
589.40	1.521
589.73	1.314
590.07	0.793
590.40	1.277
590.73	0.535
591.07	1.145
591.40	0.579
591.74	1.041
592.07	1.438
592.41	1.104
592.74	1.115
593.08	0.908
593.41	0.956
593.75	1.178
594.08	0.618
594.41	0.655
594.75	0.802
595.08	1.097
595.42	0.773
595.75	1.202
596.09	0.743
596.42	0.785
596.75	1.066
597.09	1.002
597.42	1.445
597.75	0.641
598.09	1.358
598.42	0.903
598.76	1.073
599.09	1.162
599.42	0.909
599.76	1.129
600.09	1.094
600.42	1.251
600.76	0.632
601.09	0.344
601.42	0.901
601.76	0.992
602.09	0.578
602.42	1.390
602.76	1.061
603.09	1.287
603.42	0.502
603.76	0.726
604.09	0.567
604.42	1.311
604.76	1.380
605.09	1.828
605.42	1.309
605.75	0.788
606.09	0.594
606.42	1.209
606.75	0.736
607.09	1.495
607.42	0.753
607.75	0.977
608.08	0.494
608.42	1.096
608.75	1.012
609.08	0.648
609.41	0.660
609.75	1.310
610.08	1.148
610.41	0.821
610.74	0.390
611.07	0.362
611.41	0.934
611.74	1.173
612.07	0.749
612.40	0.930
612.73	0.678
613.07	0.562
613.40	1.641
613.73	0.056
614.06	1.336
614.39	1.410
614.72	0.616
615.06	1.173
615.39	0.928
615.72	1.184
616.05	1.508
616.38	1.026
616.71	1.040
617.05	1.050
617.38	1.634
617.71	0.629
618.04	1.333
618.37	1.765
618.70	1.386
619.03	1.736
619.36	0.000
619.69	1.061
620.03	1.242
620.36	1.001
620.69	1.499
621.02	0.688
621.35	0.747
621.68	0.595
622.01	0.583
622.34	1.756
622.67	1.341
623.00	1.608
623.33	1.220
623.66	0.748
623.99	0.983
624.32	1.749
624.65	-0.451
624.99	1.129
625.32	0.682
625.65	1.257
625.98	1.370
626.31	0.249
626.64	1.560
626.97	1.571
627.30	1.489
627.63	2.253
627.96	0.539
628.29	1.480
628.62	2.065
628.95	1.102
629.28	0.806
629.61	-0.299
629.94	2.444
630.26	0.593
630.59	1.457
630.92	1.231
631.25	0.821
631.58	0.551
631.91	0.000
632.24	0.115
632.57	1.477
632.90	0.119
633.23	1.882
633.56	-0.504
633.89	0.370
634.22	1.235
634.55	0.889
634.88	0.511
635.20	0.000
635.53	1.067
635.86	0.260
636.19	1.552
636.52	0.383
636.85	-0.248
637.18	-0.881
637.51	0.629
637.83	1.314
638.16	1.228
638.49	-0.409
638.82	3.421
639.15	0.814
639.48	0.000
639.81	1.953
640.13	0.289
640.46	-0.146
640.79	0.295
641.12	0.739
641.45	-0.150
641.77	2.519
642.10	2.054
642.43	0.965
642.76	0.495
643.09	0.485
643.41	0.647
643.74	-0.165
644.07	1.478
644.40	1.689
644.73	0.876
645.05	0.336
645.38	-0.353
645.71	0.532
646.04	1.436
646.36	0.709
646.69	2.878
647.02	1.323
647.35	1.866
647.67	0.914
648.00	1.306
648.33	3.072
648.66	0.339
648.98	-1.843
649.31	-2.149
649.64	-0.314
649.96	0.000
650.29	0.000
650.62	1.538
650.94	-0.556
651.27	-1.117
651.60	0.360
651.92	2.098
652.25	-1.066
652.58	2.667
