SpectraSuite Data File
++++++++++++++++++++++++++++++++++++
Date: Fri May 15 19:57:13 PDT 2015
User: schluterlab
Dark Spectrum Present: Yes
Reference Spectrum Present: Yes
Number of Sampled Component Spectra: 1
Spectrometers: USB2E3373
Integration Time (usec): 3000 (USB2E3373)
Spectra Averaged: 3 (USB2E3373)
Boxcar Smoothing: 0 (USB2E3373)
Correct for Electrical Dark: No (USB2E3373)
Strobe/Lamp Enabled: No (USB2E3373)
Correct for Detector Non-linearity: No (USB2E3373)
Correct for Stray Light: No (USB2E3373)
Number of Pixels in Processed Spectrum: 2048
>>>>>Begin Processed Spectral Data<<<<<
178.53	0.000
178.91	0.000
179.29	-12.500
179.67	50.000
180.04	-114.286
180.42	50.000
180.80	100.000
181.18	100.000
181.56	100.000
181.94	0.000
182.31	-200.000
182.69	100.000
183.07	-33.333
183.45	60.000
183.83	-33.333
184.20	-36.364
184.58	88.889
184.96	-75.000
185.34	-266.667
185.72	-150.000
186.09	61.538
186.47	100.000
186.85	66.667
187.23	66.667
187.61	200.000
187.98	-66.667
188.36	88.889
188.74	100.000
189.12	11.765
189.49	72.222
189.87	0.000
190.25	0.000
190.63	150.000
191.00	66.667
191.38	26.316
191.76	800.000
192.14	-100.000
192.51	400.000
192.89	-44.444
193.27	57.143
193.65	-0.000
194.02	63.636
194.40	-10.000
194.78	-87.500
195.15	-8.333
195.53	-75.000
195.91	25.000
196.29	-125.000
196.66	76.923
197.04	114.286
197.42	-33.333
197.79	-333.333
198.17	23.077
198.55	300.000
198.92	33.333
199.30	-300.000
199.68	-60.000
200.05	-66.667
200.43	0.000
200.81	66.667
201.18	333.333
201.56	1000.000
201.94	150.000
202.31	-66.667
202.69	100.000
203.07	-0.000
203.44	300.000
203.82	0.000
204.19	50.000
204.57	33.333
204.95	12.500
205.32	-50.000
205.70	157.143
206.08	175.000
206.45	266.667
206.83	107.143
207.20	-14.286
207.58	-300.000
207.96	166.667
208.33	-140.000
208.71	0.000
209.08	-183.333
209.46	-500.000
209.84	-80.000
210.21	-700.000
210.59	28.571
210.96	183.333
211.34	-125.000
211.71	53.333
212.09	-28.571
212.46	-700.000
212.84	0.000
213.22	50.000
213.59	350.000
213.97	69.231
214.34	18.182
214.72	-50.000
215.09	375.000
215.47	-15.385
215.84	9.091
216.22	-200.000
216.59	-25.000
216.97	250.000
217.34	225.000
217.72	-60.000
218.09	125.000
218.47	-12.500
218.84	600.000
219.22	-77.778
219.59	-60.000
219.97	300.000
220.34	125.000
220.72	114.286
221.09	-25.000
221.47	0.000
221.84	-650.000
222.22	-600.000
222.59	90.909
222.97	66.667
223.34	-33.333
223.72	0.000
224.09	33.333
224.46	17.857
224.84	333.333
225.21	40.000
225.59	33.333
225.96	300.000
226.34	225.000
226.71	-14.286
227.08	-50.000
227.46	12.500
227.83	-100.000
228.21	0.000
228.58	0.000
228.95	-25.000
229.33	-0.000
229.70	18.750
230.08	-62.500
230.45	-114.286
230.82	42.857
231.20	53.333
231.57	100.000
231.95	-28.571
232.32	-30.000
232.69	78.571
233.07	266.667
233.44	-20.000
233.81	-60.000
234.19	33.333
234.56	-52.941
234.93	450.000
235.31	-125.000
235.68	0.000
236.05	-92.308
236.43	-5.000
236.80	11.765
237.17	-9.375
237.55	-10.000
237.92	29.630
238.29	13.889
238.67	-6.667
239.04	0.000
239.41	-26.829
239.79	6.667
240.16	19.512
240.53	10.526
240.91	-10.870
241.28	-4.762
241.65	1.786
242.02	12.329
242.40	16.667
242.77	-5.085
243.14	-4.545
243.51	3.750
243.89	5.747
244.26	-4.598
244.63	-15.476
245.00	15.464
245.38	1.031
245.75	-11.236
246.12	-6.897
246.49	7.438
246.87	3.846
247.24	-6.723
247.61	-13.158
247.98	-8.943
248.36	-2.500
248.73	2.632
249.10	2.597
249.47	-3.165
249.84	0.000
250.22	1.176
250.59	0.654
250.96	3.756
251.33	-2.907
251.70	0.588
252.08	2.030
252.45	-0.990
252.82	1.508
253.19	1.843
253.56	-8.411
253.94	-1.351
254.31	0.000
254.68	0.877
255.05	-1.181
255.42	-2.183
255.79	0.772
256.16	0.778
256.54	0.373
256.91	3.422
257.28	0.743
257.65	1.498
258.02	-1.773
258.39	1.684
258.76	-2.930
259.14	1.329
259.51	-0.324
259.88	1.031
260.25	1.634
260.62	2.431
260.99	-2.712
261.36	-2.397
261.73	-1.582
262.10	3.040
262.47	0.613
262.85	0.627
263.22	0.615
263.59	-1.869
263.96	1.553
264.33	0.606
264.70	-1.190
265.07	-3.274
265.44	1.416
265.81	-2.542
266.18	1.093
266.55	0.514
266.92	0.259
267.29	-0.261
267.66	2.302
268.03	2.094
268.40	1.044
268.77	1.604
269.14	1.199
269.51	1.028
269.88	-0.998
270.25	-2.551
270.62	-0.976
270.99	-0.767
271.36	1.956
271.73	0.704
272.10	0.243
272.47	1.418
272.84	-1.733
273.21	1.624
273.58	-1.446
273.95	0.915
274.32	-0.924
274.69	-2.262
275.06	1.116
275.43	0.000
275.80	0.662
276.17	-0.920
276.54	0.214
276.91	-0.219
277.28	-1.528
277.65	2.066
278.02	0.851
278.39	0.219
278.76	-0.210
279.13	-2.490
279.50	0.210
279.87	0.432
280.23	0.000
280.60	2.339
280.97	0.606
281.34	0.000
281.71	2.875
282.08	-0.613
282.45	-0.391
282.82	0.000
283.19	0.193
283.56	0.963
283.92	-1.708
284.29	-1.346
284.66	-1.550
285.03	-1.375
285.40	-0.756
285.77	-0.879
286.14	1.083
286.51	2.030
286.87	-0.548
287.24	-0.368
287.61	0.000
287.98	3.158
288.35	0.173
288.72	0.525
289.08	0.868
289.45	1.933
289.82	-0.175
290.19	-0.171
290.56	-0.686
290.93	0.505
291.29	-1.695
291.66	0.157
292.03	1.116
292.40	-1.290
292.77	0.319
293.13	-2.760
293.50	-2.276
293.87	2.748
294.24	-2.164
294.60	-0.596
294.97	0.000
295.34	-0.153
295.71	2.385
296.08	-0.897
296.44	-1.565
296.81	1.250
297.18	-2.029
297.55	0.678
297.91	0.137
298.28	2.375
298.65	-0.678
299.02	1.617
299.38	-1.642
299.75	-0.966
300.12	0.000
300.48	-0.922
300.85	1.648
301.22	-0.260
301.59	-0.395
301.95	1.013
302.32	1.167
302.69	0.124
303.05	-0.866
303.42	1.121
303.79	0.117
304.15	0.119
304.52	-1.070
304.89	-0.585
305.25	-0.605
305.62	-0.700
305.99	-0.702
306.35	0.347
306.72	-0.787
307.09	0.000
307.45	0.000
307.82	-0.116
308.19	1.394
308.55	-0.654
308.92	0.327
309.29	-0.670
309.65	0.323
310.02	-0.110
310.38	-0.220
310.75	-0.546
311.12	0.646
311.48	-1.697
311.85	-0.105
312.22	-1.160
312.58	0.000
312.95	-0.854
313.31	-0.932
313.68	0.105
314.05	-0.306
314.41	-0.103
314.78	0.000
315.14	0.822
315.51	-0.518
315.87	-0.717
316.24	1.618
316.61	0.787
316.97	-0.595
317.34	0.195
317.70	0.478
318.07	-0.096
318.43	0.294
318.80	0.189
319.16	-0.879
319.53	1.140
319.89	-0.787
320.26	0.000
320.62	0.401
320.99	-1.357
321.35	1.542
321.72	0.104
322.08	-1.410
322.45	-0.914
322.81	-0.295
323.18	-1.079
323.54	0.193
323.91	-0.876
324.27	-1.172
324.64	-0.094
325.00	0.274
325.37	1.469
325.73	-0.272
326.10	0.817
326.46	0.448
326.83	0.087
327.19	-0.697
327.56	0.434
327.92	0.968
328.29	-0.804
328.65	-0.660
329.01	0.000
329.38	0.645
329.74	-0.944
330.11	0.371
330.47	-1.020
330.84	-1.442
331.20	1.616
331.56	-0.463
331.93	0.639
332.29	0.733
332.66	-0.724
333.02	0.279
333.38	-0.825
333.75	0.641
334.11	-0.090
334.48	0.725
334.84	0.641
335.20	0.091
335.57	-0.635
335.93	0.181
336.29	0.276
336.66	-0.182
337.02	-1.022
337.38	-1.111
337.75	-0.727
338.11	-0.271
338.47	0.365
338.84	-0.092
339.20	-0.366
339.56	0.367
339.93	0.358
340.29	0.092
340.65	0.358
341.02	-0.532
341.38	-0.973
341.74	-0.265
342.11	-1.127
342.47	-0.445
342.83	0.606
343.20	-0.784
343.56	-0.174
343.92	-0.177
344.28	-0.256
344.65	-0.950
345.01	-0.173
345.37	0.000
345.73	0.586
346.10	0.086
346.46	0.252
346.82	0.082
347.19	-0.166
347.55	-0.418
347.91	0.243
348.27	0.081
348.63	-0.085
349.00	0.656
349.36	-0.665
349.72	0.415
350.08	-0.820
350.45	0.479
350.81	-0.332
351.17	0.000
351.53	0.163
351.89	-0.826
352.26	-0.640
352.62	-0.242
352.98	0.080
353.34	-0.564
353.70	0.809
354.07	0.726
354.43	-0.560
354.79	-0.495
355.15	0.952
355.51	1.266
355.87	0.243
356.24	-0.979
356.60	0.647
356.96	0.397
357.32	0.160
357.68	0.156
358.04	-0.485
358.40	-0.080
358.77	-0.239
359.13	0.080
359.49	-0.077
359.85	-0.234
360.21	-0.478
360.57	0.689
360.93	0.454
361.29	-0.604
361.66	0.313
362.02	0.379
362.38	0.533
362.74	-0.454
363.10	0.000
363.46	-0.371
363.82	0.902
364.18	0.664
364.54	0.000
364.90	0.789
365.26	0.218
365.62	1.533
365.98	-0.147
366.35	0.437
366.71	0.000
367.07	1.016
367.43	-0.719
367.79	0.071
368.15	-0.215
368.51	0.728
368.87	-0.503
369.23	-0.433
369.59	0.000
369.95	0.806
370.31	1.012
370.67	0.149
371.03	-0.448
371.39	-0.219
371.75	-0.293
372.11	0.000
372.47	0.074
372.83	0.426
373.19	0.713
373.55	-0.072
373.91	0.504
374.27	0.425
374.63	0.072
374.99	-0.142
375.35	0.348
375.71	0.070
376.07	0.421
376.42	0.068
376.78	0.403
377.14	0.677
377.50	0.066
377.86	0.000
378.22	-0.319
378.58	0.000
378.94	-0.126
379.30	0.000
379.66	0.251
380.02	-0.490
380.38	-0.487
380.74	-0.120
381.09	0.920
381.45	-0.061
381.81	0.062
382.17	-0.063
382.53	-0.375
382.89	-0.439
383.25	-0.436
383.61	0.366
383.97	-0.889
384.32	0.000
384.68	0.433
385.04	-0.735
385.40	-0.747
385.76	0.252
386.12	0.388
386.48	0.128
386.83	-0.127
387.19	-0.366
387.55	0.251
387.91	0.000
388.27	-0.244
388.62	-0.063
388.98	-0.061
389.34	0.312
389.70	0.373
390.06	-0.755
390.42	-0.065
390.77	-0.654
391.13	-0.631
391.49	-0.259
391.85	-0.065
392.20	0.314
392.56	-0.318
392.92	0.587
393.28	-0.413
393.64	-0.240
393.99	0.690
394.35	-0.380
394.71	0.064
395.07	0.000
395.42	0.182
395.78	0.261
396.14	0.315
396.50	-0.063
396.85	0.193
397.21	0.188
397.57	0.125
397.92	0.240
398.28	-0.230
398.64	-0.241
399.00	0.621
399.35	-1.242
399.71	0.057
400.07	0.060
400.42	0.551
400.78	0.306
401.14	-0.242
401.49	0.298
401.85	-0.975
402.21	0.361
402.57	0.313
402.92	-0.376
403.28	0.313
403.63	-0.063
403.99	-0.638
404.35	0.625
404.70	0.000
405.06	0.294
405.42	0.746
405.77	-0.872
406.13	-0.233
406.49	-0.296
406.84	-0.061
407.20	0.241
407.55	-0.644
407.91	0.134
408.27	-0.446
408.62	0.554
408.98	0.185
409.34	0.434
409.69	0.065
410.05	-0.123
410.40	-0.123
410.76	0.000
411.11	-0.125
411.47	0.131
411.83	-0.628
412.18	-0.772
412.54	0.250
412.89	0.000
413.25	0.842
413.60	0.062
413.96	-0.245
414.31	0.366
414.67	-0.641
415.03	-0.466
415.38	0.065
415.74	0.586
416.09	0.523
416.45	0.338
416.80	0.264
417.16	1.105
417.51	0.133
417.87	-0.130
418.22	0.648
418.58	-0.201
418.93	-0.063
419.29	-0.640
419.64	-0.518
420.00	0.819
420.35	0.119
420.71	0.790
421.06	-0.368
421.42	0.541
421.77	-0.231
422.12	-0.227
422.48	0.162
422.83	-0.058
423.19	0.169
423.54	-0.588
423.90	0.177
424.25	0.172
424.61	0.245
424.96	0.523
425.31	0.173
425.67	0.176
426.02	0.294
426.38	-0.501
426.73	0.182
427.09	0.633
427.44	0.353
427.79	0.177
428.15	0.789
428.50	0.182
428.85	-0.491
429.21	0.283
429.56	0.108
429.92	0.051
430.27	0.752
430.62	-0.575
430.98	0.106
431.33	0.946
431.68	0.262
432.04	-0.447
432.39	-0.570
432.74	-0.421
433.10	0.920
433.45	0.239
433.80	0.058
434.16	-0.609
434.51	-0.108
434.86	0.407
435.22	0.953
435.57	0.561
435.92	1.976
436.28	2.206
436.63	1.027
436.98	1.043
437.34	0.786
437.69	0.298
438.04	-0.171
438.39	-0.611
438.75	-0.729
439.10	0.000
439.45	1.096
439.81	-0.306
440.16	-0.059
440.51	0.776
440.86	0.604
441.22	0.509
441.57	-0.331
441.92	0.262
442.27	-0.443
442.63	0.857
442.98	-0.804
443.33	0.278
443.68	-0.159
444.03	0.497
444.39	0.541
444.74	0.334
445.09	-0.167
445.44	-0.228
445.79	0.774
446.15	0.330
446.50	-0.277
446.85	-0.106
447.20	0.313
447.55	1.116
447.91	0.338
448.26	0.740
448.61	0.921
448.96	0.344
449.31	-0.116
449.66	0.232
450.02	0.228
450.37	-0.178
450.72	0.286
451.07	0.253
451.42	0.312
451.77	1.206
452.12	-0.239
452.47	-0.515
452.83	-0.059
453.18	0.127
453.53	0.316
453.88	-0.243
454.23	0.123
454.58	0.378
454.93	1.224
455.28	-0.508
455.63	0.062
455.98	0.722
456.34	0.064
456.69	0.254
457.04	0.693
457.39	-0.304
457.74	-0.181
458.09	0.118
458.44	0.468
458.79	0.224
459.14	0.858
459.49	0.955
459.84	0.564
460.19	0.303
460.54	0.183
460.89	0.227
461.24	0.124
461.59	0.356
461.94	-0.566
462.29	1.025
462.64	-0.332
462.99	-0.135
463.34	-0.070
463.69	-0.129
464.04	-0.182
464.39	0.182
464.74	0.123
465.09	0.062
465.44	0.635
465.79	0.454
466.14	0.513
466.49	0.115
466.84	0.654
467.19	0.876
467.54	0.958
467.89	0.126
468.24	0.487
468.59	0.444
468.94	-0.063
469.29	0.984
469.64	0.547
469.99	0.631
470.34	-0.410
470.68	0.895
471.03	0.849
471.38	-0.143
471.73	0.560
472.08	0.882
472.43	-0.671
472.78	-0.411
473.13	-0.136
473.48	-0.130
473.83	0.374
474.17	-0.065
474.52	0.064
474.87	0.424
475.22	-0.122
475.57	0.282
475.92	1.152
476.27	0.815
476.61	0.289
476.96	0.112
477.31	0.541
477.66	0.225
478.01	-0.168
478.36	-0.109
478.70	0.163
479.05	0.769
479.40	-0.053
479.75	-0.156
480.10	0.666
480.45	0.150
480.79	0.655
481.14	0.512
481.49	-0.148
481.84	0.145
482.19	0.140
482.53	0.144
482.88	1.002
483.23	0.528
483.58	0.472
483.92	0.823
484.27	0.547
484.62	0.986
484.97	0.663
485.31	0.795
485.66	0.537
486.01	0.334
486.36	0.367
486.70	0.468
487.05	0.290
487.40	0.750
487.75	0.676
488.09	0.371
488.44	0.688
488.79	0.560
489.13	1.002
489.48	0.983
489.83	1.031
490.17	0.899
490.52	0.924
490.87	1.203
491.22	1.242
491.56	0.427
491.91	0.478
492.26	0.778
492.60	0.864
492.95	0.935
493.30	0.684
493.64	0.688
493.99	1.208
494.34	0.243
494.68	0.905
495.03	0.341
495.37	0.785
495.72	0.606
496.07	0.732
496.41	0.425
496.76	0.599
497.11	0.326
497.45	1.289
497.80	0.656
498.14	0.894
498.49	0.102
498.84	0.699
499.18	0.653
499.53	0.744
499.87	0.243
500.22	-0.198
500.56	0.202
500.91	0.602
501.26	0.395
501.60	0.049
501.95	0.340
502.29	0.339
502.64	0.676
502.98	0.000
503.33	-0.480
503.67	0.482
504.02	0.635
504.36	0.594
504.71	0.404
505.06	0.101
505.40	0.355
505.75	-0.052
506.09	0.355
506.44	0.411
506.78	0.714
507.13	0.207
507.47	0.052
507.82	-0.641
508.16	-0.158
508.51	0.105
508.85	-0.157
509.19	-0.532
509.54	0.751
509.88	0.054
510.23	-0.484
510.57	0.481
510.92	-0.480
511.26	-0.218
511.61	0.000
511.95	0.274
512.30	0.055
512.64	0.111
512.98	-0.674
513.33	0.448
513.67	0.057
514.02	0.515
514.36	0.571
514.70	0.408
515.05	0.411
515.39	-0.118
515.74	0.539
516.08	0.000
516.42	0.530
516.77	0.234
517.11	-0.237
517.46	0.539
517.80	0.596
518.14	-0.245
518.49	0.240
518.83	0.365
519.17	-0.546
519.52	-0.118
519.86	-0.900
520.20	-0.061
520.55	-0.750
520.89	1.568
521.23	0.063
521.58	0.694
521.92	-0.064
522.26	-0.130
522.61	0.455
522.95	-0.464
523.29	-0.254
523.64	0.762
523.98	0.130
524.32	-0.773
524.66	0.192
525.01	0.584
525.35	0.518
525.69	0.000
526.04	-0.397
526.38	0.713
526.72	0.065
527.06	0.389
527.41	0.330
527.75	-0.670
528.09	-0.332
528.43	0.945
528.78	-0.330
529.12	-0.129
529.46	-0.390
529.80	0.697
530.15	0.726
530.49	0.135
530.83	-0.274
531.17	0.000
531.51	0.342
531.86	-0.340
532.20	-0.348
532.54	1.089
532.88	-0.068
533.22	0.000
533.57	0.983
533.91	-0.587
534.25	0.586
534.59	-0.257
534.93	-0.315
535.27	-0.635
535.62	-0.259
535.96	0.652
536.30	0.594
536.64	0.414
536.98	-0.348
537.32	0.569
537.66	1.192
538.01	0.490
538.35	0.069
538.69	0.866
539.03	0.889
539.37	1.211
539.71	1.227
540.05	0.679
540.39	1.039
540.73	1.743
541.07	2.003
541.42	3.696
541.76	3.648
542.10	3.716
542.44	4.170
542.78	3.992
543.12	5.357
543.46	6.120
543.80	6.315
544.14	5.140
544.48	5.730
544.82	6.015
545.16	5.806
545.50	6.475
545.84	6.799
546.18	7.376
546.52	7.714
546.86	5.320
547.20	4.220
547.54	2.898
547.88	3.533
548.22	2.301
548.56	3.166
548.90	3.167
549.24	2.066
549.58	2.680
549.92	1.501
550.26	2.198
550.60	1.561
550.94	2.016
551.28	1.700
551.62	1.308
551.96	0.602
552.30	1.316
552.64	1.128
552.98	2.180
553.32	1.569
553.66	0.145
554.00	0.657
554.34	1.256
554.68	0.664
555.02	0.744
555.36	0.224
555.69	0.000
556.03	0.214
556.37	0.142
556.71	0.217
557.05	0.671
557.39	-0.074
557.73	0.525
558.07	0.603
558.41	-0.077
558.75	-0.546
559.08	-0.236
559.42	-0.159
559.76	-0.641
560.10	1.223
560.44	-0.372
560.78	0.350
561.12	0.071
561.45	0.281
561.79	-0.070
562.13	0.639
562.47	-0.863
562.81	-0.216
563.15	0.494
563.48	0.636
563.82	-0.069
564.16	-0.696
564.50	0.338
564.84	0.803
565.17	0.201
565.51	0.000
565.85	-0.137
566.19	0.464
566.52	-0.268
566.86	0.771
567.20	-0.809
567.54	-0.182
567.88	-0.059
568.21	0.339
568.55	-0.380
568.89	0.205
569.23	-0.530
569.56	-0.306
569.90	0.487
570.24	0.000
570.57	0.073
570.91	0.349
571.25	-0.460
571.59	-0.093
571.92	0.207
572.26	-0.030
572.60	0.000
572.93	0.220
573.27	0.188
573.61	-0.030
573.95	0.000
574.28	0.053
574.62	-0.025
574.96	0.000
575.29	0.278
575.63	0.207
575.97	-0.081
576.30	-0.084
576.64	0.053
576.98	0.154
577.31	0.197
577.65	0.229
577.98	0.211
578.32	0.167
578.66	0.000
578.99	0.351
579.33	0.100
579.67	0.227
580.00	0.278
580.34	0.373
580.67	0.074
581.01	0.288
581.35	0.495
581.68	0.354
582.02	0.073
582.35	0.204
582.69	0.273
583.02	0.043
583.36	0.402
583.70	0.649
584.03	0.556
584.37	0.593
584.70	0.330
585.04	0.233
585.37	0.467
585.71	0.272
586.04	0.555
586.38	0.027
586.72	0.459
587.05	0.607
587.39	0.671
587.72	0.820
588.06	0.415
588.39	0.655
588.73	0.458
589.06	0.750
589.40	0.691
589.73	0.986
590.07	0.529
590.40	0.503
590.73	0.329
591.07	0.339
591.40	0.312
591.74	0.271
592.07	1.160
592.41	0.707
592.74	0.398
593.08	0.140
593.41	0.494
593.75	-0.065
594.08	0.412
594.41	0.509
594.75	-0.076
595.08	0.189
595.42	-0.110
595.75	0.075
596.09	0.117
596.42	0.165
596.75	0.311
597.09	0.592
597.42	0.316
597.75	0.092
598.09	0.317
598.42	0.135
598.76	-0.086
599.09	0.561
599.42	0.493
599.76	0.038
600.09	0.528
600.42	0.682
600.76	-0.074
601.09	0.229
601.42	0.157
601.76	-0.278
602.09	0.289
602.42	0.337
602.76	-0.212
603.09	0.083
603.42	0.000
603.76	-0.363
604.09	-0.405
604.42	0.338
604.76	0.134
605.09	0.686
605.42	0.226
605.75	-0.044
606.09	-0.170
606.42	0.042
606.75	-0.173
607.09	0.791
607.42	0.000
607.75	0.178
608.08	-0.314
608.42	0.640
608.75	0.386
609.08	-0.050
609.41	0.457
609.75	0.806
610.08	0.999
610.41	1.304
610.74	1.755
611.07	2.481
611.41	4.359
611.74	4.744
612.07	5.193
612.40	4.978
612.73	3.955
613.07	3.375
613.40	4.103
613.73	2.350
614.06	3.561
614.39	2.989
614.72	2.241
615.06	2.346
615.39	2.238
615.72	1.830
616.05	1.676
616.38	1.140
616.71	0.183
617.05	0.618
617.38	1.006
617.71	1.069
618.04	1.206
618.37	1.324
618.70	1.452
619.03	1.111
619.36	0.434
619.69	1.213
620.03	1.753
620.36	0.930
620.69	1.499
621.02	1.529
621.35	1.909
621.68	0.765
622.01	1.583
622.34	1.995
622.67	1.735
623.00	1.531
623.33	1.753
623.66	0.748
623.99	0.832
624.32	1.521
624.65	0.827
624.99	1.354
625.32	0.758
625.65	1.414
625.98	1.370
626.31	0.748
626.64	0.953
626.97	1.309
627.30	1.401
627.63	1.560
627.96	0.270
628.29	1.665
628.62	1.672
628.95	0.701
629.28	0.605
629.61	0.798
629.94	2.542
630.26	0.988
630.59	2.289
630.92	1.026
631.25	2.256
631.58	2.313
631.91	0.768
632.24	0.459
632.57	1.023
632.90	1.898
633.23	1.882
633.56	0.756
633.89	-0.123
634.22	0.988
634.55	-1.271
634.88	-0.639
635.20	0.385
635.53	0.000
635.86	0.130
636.19	0.647
636.52	0.765
636.85	-1.241
637.18	-0.629
637.51	1.006
637.83	2.497
638.16	0.682
638.49	-1.226
638.82	0.395
639.15	0.407
639.48	1.926
639.81	-0.558
640.13	-0.722
640.46	-0.292
640.79	0.442
641.12	0.886
641.45	-0.901
641.77	0.889
642.10	1.106
642.43	0.482
642.76	1.320
643.09	1.131
643.41	1.294
643.74	0.000
644.07	1.478
644.40	-0.507
644.73	0.000
645.05	1.846
645.38	-0.529
645.71	1.064
646.04	0.359
646.36	-0.177
646.69	3.058
647.02	0.378
647.35	2.985
647.67	2.194
648.00	0.373
648.33	2.389
648.66	1.186
648.98	-1.173
649.31	-2.314
649.64	-0.785
649.96	-0.324
650.29	2.044
650.62	-0.171
650.94	-0.185
651.27	-2.235
