SpectraSuite Data File
++++++++++++++++++++++++++++++++++++
Date: Fri May 15 17:05:39 PDT 2015
User: schluterlab
Dark Spectrum Present: Yes
Reference Spectrum Present: Yes
Number of Sampled Component Spectra: 1
Spectrometers: USB2E3373
Integration Time (usec): 3000 (USB2E3373)
Spectra Averaged: 3 (USB2E3373)
Boxcar Smoothing: 0 (USB2E3373)
Correct for Electrical Dark: No (USB2E3373)
Strobe/Lamp Enabled: No (USB2E3373)
Correct for Detector Non-linearity: No (USB2E3373)
Correct for Stray Light: No (USB2E3373)
Number of Pixels in Processed Spectrum: 2048
>>>>>Begin Processed Spectral Data<<<<<
178.53	0.000
178.91	0.000
179.29	137.500
179.67	0.000
180.04	57.143
180.42	-50.000
180.80	0.000
181.18	-366.667
181.56	-300.000
181.94	350.000
182.31	-1200.000
182.69	220.000
183.07	33.333
183.45	220.000
183.83	33.333
184.20	54.545
184.58	33.333
184.96	-75.000
185.34	-200.000
185.72	-150.000
186.09	30.769
186.47	700.000
186.85	83.333
187.23	-11.111
187.61	-1100.000
187.98	-100.000
188.36	144.444
188.74	-266.667
189.12	29.412
189.49	50.000
189.87	0.000
190.25	85.714
190.63	550.000
191.00	133.333
191.38	89.474
191.76	950.000
192.14	-300.000
192.51	700.000
192.89	100.000
193.27	114.286
193.65	16.667
194.02	9.091
194.40	30.000
194.78	-12.500
195.15	83.333
195.53	-50.000
195.91	100.000
196.29	50.000
196.66	92.308
197.04	-0.000
197.42	144.444
197.79	-333.333
198.17	-38.462
198.55	300.000
198.92	-66.667
199.30	900.000
199.68	200.000
200.05	0.000
200.43	0.000
200.81	266.667
201.18	433.333
201.56	-1100.000
201.94	300.000
202.31	-366.667
202.69	-140.000
203.07	25.000
203.44	1000.000
203.82	0.000
204.19	128.571
204.57	166.667
204.95	-50.000
205.32	120.000
205.70	142.857
206.08	200.000
206.45	244.444
206.83	171.429
207.20	214.286
207.58	300.000
207.96	333.333
208.33	-20.000
208.71	125.000
209.08	-50.000
209.46	-400.000
209.84	160.000
210.21	1400.000
210.59	57.143
210.96	66.667
211.34	250.000
211.71	66.667
212.09	28.571
212.46	-400.000
212.84	0.000
213.22	120.000
213.59	-150.000
213.97	92.308
214.34	63.636
214.72	16.667
215.09	225.000
215.47	100.000
215.84	63.636
216.22	166.667
216.59	50.000
216.97	500.000
217.34	175.000
217.72	-60.000
218.09	200.000
218.47	-150.000
218.84	600.000
219.22	55.556
219.59	40.000
219.97	-66.667
220.34	-0.000
220.72	71.429
221.09	125.000
221.47	-100.000
221.84	-50.000
222.22	100.000
222.59	136.364
222.97	150.000
223.34	33.333
223.72	35.714
224.09	57.143
224.46	53.571
224.84	133.333
225.21	190.000
225.59	73.333
225.96	600.000
226.34	-100.000
226.71	-200.000
227.08	216.667
227.46	100.000
227.83	300.000
228.21	166.667
228.58	100.000
228.95	-112.500
229.33	40.000
229.70	43.750
230.08	75.000
230.45	42.857
230.82	142.857
231.20	13.333
231.57	57.143
231.95	428.571
232.32	60.000
232.69	100.000
233.07	166.667
233.44	120.000
233.81	80.000
234.19	188.889
234.56	76.471
234.93	150.000
235.31	625.000
235.68	20.000
236.05	-15.385
236.43	5.000
236.80	-5.882
237.17	28.125
237.55	60.000
237.92	22.222
238.29	30.556
238.67	43.333
239.04	47.059
239.41	4.878
239.79	20.000
240.16	53.659
240.53	42.105
240.91	10.870
241.28	19.048
241.65	35.714
242.02	36.986
242.40	46.667
242.77	35.593
243.14	15.152
243.51	26.250
243.89	45.977
244.26	28.736
244.63	25.000
245.00	29.897
245.38	38.144
245.75	22.472
246.12	26.724
246.49	26.446
246.87	39.423
247.24	15.966
247.61	25.439
247.98	26.829
248.36	29.375
248.73	25.000
249.10	26.623
249.47	21.519
249.84	18.954
250.22	28.235
250.59	22.222
250.96	23.474
251.33	23.837
251.70	28.824
252.08	24.873
252.45	24.257
252.82	25.126
253.19	25.806
253.56	18.692
253.94	24.775
254.31	28.261
254.68	25.877
255.05	25.984
255.42	24.891
255.79	23.552
256.16	24.903
256.54	29.104
256.91	25.856
257.28	22.677
257.65	24.345
258.02	22.695
258.39	22.222
258.76	26.740
259.14	23.588
259.51	21.683
259.88	24.055
260.25	22.222
260.62	29.167
260.99	24.068
261.36	20.890
261.73	20.570
262.10	25.532
262.47	23.006
262.85	24.765
263.22	22.769
263.59	24.299
263.96	24.224
264.33	23.939
264.70	22.917
265.07	25.000
265.44	25.779
265.81	25.706
266.18	24.863
266.55	23.393
266.92	24.093
267.29	22.715
267.66	24.552
268.03	25.131
268.40	22.977
268.77	25.134
269.14	21.343
269.51	23.907
269.88	22.195
270.25	22.704
270.62	21.220
270.99	21.483
271.36	22.983
271.73	27.700
272.10	24.331
272.47	22.222
272.84	24.752
273.21	25.522
273.58	22.410
273.95	23.570
274.32	20.785
274.69	22.624
275.06	25.446
275.43	25.170
275.80	24.283
276.17	23.678
276.54	22.912
276.91	22.149
277.28	22.271
277.65	22.107
278.02	21.915
278.39	19.694
278.76	21.174
279.13	22.199
279.50	21.218
279.87	20.734
280.23	21.505
280.60	22.417
280.97	21.616
281.34	21.154
281.71	23.819
282.08	21.881
282.45	22.505
282.82	22.973
283.19	19.923
283.56	21.773
283.92	19.734
284.29	21.154
284.66	20.930
285.03	21.022
285.40	19.660
285.77	20.562
286.14	20.217
286.51	22.694
286.87	19.927
287.24	21.179
287.61	21.164
287.98	21.404
288.35	19.584
288.72	22.067
289.08	19.444
289.45	20.738
289.82	19.930
290.19	20.819
290.56	17.839
290.93	19.024
291.29	18.798
291.66	21.260
292.03	18.820
292.40	19.677
292.77	17.065
293.13	17.857
293.50	16.692
293.87	19.237
294.24	18.393
294.60	17.884
294.97	18.452
295.34	17.485
295.71	17.288
296.08	17.339
296.44	14.083
296.81	16.667
297.18	16.957
297.55	16.667
297.91	16.438
298.28	16.227
298.65	15.875
299.02	16.981
299.38	14.774
299.75	16.828
300.12	14.005
300.48	15.679
300.85	16.223
301.22	15.455
301.59	16.053
301.95	17.089
302.32	16.213
302.69	14.552
303.05	14.480
303.42	15.193
303.79	14.836
304.15	16.965
304.52	13.674
304.89	12.749
305.25	14.770
305.62	12.952
305.99	14.269
306.35	14.566
306.72	14.848
307.09	15.165
307.45	15.614
307.82	14.236
308.19	14.866
308.55	14.940
308.92	16.013
309.29	15.642
309.65	13.886
310.02	15.402
310.38	15.258
310.75	14.645
311.12	15.178
311.48	15.164
311.85	15.707
312.22	13.608
312.58	14.544
312.95	13.234
313.31	14.907
313.68	13.822
314.05	14.694
314.41	14.536
314.78	14.948
315.14	17.575
315.51	16.667
315.87	14.652
316.24	17.088
316.61	16.043
316.97	16.468
317.34	15.918
317.70	16.252
318.07	16.827
318.43	17.059
318.80	17.614
319.16	18.066
319.53	18.993
319.89	18.209
320.26	18.826
320.62	19.157
320.99	18.372
321.35	19.013
321.72	20.249
322.08	20.947
322.45	21.726
322.81	22.397
323.18	21.394
323.54	22.490
323.91	23.564
324.27	24.121
324.64	23.689
325.00	23.996
325.37	27.089
325.73	24.932
326.10	26.521
326.46	25.919
326.83	27.384
327.19	27.114
327.56	28.149
327.92	29.225
328.29	27.857
328.65	30.472
329.01	30.055
329.38	32.442
329.74	31.539
330.11	31.881
330.47	30.612
330.84	30.962
331.20	34.601
331.56	31.667
331.93	33.425
332.29	33.822
332.66	34.208
333.02	34.015
333.38	33.364
333.75	34.707
334.11	33.214
334.48	35.811
334.84	35.714
335.20	34.858
335.57	33.364
335.93	36.676
336.29	37.293
336.66	35.786
337.02	37.082
337.38	34.630
337.75	36.182
338.11	36.339
338.47	36.861
338.84	36.414
339.20	36.197
339.56	35.963
339.93	36.437
340.29	36.330
340.65	36.380
341.02	36.968
341.38	35.575
341.74	35.424
342.11	35.615
342.47	36.121
342.83	37.370
343.20	34.582
343.56	35.739
343.92	36.847
344.28	36.806
344.65	37.997
345.01	37.165
345.37	35.913
345.73	36.485
346.10	35.807
346.46	36.249
346.82	35.516
347.19	34.663
347.55	37.260
347.91	36.003
348.27	36.621
348.63	37.308
349.00	36.341
349.36	37.323
349.72	36.070
350.08	37.049
350.45	35.355
350.81	36.296
351.17	35.993
351.53	36.898
351.89	35.590
352.26	35.600
352.62	36.613
352.98	34.940
353.34	35.749
353.70	35.922
354.07	35.323
354.43	35.148
354.79	36.581
355.15	36.905
355.51	36.234
355.87	36.812
356.24	34.910
356.60	35.489
356.96	36.032
357.32	35.623
357.68	36.044
358.04	35.784
358.40	36.093
358.77	37.879
359.13	35.869
359.49	34.669
359.85	35.647
360.21	36.204
360.57	35.807
360.93	36.989
361.29	35.347
361.66	35.031
362.02	36.288
362.38	36.101
362.74	35.125
363.10	36.193
363.46	35.508
363.82	37.941
364.18	35.351
364.54	35.294
364.90	36.201
365.26	35.881
365.62	36.569
365.98	35.850
366.35	36.635
366.71	36.881
367.07	36.720
367.43	35.442
367.79	36.325
368.15	35.750
368.51	37.145
368.87	35.319
369.23	34.946
369.59	36.297
369.95	36.657
370.31	37.500
370.67	36.493
371.03	36.296
371.39	35.667
371.75	36.557
372.11	36.733
372.47	36.095
372.83	37.119
373.19	35.949
373.55	35.668
373.91	35.133
374.27	36.003
374.63	35.966
374.99	36.099
375.35	36.421
375.71	36.993
376.07	36.025
376.42	36.871
376.78	36.443
377.14	36.899
377.50	36.454
377.86	37.216
378.22	36.503
378.58	36.859
378.94	35.980
379.30	36.494
379.66	36.677
380.02	35.929
380.38	35.606
380.74	36.505
381.09	36.748
381.45	35.596
381.81	36.706
382.17	36.104
382.53	36.227
382.89	37.225
383.25	37.461
383.61	38.049
383.97	36.127
384.32	36.523
384.68	36.223
385.04	36.091
385.40	36.030
385.76	37.421
386.12	36.611
386.48	37.995
386.83	36.779
387.19	36.203
387.55	37.139
387.91	36.369
388.27	36.386
388.62	36.627
388.98	35.727
389.34	35.665
389.70	35.799
390.06	35.305
390.42	36.593
390.77	35.056
391.13	36.507
391.49	35.899
391.85	36.517
392.20	36.472
392.56	35.219
392.92	36.054
393.28	35.908
393.64	35.976
393.99	36.677
394.35	36.116
394.71	35.504
395.07	35.575
395.42	34.851
395.78	35.961
396.14	34.931
396.50	36.779
396.85	35.737
397.21	34.774
397.57	35.298
397.92	35.231
398.28	35.862
398.64	33.735
399.00	35.158
399.35	33.409
399.71	34.750
400.07	35.127
400.42	33.721
400.78	36.191
401.14	34.241
401.49	34.366
401.85	34.126
402.21	34.880
402.57	34.812
402.92	33.563
403.28	34.900
403.63	34.741
403.99	34.885
404.35	33.916
404.70	33.869
405.06	32.961
405.42	34.058
405.77	33.469
406.13	33.760
406.49	34.103
406.84	33.985
407.20	33.113
407.55	34.063
407.91	34.425
408.27	33.142
408.62	34.154
408.98	33.641
409.34	34.511
409.69	34.173
410.05	33.621
410.40	33.519
410.76	33.715
411.11	35.062
411.47	32.807
411.83	32.894
412.18	34.170
412.54	33.583
412.89	32.759
413.25	33.153
413.60	33.106
413.96	33.252
414.31	33.415
414.67	33.098
415.03	33.489
415.38	34.269
415.74	33.616
416.09	34.095
416.45	34.909
416.80	32.452
417.16	33.564
417.51	34.044
417.87	34.550
418.22	34.909
418.58	33.645
418.93	34.483
419.29	33.611
419.64	34.349
420.00	35.013
420.35	34.328
420.71	35.176
421.06	34.500
421.42	34.435
421.77	34.624
422.12	34.336
422.48	34.543
422.83	34.687
423.19	34.932
423.54	34.509
423.90	35.807
424.25	35.075
424.61	36.169
424.96	35.192
425.31	37.031
425.67	35.446
426.02	37.044
426.38	36.631
426.73	37.167
427.09	37.089
427.44	35.706
427.79	36.771
428.15	36.104
428.50	36.826
428.85	36.486
429.21	36.503
429.56	37.682
429.92	37.648
430.27	36.992
430.62	36.121
430.98	36.996
431.33	37.329
431.68	36.839
432.04	38.569
432.39	37.536
432.74	37.643
433.10	38.276
433.45	37.515
433.80	37.899
434.16	38.283
434.51	38.548
434.86	39.199
435.22	39.372
435.57	39.488
435.92	40.240
436.28	38.521
436.63	38.448
436.98	37.486
437.34	39.322
437.69	40.489
438.04	39.658
438.39	40.501
438.75	40.134
439.10	40.011
439.45	41.205
439.81	40.979
440.16	40.558
440.51	41.731
440.86	41.994
441.22	40.611
441.57	41.391
441.92	42.078
442.27	41.131
442.63	40.792
442.98	41.987
443.33	40.790
443.68	40.690
444.03	41.530
444.39	42.154
444.74	42.977
445.09	41.648
445.44	41.652
445.79	42.290
446.15	41.685
446.50	41.542
446.85	42.561
447.20	41.814
447.55	43.025
447.91	42.245
448.26	43.028
448.61	42.775
448.96	44.062
449.31	42.659
449.66	42.973
450.02	44.381
450.37	44.221
450.72	43.127
451.07	44.304
451.42	42.634
451.77	43.580
452.12	42.883
452.47	43.786
452.83	44.111
453.18	43.201
453.53	44.501
453.88	44.809
454.23	44.499
454.58	44.207
454.93	45.232
455.28	43.302
455.63	45.071
455.98	44.799
456.34	44.572
456.69	44.473
457.04	45.747
457.39	44.350
457.74	45.042
458.09	44.673
458.44	44.822
458.79	43.754
459.14	44.394
459.49	44.955
459.84	45.460
460.19	45.024
460.54	44.621
460.89	45.852
461.24	45.031
461.59	45.843
461.94	45.094
462.29	46.683
462.64	46.246
462.99	45.633
463.34	46.314
463.69	45.560
464.04	46.065
464.39	45.967
464.74	46.626
465.09	46.101
465.44	45.528
465.79	45.351
466.14	46.465
466.49	46.118
466.84	47.055
467.19	45.745
467.54	46.424
467.89	45.925
468.24	46.168
468.59	47.365
468.94	45.968
469.29	48.197
469.64	47.915
469.99	48.213
470.34	47.304
470.68	48.248
471.03	48.054
471.38	46.790
471.73	49.020
472.08	47.422
472.43	47.919
472.78	46.539
473.13	47.891
473.48	47.622
473.83	47.136
474.17	48.122
474.52	48.245
474.87	48.364
475.22	48.688
475.57	47.713
475.92	47.778
476.27	48.719
476.61	48.669
476.96	46.905
477.31	48.729
477.66	48.483
478.01	47.614
478.36	48.747
478.70	49.266
479.05	48.352
479.40	48.278
479.75	47.862
480.10	46.953
480.45	47.750
480.79	49.043
481.14	49.078
481.49	47.931
481.84	48.021
482.19	48.082
482.53	49.544
482.88	48.115
483.23	47.889
483.58	47.264
483.92	47.773
484.27	48.040
484.62	47.826
484.97	47.347
485.31	47.146
485.66	47.071
486.01	46.238
486.36	45.502
486.70	45.081
487.05	46.125
487.40	46.122
487.75	46.282
488.09	45.766
488.44	47.249
488.79	47.329
489.13	47.957
489.48	48.311
489.83	48.700
490.17	48.360
490.52	47.945
490.87	48.589
491.22	49.427
491.56	49.194
491.91	47.228
492.26	48.469
492.60	48.800
492.95	50.271
493.30	49.194
493.64	50.147
493.99	49.952
494.34	48.592
494.68	49.143
495.03	49.732
495.37	49.607
495.72	50.076
496.07	50.244
496.41	49.292
496.76	50.069
497.11	48.766
497.45	49.547
497.80	49.798
498.14	48.535
498.49	49.873
498.84	49.701
499.18	50.000
499.53	50.000
499.87	49.611
500.22	50.148
500.56	51.084
500.91	50.452
501.26	49.283
501.60	49.680
501.95	49.393
502.29	49.782
502.64	50.627
502.98	50.419
503.33	50.000
503.67	49.831
504.02	51.417
504.36	50.767
504.71	49.697
505.06	50.780
505.40	50.660
505.75	51.959
506.09	49.924
506.44	52.156
506.78	52.245
507.13	51.086
507.47	50.026
507.82	51.709
508.16	51.241
508.51	51.836
508.85	51.596
509.19	51.517
509.54	51.850
509.88	52.265
510.23	51.479
510.57	51.630
510.92	50.746
511.26	50.573
511.61	52.255
511.95	52.329
512.30	51.885
512.64	51.252
512.98	51.319
513.33	52.770
513.67	51.507
514.02	52.517
514.36	52.400
514.70	54.662
515.05	52.879
515.39	51.771
515.74	54.671
516.08	53.317
516.42	53.239
516.77	53.423
517.11	52.997
517.46	53.800
517.80	53.456
518.14	52.909
518.49	53.365
518.83	53.341
519.17	52.517
519.52	53.108
519.86	52.521
520.20	52.977
520.55	52.720
520.89	53.450
521.23	52.375
521.58	53.060
521.92	54.744
522.26	52.895
522.61	54.481
522.95	55.033
523.29	52.351
523.64	55.019
523.98	54.763
524.32	52.899
524.66	53.969
525.01	55.195
525.35	55.412
525.69	54.276
526.04	53.638
526.38	55.837
526.72	53.695
527.06	54.021
527.41	52.902
527.75	52.882
528.09	53.422
528.43	55.841
528.78	55.116
529.12	53.935
529.46	53.541
529.80	53.515
530.15	54.323
530.49	55.017
530.83	54.788
531.17	53.257
531.51	54.993
531.86	52.753
532.20	52.818
532.54	53.846
532.88	53.114
533.22	53.495
533.57	54.194
533.91	54.112
534.25	54.427
534.59	52.149
534.93	51.857
535.27	51.650
535.62	52.301
535.96	53.425
536.30	52.770
536.64	53.756
536.98	54.355
537.32	54.196
537.66	54.909
538.01	54.755
538.35	53.190
538.69	52.330
539.03	52.563
539.37	53.163
539.71	54.192
540.05	52.138
540.39	53.324
540.73	53.696
541.07	53.867
541.42	52.890
541.76	54.095
542.10	53.544
542.44	53.648
542.78	53.476
543.12	52.129
543.46	53.408
543.80	54.407
544.14	51.202
544.48	52.831
544.82	53.110
545.16	53.620
545.50	52.603
545.84	54.887
546.18	54.468
546.52	53.280
546.86	51.330
547.20	52.790
547.54	52.014
547.88	53.261
548.22	52.400
548.56	51.451
548.90	52.089
549.24	51.584
549.58	53.103
549.92	52.538
550.26	52.601
550.60	54.424
550.94	53.622
551.28	54.328
551.62	55.385
551.96	54.361
552.30	53.436
552.64	51.693
552.98	52.321
553.32	53.210
553.66	52.975
554.00	53.650
554.34	53.323
554.68	52.212
555.02	54.539
555.36	53.852
555.69	53.114
556.03	52.463
556.37	51.530
556.71	53.069
557.05	54.661
557.39	51.822
557.73	53.823
558.07	53.469
558.41	52.450
558.75	53.780
559.08	53.822
559.42	54.762
559.76	54.764
560.10	53.976
560.44	53.760
560.78	52.937
561.12	53.597
561.45	54.181
561.79	52.241
562.13	52.449
562.47	53.237
562.81	53.314
563.15	52.186
563.48	53.678
563.82	52.231
564.16	53.900
564.50	52.365
564.84	52.544
565.17	52.180
565.51	54.372
565.85	52.675
566.19	52.918
566.52	53.284
566.86	52.763
567.20	51.868
567.54	51.946
567.88	52.548
568.21	50.735
568.55	50.380
568.89	50.770
569.23	49.157
569.56	48.074
569.90	49.939
570.24	46.409
570.57	47.855
570.91	48.205
571.25	46.827
571.59	46.964
571.92	45.215
572.26	46.377
572.60	46.202
572.93	45.497
573.27	46.426
573.61	45.615
573.95	45.849
574.28	44.942
574.62	44.928
574.96	44.802
575.29	44.927
575.63	44.493
575.97	44.700
576.30	45.066
576.64	44.450
576.98	44.994
577.31	45.245
577.65	44.335
577.98	44.379
578.32	44.150
578.66	43.778
578.99	44.221
579.33	44.417
579.67	43.982
580.00	44.380
580.34	44.502
580.67	43.744
581.01	44.212
581.35	44.251
581.68	44.243
582.02	43.788
582.35	43.825
582.69	44.118
583.02	44.285
583.36	44.358
583.70	45.405
584.03	44.954
584.37	45.539
584.70	44.808
585.04	44.456
585.37	44.324
585.71	44.310
586.04	44.528
586.38	44.439
586.72	45.251
587.05	45.725
587.39	44.814
587.72	45.298
588.06	45.170
588.39	44.688
588.73	44.750
589.06	45.956
589.40	45.697
589.73	46.404
590.07	45.884
590.40	46.362
590.73	47.241
591.07	46.692
591.40	46.661
591.74	47.195
592.07	47.356
592.41	47.659
592.74	46.476
593.08	45.686
593.41	46.063
593.75	45.175
594.08	45.383
594.41	45.560
594.75	45.344
595.08	46.538
595.42	45.234
595.75	46.639
596.09	46.247
596.42	46.176
596.75	47.691
597.09	45.831
597.42	46.612
597.75	47.000
598.09	45.858
598.42	46.751
598.76	46.547
599.09	45.112
599.42	45.017
599.76	44.658
600.09	44.872
600.42	45.299
600.76	44.725
601.09	44.771
601.42	44.928
601.76	45.812
602.09	45.792
602.42	45.914
602.76	46.350
603.09	46.304
603.42	47.617
603.76	45.605
604.09	45.849
604.42	45.854
604.76	46.640
605.09	47.761
605.42	45.869
605.75	46.278
606.09	45.817
606.42	45.496
606.75	46.364
607.09	45.275
607.42	46.079
607.75	45.826
608.08	45.373
608.42	45.043
608.75	47.084
609.08	46.487
609.41	46.701
609.75	45.968
610.08	46.630
610.41	45.990
610.74	45.636
611.07	47.132
611.41	46.290
611.74	47.601
612.07	45.610
612.40	48.359
612.73	47.345
613.07	46.119
613.40	45.952
613.73	46.223
614.06	45.743
614.39	47.998
614.72	46.162
615.06	46.760
615.39	45.579
615.72	45.856
616.05	47.039
616.38	46.040
616.71	48.135
617.05	47.869
617.38	47.643
617.71	46.792
618.04	48.317
618.37	49.433
618.70	48.317
619.03	49.097
619.36	47.902
619.69	49.356
620.03	51.644
620.36	47.926
620.69	48.751
621.02	48.318
621.35	49.710
621.68	50.850
622.01	49.750
622.34	49.721
622.67	49.290
623.00	48.239
623.33	48.476
623.66	49.439
623.99	48.185
624.32	49.202
624.65	48.195
624.99	49.812
625.32	49.280
625.65	49.961
625.98	50.121
626.31	49.377
626.64	52.166
626.97	51.745
627.30	50.613
627.63	48.614
627.96	50.764
628.29	50.786
628.62	52.016
628.95	52.605
629.28	52.520
629.61	51.645
629.94	51.711
630.26	50.593
630.59	53.278
630.92	53.026
631.25	51.077
631.58	51.762
631.91	53.399
632.24	53.096
632.57	51.477
632.90	52.313
633.23	54.471
633.56	56.549
633.89	53.637
