SpectraSuite Data File
++++++++++++++++++++++++++++++++++++
Date: Fri May 15 17:28:20 PDT 2015
User: schluterlab
Dark Spectrum Present: Yes
Reference Spectrum Present: Yes
Number of Sampled Component Spectra: 1
Spectrometers: USB2E3373
Integration Time (usec): 3000 (USB2E3373)
Spectra Averaged: 3 (USB2E3373)
Boxcar Smoothing: 0 (USB2E3373)
Correct for Electrical Dark: No (USB2E3373)
Strobe/Lamp Enabled: No (USB2E3373)
Correct for Detector Non-linearity: No (USB2E3373)
Correct for Stray Light: No (USB2E3373)
Number of Pixels in Processed Spectrum: 2048
>>>>>Begin Processed Spectral Data<<<<<
178.53	0.000
178.91	0.000
179.29	87.500
179.67	-550.000
180.04	-100.000
180.42	150.000
180.80	0.000
181.18	-66.667
181.56	150.000
181.94	500.000
182.31	800.000
182.69	-240.000
183.07	-200.000
183.45	0.000
183.83	133.333
184.20	9.091
184.58	133.333
184.96	-350.000
185.34	-266.667
185.72	-250.000
186.09	46.154
186.47	-400.000
186.85	116.667
187.23	111.111
187.61	-800.000
187.98	66.667
188.36	44.444
188.74	200.000
189.12	41.176
189.49	33.333
189.87	0.000
190.25	100.000
190.63	0.000
191.00	-66.667
191.38	47.368
191.76	700.000
192.14	-225.000
192.51	50.000
192.89	-88.889
193.27	14.286
193.65	83.333
194.02	127.273
194.40	40.000
194.78	-162.500
195.15	-8.333
195.53	-137.500
195.91	100.000
196.29	-125.000
196.66	38.462
197.04	-42.857
197.42	-33.333
197.79	-300.000
198.17	-69.231
198.55	1200.000
198.92	-333.333
199.30	100.000
199.68	-20.000
200.05	-200.000
200.43	0.000
200.81	-233.333
201.18	233.333
201.56	800.000
201.94	100.000
202.31	100.000
202.69	-80.000
203.07	75.000
203.44	-300.000
203.82	0.000
204.19	-14.286
204.57	-600.000
204.95	150.000
205.32	10.000
205.70	14.286
206.08	-75.000
206.45	111.111
206.83	35.714
207.20	0.000
207.58	100.000
207.96	-233.333
208.33	-50.000
208.71	-150.000
209.08	-100.000
209.46	-200.000
209.84	60.000
210.21	-400.000
210.59	42.857
210.96	50.000
211.34	100.000
211.71	20.000
212.09	-185.714
212.46	-1200.000
212.84	0.000
213.22	100.000
213.59	300.000
213.97	130.769
214.34	90.909
214.72	50.000
215.09	475.000
215.47	-7.692
215.84	-54.545
216.22	-133.333
216.59	-25.000
216.97	-200.000
217.34	50.000
217.72	-160.000
218.09	75.000
218.47	75.000
218.84	-200.000
219.22	-77.778
219.59	20.000
219.97	-200.000
220.34	150.000
220.72	71.429
221.09	50.000
221.47	250.000
221.84	-100.000
222.22	-450.000
222.59	72.727
222.97	83.333
223.34	100.000
223.72	50.000
224.09	23.810
224.46	25.000
224.84	100.000
225.21	-10.000
225.59	53.333
225.96	-300.000
226.34	-25.000
226.71	28.571
227.08	-33.333
227.46	-12.500
227.83	-550.000
228.21	111.111
228.58	9.091
228.95	-37.500
229.33	60.000
229.70	0.000
230.08	-25.000
230.45	-128.571
230.82	28.571
231.20	13.333
231.57	71.429
231.95	14.286
232.32	0.000
232.69	35.714
233.07	33.333
233.44	120.000
233.81	-60.000
234.19	11.111
234.56	-29.412
234.93	450.000
235.31	200.000
235.68	-140.000
236.05	-7.692
236.43	5.000
236.80	52.941
237.17	-12.500
237.55	15.000
237.92	22.222
238.29	36.111
238.67	26.667
239.04	47.059
239.41	-7.317
239.79	0.000
240.16	31.707
240.53	2.632
240.91	23.913
241.28	26.984
241.65	30.357
242.02	34.247
242.40	18.333
242.77	18.644
243.14	4.545
243.51	30.000
243.89	36.782
244.26	20.690
244.63	14.286
245.00	17.526
245.38	35.052
245.75	20.225
246.12	17.241
246.49	14.876
246.87	27.885
247.24	16.807
247.61	17.544
247.98	23.577
248.36	25.000
248.73	26.974
249.10	18.182
249.47	16.456
249.84	20.915
250.22	19.412
250.59	19.608
250.96	28.638
251.33	18.023
251.70	21.176
252.08	22.843
252.45	17.327
252.82	20.101
253.19	16.590
253.56	18.692
253.94	21.622
254.31	20.435
254.68	24.123
255.05	18.504
255.42	24.891
255.79	23.166
256.16	21.790
256.54	22.388
256.91	19.392
257.28	20.074
257.65	20.974
258.02	17.730
258.39	23.906
258.76	20.513
259.14	23.588
259.51	24.272
259.88	21.649
260.25	20.588
260.62	24.653
260.99	20.000
261.36	24.315
261.73	22.468
262.10	21.884
262.47	22.393
262.85	20.690
263.22	20.923
263.59	18.692
263.96	22.360
264.33	20.909
264.70	20.833
265.07	21.429
265.44	20.963
265.81	23.729
266.18	21.585
266.55	21.080
266.92	24.611
267.29	20.627
267.66	19.437
268.03	18.586
268.40	16.710
268.77	21.925
269.14	20.863
269.51	23.650
269.88	20.449
270.25	19.898
270.62	18.537
270.99	24.041
271.36	21.760
271.73	21.362
272.10	20.925
272.47	21.749
272.84	23.267
273.21	22.970
273.58	20.482
273.95	21.281
274.32	19.169
274.69	19.457
275.06	23.214
275.43	20.408
275.80	25.386
276.17	21.379
276.54	20.985
276.91	20.614
277.28	19.651
277.65	22.107
278.02	20.426
278.39	20.350
278.76	22.013
279.13	19.502
279.50	21.639
279.87	21.166
280.23	19.140
280.60	20.078
280.97	22.020
281.34	18.077
281.71	20.534
282.08	17.996
282.45	19.765
282.82	18.726
283.19	19.923
283.56	19.653
283.92	21.063
284.29	18.269
284.66	18.992
285.03	20.432
285.40	18.904
285.77	19.859
286.14	20.939
286.51	20.849
286.87	19.378
287.24	20.258
287.61	20.106
287.98	20.000
288.35	18.544
288.72	20.315
289.08	16.146
289.45	20.738
289.82	19.580
290.19	19.113
290.56	17.839
290.93	17.845
291.29	17.411
291.66	20.472
292.03	16.587
292.40	17.258
292.77	16.746
293.13	12.662
293.50	16.085
293.87	17.557
294.24	16.847
294.60	18.182
294.97	17.262
295.34	15.951
295.71	16.990
296.08	15.546
296.44	14.794
296.81	14.861
297.18	15.942
297.55	17.886
297.91	17.123
298.28	16.623
298.65	15.468
299.02	15.229
299.38	12.175
299.75	15.034
300.12	14.660
300.48	14.229
300.85	13.435
301.22	14.026
301.59	14.605
301.95	16.203
302.32	15.824
302.69	14.801
303.05	13.614
303.42	13.574
303.79	14.486
304.15	14.576
304.52	11.653
304.89	14.152
305.25	14.407
305.62	13.186
305.99	13.684
306.35	14.104
306.72	12.373
307.09	13.569
307.45	13.892
307.82	13.194
308.19	14.402
308.55	14.395
308.92	14.488
309.29	13.631
309.65	13.994
310.02	14.081
310.38	12.733
310.75	14.426
311.12	12.917
311.48	13.150
311.85	12.775
312.22	13.080
312.58	14.225
312.95	13.447
313.31	12.940
313.68	13.613
314.05	13.163
314.41	14.124
314.78	14.639
315.14	15.005
315.51	14.286
315.87	14.242
316.24	14.965
316.61	13.976
316.97	16.468
317.34	14.746
317.70	16.061
318.07	14.423
318.43	16.471
318.80	13.542
319.16	15.234
319.53	15.670
319.89	16.142
320.26	15.891
320.62	17.352
320.99	16.701
321.35	17.266
321.72	17.342
322.08	17.321
322.45	17.462
322.81	16.896
323.18	16.389
323.54	17.568
323.91	17.527
324.27	18.555
324.64	20.599
325.00	21.259
325.37	21.028
325.73	19.583
326.10	21.708
326.46	21.256
326.83	23.010
327.19	21.709
327.56	21.981
327.92	23.327
328.29	21.964
328.65	23.585
329.01	24.632
329.38	24.332
329.74	24.363
330.11	25.672
330.47	24.675
330.84	25.385
331.20	28.327
331.56	25.833
331.93	26.393
332.29	26.214
332.66	26.697
333.02	27.045
333.38	25.390
333.75	28.571
334.11	26.500
334.48	28.286
334.84	29.121
335.20	27.356
335.57	28.105
335.93	27.462
336.29	28.821
336.66	28.520
337.02	27.509
337.38	28.519
337.75	28.091
338.11	28.043
338.47	29.015
338.84	29.020
339.20	28.611
339.56	29.266
339.93	29.275
340.29	29.266
340.65	29.211
341.02	29.344
341.38	28.496
341.74	28.710
342.11	28.076
342.47	29.181
342.83	28.547
343.20	27.613
343.56	29.826
343.92	29.318
344.28	29.462
344.65	28.325
345.01	28.263
345.37	28.595
345.73	29.205
346.10	28.300
346.46	29.016
346.82	28.396
347.19	29.426
347.55	29.407
347.91	29.935
348.27	29.507
348.63	29.216
349.00	27.564
349.36	28.678
349.72	29.022
350.08	29.426
350.45	28.731
350.81	28.488
351.17	28.420
351.53	28.082
351.89	28.571
352.26	28.800
352.62	28.790
352.98	28.193
353.34	27.697
353.70	29.126
354.07	28.387
354.43	27.862
354.79	27.828
355.15	29.444
355.51	29.193
355.87	28.155
356.24	29.119
356.60	29.022
356.96	29.127
357.32	29.473
357.68	28.225
358.04	28.352
358.40	27.814
358.77	29.426
359.13	28.983
359.49	27.966
359.85	29.719
360.21	28.389
360.57	27.927
360.93	29.123
361.29	28.248
361.66	28.683
362.02	29.015
362.38	29.246
362.74	28.463
363.10	28.969
363.46	29.726
363.82	29.602
364.18	28.635
364.54	28.456
364.90	28.961
365.26	28.239
365.62	29.343
365.98	29.985
366.35	29.570
366.71	28.603
367.07	28.592
367.43	29.188
367.79	28.975
368.15	29.002
368.51	28.988
368.87	28.859
369.23	27.870
369.59	30.175
369.95	29.619
370.31	29.552
370.67	30.149
371.03	29.126
371.39	29.103
371.75	29.011
372.11	30.029
372.47	29.438
372.83	28.602
373.19	29.743
373.55	29.170
373.91	29.518
374.27	29.128
374.63	31.012
374.99	28.794
375.35	29.805
375.71	31.818
376.07	29.284
376.42	29.728
376.78	30.201
377.14	30.264
377.50	30.412
377.86	30.120
378.22	29.994
378.58	30.256
378.94	30.309
379.30	31.316
379.66	31.912
380.02	30.840
380.38	30.980
380.74	30.401
381.09	32.638
381.45	30.581
381.81	31.647
382.17	31.091
382.53	32.105
382.89	31.513
383.25	31.301
383.61	31.646
383.97	31.238
384.32	31.332
384.68	31.889
385.04	31.985
385.40	31.674
385.76	33.208
386.12	32.924
386.48	32.375
386.83	31.833
387.19	31.929
387.55	33.940
387.91	31.601
388.27	32.295
388.62	32.725
388.98	32.474
389.34	32.230
389.70	33.623
390.06	31.718
390.42	32.189
390.77	33.290
391.13	31.778
391.49	32.988
391.85	32.489
392.20	32.266
392.56	32.041
392.92	32.472
393.28	33.019
393.64	32.733
393.99	33.668
394.35	32.132
394.71	33.142
395.07	32.055
395.42	31.573
395.78	34.137
396.14	33.291
396.50	32.594
396.85	33.419
397.21	32.456
397.57	32.790
397.92	32.355
398.28	32.931
398.64	32.651
399.00	32.280
399.35	32.054
399.71	33.084
400.07	34.764
400.42	32.313
400.78	32.884
401.14	31.881
401.49	33.234
401.85	32.115
402.21	33.253
402.57	32.625
402.92	31.932
403.28	32.957
403.63	31.841
403.99	32.143
404.35	33.479
404.70	31.369
405.06	31.199
405.42	32.070
405.77	31.610
406.13	32.247
406.49	32.208
406.84	33.068
407.20	32.751
407.55	31.101
407.91	31.818
408.27	33.525
408.62	31.631
408.98	32.717
409.34	33.333
409.69	31.718
410.05	31.404
410.40	32.593
410.76	33.052
411.11	32.687
411.47	32.479
411.83	31.513
412.18	33.076
412.54	31.773
412.89	31.527
413.25	32.972
413.60	31.615
413.96	31.656
414.31	32.256
414.67	32.264
415.03	31.358
415.38	31.266
415.74	32.638
416.09	33.181
416.45	32.005
416.80	31.857
417.16	32.113
417.51	32.645
417.87	32.138
418.22	32.902
418.58	31.973
418.93	32.978
419.29	32.074
419.64	32.793
420.00	34.005
420.35	32.060
420.71	32.625
421.06	33.640
421.42	34.195
421.77	33.757
422.12	33.258
422.48	33.027
422.83	33.295
423.19	34.368
423.54	32.745
423.90	32.627
424.25	33.754
424.61	33.476
424.96	33.914
425.31	35.240
425.67	33.509
426.02	35.866
426.38	34.377
426.73	35.472
427.09	35.633
427.44	34.412
427.79	34.532
428.15	34.405
428.50	34.282
428.85	33.661
429.21	35.314
429.56	35.472
429.92	34.463
430.27	34.486
430.62	33.717
430.98	34.023
431.33	34.911
431.68	34.380
432.04	35.103
432.39	35.083
432.74	34.756
433.10	36.034
433.45	35.544
433.80	36.390
434.16	34.958
434.51	36.290
434.86	35.366
435.22	34.885
435.57	35.621
435.92	36.108
436.28	35.540
436.63	35.368
436.98	35.689
437.34	35.753
437.69	35.659
438.04	36.581
438.39	35.492
438.75	36.794
439.10	36.106
439.45	37.553
439.81	36.575
440.16	37.530
440.51	36.597
440.86	38.731
441.22	36.652
441.57	37.804
441.92	37.461
442.27	37.361
442.63	37.099
442.98	36.818
443.33	37.229
443.68	37.188
444.03	38.202
444.39	37.482
444.74	38.406
445.09	37.528
445.44	38.291
445.79	39.092
446.15	37.885
446.50	36.994
446.85	39.214
447.20	37.696
447.55	38.225
447.91	38.297
448.26	37.962
448.61	37.997
448.96	38.612
449.31	38.555
449.66	38.095
450.02	38.448
450.37	39.301
450.72	39.290
451.07	39.810
451.42	37.890
451.77	37.673
452.12	37.859
452.47	37.991
452.83	37.927
453.18	37.571
453.53	38.748
453.88	38.737
454.23	38.107
454.58	39.295
454.93	38.853
455.28	37.460
455.63	38.624
455.98	39.327
456.34	38.825
456.69	39.771
457.04	40.202
457.39	38.943
457.74	39.057
458.09	38.317
458.44	38.502
458.79	39.272
459.14	39.760
459.49	40.657
459.84	39.312
460.19	40.837
460.54	38.264
460.89	38.864
461.24	39.441
461.59	39.311
461.94	38.805
462.29	38.661
462.64	39.136
462.99	40.284
463.34	38.804
463.69	39.704
464.04	39.831
464.39	39.782
464.74	40.429
465.09	40.424
465.44	40.162
465.79	38.152
466.14	39.396
466.49	40.311
466.84	39.500
467.19	39.737
467.54	38.761
467.89	38.977
468.24	38.747
468.59	39.746
468.94	39.746
469.29	40.328
469.64	39.371
469.99	39.313
470.34	39.113
470.68	39.821
471.03	40.481
471.38	39.586
471.73	40.126
472.08	39.417
472.43	40.671
472.78	39.342
473.13	41.020
473.48	40.000
473.83	38.730
474.17	40.933
474.52	39.502
474.87	39.455
475.22	39.902
475.57	39.300
475.92	40.538
476.27	39.872
476.61	40.162
476.96	39.431
477.31	40.022
477.66	40.225
478.01	39.360
478.36	40.632
478.70	40.402
479.05	40.110
479.40	40.435
479.75	39.312
480.10	40.604
480.45	39.850
480.79	40.282
481.14	41.086
481.49	39.261
481.84	40.396
482.19	39.196
482.53	40.432
482.88	40.382
483.23	39.060
483.58	39.811
483.92	39.448
484.27	40.246
484.62	40.789
484.97	39.262
485.31	40.210
485.66	39.790
486.01	41.190
486.36	41.178
486.70	40.414
487.05	40.496
487.40	40.124
487.75	40.000
488.09	39.308
488.44	39.133
488.79	39.036
489.13	40.064
489.48	39.889
489.83	39.686
490.17	39.596
490.52	38.845
490.87	38.640
491.22	40.353
491.56	39.848
491.91	39.245
492.26	40.496
492.60	39.539
492.95	40.876
493.30	39.521
493.64	39.391
493.99	39.082
494.34	39.903
494.68	39.429
495.03	39.027
495.37	39.892
495.72	40.030
496.07	40.098
496.41	39.764
496.76	39.383
497.11	38.985
497.45	39.809
497.80	40.061
498.14	38.847
498.49	39.868
498.84	39.022
499.18	40.311
499.53	39.732
499.87	39.640
500.22	39.713
500.56	40.444
500.91	40.161
501.26	39.249
501.60	39.105
501.95	39.738
502.29	40.194
502.64	40.058
502.98	39.369
503.33	39.337
503.67	38.554
504.02	40.225
504.36	39.238
504.71	39.040
505.06	39.557
505.40	39.594
505.75	39.485
506.09	39.686
506.44	40.452
506.78	40.510
507.13	40.434
507.47	38.381
507.82	38.835
508.16	38.669
508.51	40.084
508.85	39.351
509.19	38.957
509.54	39.196
509.88	39.266
510.23	39.268
510.57	40.460
510.92	38.806
511.26	40.207
511.61	39.714
511.95	39.452
512.30	38.525
512.64	39.455
512.98	38.574
513.33	40.515
513.67	38.943
514.02	40.389
514.36	39.200
514.70	40.152
515.05	40.541
515.39	39.669
515.74	40.180
516.08	39.570
516.42	40.931
516.77	40.257
517.11	39.407
517.46	38.779
517.80	39.690
518.14	39.620
518.49	39.663
518.83	39.733
519.17	38.326
519.52	39.846
519.86	38.415
520.20	39.793
520.55	39.400
520.89	39.460
521.23	39.075
521.58	40.379
521.92	39.038
522.26	39.102
522.61	38.896
522.95	40.397
523.29	39.517
523.64	40.343
523.98	40.117
524.32	39.369
524.66	40.205
525.01	39.286
525.35	39.469
525.69	40.000
526.04	38.558
526.38	39.754
526.72	37.868
527.06	38.846
527.41	38.720
527.75	38.941
528.09	39.734
528.43	39.635
528.78	38.548
529.12	39.742
529.46	39.766
529.80	39.139
530.15	38.680
530.49	39.529
530.83	40.219
531.17	39.691
531.51	41.313
531.86	38.409
532.20	39.248
532.54	39.619
532.88	38.809
533.22	39.583
533.57	40.301
533.91	39.948
534.25	40.885
534.59	39.641
534.93	38.452
535.27	38.896
535.62	39.404
535.96	39.922
536.30	39.248
536.64	40.524
536.98	39.373
537.32	39.616
537.66	39.481
538.01	40.420
538.35	38.627
538.69	39.214
539.03	38.551
539.37	40.175
539.71	39.741
540.05	38.425
540.39	39.889
540.73	40.028
541.07	39.986
541.42	39.449
541.76	40.193
542.10	39.849
542.44	39.819
542.78	37.164
543.12	39.766
543.46	39.777
543.80	39.695
544.14	37.717
544.48	40.306
544.82	39.645
545.16	41.189
545.50	40.120
545.84	40.439
546.18	39.078
546.52	39.726
546.86	38.821
547.20	39.270
547.54	38.799
547.88	40.353
548.22	38.330
548.56	38.720
548.90	40.162
549.24	38.499
549.58	39.210
549.92	38.385
550.26	38.974
550.60	39.405
550.94	39.582
551.28	39.567
551.62	38.615
551.96	38.421
552.30	38.450
552.64	39.563
552.98	38.889
553.32	40.371
553.66	37.591
554.00	39.489
554.34	39.660
554.68	39.233
555.02	40.030
555.36	38.818
555.69	38.901
556.03	38.473
556.37	37.722
556.71	39.134
557.05	39.001
557.39	38.513
557.73	38.156
558.07	38.839
558.41	39.051
558.75	38.659
559.08	38.613
559.42	39.444
559.76	39.311
560.10	39.067
560.44	39.017
560.78	38.392
561.12	38.646
561.45	38.862
561.79	39.426
562.13	38.183
562.47	38.633
562.81	38.401
563.15	38.082
563.48	38.190
563.82	39.327
564.16	40.320
564.50	38.514
564.84	39.023
565.17	38.833
565.51	40.027
565.85	39.781
566.19	39.589
566.52	39.209
566.86	40.103
567.20	39.228
567.54	39.659
567.88	41.242
568.21	39.762
568.55	39.674
568.89	40.298
569.23	39.961
569.56	40.937
569.90	40.885
570.24	40.305
570.57	40.836
570.91	41.304
571.25	40.381
571.59	39.583
571.92	38.963
572.26	39.704
572.60	39.814
572.93	39.661
573.27	39.216
573.61	39.260
573.95	40.251
574.28	39.619
574.62	38.800
574.96	39.192
575.29	40.257
575.63	38.689
575.97	39.360
576.30	38.684
576.64	38.781
576.98	40.154
577.31	39.813
577.65	39.748
577.98	40.216
578.32	39.333
578.66	39.652
578.99	39.144
579.33	38.996
579.67	38.632
580.00	39.013
580.34	39.229
580.67	39.169
581.01	39.769
581.35	40.482
581.68	39.382
582.02	39.714
582.35	39.759
582.69	39.540
583.02	39.521
583.36	39.058
583.70	39.798
584.03	39.700
584.37	39.272
584.70	38.791
585.04	38.731
585.37	39.754
585.71	39.694
586.04	39.233
586.38	38.757
586.72	40.143
587.05	39.573
587.39	39.642
587.72	39.311
588.06	38.694
588.39	39.732
588.73	39.042
589.06	40.150
589.40	38.991
589.73	39.321
590.07	39.275
590.40	39.474
590.73	39.703
591.07	39.016
591.40	39.359
591.74	39.593
592.07	39.425
592.41	39.929
592.74	39.944
593.08	38.980
593.41	39.671
593.75	39.189
594.08	38.757
594.41	39.410
594.75	38.702
595.08	38.479
595.42	39.529
595.75	39.692
596.09	39.484
596.42	39.355
596.75	38.366
597.09	39.043
597.42	38.573
597.75	39.350
598.09	38.072
598.42	38.583
598.76	39.082
599.09	38.502
599.42	38.765
599.76	39.202
600.09	38.235
600.42	38.476
600.76	38.633
601.09	39.084
601.42	37.524
601.76	39.143
602.09	38.078
602.42	39.553
602.76	38.328
603.09	39.410
603.42	40.217
603.76	38.710
604.09	39.004
604.42	38.283
604.76	38.941
605.09	38.620
605.42	37.878
605.75	39.011
606.09	39.108
606.42	38.157
606.75	39.048
607.09	38.022
607.42	37.572
607.75	37.744
608.08	37.826
608.42	38.374
608.75	39.663
609.08	38.764
609.41	39.036
609.75	36.845
610.08	39.191
610.41	37.923
610.74	38.372
611.07	38.036
611.41	38.609
611.74	39.446
612.07	37.473
612.40	38.293
612.73	39.040
613.07	37.233
613.40	38.184
613.73	37.885
614.06	38.286
614.39	38.353
614.72	37.311
615.06	36.927
615.39	36.081
615.72	36.383
616.05	37.318
616.38	36.695
616.71	37.492
617.05	38.481
617.38	37.586
617.71	38.113
618.04	38.349
618.37	38.462
618.70	37.954
619.03	37.986
619.36	36.324
619.69	38.590
620.03	38.495
620.36	37.482
620.69	37.116
621.02	37.309
621.35	37.427
621.68	37.415
622.01	38.750
622.34	38.069
622.67	37.618
623.00	37.672
623.33	37.348
623.66	37.472
623.99	36.157
624.32	36.958
624.65	36.541
624.99	37.472
625.32	36.391
625.65	37.235
625.98	37.228
626.31	36.825
626.64	37.348
626.97	36.824
627.30	36.602
627.63	37.002
627.96	37.736
628.29	34.968
628.62	35.792
628.95	36.172
629.28	36.694
629.61	35.793
629.94	37.048
630.26	36.462
630.59	37.877
630.92	36.205
631.25	35.385
631.58	37.335
631.91	36.623
632.24	36.697
632.57	36.705
632.90	36.180
633.23	35.294
633.56	34.887
633.89	36.498
