SpectraSuite Data File
++++++++++++++++++++++++++++++++++++
Date: Fri May 15 20:03:35 PDT 2015
User: schluterlab
Dark Spectrum Present: Yes
Reference Spectrum Present: Yes
Number of Sampled Component Spectra: 1
Spectrometers: USB2E3373
Integration Time (usec): 3000 (USB2E3373)
Spectra Averaged: 3 (USB2E3373)
Boxcar Smoothing: 0 (USB2E3373)
Correct for Electrical Dark: No (USB2E3373)
Strobe/Lamp Enabled: No (USB2E3373)
Correct for Detector Non-linearity: No (USB2E3373)
Correct for Stray Light: No (USB2E3373)
Number of Pixels in Processed Spectrum: 2048
>>>>>Begin Processed Spectral Data<<<<<
178.53	0.000
178.91	0.000
179.29	-50.000
179.67	-550.000
180.04	-28.571
180.42	150.000
180.80	900.000
181.18	-33.333
181.56	350.000
181.94	150.000
182.31	300.000
182.69	-80.000
183.07	-100.000
183.45	0.000
183.83	16.667
184.20	72.727
184.58	100.000
184.96	-150.000
185.34	-66.667
185.72	-50.000
186.09	69.231
186.47	300.000
186.85	50.000
187.23	133.333
187.61	300.000
187.98	100.000
188.36	44.444
188.74	33.333
189.12	76.471
189.49	55.556
189.87	0.000
190.25	57.143
190.63	-100.000
191.00	-366.667
191.38	10.526
191.76	600.000
192.14	175.000
192.51	400.000
192.89	-44.444
193.27	-71.429
193.65	-0.000
194.02	109.091
194.40	10.000
194.78	-25.000
195.15	-66.667
195.53	75.000
195.91	250.000
196.29	-450.000
196.66	76.923
197.04	42.857
197.42	-66.667
197.79	-166.667
198.17	-76.923
198.55	2600.000
198.92	-333.333
199.30	200.000
199.68	60.000
200.05	-166.667
200.43	0.000
200.81	66.667
201.18	-233.333
201.56	1000.000
201.94	150.000
202.31	-300.000
202.69	-160.000
203.07	-150.000
203.44	500.000
203.82	0.000
204.19	50.000
204.57	-100.000
204.95	-37.500
205.32	120.000
205.70	-71.429
206.08	50.000
206.45	211.111
206.83	78.571
207.20	-157.143
207.58	100.000
207.96	-200.000
208.33	-60.000
208.71	-150.000
209.08	16.667
209.46	-500.000
209.84	80.000
210.21	-900.000
210.59	71.429
210.96	-16.667
211.34	50.000
211.71	86.667
212.09	-100.000
212.46	-500.000
212.84	0.000
213.22	70.000
213.59	150.000
213.97	76.923
214.34	36.364
214.72	33.333
215.09	275.000
215.47	15.385
215.84	0.000
216.22	0.000
216.59	75.000
216.97	150.000
217.34	-100.000
217.72	-200.000
218.09	75.000
218.47	100.000
218.84	-1300.000
219.22	-33.333
219.59	40.000
219.97	133.333
220.34	250.000
220.72	85.714
221.09	-175.000
221.47	300.000
221.84	-300.000
222.22	-450.000
222.59	36.364
222.97	25.000
223.34	-200.000
223.72	-14.286
224.09	52.381
224.46	50.000
224.84	400.000
225.21	-90.000
225.59	6.667
225.96	-350.000
226.34	250.000
226.71	-42.857
227.08	-116.667
227.46	50.000
227.83	350.000
228.21	66.667
228.58	-18.182
228.95	-50.000
229.33	120.000
229.70	31.250
230.08	-75.000
230.45	-14.286
230.82	42.857
231.20	0.000
231.57	78.571
231.95	200.000
232.32	-60.000
232.69	92.857
233.07	0.000
233.44	-100.000
233.81	-80.000
234.19	0.000
234.56	-5.882
234.93	300.000
235.31	200.000
235.68	-220.000
236.05	-15.385
236.43	5.000
236.80	76.471
237.17	34.375
237.55	0.000
237.92	25.926
238.29	16.667
238.67	16.667
239.04	8.824
239.41	-2.439
239.79	-3.333
240.16	51.220
240.53	5.263
240.91	8.696
241.28	28.571
241.65	42.857
242.02	16.438
242.40	13.333
242.77	20.339
243.14	19.697
243.51	16.250
243.89	40.230
244.26	27.586
244.63	36.905
245.00	30.928
245.38	27.835
245.75	14.607
246.12	16.379
246.49	23.140
246.87	28.846
247.24	14.286
247.61	27.193
247.98	22.764
248.36	31.875
248.73	31.579
249.10	18.831
249.47	24.684
249.84	28.105
250.22	23.529
250.59	25.490
250.96	24.413
251.33	19.767
251.70	27.059
252.08	20.305
252.45	25.248
252.82	16.583
253.19	24.424
253.56	21.028
253.94	23.874
254.31	21.304
254.68	25.877
255.05	25.591
255.42	21.834
255.79	24.710
256.16	22.179
256.54	27.239
256.91	23.954
257.28	22.305
257.65	23.970
258.02	19.858
258.39	21.549
258.76	23.810
259.14	22.259
259.51	24.272
259.88	25.773
260.25	19.935
260.62	29.167
260.99	22.712
261.36	21.575
261.73	25.633
262.10	22.188
262.47	26.687
262.85	21.630
263.22	23.385
263.59	28.037
263.96	22.360
264.33	24.848
264.70	23.214
265.07	19.643
265.44	25.212
265.81	24.294
266.18	25.683
266.55	25.193
266.92	24.611
267.29	27.415
267.66	21.995
268.03	24.869
268.40	23.499
268.77	24.064
269.14	23.981
269.51	22.879
269.88	21.945
270.25	21.173
270.62	18.780
270.99	23.785
271.36	22.005
271.73	24.178
272.10	22.871
272.47	19.385
272.84	22.030
273.21	23.898
273.58	21.205
273.95	25.629
274.32	20.785
274.69	20.136
275.06	22.545
275.43	21.088
275.80	24.283
276.17	22.529
276.54	21.199
276.91	23.246
277.28	23.799
277.65	22.521
278.02	23.617
278.39	21.444
278.76	23.270
279.13	18.880
279.50	21.429
279.87	21.382
280.23	22.581
280.60	23.587
280.97	22.424
281.34	21.923
281.71	23.203
282.08	21.881
282.45	21.135
282.82	20.656
283.19	21.663
283.56	19.846
283.92	22.770
284.29	18.654
284.66	21.318
285.03	20.236
285.40	18.904
285.77	21.265
286.14	21.300
286.51	21.587
286.87	20.475
287.24	23.389
287.61	19.753
287.98	23.684
288.35	20.624
288.72	22.067
289.08	18.229
289.45	21.793
289.82	19.406
290.19	19.283
290.56	19.726
290.93	18.182
291.29	17.411
291.66	20.945
292.03	19.777
292.40	20.000
292.77	18.660
293.13	17.208
293.50	17.602
293.87	18.626
294.24	17.929
294.60	19.374
294.97	18.155
295.34	18.252
295.71	17.437
296.08	16.741
296.44	15.789
296.81	16.667
297.18	17.971
297.55	18.293
297.91	18.082
298.28	18.865
298.65	16.554
299.02	16.981
299.38	16.005
299.75	16.690
300.12	17.277
300.48	17.655
300.85	17.490
301.22	15.325
301.59	16.974
301.95	17.722
302.32	18.547
302.69	17.289
303.05	17.450
303.42	17.310
303.79	19.393
304.15	18.519
304.52	17.955
304.89	17.778
305.25	17.070
305.62	17.736
305.99	16.725
306.35	17.341
306.72	17.435
307.09	17.446
307.45	19.173
307.82	18.750
308.19	18.467
308.55	16.358
308.92	19.826
309.29	18.324
309.65	17.653
310.02	20.682
310.38	17.563
310.75	20.656
311.12	19.376
311.48	19.936
311.85	18.953
312.22	20.675
312.58	21.125
312.95	19.851
313.31	20.600
313.68	20.733
314.05	21.531
314.41	21.443
314.78	22.268
315.14	23.433
315.51	22.360
315.87	24.078
316.24	25.986
316.61	24.409
316.97	24.901
317.34	25.293
317.70	26.291
318.07	25.962
318.43	27.157
318.80	27.652
319.16	29.004
319.53	28.775
319.89	31.299
320.26	29.352
320.62	31.394
320.99	30.898
321.35	31.757
321.72	33.749
322.08	32.931
322.45	32.690
322.81	33.399
323.18	33.955
323.54	35.811
323.91	37.390
324.27	38.184
324.64	39.607
325.00	40.328
325.37	43.893
325.73	42.974
326.10	43.233
326.46	47.085
326.83	46.019
327.19	46.731
327.56	48.914
327.92	51.496
328.29	49.554
328.65	52.358
329.01	52.390
329.38	54.747
329.74	54.297
330.11	54.402
330.47	56.215
330.84	55.673
331.20	58.840
331.56	57.407
331.93	59.178
332.29	61.045
332.66	58.552
333.02	60.037
333.38	58.203
333.75	62.454
334.11	60.251
334.48	61.469
334.84	62.637
335.20	61.848
335.57	62.103
335.93	64.679
336.29	62.707
336.66	65.032
337.02	65.706
337.38	63.426
337.75	64.182
338.11	64.112
338.47	66.058
338.84	64.140
339.20	64.899
339.56	65.413
339.93	63.563
340.29	64.679
340.65	65.591
341.02	66.135
341.38	65.487
341.74	64.399
342.11	64.038
342.47	66.370
342.83	65.138
343.20	66.638
343.56	66.957
343.92	64.748
344.28	65.841
344.65	67.358
345.01	65.774
345.37	65.601
345.73	65.272
346.10	66.178
346.46	64.760
346.82	66.367
347.19	63.924
347.55	65.831
347.91	67.314
348.27	66.047
348.63	66.184
349.00	65.463
349.36	66.417
349.72	67.247
350.08	66.885
350.45	65.523
350.81	64.535
351.17	65.309
351.53	66.694
351.89	65.566
352.26	65.600
352.62	65.887
352.98	66.104
353.34	65.459
353.70	67.071
354.07	66.371
354.43	66.133
354.79	67.300
355.15	66.587
355.51	65.981
355.87	67.314
356.24	67.781
356.60	66.855
356.96	67.063
357.32	66.374
357.68	67.787
358.04	66.721
358.40	67.765
358.77	66.986
359.13	69.416
359.49	65.408
359.85	68.253
360.21	67.943
360.57	68.095
360.93	67.700
361.29	67.221
361.66	67.085
362.02	68.409
362.38	68.545
362.74	69.190
363.10	69.225
363.46	68.495
363.82	69.797
364.18	67.897
364.54	68.162
364.90	69.104
365.26	68.850
365.62	70.730
365.98	70.528
366.35	69.410
366.71	69.254
367.07	69.956
367.43	69.518
367.79	70.035
368.15	69.706
368.51	69.701
368.87	70.424
369.23	68.375
369.59	70.190
369.95	71.774
370.31	70.087
370.67	70.373
371.03	69.529
371.39	70.897
371.75	69.377
372.11	68.331
372.47	71.598
372.83	70.759
373.19	69.829
373.55	71.408
373.91	71.274
374.27	72.289
374.63	71.141
374.99	70.993
375.35	72.214
375.71	73.706
376.07	72.472
376.42	71.701
376.78	73.826
377.14	72.918
377.50	74.568
377.86	73.427
378.22	74.601
378.58	73.782
378.94	71.014
379.30	72.614
379.66	74.796
380.02	73.942
380.38	73.889
380.74	74.387
381.09	73.374
381.45	74.128
381.81	75.324
382.17	74.175
382.53	75.203
382.89	75.455
383.25	76.229
383.61	75.732
383.97	74.476
384.32	74.609
384.68	74.737
385.04	74.816
385.40	74.487
385.76	77.296
386.12	76.455
386.48	76.692
386.83	77.362
387.19	75.702
387.55	76.600
387.91	76.222
388.27	75.641
388.62	77.659
388.98	75.691
389.34	76.015
389.70	76.880
390.06	74.638
390.42	75.972
390.77	76.324
391.13	77.175
391.49	76.261
391.85	78.622
392.20	76.899
392.56	77.813
392.92	77.628
393.28	77.064
393.64	76.637
393.99	77.743
394.35	77.419
394.71	76.245
395.07	75.613
395.42	75.835
395.78	78.371
396.14	76.608
396.50	76.538
396.85	77.592
397.21	77.569
397.57	76.614
397.92	75.674
398.28	77.759
398.64	74.157
399.00	77.201
399.35	77.088
399.71	75.531
400.07	74.970
400.42	74.908
400.78	76.363
401.14	74.350
401.49	75.462
401.85	74.223
402.21	76.627
402.57	78.375
402.92	75.721
403.28	76.190
403.63	75.347
403.99	76.786
404.35	75.578
404.70	74.643
405.06	74.677
405.42	74.208
405.77	74.898
406.13	76.542
406.49	73.357
406.84	75.550
407.20	74.413
407.55	74.372
407.91	75.468
408.27	74.952
408.62	74.954
408.98	73.259
409.34	74.287
409.69	72.933
410.05	72.906
410.40	74.383
410.76	74.186
411.11	74.812
411.47	75.214
411.83	71.877
412.18	75.869
412.54	73.908
412.89	74.569
413.25	73.887
413.60	74.348
413.96	73.865
414.31	73.841
414.67	73.380
415.03	74.900
415.38	73.499
415.74	74.332
416.09	76.094
416.45	74.072
416.80	73.496
417.16	77.555
417.51	76.016
417.87	76.010
418.22	75.972
418.58	76.321
418.93	75.799
419.29	74.456
419.64	75.049
420.00	78.338
420.35	76.358
420.71	77.704
421.06	76.120
421.42	77.344
421.77	77.977
422.12	76.447
422.48	77.694
422.83	77.436
423.19	77.483
423.54	78.483
423.90	77.208
424.25	77.842
424.61	79.498
424.96	77.642
425.31	81.225
425.67	78.873
426.02	79.800
426.38	81.027
426.73	79.964
427.09	82.089
427.44	80.765
427.79	80.318
428.15	80.400
428.50	80.254
428.85	78.870
429.21	81.494
429.56	82.911
429.92	81.048
430.27	81.404
430.62	80.345
430.98	82.537
431.33	81.703
431.68	81.266
432.04	83.958
432.39	81.917
432.74	82.020
433.10	83.161
433.45	83.094
433.80	84.562
434.16	83.102
434.51	83.602
434.86	83.566
435.22	84.464
435.57	84.716
435.92	85.629
436.28	82.230
436.63	85.511
436.98	84.183
437.34	83.243
437.69	85.450
438.04	82.507
438.39	85.706
438.75	85.610
439.10	84.041
439.45	86.427
439.81	83.914
440.16	88.183
440.51	86.448
440.86	88.157
441.22	85.407
441.57	86.148
441.92	88.930
442.27	88.137
442.63	87.099
442.98	87.019
443.33	86.923
443.68	86.950
444.03	87.283
444.39	87.949
444.74	88.573
445.09	87.806
445.44	89.117
445.79	88.963
446.15	85.242
446.50	87.133
446.85	88.629
447.20	88.634
447.55	86.607
447.91	86.633
448.26	87.820
448.61	88.371
448.96	89.673
449.31	88.786
449.66	88.560
450.02	88.363
450.37	90.041
450.72	86.770
451.07	89.114
451.42	87.703
451.77	87.583
452.12	88.696
452.47	87.250
452.83	88.339
453.18	87.287
453.53	89.570
453.88	89.860
454.23	88.752
454.58	89.484
454.93	89.175
455.28	88.254
455.63	89.151
455.98	87.252
456.34	88.697
456.69	88.818
457.04	87.839
457.39	88.821
457.74	89.238
458.09	87.463
458.44	88.239
458.79	87.843
459.14	89.531
459.49	90.149
459.84	89.002
460.19	89.988
460.54	90.037
460.89	90.909
461.24	89.814
461.59	89.252
461.94	86.478
462.29	89.566
462.64	90.631
462.99	89.032
463.34	89.082
463.69	88.932
464.04	88.983
464.39	88.720
464.74	88.344
465.09	89.145
465.44	90.479
465.79	88.549
466.14	89.852
466.49	90.052
466.84	88.578
467.19	89.424
467.54	90.102
467.89	89.829
468.24	89.538
468.59	89.841
468.94	89.714
469.29	90.623
469.64	88.380
469.99	91.801
470.34	89.420
470.68	88.591
471.03	88.960
471.38	88.302
471.73	88.866
472.08	88.467
472.43	88.859
472.78	87.731
473.13	91.156
473.48	88.730
473.83	88.605
474.17	89.896
474.52	89.981
474.87	90.424
475.22	88.347
475.57	89.723
475.92	90.839
476.27	88.999
476.61	92.014
476.96	88.120
477.31	90.644
477.66	89.157
478.01	90.848
478.36	89.706
478.70	90.919
479.05	89.945
479.40	92.581
479.75	89.103
480.10	89.042
480.45	90.150
480.79	91.843
481.14	91.496
481.49	89.212
481.84	91.264
482.19	91.768
482.53	90.312
482.88	90.167
483.23	88.628
483.58	89.717
483.92	89.787
484.27	88.924
484.62	90.498
484.97	88.433
485.31	91.221
485.66	91.671
486.01	93.243
486.36	93.774
486.70	93.712
487.05	92.674
487.40	91.443
487.75	90.704
488.09	88.999
488.44	88.480
488.79	89.989
489.13	88.662
489.48	88.200
489.83	89.103
490.17	88.584
490.52	89.284
490.87	88.107
491.22	89.589
491.56	88.805
491.91	87.763
492.26	90.715
492.60	89.491
492.95	91.490
493.30	89.839
493.64	91.896
493.99	90.290
494.34	89.078
494.68	90.381
495.03	89.781
495.37	90.137
495.72	89.500
496.07	92.293
496.41	89.245
496.76	90.143
497.11	89.148
497.45	89.403
497.80	90.616
498.14	88.773
498.49	89.944
498.84	88.723
499.18	89.709
499.53	90.079
499.87	89.932
500.22	90.356
500.56	90.318
500.91	89.408
501.26	89.125
501.60	89.867
501.95	89.520
502.29	90.412
502.64	90.637
502.98	91.712
503.33	90.010
503.67	90.265
504.02	90.469
504.36	90.648
504.71	88.889
505.06	88.727
505.40	88.985
505.75	90.309
506.09	88.900
506.44	91.016
506.78	89.490
507.13	90.383
507.47	88.355
507.82	89.476
508.16	89.752
508.51	90.241
508.85	90.267
509.19	90.474
509.54	89.544
509.88	88.350
510.23	90.102
510.57	88.883
510.92	88.966
511.26	90.016
511.61	89.494
511.95	88.822
512.30	89.246
512.64	89.260
512.98	88.546
513.33	88.864
513.67	89.198
514.02	91.133
514.36	90.971
514.70	89.860
515.05	89.600
515.39	89.847
515.74	91.497
516.08	88.822
516.42	89.929
516.77	89.877
517.11	90.148
517.46	90.365
517.80	87.723
518.14	88.855
518.49	88.041
518.83	89.672
519.17	87.811
519.52	88.159
519.86	88.475
520.20	89.307
520.55	89.744
520.89	88.896
521.23	88.284
521.58	91.293
521.92	88.205
522.26	88.159
522.61	89.805
522.95	89.801
523.29	88.119
523.64	88.755
523.98	88.334
524.32	89.240
524.66	89.437
525.01	89.351
525.35	87.881
525.69	89.428
526.04	89.021
526.38	89.494
526.72	87.443
527.06	86.900
527.41	89.182
527.75	88.405
528.09	88.106
528.43	91.155
528.78	88.185
529.12	88.774
529.46	90.188
529.80	87.270
530.15	89.241
530.49	89.158
530.83	90.219
531.17	88.180
531.51	89.398
531.86	87.695
532.20	89.074
532.54	88.087
532.88	87.885
533.22	88.642
533.57	88.270
533.91	89.687
534.25	91.081
534.59	89.994
534.93	87.036
535.27	87.627
535.62	88.853
535.96	88.976
536.30	87.665
536.64	88.973
536.98	88.502
537.32	90.043
537.66	87.237
538.01	88.951
538.35	88.350
538.69	87.284
539.03	87.491
539.37	87.820
539.71	87.798
540.05	86.694
540.39	88.158
540.73	88.354
541.07	89.503
541.42	88.575
541.76	90.227
542.10	88.438
542.44	88.881
542.78	85.891
543.12	89.217
543.46	89.152
543.80	89.244
544.14	85.514
544.48	88.008
544.82	89.269
545.16	90.505
545.50	87.717
545.84	88.739
546.18	89.007
546.52	87.743
546.86	88.066
547.20	88.484
547.54	87.208
547.88	89.674
548.22	88.166
548.56	88.522
548.90	89.892
549.24	88.292
549.58	86.037
549.92	86.562
550.26	87.766
550.60	87.658
550.94	88.723
551.28	89.104
551.62	89.077
551.96	88.571
552.30	89.254
552.64	87.094
552.98	88.256
553.32	87.233
553.66	88.316
554.00	91.241
554.34	89.365
554.68	87.906
555.02	87.426
555.36	89.005
555.69	88.132
556.03	88.365
556.37	88.470
556.71	89.314
557.05	89.485
557.39	87.286
557.73	88.981
558.07	89.744
558.41	89.510
558.75	89.010
559.08	88.416
559.42	87.937
559.76	91.193
560.10	89.908
560.44	89.054
560.78	88.671
561.12	90.762
561.45	91.497
561.79	90.266
562.13	88.573
562.47	88.993
562.81	88.833
563.15	89.210
563.48	89.958
563.82	90.185
564.16	89.903
564.50	88.243
564.84	89.558
565.17	87.458
565.51	92.828
565.85	90.947
566.19	88.793
566.52	90.684
566.86	91.710
567.20	91.283
567.54	92.092
567.88	92.560
568.21	90.611
568.55	92.609
568.89	93.737
569.23	92.585
569.56	93.082
569.90	95.209
570.24	91.217
570.57	93.382
570.91	93.029
571.25	92.831
571.59	91.778
571.92	90.281
572.26	92.814
572.60	91.752
572.93	90.304
573.27	91.223
573.61	91.527
573.95	92.545
574.28	91.684
574.62	91.609
574.96	91.025
575.29	91.090
575.63	89.298
575.97	90.919
576.30	90.245
576.64	90.066
576.98	91.995
577.31	92.357
577.65	93.394
577.98	92.223
578.32	91.700
578.66	90.866
578.99	91.039
579.33	90.257
579.67	89.881
580.00	90.354
580.34	91.343
580.67	90.653
581.01	92.099
581.35	92.420
581.68	93.131
582.02	92.806
582.35	92.609
582.69	92.559
583.02	91.946
583.36	91.673
583.70	91.667
584.03	93.050
584.37	91.333
584.70	91.264
585.04	90.259
585.37	91.941
585.71	92.940
586.04	92.410
586.38	91.678
586.72	92.281
587.05	93.096
587.39	92.927
587.72	94.533
588.06	93.025
588.39	91.826
588.73	92.216
589.06	93.085
589.40	92.050
589.73	92.004
590.07	92.372
590.40	92.724
590.73	92.875
591.07	91.306
591.40	92.164
591.74	90.995
592.07	92.254
592.41	92.668
592.74	93.031
593.08	92.875
593.41	94.629
593.75	92.051
594.08	91.349
594.41	91.521
594.75	91.641
595.08	92.471
595.42	93.007
595.75	93.579
596.09	92.494
596.42	91.897
596.75	91.341
597.09	91.800
597.42	91.463
597.75	93.220
598.09	91.535
598.42	91.516
598.76	92.021
599.09	92.949
599.42	91.436
599.76	92.664
600.09	91.290
600.42	92.798
600.76	91.010
601.09	92.099
601.42	90.952
601.76	91.941
602.09	92.863
602.42	92.249
602.76	92.233
603.09	94.228
603.42	93.938
603.76	92.863
604.09	92.912
604.42	91.878
604.76	92.301
605.09	91.453
605.42	90.700
605.75	92.382
606.09	92.696
606.42	90.909
606.75	91.472
607.09	91.429
607.42	91.537
607.75	90.275
608.08	89.892
608.42	88.990
608.75	91.373
609.08	94.071
609.41	91.066
609.75	91.683
610.08	92.861
610.41	91.691
610.74	91.760
611.07	92.610
611.41	93.306
611.74	93.177
612.07	90.150
612.40	91.521
612.73	93.559
613.07	92.463
613.40	91.193
613.73	92.669
614.06	91.375
614.39	91.935
614.72	91.092
615.06	91.955
615.39	89.738
615.72	90.635
616.05	90.615
616.38	89.459
616.71	90.581
617.05	91.353
617.38	89.441
617.71	93.208
618.04	91.619
618.37	93.947
618.70	92.343
619.03	90.903
619.36	89.653
619.69	92.722
620.03	92.549
620.36	94.063
620.69	90.650
621.02	89.297
621.35	92.033
621.68	93.112
622.01	90.417
622.34	90.423
622.67	91.483
623.00	89.816
623.33	92.226
623.66	90.651
623.99	90.545
624.32	91.103
624.65	91.053
624.99	93.153
625.32	91.812
625.65	90.888
625.98	92.506
626.31	91.438
626.64	91.334
626.97	91.798
627.30	91.068
627.63	89.081
627.96	90.207
628.29	89.824
628.62	88.201
628.95	90.080
629.28	92.339
629.61	91.127
629.94	90.420
630.26	88.933
630.59	90.427
630.92	91.692
631.25	87.590
631.58	91.410
631.91	89.912
632.24	92.890
632.57	88.864
632.90	87.544
633.23	89.529
633.56	90.176
633.89	89.026
