SpectraSuite Data File
++++++++++++++++++++++++++++++++++++
Date: Fri May 15 17:16:06 PDT 2015
User: schluterlab
Dark Spectrum Present: Yes
Reference Spectrum Present: Yes
Number of Sampled Component Spectra: 1
Spectrometers: USB2E3373
Integration Time (usec): 3000 (USB2E3373)
Spectra Averaged: 3 (USB2E3373)
Boxcar Smoothing: 0 (USB2E3373)
Correct for Electrical Dark: No (USB2E3373)
Strobe/Lamp Enabled: No (USB2E3373)
Correct for Detector Non-linearity: No (USB2E3373)
Correct for Stray Light: No (USB2E3373)
Number of Pixels in Processed Spectrum: 2048
>>>>>Begin Processed Spectral Data<<<<<
178.53	0.000
178.91	0.000
179.29	175.000
179.67	-200.000
180.04	-128.571
180.42	250.000
180.80	500.000
181.18	33.333
181.56	-0.000
181.94	200.000
182.31	900.000
182.69	140.000
183.07	33.333
183.45	140.000
183.83	-0.000
184.20	-18.182
184.58	44.444
184.96	-25.000
185.34	-166.667
185.72	-50.000
186.09	69.231
186.47	-300.000
186.85	133.333
187.23	144.444
187.61	200.000
187.98	-200.000
188.36	55.556
188.74	33.333
189.12	5.882
189.49	72.222
189.87	0.000
190.25	14.286
190.63	-100.000
191.00	200.000
191.38	26.316
191.76	950.000
192.14	-0.000
192.51	150.000
192.89	-55.556
193.27	0.000
193.65	200.000
194.02	54.545
194.40	30.000
194.78	-25.000
195.15	8.333
195.53	37.500
195.91	175.000
196.29	75.000
196.66	61.538
197.04	-14.286
197.42	33.333
197.79	-133.333
198.17	-61.538
198.55	700.000
198.92	166.667
199.30	1400.000
199.68	200.000
200.05	-133.333
200.43	0.000
200.81	66.667
201.18	166.667
201.56	500.000
201.94	100.000
202.31	-166.667
202.69	0.000
203.07	-0.000
203.44	-800.000
203.82	0.000
204.19	121.429
204.57	-433.333
204.95	112.500
205.32	140.000
205.70	142.857
206.08	325.000
206.45	188.889
206.83	50.000
207.20	114.286
207.58	-300.000
207.96	0.000
208.33	80.000
208.71	150.000
209.08	-33.333
209.46	200.000
209.84	-20.000
210.21	400.000
210.59	100.000
210.96	83.333
211.34	75.000
211.71	126.667
212.09	-71.429
212.46	-100.000
212.84	0.000
213.22	0.000
213.59	100.000
213.97	107.692
214.34	9.091
214.72	33.333
215.09	125.000
215.47	-15.385
215.84	45.455
216.22	-100.000
216.59	50.000
216.97	850.000
217.34	125.000
217.72	-120.000
218.09	200.000
218.47	-0.000
218.84	600.000
219.22	-33.333
219.59	140.000
219.97	-133.333
220.34	500.000
220.72	400.000
221.09	225.000
221.47	50.000
221.84	-250.000
222.22	-300.000
222.59	109.091
222.97	75.000
223.34	33.333
223.72	71.429
224.09	66.667
224.46	39.286
224.84	133.333
225.21	60.000
225.59	60.000
225.96	150.000
226.34	75.000
226.71	28.571
227.08	166.667
227.46	150.000
227.83	-350.000
228.21	133.333
228.58	36.364
228.95	62.500
229.33	30.000
229.70	50.000
230.08	-62.500
230.45	114.286
230.82	28.571
231.20	13.333
231.57	107.143
231.95	114.286
232.32	10.000
232.69	64.286
233.07	33.333
233.44	20.000
233.81	-10.000
234.19	111.111
234.56	29.412
234.93	-350.000
235.31	75.000
235.68	-100.000
236.05	38.462
236.43	-5.000
236.80	23.529
237.17	34.375
237.55	30.000
237.92	11.111
238.29	-19.444
238.67	36.667
239.04	-5.882
239.41	-9.756
239.79	-10.000
240.16	26.829
240.53	-15.789
240.91	2.174
241.28	15.873
241.65	12.500
242.02	28.767
242.40	25.000
242.77	-5.085
243.14	-9.091
243.51	11.250
243.89	14.943
244.26	2.299
244.63	17.857
245.00	-2.062
245.38	12.371
245.75	-6.742
246.12	3.448
246.49	8.264
246.87	5.769
247.24	-3.361
247.61	7.895
247.98	-5.691
248.36	1.875
248.73	-3.289
249.10	3.247
249.47	10.759
249.84	-0.654
250.22	2.353
250.59	5.882
250.96	4.695
251.33	-4.651
251.70	0.588
252.08	-0.508
252.45	-1.485
252.82	-1.005
253.19	7.373
253.56	-2.804
253.94	3.604
254.31	3.043
254.68	5.702
255.05	2.362
255.42	3.493
255.79	0.772
256.16	0.778
256.54	4.478
256.91	-0.380
257.28	2.230
257.65	1.124
258.02	-1.418
258.39	3.367
258.76	2.564
259.14	1.993
259.51	0.647
259.88	1.031
260.25	0.980
260.62	2.778
260.99	-0.339
261.36	0.000
261.73	2.532
262.10	2.432
262.47	0.000
262.85	-0.940
263.22	5.846
263.59	2.804
263.96	2.795
264.33	3.030
264.70	-0.893
265.07	-0.893
265.44	3.683
265.81	4.237
266.18	1.366
266.55	2.571
266.92	0.518
267.29	3.916
267.66	0.000
268.03	1.571
268.40	1.044
268.77	5.080
269.14	3.118
269.51	1.799
269.88	0.249
270.25	-0.255
270.62	-0.976
270.99	-1.535
271.36	2.689
271.73	2.582
272.10	1.217
272.47	2.128
272.84	-0.248
273.21	0.464
273.58	3.373
273.95	3.432
274.32	2.079
274.69	-0.679
275.06	1.116
275.43	0.907
275.80	0.221
276.17	-0.230
276.54	5.567
276.91	0.658
277.28	0.000
277.65	3.099
278.02	1.064
278.39	-1.751
278.76	0.419
279.13	0.000
279.50	1.891
279.87	3.024
280.23	-1.290
280.60	3.899
280.97	1.616
281.34	0.962
281.71	3.491
282.08	-1.022
282.45	0.391
282.82	-0.579
283.19	1.354
283.56	1.541
283.92	-0.569
284.29	0.385
284.66	0.581
285.03	-0.982
285.40	-0.378
285.77	1.054
286.14	-0.181
286.51	1.292
286.87	0.914
287.24	-0.184
287.61	-1.940
287.98	2.105
288.35	1.213
288.72	2.277
289.08	0.868
289.45	2.636
289.82	2.273
290.19	1.024
290.56	-0.686
290.93	1.010
291.29	2.157
291.66	0.945
292.03	0.638
292.40	0.484
292.77	-0.319
293.13	-0.974
293.50	-0.303
293.87	1.221
294.24	1.546
294.60	1.043
294.97	2.679
295.34	1.687
295.71	1.788
296.08	0.448
296.44	-0.996
296.81	0.972
297.18	1.159
297.55	1.355
297.91	1.781
298.28	1.979
298.65	0.678
299.02	0.539
299.38	0.274
299.75	0.690
300.12	1.440
300.48	-0.395
300.85	2.535
301.22	0.519
301.59	1.053
301.95	1.139
302.32	3.632
302.69	0.746
303.05	0.124
303.42	1.245
303.79	1.636
304.15	2.151
304.52	-0.595
304.89	0.702
305.25	0.000
305.62	-0.233
305.99	0.936
306.35	-0.116
306.72	-0.562
307.09	0.912
307.45	1.263
307.82	-0.116
308.19	1.045
308.55	1.418
308.92	0.980
309.29	-0.335
309.65	-0.108
310.02	0.440
310.38	1.976
310.75	1.421
311.12	0.538
311.48	-0.318
311.85	0.838
312.22	0.633
312.58	1.486
312.95	1.921
313.31	-0.207
313.68	0.000
314.05	0.714
314.41	2.062
314.78	0.928
315.14	2.364
315.51	2.277
315.87	2.049
316.24	3.539
316.61	2.067
316.97	2.976
317.34	3.125
317.70	4.111
318.07	3.077
318.43	3.137
318.80	4.451
319.16	4.199
319.53	6.078
319.89	5.020
320.26	5.972
320.62	6.520
320.99	5.324
321.35	6.269
321.72	7.788
322.08	7.553
322.45	7.716
322.81	8.841
323.18	8.047
323.54	8.784
323.91	9.542
324.27	12.305
324.64	12.360
325.00	13.321
325.37	14.692
325.73	13.418
326.10	14.260
326.46	16.861
326.83	18.023
327.19	18.221
327.56	19.548
327.92	20.775
328.29	20.625
328.65	22.830
329.01	23.254
329.38	23.779
329.74	24.363
330.11	25.301
330.47	24.861
330.84	26.923
331.20	27.567
331.56	26.759
331.93	30.776
332.29	30.522
332.66	29.683
333.02	31.041
333.38	30.156
333.75	33.608
334.11	30.797
334.48	33.182
334.84	33.608
335.20	33.760
335.57	33.545
335.93	35.050
336.29	35.543
336.66	34.332
337.02	34.851
337.38	35.926
337.75	37.636
338.11	36.339
338.47	36.314
338.84	38.817
339.20	36.654
339.56	36.606
339.93	37.601
340.29	38.716
340.65	38.441
341.02	37.855
341.38	38.319
341.74	38.516
342.11	37.608
342.47	38.523
342.83	39.014
343.20	38.153
343.56	39.478
343.92	41.010
344.28	40.478
344.65	39.378
345.01	39.239
345.37	39.108
345.73	39.665
346.10	41.242
346.46	40.118
346.82	39.116
347.19	37.905
347.55	40.685
347.91	40.453
348.27	39.369
348.63	40.716
349.00	38.802
349.36	40.233
349.72	42.123
350.08	41.885
350.45	40.862
350.81	41.528
351.17	40.228
351.53	41.469
351.89	40.710
352.26	40.960
352.62	41.371
352.98	41.124
353.34	40.338
353.70	42.152
354.07	40.565
354.43	41.713
354.79	42.197
355.15	41.667
355.51	42.642
355.87	43.285
356.24	41.191
356.60	43.250
356.96	42.857
357.32	41.134
357.68	41.595
358.04	42.246
358.40	42.765
358.77	42.982
359.13	42.754
359.49	40.524
359.85	42.434
360.21	44.099
360.57	43.076
360.93	42.965
361.29	42.372
361.66	43.966
362.02	45.152
362.38	43.260
362.74	43.528
363.10	44.771
363.46	43.958
363.82	44.929
364.18	44.207
364.54	43.162
364.90	44.803
365.26	45.197
365.62	46.277
365.98	45.088
366.35	45.375
366.71	46.489
367.07	47.170
367.43	46.154
367.79	45.724
368.15	44.724
368.51	45.885
368.87	46.159
369.23	44.621
369.59	47.595
369.95	46.701
370.31	46.387
370.67	46.866
371.03	46.079
371.39	47.192
371.75	47.546
372.11	46.220
372.47	48.299
372.83	47.906
373.19	47.789
373.55	48.014
373.91	47.372
374.27	49.681
374.63	48.313
374.99	48.723
375.35	49.930
375.71	50.210
376.07	49.017
376.42	50.136
376.78	49.732
377.14	50.034
377.50	49.602
377.86	50.134
378.22	50.223
378.58	50.962
378.94	49.716
379.30	50.655
379.66	51.724
380.02	51.993
380.38	51.248
380.74	51.167
381.09	53.190
381.45	51.070
381.81	52.313
382.17	53.299
382.53	52.530
382.89	53.107
383.25	53.951
383.61	53.598
383.97	52.952
384.32	54.034
384.68	53.189
385.04	52.819
385.40	54.014
385.76	54.528
386.12	56.080
386.48	54.917
386.83	53.393
387.19	54.518
387.55	55.834
387.91	55.807
388.27	51.770
388.62	56.451
388.98	55.617
389.34	55.153
389.70	55.935
390.06	54.877
390.42	55.894
390.77	54.872
391.13	54.855
391.49	55.304
391.85	54.971
392.20	54.802
392.56	55.817
392.92	56.195
393.28	57.075
393.64	55.075
393.99	56.364
394.35	56.483
394.71	55.683
395.07	54.683
395.42	55.009
395.78	57.003
396.14	55.990
396.50	56.373
396.85	57.308
397.21	55.952
397.57	55.737
397.92	56.561
398.28	57.241
398.64	54.518
399.00	55.305
399.35	56.208
399.71	56.002
400.07	56.288
400.42	55.814
400.78	56.644
401.14	56.443
401.49	56.522
401.85	56.368
402.21	56.325
402.57	55.875
402.92	54.517
403.28	54.699
403.63	56.873
403.99	56.952
404.35	56.902
404.70	55.774
405.06	54.642
405.42	55.500
405.77	55.665
406.13	55.879
406.49	55.891
406.84	55.562
407.20	56.231
407.55	53.574
407.91	56.217
408.27	55.641
408.62	55.754
408.98	55.268
409.34	56.506
409.69	55.814
410.05	52.956
410.40	55.679
410.76	55.669
411.11	55.625
411.47	55.095
411.83	55.304
412.18	55.598
412.54	54.682
412.89	54.680
413.25	55.776
413.60	54.969
413.96	54.294
414.31	56.463
414.67	54.843
415.03	54.794
415.38	54.112
415.74	55.244
416.09	55.976
416.45	54.828
416.80	54.660
417.16	55.870
417.51	55.630
417.87	54.889
418.22	55.699
418.58	55.652
418.93	56.426
419.29	54.802
419.64	56.384
420.00	57.305
420.35	54.925
420.71	55.711
421.06	56.108
421.42	56.731
421.77	56.821
422.12	55.789
422.48	56.470
422.83	56.032
423.19	55.982
423.54	56.437
423.90	56.066
424.25	57.865
424.61	57.038
424.96	56.214
425.31	58.174
425.67	57.746
426.02	58.775
426.38	58.485
426.73	57.627
427.09	58.228
427.44	57.824
427.79	58.103
428.15	57.767
428.50	58.025
428.85	57.617
429.21	57.895
429.56	59.892
429.92	58.654
430.27	57.343
430.62	58.547
430.98	58.705
431.33	58.570
431.68	57.614
432.04	58.860
432.39	57.787
432.74	59.351
433.10	60.345
433.45	59.140
433.80	59.779
434.16	58.560
434.51	59.247
434.86	60.221
435.22	59.282
435.57	61.572
435.92	59.880
436.28	59.213
436.63	60.125
436.98	60.023
437.34	59.165
437.69	61.061
438.04	61.254
438.39	60.538
438.75	61.870
439.10	60.498
439.45	62.873
439.81	59.878
440.16	62.945
440.51	60.418
440.86	63.625
441.22	61.143
441.57	63.190
441.92	62.907
442.27	62.971
442.63	62.099
442.98	63.699
443.33	62.604
443.68	62.653
444.03	63.487
444.39	62.076
444.74	62.932
445.09	63.029
445.44	64.957
445.79	64.466
446.15	62.720
446.50	62.230
446.85	64.240
447.20	63.816
447.55	63.170
447.91	64.749
448.26	64.371
448.61	64.249
448.96	63.396
449.31	63.873
449.66	63.240
450.02	63.092
450.37	64.730
450.72	64.548
451.07	64.684
451.42	64.295
451.77	64.256
452.12	63.696
452.47	63.941
452.83	63.722
453.18	62.872
453.53	63.717
453.88	65.088
454.23	64.290
454.58	65.239
454.93	64.884
455.28	63.556
455.63	63.484
455.98	65.845
456.34	64.368
456.69	64.740
457.04	65.658
457.39	65.492
457.74	66.022
458.09	63.626
458.44	64.892
458.79	63.361
459.14	65.217
459.49	64.896
459.84	64.749
460.19	65.716
460.54	65.831
460.89	65.568
461.24	66.646
461.59	64.371
461.94	64.025
462.29	63.752
462.64	67.243
462.99	65.403
463.34	64.117
463.69	65.508
464.04	65.194
464.39	65.919
464.74	64.908
465.09	65.377
465.44	66.532
465.79	64.116
466.14	64.994
466.49	65.382
466.84	65.616
467.19	65.332
467.54	65.390
467.89	65.256
468.24	64.294
468.59	65.587
468.94	64.635
469.29	65.311
469.64	64.115
469.99	64.891
470.34	64.437
470.68	65.772
471.03	64.827
471.38	64.551
471.73	65.476
472.08	63.365
472.43	64.966
472.78	63.811
473.13	65.578
473.48	64.625
473.83	64.321
474.17	65.479
474.52	65.475
474.87	64.061
475.22	64.063
475.57	63.467
475.92	64.893
476.27	64.726
476.61	65.567
476.96	63.023
477.31	64.684
477.66	64.775
478.01	64.627
478.36	64.815
478.70	65.905
479.05	65.879
479.40	66.296
479.75	64.234
480.10	64.107
480.45	64.250
480.79	65.509
481.14	66.291
481.49	64.187
481.84	65.010
482.19	65.762
482.53	65.420
482.88	63.246
483.23	63.820
483.58	64.764
483.92	65.102
484.27	63.628
484.62	64.097
484.97	64.552
485.31	65.860
485.66	66.308
486.01	66.588
486.36	66.533
486.70	65.658
487.05	65.513
487.40	64.995
487.75	64.732
488.09	63.999
488.44	64.099
488.79	63.653
489.13	64.704
489.48	63.232
489.83	64.260
490.17	63.371
490.52	63.372
490.87	62.980
491.22	64.852
491.56	63.852
491.91	62.189
492.26	64.803
492.60	63.244
492.95	64.879
493.30	62.970
493.64	64.784
493.99	63.961
494.34	63.932
494.68	63.857
495.03	62.822
495.37	63.935
495.72	64.160
496.07	64.293
496.41	63.679
496.76	64.210
497.11	64.183
497.45	63.341
497.80	64.480
498.14	62.891
498.49	63.992
498.84	63.673
499.18	63.404
499.53	63.343
499.87	64.446
500.22	63.501
500.56	63.187
500.91	62.851
501.26	64.014
501.60	64.191
501.95	64.047
502.29	63.245
502.64	64.044
502.98	65.170
503.33	64.553
503.67	63.133
504.02	63.783
504.36	63.681
504.71	62.525
505.06	63.312
505.40	63.096
505.75	64.433
506.09	62.646
506.44	64.117
506.78	64.235
507.13	63.444
507.47	62.768
507.82	62.447
508.16	62.229
508.51	64.008
508.85	63.579
509.19	61.416
509.54	61.609
509.88	63.323
510.23	62.883
510.57	63.656
510.92	61.780
511.26	63.175
511.61	63.146
511.95	62.740
512.30	62.029
512.64	62.549
512.98	61.538
513.33	62.507
513.67	61.740
514.02	64.245
514.36	63.200
514.70	64.103
515.05	64.336
515.39	62.397
515.74	64.132
516.08	63.299
516.42	63.899
516.77	63.604
517.11	63.205
517.46	62.238
517.80	62.515
518.14	63.013
518.49	61.118
518.83	63.123
519.17	61.007
519.52	62.404
519.86	62.005
520.20	62.697
520.55	62.351
520.89	62.108
521.23	62.381
521.58	62.334
521.92	63.269
522.26	62.394
522.61	62.662
522.95	63.642
523.29	62.198
523.64	62.643
523.98	62.735
524.32	61.469
524.66	62.676
525.01	62.662
525.35	63.448
525.69	62.424
526.04	61.839
526.38	62.776
526.72	61.413
527.06	60.311
527.41	62.071
527.75	61.461
528.09	61.130
528.43	61.918
528.78	61.452
529.12	62.065
529.46	61.533
529.80	60.418
530.15	62.112
530.49	63.098
530.83	63.133
531.17	62.324
531.51	62.380
531.86	61.115
532.20	61.308
532.54	61.334
532.88	61.465
533.22	60.887
533.57	61.468
533.91	60.509
534.25	62.826
534.59	61.514
534.93	59.912
535.27	59.518
535.62	60.531
535.96	61.122
536.30	61.544
536.64	60.924
536.98	62.300
537.32	63.940
537.66	61.501
538.01	61.469
538.35	62.483
538.69	60.786
539.03	60.834
539.37	62.046
539.71	60.464
540.05	61.236
540.39	61.496
540.73	60.251
541.07	61.464
541.42	61.358
541.76	61.390
542.10	60.564
542.44	61.779
542.78	61.803
543.12	60.302
543.46	60.431
543.80	61.485
544.14	58.879
544.48	61.359
544.82	61.244
545.16	60.997
545.50	61.549
545.84	62.606
546.18	60.851
546.52	61.139
546.86	59.885
547.20	61.302
547.54	60.283
547.88	61.481
548.22	59.829
548.56	60.356
548.90	60.580
549.24	60.331
549.58	59.803
549.92	59.471
550.26	60.073
550.60	60.372
550.94	60.045
551.28	60.278
551.62	60.846
551.96	60.902
552.30	61.769
552.64	60.367
552.98	60.338
553.32	60.271
553.66	60.885
554.00	61.898
554.34	60.931
554.68	58.333
555.02	60.789
555.36	61.481
555.69	59.560
556.03	58.815
556.37	60.427
556.71	60.722
557.05	60.030
557.39	59.554
557.73	59.745
558.07	61.086
558.41	60.720
558.75	60.561
559.08	59.259
559.42	60.000
559.76	61.809
560.10	60.550
560.44	60.313
560.78	59.860
561.12	60.931
561.45	60.576
561.79	61.275
562.13	61.036
562.47	59.784
562.81	60.879
563.15	58.886
563.48	59.760
563.82	61.359
564.16	60.446
564.50	60.135
564.84	59.237
565.17	60.094
565.51	61.202
565.85	61.591
566.19	60.610
566.52	61.528
566.86	61.247
567.20	60.834
567.54	61.192
567.88	62.390
568.21	62.500
568.55	61.739
568.89	61.910
569.23	61.290
569.56	62.084
569.90	63.622
570.24	60.588
570.57	62.255
570.91	61.868
571.25	61.361
571.59	61.788
571.92	60.148
572.26	60.839
572.60	60.713
572.93	59.805
573.27	60.658
573.61	60.740
573.95	60.677
574.28	60.885
574.62	60.183
574.96	60.035
575.29	60.222
575.63	59.057
575.97	59.447
576.30	60.135
576.64	59.735
576.98	60.489
577.31	60.727
577.65	60.872
577.98	61.412
578.32	61.502
578.66	59.746
578.99	59.569
579.33	59.331
579.67	58.718
580.00	59.544
580.34	60.498
580.67	59.471
581.01	60.134
581.35	60.164
581.68	60.441
582.02	60.874
582.35	60.799
582.69	60.849
583.02	59.987
583.36	59.924
583.70	60.566
584.03	60.328
584.37	60.982
584.70	60.440
585.04	60.078
585.37	60.369
585.71	60.084
586.04	60.187
586.38	59.483
586.72	60.316
587.05	60.947
587.39	60.917
587.72	61.646
588.06	61.306
588.39	59.784
588.73	59.615
589.06	60.568
589.40	59.074
589.73	61.008
590.07	60.234
590.40	60.565
590.73	60.420
591.07	60.221
591.40	60.374
591.74	61.312
592.07	60.714
592.41	60.954
592.74	60.056
593.08	59.902
593.41	61.087
593.75	60.680
594.08	60.419
594.41	59.461
594.75	59.275
595.08	60.386
595.42	61.023
595.75	60.909
596.09	59.656
596.42	58.950
596.75	60.080
597.09	59.134
597.42	59.846
597.75	61.017
598.09	58.941
598.42	59.116
598.76	59.631
599.09	60.016
599.42	58.507
599.76	59.255
600.09	59.578
600.42	59.818
600.76	58.321
601.09	59.809
601.42	59.694
601.76	59.905
602.09	58.540
602.42	60.489
602.76	58.659
603.09	59.551
603.42	62.124
603.76	60.161
604.09	59.822
604.42	60.533
604.76	59.724
605.09	58.729
605.42	59.323
605.75	58.844
606.09	59.321
606.42	59.133
606.75	58.615
607.09	59.824
607.42	59.637
607.75	60.124
608.08	57.188
608.42	57.378
608.75	59.759
609.08	59.492
609.41	59.746
609.75	58.821
610.08	59.261
610.41	58.792
610.74	60.361
611.07	59.535
611.41	60.353
611.74	59.968
612.07	58.137
612.40	59.464
612.73	59.492
613.07	58.043
613.40	59.300
613.73	58.814
614.06	58.208
614.39	59.786
614.72	57.983
615.06	59.665
615.39	58.352
615.72	58.019
616.05	58.380
616.38	57.778
616.71	58.716
617.05	59.419
617.38	58.894
617.71	59.497
618.04	60.127
618.37	59.899
618.70	60.660
619.03	59.583
619.36	57.959
619.69	60.349
620.03	59.021
620.36	60.086
620.69	59.172
621.02	58.792
621.35	60.083
621.68	59.949
622.01	59.000
622.34	59.777
622.67	58.360
623.00	59.112
623.33	59.375
623.66	58.639
623.99	58.548
624.32	59.544
624.65	58.045
624.99	59.293
625.32	59.287
625.65	59.073
625.98	59.871
626.31	57.523
626.64	59.272
626.97	57.766
627.30	59.632
627.63	59.185
627.96	60.198
628.29	58.187
628.62	59.685
628.95	58.417
629.28	59.375
629.61	59.023
629.94	57.674
630.26	58.004
630.59	60.978
630.92	60.410
631.25	56.103
631.58	59.361
631.91	59.978
632.24	57.569
632.57	58.182
632.90	60.380
633.23	58.353
633.56	61.587
633.89	60.419
634.22	59.630
634.55	60.737
634.88	58.876
635.20	57.051
635.53	57.600
635.86	57.347
636.19	60.285
636.52	58.418
636.85	58.685
637.18	58.868
637.51	56.604
637.83	60.053
