SpectraSuite Data File
++++++++++++++++++++++++++++++++++++
Date: Fri May 15 17:33:16 PDT 2015
User: schluterlab
Dark Spectrum Present: Yes
Reference Spectrum Present: Yes
Number of Sampled Component Spectra: 1
Spectrometers: USB2E3373
Integration Time (usec): 3000 (USB2E3373)
Spectra Averaged: 3 (USB2E3373)
Boxcar Smoothing: 0 (USB2E3373)
Correct for Electrical Dark: No (USB2E3373)
Strobe/Lamp Enabled: No (USB2E3373)
Correct for Detector Non-linearity: No (USB2E3373)
Correct for Stray Light: No (USB2E3373)
Number of Pixels in Processed Spectrum: 2048
>>>>>Begin Processed Spectral Data<<<<<
178.53	0.000
178.91	0.000
179.29	37.500
179.67	100.000
180.04	-85.714
180.42	300.000
180.80	1000.000
181.18	-366.667
181.56	-0.000
181.94	550.000
182.31	-800.000
182.69	-20.000
183.07	-133.333
183.45	180.000
183.83	33.333
184.20	18.182
184.58	77.778
184.96	-250.000
185.34	233.333
185.72	-200.000
186.09	30.769
186.47	300.000
186.85	16.667
187.23	77.778
187.61	-700.000
187.98	200.000
188.36	11.111
188.74	-33.333
189.12	-11.765
189.49	33.333
189.87	0.000
190.25	14.286
190.63	50.000
191.00	0.000
191.38	-10.526
191.76	750.000
192.14	75.000
192.51	750.000
192.89	77.778
193.27	14.286
193.65	33.333
194.02	81.818
194.40	90.000
194.78	37.500
195.15	83.333
195.53	-12.500
195.91	300.000
196.29	200.000
196.66	92.308
197.04	42.857
197.42	-111.111
197.79	-166.667
198.17	-38.462
198.55	500.000
198.92	-366.667
199.30	200.000
199.68	20.000
200.05	66.667
200.43	0.000
200.81	0.000
201.18	133.333
201.56	-100.000
201.94	-150.000
202.31	-0.000
202.69	120.000
203.07	-25.000
203.44	300.000
203.82	0.000
204.19	114.286
204.57	-433.333
204.95	25.000
205.32	40.000
205.70	71.429
206.08	125.000
206.45	222.222
206.83	50.000
207.20	-185.714
207.58	-300.000
207.96	-400.000
208.33	-10.000
208.71	0.000
209.08	0.000
209.46	100.000
209.84	20.000
210.21	-1000.000
210.59	214.286
210.96	16.667
211.34	-50.000
211.71	13.333
212.09	-128.571
212.46	-800.000
212.84	0.000
213.22	160.000
213.59	600.000
213.97	46.154
214.34	-9.091
214.72	216.667
215.09	125.000
215.47	30.769
215.84	45.455
216.22	-233.333
216.59	-75.000
216.97	300.000
217.34	-50.000
217.72	-60.000
218.09	112.500
218.47	62.500
218.84	500.000
219.22	77.778
219.59	80.000
219.97	200.000
220.34	225.000
220.72	-42.857
221.09	75.000
221.47	0.000
221.84	-600.000
222.22	-750.000
222.59	81.818
222.97	66.667
223.34	-33.333
223.72	-57.143
224.09	19.048
224.46	25.000
224.84	66.667
225.21	20.000
225.59	113.333
225.96	-200.000
226.34	250.000
226.71	-42.857
227.08	-83.333
227.46	75.000
227.83	-400.000
228.21	66.667
228.58	63.636
228.95	112.500
229.33	70.000
229.70	31.250
230.08	-62.500
230.45	28.571
230.82	157.143
231.20	-33.333
231.57	71.429
231.95	28.571
232.32	20.000
232.69	50.000
233.07	-66.667
233.44	120.000
233.81	90.000
234.19	222.222
234.56	11.765
234.93	100.000
235.31	75.000
235.68	-80.000
236.05	-46.154
236.43	-55.000
236.80	41.176
237.17	12.500
237.55	-10.000
237.92	7.407
238.29	16.667
238.67	10.000
239.04	-2.941
239.41	-7.317
239.79	-10.000
240.16	29.268
240.53	15.789
240.91	6.522
241.28	6.349
241.65	14.286
242.02	20.548
242.40	35.000
242.77	1.695
243.14	13.636
243.51	17.500
243.89	18.391
244.26	9.195
244.63	8.333
245.00	15.464
245.38	11.340
245.75	8.989
246.12	0.000
246.49	6.612
246.87	6.731
247.24	10.924
247.61	7.018
247.98	1.626
248.36	5.000
248.73	11.842
249.10	3.896
249.47	3.165
249.84	6.536
250.22	12.353
250.59	1.307
250.96	17.840
251.33	5.233
251.70	4.706
252.08	9.137
252.45	3.960
252.82	7.035
253.19	8.295
253.56	5.607
253.94	9.459
254.31	4.783
254.68	10.088
255.05	5.512
255.42	5.677
255.79	7.722
256.16	7.393
256.54	7.836
256.91	4.563
257.28	4.089
257.65	4.869
258.02	4.610
258.39	8.754
258.76	10.256
259.14	9.967
259.51	6.796
259.88	4.811
260.25	2.941
260.62	8.681
260.99	0.678
261.36	2.740
261.73	5.380
262.10	11.854
262.47	6.442
262.85	6.897
263.22	8.000
263.59	7.477
263.96	4.658
264.33	6.970
264.70	8.333
265.07	5.952
265.44	7.649
265.81	3.390
266.18	6.831
266.55	7.712
266.92	6.477
267.29	5.222
267.66	7.161
268.03	6.545
268.40	5.483
268.77	7.487
269.14	4.796
269.51	9.512
269.88	6.983
270.25	5.102
270.62	5.854
270.99	3.581
271.36	5.623
271.73	7.512
272.10	7.786
272.47	8.038
272.84	5.693
273.21	7.657
273.58	9.157
273.95	8.238
274.32	5.312
274.69	3.620
275.06	6.473
275.43	6.576
275.80	6.402
276.17	5.747
276.54	9.636
276.91	6.579
277.28	7.642
277.65	6.198
278.02	6.170
278.39	3.501
278.76	7.966
279.13	4.772
279.50	8.193
279.87	5.616
280.23	4.516
280.60	7.602
280.97	5.253
281.34	8.269
281.71	8.008
282.08	6.135
282.45	6.458
282.82	6.178
283.19	6.576
283.56	6.551
283.92	4.934
284.29	6.731
284.66	5.426
285.03	5.501
285.40	4.915
285.77	4.745
286.14	3.791
286.51	6.458
286.87	5.484
287.24	3.499
287.61	5.291
287.98	6.491
288.35	6.932
288.72	7.005
289.08	4.688
289.45	4.569
289.82	6.294
290.19	5.461
290.56	4.288
290.93	5.219
291.29	5.855
291.66	6.457
292.03	4.147
292.40	5.806
292.77	5.901
293.13	5.519
293.50	5.615
293.87	5.496
294.24	6.028
294.60	3.577
294.97	5.060
295.34	3.374
295.71	4.322
296.08	5.680
296.44	1.707
296.81	5.000
297.18	5.652
297.55	5.827
297.91	5.342
298.28	6.860
298.65	4.749
299.02	4.582
299.38	2.052
299.75	3.310
300.12	4.712
300.48	4.480
300.85	4.563
301.22	3.636
301.59	2.895
301.95	6.456
302.32	5.837
302.69	3.607
303.05	5.074
303.42	4.857
303.79	4.790
304.15	5.137
304.52	2.378
304.89	3.392
305.25	3.995
305.62	3.384
305.99	3.860
306.35	4.162
306.72	2.475
307.09	3.991
307.45	5.396
307.82	3.125
308.19	4.878
308.55	4.362
308.92	5.229
309.29	3.464
309.65	3.767
310.02	3.080
310.38	5.598
310.75	4.590
311.12	2.906
311.48	4.136
311.85	3.141
312.22	3.903
312.58	4.459
312.95	3.735
313.31	3.106
313.68	3.665
314.05	3.469
314.41	4.742
314.78	5.052
315.14	5.344
315.51	5.590
315.87	4.611
316.24	5.460
316.61	6.102
316.97	5.754
317.34	5.469
317.70	5.067
318.07	6.635
318.43	5.686
318.80	6.250
319.16	6.836
319.53	7.312
319.89	6.201
320.26	7.794
320.62	8.325
320.99	7.829
321.35	9.455
321.72	9.346
322.08	8.963
322.45	9.848
322.81	9.725
323.18	10.206
323.54	10.811
323.91	12.269
324.27	12.891
324.64	14.139
325.00	13.595
325.37	16.253
325.73	15.322
326.10	17.802
326.46	18.386
326.83	17.760
327.19	19.006
327.56	21.286
327.92	20.599
328.29	20.179
328.65	21.887
329.01	23.897
329.38	23.687
329.74	24.646
330.11	24.745
330.47	24.954
330.84	25.769
331.20	27.947
331.56	25.278
331.93	28.767
332.29	28.414
332.66	29.050
333.02	30.297
333.38	29.973
333.75	31.410
334.11	31.155
334.48	32.729
334.84	33.425
335.20	31.656
335.57	32.548
335.93	32.520
336.29	33.886
336.66	32.970
337.02	33.922
337.38	32.593
337.75	34.273
338.11	35.257
338.47	36.314
338.84	36.506
339.20	36.563
339.56	36.422
339.93	37.332
340.29	37.523
340.65	36.828
341.02	36.348
341.38	37.699
341.74	37.191
342.11	37.435
342.47	36.655
342.83	39.187
343.20	37.456
343.56	38.435
343.92	37.910
344.28	37.831
344.65	36.097
345.01	38.029
345.37	37.595
345.73	37.908
346.10	37.964
346.46	38.352
346.82	38.953
347.19	37.739
347.55	39.348
347.91	38.430
348.27	38.561
348.63	39.097
349.00	38.228
349.36	39.900
349.72	39.801
350.08	38.689
350.45	38.787
350.81	39.784
351.17	39.007
351.53	39.755
351.89	38.315
352.26	39.920
352.62	39.919
352.98	39.277
353.34	38.889
353.70	40.453
354.07	39.758
354.43	39.872
354.79	40.050
355.15	40.476
355.51	41.297
355.87	39.887
356.24	39.315
356.60	40.986
356.96	41.032
357.32	40.495
357.68	39.484
358.04	40.145
358.40	40.595
358.77	41.547
359.13	41.473
359.49	40.601
359.85	40.406
360.21	41.866
360.57	40.474
360.93	41.225
361.29	39.955
361.66	41.693
362.02	41.818
362.38	41.280
362.74	42.771
363.10	41.234
363.46	41.586
363.82	42.675
364.18	42.288
364.54	41.397
364.90	41.147
365.26	40.975
365.62	42.847
365.98	41.716
366.35	43.918
366.71	43.607
367.07	44.267
367.43	42.128
367.79	43.675
368.15	43.073
368.51	44.355
368.87	42.714
369.23	42.888
369.59	44.096
369.95	44.135
370.31	43.425
370.67	44.254
371.03	43.391
371.39	43.545
371.75	43.736
372.11	43.153
372.47	44.749
372.83	43.364
373.19	43.937
373.55	43.249
373.91	44.348
374.27	45.996
374.63	45.226
374.99	44.752
375.35	44.777
375.71	46.224
376.07	45.716
376.42	45.850
376.78	45.772
377.14	44.753
377.50	45.950
377.86	44.846
378.22	45.629
378.58	46.218
378.94	46.125
379.30	46.850
379.66	46.646
380.02	45.861
380.38	47.474
380.74	46.619
381.09	46.994
381.45	46.422
381.81	47.995
382.17	47.272
382.53	47.096
382.89	47.709
383.25	49.409
383.61	49.878
383.97	47.492
384.32	48.218
384.68	48.607
385.04	47.059
385.40	47.169
385.76	48.428
386.12	48.706
386.48	48.851
386.83	48.066
387.19	48.657
387.55	49.059
387.91	47.738
388.27	49.939
388.62	50.283
388.98	48.005
389.34	48.907
389.70	48.477
390.06	48.710
390.42	47.863
390.77	50.360
391.13	48.424
391.49	49.677
391.85	50.747
392.20	48.713
392.56	49.142
392.92	49.736
393.28	49.233
393.64	48.468
393.99	51.034
394.35	50.285
394.71	49.681
395.07	47.706
395.42	48.695
395.78	49.837
396.14	49.180
396.50	50.476
396.85	50.805
397.21	49.624
397.57	49.781
397.92	49.371
398.28	50.632
398.64	49.036
399.00	50.169
399.35	48.194
399.71	49.110
400.07	48.549
400.42	47.919
400.78	49.663
401.14	48.699
401.49	50.149
401.85	48.873
402.21	48.976
402.57	49.563
402.92	49.247
403.28	50.063
403.63	50.063
403.99	48.278
404.35	49.906
404.70	47.976
405.06	48.061
405.42	49.037
405.77	49.099
406.13	49.010
406.49	47.543
406.84	50.244
407.20	48.164
407.55	47.907
407.91	48.128
408.27	48.502
408.62	49.477
408.98	49.353
409.34	48.017
409.69	48.579
410.05	47.475
410.40	48.704
410.76	49.397
411.11	48.750
411.47	48.521
411.83	47.834
412.18	49.936
412.54	48.502
412.89	46.552
413.25	49.278
413.60	48.447
413.96	46.994
414.31	49.390
414.67	47.723
415.03	49.134
415.38	47.128
415.74	48.795
416.09	49.053
416.45	49.088
416.80	47.323
417.16	50.000
417.51	48.634
417.87	49.087
418.22	49.676
418.58	48.829
418.93	49.843
419.29	48.015
419.64	49.384
420.00	50.315
420.35	48.418
420.71	48.360
421.06	50.153
421.42	50.060
421.77	49.306
422.12	49.659
422.48	49.811
422.83	49.942
423.19	50.508
423.54	49.853
423.90	48.881
424.25	49.713
424.61	50.857
424.96	49.768
425.31	50.838
425.67	51.350
426.02	51.060
426.38	51.722
426.73	51.150
427.09	51.962
427.44	51.235
427.79	50.972
428.15	50.425
428.50	52.756
428.85	50.553
429.21	51.104
429.56	52.022
429.92	51.875
430.27	51.980
430.62	50.863
430.98	51.539
431.33	52.681
431.68	51.805
432.04	52.208
432.39	51.911
432.74	51.233
433.10	51.954
433.45	52.808
433.80	52.583
434.16	54.294
434.51	53.280
434.86	53.542
435.22	53.001
435.57	52.402
435.92	53.713
436.28	53.190
436.63	54.136
436.98	52.955
437.34	53.176
437.69	54.383
438.04	54.701
438.39	53.329
438.75	55.070
439.10	52.915
439.45	54.352
439.81	52.294
440.16	54.691
440.51	54.328
440.86	56.677
441.22	54.525
441.57	54.525
441.92	56.139
442.27	56.486
442.63	55.353
442.98	55.083
443.33	55.314
443.68	54.960
444.03	55.589
444.39	55.189
444.74	57.135
445.09	56.180
445.44	55.328
445.79	56.833
446.15	55.562
446.50	54.908
446.85	56.482
447.20	55.944
447.55	55.748
447.91	54.992
448.26	56.061
448.61	55.728
448.96	55.995
449.31	54.913
449.66	55.459
450.02	56.018
450.37	56.728
450.72	55.785
451.07	57.025
451.42	55.868
451.77	56.902
452.12	56.400
452.47	55.055
452.83	56.302
453.18	55.345
453.53	55.310
453.88	56.102
454.23	55.624
454.58	55.730
454.93	56.959
455.28	54.667
455.63	56.417
455.98	57.186
456.34	56.322
456.69	55.210
457.04	56.648
457.39	56.804
457.74	58.102
458.09	55.739
458.44	57.578
458.79	56.863
459.14	56.579
459.49	57.851
459.84	55.838
460.19	57.282
460.54	57.885
460.89	57.216
461.24	57.888
461.59	56.057
461.94	56.226
462.29	56.514
462.64	57.276
462.99	55.992
463.34	55.494
463.69	56.178
464.04	57.869
464.39	57.975
464.74	57.669
465.09	58.515
465.44	58.223
465.79	57.540
466.14	58.039
466.49	57.159
466.84	57.109
467.19	56.696
467.54	56.386
467.89	56.601
468.24	56.995
468.59	57.905
468.94	55.746
469.29	56.787
469.64	56.596
469.99	59.145
470.34	55.700
470.68	58.091
471.03	58.033
471.38	57.703
471.73	58.263
472.08	56.920
472.43	57.383
472.78	55.792
473.13	58.095
473.48	55.765
473.83	56.974
474.17	58.096
474.52	57.179
474.87	57.576
475.22	58.389
475.57	57.312
475.92	57.213
476.27	57.742
476.61	59.259
476.96	55.828
477.31	57.274
477.66	57.416
478.01	57.833
478.36	57.407
478.70	59.163
479.05	57.088
479.40	57.923
479.75	56.257
480.10	58.474
480.45	57.300
480.79	58.157
481.14	59.221
481.49	57.685
481.84	59.025
482.19	56.876
482.53	58.273
482.88	56.945
483.23	56.814
483.58	57.075
483.92	57.212
484.27	56.791
484.62	56.656
484.97	58.085
485.31	59.285
485.66	61.553
486.01	63.347
486.36	62.327
486.70	61.171
487.05	60.107
487.40	59.411
487.75	57.662
488.09	56.737
488.44	55.571
488.79	56.369
489.13	56.530
489.48	56.947
489.83	56.816
490.17	56.764
490.52	56.536
490.87	54.789
491.22	57.880
491.56	56.499
491.91	56.358
492.26	58.337
492.60	56.334
492.95	59.026
493.30	56.375
493.64	57.466
493.99	56.908
494.34	56.748
494.68	57.286
495.03	57.372
495.37	56.035
495.72	57.395
496.07	57.659
496.41	58.491
496.76	57.623
497.11	56.451
497.45	57.041
497.80	57.568
498.14	55.986
498.49	57.136
498.84	55.888
499.18	58.032
499.53	57.093
499.87	57.053
500.22	56.874
500.56	58.195
500.91	57.129
501.26	56.055
501.60	57.304
501.95	56.914
502.29	57.821
502.64	57.432
502.98	57.770
503.33	56.388
503.67	57.349
504.02	58.358
504.36	57.892
504.71	58.081
505.06	57.021
505.40	56.904
505.75	55.979
506.09	56.462
506.44	57.752
506.78	58.010
507.13	57.342
507.47	55.979
507.82	55.769
508.16	56.471
508.51	57.293
508.85	57.248
509.19	58.116
509.54	56.354
509.88	56.149
510.23	56.643
510.57	56.815
510.92	56.077
511.26	56.247
511.61	57.371
511.95	56.822
512.30	57.262
512.64	56.706
512.98	55.587
513.33	56.016
513.67	55.600
514.02	57.094
514.36	56.800
514.70	57.343
515.05	57.403
515.39	55.549
515.74	57.784
516.08	56.067
516.42	57.479
516.77	58.163
517.11	56.973
517.46	57.151
517.80	56.019
518.14	56.522
518.49	55.709
518.83	55.832
519.17	56.216
519.52	55.536
519.86	55.642
520.20	56.865
520.55	55.159
520.89	56.023
521.23	56.618
521.58	55.773
521.92	55.769
522.26	56.148
522.61	55.455
522.95	56.887
523.29	55.464
523.64	55.654
523.98	55.736
524.32	55.928
524.66	56.274
525.01	55.779
525.35	55.152
525.69	55.152
526.04	55.489
526.38	56.355
526.72	56.050
527.06	54.021
527.41	55.739
527.75	55.697
528.09	55.748
528.43	56.381
528.78	55.512
529.12	56.258
529.46	55.815
529.80	55.985
530.15	57.492
530.49	56.364
530.83	56.566
531.17	55.541
531.51	56.908
531.86	54.453
532.20	53.375
532.54	54.187
532.88	57.221
533.22	56.452
533.57	55.963
533.91	55.614
534.25	56.250
534.59	55.741
534.93	54.563
535.27	55.140
535.62	55.476
535.96	56.556
536.30	56.201
536.64	57.202
536.98	55.331
537.32	56.330
537.66	55.891
538.01	56.643
538.35	56.103
538.69	55.393
539.03	54.409
539.37	55.451
539.71	55.419
540.05	55.601
540.39	56.510
540.73	55.718
541.07	56.215
541.42	56.116
541.76	57.398
542.10	56.366
542.44	55.733
542.78	54.577
543.12	57.418
543.46	56.676
543.80	56.836
544.14	55.874
544.48	57.162
544.82	56.049
545.16	57.309
545.50	56.609
545.84	56.799
546.18	55.887
546.52	56.164
546.86	55.715
547.20	55.866
547.54	54.982
547.88	56.726
548.22	55.753
548.56	56.266
548.90	57.278
549.24	56.405
549.58	55.994
549.92	55.540
550.26	54.725
550.60	56.357
550.94	56.311
551.28	55.487
551.62	57.231
551.96	55.113
552.30	56.944
552.64	55.148
552.98	55.696
553.32	55.777
553.66	55.733
554.00	57.080
554.34	57.090
554.68	53.171
555.02	55.804
555.36	56.395
555.69	54.945
556.03	55.318
556.37	55.445
556.71	55.740
557.05	55.257
557.39	54.796
557.73	56.147
558.07	56.787
558.41	56.662
558.75	55.495
559.08	55.871
559.42	53.889
559.76	55.805
560.10	56.498
560.44	55.920
560.78	57.063
561.12	56.417
561.45	57.765
561.79	57.493
562.13	57.204
562.47	57.194
562.81	56.052
563.15	55.994
563.48	57.072
563.82	58.819
564.16	57.451
564.50	54.662
564.84	55.823
565.17	56.606
565.51	58.675
565.85	58.230
566.19	56.499
566.52	58.445
566.86	57.005
567.20	57.721
567.54	59.489
567.88	60.691
568.21	60.068
568.55	60.163
568.89	61.294
569.23	61.387
569.56	61.208
569.90	62.647
570.24	62.077
570.57	62.982
570.91	63.088
571.25	61.888
571.59	62.535
571.92	61.481
572.26	60.960
572.60	60.589
572.93	60.213
573.27	60.219
573.61	62.381
573.95	62.015
574.28	62.421
574.62	61.836
574.96	61.880
575.29	61.307
575.63	59.186
575.97	60.179
576.30	61.006
576.64	60.821
576.98	62.625
577.31	62.669
577.65	63.096
577.98	63.483
578.32	62.649
578.66	61.100
578.99	60.810
579.33	60.904
579.67	60.232
580.00	60.557
580.34	61.294
580.67	60.089
581.01	62.608
581.35	62.618
581.68	63.570
582.02	63.388
582.35	63.398
582.69	62.661
583.02	61.440
583.36	60.942
583.70	61.007
584.03	62.219
584.37	61.293
584.70	61.154
585.04	60.855
585.37	62.359
585.71	61.614
586.04	61.750
586.38	61.350
586.72	61.234
587.05	62.103
587.39	62.315
587.72	64.215
588.06	61.915
588.39	61.663
588.73	60.836
589.06	61.807
589.40	60.871
589.73	60.387
590.07	61.103
590.40	61.455
590.73	60.091
591.07	59.839
591.40	60.285
591.74	60.407
592.07	60.390
592.41	61.175
592.74	62.246
593.08	61.649
593.41	62.834
593.75	61.891
594.08	60.728
594.41	61.317
594.75	61.031
595.08	60.651
595.42	62.275
595.75	62.448
596.09	61.298
596.42	60.438
596.75	61.101
597.09	59.590
597.42	60.659
597.75	61.200
598.09	59.756
598.42	60.153
598.76	60.017
599.09	61.258
599.42	61.993
599.76	61.475
600.09	60.973
600.42	61.334
600.76	60.253
601.09	61.260
601.42	60.752
601.76	61.254
602.09	60.272
602.42	60.362
602.76	61.375
603.09	61.005
603.42	62.249
603.76	61.653
604.09	61.199
604.42	60.406
604.76	60.258
605.09	60.695
605.42	60.181
605.75	61.340
606.09	61.529
606.42	60.801
606.75	60.000
607.09	60.176
607.42	58.795
607.75	60.524
608.08	58.760
608.42	58.566
608.75	60.337
609.08	60.987
609.41	59.695
609.75	59.224
610.08	60.509
610.41	59.710
610.74	59.776
611.07	59.690
611.41	60.249
611.74	60.448
612.07	59.315
612.40	60.667
612.73	60.621
613.07	59.449
613.40	59.300
613.73	60.157
614.06	59.822
614.39	59.165
614.72	59.216
615.06	59.832
615.39	59.225
615.72	58.773
616.05	59.050
616.38	57.436
616.71	58.532
617.05	58.555
617.38	58.391
617.71	58.428
618.04	60.000
618.37	59.899
618.70	58.416
619.03	60.000
619.36	58.466
619.69	59.060
620.03	59.679
620.36	59.800
620.69	57.459
621.02	56.957
621.35	56.349
621.68	56.037
622.01	58.000
622.34	56.185
622.67	57.098
623.00	57.657
623.33	56.860
623.66	58.414
623.99	57.413
624.32	57.719
624.65	57.368
624.99	57.186
625.32	57.165
625.65	57.816
625.98	58.018
626.31	55.860
626.64	58.232
626.97	56.195
627.30	56.392
627.63	55.546
627.96	55.795
628.29	55.134
628.62	54.867
628.95	54.910
629.28	57.056
629.61	55.932
629.94	56.989
630.26	54.348
630.59	58.065
630.92	57.538
631.25	53.744
631.58	55.176
631.91	56.360
632.24	55.619
632.57	54.091
632.90	53.144
633.23	55.529
633.56	54.156
633.89	53.637
634.22	54.074
634.55	54.257
634.88	53.640
635.20	50.897
635.53	52.933
635.86	51.886
636.19	55.627
636.52	54.847
636.85	53.474
637.18	51.824
637.51	51.321
637.83	51.511
638.16	54.161
638.49	52.861
638.82	51.316
