SpectraSuite Data File
++++++++++++++++++++++++++++++++++++
Date: Fri May 15 17:25:41 PDT 2015
User: schluterlab
Dark Spectrum Present: Yes
Reference Spectrum Present: Yes
Number of Sampled Component Spectra: 1
Spectrometers: USB2E3373
Integration Time (usec): 3000 (USB2E3373)
Spectra Averaged: 3 (USB2E3373)
Boxcar Smoothing: 0 (USB2E3373)
Correct for Electrical Dark: No (USB2E3373)
Strobe/Lamp Enabled: No (USB2E3373)
Correct for Detector Non-linearity: No (USB2E3373)
Correct for Stray Light: No (USB2E3373)
Number of Pixels in Processed Spectrum: 2048
>>>>>Begin Processed Spectral Data<<<<<
178.53	0.000
178.91	0.000
179.29	150.000
179.67	-100.000
180.04	42.857
180.42	150.000
180.80	-600.000
181.18	366.667
181.56	50.000
181.94	-50.000
182.31	-300.000
182.69	160.000
183.07	-100.000
183.45	-100.000
183.83	200.000
184.20	-9.091
184.58	200.000
184.96	-175.000
185.34	-100.000
185.72	100.000
186.09	115.385
186.47	-800.000
186.85	33.333
187.23	144.444
187.61	-500.000
187.98	0.000
188.36	22.222
188.74	33.333
189.12	105.882
189.49	72.222
189.87	0.000
190.25	35.714
190.63	550.000
191.00	-233.333
191.38	21.053
191.76	-50.000
192.14	-75.000
192.51	300.000
192.89	77.778
193.27	0.000
193.65	83.333
194.02	109.091
194.40	60.000
194.78	-12.500
195.15	-83.333
195.53	-37.500
195.91	75.000
196.29	75.000
196.66	100.000
197.04	14.286
197.42	-11.111
197.79	-333.333
198.17	-23.077
198.55	900.000
198.92	-266.667
199.30	500.000
199.68	-200.000
200.05	-66.667
200.43	0.000
200.81	-66.667
201.18	33.333
201.56	700.000
201.94	250.000
202.31	-66.667
202.69	-100.000
203.07	125.000
203.44	700.000
203.82	0.000
204.19	21.429
204.57	-433.333
204.95	112.500
205.32	0.000
205.70	0.000
206.08	75.000
206.45	200.000
206.83	78.571
207.20	-85.714
207.58	900.000
207.96	-200.000
208.33	20.000
208.71	-100.000
209.08	-233.333
209.46	100.000
209.84	0.000
210.21	-200.000
210.59	28.571
210.96	83.333
211.34	375.000
211.71	53.333
212.09	0.000
212.46	-1100.000
212.84	0.000
213.22	90.000
213.59	300.000
213.97	38.462
214.34	72.727
214.72	200.000
215.09	225.000
215.47	7.692
215.84	-18.182
216.22	166.667
216.59	-100.000
216.97	350.000
217.34	25.000
217.72	-80.000
218.09	50.000
218.47	137.500
218.84	-1100.000
219.22	-33.333
219.59	60.000
219.97	366.667
220.34	-50.000
220.72	200.000
221.09	150.000
221.47	-200.000
221.84	150.000
222.22	-550.000
222.59	45.455
222.97	41.667
223.34	-366.667
223.72	21.429
224.09	19.048
224.46	35.714
224.84	366.667
225.21	80.000
225.59	106.667
225.96	300.000
226.34	50.000
226.71	14.286
227.08	83.333
227.46	12.500
227.83	0.000
228.21	55.556
228.58	-45.455
228.95	100.000
229.33	50.000
229.70	56.250
230.08	-50.000
230.45	0.000
230.82	128.571
231.20	0.000
231.57	57.143
231.95	0.000
232.32	-170.000
232.69	57.143
233.07	-66.667
233.44	-40.000
233.81	10.000
234.19	22.222
234.56	47.059
234.93	200.000
235.31	25.000
235.68	0.000
236.05	53.846
236.43	0.000
236.80	52.941
237.17	34.375
237.55	60.000
237.92	33.333
238.29	44.444
238.67	56.667
239.04	11.765
239.41	14.634
239.79	43.333
240.16	31.707
240.53	39.474
240.91	47.826
241.28	39.683
241.65	57.143
242.02	38.356
242.40	25.000
242.77	25.424
243.14	43.939
243.51	37.500
243.89	35.632
244.26	37.931
244.63	44.048
245.00	42.268
245.38	42.268
245.75	31.461
246.12	25.862
246.49	28.099
246.87	46.154
247.24	25.210
247.61	31.579
247.98	42.276
248.36	28.750
248.73	36.184
249.10	38.961
249.47	36.076
249.84	41.830
250.22	38.824
250.59	35.294
250.96	39.906
251.33	31.395
251.70	44.706
252.08	29.949
252.45	38.119
252.82	39.196
253.19	43.318
253.56	34.112
253.94	36.036
254.31	34.783
254.68	40.351
255.05	34.252
255.42	35.808
255.79	37.452
256.16	38.911
256.54	36.567
256.91	33.840
257.28	35.688
257.65	36.330
258.02	37.234
258.39	36.364
258.76	43.956
259.14	41.528
259.51	34.304
259.88	37.457
260.25	38.562
260.62	37.847
260.99	37.966
261.36	35.274
261.73	36.076
262.10	37.386
262.47	36.196
262.85	36.050
263.22	40.615
263.59	35.826
263.96	39.752
264.33	37.273
264.70	34.524
265.07	38.393
265.44	40.227
265.81	35.028
266.18	36.339
266.55	35.733
266.92	35.751
267.29	37.076
267.66	38.875
268.03	36.649
268.40	35.770
268.77	42.781
269.14	36.451
269.51	39.332
269.88	34.414
270.25	35.204
270.62	33.902
270.99	37.852
271.36	33.496
271.73	35.681
272.10	32.847
272.47	35.934
272.84	33.911
273.21	37.587
273.58	36.386
273.95	36.156
274.32	34.642
274.69	31.900
275.06	36.384
275.43	35.601
275.80	38.631
276.17	36.782
276.54	35.974
276.91	36.184
277.28	34.279
277.65	35.950
278.02	37.234
278.39	37.637
278.76	34.801
279.13	32.365
279.50	34.874
279.87	35.637
280.23	33.978
280.60	36.842
280.97	38.990
281.34	32.885
281.71	34.292
282.08	36.401
282.45	32.877
282.82	33.977
283.19	35.977
283.56	34.682
283.92	32.068
284.29	34.038
284.66	34.690
285.03	34.971
285.40	31.569
285.77	32.337
286.14	31.769
286.51	33.395
286.87	31.810
287.24	32.228
287.61	30.511
287.98	33.158
288.35	31.369
288.72	32.224
289.08	31.076
289.45	30.053
289.82	31.469
290.19	31.229
290.56	30.703
290.93	30.808
291.29	28.814
291.66	30.394
292.03	29.187
292.40	27.097
292.77	30.303
293.13	27.760
293.50	26.859
293.87	29.008
294.24	28.748
294.60	26.975
294.97	27.976
295.34	26.074
295.71	28.912
296.08	27.653
296.44	25.320
296.81	26.667
297.18	27.391
297.55	25.881
297.91	26.575
298.28	26.385
298.65	25.509
299.02	24.259
299.38	23.666
299.75	25.793
300.12	24.476
300.48	24.506
300.85	24.588
301.22	23.766
301.59	24.605
301.95	24.810
302.32	26.070
302.69	24.751
303.05	22.649
303.42	24.658
303.79	23.598
304.15	25.687
304.52	22.592
304.89	23.275
305.25	24.213
305.62	22.637
305.99	23.275
306.35	24.162
306.72	23.847
307.09	24.287
307.45	24.569
307.82	23.264
308.19	23.693
308.55	23.446
308.92	24.619
309.29	21.676
309.65	24.112
310.02	24.202
310.38	23.820
310.75	25.574
311.12	23.897
311.48	24.390
311.85	23.979
312.22	23.734
312.58	24.204
312.95	23.372
313.31	23.913
313.68	24.084
314.05	25.408
314.41	25.258
314.78	25.464
315.14	25.591
315.51	27.122
315.87	26.947
316.24	27.503
316.61	26.378
316.97	26.687
317.34	26.270
317.70	26.004
318.07	26.923
318.43	27.745
318.80	28.125
319.16	29.004
319.53	27.730
319.89	29.035
320.26	29.251
320.62	31.093
320.99	28.914
321.35	28.777
321.72	31.153
322.08	31.017
322.45	30.964
322.81	30.255
323.18	32.287
323.54	31.564
323.91	32.230
324.27	32.422
324.64	34.551
325.00	33.759
325.37	36.272
325.73	33.908
326.10	34.423
326.46	37.130
326.83	36.920
327.19	37.140
327.56	38.054
327.92	38.292
328.29	37.232
328.65	39.811
329.01	38.879
329.38	39.355
329.74	39.754
330.11	39.666
330.47	40.167
330.84	39.712
331.20	43.441
331.56	40.000
331.93	41.461
332.29	42.163
332.66	41.719
333.02	41.543
333.38	41.888
333.75	43.773
334.11	42.167
334.48	43.699
334.84	43.681
335.20	43.092
335.57	42.974
335.93	43.180
336.29	43.186
336.66	43.233
337.02	43.494
337.38	42.963
337.75	44.727
338.11	44.364
338.47	45.985
338.84	45.471
339.20	43.784
339.56	42.661
339.93	43.688
340.29	45.138
340.65	44.892
341.02	42.996
341.38	43.805
341.74	42.933
342.11	42.894
342.47	44.039
342.83	43.512
343.20	43.380
343.56	44.435
343.92	44.996
344.28	45.175
344.65	44.214
345.01	43.388
345.37	44.155
345.73	43.933
346.10	44.435
346.46	44.407
346.82	43.863
347.19	42.976
347.55	45.865
347.91	44.822
348.27	45.028
348.63	44.293
349.00	42.822
349.36	44.389
349.72	45.854
350.08	44.590
350.45	44.134
350.81	44.850
351.17	43.404
351.53	44.980
351.89	42.197
352.26	44.480
352.62	45.484
352.98	43.534
353.34	43.639
353.70	45.388
354.07	42.661
354.43	43.475
354.79	43.765
355.15	43.968
355.51	45.411
355.87	44.984
356.24	45.106
356.60	45.594
356.96	44.841
357.32	42.891
357.68	45.113
358.04	45.396
358.40	44.936
358.77	45.375
359.13	44.916
359.49	44.222
359.85	44.774
360.21	45.774
360.57	44.300
360.93	45.008
361.29	44.713
361.66	46.473
362.02	46.364
362.38	44.935
362.74	46.556
363.10	46.501
363.46	44.996
363.82	46.431
364.18	44.723
364.54	45.956
364.90	46.022
365.26	45.997
365.62	47.153
365.98	45.601
366.35	47.342
366.71	46.563
367.07	47.460
367.43	46.801
367.79	46.572
368.15	46.662
368.51	48.070
368.87	46.805
369.23	46.209
369.59	48.615
369.95	48.387
370.31	47.616
370.67	46.866
371.03	46.229
371.39	45.952
371.75	47.546
372.11	47.290
372.47	48.521
372.83	48.474
373.19	47.290
373.55	47.004
373.91	48.092
374.27	48.901
374.63	48.098
374.99	48.865
375.35	49.304
375.71	49.441
376.07	49.157
376.42	48.435
376.78	49.396
377.14	48.138
377.50	50.133
377.86	50.067
378.22	48.947
378.58	49.936
378.94	49.842
379.30	48.971
379.66	50.282
380.02	50.399
380.38	51.126
380.74	49.192
381.09	52.025
381.45	50.092
381.81	51.080
382.17	50.635
382.53	51.280
382.89	51.475
383.25	51.276
383.61	51.707
383.97	50.857
384.32	51.282
384.68	50.464
385.04	51.348
385.40	50.404
385.76	53.208
386.12	51.746
386.48	54.406
386.83	51.617
387.19	52.259
387.55	53.137
387.91	52.567
388.27	52.259
388.62	51.919
388.98	52.670
389.34	52.717
389.70	55.003
390.06	53.178
390.42	53.433
390.77	54.545
391.13	53.405
391.49	53.558
391.85	54.256
392.20	54.426
392.56	53.465
392.92	53.670
393.28	53.833
393.64	53.694
393.99	55.799
394.35	54.712
394.71	54.023
395.07	53.803
395.42	52.459
395.78	53.290
396.14	54.351
396.50	53.836
396.85	54.797
397.21	54.449
397.57	52.790
397.92	52.906
398.28	53.506
398.64	53.735
399.00	54.233
399.35	52.596
399.71	53.130
400.07	55.139
400.42	52.938
400.78	54.011
401.14	53.962
401.49	54.616
401.85	53.260
402.21	53.434
402.57	54.500
402.92	53.701
403.28	53.759
403.63	54.792
403.99	54.209
404.35	56.152
404.70	52.857
405.06	53.995
405.42	54.195
405.77	54.445
406.13	53.958
406.49	54.292
406.84	55.318
407.20	54.365
407.55	54.540
407.91	54.078
408.27	55.131
408.62	55.138
408.98	53.913
409.34	54.461
409.69	54.587
410.05	53.017
410.40	54.198
410.76	54.825
411.11	54.625
411.47	54.306
411.83	55.242
412.18	56.757
412.54	53.620
412.89	53.510
413.25	54.272
413.60	54.161
413.96	52.699
414.31	55.366
414.67	55.228
415.03	55.260
415.38	54.243
415.74	55.114
416.09	54.735
416.45	54.760
416.80	54.726
417.16	56.285
417.51	54.630
417.87	54.759
418.22	55.894
418.58	54.649
418.93	56.113
419.29	55.186
419.64	54.958
420.00	56.675
420.35	54.388
420.71	56.075
421.06	55.862
421.42	56.070
421.77	55.491
422.12	55.505
422.48	55.550
422.83	55.626
423.19	56.603
423.54	55.791
423.90	55.654
424.25	56.257
424.61	56.242
424.96	56.214
425.31	57.943
425.67	57.394
426.02	57.362
426.38	58.798
426.73	57.627
427.09	59.494
427.44	57.235
427.79	57.749
428.15	57.646
428.50	56.814
428.85	56.265
429.21	58.121
429.56	59.191
429.92	57.627
430.27	56.341
430.62	56.560
430.98	56.688
431.33	58.517
431.68	57.666
432.04	58.804
432.39	58.699
432.74	57.126
433.10	57.989
433.45	58.602
433.80	59.663
434.16	57.729
434.51	58.011
434.86	58.537
435.22	58.048
435.57	59.576
435.92	59.401
436.28	57.901
436.63	58.528
436.98	57.937
437.34	58.439
437.69	60.584
438.04	59.430
438.39	58.094
438.75	61.566
439.10	58.913
439.45	60.316
439.81	57.798
440.16	61.045
440.51	58.806
440.86	62.417
441.22	59.106
441.57	60.486
441.92	61.333
442.27	60.920
442.63	60.171
442.98	60.770
443.33	60.045
443.68	59.576
444.03	60.308
444.39	59.666
444.74	61.761
445.09	61.414
445.44	60.684
445.79	61.733
446.15	60.463
446.50	60.788
446.85	60.946
447.20	60.480
447.55	60.324
447.91	60.970
448.26	61.070
448.61	61.025
448.96	60.987
449.31	60.520
449.66	61.150
450.02	61.894
450.37	61.529
450.72	61.798
451.07	62.405
451.42	61.923
451.77	61.001
452.12	60.586
452.47	62.009
452.83	60.542
453.18	61.796
453.53	61.947
453.88	61.991
454.23	61.832
454.58	62.091
454.93	62.307
455.28	59.937
455.63	61.190
455.98	61.816
456.34	61.303
456.69	62.008
457.04	62.634
457.39	63.062
457.74	61.366
458.09	61.271
458.44	61.498
458.79	60.784
459.14	62.300
459.49	62.328
459.84	61.591
460.19	61.104
460.54	61.675
460.89	62.273
461.24	61.925
461.59	62.292
461.94	60.629
462.29	62.123
462.64	62.724
462.99	61.611
463.34	63.004
463.69	60.811
464.04	62.409
464.39	61.916
464.74	60.123
465.09	62.071
465.44	63.474
465.79	59.977
466.14	61.060
466.49	61.760
466.84	62.046
467.19	62.140
467.54	62.580
467.89	63.487
468.24	63.078
468.59	61.587
468.94	60.063
469.29	61.902
469.64	61.791
469.99	63.770
470.34	62.457
470.68	64.131
471.03	64.473
471.38	62.553
471.73	62.885
472.08	61.669
472.43	63.221
472.78	60.589
473.13	62.313
473.48	63.257
473.83	61.582
474.17	63.472
474.52	61.583
474.87	62.667
475.22	62.050
475.57	61.604
475.92	62.699
476.27	61.700
476.61	62.731
476.96	61.238
477.31	62.250
477.66	61.517
478.01	63.167
478.36	61.275
478.70	62.697
479.05	61.429
479.40	62.215
479.75	61.522
480.10	61.495
480.45	61.600
480.79	63.243
481.14	63.730
481.49	61.478
481.84	62.452
482.19	61.413
482.53	62.590
482.88	62.100
483.23	61.276
483.58	62.170
483.92	62.343
484.27	61.531
484.62	62.304
484.97	61.567
485.31	60.585
485.66	59.860
486.01	60.322
486.36	58.888
486.70	59.045
487.05	59.660
487.40	59.540
487.75	59.887
488.09	60.229
488.44	61.142
488.79	61.412
489.13	62.260
489.48	61.223
489.83	61.345
490.17	61.169
490.52	62.540
490.87	61.314
491.22	63.276
491.56	60.816
491.91	61.711
492.26	62.032
492.60	61.228
492.95	62.912
493.30	62.335
493.64	63.654
493.99	61.546
494.34	61.893
494.68	62.762
495.03	61.995
495.37	61.727
495.72	61.837
496.07	62.927
496.41	61.840
496.76	63.105
497.11	62.506
497.45	62.816
497.80	63.370
498.14	62.196
498.49	62.417
498.84	61.527
499.18	63.454
499.53	62.847
499.87	63.278
500.22	61.721
500.56	63.187
500.91	61.898
501.26	61.542
501.60	62.125
501.95	63.076
502.29	62.760
502.64	62.838
502.98	63.789
503.33	61.623
503.67	62.458
504.02	64.076
504.36	62.791
504.71	62.677
505.06	62.104
505.40	62.487
505.75	62.990
506.09	61.581
506.44	63.809
506.78	63.469
507.13	63.444
507.47	62.872
507.82	62.821
508.16	64.025
508.51	64.218
508.85	64.103
509.19	64.396
509.54	63.271
509.88	62.406
510.23	63.744
510.57	64.351
510.92	62.793
511.26	65.085
511.61	65.017
511.95	63.781
512.30	64.745
512.64	62.716
512.98	64.570
513.33	63.626
513.67	64.241
514.02	64.703
514.36	64.914
514.70	66.200
515.05	65.687
515.39	66.057
515.74	67.725
516.08	65.870
516.42	65.783
516.77	66.413
517.11	65.875
517.46	65.111
517.80	65.137
518.14	66.565
518.49	65.144
518.83	66.100
519.17	64.645
519.52	64.062
519.86	65.726
520.20	65.492
520.55	66.979
520.89	66.248
521.23	66.054
521.58	66.372
521.92	66.667
522.26	66.688
522.61	66.039
522.95	68.146
523.29	66.010
523.64	67.344
523.98	67.596
524.32	67.268
524.66	67.478
525.01	67.273
525.35	68.827
525.69	67.609
526.04	67.130
526.38	69.131
526.72	66.252
527.06	67.380
527.41	66.887
527.75	67.024
528.09	68.106
528.43	67.725
528.78	66.271
529.12	66.710
529.46	66.342
529.80	66.498
530.15	67.261
530.49	67.340
530.83	67.510
531.17	65.749
531.51	67.031
531.86	65.874
532.20	66.249
532.54	66.984
532.88	67.351
533.22	67.406
533.57	66.972
533.91	67.624
534.25	66.667
534.59	66.260
534.93	65.072
535.27	64.657
535.62	66.170
535.96	66.732
536.30	66.755
536.64	68.298
536.98	65.366
537.32	68.777
537.66	66.760
538.01	68.042
538.35	66.990
538.69	65.779
539.03	66.165
539.37	65.882
539.71	67.212
540.05	65.716
540.39	66.759
540.73	66.597
541.07	67.334
541.42	66.599
541.76	67.309
542.10	67.034
542.44	67.408
542.78	66.414
543.12	66.484
543.46	67.246
543.80	67.523
544.14	64.887
544.48	65.490
544.82	66.576
545.16	67.828
545.50	66.889
545.84	67.351
546.18	67.021
546.52	67.051
546.86	67.434
547.20	68.383
547.54	64.382
547.88	66.508
548.22	66.404
548.56	66.029
548.90	67.992
549.24	67.769
549.58	66.008
549.92	68.120
550.26	67.033
550.60	68.625
550.94	68.335
551.28	68.856
551.62	67.615
551.96	67.444
552.30	67.909
552.64	67.137
552.98	66.456
553.32	68.973
553.66	68.505
554.00	70.146
554.34	68.464
554.68	67.109
555.02	68.527
555.36	67.988
555.69	69.084
556.03	66.952
556.37	66.192
556.71	68.231
557.05	68.456
557.39	67.138
557.73	68.291
558.07	69.834
558.41	69.602
558.75	69.057
559.08	68.479
559.42	70.635
559.76	71.657
560.10	69.113
560.44	68.206
560.78	67.343
561.12	68.547
561.45	68.517
561.79	68.697
562.13	69.624
562.47	68.561
562.81	68.228
563.15	68.547
563.48	68.670
563.82	69.870
564.16	67.827
564.50	68.649
564.84	67.871
565.17	66.533
565.51	70.355
565.85	69.342
566.19	68.037
566.52	69.169
566.86	67.352
567.20	67.746
567.54	67.214
567.88	68.073
568.21	68.835
568.55	66.793
568.89	67.608
569.23	67.020
569.56	65.587
569.90	65.692
570.24	64.235
570.57	64.764
570.91	65.877
571.25	63.828
571.59	63.314
571.92	62.311
572.26	64.010
572.60	63.504
572.93	63.194
573.27	63.448
573.61	62.739
573.95	63.217
574.28	62.579
574.62	61.759
574.96	61.955
575.29	62.039
575.63	60.689
575.97	61.914
576.30	62.272
576.64	61.642
576.98	62.548
577.31	63.234
577.65	62.064
577.98	62.680
578.32	61.397
578.66	61.573
578.99	61.535
579.33	61.929
579.67	61.443
580.00	62.785
580.34	61.517
580.67	61.449
581.01	62.704
581.35	62.705
581.68	61.720
582.02	62.213
582.35	61.746
582.69	62.271
583.02	62.145
583.36	62.550
583.70	63.785
584.03	63.803
584.37	64.116
584.70	63.709
585.04	61.658
585.37	62.801
585.71	62.873
586.04	62.809
586.38	62.070
586.72	63.558
587.05	64.125
587.39	63.601
587.72	64.735
588.06	63.770
588.39	63.771
588.73	63.767
589.06	64.938
589.40	64.224
589.73	65.717
590.07	66.125
590.40	65.751
590.73	66.145
591.07	66.921
591.40	66.963
591.74	66.968
592.07	66.234
592.41	65.945
592.74	65.034
593.08	63.919
593.41	64.745
593.75	64.148
594.08	64.058
594.41	63.792
594.75	63.969
595.08	64.283
595.42	65.366
595.75	66.391
596.09	65.559
596.42	65.936
596.75	65.986
597.09	65.968
597.42	66.893
597.75	66.880
598.09	65.143
598.42	65.794
598.76	66.581
599.09	64.263
599.42	63.433
599.76	64.748
600.09	64.744
600.42	64.215
600.76	63.336
601.09	64.618
601.42	64.473
601.76	65.423
602.09	65.635
602.42	66.596
602.76	66.893
603.09	66.985
603.42	67.349
603.76	66.532
604.09	66.140
604.42	67.047
604.76	67.067
605.09	67.048
605.42	65.734
605.75	66.462
606.09	65.732
606.42	65.388
606.75	66.797
607.09	65.978
607.42	66.681
607.75	65.764
608.08	66.173
608.42	65.190
608.75	67.904
609.08	67.912
609.41	67.056
609.75	66.935
610.08	67.000
610.41	65.217
610.74	66.797
611.07	66.822
611.41	69.175
611.74	68.870
612.07	67.398
612.40	67.615
612.73	69.153
613.07	67.717
613.40	68.162
613.73	68.830
614.06	66.722
614.39	68.472
614.72	67.451
615.06	68.492
615.39	67.413
615.72	65.501
616.05	68.045
616.38	68.490
616.71	68.624
617.05	69.117
617.38	70.207
617.71	70.566
618.04	69.524
618.37	71.690
618.70	69.835
619.03	70.833
619.36	71.056
619.69	73.541
620.03	71.293
620.36	71.245
620.69	71.021
621.02	71.942
621.35	72.033
621.68	72.789
622.01	73.500
622.34	71.987
622.67	72.319
623.00	70.597
623.33	72.332
623.66	69.933
623.99	72.466
624.32	72.928
624.65	71.729
624.99	72.310
625.32	71.039
625.65	72.035
625.98	72.764
626.31	73.234
626.64	74.957
626.97	73.560
627.30	75.306
627.63	72.357
627.96	75.562
628.29	76.133
628.62	76.598
628.95	74.850
629.28	77.823
629.61	74.477
629.94	76.246
630.26	75.889
630.59	78.148
630.92	76.923
631.25	73.949
631.58	78.084
631.91	76.754
632.24	77.752
632.57	78.182
632.90	78.173
633.23	78.588
633.56	81.864
633.89	80.395
634.22	81.728
