SpectraSuite Data File
++++++++++++++++++++++++++++++++++++
Date: Fri May 15 20:11:31 PDT 2015
User: schluterlab
Dark Spectrum Present: Yes
Reference Spectrum Present: Yes
Number of Sampled Component Spectra: 1
Spectrometers: USB2E3373
Integration Time (usec): 3000 (USB2E3373)
Spectra Averaged: 3 (USB2E3373)
Boxcar Smoothing: 0 (USB2E3373)
Correct for Electrical Dark: No (USB2E3373)
Strobe/Lamp Enabled: No (USB2E3373)
Correct for Detector Non-linearity: No (USB2E3373)
Correct for Stray Light: No (USB2E3373)
Number of Pixels in Processed Spectrum: 2048
>>>>>Begin Processed Spectral Data<<<<<
178.53	0.000
178.91	0.000
179.29	162.500
179.67	-600.000
180.04	114.286
180.42	300.000
180.80	400.000
181.18	-100.000
181.56	-50.000
181.94	-250.000
182.31	-200.000
182.69	200.000
183.07	0.000
183.45	60.000
183.83	83.333
184.20	-45.455
184.58	44.444
184.96	25.000
185.34	66.667
185.72	200.000
186.09	69.231
186.47	200.000
186.85	183.333
187.23	111.111
187.61	-1200.000
187.98	-233.333
188.36	-44.444
188.74	-233.333
189.12	29.412
189.49	11.111
189.87	0.000
190.25	42.857
190.63	-150.000
191.00	-100.000
191.38	10.526
191.76	500.000
192.14	100.000
192.51	350.000
192.89	-77.778
193.27	-57.143
193.65	16.667
194.02	145.455
194.40	50.000
194.78	-87.500
195.15	-16.667
195.53	0.000
195.91	225.000
196.29	-125.000
196.66	61.538
197.04	142.857
197.42	33.333
197.79	-200.000
198.17	-53.846
198.55	1000.000
198.92	-266.667
199.30	800.000
199.68	20.000
200.05	-100.000
200.43	0.000
200.81	66.667
201.18	-200.000
201.56	1200.000
201.94	-400.000
202.31	-266.667
202.69	-180.000
203.07	50.000
203.44	300.000
203.82	0.000
204.19	-7.143
204.57	-100.000
204.95	12.500
205.32	20.000
205.70	-42.857
206.08	175.000
206.45	122.222
206.83	107.143
207.20	-57.143
207.58	400.000
207.96	-100.000
208.33	-30.000
208.71	125.000
209.08	-33.333
209.46	-400.000
209.84	-100.000
210.21	-600.000
210.59	157.143
210.96	66.667
211.34	-200.000
211.71	66.667
212.09	-128.571
212.46	-900.000
212.84	0.000
213.22	40.000
213.59	700.000
213.97	69.231
214.34	72.727
214.72	33.333
215.09	225.000
215.47	15.385
215.84	-36.364
216.22	-133.333
216.59	-75.000
216.97	150.000
217.34	-100.000
217.72	-160.000
218.09	125.000
218.47	75.000
218.84	-1100.000
219.22	-33.333
219.59	160.000
219.97	433.333
220.34	175.000
220.72	14.286
221.09	-200.000
221.47	-300.000
221.84	-100.000
222.22	-500.000
222.59	45.455
222.97	25.000
223.34	-300.000
223.72	0.000
224.09	57.143
224.46	0.000
224.84	400.000
225.21	0.000
225.59	-13.333
225.96	-150.000
226.34	150.000
226.71	0.000
227.08	50.000
227.46	-37.500
227.83	-350.000
228.21	77.778
228.58	36.364
228.95	-100.000
229.33	70.000
229.70	-62.500
230.08	-100.000
230.45	-28.571
230.82	-57.143
231.20	6.667
231.57	57.143
231.95	-42.857
232.32	10.000
232.69	7.143
233.07	-133.333
233.44	-40.000
233.81	-110.000
234.19	55.556
234.56	-5.882
234.93	-50.000
235.31	50.000
235.68	-340.000
236.05	-46.154
236.43	20.000
236.80	70.588
237.17	12.500
237.55	0.000
237.92	-29.630
238.29	30.556
238.67	6.667
239.04	-23.529
239.41	-21.951
239.79	-20.000
240.16	12.195
240.53	-21.053
240.91	4.348
241.28	17.460
241.65	23.214
242.02	17.808
242.40	-11.667
242.77	-11.864
243.14	6.061
243.51	0.000
243.89	2.299
244.26	-8.046
244.63	9.524
245.00	9.278
245.38	4.124
245.75	-8.989
246.12	3.448
246.49	0.000
246.87	-1.923
247.24	-5.882
247.61	0.000
247.98	5.691
248.36	-3.750
248.73	6.579
249.10	-3.896
249.47	0.633
249.84	0.654
250.22	-2.353
250.59	0.654
250.96	4.695
251.33	5.814
251.70	-5.882
252.08	-5.076
252.45	-4.950
252.82	4.020
253.19	1.382
253.56	-4.206
253.94	1.351
254.31	0.870
254.68	-0.877
255.05	1.575
255.42	-0.437
255.79	1.931
256.16	-2.335
256.54	8.209
256.91	3.042
257.28	3.717
257.65	-0.375
258.02	-1.064
258.39	2.694
258.76	4.029
259.14	1.661
259.51	1.294
259.88	-1.375
260.25	2.288
260.62	-0.694
260.99	-4.746
261.36	-3.767
261.73	1.266
262.10	2.736
262.47	1.227
262.85	-1.881
263.22	-0.308
263.59	-0.623
263.96	0.932
264.33	1.212
264.70	-0.298
265.07	0.298
265.44	1.133
265.81	1.695
266.18	2.459
266.55	4.884
266.92	1.813
267.29	-1.567
267.66	1.535
268.03	1.571
268.40	2.089
268.77	4.278
269.14	3.837
269.51	1.285
269.88	-2.494
270.25	0.765
270.62	-0.976
270.99	-2.046
271.36	-0.244
271.73	1.878
272.10	0.730
272.47	0.709
272.84	0.248
273.21	2.552
273.58	2.410
273.95	1.144
274.32	0.462
274.69	1.131
275.06	0.000
275.43	-1.134
275.80	0.221
276.17	-0.920
276.54	2.141
276.91	1.096
277.28	-1.310
277.65	2.686
278.02	0.851
278.39	0.656
278.76	-0.210
279.13	-0.830
279.50	2.311
279.87	0.432
280.23	0.645
280.60	2.924
280.97	1.010
281.34	-1.538
281.71	1.848
282.08	-0.613
282.45	-0.587
282.82	0.579
283.19	0.193
283.56	0.385
283.92	0.190
284.29	0.192
284.66	0.000
285.03	0.786
285.40	0.000
285.77	-1.406
286.14	1.264
286.51	1.292
286.87	0.914
287.24	-0.368
287.61	-0.176
287.98	3.158
288.35	1.386
288.72	1.751
289.08	0.347
289.45	0.703
289.82	1.399
290.19	-0.341
290.56	-1.029
290.93	0.505
291.29	0.770
291.66	2.047
292.03	0.797
292.40	1.290
292.77	0.159
293.13	-0.325
293.50	-0.152
293.87	1.069
294.24	2.318
294.60	2.534
294.97	2.083
295.34	-0.460
295.71	1.490
296.08	0.000
296.44	0.427
296.81	0.417
297.18	0.290
297.55	1.626
297.91	0.685
298.28	1.583
298.65	0.814
299.02	0.539
299.38	-0.821
299.75	-0.828
300.12	0.131
300.48	1.054
300.85	1.648
301.22	0.000
301.59	0.789
301.95	2.278
302.32	1.297
302.69	0.498
303.05	0.866
303.42	1.494
303.79	1.636
304.15	1.792
304.52	-0.713
304.89	0.234
305.25	0.605
305.62	-1.167
305.99	0.117
306.35	-0.809
306.72	-0.225
307.09	0.912
307.45	1.033
307.82	0.347
308.19	0.348
308.55	1.309
308.92	1.525
309.29	0.447
309.65	0.323
310.02	-0.110
310.38	1.317
310.75	0.656
311.12	-0.323
311.48	0.742
311.85	1.047
312.22	-0.211
312.58	0.425
312.95	-0.427
313.31	0.000
313.68	-0.209
314.05	0.612
314.41	-0.412
314.78	0.412
315.14	0.206
315.51	0.207
315.87	0.512
316.24	1.213
316.61	0.984
316.97	0.694
317.34	1.074
317.70	0.287
318.07	0.288
318.43	0.882
318.80	0.473
319.16	0.293
319.53	1.235
319.89	0.689
320.26	0.911
320.62	2.106
320.99	-0.104
321.35	1.028
321.72	1.454
322.08	0.302
322.45	0.711
322.81	0.884
323.18	0.785
323.54	0.579
323.91	0.487
324.27	0.977
324.64	1.592
325.00	1.551
325.37	1.837
325.73	1.269
326.10	0.908
326.46	1.166
326.83	2.012
327.19	0.436
327.56	1.216
327.92	2.817
328.29	1.339
328.65	1.132
329.01	0.827
329.38	1.567
329.74	0.094
330.11	2.502
330.47	0.093
330.84	1.250
331.20	1.521
331.56	1.759
331.93	1.918
332.29	2.200
332.66	1.086
333.02	1.766
333.38	1.742
333.75	1.923
334.11	1.522
334.48	1.813
334.84	1.648
335.20	1.555
335.57	2.085
335.93	1.716
336.29	1.381
336.66	0.545
337.02	1.208
337.38	1.111
337.75	1.000
338.11	1.713
338.47	2.007
338.84	2.311
339.20	1.737
339.56	2.477
339.93	1.522
340.29	2.294
340.65	2.240
341.02	1.596
341.38	2.035
341.74	1.413
342.11	1.560
342.47	1.779
342.83	2.422
343.20	1.394
343.56	2.087
343.92	1.860
344.28	2.733
344.65	1.382
345.01	0.605
345.37	2.019
345.73	3.180
346.10	1.467
346.46	2.439
346.82	1.473
347.19	-0.166
347.55	1.921
347.91	1.861
348.27	2.344
348.63	2.129
349.00	0.820
349.36	1.579
349.72	1.575
350.08	2.541
350.45	2.873
350.81	1.080
351.17	1.384
351.53	1.633
351.89	0.908
352.26	1.760
352.62	1.855
352.98	1.928
353.34	1.852
353.70	2.265
354.07	2.419
354.43	2.002
354.79	1.239
355.15	2.778
355.51	1.899
355.87	1.052
356.24	0.408
356.60	1.132
356.96	1.905
357.32	1.837
357.68	0.547
358.04	1.858
358.40	2.010
358.77	2.472
359.13	0.560
359.49	2.311
359.85	2.574
360.21	1.116
360.57	1.071
360.93	1.891
361.29	1.057
361.66	1.254
362.02	1.439
362.38	1.980
362.74	1.741
363.10	1.430
363.46	1.408
363.82	2.630
364.18	1.771
364.54	0.956
364.90	1.219
365.26	1.528
365.62	2.920
365.98	1.100
366.35	2.039
366.71	1.848
367.07	2.177
367.43	1.294
367.79	1.413
368.15	1.292
368.51	1.675
368.87	0.574
369.23	1.227
369.59	1.166
369.95	1.833
370.31	1.373
370.67	1.343
371.03	1.718
371.39	1.021
371.75	2.198
372.11	2.068
372.47	1.997
372.83	1.774
373.19	2.496
373.55	1.372
373.91	2.304
374.27	1.630
374.63	2.010
374.99	1.489
375.35	1.602
375.71	2.727
376.07	1.264
376.42	1.633
376.78	2.013
377.14	1.693
377.50	1.926
377.86	1.874
378.22	0.830
378.58	1.538
378.94	1.953
379.30	1.747
379.66	2.696
380.02	1.901
380.38	1.643
380.74	2.394
381.09	2.761
381.45	1.896
381.81	1.727
382.17	2.157
382.53	2.374
382.89	1.632
383.25	2.489
383.61	2.317
383.97	0.952
384.32	1.876
384.68	2.105
385.04	1.471
385.40	1.867
385.76	1.887
386.12	2.393
386.48	1.596
386.83	2.093
387.19	2.625
387.55	1.757
387.91	2.078
388.27	1.770
388.62	2.266
388.98	2.885
389.34	2.561
389.70	2.797
390.06	1.888
390.42	3.174
390.77	1.962
391.13	2.333
391.49	2.523
391.85	2.339
392.20	2.637
392.56	2.034
392.92	2.290
393.28	2.241
393.64	1.682
393.99	3.323
394.35	1.392
394.71	2.746
395.07	2.326
395.42	1.579
395.78	2.215
396.14	2.207
396.50	2.410
396.85	2.382
397.21	2.694
397.57	3.009
397.92	3.056
398.28	2.241
398.64	2.108
399.00	3.442
399.35	2.596
399.71	2.412
400.07	2.781
400.42	2.570
400.78	2.572
401.14	2.601
401.49	3.454
401.85	2.072
402.21	2.952
402.57	2.563
402.92	1.380
403.28	2.256
403.63	2.333
403.99	2.041
404.35	2.374
404.70	2.560
405.06	1.998
405.42	2.610
405.77	1.395
406.13	2.503
406.49	2.250
406.84	1.711
407.20	2.649
407.55	2.189
407.91	2.473
408.27	1.848
408.62	2.277
408.98	3.019
409.34	2.664
409.69	1.744
410.05	2.956
410.40	1.358
410.76	2.473
411.11	2.625
411.47	2.170
411.83	2.072
412.18	2.188
412.54	2.185
412.89	2.401
413.25	2.467
413.60	2.484
413.96	1.779
414.31	2.866
414.67	1.924
415.03	2.264
415.38	2.742
415.74	3.127
416.09	3.527
416.45	2.768
416.80	2.842
417.16	2.141
417.51	3.065
417.87	2.477
418.22	2.785
418.58	2.676
418.93	3.009
419.29	1.857
419.64	2.139
420.00	3.149
420.35	2.149
420.71	2.612
421.06	2.824
421.42	2.584
421.77	2.312
422.12	2.554
422.48	2.815
422.83	2.726
423.19	2.991
423.54	1.822
423.90	2.297
424.25	2.583
424.61	2.754
424.96	2.962
425.31	3.351
425.67	2.347
426.02	3.239
426.38	2.379
426.73	2.966
427.09	3.038
427.44	3.176
427.79	2.829
428.15	3.155
428.50	2.665
428.85	1.658
429.21	3.226
429.56	2.695
429.92	3.030
430.27	3.409
430.62	2.300
430.98	3.025
431.33	3.785
431.68	2.878
432.04	3.018
432.39	2.909
432.74	2.405
433.10	3.908
433.45	2.987
433.80	2.554
434.16	2.271
434.51	3.118
434.86	2.613
435.22	3.029
435.57	3.306
435.92	3.413
436.28	3.339
436.63	2.681
436.98	3.013
437.34	2.359
437.69	3.697
438.04	3.191
438.39	2.932
438.75	2.732
439.10	2.377
439.45	3.043
439.81	3.180
440.16	3.207
440.51	3.224
440.86	3.202
441.22	3.111
441.57	2.870
441.92	2.991
442.27	2.716
442.63	3.747
442.98	3.446
443.33	3.283
443.68	3.448
444.03	2.981
444.39	2.902
444.74	3.679
445.09	3.452
445.44	3.305
445.79	3.971
446.15	3.359
446.50	3.328
446.85	3.188
447.20	3.702
447.55	4.464
447.91	3.440
448.26	3.529
448.61	3.569
448.96	3.500
449.31	3.179
449.66	3.020
450.02	3.137
450.37	3.497
450.72	3.207
451.07	3.038
451.42	3.620
451.77	3.677
452.12	3.349
452.47	2.898
452.83	3.769
453.18	3.605
453.53	4.109
453.88	3.339
454.23	3.749
454.58	3.715
454.93	3.866
455.28	2.921
455.63	3.844
455.98	3.909
456.34	3.384
456.69	3.939
457.04	3.214
457.39	3.524
457.74	2.842
458.09	3.002
458.44	2.692
458.79	3.866
459.14	4.005
459.49	4.478
459.84	3.497
460.19	3.823
460.54	3.545
460.89	3.636
461.24	3.665
461.59	4.038
461.94	3.774
462.29	4.403
462.64	3.455
462.99	3.656
463.34	3.755
463.69	3.218
464.04	4.116
464.39	3.820
464.74	4.049
465.09	4.554
465.44	4.385
465.79	3.685
466.14	4.048
466.49	3.278
466.84	3.569
467.19	4.068
467.54	4.342
467.89	4.296
468.24	4.258
468.59	4.444
468.94	3.683
469.29	4.197
469.64	4.785
469.99	4.064
470.34	3.481
470.68	4.176
471.03	4.459
471.38	3.709
471.73	3.852
472.08	4.749
472.43	4.228
472.78	2.879
473.13	3.537
473.48	4.300
473.83	3.176
474.17	4.534
474.52	4.722
474.87	4.182
475.22	4.088
475.57	4.291
475.92	4.717
476.27	4.366
476.61	4.803
476.96	3.960
477.31	4.867
477.66	3.427
478.01	3.987
478.36	3.758
478.70	4.350
479.05	3.846
479.40	4.081
479.75	3.754
480.10	4.147
480.45	4.150
480.79	4.834
481.14	4.252
481.49	3.842
481.84	3.861
482.19	4.163
482.53	4.317
482.88	3.962
483.23	4.750
483.58	4.575
483.92	4.163
484.27	4.148
484.62	4.169
484.97	3.856
485.31	4.010
485.66	4.164
486.01	4.066
486.36	3.789
486.70	4.126
487.05	4.088
487.40	4.240
487.75	3.831
488.09	4.017
488.44	4.230
488.79	4.221
489.13	4.808
489.48	4.532
489.83	4.170
490.17	4.270
490.52	4.018
490.87	4.350
491.22	4.871
491.56	4.175
491.91	4.111
492.26	4.181
492.60	4.559
492.95	4.525
493.30	4.397
493.64	3.831
493.99	4.493
494.34	3.883
494.68	4.000
495.03	4.818
495.37	4.122
495.72	4.291
496.07	4.341
496.41	4.575
496.76	4.652
497.11	4.471
497.45	4.344
497.80	3.835
498.14	4.819
498.49	3.403
498.84	4.641
499.18	3.865
499.53	4.415
499.87	3.988
500.22	4.055
500.56	4.438
500.91	4.418
501.26	3.806
501.60	3.984
501.95	4.318
502.29	4.310
502.64	4.633
502.98	4.243
503.33	4.275
503.67	4.289
504.02	4.643
504.36	5.195
504.71	3.737
505.06	4.278
505.40	4.518
505.75	4.536
506.09	4.460
506.44	5.236
506.78	4.490
507.13	4.602
507.47	4.125
507.82	3.846
508.16	4.596
508.51	4.460
508.85	4.396
509.19	4.311
509.54	4.075
509.88	4.315
510.23	4.626
510.57	4.971
510.92	3.678
511.26	4.310
511.61	4.565
511.95	4.438
512.30	4.601
512.64	5.120
512.98	4.043
513.33	5.204
513.67	4.093
514.02	5.206
514.36	4.629
514.70	5.536
515.05	5.288
515.39	4.664
515.74	4.910
516.08	5.021
516.42	4.888
516.77	5.559
517.11	4.510
517.46	4.488
517.80	4.827
518.14	3.858
518.49	4.507
518.83	4.860
519.17	3.760
519.52	4.855
519.86	3.962
520.20	4.982
520.55	4.378
520.89	5.144
521.23	4.560
521.58	5.741
521.92	5.064
522.26	4.815
522.61	4.805
522.95	4.437
523.29	5.019
523.64	5.845
523.98	5.185
524.32	3.866
524.66	4.545
525.01	4.351
525.35	5.574
525.69	3.973
526.04	4.828
526.38	5.837
526.72	3.859
527.06	5.188
527.41	5.277
527.75	4.290
528.09	4.651
528.43	5.604
528.78	4.620
529.12	4.839
529.46	5.653
529.80	5.446
530.15	5.875
530.49	4.377
530.83	5.746
531.17	4.365
531.51	5.267
531.86	3.807
532.20	4.523
532.54	5.242
532.88	4.997
533.22	5.444
533.57	4.260
533.91	4.504
534.25	6.576
534.59	4.747
534.93	4.405
535.27	4.632
535.62	4.213
535.96	5.414
536.30	5.277
536.64	5.789
536.98	4.878
537.32	4.836
537.66	5.961
538.01	5.524
538.35	4.300
538.69	5.726
539.03	4.238
539.37	5.720
539.71	4.703
540.05	4.413
540.39	5.194
540.73	5.718
541.07	4.834
541.42	6.048
541.76	5.712
542.10	4.267
542.44	4.587
542.78	3.785
543.12	4.258
543.46	5.424
543.80	4.441
544.14	4.873
544.48	5.596
544.82	4.580
545.16	4.850
545.50	6.676
545.84	5.312
546.18	5.177
546.52	4.470
546.86	4.817
547.20	5.365
547.54	4.311
547.88	5.027
548.22	5.260
548.56	4.156
548.90	5.256
549.24	5.165
549.58	5.501
549.92	4.789
550.26	4.469
550.60	5.056
550.94	4.705
551.28	4.791
551.62	4.231
551.96	5.038
552.30	4.678
552.64	5.078
552.98	5.134
553.32	5.492
553.66	3.846
554.00	4.526
554.34	5.170
554.68	4.646
555.02	5.357
555.36	5.236
555.69	4.249
556.03	4.283
556.37	4.199
556.71	4.621
557.05	4.773
557.39	4.535
557.73	4.273
558.07	5.581
558.41	4.747
558.75	4.287
559.08	4.965
559.42	4.603
559.76	5.204
560.10	4.740
560.44	4.468
560.78	4.965
561.12	3.949
561.45	4.779
561.79	5.672
562.13	4.329
562.47	3.957
562.81	5.836
563.15	5.712
563.48	4.668
563.82	4.804
564.16	4.387
564.50	5.068
564.84	5.355
565.17	4.628
565.51	4.918
565.85	4.527
566.19	4.443
566.52	4.625
566.86	5.463
567.20	4.795
567.54	4.623
567.88	5.272
568.21	4.638
568.55	4.620
568.89	5.339
569.23	4.526
569.56	4.772
569.90	4.629
570.24	4.689
570.57	4.545
570.91	4.705
571.25	4.308
571.59	4.516
571.92	4.178
572.26	4.318
572.60	4.279
572.93	4.581
573.27	4.107
573.61	4.266
573.95	4.069
574.28	3.972
574.62	4.221
574.96	4.313
575.29	4.366
575.63	4.172
575.97	4.147
576.30	3.655
576.64	4.159
576.98	4.299
577.31	4.325
577.65	4.381
577.98	4.290
578.32	4.296
578.66	3.868
578.99	4.118
579.33	4.197
579.67	4.113
580.00	4.304
580.34	4.478
580.67	4.179
581.01	4.491
581.35	4.371
581.68	4.389
582.02	4.019
582.35	3.900
582.69	4.129
583.02	4.166
583.36	4.613
583.70	4.413
584.03	4.198
584.37	4.743
584.70	4.286
585.04	4.611
585.37	4.324
585.71	3.925
586.04	3.959
586.38	4.081
586.72	4.448
587.05	4.362
587.39	4.501
587.72	4.319
588.06	4.428
588.39	4.244
588.73	4.426
589.06	4.664
589.40	4.494
589.73	4.783
590.07	4.607
590.40	4.334
590.73	4.736
591.07	4.623
591.40	4.630
591.74	4.615
592.07	5.195
592.41	4.549
592.74	4.620
593.08	4.087
593.41	4.876
593.75	4.383
594.08	4.222
594.41	4.694
594.75	3.855
595.08	4.919
595.42	4.233
595.75	4.994
596.09	4.887
596.42	4.217
596.75	4.840
597.09	4.784
597.42	4.381
597.75	4.352
598.09	4.572
598.42	4.377
598.76	4.333
599.09	4.928
599.42	4.396
599.76	4.552
600.09	4.487
600.42	5.118
600.76	4.755
601.09	4.427
601.42	4.269
601.76	4.287
602.09	4.373
602.42	4.591
602.76	4.626
603.09	4.776
603.42	4.431
603.76	3.710
604.09	4.293
604.42	4.442
604.76	4.984
605.09	4.707
605.42	4.424
605.75	4.641
606.09	4.501
606.42	4.587
606.75	4.545
607.09	4.879
607.42	4.253
607.75	3.952
608.08	4.582
608.42	4.705
608.75	5.012
609.08	4.584
609.41	5.025
609.75	4.738
610.08	4.743
610.41	4.541
610.74	4.729
611.07	4.444
611.41	4.619
611.74	4.744
612.07	4.711
612.40	4.376
612.73	4.294
613.07	4.162
613.40	5.306
613.73	3.861
614.06	4.730
614.39	5.471
614.72	4.762
615.06	4.358
615.39	4.749
615.72	4.521
616.05	4.916
616.38	4.046
616.71	5.015
617.05	4.324
617.38	4.714
617.71	3.899
618.04	4.571
618.37	5.233
618.70	5.479
619.03	5.347
619.36	4.269
619.69	5.155
620.03	5.625
620.36	4.649
620.69	5.496
621.02	5.046
621.35	5.145
621.68	5.187
622.01	4.083
622.34	3.990
622.67	6.151
623.00	4.824
623.33	4.954
623.66	4.712
623.99	4.539
624.32	5.247
624.65	4.436
624.99	4.515
625.32	3.791
625.65	5.185
625.98	4.512
626.31	3.741
626.64	5.286
626.97	5.061
627.30	4.028
627.63	5.199
627.96	4.582
628.29	4.718
628.62	4.818
628.95	4.509
629.28	5.242
629.61	4.088
629.94	5.474
630.26	5.435
630.59	6.139
630.92	5.436
631.25	4.513
631.58	4.846
631.91	4.276
632.24	4.243
632.57	5.227
632.90	3.440
633.23	5.882
633.56	2.771
633.89	4.316
634.22	6.543
634.55	4.066
634.88	4.087
635.20	3.333
635.53	3.867
635.86	3.771
636.19	4.657
636.52	4.719
636.85	5.087
637.18	4.277
637.51	6.164
637.83	5.125
638.16	5.457
638.49	2.861
638.82	5.658
639.15	4.342
639.48	4.402
639.81	5.160
640.13	4.185
640.46	3.644
640.79	3.829
641.12	4.874
641.45	5.105
641.77	5.630
642.10	3.949
642.43	6.752
642.76	4.455
643.09	5.493
643.41	5.987
643.74	5.272
644.07	6.240
644.40	6.588
644.73	5.254
645.05	6.544
645.38	4.233
645.71	4.787
646.04	5.386
646.36	4.433
646.69	5.396
647.02	5.671
647.35	5.970
647.67	4.753
648.00	5.597
648.33	4.437
648.66	3.390
648.98	2.513
649.31	3.967
649.64	3.768
649.96	2.269
650.29	6.133
650.62	4.103
650.94	2.407
651.27	4.097
651.60	4.324
651.92	5.245
652.25	3.197
652.58	4.333
652.90	5.489
653.23	3.361
653.56	4.738
653.88	3.093
654.21	1.926
654.54	4.584
654.86	4.924
655.19	3.070
655.52	4.721
655.84	3.572
656.17	3.687
656.49	5.014
656.82	5.451
657.15	4.226
657.47	3.271
657.80	2.386
658.13	2.482
