SpectraSuite Data File
++++++++++++++++++++++++++++++++++++
Date: Fri May 15 20:11:59 PDT 2015
User: schluterlab
Dark Spectrum Present: Yes
Reference Spectrum Present: Yes
Number of Sampled Component Spectra: 1
Spectrometers: USB2E3373
Integration Time (usec): 3000 (USB2E3373)
Spectra Averaged: 3 (USB2E3373)
Boxcar Smoothing: 0 (USB2E3373)
Correct for Electrical Dark: No (USB2E3373)
Strobe/Lamp Enabled: No (USB2E3373)
Correct for Detector Non-linearity: No (USB2E3373)
Correct for Stray Light: No (USB2E3373)
Number of Pixels in Processed Spectrum: 2048
>>>>>Begin Processed Spectral Data<<<<<
178.53	0.000
178.91	0.000
179.29	25.000
179.67	-200.000
180.04	28.571
180.42	125.000
180.80	-300.000
181.18	-133.333
181.56	150.000
181.94	400.000
182.31	-700.000
182.69	100.000
183.07	100.000
183.45	0.000
183.83	200.000
184.20	27.273
184.58	100.000
184.96	-25.000
185.34	-166.667
185.72	-300.000
186.09	53.846
186.47	-100.000
186.85	-50.000
187.23	122.222
187.61	200.000
187.98	100.000
188.36	44.444
188.74	133.333
189.12	29.412
189.49	22.222
189.87	0.000
190.25	128.571
190.63	-100.000
191.00	-166.667
191.38	31.579
191.76	500.000
192.14	-25.000
192.51	450.000
192.89	11.111
193.27	-228.571
193.65	116.667
194.02	45.455
194.40	40.000
194.78	-162.500
195.15	-16.667
195.53	-75.000
195.91	150.000
196.29	125.000
196.66	92.308
197.04	-100.000
197.42	11.111
197.79	33.333
198.17	-46.154
198.55	1800.000
198.92	100.000
199.30	300.000
199.68	60.000
200.05	-66.667
200.43	0.000
200.81	200.000
201.18	33.333
201.56	500.000
201.94	350.000
202.31	-33.333
202.69	-40.000
203.07	350.000
203.44	1600.000
203.82	0.000
204.19	114.286
204.57	-433.333
204.95	100.000
205.32	20.000
205.70	14.286
206.08	50.000
206.45	133.333
206.83	128.571
207.20	-142.857
207.58	300.000
207.96	-200.000
208.33	-20.000
208.71	-100.000
209.08	-83.333
209.46	-700.000
209.84	40.000
210.21	0.000
210.59	171.429
210.96	100.000
211.34	150.000
211.71	93.333
212.09	-42.857
212.46	-200.000
212.84	0.000
213.22	70.000
213.59	550.000
213.97	-7.692
214.34	18.182
214.72	133.333
215.09	125.000
215.47	76.923
215.84	-18.182
216.22	-133.333
216.59	37.500
216.97	450.000
217.34	150.000
217.72	20.000
218.09	25.000
218.47	-100.000
218.84	900.000
219.22	-55.556
219.59	180.000
219.97	333.333
220.34	275.000
220.72	100.000
221.09	-25.000
221.47	200.000
221.84	-600.000
222.22	-200.000
222.59	118.182
222.97	116.667
223.34	-33.333
223.72	-14.286
224.09	23.810
224.46	35.714
224.84	166.667
225.21	-10.000
225.59	86.667
225.96	-150.000
226.34	175.000
226.71	-14.286
227.08	33.333
227.46	-50.000
227.83	-300.000
228.21	111.111
228.58	-18.182
228.95	50.000
229.33	10.000
229.70	50.000
230.08	25.000
230.45	-57.143
230.82	0.000
231.20	-6.667
231.57	42.857
231.95	157.143
232.32	-40.000
232.69	42.857
233.07	-166.667
233.44	140.000
233.81	20.000
234.19	144.444
234.56	35.294
234.93	-150.000
235.31	225.000
235.68	-200.000
236.05	0.000
236.43	-15.000
236.80	58.824
237.17	40.625
237.55	40.000
237.92	-11.111
238.29	22.222
238.67	46.667
239.04	64.706
239.41	7.317
239.79	3.333
240.16	29.268
240.53	-13.158
240.91	-8.696
241.28	28.571
241.65	25.000
242.02	41.096
242.40	26.667
242.77	20.339
243.14	27.273
243.51	26.250
243.89	32.184
244.26	18.391
244.63	28.571
245.00	16.495
245.38	17.526
245.75	12.360
246.12	12.931
246.49	19.835
246.87	18.269
247.24	14.286
247.61	19.298
247.98	14.634
248.36	20.625
248.73	22.368
249.10	15.584
249.47	22.152
249.84	16.340
250.22	14.118
250.59	21.569
250.96	18.310
251.33	20.930
251.70	22.353
252.08	20.305
252.45	17.327
252.82	20.603
253.19	21.659
253.56	14.486
253.94	16.667
254.31	20.000
254.68	17.982
255.05	14.961
255.42	20.087
255.79	20.077
256.16	19.455
256.54	20.149
256.91	26.996
257.28	14.498
257.65	19.101
258.02	17.376
258.39	21.549
258.76	20.147
259.14	21.262
259.51	18.123
259.88	16.495
260.25	18.301
260.62	19.444
260.99	19.661
261.36	17.466
261.73	14.557
262.10	15.198
262.47	21.166
262.85	17.555
263.22	16.615
263.59	19.626
263.96	22.671
264.33	21.515
264.70	20.238
265.07	15.476
265.44	19.830
265.81	20.056
266.18	21.038
266.55	17.481
266.92	21.503
267.29	18.016
267.66	16.880
268.03	18.586
268.40	18.016
268.77	21.123
269.14	19.904
269.51	22.622
269.88	17.706
270.25	18.622
270.62	15.366
270.99	18.926
271.36	17.359
271.73	16.901
272.10	20.438
272.47	19.385
272.84	16.584
273.21	18.329
273.58	22.892
273.95	17.162
274.32	15.242
274.69	15.837
275.06	18.304
275.43	16.100
275.80	18.102
276.17	18.851
276.54	16.702
276.91	17.544
277.28	18.777
277.65	19.421
278.02	18.298
278.39	17.505
278.76	16.352
279.13	14.730
279.50	19.538
279.87	17.279
280.23	16.989
280.60	15.400
280.97	16.364
281.34	17.885
281.71	18.686
282.08	15.542
282.45	16.830
282.82	15.830
283.19	16.634
283.56	17.341
283.92	15.370
284.29	16.346
284.66	14.341
285.03	15.717
285.40	16.635
285.77	14.411
286.14	16.245
286.51	17.343
286.87	16.271
287.24	15.838
287.61	17.108
287.98	19.825
288.35	17.331
288.72	15.762
289.08	14.583
289.45	16.344
289.82	16.259
290.19	13.140
290.56	14.923
290.93	13.973
291.29	14.484
291.66	15.118
292.03	15.152
292.40	15.645
292.77	15.152
293.13	14.286
293.50	13.961
293.87	13.740
294.24	13.447
294.60	13.860
294.97	14.732
295.34	12.423
295.71	14.754
296.08	13.004
296.44	10.526
296.81	12.917
297.18	14.638
297.55	15.312
297.91	12.603
298.28	13.325
298.65	12.754
299.02	11.995
299.38	9.986
299.75	12.690
300.12	12.958
300.48	12.121
300.85	13.181
301.22	12.987
301.59	13.026
301.95	12.785
302.32	11.673
302.69	13.557
303.05	12.252
303.42	12.080
303.79	13.435
304.15	13.381
304.52	11.058
304.89	12.164
305.25	12.349
305.62	11.435
305.99	10.175
306.35	11.676
306.72	12.148
307.09	11.288
307.45	12.514
307.82	10.764
308.19	11.847
308.55	11.232
308.92	12.200
309.29	10.838
309.65	12.487
310.02	11.991
310.38	12.733
310.75	13.115
311.12	12.271
311.48	11.877
311.85	13.194
312.22	13.291
312.58	13.057
312.95	12.807
313.31	12.629
313.68	12.042
314.05	12.551
314.41	13.093
314.78	12.887
315.14	14.594
315.51	14.286
315.87	15.061
316.24	16.380
316.61	15.551
316.97	15.278
317.34	14.551
317.70	16.826
318.07	16.346
318.43	17.255
318.80	18.466
319.16	20.020
319.53	19.183
319.89	20.177
320.26	19.433
320.62	22.267
320.99	21.294
321.35	23.227
321.72	23.676
322.08	23.061
322.45	26.396
322.81	25.344
323.18	26.987
323.54	28.764
323.91	29.893
324.27	32.715
324.64	34.270
325.00	34.854
325.37	37.925
325.73	37.443
326.10	40.509
326.46	43.318
326.83	44.357
327.19	44.377
327.56	45.960
327.92	49.296
328.29	49.286
328.65	51.226
329.01	52.298
329.38	55.484
329.74	54.485
330.11	56.534
330.47	57.143
330.84	59.135
331.20	61.787
331.56	59.815
331.93	62.283
332.29	61.962
332.66	63.077
333.02	64.312
333.38	66.178
333.75	67.766
334.11	65.980
334.48	68.722
334.84	67.766
335.20	68.435
335.57	66.002
335.93	69.196
336.29	69.797
336.66	69.391
337.02	71.840
337.38	69.815
337.75	71.091
338.11	70.965
338.47	71.898
338.84	71.534
339.20	73.949
339.56	73.486
339.93	72.516
340.29	73.853
340.65	73.118
341.02	73.138
341.38	75.487
341.74	74.382
342.11	71.664
342.47	75.623
342.83	75.779
343.20	74.739
343.56	74.609
343.92	75.731
344.28	74.722
344.65	74.266
345.01	73.725
345.37	73.928
345.73	75.397
346.10	76.186
346.46	74.348
346.82	75.368
347.19	73.982
347.55	74.854
347.91	76.052
348.27	75.101
348.63	75.554
349.00	76.046
349.36	75.727
349.72	78.109
350.08	76.803
350.45	74.142
350.81	77.159
351.17	75.489
351.53	74.776
351.89	74.649
352.26	75.760
352.62	77.258
352.98	75.341
353.34	74.477
353.70	76.294
354.07	75.887
354.43	75.580
354.79	77.622
355.15	76.984
355.51	77.373
355.87	77.104
356.24	76.509
356.60	77.284
356.96	77.937
357.32	78.514
357.68	76.153
358.04	78.756
358.40	76.447
358.77	78.469
359.13	77.022
359.49	75.732
359.85	77.457
360.21	79.984
360.57	77.353
360.93	76.399
361.29	77.039
361.66	77.900
362.02	77.652
362.38	78.294
362.74	79.107
363.10	80.135
363.46	79.763
363.82	80.841
364.18	78.524
364.54	78.529
364.90	80.860
365.26	80.131
365.62	80.584
365.98	80.572
366.35	81.646
366.71	80.414
367.07	80.261
367.43	80.302
367.79	79.647
368.15	79.325
368.51	81.646
368.87	81.192
369.23	80.650
369.59	81.122
369.95	81.818
370.31	81.142
370.67	81.866
371.03	80.583
371.39	83.151
371.75	82.491
372.11	82.596
372.47	82.027
372.83	81.973
373.19	82.026
373.55	82.455
373.91	83.009
374.27	83.345
374.63	82.915
374.99	82.128
375.35	83.008
375.71	83.497
376.07	84.410
376.42	85.850
376.78	84.430
377.14	85.308
377.50	84.661
377.86	84.203
378.22	85.131
378.58	85.064
378.94	85.255
379.30	84.467
379.66	85.517
380.02	85.653
380.38	85.636
380.74	85.458
381.09	85.828
381.45	86.300
381.81	85.935
382.17	86.104
382.53	86.758
382.89	87.822
383.25	87.928
383.61	87.439
383.97	87.175
384.32	86.116
384.68	86.935
385.04	87.868
385.40	87.119
385.76	89.560
386.12	88.357
386.48	88.761
386.83	88.332
387.19	87.485
387.55	89.774
387.91	88.814
388.27	87.790
388.62	89.868
388.98	87.845
389.34	88.819
389.70	89.124
390.06	87.351
390.42	88.342
390.77	90.778
391.13	89.849
391.49	88.745
391.85	90.188
392.20	89.893
392.56	89.510
392.92	89.900
393.28	88.679
393.64	88.889
393.99	89.655
394.35	89.437
394.71	90.230
395.07	88.246
395.42	89.010
395.78	89.511
396.14	88.020
396.50	90.488
396.85	91.243
397.21	89.098
397.57	89.467
397.92	90.114
398.28	90.000
398.64	88.072
399.00	89.898
399.35	89.221
399.71	86.387
400.07	90.024
400.42	88.556
400.78	89.161
401.14	87.840
401.49	88.624
401.85	88.970
402.21	88.193
402.57	90.000
402.92	88.519
403.28	87.343
403.63	90.164
403.99	88.074
404.35	88.507
404.70	87.143
405.06	87.427
405.42	87.694
405.77	88.786
406.13	88.824
406.49	88.514
406.84	88.875
407.20	89.585
407.55	87.959
407.91	89.104
408.27	86.361
408.62	88.677
408.98	87.616
409.34	87.485
409.69	87.532
410.05	86.946
410.40	87.284
410.76	87.455
411.11	88.375
411.47	88.955
411.83	87.508
412.18	88.932
412.54	88.077
412.89	87.746
413.25	87.545
413.60	87.764
413.96	85.644
414.31	87.744
414.67	86.530
415.03	87.084
415.38	87.010
415.74	88.013
416.09	88.439
416.45	86.901
416.80	86.913
417.16	87.569
417.51	88.941
417.87	85.854
418.22	89.184
418.58	87.023
418.93	88.589
419.29	86.428
419.64	88.853
420.00	90.428
420.35	87.642
420.71	90.279
421.06	89.196
421.42	88.281
421.77	89.827
422.12	88.649
422.48	88.576
422.83	89.849
423.19	87.867
423.54	88.242
423.90	88.339
424.25	89.724
424.61	90.024
424.96	88.095
425.31	91.508
425.67	90.258
426.02	90.342
426.38	92.173
426.73	92.554
427.09	90.443
427.44	90.824
427.79	91.220
428.15	89.745
428.50	91.278
428.85	90.295
429.21	92.303
429.56	92.022
429.92	90.550
430.27	88.822
430.62	91.061
430.98	91.083
431.33	90.326
431.68	90.476
432.04	92.119
432.39	90.188
432.74	90.018
433.10	91.322
433.45	92.055
433.80	92.687
434.16	92.465
434.51	91.559
434.86	93.728
435.22	92.428
435.57	93.013
435.92	92.814
436.28	91.532
436.63	91.386
436.98	90.730
437.34	92.075
437.69	92.904
438.04	92.422
438.39	91.265
438.75	94.171
439.10	92.247
439.45	93.122
439.81	92.599
440.16	95.012
440.51	93.731
440.86	96.133
441.22	93.609
441.57	94.095
441.92	95.173
442.27	94.512
442.63	94.593
442.98	92.878
443.33	93.322
443.68	93.050
444.03	92.499
444.39	93.458
444.74	94.482
445.09	93.597
445.44	94.416
445.79	95.565
446.15	93.502
446.50	92.180
446.85	95.005
447.20	93.014
447.55	92.522
447.91	94.642
448.26	94.878
448.61	93.610
448.96	94.836
449.31	94.220
449.66	94.599
450.02	93.668
450.37	96.206
450.72	92.726
451.07	93.987
451.42	92.759
451.77	94.334
452.12	90.849
452.47	93.496
452.83	91.637
453.18	94.687
453.53	94.690
453.88	93.625
454.23	93.854
454.58	95.907
454.93	93.686
455.28	93.079
455.63	94.172
455.98	94.107
456.34	94.125
456.69	93.520
457.04	94.518
457.39	94.897
457.74	95.586
458.09	92.231
458.44	94.090
458.79	93.389
459.14	92.906
459.49	94.866
459.84	95.093
460.19	95.206
460.54	96.271
460.89	93.239
461.24	93.416
461.59	94.418
461.94	92.956
462.29	94.391
462.64	94.086
462.99	93.839
463.34	93.950
463.69	94.273
464.04	93.644
464.39	93.814
464.74	93.865
465.09	93.949
465.44	94.691
465.79	92.007
466.14	93.501
466.49	93.560
466.84	94.289
467.19	93.429
467.54	94.125
467.89	94.694
468.24	91.058
468.59	93.651
468.94	91.492
469.29	94.623
469.64	92.276
469.99	95.305
470.34	93.174
470.68	94.183
471.03	92.852
471.38	93.866
471.73	93.838
472.08	91.316
472.43	93.960
472.78	92.529
473.13	94.898
473.48	94.267
473.83	91.968
474.17	94.819
474.52	93.044
474.87	92.364
475.22	93.960
475.57	92.716
475.92	93.637
476.27	93.830
476.61	93.866
476.96	90.686
477.31	92.104
477.66	92.640
478.01	93.318
478.36	92.211
478.70	94.290
479.05	93.901
479.40	92.581
479.75	91.971
480.10	92.883
480.45	94.000
480.79	95.166
481.14	95.031
481.49	94.039
481.84	94.981
482.19	92.750
482.53	93.669
482.88	92.983
483.23	91.651
483.58	91.887
483.92	91.288
484.27	91.386
484.62	93.008
484.97	93.076
485.31	94.003
485.66	92.988
486.01	95.443
486.36	95.143
486.70	93.712
487.05	92.785
487.40	92.658
487.75	90.761
488.09	90.204
488.44	88.583
488.79	89.615
489.13	91.106
489.48	90.466
489.83	91.300
490.17	90.292
490.52	91.917
490.87	92.457
491.22	93.362
491.56	92.552
491.91	90.105
492.26	93.291
492.60	92.514
492.95	94.147
493.30	91.597
493.64	93.959
493.99	92.705
494.34	92.184
494.68	91.667
495.03	92.603
495.37	91.953
495.72	92.277
496.07	93.317
496.41	92.830
496.76	92.676
497.11	93.014
497.45	92.315
497.80	92.432
498.14	90.462
498.49	92.839
498.84	91.218
499.18	93.775
499.53	92.411
499.87	92.510
500.22	92.038
500.56	93.192
500.91	91.315
501.26	91.498
501.60	93.261
501.95	92.237
502.29	91.138
502.64	91.458
502.98	93.981
503.33	90.106
503.67	92.530
504.02	92.326
504.36	90.896
504.71	90.707
505.06	91.042
505.40	92.030
505.75	94.691
506.09	90.269
506.44	94.302
506.78	91.684
507.13	91.262
507.47	90.966
507.82	92.361
508.16	91.865
508.51	92.497
508.85	92.674
509.19	91.644
509.54	91.475
509.88	91.478
510.23	91.393
510.57	92.410
510.92	89.712
511.26	91.762
511.61	93.454
511.95	92.164
512.30	92.184
512.64	90.262
512.98	91.522
513.33	92.893
513.67	91.586
514.02	92.849
514.36	92.057
514.70	93.124
515.05	92.538
515.39	92.562
515.74	93.234
516.08	92.767
516.42	93.875
516.77	92.335
517.11	94.184
517.46	92.819
517.80	92.670
518.14	92.345
518.49	91.647
518.83	91.798
519.17	91.510
519.52	91.237
519.86	91.417
520.20	91.191
520.55	90.557
520.89	89.210
521.23	92.337
521.58	92.303
521.92	92.564
522.26	93.038
522.61	92.987
522.95	94.834
523.29	92.122
523.64	93.901
523.98	93.130
524.32	92.784
524.66	92.318
525.01	94.026
525.35	91.251
525.69	92.795
526.04	90.741
526.38	93.774
526.72	91.498
527.06	90.921
527.41	91.359
527.75	92.024
528.09	92.425
528.43	92.573
528.78	93.333
529.12	92.581
529.46	93.567
529.80	92.084
530.15	93.597
530.49	93.131
530.83	92.681
531.17	91.739
531.51	93.365
531.86	91.842
532.20	92.136
532.54	91.695
532.88	93.634
533.22	92.608
533.57	92.661
533.91	92.493
534.25	93.555
534.59	92.239
534.93	90.623
535.27	92.386
535.62	92.093
535.96	92.694
536.30	91.557
536.64	93.177
536.98	91.498
537.32	93.883
537.66	92.847
538.01	91.189
538.35	93.135
538.69	90.213
539.03	91.046
539.37	90.444
539.71	91.138
540.05	92.736
540.39	92.036
540.73	91.702
541.07	92.196
541.42	91.196
541.76	92.636
542.10	91.397
542.44	92.773
542.78	90.089
543.12	92.582
543.46	92.072
543.80	92.297
544.14	90.120
544.48	90.740
544.82	90.772
545.16	92.623
545.50	90.187
545.84	93.414
546.18	92.482
546.52	90.844
546.86	91.157
547.20	92.275
547.54	92.933
547.88	92.799
548.22	90.467
548.56	92.480
548.90	92.925
549.24	91.185
549.58	91.396
549.92	90.136
550.26	93.407
550.60	93.606
550.94	93.204
551.28	92.890
551.62	92.462
551.96	92.857
552.30	93.567
552.64	91.467
552.98	91.772
553.32	91.869
553.66	93.106
554.00	94.307
554.34	94.387
554.68	91.962
555.02	90.551
555.36	93.194
555.69	91.722
556.03	91.506
556.37	91.388
556.71	92.274
557.05	93.289
557.39	91.152
557.73	91.454
558.07	94.344
558.41	92.113
558.75	92.518
559.08	91.017
559.42	90.873
559.76	92.234
560.10	91.437
560.44	92.182
560.78	93.007
561.12	94.993
561.45	95.362
561.79	92.997
562.13	91.838
562.47	92.086
562.81	91.859
563.15	90.973
563.48	93.281
563.82	93.137
564.16	92.061
564.50	91.824
564.84	91.098
565.17	91.214
565.51	94.740
565.85	95.336
566.19	92.772
566.52	94.906
566.86	93.638
567.20	92.341
567.54	95.012
567.88	96.719
568.21	94.627
568.55	94.620
568.89	94.559
569.23	95.859
569.56	95.184
569.90	96.793
570.24	93.413
570.57	95.382
570.91	95.817
571.25	93.916
571.59	93.709
571.92	92.267
572.26	93.448
572.60	91.287
572.93	92.156
573.27	92.853
573.61	92.422
573.95	92.627
574.28	92.426
574.62	92.271
574.96	91.274
575.29	91.873
575.63	90.334
575.97	90.919
576.30	91.875
576.64	90.887
576.98	92.793
577.31	92.848
577.65	92.890
577.98	93.132
578.32	92.847
578.66	90.587
578.99	90.056
579.33	90.382
579.67	89.705
580.00	91.291
580.34	92.413
580.67	91.568
581.01	91.979
581.35	92.356
581.68	93.210
582.02	93.246
582.35	92.331
582.69	92.248
583.02	92.096
583.36	91.696
583.70	91.044
584.03	92.827
584.37	92.801
584.70	91.236
585.04	90.518
585.37	91.843
585.71	92.841
586.04	92.461
586.38	92.131
586.72	92.798
587.05	93.588
587.39	92.983
587.72	93.494
588.06	92.665
588.39	91.911
588.73	92.552
589.06	92.727
589.40	90.909
589.73	92.442
590.07	93.353
590.40	93.150
590.73	94.605
591.07	92.154
591.40	92.297
591.74	94.344
592.07	93.599
592.41	93.640
592.74	93.031
593.08	91.512
593.41	94.069
593.75	92.313
594.08	92.104
594.41	92.322
594.75	92.214
595.08	93.341
595.42	92.381
595.75	92.677
596.09	92.181
596.42	93.220
596.75	91.741
597.09	91.526
597.42	91.734
597.75	93.175
598.09	91.489
598.42	92.058
598.76	92.321
599.09	93.550
599.42	91.739
599.76	91.535
600.09	91.855
600.42	91.092
600.76	90.193
601.09	92.748
601.42	90.051
601.76	91.465
602.09	92.120
602.42	92.291
602.76	92.190
603.09	92.816
603.42	95.569
603.76	93.105
604.09	93.844
604.42	92.174
604.76	93.191
605.09	92.185
605.42	92.596
605.75	92.863
606.09	91.805
606.42	91.284
606.75	91.991
607.09	90.857
607.42	92.158
607.75	91.119
608.08	90.386
608.42	88.945
608.75	93.494
609.08	93.523
609.41	92.843
609.75	92.591
610.08	93.360
610.41	92.512
610.74	92.101
611.07	93.437
611.41	92.683
611.74	93.923
612.07	91.863
612.40	92.396
612.73	93.729
613.07	91.170
613.40	92.560
613.73	91.942
614.06	92.209
614.39	92.329
614.72	92.941
615.06	94.134
615.39	91.867
615.72	91.119
616.05	92.067
616.38	91.396
616.71	92.416
617.05	93.885
617.38	92.646
617.71	93.899
618.04	94.159
618.37	95.460
618.70	93.069
619.03	93.681
619.36	92.764
619.69	94.086
620.03	95.106
620.36	94.492
620.69	92.363
621.02	91.972
621.35	92.531
621.68	94.133
622.01	96.167
622.34	93.935
622.67	93.060
623.00	93.032
623.33	94.055
623.66	91.698
623.99	92.738
624.32	94.753
624.65	93.383
624.99	93.604
625.32	93.101
625.65	91.830
625.98	93.070
626.31	91.771
626.64	93.761
626.97	91.885
627.30	95.184
627.63	93.934
627.96	92.992
628.29	91.767
628.62	94.789
628.95	91.383
629.28	95.766
629.61	93.619
629.94	93.548
630.26	94.269
630.59	93.757
630.92	96.615
631.25	92.718
631.58	94.824
631.91	93.750
632.24	95.986
632.57	94.205
632.90	95.611
633.23	93.647
633.56	97.733
633.89	94.698
