SpectraSuite Data File
++++++++++++++++++++++++++++++++++++
Date: Fri May 15 20:17:07 PDT 2015
User: schluterlab
Dark Spectrum Present: Yes
Reference Spectrum Present: Yes
Number of Sampled Component Spectra: 1
Spectrometers: USB2E3373
Integration Time (usec): 3000 (USB2E3373)
Spectra Averaged: 3 (USB2E3373)
Boxcar Smoothing: 0 (USB2E3373)
Correct for Electrical Dark: No (USB2E3373)
Strobe/Lamp Enabled: No (USB2E3373)
Correct for Detector Non-linearity: No (USB2E3373)
Correct for Stray Light: No (USB2E3373)
Number of Pixels in Processed Spectrum: 2048
>>>>>Begin Processed Spectral Data<<<<<
178.53	0.000
178.91	0.000
179.29	37.500
179.67	-750.000
180.04	-28.571
180.42	0.000
180.80	-600.000
181.18	-100.000
181.56	250.000
181.94	50.000
182.31	-0.000
182.69	-80.000
183.07	-400.000
183.45	-320.000
183.83	183.333
184.20	63.636
184.58	77.778
184.96	150.000
185.34	-0.000
185.72	-200.000
186.09	146.154
186.47	-200.000
186.85	133.333
187.23	211.111
187.61	500.000
187.98	66.667
188.36	-22.222
188.74	-266.667
189.12	29.412
189.49	61.111
189.87	0.000
190.25	-7.143
190.63	250.000
191.00	66.667
191.38	-10.526
191.76	150.000
192.14	25.000
192.51	250.000
192.89	-177.778
193.27	14.286
193.65	150.000
194.02	145.455
194.40	10.000
194.78	-25.000
195.15	58.333
195.53	50.000
195.91	300.000
196.29	25.000
196.66	138.462
197.04	85.714
197.42	-11.111
197.79	100.000
198.17	-46.154
198.55	1700.000
198.92	-266.667
199.30	400.000
199.68	-160.000
200.05	-133.333
200.43	0.000
200.81	100.000
201.18	100.000
201.56	1000.000
201.94	-200.000
202.31	-233.333
202.69	-200.000
203.07	150.000
203.44	300.000
203.82	0.000
204.19	0.000
204.57	-133.333
204.95	25.000
205.32	-10.000
205.70	-14.286
206.08	75.000
206.45	211.111
206.83	107.143
207.20	-14.286
207.58	100.000
207.96	-433.333
208.33	-120.000
208.71	75.000
209.08	-66.667
209.46	-200.000
209.84	-120.000
210.21	-700.000
210.59	-57.143
210.96	183.333
211.34	0.000
211.71	-13.333
212.09	-42.857
212.46	-1100.000
212.84	0.000
213.22	10.000
213.59	550.000
213.97	15.385
214.34	36.364
214.72	-66.667
215.09	275.000
215.47	-38.462
215.84	-72.727
216.22	-333.333
216.59	-25.000
216.97	200.000
217.34	-175.000
217.72	-180.000
218.09	50.000
218.47	100.000
218.84	-1000.000
219.22	88.889
219.59	-100.000
219.97	633.333
220.34	350.000
220.72	-28.571
221.09	-200.000
221.47	-150.000
221.84	-650.000
222.22	-650.000
222.59	27.273
222.97	-58.333
223.34	-300.000
223.72	21.429
224.09	23.810
224.46	28.571
224.84	166.667
225.21	10.000
225.59	33.333
225.96	-500.000
226.34	325.000
226.71	-14.286
227.08	-150.000
227.46	12.500
227.83	-850.000
228.21	11.111
228.58	45.455
228.95	-37.500
229.33	40.000
229.70	106.250
230.08	-150.000
230.45	100.000
230.82	14.286
231.20	-86.667
231.57	28.571
231.95	71.429
232.32	-110.000
232.69	57.143
233.07	-200.000
233.44	-120.000
233.81	-100.000
234.19	100.000
234.56	5.882
234.93	150.000
235.31	50.000
235.68	-80.000
236.05	0.000
236.43	5.000
236.80	5.882
237.17	40.625
237.55	35.000
237.92	-18.519
238.29	47.222
238.67	60.000
239.04	23.529
239.41	12.195
239.79	6.667
240.16	39.024
240.53	13.158
240.91	54.348
241.28	28.571
241.65	53.571
242.02	42.466
242.40	41.667
242.77	61.017
243.14	25.758
243.51	51.250
243.89	42.529
244.26	28.736
244.63	44.048
245.00	42.268
245.38	47.423
245.75	38.202
246.12	36.207
246.49	42.975
246.87	57.692
247.24	44.538
247.61	44.737
247.98	42.276
248.36	42.500
248.73	44.079
249.10	40.909
249.47	46.835
249.84	42.484
250.22	45.294
250.59	38.562
250.96	41.784
251.33	47.674
251.70	48.235
252.08	45.685
252.45	42.079
252.82	49.749
253.19	40.553
253.56	48.131
253.94	44.595
254.31	43.478
254.68	50.877
255.05	41.732
255.42	41.921
255.79	45.560
256.16	43.969
256.54	48.134
256.91	49.430
257.28	47.212
257.65	41.948
258.02	41.135
258.39	45.118
258.76	47.619
259.14	46.179
259.51	41.100
259.88	47.079
260.25	44.444
260.62	47.569
260.99	45.085
261.36	47.945
261.73	43.987
262.10	46.505
262.47	46.626
262.85	45.141
263.22	50.462
263.59	44.860
263.96	47.205
264.33	47.879
264.70	49.405
265.07	45.536
265.44	47.875
265.81	45.198
266.18	46.175
266.55	46.787
266.92	46.114
267.29	44.909
267.66	46.292
268.03	45.288
268.40	43.864
268.77	46.791
269.14	45.564
269.51	47.815
269.88	47.631
270.25	44.388
270.62	42.927
270.99	45.524
271.36	45.721
271.73	46.714
272.10	47.445
272.47	47.518
272.84	44.554
273.21	42.691
273.58	45.542
273.95	43.936
274.32	42.263
274.69	43.213
275.06	45.759
275.43	42.857
275.80	46.137
276.17	44.368
276.54	42.398
276.91	44.956
277.28	42.576
277.65	41.942
278.02	41.915
278.39	44.858
278.76	39.203
279.13	40.249
279.50	44.748
279.87	42.765
280.23	40.215
280.60	43.275
280.97	45.051
281.34	42.692
281.71	44.148
282.08	42.945
282.45	40.313
282.82	41.120
283.19	43.327
283.56	42.004
283.92	41.366
284.29	40.769
284.66	41.860
285.03	43.222
285.40	42.722
285.77	40.246
286.14	42.238
286.51	41.513
286.87	42.048
287.24	42.726
287.61	40.212
287.98	42.807
288.35	39.168
288.72	41.856
289.08	39.236
289.45	37.434
289.82	38.287
290.19	40.444
290.56	40.652
290.93	38.384
291.29	36.364
291.66	37.480
292.03	37.321
292.40	36.774
292.77	35.566
293.13	34.903
293.50	34.143
293.87	33.588
294.24	34.003
294.60	34.128
294.97	34.970
295.34	33.282
295.71	33.830
296.08	33.483
296.44	31.579
296.81	32.361
297.18	33.478
297.55	32.791
297.91	32.055
298.28	32.322
298.65	31.615
299.02	32.075
299.38	31.874
299.75	31.034
300.12	28.796
300.48	30.698
300.85	30.038
301.22	30.000
301.59	31.316
301.95	29.367
302.32	32.685
302.69	30.224
303.05	29.579
303.42	29.141
303.79	30.958
304.15	29.510
304.52	29.132
304.89	28.772
305.25	29.298
305.62	28.821
305.99	28.304
306.35	29.017
306.72	28.234
307.09	29.190
307.45	27.555
307.82	30.440
308.19	30.197
308.55	28.026
308.92	28.758
309.29	28.827
309.65	27.234
310.02	27.723
310.38	28.979
310.75	28.197
311.12	26.695
311.48	26.299
311.85	29.843
312.22	27.743
312.58	27.919
312.95	27.535
313.31	27.640
313.68	27.644
314.05	25.816
314.41	28.351
314.78	26.804
315.14	28.674
315.51	28.364
315.87	27.254
316.24	27.604
316.61	29.035
316.97	28.175
317.34	27.734
317.70	27.916
318.07	28.077
318.43	28.333
318.80	28.030
319.16	29.980
319.53	28.300
319.89	27.362
320.26	28.138
320.62	29.990
320.99	28.184
321.35	27.955
321.72	30.010
322.08	28.802
322.45	29.543
322.81	27.898
323.18	28.852
323.54	28.282
323.91	28.627
324.27	30.469
324.64	31.086
325.00	30.383
325.37	31.772
325.73	28.921
326.10	31.426
326.46	30.135
326.83	30.621
327.19	31.299
327.56	30.843
327.92	30.898
328.29	30.089
328.65	32.075
329.01	31.342
329.38	32.627
329.74	32.389
330.11	31.603
330.47	32.282
330.84	31.827
331.20	33.650
331.56	32.870
331.93	32.694
332.29	32.814
332.66	32.760
333.02	32.993
333.38	32.264
333.75	34.341
334.11	32.319
334.48	34.361
334.84	34.066
335.20	34.126
335.57	31.641
335.93	34.327
336.29	33.886
336.66	33.424
337.02	32.714
337.38	33.519
337.75	34.182
338.11	35.167
338.47	34.945
338.84	35.213
339.20	34.461
339.56	34.771
339.93	34.557
340.29	33.853
340.65	34.677
341.02	33.777
341.38	32.655
341.74	32.774
342.11	33.622
342.47	34.075
342.83	33.997
343.20	35.017
343.56	33.913
343.92	36.227
344.28	35.184
344.65	34.715
345.01	34.572
345.37	34.315
345.73	33.724
346.10	36.066
346.46	33.558
346.82	34.124
347.19	33.832
347.55	34.085
347.91	33.819
348.27	33.064
348.63	33.816
349.00	34.537
349.36	35.328
349.72	35.655
350.08	33.033
350.45	34.796
350.81	34.468
351.17	32.492
351.53	35.102
351.89	34.682
352.26	32.960
352.62	33.710
352.98	33.414
353.34	33.655
353.70	35.275
354.07	34.274
354.43	34.908
354.79	34.765
355.15	34.683
355.51	34.731
355.87	35.356
356.24	35.318
356.60	35.489
356.96	34.365
357.32	32.668
357.68	33.698
358.04	35.622
358.40	35.289
358.77	35.247
359.13	34.187
359.49	33.898
359.85	34.633
360.21	34.689
360.57	34.200
360.93	34.266
361.29	33.761
361.66	34.796
362.02	35.530
362.38	35.415
362.74	35.806
363.10	35.666
363.46	35.137
363.82	36.814
364.18	34.982
364.54	34.853
364.90	34.839
365.26	35.080
365.62	36.058
365.98	35.924
366.35	36.344
366.71	35.255
367.07	35.486
367.43	35.298
367.79	36.466
368.15	35.319
368.51	36.198
368.87	35.463
369.23	34.007
369.59	35.350
369.95	35.924
370.31	36.055
370.67	35.299
371.03	36.445
371.39	35.449
371.75	35.751
372.11	36.591
372.47	35.725
372.83	36.693
373.19	35.663
373.55	34.874
373.91	35.565
374.27	35.932
374.63	36.109
374.99	35.035
375.35	37.187
375.71	37.832
376.07	36.728
376.42	37.891
376.78	36.443
377.14	36.425
377.50	36.853
377.86	37.885
378.22	38.162
378.58	37.564
378.94	36.295
379.30	36.868
379.66	37.868
380.02	37.155
380.38	37.797
380.74	37.762
381.09	38.528
381.45	37.920
381.81	36.891
382.17	37.690
382.53	38.663
382.89	38.669
383.25	39.203
383.61	38.659
383.97	38.603
384.32	38.024
384.68	37.895
385.04	36.581
385.40	36.963
385.76	39.182
386.12	38.357
386.48	38.059
386.83	39.442
387.19	38.767
387.55	40.151
387.91	39.914
388.27	39.072
388.62	39.459
388.98	39.349
389.34	39.600
389.70	39.714
390.06	40.277
390.42	39.702
390.77	39.765
391.13	40.542
391.49	39.263
391.85	40.416
392.20	40.113
392.56	40.687
392.92	39.988
393.28	40.212
393.64	40.360
393.99	40.627
394.35	39.595
394.71	40.805
395.07	39.912
395.42	40.194
395.78	41.173
396.14	40.542
396.50	40.964
396.85	39.794
397.21	40.288
397.57	41.129
397.92	40.863
398.28	40.402
398.64	39.578
399.00	40.971
399.35	39.842
399.71	39.518
400.07	41.294
400.42	40.881
400.78	40.968
401.14	39.927
401.49	39.845
401.85	40.158
402.21	41.386
402.57	40.250
402.92	40.088
403.28	40.789
403.63	41.992
403.99	40.689
404.35	41.224
404.70	41.607
405.06	40.423
405.42	40.460
405.77	39.686
406.13	41.327
406.49	40.793
406.84	41.137
407.20	41.180
407.55	39.665
407.91	39.639
408.27	40.727
408.62	41.477
408.98	41.158
409.34	41.450
409.69	41.667
410.05	40.887
410.40	41.358
410.76	41.556
411.11	42.187
411.47	41.091
411.83	40.113
412.18	41.441
412.54	39.638
412.89	39.901
413.25	41.637
413.60	40.062
413.96	40.552
414.31	40.671
414.67	40.924
415.03	41.944
415.38	40.862
415.74	41.564
416.09	41.215
416.45	41.729
416.80	40.846
417.16	42.610
417.51	41.173
417.87	40.678
418.22	41.386
418.58	41.137
418.93	40.940
419.29	40.909
419.64	42.968
420.00	42.317
420.35	42.090
420.71	41.859
421.06	42.357
421.42	42.608
421.77	40.751
422.12	40.806
422.48	40.444
422.83	41.241
423.19	41.196
423.54	42.387
423.90	41.696
424.25	41.619
424.61	42.105
424.96	41.405
425.31	43.559
425.67	43.310
426.02	41.991
426.38	42.142
426.73	41.949
427.09	43.671
427.44	41.588
427.79	42.664
428.15	41.930
428.50	42.096
428.85	42.506
429.21	42.105
429.56	43.558
429.92	41.705
430.27	42.256
430.62	41.349
430.98	41.879
431.33	43.165
431.68	41.497
432.04	42.873
432.39	42.442
432.74	42.333
433.10	44.080
433.45	41.995
433.80	42.542
434.16	42.715
434.51	42.849
434.86	43.264
435.22	43.130
435.57	42.982
435.92	42.575
436.28	42.218
436.63	43.411
436.98	42.410
437.34	42.589
437.69	43.411
438.04	43.134
438.39	42.334
438.75	43.898
439.10	42.728
439.45	44.248
439.81	42.997
440.16	44.893
440.51	44.358
440.86	44.713
441.22	42.930
441.57	43.543
441.92	44.753
442.27	44.180
442.63	44.004
442.98	44.285
443.33	43.127
443.68	43.873
444.03	43.964
444.39	44.024
444.74	44.928
445.09	43.096
445.44	44.387
445.79	44.817
446.15	43.337
446.50	43.760
446.85	43.571
447.20	43.379
447.55	44.420
447.91	43.486
448.26	44.792
448.61	44.272
448.96	45.382
449.31	44.277
449.66	44.309
450.02	44.666
450.37	44.576
450.72	44.731
451.07	44.430
451.42	43.883
451.77	44.063
452.12	44.438
452.47	42.241
452.83	43.875
453.18	44.782
453.53	44.374
453.88	44.930
454.23	44.929
454.58	44.962
454.93	44.459
455.28	43.746
455.63	45.071
455.98	43.716
456.34	44.125
456.69	45.235
457.04	45.432
457.39	43.560
457.74	44.680
458.09	43.555
458.44	44.822
458.79	43.697
459.14	44.279
459.49	43.045
459.84	44.557
460.19	45.267
460.54	45.110
460.89	44.886
461.24	43.913
461.59	44.596
461.94	43.459
462.29	45.115
462.64	44.452
462.99	44.753
463.34	43.533
463.69	45.238
464.04	45.157
464.39	44.633
464.74	44.724
465.09	45.041
465.44	45.817
465.79	43.537
466.14	44.356
466.49	43.588
466.84	44.735
467.19	44.743
467.54	44.764
467.89	45.231
468.24	45.195
468.59	45.079
468.94	44.635
469.29	46.033
469.64	45.249
469.99	45.760
470.34	45.119
470.68	46.234
471.03	46.497
471.38	45.292
471.73	45.798
472.08	45.522
472.43	45.705
472.78	44.962
473.13	45.986
473.48	44.821
473.83	44.645
474.17	45.725
474.52	46.203
474.87	45.030
475.22	45.210
475.57	45.398
475.92	45.749
476.27	45.460
476.61	46.644
476.96	44.339
477.31	45.160
477.66	44.551
478.01	45.929
478.36	45.806
478.70	46.547
479.05	45.714
479.40	45.787
479.75	45.725
480.10	44.496
480.45	45.300
480.79	46.324
481.14	45.799
481.49	44.975
481.84	46.525
482.19	45.182
482.53	45.899
482.88	46.205
483.23	44.482
483.58	45.991
483.92	45.402
484.27	45.351
484.62	45.047
484.97	44.362
485.31	44.328
485.66	42.773
486.01	42.683
486.36	43.048
486.70	43.550
487.05	43.444
487.40	44.028
487.75	43.380
488.09	43.665
488.44	43.673
488.79	44.677
489.13	45.232
489.48	45.019
489.83	45.157
490.17	45.124
490.52	46.097
490.87	44.979
491.22	46.848
491.56	45.493
491.91	45.554
492.26	45.843
492.60	46.065
492.95	46.827
493.30	45.872
493.64	47.102
493.99	45.845
494.34	45.388
494.68	45.762
495.03	44.964
495.37	46.173
495.72	46.542
496.07	46.341
496.41	45.330
496.76	45.002
497.11	45.459
497.45	46.348
497.80	46.569
498.14	45.802
498.49	45.353
498.84	46.507
499.18	47.139
499.53	46.181
499.87	46.206
500.22	45.005
500.56	46.041
500.91	46.988
501.26	45.576
501.60	45.352
501.95	46.434
502.29	45.763
502.64	46.139
502.98	46.818
503.33	46.254
503.67	45.012
504.02	46.432
504.36	47.353
504.71	45.404
505.06	46.704
505.40	47.259
505.75	46.443
506.09	46.528
506.44	48.409
506.78	48.010
507.13	47.415
507.47	46.371
507.82	47.382
508.16	47.438
508.51	47.429
508.85	47.148
509.19	47.312
509.54	46.649
509.88	47.735
510.23	47.337
510.57	47.515
510.92	46.055
511.26	47.190
511.61	48.405
511.95	47.178
512.30	48.670
512.64	47.412
512.98	47.670
513.33	48.125
513.67	48.948
514.02	49.542
514.36	49.257
514.70	50.175
515.05	49.941
515.39	48.406
515.74	50.060
516.08	49.731
516.42	50.294
516.77	50.146
517.11	49.436
517.46	50.329
517.80	50.119
518.14	50.888
518.49	48.918
518.83	49.696
519.17	50.212
519.52	49.201
519.86	49.340
520.20	50.243
520.55	49.593
520.89	50.753
521.23	49.778
521.58	51.420
521.92	50.577
522.26	49.707
522.61	51.494
522.95	51.258
523.29	50.127
523.64	51.334
523.98	51.264
524.32	49.936
524.66	52.113
525.01	50.519
525.35	51.717
525.69	50.842
526.04	50.265
526.38	51.492
526.72	50.098
527.06	50.843
527.41	51.847
527.75	51.944
528.09	50.897
528.43	51.452
528.78	52.145
529.12	51.419
529.46	50.617
529.80	50.348
530.15	52.277
530.49	51.448
530.83	53.010
531.17	50.705
531.51	54.378
531.86	51.122
532.20	51.287
532.54	50.715
532.88	51.198
533.22	52.218
533.57	52.163
533.91	51.044
534.25	52.409
534.59	50.674
534.93	49.528
535.27	49.683
535.62	51.134
535.96	52.511
536.30	50.989
536.64	51.551
536.98	51.707
537.32	53.201
537.66	52.034
538.01	52.797
538.35	50.832
538.69	50.932
539.03	50.923
539.37	51.884
539.71	51.261
540.05	51.731
540.39	51.385
540.73	52.232
541.07	52.279
541.42	52.218
541.76	52.168
542.10	52.374
542.44	51.911
542.78	50.447
543.12	51.236
543.46	50.904
543.80	51.770
544.14	50.200
544.48	51.366
544.82	52.221
545.16	51.230
545.50	51.202
545.84	53.258
546.18	53.191
546.52	52.199
546.86	51.042
547.20	51.431
547.54	51.590
547.88	51.495
548.22	50.230
548.56	51.187
548.90	50.674
549.24	50.895
549.58	50.846
549.92	50.465
550.26	50.842
550.60	52.639
550.94	52.651
551.28	51.932
551.62	53.615
551.96	52.030
552.30	52.120
552.64	51.269
552.98	51.125
553.32	51.926
553.66	51.306
554.00	52.993
554.34	53.176
554.68	52.286
555.02	52.307
555.36	53.702
555.69	50.623
556.03	50.607
556.37	52.313
556.71	52.708
557.05	52.871
557.39	51.673
557.73	53.073
558.07	52.564
558.41	51.914
558.75	52.377
559.08	52.876
559.42	53.571
559.76	53.243
560.10	52.982
560.44	53.313
560.78	52.517
561.12	53.456
561.45	53.338
561.79	51.541
562.13	53.087
562.47	51.295
562.81	52.594
563.15	51.975
563.48	52.405
563.82	51.407
564.16	52.019
564.50	51.959
564.84	52.075
565.17	51.777
565.51	51.776
565.85	52.538
566.19	50.663
566.52	52.547
566.86	52.956
567.20	51.432
567.54	51.582
567.88	50.967
568.21	51.810
568.55	50.598
568.89	50.154
569.23	50.120
569.56	50.963
569.90	50.345
570.24	47.823
570.57	48.691
570.91	49.076
571.25	47.353
571.59	47.275
571.92	46.133
572.26	46.860
572.60	46.698
572.93	46.501
573.27	47.053
573.61	46.480
573.95	47.105
574.28	46.081
574.62	46.275
574.96	46.148
575.29	46.012
575.63	45.815
575.97	46.137
576.30	46.556
576.64	46.066
576.98	46.178
577.31	46.940
577.65	46.284
577.98	46.048
578.32	46.090
578.66	45.089
578.99	45.882
579.33	45.466
579.67	45.294
580.00	45.899
580.34	46.318
580.67	45.648
581.01	46.878
581.35	45.349
581.68	45.719
582.02	45.696
582.35	45.348
582.69	45.832
583.02	45.567
583.36	45.635
583.70	46.755
584.03	47.317
584.37	47.995
584.70	46.209
585.04	45.311
585.37	46.314
585.71	46.853
586.04	45.789
586.38	46.012
586.72	47.288
587.05	47.285
587.39	46.743
587.72	47.348
588.06	46.914
588.39	46.596
588.73	47.558
589.06	47.880
589.40	47.805
589.73	47.974
590.07	48.792
590.40	48.259
590.73	49.794
591.07	49.194
591.40	49.243
591.74	48.733
592.07	49.861
592.41	49.337
592.74	47.391
593.08	46.769
593.41	47.315
593.75	47.923
594.08	47.237
594.41	46.943
594.75	47.901
595.08	47.597
595.42	47.736
595.75	48.291
596.09	47.694
596.42	48.863
596.75	49.201
597.09	48.246
597.42	48.013
597.75	49.885
598.09	47.623
598.42	48.195
598.76	48.520
599.09	47.716
599.42	46.874
599.76	47.141
600.09	47.097
600.42	47.157
600.76	47.400
601.09	46.908
601.42	46.925
601.76	47.320
602.09	48.144
602.42	49.452
602.76	48.472
603.09	48.879
603.42	49.206
603.76	48.548
604.09	48.360
604.42	49.196
604.76	49.755
605.09	49.909
605.42	49.029
605.75	49.431
606.09	48.323
606.42	47.665
606.75	48.485
607.09	48.703
607.42	47.807
607.75	48.046
608.08	48.068
608.42	47.967
608.75	50.265
609.08	49.527
609.41	49.848
609.75	49.647
610.08	49.825
610.41	48.213
610.74	49.488
611.07	50.336
611.41	50.545
611.74	49.627
612.07	49.625
612.40	50.109
612.73	50.621
613.07	50.112
613.40	51.422
613.73	51.259
614.06	48.804
614.39	50.592
614.72	49.188
615.06	50.838
615.39	49.017
615.72	49.623
616.05	51.061
616.38	49.231
616.71	51.193
617.05	51.328
617.38	51.226
617.71	50.818
618.04	51.873
618.37	51.955
618.70	52.475
619.03	53.264
619.36	52.388
619.69	52.919
620.03	53.689
620.36	53.219
620.69	51.749
621.02	52.294
621.35	54.440
621.68	54.932
622.01	56.167
622.34	52.434
622.67	52.050
623.00	51.838
623.33	53.354
623.66	51.683
623.99	52.118
624.32	53.536
624.65	51.053
624.99	53.725
625.32	51.403
625.65	53.810
625.98	54.714
626.31	53.283
626.64	55.286
626.97	56.719
627.30	55.429
627.63	55.459
627.96	55.526
628.29	55.412
628.62	56.539
628.95	55.110
629.28	56.956
629.61	54.736
629.94	55.230
630.26	56.324
630.59	57.856
630.92	56.308
631.25	54.256
631.58	58.370
631.91	56.250
632.24	57.339
632.57	59.773
632.90	59.668
633.23	58.706
633.56	61.461
