SpectraSuite Data File
++++++++++++++++++++++++++++++++++++
Date: Fri May 15 20:13:14 PDT 2015
User: schluterlab
Dark Spectrum Present: Yes
Reference Spectrum Present: Yes
Number of Sampled Component Spectra: 1
Spectrometers: USB2E3373
Integration Time (usec): 3000 (USB2E3373)
Spectra Averaged: 3 (USB2E3373)
Boxcar Smoothing: 0 (USB2E3373)
Correct for Electrical Dark: No (USB2E3373)
Strobe/Lamp Enabled: No (USB2E3373)
Correct for Detector Non-linearity: No (USB2E3373)
Correct for Stray Light: No (USB2E3373)
Number of Pixels in Processed Spectrum: 2048
>>>>>Begin Processed Spectral Data<<<<<
178.53	0.000
178.91	0.000
179.29	125.000
179.67	-300.000
180.04	-114.286
180.42	150.000
180.80	200.000
181.18	-200.000
181.56	100.000
181.94	550.000
182.31	200.000
182.69	60.000
183.07	-133.333
183.45	-220.000
183.83	50.000
184.20	-9.091
184.58	122.222
184.96	-75.000
185.34	-33.333
185.72	-50.000
186.09	100.000
186.47	200.000
186.85	16.667
187.23	166.667
187.61	-0.000
187.98	33.333
188.36	0.000
188.74	0.000
189.12	29.412
189.49	38.889
189.87	0.000
190.25	121.429
190.63	300.000
191.00	0.000
191.38	26.316
191.76	100.000
192.14	100.000
192.51	250.000
192.89	0.000
193.27	-14.286
193.65	83.333
194.02	90.909
194.40	30.000
194.78	-87.500
195.15	-25.000
195.53	-125.000
195.91	75.000
196.29	-25.000
196.66	84.615
197.04	42.857
197.42	11.111
197.79	-166.667
198.17	-69.231
198.55	600.000
198.92	-533.333
199.30	400.000
199.68	-40.000
200.05	-300.000
200.43	0.000
200.81	-33.333
201.18	33.333
201.56	-0.000
201.94	200.000
202.31	233.333
202.69	-80.000
203.07	175.000
203.44	100.000
203.82	0.000
204.19	28.571
204.57	-500.000
204.95	100.000
205.32	10.000
205.70	0.000
206.08	25.000
206.45	288.889
206.83	78.571
207.20	-85.714
207.58	-200.000
207.96	200.000
208.33	-20.000
208.71	25.000
209.08	-33.333
209.46	0.000
209.84	0.000
210.21	-1400.000
210.59	14.286
210.96	166.667
211.34	0.000
211.71	80.000
212.09	-71.429
212.46	-1300.000
212.84	0.000
213.22	110.000
213.59	50.000
213.97	69.231
214.34	72.727
214.72	-16.667
215.09	300.000
215.47	23.077
215.84	-27.273
216.22	-166.667
216.59	-12.500
216.97	-200.000
217.34	-150.000
217.72	-60.000
218.09	0.000
218.47	137.500
218.84	-300.000
219.22	66.667
219.59	40.000
219.97	633.333
220.34	175.000
220.72	-128.571
221.09	-275.000
221.47	-150.000
221.84	-350.000
222.22	-750.000
222.59	63.636
222.97	33.333
223.34	200.000
223.72	0.000
224.09	33.333
224.46	0.000
224.84	333.333
225.21	-40.000
225.59	60.000
225.96	200.000
226.34	100.000
226.71	71.429
227.08	116.667
227.46	137.500
227.83	-500.000
228.21	-33.333
228.58	9.091
228.95	62.500
229.33	10.000
229.70	43.750
230.08	25.000
230.45	14.286
230.82	28.571
231.20	20.000
231.57	92.857
231.95	85.714
232.32	50.000
232.69	35.714
233.07	0.000
233.44	-60.000
233.81	-160.000
234.19	55.556
234.56	-5.882
234.93	-200.000
235.31	75.000
235.68	-40.000
236.05	-46.154
236.43	-25.000
236.80	0.000
237.17	21.875
237.55	-15.000
237.92	7.407
238.29	8.333
238.67	20.000
239.04	26.471
239.41	-2.439
239.79	-23.333
240.16	34.146
240.53	7.895
240.91	-8.696
241.28	20.635
241.65	3.571
242.02	19.178
242.40	-6.667
242.77	1.695
243.14	-1.515
243.51	-11.250
243.89	14.943
244.26	6.897
244.63	9.524
245.00	-2.062
245.38	13.402
245.75	-4.494
246.12	10.345
246.49	4.959
246.87	14.423
247.24	5.882
247.61	1.754
247.98	-2.439
248.36	1.875
248.73	3.947
249.10	-0.649
249.47	9.494
249.84	5.229
250.22	7.647
250.59	6.536
250.96	9.859
251.33	2.326
251.70	4.706
252.08	6.091
252.45	4.455
252.82	0.000
253.19	3.226
253.56	0.467
253.94	9.459
254.31	5.217
254.68	10.088
255.05	5.512
255.42	3.493
255.79	6.178
256.16	5.837
256.54	10.075
256.91	3.802
257.28	5.576
257.65	4.869
258.02	2.482
258.39	8.754
258.76	6.593
259.14	9.967
259.51	9.061
259.88	2.749
260.25	6.209
260.62	9.375
260.99	0.678
261.36	3.082
261.73	3.481
262.10	9.422
262.47	4.294
262.85	3.762
263.22	1.231
263.59	4.673
263.96	7.453
264.33	3.030
264.70	5.060
265.07	4.167
265.44	7.932
265.81	4.802
266.18	6.557
266.55	5.656
266.92	8.549
267.29	7.050
267.66	5.371
268.03	6.283
268.40	5.744
268.77	8.021
269.14	5.276
269.51	7.712
269.88	5.486
270.25	3.316
270.62	5.610
270.99	3.325
271.36	5.868
271.73	5.634
272.10	6.326
272.47	3.073
272.84	5.198
273.21	8.817
273.58	5.060
273.95	6.865
274.32	3.002
274.69	2.489
275.06	6.473
275.43	5.442
275.80	6.402
276.17	6.437
276.54	5.567
276.91	5.482
277.28	4.803
277.65	5.785
278.02	4.043
278.39	5.908
278.76	6.289
279.13	1.245
279.50	5.042
279.87	6.263
280.23	4.731
280.60	8.382
280.97	3.838
281.34	1.923
281.71	7.187
282.08	5.317
282.45	3.327
282.82	4.633
283.19	5.222
283.56	6.551
283.92	4.744
284.29	4.808
284.66	6.589
285.03	2.947
285.40	4.348
285.77	3.691
286.14	4.693
286.51	6.458
286.87	4.022
287.24	4.788
287.61	4.409
287.98	5.965
288.35	5.199
288.72	5.954
289.08	2.951
289.45	5.800
289.82	6.294
290.19	4.608
290.56	5.832
290.93	3.872
291.29	4.931
291.66	6.299
292.03	4.625
292.40	4.032
292.77	3.828
293.13	2.597
293.50	3.338
293.87	2.748
294.24	5.719
294.60	4.620
294.97	5.208
295.34	4.908
295.71	5.067
296.08	3.886
296.44	2.560
296.81	3.333
297.18	4.058
297.55	7.182
297.91	3.425
298.28	6.596
298.65	4.342
299.02	4.313
299.38	2.873
299.75	4.414
300.12	2.749
300.48	4.480
300.85	5.070
301.22	2.597
301.59	3.553
301.95	5.316
302.32	4.540
302.69	3.980
303.05	3.094
303.42	4.234
303.79	3.621
304.15	5.974
304.52	3.567
304.89	4.561
305.25	4.358
305.62	3.267
305.99	3.743
306.35	2.890
306.72	3.375
307.09	4.789
307.45	4.133
307.82	3.241
308.19	5.110
308.55	4.253
308.92	5.991
309.29	3.240
309.65	4.629
310.02	4.730
310.38	4.610
310.75	5.464
311.12	5.059
311.48	3.606
311.85	4.398
312.22	4.641
312.58	5.202
312.95	4.803
313.31	4.037
313.68	6.073
314.05	4.898
314.41	5.052
314.78	5.155
315.14	6.886
315.51	6.211
315.87	5.123
316.24	8.291
316.61	7.972
316.97	7.837
317.34	7.812
317.70	7.457
318.07	7.500
318.43	9.510
318.80	7.670
319.16	9.180
319.53	10.256
319.89	9.941
320.26	10.830
320.62	11.434
320.99	10.438
321.35	10.586
321.72	13.915
322.08	13.998
322.45	14.112
322.81	13.752
323.18	15.309
323.54	15.251
323.91	15.871
324.27	17.773
324.64	18.258
325.00	18.613
325.37	21.120
325.73	20.127
326.10	21.072
326.46	21.973
326.83	23.710
327.19	24.324
327.56	27.020
327.92	28.521
328.29	28.125
328.65	29.528
329.01	31.250
329.38	31.982
329.74	32.767
330.11	34.569
330.47	34.323
330.84	35.096
331.20	36.977
331.56	34.907
331.93	39.543
332.29	39.505
332.66	39.457
333.02	41.543
333.38	39.413
333.75	42.949
334.11	41.361
334.48	44.334
334.84	43.956
335.20	44.648
335.57	43.336
335.93	45.619
336.29	45.212
336.66	44.959
337.02	45.353
337.38	45.185
337.75	45.909
338.11	47.250
338.47	46.898
338.84	48.983
339.20	48.080
339.56	48.165
339.93	47.538
340.29	49.725
340.65	49.194
341.02	49.025
341.38	49.381
341.74	48.322
342.11	48.094
342.47	48.754
342.83	48.529
343.20	48.780
343.56	50.174
343.92	49.247
344.28	50.128
344.65	49.655
345.01	49.784
345.37	49.622
345.73	49.958
346.10	50.129
346.46	48.780
346.82	49.591
347.19	50.790
347.55	50.961
347.91	50.243
348.27	50.040
348.63	51.022
349.00	50.369
349.36	50.540
349.72	51.327
350.08	50.328
350.45	50.120
350.81	50.831
351.17	51.466
351.53	50.776
351.89	49.794
352.26	51.120
352.62	51.532
352.98	51.486
353.34	50.644
353.70	52.832
354.07	52.500
354.43	51.641
354.79	52.106
355.15	52.302
355.51	53.244
355.87	53.236
356.24	52.284
356.60	52.870
356.96	52.619
357.32	52.077
357.68	52.854
358.04	54.039
358.40	52.572
358.77	53.589
359.13	53.002
359.49	51.772
359.85	51.872
360.21	52.951
360.57	53.787
360.93	52.194
361.29	52.190
361.66	53.527
362.02	54.394
362.38	53.237
362.74	53.747
363.10	54.703
363.46	54.855
363.82	54.996
364.18	53.063
364.54	52.574
364.90	53.835
365.26	54.294
365.62	55.182
365.98	55.059
366.35	55.353
366.71	55.876
367.07	54.717
367.43	55.068
367.79	54.558
368.15	55.707
368.51	55.499
368.87	55.420
369.23	54.368
369.59	55.394
369.95	55.792
370.31	56.069
370.67	57.761
371.03	56.236
371.39	55.653
371.75	56.190
372.11	56.491
372.47	58.136
372.83	56.565
373.19	56.847
373.55	56.390
373.91	57.595
374.27	58.115
374.63	57.430
374.99	57.376
375.35	56.267
375.71	58.601
376.07	59.270
376.42	58.435
376.78	58.859
377.14	57.820
377.50	59.296
377.86	57.898
378.22	57.945
378.58	60.321
378.94	58.160
379.30	59.077
379.66	59.248
380.02	58.614
380.38	59.282
380.74	58.767
381.09	59.509
381.45	58.349
381.81	58.976
382.17	60.914
382.53	59.650
382.89	60.954
383.25	61.294
383.61	60.671
383.97	59.873
384.32	60.538
384.68	60.495
385.04	59.007
385.40	61.481
385.76	63.145
386.12	61.966
386.48	61.686
386.83	61.509
387.19	60.928
387.55	61.669
387.91	62.897
388.27	62.088
388.62	62.618
388.98	61.265
389.34	62.399
389.70	63.766
390.06	61.045
390.42	62.306
390.77	61.871
391.13	61.538
391.49	62.678
391.85	62.443
392.20	61.707
392.56	62.365
392.92	62.126
393.28	63.620
393.64	62.402
393.99	63.887
394.35	63.314
394.71	62.771
395.07	63.545
395.42	61.141
395.78	63.192
396.14	63.304
396.50	63.982
396.85	63.554
397.21	62.155
397.57	63.260
397.92	61.774
398.28	63.621
398.64	59.819
399.00	63.488
399.35	63.036
399.71	62.608
400.07	63.785
400.42	62.424
400.78	63.809
401.14	62.371
401.49	62.835
401.85	62.401
402.21	62.108
402.57	62.625
402.92	61.794
403.28	62.594
403.63	62.232
403.99	62.436
404.35	62.898
404.70	60.119
405.06	62.397
405.42	63.145
405.77	60.895
406.13	62.573
406.49	60.687
406.84	63.142
407.20	62.914
407.55	61.880
407.91	61.765
408.27	62.460
408.62	62.400
408.98	61.984
409.34	61.896
409.69	61.563
410.05	59.975
410.40	61.852
410.76	61.761
411.11	61.187
411.47	61.736
411.83	61.456
412.18	62.420
412.54	60.424
412.89	59.975
413.25	61.011
413.60	62.174
413.96	60.245
414.31	61.159
414.67	61.578
415.03	60.586
415.38	61.162
415.74	61.694
416.09	61.071
416.45	60.905
416.80	60.344
417.16	62.983
417.51	61.492
417.87	61.408
418.22	63.083
418.58	61.605
418.93	61.442
419.29	59.731
419.64	61.180
420.00	64.232
420.35	60.657
420.71	60.996
421.06	61.142
421.42	61.779
421.77	61.618
422.12	61.748
422.48	61.992
422.83	61.253
423.19	61.343
423.54	62.787
423.90	61.249
424.25	61.711
424.61	63.035
424.96	60.976
425.31	63.894
425.67	62.617
426.02	62.956
426.38	63.244
426.73	63.378
427.09	63.797
427.44	63.529
427.79	62.699
428.15	61.408
428.50	63.719
428.85	61.609
429.21	63.950
429.56	63.935
429.92	63.380
430.27	61.404
430.62	62.363
430.98	62.314
431.33	63.249
431.68	62.533
432.04	62.437
432.39	61.495
432.74	59.651
433.10	62.414
433.45	62.605
433.80	62.797
434.16	62.825
434.51	62.957
434.86	63.124
435.22	62.255
435.57	64.504
435.92	62.994
436.28	62.075
436.63	62.008
436.98	62.341
437.34	62.674
437.69	63.208
438.04	61.595
438.39	62.492
438.75	63.388
439.10	62.932
439.45	62.751
439.81	62.508
440.16	63.955
440.51	63.224
440.86	64.955
441.22	62.952
441.57	63.852
441.92	64.323
442.27	64.302
442.63	63.009
442.98	63.240
443.33	63.439
443.68	62.812
444.03	63.537
444.39	61.682
444.74	63.434
445.09	64.198
445.44	63.419
445.79	64.415
446.15	62.170
446.50	62.673
446.85	63.762
447.20	63.869
447.55	62.779
447.91	62.775
448.26	63.062
448.61	63.673
448.96	63.052
449.31	63.699
449.66	62.485
450.02	63.491
450.37	63.545
450.72	63.116
451.07	63.861
451.42	62.734
451.77	63.050
452.12	62.500
452.47	62.267
452.83	63.251
453.18	61.480
453.53	63.654
453.88	63.692
454.23	62.631
454.58	63.476
454.93	63.273
455.28	62.667
455.63	63.174
455.98	63.139
456.34	62.516
456.69	62.579
457.04	63.642
457.39	63.183
457.74	63.120
458.09	61.683
458.44	63.078
458.79	62.465
459.14	63.215
459.49	63.164
459.84	62.775
460.19	62.561
460.54	64.242
460.89	63.068
461.24	62.422
461.59	63.480
461.94	61.572
462.29	61.761
462.64	63.189
462.99	62.356
463.34	61.683
463.69	64.543
464.04	61.985
464.39	62.038
464.74	62.761
465.09	63.256
465.44	64.397
465.79	62.018
466.14	62.942
466.49	61.472
466.84	62.522
467.19	62.829
467.54	61.175
467.89	62.413
468.24	61.800
468.59	63.810
468.94	61.714
469.29	61.770
469.64	63.500
469.99	63.700
470.34	61.229
470.68	63.758
471.03	62.774
471.38	63.695
471.73	62.185
472.08	60.651
472.43	62.081
472.78	60.795
473.13	61.905
473.48	61.889
473.83	62.267
474.17	62.694
474.52	61.072
474.87	61.515
475.22	61.623
475.57	61.208
475.92	61.766
476.27	62.107
476.61	63.484
476.96	60.067
477.31	60.844
477.66	60.169
478.01	61.763
478.36	61.111
478.70	62.262
479.05	61.593
479.40	62.321
479.75	60.428
480.10	60.881
480.45	60.350
480.79	63.142
481.14	62.398
481.49	60.542
481.84	61.583
482.19	60.758
482.53	61.391
482.88	60.716
483.23	60.509
483.58	60.142
483.92	61.181
484.27	59.617
484.62	60.108
484.97	60.655
485.31	59.754
485.66	61.042
486.01	62.286
486.36	62.026
486.70	61.315
487.05	61.514
487.40	61.324
487.75	59.549
488.09	60.321
488.44	59.663
488.79	59.918
489.13	60.497
489.48	60.026
489.83	60.224
490.17	59.551
490.52	60.277
490.87	59.926
491.22	60.315
491.56	59.393
491.91	59.034
492.26	60.914
492.60	59.405
492.95	59.961
493.30	58.915
493.64	60.658
493.99	60.435
494.34	59.612
494.68	60.048
495.03	59.562
495.37	59.961
495.72	60.626
496.07	60.634
496.41	60.283
496.76	60.663
497.11	59.152
497.45	59.570
497.80	59.384
498.14	59.314
498.49	59.218
498.84	58.433
499.18	59.890
499.53	59.028
499.87	58.901
500.22	59.842
500.56	60.111
500.91	58.785
501.26	59.466
501.60	58.829
501.95	60.165
502.29	59.225
502.64	59.315
502.98	59.151
503.33	57.925
503.67	59.084
504.02	59.042
504.36	59.476
504.71	58.384
505.06	58.530
505.40	58.629
505.75	58.763
506.09	58.439
506.44	59.138
506.78	58.929
507.13	58.635
507.47	57.232
507.82	58.761
508.16	57.950
508.51	58.814
508.85	58.556
509.19	58.595
509.54	58.338
509.88	57.821
510.23	58.365
510.57	58.739
510.92	56.663
511.26	58.865
511.61	58.361
511.95	57.644
512.30	58.481
512.64	57.485
512.98	57.496
513.33	57.974
513.67	58.385
514.02	57.666
514.36	58.514
514.70	58.916
515.05	58.167
515.39	57.792
515.74	59.820
516.08	57.681
516.42	59.305
516.77	58.338
517.11	58.694
517.46	58.408
517.80	57.271
518.14	58.175
518.49	57.392
518.83	57.594
519.17	57.793
519.52	56.838
519.86	58.043
520.20	58.991
520.55	58.724
520.89	56.964
521.23	56.681
521.58	57.918
521.92	57.756
522.26	56.994
522.61	56.429
522.95	58.543
523.29	57.497
523.64	57.687
523.98	58.004
524.32	57.281
524.66	58.195
525.01	57.857
525.35	56.902
525.69	57.710
526.04	56.151
526.38	58.236
526.72	56.704
527.06	56.031
527.41	57.322
527.75	57.105
528.09	57.874
528.43	58.609
528.78	57.360
529.12	57.097
529.46	57.050
529.80	56.238
530.15	58.548
530.49	58.721
530.83	57.045
531.17	55.473
531.51	56.772
531.86	56.424
532.20	56.785
532.54	57.250
532.88	58.179
533.22	57.460
533.57	56.684
533.91	57.311
534.25	57.161
534.59	57.409
534.93	56.262
535.27	55.901
535.62	56.902
535.96	56.491
536.30	57.190
536.64	58.098
536.98	57.003
537.32	58.037
537.66	57.433
538.01	57.203
538.35	56.519
538.69	56.525
539.03	56.528
539.37	57.672
539.71	56.442
540.05	56.551
540.39	56.371
540.73	56.555
541.07	57.390
541.42	57.527
541.76	57.330
542.10	56.848
542.44	56.498
542.78	56.504
543.12	55.495
543.46	56.885
543.80	56.558
544.14	55.808
544.48	56.962
544.82	57.006
545.16	57.377
545.50	56.075
545.84	58.144
546.18	57.872
546.52	55.732
546.86	56.075
547.20	56.795
547.54	55.194
547.88	55.231
548.22	56.345
548.56	54.815
548.90	56.604
549.24	55.716
549.58	53.949
549.92	55.397
550.26	56.996
550.60	56.506
550.94	56.460
551.28	56.878
551.62	57.615
551.96	56.165
552.30	57.310
552.64	55.360
552.98	56.188
553.32	55.136
553.66	55.660
554.00	56.788
554.34	55.761
554.68	57.080
555.02	56.696
555.36	56.769
555.69	55.751
556.03	56.959
556.37	55.302
556.71	56.390
557.05	56.600
557.39	55.465
557.73	56.147
558.07	57.014
558.41	56.432
558.75	56.196
559.08	55.319
559.42	54.841
559.76	56.685
560.10	55.887
560.44	55.398
560.78	54.895
561.12	55.783
561.45	57.344
561.79	55.602
562.13	56.778
562.47	56.978
562.81	54.755
563.15	56.770
563.48	56.365
563.82	55.800
564.16	57.799
564.50	55.203
564.84	55.622
565.17	55.265
565.51	56.831
565.85	56.790
566.19	57.427
566.52	56.635
566.86	56.748
567.20	55.791
567.54	56.995
567.88	58.348
568.21	57.919
568.55	57.391
568.89	58.727
569.23	58.016
569.56	57.356
569.90	57.856
570.24	55.787
570.57	57.709
570.91	57.476
571.25	57.086
571.59	56.929
571.92	56.059
572.26	55.918
572.60	55.566
572.93	56.448
573.27	56.395
573.61	56.563
573.95	56.472
574.28	55.614
574.62	55.861
574.96	56.071
575.29	56.360
575.63	55.118
575.97	55.056
576.30	56.115
576.64	55.550
576.98	56.216
577.31	56.353
577.65	56.239
577.98	55.875
578.32	56.621
578.66	55.298
578.99	56.504
579.33	56.308
579.67	54.782
580.00	54.684
580.34	56.294
580.67	54.822
581.01	56.340
581.35	56.115
581.68	56.387
582.02	56.194
582.35	56.305
582.69	56.194
583.02	56.655
583.36	55.784
583.70	56.360
584.03	56.297
584.37	56.155
584.70	55.632
585.04	54.896
585.37	55.405
585.71	55.813
586.04	55.093
586.38	56.042
586.72	55.495
587.05	56.932
587.39	55.941
587.72	57.135
588.06	56.241
588.39	55.283
588.73	56.929
589.06	56.099
589.40	55.755
589.73	56.371
590.07	55.325
590.40	55.805
590.73	56.301
591.07	55.556
591.40	54.630
591.74	56.199
592.07	55.891
592.41	55.963
592.74	55.834
593.08	54.907
593.41	56.409
593.75	55.479
594.08	55.750
594.41	55.313
594.75	55.496
595.08	55.732
595.42	55.576
595.75	55.727
596.09	55.356
596.42	54.816
596.75	56.705
597.09	55.444
597.42	56.143
597.75	57.123
598.09	55.229
598.42	56.227
598.76	55.556
599.09	55.008
599.42	54.945
599.76	55.154
600.09	55.053
600.42	55.118
600.76	55.423
601.09	55.191
601.42	54.211
601.76	55.855
602.09	54.703
602.42	55.981
602.76	55.603
603.09	56.935
603.42	57.149
603.76	56.250
604.09	55.893
604.42	55.668
604.76	55.496
605.09	56.124
605.42	54.266
605.75	54.597
606.09	54.989
606.42	55.588
606.75	55.238
607.09	55.473
607.42	54.231
607.75	55.151
608.08	54.942
608.42	53.997
608.75	55.470
609.08	55.904
609.41	55.787
609.75	55.091
610.08	56.815
610.41	53.913
610.74	55.241
611.07	54.987
611.41	55.371
611.74	56.716
612.07	54.443
612.40	54.431
612.73	55.763
613.07	55.231
613.40	55.580
613.73	55.400
614.06	56.038
614.39	56.232
614.72	54.230
615.06	55.922
615.39	53.384
615.72	54.252
616.05	54.078
616.38	54.188
616.71	53.700
617.05	54.663
617.38	55.374
617.71	54.969
618.04	56.063
618.37	55.801
618.70	55.842
619.03	55.486
619.36	55.282
619.69	55.193
620.03	55.880
620.36	56.438
620.69	55.103
621.02	55.199
621.35	56.349
621.68	56.207
622.01	56.250
622.34	55.068
622.67	54.180
623.00	55.130
623.33	55.335
623.66	55.797
623.99	54.463
624.32	56.122
624.65	54.211
624.99	56.283
625.32	54.890
625.65	56.874
625.98	54.472
626.31	54.198
626.64	54.679
626.97	55.585
627.30	56.130
627.63	53.380
627.96	56.244
628.29	55.042
628.62	57.424
628.95	56.212
629.28	57.258
629.61	54.437
629.94	55.621
630.26	54.545
630.59	55.671
630.92	54.154
631.25	54.872
631.58	55.947
631.91	55.373
632.24	55.963
632.57	56.250
632.90	55.635
633.23	55.059
633.56	55.668
633.89	56.350
634.22	55.556
634.55	55.909
634.88	54.662
635.20	55.128
635.53	55.200
635.86	55.137
636.19	57.697
636.52	55.485
636.85	53.350
637.18	55.346
637.51	55.849
637.83	53.482
638.16	57.708
638.49	52.861
638.82	55.921
