SpectraSuite Data File
++++++++++++++++++++++++++++++++++++
Date: Fri May 15 19:59:58 PDT 2015
User: schluterlab
Dark Spectrum Present: Yes
Reference Spectrum Present: Yes
Number of Sampled Component Spectra: 1
Spectrometers: USB2E3373
Integration Time (usec): 3000 (USB2E3373)
Spectra Averaged: 3 (USB2E3373)
Boxcar Smoothing: 0 (USB2E3373)
Correct for Electrical Dark: No (USB2E3373)
Strobe/Lamp Enabled: No (USB2E3373)
Correct for Detector Non-linearity: No (USB2E3373)
Correct for Stray Light: No (USB2E3373)
Number of Pixels in Processed Spectrum: 2048
>>>>>Begin Processed Spectral Data<<<<<
178.53	0.000
178.91	0.000
179.29	-12.500
179.67	-150.000
180.04	-157.143
180.42	125.000
180.80	500.000
181.18	-66.667
181.56	150.000
181.94	100.000
182.31	-300.000
182.69	200.000
183.07	-100.000
183.45	280.000
183.83	33.333
184.20	9.091
184.58	88.889
184.96	-125.000
185.34	-200.000
185.72	-450.000
186.09	61.538
186.47	200.000
186.85	-50.000
187.23	122.222
187.61	-500.000
187.98	-433.333
188.36	100.000
188.74	33.333
189.12	52.941
189.49	50.000
189.87	0.000
190.25	64.286
190.63	100.000
191.00	66.667
191.38	42.105
191.76	500.000
192.14	-50.000
192.51	300.000
192.89	11.111
193.27	-71.429
193.65	150.000
194.02	63.636
194.40	10.000
194.78	-37.500
195.15	108.333
195.53	75.000
195.91	275.000
196.29	-25.000
196.66	69.231
197.04	14.286
197.42	66.667
197.79	-200.000
198.17	-46.154
198.55	1500.000
198.92	-433.333
199.30	100.000
199.68	-140.000
200.05	-100.000
200.43	0.000
200.81	-366.667
201.18	566.667
201.56	300.000
201.94	200.000
202.31	-266.667
202.69	-140.000
203.07	125.000
203.44	-200.000
203.82	0.000
204.19	114.286
204.57	-466.667
204.95	37.500
205.32	-10.000
205.70	157.143
206.08	-50.000
206.45	222.222
206.83	157.143
207.20	-100.000
207.58	-1200.000
207.96	0.000
208.33	-110.000
208.71	425.000
209.08	-183.333
209.46	0.000
209.84	200.000
210.21	-900.000
210.59	28.571
210.96	-50.000
211.34	-175.000
211.71	100.000
212.09	-128.571
212.46	-1200.000
212.84	0.000
213.22	120.000
213.59	-100.000
213.97	38.462
214.34	109.091
214.72	-33.333
215.09	200.000
215.47	-23.077
215.84	-9.091
216.22	333.333
216.59	12.500
216.97	550.000
217.34	-275.000
217.72	-40.000
218.09	87.500
218.47	187.500
218.84	-700.000
219.22	44.444
219.59	-60.000
219.97	-0.000
220.34	200.000
220.72	128.571
221.09	275.000
221.47	-400.000
221.84	-400.000
222.22	-350.000
222.59	-9.091
222.97	-41.667
223.34	-33.333
223.72	0.000
224.09	9.524
224.46	17.857
224.84	433.333
225.21	10.000
225.59	26.667
225.96	-200.000
226.34	-150.000
226.71	28.571
227.08	33.333
227.46	-25.000
227.83	-200.000
228.21	44.444
228.58	63.636
228.95	37.500
229.33	120.000
229.70	56.250
230.08	0.000
230.45	-100.000
230.82	57.143
231.20	20.000
231.57	28.571
231.95	-28.571
232.32	-50.000
232.69	57.143
233.07	400.000
233.44	-60.000
233.81	-10.000
234.19	100.000
234.56	-11.765
234.93	-150.000
235.31	75.000
235.68	-200.000
236.05	0.000
236.43	10.000
236.80	-47.059
237.17	3.125
237.55	15.000
237.92	-29.630
238.29	2.778
238.67	26.667
239.04	8.824
239.41	17.073
239.79	-16.667
240.16	29.268
240.53	-2.632
240.91	-17.391
241.28	1.587
241.65	16.071
242.02	16.438
242.40	10.000
242.77	3.390
243.14	-7.576
243.51	2.500
243.89	11.494
244.26	-3.448
244.63	-11.905
245.00	-2.062
245.38	8.247
245.75	-10.112
246.12	-6.897
246.49	11.570
246.87	-0.962
247.24	0.840
247.61	-12.281
247.98	-4.878
248.36	-1.250
248.73	2.632
249.10	-5.195
249.47	-3.797
249.84	0.000
250.22	-4.118
250.59	0.654
250.96	9.859
251.33	0.581
251.70	-2.941
252.08	3.553
252.45	0.990
252.82	0.000
253.19	-0.922
253.56	-4.206
253.94	0.000
254.31	-3.913
254.68	5.702
255.05	1.575
255.42	3.057
255.79	0.000
256.16	2.335
256.54	5.970
256.91	1.141
257.28	0.743
257.65	-0.749
258.02	-1.418
258.39	2.020
258.76	0.000
259.14	0.332
259.51	1.294
259.88	-0.687
260.25	2.288
260.62	2.083
260.99	-3.729
261.36	-5.137
261.73	0.633
262.10	0.912
262.47	-0.613
262.85	0.627
263.22	-0.308
263.59	3.115
263.96	0.932
264.33	1.818
264.70	-1.488
265.07	-2.083
265.44	1.133
265.81	0.565
266.18	-2.186
266.55	2.057
266.92	1.813
267.29	1.828
267.66	1.279
268.03	1.047
268.40	-1.044
268.77	1.872
269.14	3.357
269.51	0.771
269.88	-1.496
270.25	1.276
270.62	-0.976
270.99	-1.023
271.36	-1.956
271.73	0.704
272.10	1.217
272.47	-0.236
272.84	0.248
273.21	1.392
273.58	-0.241
273.95	0.229
274.32	-1.848
274.69	-1.810
275.06	0.670
275.43	2.041
275.80	-1.104
276.17	-1.149
276.54	1.071
276.91	-1.096
277.28	-1.092
277.65	2.273
278.02	-0.213
278.39	0.219
278.76	1.048
279.13	-2.697
279.50	0.630
279.87	-1.080
280.23	-2.151
280.60	2.339
280.97	0.808
281.34	-0.769
281.71	1.848
282.08	1.022
282.45	-0.196
282.82	0.965
283.19	-1.741
283.56	1.156
283.92	-1.328
284.29	0.192
284.66	-0.969
285.03	-0.589
285.40	-1.323
285.77	-0.703
286.14	0.361
286.51	2.952
286.87	0.731
287.24	-0.368
287.61	-1.411
287.98	2.105
288.35	-0.520
288.72	1.401
289.08	0.694
289.45	1.406
289.82	1.224
290.19	0.171
290.56	0.172
290.93	1.347
291.29	-0.154
291.66	1.102
292.03	1.595
292.40	1.290
292.77	0.159
293.13	-2.273
293.50	-0.303
293.87	1.832
294.24	0.155
294.60	-0.298
294.97	1.190
295.34	0.000
295.71	1.192
296.08	0.299
296.44	-1.138
296.81	0.417
297.18	0.870
297.55	1.084
297.91	-0.411
298.28	1.979
298.65	-0.136
299.02	1.617
299.38	-1.231
299.75	-0.552
300.12	0.131
300.48	-0.922
300.85	2.028
301.22	0.519
301.59	-0.263
301.95	2.152
302.32	1.167
302.69	-0.498
303.05	-0.743
303.42	1.494
303.79	1.986
304.15	1.792
304.52	-1.189
304.89	-0.234
305.25	0.847
305.62	0.583
305.99	0.585
306.35	-1.387
306.72	-0.900
307.09	0.798
307.45	0.000
307.82	0.116
308.19	0.232
308.55	1.200
308.92	1.307
309.29	-1.453
309.65	0.323
310.02	1.430
310.38	0.000
310.75	1.202
311.12	1.184
311.48	-0.530
311.85	0.209
312.22	-0.316
312.58	0.531
312.95	-0.320
313.31	-0.207
313.68	0.314
314.05	-0.306
314.41	0.206
314.78	0.000
315.14	1.747
315.51	0.518
315.87	0.615
316.24	2.326
316.61	0.787
316.97	1.488
317.34	-0.391
317.70	0.191
318.07	1.154
318.43	0.588
318.80	0.758
319.16	-0.195
319.53	1.425
319.89	0.886
320.26	0.911
320.62	0.702
320.99	0.104
321.35	-0.514
321.72	0.935
322.08	1.410
322.45	0.305
322.81	0.688
323.18	0.393
323.54	0.000
323.91	0.487
324.27	0.391
324.64	1.779
325.00	1.004
325.37	2.112
325.73	0.725
326.10	0.091
326.46	1.256
326.83	0.437
327.19	1.744
327.56	0.782
327.92	1.232
328.29	0.714
328.65	0.566
329.01	1.195
329.38	1.290
329.74	0.283
330.11	1.668
330.47	0.835
330.84	0.385
331.20	1.996
331.56	0.093
331.93	1.553
332.29	1.925
332.66	0.814
333.02	1.952
333.38	0.825
333.75	2.015
334.11	0.895
334.48	1.723
334.84	1.282
335.20	0.732
335.57	0.816
335.93	1.445
336.29	1.381
336.66	1.090
337.02	0.929
337.38	0.556
337.75	1.091
338.11	1.803
338.47	1.916
338.84	1.017
339.20	1.280
339.56	1.651
339.93	2.328
340.29	1.651
340.65	1.792
341.02	1.418
341.38	0.885
341.74	0.883
342.11	0.953
342.47	0.356
342.83	1.644
343.20	0.436
343.56	0.696
343.92	0.531
344.28	2.306
344.65	1.295
345.01	1.124
345.37	0.925
345.73	2.176
346.10	1.639
346.46	1.850
346.82	2.128
347.19	0.582
347.55	1.671
347.91	1.214
348.27	1.859
348.63	1.193
349.00	0.820
349.36	0.998
349.72	0.995
350.08	1.475
350.45	2.155
350.81	0.498
351.17	1.140
351.53	1.714
351.89	0.991
352.26	1.440
352.62	1.613
352.98	1.044
353.34	1.691
353.70	2.427
354.07	1.452
354.43	2.322
354.79	0.578
355.15	2.778
355.51	3.323
355.87	1.456
356.24	-0.163
356.60	1.293
356.96	2.619
357.32	2.157
357.68	1.407
358.04	1.696
358.40	1.286
358.77	2.153
359.13	1.121
359.49	1.695
359.85	1.170
360.21	0.797
360.57	1.989
360.93	1.815
361.29	1.133
361.66	0.705
362.02	2.348
362.38	2.361
362.74	0.530
363.10	1.505
363.46	1.557
363.82	1.953
364.18	2.066
364.54	1.176
364.90	2.437
365.26	1.237
365.62	2.628
365.98	1.246
366.35	2.403
366.71	2.217
367.07	1.669
367.43	1.510
367.79	2.261
368.15	2.082
368.51	1.894
368.87	0.718
369.23	1.805
369.59	0.948
369.95	2.493
370.31	1.084
370.67	0.896
371.03	1.494
371.39	1.386
371.75	0.806
372.11	2.068
372.47	1.479
372.83	1.419
373.19	2.496
373.55	1.516
373.91	1.512
374.27	1.559
374.63	2.800
374.99	1.844
375.35	1.950
375.71	1.538
376.07	0.843
376.42	1.837
376.78	2.282
377.14	1.219
377.50	1.262
377.86	1.740
378.22	2.234
378.58	1.538
378.94	1.701
379.30	2.121
379.66	2.257
380.02	1.778
380.38	1.217
380.74	1.436
381.09	2.331
381.45	1.713
381.81	1.481
382.17	2.030
382.53	1.624
382.89	1.569
383.25	2.489
383.61	2.195
383.97	1.333
384.32	1.876
384.68	1.734
385.04	1.042
385.40	0.809
385.76	1.635
386.12	2.329
386.48	2.427
386.83	1.966
387.19	1.954
387.55	2.258
387.91	1.589
388.27	2.259
388.62	2.517
388.98	1.719
389.34	2.498
389.70	2.113
390.06	2.077
390.42	2.073
390.77	1.766
391.13	1.576
391.49	1.617
391.85	2.534
392.20	1.883
392.56	2.352
392.92	2.114
393.28	2.005
393.64	1.802
393.99	2.571
394.35	1.771
394.71	2.937
395.07	2.388
395.42	2.489
395.78	2.476
396.14	2.585
396.50	2.029
396.85	2.189
397.21	2.444
397.57	2.508
397.92	2.636
398.28	2.184
398.64	2.229
399.00	2.427
399.35	1.580
399.71	2.814
400.07	2.358
400.42	3.060
400.78	2.817
401.14	2.601
401.49	3.216
401.85	2.133
402.21	2.349
402.57	2.625
402.92	1.443
403.28	2.381
403.63	1.892
403.99	2.679
404.35	2.998
404.70	2.500
405.06	2.938
405.42	3.045
405.77	1.976
406.13	2.561
406.49	2.191
406.84	2.262
407.20	2.709
407.55	1.674
407.91	3.008
408.27	1.211
408.62	3.877
408.98	2.588
409.34	2.664
409.69	2.649
410.05	2.648
410.40	3.519
410.76	3.076
411.11	2.000
411.47	3.090
411.83	1.632
412.18	2.445
412.54	2.747
412.89	1.539
413.25	2.828
413.60	2.609
413.96	2.761
414.31	2.683
414.67	2.566
415.03	2.597
415.38	2.154
415.74	2.866
416.09	2.939
416.45	2.633
416.80	2.181
417.16	2.762
417.51	3.131
417.87	2.477
418.22	2.526
418.58	3.077
418.93	2.633
419.29	1.793
419.64	2.657
420.00	3.778
420.35	1.791
420.71	3.098
421.06	3.131
421.42	2.825
421.77	2.370
422.12	2.667
422.48	2.707
422.83	2.726
423.19	2.427
423.54	1.822
423.90	2.179
424.25	2.813
424.61	2.999
424.96	3.252
425.31	2.715
425.67	2.700
426.02	2.768
426.38	2.693
426.73	3.208
427.09	3.354
427.44	3.176
427.79	3.005
428.15	3.155
428.50	2.120
428.85	2.211
429.21	2.886
429.56	3.019
429.92	3.493
430.27	3.108
430.62	2.771
430.98	2.654
431.33	3.155
431.68	2.878
432.04	2.571
432.39	3.252
432.74	3.127
433.10	3.448
433.45	2.151
433.80	2.728
434.16	1.717
434.51	2.742
434.86	3.368
435.22	3.085
435.57	3.556
435.92	2.455
436.28	2.743
436.63	2.909
436.98	3.244
437.34	2.480
437.69	3.399
438.04	2.963
438.39	2.443
438.75	2.307
439.10	3.169
439.45	3.165
439.81	2.446
440.16	2.910
440.51	4.000
440.86	3.927
441.22	3.563
441.57	2.539
441.92	3.148
442.27	2.772
442.63	4.069
442.98	2.929
443.33	2.894
443.68	3.130
444.03	3.527
444.39	3.689
444.74	3.846
445.09	2.840
445.44	3.134
445.79	3.713
446.15	3.304
446.50	2.385
446.85	3.241
447.20	3.180
447.55	4.129
447.91	3.666
448.26	3.301
448.61	3.627
448.96	3.385
449.31	2.254
449.66	3.833
450.02	3.651
450.37	3.260
450.72	3.436
451.07	3.671
451.42	2.871
451.77	3.376
452.12	2.931
452.47	2.511
452.83	3.004
453.18	3.036
453.53	3.603
453.88	3.947
454.23	3.380
454.58	3.463
454.93	3.737
455.28	2.730
455.63	3.100
455.98	3.909
456.34	3.448
456.69	3.748
457.04	3.907
457.39	3.949
457.74	3.567
458.09	2.884
458.44	3.101
458.79	3.697
459.14	4.233
459.49	3.940
459.84	4.287
460.19	3.034
460.54	3.790
460.89	3.580
461.24	3.602
461.59	3.444
461.94	3.648
462.29	4.041
462.64	3.987
462.99	3.385
463.34	2.851
463.69	2.960
464.04	3.753
464.39	3.093
464.74	3.865
465.09	4.304
465.44	3.693
465.79	3.401
466.14	3.535
466.49	3.450
466.84	4.521
467.19	3.880
467.54	3.768
467.89	2.716
468.24	3.589
468.59	4.381
468.94	3.429
469.29	4.525
469.64	3.623
469.99	4.205
470.34	3.072
470.68	4.251
471.03	3.397
471.38	3.424
471.73	4.202
472.08	2.985
472.43	2.886
472.78	4.112
473.13	3.605
473.48	3.974
473.83	2.989
474.17	4.145
474.52	3.510
474.87	4.364
475.22	3.539
475.57	3.501
475.92	4.608
476.27	4.016
476.61	3.819
476.96	3.625
477.31	3.624
477.66	2.753
478.01	3.088
478.36	3.595
478.70	3.480
479.05	4.286
479.40	3.339
479.75	3.754
480.10	3.072
480.45	3.300
480.79	3.474
481.14	3.432
481.49	3.448
481.84	3.571
482.19	3.274
482.53	3.213
482.88	3.771
483.23	3.551
483.58	3.868
483.92	3.243
484.27	3.692
484.62	3.810
484.97	3.317
485.31	3.793
485.66	3.627
486.01	3.811
486.36	3.756
486.70	3.892
487.05	3.462
487.40	3.645
487.75	3.493
488.09	3.646
488.44	3.817
488.79	3.437
489.13	3.886
489.48	3.891
489.83	3.049
490.17	3.281
490.52	3.372
490.87	3.841
491.22	3.391
491.56	3.273
491.91	3.681
492.26	2.771
492.60	3.503
492.95	4.968
493.30	3.127
493.64	4.077
493.99	3.961
494.34	3.398
494.68	3.333
495.03	3.893
495.37	3.631
495.72	3.937
496.07	3.951
496.41	3.774
496.76	3.547
497.11	3.307
497.45	4.105
497.80	3.582
498.14	3.775
498.49	3.657
498.84	4.142
499.18	3.765
499.53	3.720
499.87	3.453
500.22	3.066
500.56	3.631
500.91	3.112
501.26	3.411
501.60	3.345
501.95	3.833
502.29	4.116
502.64	3.716
502.98	3.157
503.33	3.122
503.67	3.422
504.02	3.959
504.36	4.057
504.71	3.788
505.06	3.875
505.40	3.553
505.75	3.660
506.09	3.599
506.44	4.312
506.78	3.980
507.13	4.240
507.47	3.185
507.82	3.098
508.16	3.064
508.51	3.305
508.85	3.035
509.19	3.087
509.54	4.021
509.88	2.751
510.23	3.120
510.57	3.795
510.92	2.719
511.26	3.219
511.61	3.740
511.95	3.945
512.30	3.160
512.64	3.506
512.98	2.864
513.33	4.309
513.67	3.240
514.02	4.176
514.36	3.714
514.70	3.613
515.05	3.173
515.39	3.070
515.74	3.772
516.08	3.766
516.42	4.653
516.77	3.628
517.11	3.917
517.46	4.668
517.80	3.635
518.14	3.429
518.49	3.365
518.83	3.281
519.17	3.032
519.52	3.848
519.86	2.761
520.20	3.888
520.55	2.814
520.89	3.827
521.23	3.990
521.58	3.596
521.92	3.910
522.26	2.993
522.61	3.571
522.95	3.642
523.29	4.003
523.64	3.875
523.98	4.018
524.32	3.157
524.66	3.777
525.01	4.026
525.35	4.342
525.69	2.761
526.04	3.770
526.38	4.540
526.72	3.205
527.06	3.567
527.41	3.298
527.75	3.351
528.09	3.987
528.43	4.321
528.78	3.300
529.12	3.548
529.46	3.834
529.80	4.053
530.15	3.762
530.49	3.636
530.83	3.557
531.17	3.291
531.51	3.967
531.86	3.195
532.20	3.132
532.54	3.676
532.88	3.765
533.22	3.965
533.57	3.145
533.91	3.198
534.25	3.971
534.59	2.758
534.93	3.587
535.27	3.299
535.62	2.852
535.96	4.175
536.30	3.958
536.64	3.308
536.98	3.484
537.32	3.983
537.66	4.839
538.01	4.056
538.35	3.745
538.69	4.061
539.03	3.213
539.37	3.701
539.71	4.158
540.05	3.666
540.39	3.670
540.73	3.278
541.07	4.006
541.42	4.435
541.76	4.611
542.10	3.992
542.44	3.266
542.78	2.340
543.12	3.365
543.46	4.103
543.80	3.331
544.14	3.204
544.48	4.197
544.82	3.691
545.16	4.372
545.50	4.673
545.84	4.391
546.18	3.617
546.52	4.110
546.86	3.954
547.20	4.864
547.54	3.110
547.88	3.668
548.22	3.222
548.56	3.232
548.90	4.447
549.24	3.581
549.58	3.879
549.92	3.074
550.26	3.443
550.60	3.569
550.94	2.913
551.28	3.400
551.62	4.077
551.96	3.308
552.30	3.874
552.64	3.173
552.98	3.586
553.32	3.709
553.66	2.685
554.00	3.504
554.34	3.767
554.68	2.876
555.02	4.018
555.36	3.291
555.69	3.004
556.03	3.141
556.37	3.986
556.71	2.599
557.05	3.356
557.39	3.271
557.73	3.298
558.07	4.827
558.41	2.833
558.75	2.884
559.08	3.704
559.42	1.984
559.76	4.243
560.10	3.364
560.44	2.681
560.78	3.916
561.12	3.949
561.45	3.092
561.79	4.132
562.13	3.336
562.47	2.302
562.81	4.035
563.15	4.372
563.48	3.748
563.82	4.255
564.16	3.482
564.50	2.973
564.84	3.815
565.17	3.622
565.51	3.484
565.85	3.978
566.19	3.382
566.52	3.351
566.86	4.177
567.20	3.176
567.54	2.859
567.88	3.105
568.21	4.242
568.55	3.478
568.89	4.209
569.23	2.937
569.56	3.590
569.90	3.613
570.24	3.796
570.57	3.818
570.91	3.939
571.25	3.420
571.59	3.613
571.92	3.822
572.26	3.321
572.60	3.504
572.93	3.263
573.27	3.636
573.61	3.401
573.95	3.632
574.28	3.231
574.62	3.305
574.96	3.565
575.29	3.483
575.63	3.317
575.97	3.226
576.30	3.289
576.64	3.550
576.98	3.372
577.31	3.318
577.65	3.463
577.98	3.466
578.32	3.420
578.66	3.439
578.99	3.439
579.33	3.472
579.67	3.457
580.00	3.747
580.34	3.358
580.67	3.388
581.01	3.554
581.35	3.510
581.68	3.385
582.02	3.542
582.35	3.305
582.69	3.603
583.02	3.311
583.36	3.430
583.70	3.453
584.03	3.559
584.37	3.586
584.70	3.516
585.04	3.238
585.37	3.489
585.71	3.308
586.04	3.001
586.38	3.441
586.72	3.759
587.05	4.015
587.39	3.802
587.72	3.554
588.06	3.377
588.39	3.589
588.73	3.205
589.06	3.751
589.40	4.010
589.73	3.980
590.07	3.701
590.40	4.218
590.73	3.624
591.07	3.265
591.40	3.695
591.74	3.529
592.07	4.453
592.41	3.710
592.74	3.744
593.08	3.528
593.41	3.591
593.75	3.435
594.08	3.536
594.41	4.039
594.75	3.359
595.08	3.443
595.42	3.239
595.75	3.643
596.09	3.049
596.42	3.348
596.75	3.819
597.09	3.918
597.42	3.794
597.75	3.207
598.09	3.259
598.42	4.016
598.76	3.346
599.09	3.606
599.42	3.562
599.76	3.386
600.09	3.733
600.42	3.753
600.76	3.306
601.09	3.473
601.42	3.369
601.76	3.493
602.09	3.218
602.42	4.002
602.76	3.565
603.09	4.111
603.42	3.512
603.76	2.742
604.09	3.321
604.42	3.849
604.76	4.139
605.09	4.068
605.42	3.702
605.75	3.240
606.09	3.907
606.42	3.711
606.75	3.983
607.09	4.527
607.42	3.279
607.75	3.375
608.08	3.639
608.42	3.792
608.75	4.193
609.08	3.737
609.41	4.264
609.75	3.679
610.08	3.445
610.41	3.720
610.74	3.364
611.07	3.049
611.41	4.048
611.74	3.945
612.07	2.998
612.40	3.720
612.73	3.390
613.07	3.150
613.40	4.650
613.73	3.358
614.06	3.728
614.39	3.497
614.72	3.137
615.06	3.575
615.39	4.203
615.72	3.122
616.05	3.911
616.38	3.590
616.71	3.853
617.05	3.830
617.38	3.960
617.71	3.208
618.04	3.619
618.37	4.288
618.70	3.696
619.03	5.069
619.36	3.690
619.69	3.108
620.03	4.821
620.36	3.433
620.69	4.140
621.02	3.058
621.35	4.398
621.68	3.571
622.01	3.917
622.34	4.389
622.67	3.391
623.00	4.288
623.33	3.430
623.66	3.141
623.99	4.160
624.32	2.738
624.65	3.158
624.99	3.988
625.32	3.563
625.65	4.870
625.98	4.110
626.31	2.660
626.64	3.813
626.97	4.887
627.30	3.415
627.63	3.726
627.96	3.414
628.29	4.533
628.62	4.130
628.95	4.208
629.28	3.024
629.61	3.091
629.94	4.497
630.26	3.063
630.59	4.266
630.92	4.410
631.25	3.179
631.58	2.974
631.91	3.618
632.24	2.523
632.57	2.500
632.90	3.440
633.23	4.235
633.56	3.904
633.89	2.713
634.22	3.827
634.55	2.287
634.88	3.448
635.20	4.487
635.53	3.867
635.86	2.991
636.19	4.269
636.52	2.934
636.85	3.102
637.18	3.522
637.51	5.283
637.83	3.679
638.16	4.229
638.49	3.678
638.82	5.132
639.15	3.799
639.48	2.889
639.81	4.324
640.13	2.309
640.46	4.665
640.79	4.418
641.12	5.022
641.45	3.453
641.77	3.704
642.10	5.213
642.43	3.698
642.76	2.970
643.09	4.847
643.41	2.589
643.74	2.636
644.07	3.941
644.40	4.392
644.73	2.802
645.05	3.859
645.38	3.527
645.71	1.241
646.04	5.566
646.36	3.723
646.69	5.576
647.02	3.781
647.35	5.410
647.67	4.570
648.00	3.731
648.33	4.437
648.66	2.203
648.98	1.340
649.31	1.818
649.64	5.338
649.96	2.269
650.29	4.770
650.62	3.419
650.94	2.593
651.27	1.117
651.60	4.144
651.92	2.797
652.25	2.309
652.58	4.333
652.90	4.974
653.23	4.202
653.56	3.215
653.88	5.498
654.21	2.102
654.54	4.584
654.86	4.584
655.19	2.485
655.52	3.793
655.84	3.418
656.17	3.789
656.49	5.014
656.82	5.128
657.15	4.056
657.47	3.015
