SpectraSuite Data File
++++++++++++++++++++++++++++++++++++
Date: Fri May 15 17:09:04 PDT 2015
User: schluterlab
Dark Spectrum Present: Yes
Reference Spectrum Present: Yes
Number of Sampled Component Spectra: 1
Spectrometers: USB2E3373
Integration Time (usec): 3000 (USB2E3373)
Spectra Averaged: 3 (USB2E3373)
Boxcar Smoothing: 0 (USB2E3373)
Correct for Electrical Dark: No (USB2E3373)
Strobe/Lamp Enabled: No (USB2E3373)
Correct for Detector Non-linearity: No (USB2E3373)
Correct for Stray Light: No (USB2E3373)
Number of Pixels in Processed Spectrum: 2048
>>>>>Begin Processed Spectral Data<<<<<
178.53	0.000
178.91	0.000
179.29	62.500
179.67	-300.000
180.04	-142.857
180.42	350.000
180.80	-100.000
181.18	166.667
181.56	250.000
181.94	150.000
182.31	100.000
182.69	20.000
183.07	-33.333
183.45	-80.000
183.83	183.333
184.20	63.636
184.58	77.778
184.96	75.000
185.34	-0.000
185.72	350.000
186.09	100.000
186.47	400.000
186.85	66.667
187.23	77.778
187.61	-300.000
187.98	-66.667
188.36	133.333
188.74	100.000
189.12	82.353
189.49	83.333
189.87	0.000
190.25	100.000
190.63	550.000
191.00	33.333
191.38	78.947
191.76	300.000
192.14	-150.000
192.51	450.000
192.89	11.111
193.27	157.143
193.65	150.000
194.02	118.182
194.40	110.000
194.78	25.000
195.15	16.667
195.53	62.500
195.91	-225.000
196.29	75.000
196.66	7.692
197.04	128.571
197.42	-55.556
197.79	-233.333
198.17	-61.538
198.55	1000.000
198.92	0.000
199.30	800.000
199.68	60.000
200.05	-33.333
200.43	0.000
200.81	233.333
201.18	-33.333
201.56	600.000
201.94	0.000
202.31	-333.333
202.69	40.000
203.07	275.000
203.44	600.000
203.82	0.000
204.19	85.714
204.57	-66.667
204.95	-25.000
205.32	20.000
205.70	-71.429
206.08	150.000
206.45	233.333
206.83	78.571
207.20	42.857
207.58	-700.000
207.96	0.000
208.33	-60.000
208.71	0.000
209.08	-66.667
209.46	100.000
209.84	360.000
210.21	400.000
210.59	42.857
210.96	116.667
211.34	225.000
211.71	73.333
212.09	114.286
212.46	-1200.000
212.84	0.000
213.22	90.000
213.59	650.000
213.97	92.308
214.34	27.273
214.72	50.000
215.09	75.000
215.47	15.385
215.84	18.182
216.22	66.667
216.59	175.000
216.97	100.000
217.34	200.000
217.72	-100.000
218.09	150.000
218.47	50.000
218.84	800.000
219.22	33.333
219.59	-20.000
219.97	133.333
220.34	125.000
220.72	85.714
221.09	125.000
221.47	150.000
221.84	-100.000
222.22	-550.000
222.59	100.000
222.97	41.667
223.34	100.000
223.72	14.286
224.09	61.905
224.46	17.857
224.84	300.000
225.21	100.000
225.59	126.667
225.96	50.000
226.34	250.000
226.71	57.143
227.08	116.667
227.46	75.000
227.83	-300.000
228.21	100.000
228.58	136.364
228.95	100.000
229.33	40.000
229.70	93.750
230.08	62.500
230.45	57.143
230.82	71.429
231.20	46.667
231.57	28.571
231.95	185.714
232.32	-10.000
232.69	50.000
233.07	-133.333
233.44	60.000
233.81	-60.000
234.19	155.556
234.56	-5.882
234.93	-200.000
235.31	325.000
235.68	-340.000
236.05	23.077
236.43	-5.000
236.80	17.647
237.17	40.625
237.55	15.000
237.92	7.407
238.29	30.556
238.67	10.000
239.04	23.529
239.41	4.878
239.79	-20.000
240.16	29.268
240.53	28.947
240.91	2.174
241.28	12.698
241.65	25.000
242.02	27.397
242.40	28.333
242.77	30.508
243.14	24.242
243.51	25.000
243.89	26.437
244.26	5.747
244.63	-1.190
245.00	15.464
245.38	31.959
245.75	-3.371
246.12	17.241
246.49	19.835
246.87	11.538
247.24	-0.840
247.61	1.754
247.98	9.756
248.36	12.500
248.73	12.500
249.10	13.636
249.47	12.658
249.84	13.072
250.22	8.824
250.59	13.725
250.96	17.840
251.33	9.884
251.70	17.059
252.08	14.213
252.45	10.396
252.82	10.050
253.19	16.129
253.56	9.346
253.94	14.865
254.31	13.043
254.68	13.596
255.05	7.087
255.42	13.974
255.79	15.058
256.16	14.008
256.54	14.179
256.91	15.209
257.28	13.383
257.65	14.232
258.02	9.574
258.39	11.785
258.76	7.326
259.14	12.292
259.51	13.269
259.88	13.746
260.25	13.725
260.62	10.764
260.99	9.153
261.36	8.562
261.73	12.025
262.10	13.374
262.47	11.963
262.85	10.972
263.22	10.462
263.59	13.707
263.96	13.975
264.33	10.303
264.70	14.286
265.07	7.143
265.44	14.164
265.81	10.169
266.18	15.847
266.55	13.882
266.92	11.140
267.29	11.488
267.66	12.532
268.03	9.424
268.40	12.794
268.77	11.765
269.14	12.470
269.51	13.625
269.88	10.474
270.25	10.969
270.62	10.732
270.99	6.394
271.36	12.714
271.73	14.789
272.10	13.139
272.47	11.584
272.84	10.891
273.21	9.977
273.58	14.699
273.95	12.815
274.32	11.085
274.69	11.312
275.06	10.268
275.43	10.658
275.80	12.141
276.17	10.345
276.54	11.349
276.91	12.939
277.28	11.135
277.65	12.190
278.02	12.979
278.39	12.035
278.76	12.579
279.13	7.884
279.50	13.445
279.87	13.607
280.23	12.043
280.60	11.306
280.97	9.899
281.34	9.038
281.71	12.526
282.08	9.202
282.45	9.980
282.82	9.459
283.19	13.540
283.56	10.405
283.92	10.247
284.29	11.731
284.66	11.822
285.03	10.413
285.40	9.452
285.77	9.139
286.14	10.469
286.51	11.808
286.87	10.969
287.24	11.786
287.61	10.582
287.98	11.053
288.35	8.666
288.72	11.384
289.08	8.854
289.45	9.490
289.82	9.091
290.19	9.556
290.56	8.233
290.93	8.923
291.29	10.015
291.66	9.606
292.03	10.526
292.40	9.355
292.77	8.772
293.13	6.006
293.50	8.042
293.87	8.244
294.24	9.274
294.60	9.985
294.97	11.161
295.34	7.669
295.71	8.197
296.08	7.324
296.44	7.112
296.81	7.639
297.18	7.246
297.55	10.027
297.91	9.041
298.28	9.367
298.65	9.091
299.02	7.412
299.38	6.566
299.75	9.103
300.12	7.592
300.48	8.300
300.85	7.985
301.22	7.662
301.59	7.105
301.95	10.000
302.32	9.079
302.69	8.209
303.05	7.550
303.42	7.597
303.79	8.645
304.15	8.722
304.52	6.540
304.89	5.965
305.25	7.506
305.62	7.001
305.99	7.135
306.35	7.977
306.72	7.312
307.09	8.324
307.45	7.463
307.82	7.870
308.19	6.620
308.55	7.961
308.92	7.625
309.29	6.816
309.65	7.535
310.02	8.251
310.38	7.903
310.75	7.104
311.12	8.827
311.48	7.211
311.85	6.806
312.22	6.751
312.58	8.811
312.95	8.218
313.31	7.143
313.68	6.806
314.05	7.143
314.41	8.351
314.78	7.526
315.14	8.222
315.51	9.524
315.87	9.016
316.24	8.898
316.61	8.563
316.97	9.524
317.34	8.984
317.70	8.891
318.07	9.423
318.43	9.706
318.80	10.038
319.16	11.230
319.53	10.541
319.89	9.350
320.26	10.526
320.62	11.434
320.99	11.065
321.35	11.819
321.72	12.876
322.08	11.883
322.45	12.386
322.81	13.065
323.18	14.230
323.54	13.803
323.91	14.314
324.27	14.941
324.64	16.386
325.00	16.971
325.37	16.988
325.73	16.863
326.10	17.530
326.46	18.565
326.83	18.110
327.19	18.396
327.56	20.591
327.92	20.687
328.29	20.268
328.65	22.547
329.01	21.875
329.38	21.935
329.74	22.191
330.11	24.282
330.47	22.635
330.84	22.596
331.20	25.760
331.56	25.093
331.93	26.119
332.29	25.115
332.66	25.520
333.02	25.836
333.38	26.031
333.75	27.656
334.11	25.962
334.48	27.380
334.84	27.656
335.20	27.905
335.57	27.199
335.93	27.371
336.29	27.440
336.66	27.611
337.02	26.301
337.38	28.333
337.75	28.909
338.11	28.765
338.47	27.646
338.84	29.945
339.20	29.982
339.56	28.257
339.93	28.738
340.29	31.009
340.65	29.659
341.02	29.167
341.38	29.292
341.74	28.799
342.11	27.123
342.47	28.559
342.83	28.633
343.20	28.397
343.56	30.261
343.92	28.875
344.28	29.718
344.65	27.547
345.01	29.127
345.37	28.007
345.73	29.456
346.10	30.026
346.46	29.184
346.82	29.378
347.19	28.096
347.55	29.073
347.91	28.722
348.27	28.779
348.63	29.898
349.00	28.548
349.36	28.429
349.72	29.934
350.08	29.918
350.45	29.449
350.81	27.741
351.17	27.036
351.53	29.388
351.89	27.993
352.26	28.400
352.62	29.194
352.98	27.791
353.34	28.180
353.70	29.288
354.07	29.758
354.43	27.702
354.79	29.232
355.15	29.365
355.51	29.747
355.87	28.722
356.24	27.080
356.60	28.537
356.96	29.365
357.32	28.514
357.68	28.929
358.04	28.352
358.40	28.296
358.77	28.788
359.13	28.983
359.49	28.120
359.85	28.861
360.21	27.671
360.57	29.304
360.93	28.290
361.29	27.644
361.66	27.743
362.02	29.924
362.38	29.170
362.74	27.631
363.10	29.345
363.46	28.021
363.82	29.902
364.18	27.749
364.54	28.088
364.90	28.817
365.26	28.311
365.62	29.708
365.98	28.666
366.35	29.352
366.71	29.194
367.07	29.028
367.43	27.750
367.79	28.269
368.15	29.146
368.51	28.696
368.87	28.571
369.23	28.014
369.59	28.863
369.95	27.639
370.31	29.408
370.67	30.000
371.03	28.305
371.39	28.228
371.75	27.619
372.11	28.459
372.47	28.698
372.83	29.879
373.19	28.245
373.55	28.736
373.91	29.590
374.27	29.554
374.63	29.864
374.99	28.298
375.35	29.666
375.71	30.350
376.07	28.862
376.42	28.980
376.78	28.658
377.14	29.790
377.50	29.084
377.86	28.581
378.22	29.930
378.58	29.103
378.94	29.238
379.30	29.757
379.66	30.219
380.02	29.123
380.38	28.484
380.74	28.546
381.09	29.571
381.45	29.602
381.81	29.488
382.17	29.442
382.53	28.607
382.89	29.881
383.25	29.060
383.61	29.268
383.97	28.508
384.32	29.581
384.68	28.793
385.04	27.757
385.40	29.745
385.76	29.434
386.12	30.207
386.48	30.268
386.83	29.613
387.19	29.243
387.55	30.113
387.91	28.606
388.27	28.938
388.62	29.452
388.98	28.975
389.34	29.981
389.70	29.832
390.06	28.508
390.42	29.534
390.77	29.627
391.13	29.950
391.49	29.366
391.85	29.045
392.20	28.437
392.56	29.116
392.92	29.243
393.28	29.186
393.64	28.288
393.99	30.031
394.35	28.779
394.71	29.119
395.07	29.227
395.42	29.083
395.78	29.837
396.14	29.193
396.50	29.296
396.85	28.525
397.21	28.885
397.57	28.401
397.92	28.460
398.28	29.310
398.64	27.952
399.00	28.837
399.35	27.540
399.71	28.719
400.07	29.686
400.42	28.397
400.78	29.516
401.14	29.099
401.49	28.588
401.85	28.458
402.21	28.614
402.57	28.750
402.92	26.976
403.28	28.697
403.63	28.499
403.99	27.934
404.35	29.232
404.70	27.083
405.06	27.615
405.42	28.216
405.77	27.949
406.13	28.172
406.49	28.005
406.84	27.751
407.20	27.875
407.55	27.624
407.91	27.340
408.27	27.470
408.62	28.615
408.98	27.911
409.34	28.129
409.69	26.744
410.05	27.340
410.40	27.469
410.76	28.227
411.11	28.000
411.47	28.074
411.83	27.684
412.18	27.928
412.54	27.029
412.89	27.217
413.25	28.099
413.60	27.329
413.96	26.810
414.31	28.232
414.67	28.031
415.03	27.830
415.38	28.068
415.74	29.055
416.09	28.086
416.45	28.022
416.80	27.693
417.16	29.834
417.51	27.648
417.87	28.227
418.22	29.145
418.58	27.759
418.93	28.464
419.29	26.889
419.64	27.803
420.00	29.660
420.35	28.358
420.71	29.222
421.06	28.975
421.42	28.906
421.77	28.728
422.12	28.604
422.48	28.858
422.83	29.118
423.19	28.499
423.54	27.690
423.90	28.857
424.25	28.760
424.61	29.559
424.96	28.746
425.31	30.445
425.67	28.110
426.02	30.683
426.38	29.368
426.73	30.327
427.09	29.937
427.44	30.235
427.79	30.171
428.15	29.976
428.50	29.921
428.85	29.853
429.21	30.560
429.56	30.296
429.92	30.149
430.27	30.326
430.62	30.319
430.98	29.352
431.33	30.862
431.68	30.351
432.04	30.408
432.39	31.204
432.74	29.826
433.10	32.011
433.45	31.362
433.80	31.399
434.16	30.582
434.51	30.860
434.86	31.533
435.22	31.969
435.57	32.127
435.92	32.635
436.28	31.544
436.63	32.116
436.98	31.170
437.34	31.458
437.69	32.618
438.04	31.681
438.39	31.277
438.75	32.180
439.10	31.975
439.45	31.832
439.81	31.498
440.16	32.542
440.51	32.358
440.86	33.172
441.22	32.975
441.57	32.947
441.92	33.316
442.27	33.758
442.63	33.619
442.98	32.510
443.33	33.222
443.68	33.050
444.03	33.383
444.39	32.956
444.74	34.560
445.09	32.795
445.44	34.359
445.79	34.193
446.15	32.819
446.50	32.668
446.85	32.997
447.20	33.472
447.55	34.096
447.91	32.939
448.26	35.060
448.61	33.564
448.96	33.678
449.31	33.353
449.66	33.682
450.02	33.086
450.37	35.033
450.72	34.021
451.07	33.861
451.42	33.396
451.77	34.659
452.12	33.313
452.47	34.578
452.83	34.158
453.18	33.713
453.53	34.703
453.88	34.426
454.23	34.296
454.58	34.761
454.93	33.763
455.28	33.143
455.63	34.594
455.98	34.155
456.34	32.950
456.69	34.498
457.04	34.531
457.39	33.961
457.74	33.132
458.09	33.137
458.44	33.411
458.79	33.782
459.14	34.840
459.49	35.284
459.84	34.574
460.19	33.313
460.54	34.597
460.89	34.205
461.24	34.037
461.59	33.848
461.94	34.403
462.29	35.042
462.64	34.884
462.99	34.597
463.34	34.423
463.69	33.912
464.04	34.806
464.39	33.354
464.74	34.294
465.09	34.685
465.44	34.622
465.79	33.447
466.14	35.234
466.49	34.215
466.84	34.087
467.19	33.980
467.54	35.249
467.89	34.112
468.24	33.698
468.59	35.111
468.94	34.159
469.29	34.885
469.64	34.313
469.99	35.529
470.34	33.379
470.68	35.123
471.03	34.820
471.38	34.451
471.73	34.244
472.08	34.600
472.43	33.557
472.78	33.859
473.13	34.898
473.48	34.853
473.83	33.935
474.17	34.780
474.52	33.950
474.87	34.485
475.22	33.923
475.57	34.444
475.92	34.449
476.27	33.818
476.61	35.069
476.96	33.073
477.31	34.613
477.66	34.101
478.01	34.643
478.36	33.388
478.70	34.965
479.05	34.341
479.40	33.757
479.75	33.942
480.10	34.255
480.45	33.800
480.79	34.189
481.14	34.682
481.49	33.645
481.84	34.604
482.19	34.004
482.53	33.765
482.88	32.363
483.23	33.973
483.58	34.198
483.92	32.720
484.27	32.407
484.62	33.079
484.97	33.499
485.31	33.309
485.66	33.369
486.01	33.726
486.36	33.534
486.70	33.676
487.05	32.901
487.40	32.859
487.75	33.155
488.09	32.726
488.44	33.184
488.79	33.097
489.13	33.173
489.48	32.749
489.83	33.004
490.17	33.303
490.52	33.118
490.87	32.809
491.22	33.333
491.56	33.302
491.91	33.031
492.26	33.350
492.60	32.582
492.95	33.743
493.30	32.487
493.64	33.448
493.99	33.333
494.34	32.670
494.68	32.952
495.03	32.165
495.37	32.974
495.72	33.317
496.07	32.927
496.41	32.547
496.76	32.427
497.11	32.417
497.45	32.792
497.80	32.745
498.14	32.737
498.49	32.504
498.84	32.485
499.18	32.078
499.53	32.440
499.87	33.123
500.22	31.998
500.56	33.283
500.91	31.928
501.26	31.933
501.60	31.628
501.95	31.926
502.29	32.785
502.64	32.432
502.98	32.314
503.33	30.836
503.67	31.904
504.02	31.769
504.36	32.410
504.71	31.717
505.06	31.907
505.40	31.827
505.75	32.165
506.09	31.272
506.44	32.649
506.78	31.582
507.13	32.161
507.47	30.183
507.82	31.357
508.16	31.273
508.51	31.584
508.85	31.554
509.19	30.867
509.54	31.475
509.88	30.421
510.23	31.791
510.57	31.106
510.92	29.318
511.26	30.387
511.61	30.528
511.95	31.616
512.30	31.596
512.64	31.441
512.98	30.882
513.33	31.617
513.67	30.870
514.02	32.208
514.36	30.857
514.70	31.760
515.05	31.904
515.39	30.224
515.74	32.156
516.08	31.441
516.42	32.391
516.77	31.597
517.11	31.869
517.46	31.299
517.80	31.049
518.14	29.884
518.49	29.928
518.83	30.316
519.17	29.897
519.52	29.722
519.86	30.132
520.20	30.620
520.55	29.456
520.89	29.925
521.23	30.526
521.58	31.230
521.92	30.769
522.26	30.384
522.61	31.104
522.95	30.728
523.29	29.225
523.64	30.178
523.98	30.266
524.32	30.541
524.66	31.626
525.01	30.909
525.35	30.331
525.69	30.034
526.04	29.563
526.38	31.128
526.72	30.281
527.06	29.053
527.41	29.749
527.75	30.094
528.09	28.771
528.43	30.182
528.78	30.099
529.12	30.645
529.46	29.500
529.80	30.019
530.15	30.099
530.49	30.774
530.83	30.164
531.17	29.013
531.51	29.275
531.86	28.212
532.20	29.923
532.54	30.769
532.88	30.390
533.22	30.511
533.57	29.489
533.91	28.786
534.25	30.924
534.59	28.223
534.93	28.949
535.27	29.505
535.62	29.877
535.96	30.202
536.30	30.739
536.64	29.428
536.98	29.059
537.32	29.730
537.66	29.243
538.01	30.070
538.35	30.374
538.69	29.427
539.03	28.366
539.37	30.148
539.71	29.993
540.05	29.803
540.39	29.294
540.73	30.056
541.07	29.765
541.42	29.435
541.76	29.525
542.10	29.043
542.44	29.256
542.78	27.942
543.12	29.327
543.46	29.138
543.80	30.118
544.14	27.971
544.48	29.247
544.82	28.571
545.16	29.303
545.50	29.105
545.84	29.391
546.18	28.794
546.52	29.128
546.86	27.894
547.20	28.326
547.54	28.622
547.88	28.601
548.22	27.219
548.56	27.309
548.90	28.504
549.24	28.168
549.58	28.914
549.92	28.306
550.26	28.205
550.60	29.219
550.94	29.201
551.28	27.512
551.62	28.231
551.96	27.218
552.30	28.216
552.64	27.362
552.98	28.270
553.32	27.247
553.66	28.012
554.00	28.832
554.34	28.139
554.68	28.466
555.02	27.530
555.36	27.375
555.69	26.813
556.03	27.052
556.37	27.473
556.71	27.076
557.05	27.815
557.39	26.097
557.73	27.961
558.07	27.753
558.41	27.182
558.75	26.812
559.08	26.162
559.42	26.587
559.76	26.982
560.10	26.988
560.44	27.699
560.78	27.063
561.12	26.587
561.45	27.618
561.79	27.591
562.13	27.892
562.47	27.194
562.81	27.089
563.15	27.080
563.48	26.945
563.82	27.248
564.16	25.696
564.50	25.473
564.84	26.908
565.17	27.632
565.51	27.732
565.85	27.435
566.19	26.724
566.52	26.542
566.86	26.928
567.20	26.712
567.54	26.642
567.88	27.944
568.21	26.867
568.55	26.957
568.89	27.567
569.23	26.818
569.56	27.320
569.90	27.081
570.24	26.907
570.57	27.018
570.91	26.978
571.25	26.373
571.59	26.503
571.92	26.548
572.26	26.812
572.60	26.450
572.93	26.514
573.27	26.332
573.61	26.134
573.95	26.352
574.28	26.245
574.62	26.240
574.96	26.477
575.29	25.972
575.63	25.758
575.97	25.779
576.30	25.724
576.64	26.066
576.98	26.203
577.31	26.346
577.65	26.216
577.98	26.416
578.32	25.798
578.66	25.038
578.99	24.942
579.33	25.131
579.67	25.132
580.00	26.025
580.34	25.995
580.67	25.767
581.01	26.321
581.35	25.280
581.68	25.546
582.02	25.638
582.35	25.831
582.69	26.081
583.02	25.657
583.36	25.313
583.70	25.987
584.03	26.411
584.37	25.974
584.70	25.769
585.04	25.207
585.37	25.774
585.71	25.401
586.04	25.769
586.38	25.553
586.72	25.911
587.05	25.765
587.39	25.496
587.72	26.052
588.06	25.436
588.39	25.520
588.73	25.733
589.06	26.321
589.40	25.579
589.73	26.068
590.07	25.415
590.40	25.542
590.73	25.412
591.07	24.555
591.40	25.289
591.74	25.249
592.07	25.788
592.41	25.618
592.74	25.010
593.08	24.834
593.41	25.832
593.75	24.992
594.08	24.476
594.41	25.910
594.75	25.802
595.08	25.615
595.42	25.543
595.75	25.235
596.09	25.098
596.42	24.928
596.75	24.778
597.09	24.510
597.42	24.029
597.75	25.699
598.09	24.943
598.42	24.504
598.76	25.225
599.09	24.639
599.42	24.517
599.76	24.906
600.09	24.661
600.42	24.905
600.76	24.257
601.09	25.153
601.42	24.285
601.76	24.811
602.09	24.711
602.42	25.147
602.76	25.340
603.09	25.291
603.42	25.794
603.76	25.202
604.09	24.504
604.42	24.788
604.76	24.833
605.09	24.452
605.42	24.470
605.75	24.081
606.09	24.416
606.42	23.978
606.75	23.853
607.09	24.615
607.42	24.191
607.75	24.156
608.08	22.686
608.42	24.623
608.75	24.867
609.08	24.664
609.41	24.873
609.75	23.942
610.08	24.463
610.41	23.768
610.74	24.915
611.07	24.238
611.41	24.857
611.74	24.733
612.07	23.769
612.40	24.891
612.73	23.672
613.07	24.184
613.40	23.961
613.73	23.951
614.06	24.151
614.39	25.155
614.72	23.922
615.06	23.911
615.39	23.472
615.72	23.466
616.05	24.916
616.38	22.735
616.71	24.037
617.05	24.274
617.38	23.696
617.71	23.522
618.04	23.429
618.37	25.095
618.70	23.366
619.03	25.625
619.36	23.444
619.69	24.185
620.03	24.982
620.36	23.391
620.69	22.841
621.02	22.095
621.35	23.402
621.68	23.980
622.01	24.000
622.34	22.825
622.67	23.817
623.00	23.507
623.33	24.543
623.66	23.485
623.99	23.449
624.32	24.791
624.65	22.707
624.99	23.552
625.32	23.048
625.65	24.038
625.98	23.771
626.31	22.860
626.64	24.523
626.97	24.084
627.30	23.030
627.63	24.350
627.96	23.810
628.29	24.237
628.62	24.189
628.95	24.449
629.28	24.496
629.61	23.928
629.94	23.851
630.26	22.431
630.59	23.933
630.92	23.282
631.25	23.077
631.58	22.687
631.91	22.149
632.24	23.050
632.57	23.068
632.90	23.843
633.23	22.941
633.56	23.804
633.89	23.181
634.22	24.568
634.55	24.142
634.88	22.350
635.20	21.154
635.53	24.000
635.86	22.237
636.19	24.580
636.52	23.980
