SpectraSuite Data File
++++++++++++++++++++++++++++++++++++
Date: Fri May 15 17:23:34 PDT 2015
User: schluterlab
Dark Spectrum Present: Yes
Reference Spectrum Present: Yes
Number of Sampled Component Spectra: 1
Spectrometers: USB2E3373
Integration Time (usec): 3000 (USB2E3373)
Spectra Averaged: 3 (USB2E3373)
Boxcar Smoothing: 0 (USB2E3373)
Correct for Electrical Dark: No (USB2E3373)
Strobe/Lamp Enabled: No (USB2E3373)
Correct for Detector Non-linearity: No (USB2E3373)
Correct for Stray Light: No (USB2E3373)
Number of Pixels in Processed Spectrum: 2048
>>>>>Begin Processed Spectral Data<<<<<
178.53	0.000
178.91	0.000
179.29	37.500
179.67	400.000
180.04	-128.571
180.42	0.000
180.80	-100.000
181.18	-0.000
181.56	-100.000
181.94	150.000
182.31	-100.000
182.69	-20.000
183.07	-433.333
183.45	-40.000
183.83	-50.000
184.20	27.273
184.58	88.889
184.96	-75.000
185.34	266.667
185.72	-350.000
186.09	23.077
186.47	-100.000
186.85	33.333
187.23	-11.111
187.61	-700.000
187.98	-200.000
188.36	88.889
188.74	-33.333
189.12	76.471
189.49	50.000
189.87	0.000
190.25	71.429
190.63	500.000
191.00	-33.333
191.38	36.842
191.76	250.000
192.14	200.000
192.51	450.000
192.89	22.222
193.27	-28.571
193.65	-33.333
194.02	118.182
194.40	40.000
194.78	-75.000
195.15	75.000
195.53	-37.500
195.91	-0.000
196.29	-200.000
196.66	84.615
197.04	-114.286
197.42	0.000
197.79	-233.333
198.17	-38.462
198.55	100.000
198.92	-266.667
199.30	300.000
199.68	20.000
200.05	166.667
200.43	0.000
200.81	33.333
201.18	200.000
201.56	-100.000
201.94	-100.000
202.31	-133.333
202.69	-80.000
203.07	-0.000
203.44	-300.000
203.82	0.000
204.19	92.857
204.57	-300.000
204.95	-50.000
205.32	100.000
205.70	242.857
206.08	150.000
206.45	188.889
206.83	57.143
207.20	-42.857
207.58	400.000
207.96	-466.667
208.33	20.000
208.71	250.000
209.08	-66.667
209.46	-300.000
209.84	40.000
210.21	-800.000
210.59	142.857
210.96	-16.667
211.34	75.000
211.71	86.667
212.09	85.714
212.46	-700.000
212.84	0.000
213.22	20.000
213.59	500.000
213.97	100.000
214.34	45.455
214.72	66.667
215.09	150.000
215.47	-46.154
215.84	109.091
216.22	-133.333
216.59	12.500
216.97	650.000
217.34	50.000
217.72	20.000
218.09	75.000
218.47	75.000
218.84	-1000.000
219.22	77.778
219.59	-80.000
219.97	266.667
220.34	200.000
220.72	128.571
221.09	25.000
221.47	400.000
221.84	-600.000
222.22	-600.000
222.59	27.273
222.97	8.333
223.34	-200.000
223.72	14.286
224.09	0.000
224.46	3.571
224.84	133.333
225.21	130.000
225.59	40.000
225.96	350.000
226.34	175.000
226.71	-71.429
227.08	0.000
227.46	162.500
227.83	-100.000
228.21	111.111
228.58	163.636
228.95	187.500
229.33	90.000
229.70	-12.500
230.08	-100.000
230.45	42.857
230.82	142.857
231.20	0.000
231.57	128.571
231.95	-28.571
232.32	-90.000
232.69	107.143
233.07	300.000
233.44	200.000
233.81	0.000
234.19	33.333
234.56	35.294
234.93	50.000
235.31	275.000
235.68	80.000
236.05	-15.385
236.43	15.000
236.80	52.941
237.17	31.250
237.55	70.000
237.92	37.037
238.29	36.111
238.67	63.333
239.04	29.412
239.41	43.902
239.79	16.667
240.16	43.902
240.53	34.211
240.91	32.609
241.28	20.635
241.65	39.286
242.02	43.836
242.40	40.000
242.77	33.898
243.14	25.758
243.51	45.000
243.89	35.632
244.26	34.483
244.63	36.905
245.00	38.144
245.38	32.990
245.75	26.966
246.12	32.759
246.49	39.669
246.87	40.385
247.24	27.731
247.61	41.228
247.98	37.398
248.36	38.750
248.73	39.474
249.10	29.870
249.47	32.911
249.84	41.176
250.22	39.412
250.59	30.719
250.96	41.315
251.33	39.535
251.70	42.941
252.08	40.102
252.45	35.644
252.82	38.693
253.19	39.171
253.56	30.841
253.94	38.739
254.31	34.348
254.68	42.982
255.05	36.614
255.42	38.865
255.79	39.382
256.16	33.463
256.54	39.179
256.91	36.882
257.28	34.944
257.65	37.828
258.02	38.298
258.39	36.364
258.76	38.828
259.14	37.874
259.51	35.922
259.88	36.770
260.25	36.928
260.62	44.792
260.99	35.932
261.36	38.699
261.73	36.392
262.10	41.337
262.47	35.276
262.85	39.812
263.22	37.846
263.59	40.810
263.96	42.547
264.33	36.970
264.70	39.881
265.07	36.310
265.44	37.960
265.81	35.593
266.18	37.978
266.55	37.275
266.92	35.233
267.29	37.076
267.66	41.176
268.03	37.435
268.40	36.031
268.77	40.642
269.14	36.211
269.51	39.589
269.88	38.653
270.25	35.969
270.62	34.878
270.99	36.317
271.36	35.452
271.73	41.080
272.10	37.956
272.47	36.170
272.84	36.139
273.21	35.267
273.58	39.036
273.95	36.613
274.32	36.952
274.69	31.674
275.06	38.170
275.43	34.921
275.80	37.086
276.17	34.253
276.54	33.191
276.91	38.377
277.28	35.371
277.65	35.124
278.02	34.681
278.39	36.761
278.76	38.574
279.13	33.817
279.50	37.815
279.87	36.501
280.23	35.699
280.60	34.893
280.97	34.141
281.34	35.385
281.71	37.782
282.08	35.992
282.45	33.268
282.82	34.170
283.19	38.298
283.56	37.187
283.92	33.017
284.29	35.385
284.66	32.752
285.03	34.578
285.40	34.026
285.77	32.337
286.14	31.949
286.51	35.609
286.87	33.090
287.24	35.175
287.61	33.862
287.98	33.509
288.35	34.315
288.72	34.501
289.08	30.035
289.45	33.568
289.82	30.769
290.19	31.399
290.56	34.134
290.93	31.145
291.29	29.584
291.66	29.764
292.03	31.100
292.40	29.839
292.77	28.868
293.13	29.221
293.50	29.135
293.87	26.870
294.24	29.985
294.60	28.763
294.97	29.315
295.34	29.141
295.71	28.167
296.08	27.803
296.44	27.454
296.81	27.361
297.18	27.971
297.55	28.997
297.91	28.630
298.28	26.913
298.65	25.645
299.02	25.472
299.38	23.529
299.75	24.966
300.12	25.131
300.48	24.638
300.85	25.602
301.22	26.623
301.59	23.684
301.95	24.810
302.32	27.497
302.69	24.254
303.05	26.485
303.42	24.408
303.79	24.416
304.15	24.612
304.52	23.543
304.89	21.871
305.25	23.123
305.62	24.271
305.99	23.041
306.35	23.931
306.72	23.285
307.09	24.971
307.45	22.847
307.82	23.958
308.19	24.506
308.55	24.100
308.92	23.965
309.29	21.788
309.65	22.605
310.02	24.092
310.38	23.600
310.75	23.716
311.12	23.251
311.48	23.754
311.85	22.094
312.22	21.941
312.58	21.656
312.95	21.665
313.31	22.567
313.68	22.932
314.05	21.633
314.41	22.784
314.78	21.340
315.14	23.022
315.51	21.946
315.87	22.848
316.24	23.054
316.61	23.327
316.97	23.909
317.34	22.461
317.70	21.415
318.07	22.019
318.43	21.765
318.80	21.970
319.16	23.633
319.53	22.412
319.89	21.457
320.26	23.077
320.62	23.270
320.99	21.503
321.35	21.994
321.72	21.807
322.08	22.256
322.45	22.234
322.81	21.513
323.18	22.375
323.54	22.973
323.91	20.935
324.27	21.875
324.64	21.816
325.00	23.358
325.37	22.681
325.73	20.943
326.10	21.163
326.46	23.318
326.83	22.572
327.19	21.273
327.56	22.328
327.92	22.007
328.29	21.250
328.65	21.792
329.01	22.886
329.38	22.028
329.74	20.019
330.11	21.687
330.47	21.336
330.84	21.827
331.20	22.148
331.56	21.111
331.93	22.831
332.29	21.907
332.66	21.357
333.02	20.911
333.38	20.715
333.75	21.520
334.11	21.128
334.48	20.762
334.84	22.711
335.20	21.683
335.57	20.852
335.93	22.222
336.29	22.007
336.66	21.435
337.02	20.725
337.38	20.556
337.75	21.182
338.11	21.821
338.47	21.807
338.84	20.518
339.20	20.658
339.56	21.651
339.93	22.292
340.29	21.651
340.65	20.699
341.02	21.011
341.38	20.177
341.74	19.876
342.11	19.324
342.47	20.463
342.83	21.280
343.20	21.254
343.56	21.565
343.92	22.321
344.28	19.812
344.65	20.380
345.01	20.830
345.37	21.026
345.73	20.921
346.10	21.225
346.46	20.690
346.82	20.295
347.19	19.784
347.55	21.554
347.91	21.278
348.27	20.614
348.63	20.017
349.00	20.509
349.36	21.446
349.72	20.232
350.08	20.410
350.45	20.670
350.81	20.432
351.17	19.625
351.53	20.571
351.89	19.653
352.26	20.240
352.62	20.565
352.98	19.920
353.34	19.002
353.70	21.036
354.07	20.484
354.43	18.975
354.79	20.149
355.15	20.952
355.51	20.728
355.87	20.307
356.24	19.005
356.60	18.998
356.96	20.714
357.32	20.527
357.68	18.530
358.04	20.275
358.40	19.614
358.77	19.936
359.13	19.135
359.49	19.029
359.85	19.111
360.21	20.415
360.57	19.204
360.93	19.970
361.29	18.807
361.66	20.846
362.02	19.621
362.38	18.888
362.74	19.304
363.10	19.338
363.46	20.237
363.82	20.436
364.18	19.557
364.54	17.868
364.90	19.211
365.26	19.505
365.62	20.219
365.98	20.015
366.35	20.393
366.71	19.512
367.07	19.884
367.43	18.835
367.79	19.647
368.15	19.167
368.51	19.811
368.87	19.311
369.23	18.267
369.59	19.534
369.95	19.795
370.31	19.798
370.67	19.776
371.03	19.119
371.39	19.329
371.75	19.707
372.11	18.616
372.47	19.527
372.83	19.659
373.19	18.759
373.55	18.628
373.91	19.870
374.27	18.568
374.63	18.808
374.99	19.291
375.35	18.872
375.71	19.930
376.07	19.382
376.42	19.320
376.78	19.664
377.14	19.093
377.50	18.858
377.86	19.277
378.22	18.826
378.58	19.167
378.94	18.526
379.30	19.214
379.66	19.561
380.02	18.516
380.38	19.051
380.74	18.372
381.09	20.123
381.45	18.716
381.81	18.507
382.17	17.703
382.53	18.988
382.89	18.770
383.25	19.540
383.61	18.598
383.97	19.111
384.32	18.949
384.68	19.319
385.04	18.750
385.40	18.793
385.76	19.811
386.12	19.793
386.48	19.285
386.83	18.643
387.19	19.536
387.55	20.138
387.91	19.621
388.27	19.048
388.62	20.264
388.98	18.785
389.34	19.113
389.70	19.577
390.06	17.999
390.42	18.782
390.77	19.817
391.13	18.600
391.49	19.211
391.85	19.298
392.20	18.581
392.56	19.771
392.92	19.201
393.28	19.575
393.64	18.859
393.99	19.561
394.35	18.406
394.71	18.774
395.07	18.479
395.42	19.490
395.78	19.739
396.14	19.735
396.50	19.721
396.85	18.480
397.21	19.236
397.57	19.248
397.92	19.173
398.28	19.483
398.64	18.072
399.00	18.679
399.35	18.341
399.71	18.553
400.07	18.440
400.42	19.155
400.78	20.514
401.14	18.875
401.49	19.059
401.85	18.586
402.21	19.699
402.57	19.625
402.92	18.381
403.28	19.737
403.63	18.979
403.99	19.388
404.35	19.425
404.70	18.929
405.06	18.625
405.42	19.453
405.77	18.361
406.13	18.161
406.49	19.065
406.84	19.621
407.20	19.988
407.55	19.317
407.91	20.187
408.27	19.312
408.62	19.754
408.98	19.470
409.34	20.074
409.69	18.605
410.05	18.842
410.40	19.383
410.76	19.542
411.11	20.000
411.47	19.592
411.83	18.958
412.18	19.241
412.54	18.914
412.89	17.857
413.25	19.675
413.60	19.317
413.96	19.509
414.31	19.451
414.67	18.538
415.03	20.373
415.38	19.191
415.74	19.414
416.09	20.836
416.45	19.109
416.80	19.564
417.16	19.337
417.51	19.654
417.87	20.013
418.22	19.365
418.58	20.870
418.93	20.313
419.29	18.438
419.64	19.248
420.00	20.466
420.35	20.000
420.71	20.474
421.06	19.705
421.42	20.192
421.77	19.711
422.12	20.148
422.48	18.787
422.83	19.548
423.19	20.542
423.54	19.048
423.90	19.670
424.25	19.403
424.61	20.502
424.96	19.454
425.31	20.335
425.67	20.070
426.02	20.024
426.38	20.789
426.73	19.976
427.09	21.013
427.44	20.941
427.79	20.507
428.15	20.692
428.50	20.230
428.85	19.656
429.21	20.996
429.56	20.000
429.92	20.185
430.27	20.050
430.62	19.760
430.98	19.586
431.33	20.557
431.68	20.356
432.04	20.402
432.39	20.023
432.74	20.385
433.10	20.632
433.45	19.713
433.80	21.242
434.16	20.499
434.51	20.323
434.86	21.022
435.22	20.527
435.57	20.961
435.92	20.240
436.28	19.857
436.63	20.365
436.98	20.510
437.34	20.690
437.69	20.751
438.04	20.684
438.39	20.281
438.75	21.554
439.10	20.656
439.45	21.729
439.81	20.000
440.16	21.378
440.51	21.731
440.86	21.994
441.22	21.041
441.57	20.861
441.92	21.878
442.27	20.676
442.63	21.681
442.98	21.482
443.33	21.425
443.68	21.220
444.03	21.311
444.39	21.790
444.74	22.520
445.09	21.214
445.44	22.108
445.79	21.558
446.15	21.366
446.50	20.799
446.85	22.529
447.20	20.490
447.55	21.987
447.91	21.263
448.26	22.538
448.61	21.647
448.96	22.031
449.31	21.503
449.66	21.196
450.02	20.878
450.37	21.755
450.72	21.707
451.07	22.911
451.42	22.097
451.77	21.519
452.12	21.830
452.47	21.764
452.83	22.203
453.18	22.138
453.53	22.819
453.88	22.344
454.23	21.881
454.58	22.607
454.93	22.101
455.28	21.460
455.63	22.195
455.98	22.670
456.34	22.158
456.69	22.618
457.04	22.306
457.39	21.628
457.74	22.370
458.09	21.778
458.44	22.996
458.79	21.401
459.14	22.769
459.49	23.224
459.84	22.391
460.19	22.087
460.54	22.005
460.89	22.727
461.24	22.236
461.59	22.862
461.94	22.516
462.29	23.884
462.64	22.259
462.99	22.410
463.34	21.697
463.69	22.136
464.04	23.245
464.39	23.408
464.74	22.699
465.09	22.146
465.44	22.908
465.79	22.109
466.14	22.349
466.49	22.772
466.84	23.200
467.19	22.966
467.54	22.350
467.89	22.805
468.24	23.418
468.59	23.683
468.94	23.175
469.29	23.475
469.64	22.556
469.99	23.125
470.34	23.413
470.68	23.714
471.03	22.718
471.38	23.110
471.73	23.599
472.08	24.016
472.43	22.416
472.78	23.372
473.13	22.789
473.48	23.518
473.83	23.474
474.17	23.122
474.52	22.591
474.87	22.788
475.22	22.819
475.57	22.699
475.92	23.971
476.27	24.214
476.61	22.801
476.96	22.644
477.31	23.202
477.66	22.978
478.01	22.965
478.36	22.603
478.70	23.382
479.05	24.121
479.40	23.423
479.75	23.149
480.10	22.683
480.45	23.150
480.79	24.119
481.14	22.848
481.49	23.399
481.84	23.118
482.19	23.199
482.53	23.837
482.88	23.055
483.23	22.937
483.58	22.830
483.92	22.604
484.27	23.154
484.62	22.501
484.97	22.554
485.31	22.724
485.66	22.434
486.01	22.451
486.36	22.150
486.70	22.216
487.05	22.426
487.40	22.441
487.75	22.254
488.09	22.188
488.44	22.008
488.79	22.525
489.13	22.676
489.48	22.574
489.83	22.915
490.17	23.685
490.52	23.095
490.87	22.814
491.22	23.161
491.56	22.770
491.91	23.279
492.26	23.967
492.60	23.512
492.95	24.102
493.30	23.742
493.64	23.625
493.99	24.251
494.34	23.981
494.68	23.714
495.03	22.822
495.37	23.847
495.72	23.372
496.07	24.098
496.41	23.302
496.76	23.215
497.11	23.149
497.45	24.010
497.80	23.663
498.14	23.845
498.49	23.108
498.84	23.204
499.18	23.745
499.53	24.355
499.87	22.665
500.22	23.244
500.56	23.752
500.91	24.247
501.26	22.986
501.60	23.955
501.95	23.484
502.29	24.165
502.64	24.083
502.98	23.582
503.33	22.526
503.67	23.325
504.02	23.803
504.36	24.394
504.71	23.838
505.06	23.402
505.40	23.096
505.75	24.278
506.09	23.568
506.44	24.230
506.78	24.694
507.13	24.043
507.47	23.446
507.82	23.825
508.16	23.138
508.51	24.134
508.85	23.810
509.19	23.949
509.54	23.807
509.88	24.595
510.23	24.583
510.57	24.372
510.92	22.655
511.26	24.223
511.61	24.972
511.95	24.822
512.30	24.169
512.64	24.763
512.98	23.358
513.33	24.566
513.67	24.389
514.02	24.256
514.36	25.029
514.70	24.476
515.05	25.029
515.39	24.321
515.74	25.749
516.08	25.105
516.42	25.618
516.77	25.219
517.11	23.976
517.46	25.733
517.80	25.149
518.14	24.311
518.49	25.240
518.83	24.484
519.17	23.590
519.52	24.156
519.86	24.310
520.20	24.241
520.55	24.640
520.89	25.659
521.23	24.573
521.58	26.372
521.92	25.064
522.26	25.114
522.61	25.649
522.95	26.159
523.29	25.413
523.64	25.921
523.98	25.664
524.32	25.387
524.66	25.928
525.01	25.455
525.35	26.442
525.69	25.051
526.04	25.595
526.38	26.913
526.72	25.180
527.06	25.032
527.41	25.660
527.75	25.067
528.09	25.781
528.43	26.334
528.78	25.347
529.12	25.548
529.46	25.471
529.80	25.522
530.15	26.733
530.49	26.465
530.83	25.787
531.17	25.856
531.51	26.539
531.86	23.861
532.20	25.052
532.54	25.323
532.88	25.804
533.22	26.142
533.57	25.754
533.91	24.543
534.25	26.172
534.59	25.016
534.93	25.802
535.27	24.810
535.62	24.563
535.96	25.832
536.30	26.187
536.64	25.362
536.98	25.784
537.32	26.316
537.66	26.999
538.01	25.804
538.35	25.589
538.69	25.166
539.03	24.607
539.37	25.707
539.71	26.108
540.05	25.322
540.39	26.801
540.73	26.569
541.07	26.727
541.42	26.613
541.76	25.396
542.10	25.189
542.44	26.060
542.78	25.189
543.12	25.069
543.46	25.382
543.80	25.399
544.14	25.033
544.48	25.783
544.82	26.658
545.16	27.186
545.50	26.502
545.84	25.992
546.18	25.390
546.52	25.811
546.86	26.240
547.20	26.323
547.54	26.148
547.88	26.019
548.22	25.707
548.56	25.923
548.90	26.887
549.24	24.862
549.58	26.446
549.92	26.090
550.26	25.934
550.60	26.691
550.94	26.064
551.28	25.502
551.62	26.692
551.96	25.865
552.30	25.877
552.64	25.811
552.98	25.879
553.32	26.676
553.66	26.415
554.00	26.350
554.34	26.662
554.68	25.442
555.02	26.711
555.36	27.150
555.69	25.421
556.03	25.839
556.37	25.694
556.71	26.498
557.05	26.771
557.39	25.502
557.73	26.087
558.07	27.300
558.41	25.191
558.75	27.981
559.08	25.374
559.42	27.063
559.76	26.902
560.10	25.994
560.44	25.689
560.78	26.154
561.12	26.305
561.45	26.985
561.79	25.630
562.13	26.757
562.47	25.324
562.81	27.522
563.15	26.728
563.48	26.945
563.82	27.111
564.16	26.671
564.50	26.216
564.84	26.707
565.17	25.956
565.51	26.434
565.85	25.789
566.19	26.393
566.52	26.944
566.86	27.828
567.20	26.276
567.54	26.095
567.88	26.596
568.21	26.357
568.55	25.380
568.89	26.283
569.23	26.721
569.56	25.394
569.90	25.538
570.24	25.270
570.57	24.836
570.91	25.096
571.25	24.794
571.59	24.260
571.92	24.207
572.26	24.487
572.60	24.279
572.93	24.412
573.27	23.887
573.61	24.016
573.95	24.413
574.28	24.206
574.62	24.053
574.96	24.208
575.29	23.322
575.63	23.737
575.97	23.448
576.30	23.587
576.64	23.338
576.98	24.299
577.31	24.011
577.65	24.083
577.98	24.260
578.32	23.942
578.66	23.469
578.99	23.678
579.33	23.757
579.67	23.265
580.00	23.949
580.34	23.234
580.67	23.961
581.01	24.063
581.35	24.117
581.68	24.050
582.02	23.913
582.35	24.067
582.69	24.016
583.02	23.734
583.36	24.060
583.70	24.091
584.03	23.853
584.37	24.647
584.70	24.341
585.04	23.990
585.37	24.005
585.71	24.389
586.04	24.155
586.38	23.820
586.72	24.763
587.05	24.986
587.39	24.853
587.72	24.576
588.06	24.606
588.39	24.836
588.73	24.695
589.06	25.734
589.40	24.438
589.73	24.900
590.07	25.566
590.40	25.116
590.73	26.483
591.07	24.597
591.40	24.889
591.74	25.928
592.07	25.788
592.41	26.325
592.74	25.368
593.08	25.148
593.41	25.305
593.75	25.221
594.08	24.511
594.41	25.473
594.75	25.076
595.08	25.161
595.42	26.095
595.75	25.873
596.09	25.958
596.42	25.837
596.75	25.622
597.09	25.604
597.42	26.242
597.75	26.019
598.09	25.441
598.42	24.819
598.76	25.568
599.09	25.681
599.42	24.706
599.76	25.546
600.09	25.038
600.42	25.398
600.76	25.000
601.09	25.229
601.42	24.912
601.76	25.208
602.09	25.124
602.42	25.400
602.76	25.255
603.09	25.748
603.42	26.505
603.76	25.766
604.09	24.828
604.42	25.465
604.76	25.990
605.09	25.777
605.42	25.056
605.75	25.350
606.09	26.115
606.42	25.438
606.75	24.805
607.09	25.231
607.42	25.654
607.75	25.044
608.08	25.562
608.42	25.491
608.75	26.554
609.08	25.212
609.41	25.939
609.75	26.210
610.08	25.861
610.41	25.169
610.74	25.500
611.07	26.047
611.41	25.532
611.74	26.439
612.07	26.231
612.40	26.422
612.73	26.441
613.07	26.209
613.40	26.586
613.73	25.182
614.06	26.377
614.39	25.945
614.72	25.154
615.06	26.313
615.39	25.873
615.72	25.780
616.05	26.369
616.38	25.584
616.71	26.422
617.05	26.868
617.38	25.959
617.71	26.164
618.04	26.222
618.37	26.545
618.70	26.997
619.03	27.222
619.36	26.845
619.69	27.218
620.03	28.269
620.36	27.039
620.69	26.981
621.02	26.988
621.35	28.299
621.68	27.976
622.01	28.000
622.34	27.454
622.67	28.155
623.00	27.489
623.33	26.905
623.66	27.001
623.99	27.837
624.32	27.148
624.65	27.068
624.99	27.239
625.32	26.763
625.65	28.594
625.98	27.720
626.31	26.185
626.64	28.943
626.97	27.574
627.30	27.933
627.63	29.463
627.96	28.032
628.29	27.475
628.62	28.122
628.95	28.758
629.28	28.528
629.61	27.617
629.94	29.228
630.26	27.470
630.59	28.200
630.92	29.128
631.25	27.487
631.58	26.652
631.91	28.399
632.24	26.376
632.57	28.864
632.90	27.995
633.23	28.471
633.56	30.227
633.89	29.840
