SpectraSuite Data File
++++++++++++++++++++++++++++++++++++
Date: Fri May 15 17:27:01 PDT 2015
User: schluterlab
Dark Spectrum Present: Yes
Reference Spectrum Present: Yes
Number of Sampled Component Spectra: 1
Spectrometers: USB2E3373
Integration Time (usec): 3000 (USB2E3373)
Spectra Averaged: 3 (USB2E3373)
Boxcar Smoothing: 0 (USB2E3373)
Correct for Electrical Dark: No (USB2E3373)
Strobe/Lamp Enabled: No (USB2E3373)
Correct for Detector Non-linearity: No (USB2E3373)
Correct for Stray Light: No (USB2E3373)
Number of Pixels in Processed Spectrum: 2048
>>>>>Begin Processed Spectral Data<<<<<
178.53	0.000
178.91	0.000
179.29	-37.500
179.67	250.000
180.04	-14.286
180.42	-25.000
180.80	-100.000
181.18	-100.000
181.56	-150.000
181.94	-200.000
182.31	-200.000
182.69	40.000
183.07	-300.000
183.45	-80.000
183.83	-0.000
184.20	36.364
184.58	55.556
184.96	-400.000
185.34	66.667
185.72	-50.000
186.09	146.154
186.47	-700.000
186.85	66.667
187.23	11.111
187.61	-100.000
187.98	-200.000
188.36	100.000
188.74	-200.000
189.12	64.706
189.49	100.000
189.87	0.000
190.25	78.571
190.63	600.000
191.00	133.333
191.38	21.053
191.76	100.000
192.14	25.000
192.51	350.000
192.89	-44.444
193.27	42.857
193.65	133.333
194.02	118.182
194.40	80.000
194.78	-75.000
195.15	-8.333
195.53	-100.000
195.91	150.000
196.29	0.000
196.66	53.846
197.04	142.857
197.42	-66.667
197.79	-233.333
198.17	-53.846
198.55	200.000
198.92	-266.667
199.30	1000.000
199.68	60.000
200.05	-100.000
200.43	0.000
200.81	-166.667
201.18	-133.333
201.56	400.000
201.94	-450.000
202.31	-33.333
202.69	-180.000
203.07	100.000
203.44	900.000
203.82	0.000
204.19	0.000
204.57	-333.333
204.95	162.500
205.32	40.000
205.70	-14.286
206.08	275.000
206.45	133.333
206.83	100.000
207.20	-200.000
207.58	400.000
207.96	-300.000
208.33	-100.000
208.71	-25.000
209.08	-116.667
209.46	-800.000
209.84	0.000
210.21	-100.000
210.59	71.429
210.96	166.667
211.34	275.000
211.71	93.333
212.09	-185.714
212.46	-500.000
212.84	0.000
213.22	80.000
213.59	100.000
213.97	130.769
214.34	36.364
214.72	-116.667
215.09	500.000
215.47	-30.769
215.84	-9.091
216.22	-66.667
216.59	50.000
216.97	300.000
217.34	-25.000
217.72	0.000
218.09	112.500
218.47	75.000
218.84	100.000
219.22	-55.556
219.59	-160.000
219.97	233.333
220.34	50.000
220.72	100.000
221.09	25.000
221.47	150.000
221.84	-450.000
222.22	-50.000
222.59	0.000
222.97	83.333
223.34	-66.667
223.72	-21.429
224.09	0.000
224.46	25.000
224.84	400.000
225.21	30.000
225.59	20.000
225.96	-250.000
226.34	350.000
226.71	-28.571
227.08	-116.667
227.46	0.000
227.83	-550.000
228.21	-11.111
228.58	54.545
228.95	37.500
229.33	120.000
229.70	-6.250
230.08	-37.500
230.45	-85.714
230.82	114.286
231.20	0.000
231.57	28.571
231.95	-42.857
232.32	-110.000
232.69	35.714
233.07	300.000
233.44	-200.000
233.81	-90.000
234.19	33.333
234.56	-47.059
234.93	500.000
235.31	-250.000
235.68	-280.000
236.05	7.692
236.43	-40.000
236.80	5.882
237.17	12.500
237.55	-75.000
237.92	22.222
238.29	5.556
238.67	-6.667
239.04	-17.647
239.41	-12.195
239.79	-6.667
240.16	12.195
240.53	0.000
240.91	-4.348
241.28	-1.587
241.65	5.357
242.02	13.699
242.40	20.000
242.77	10.169
243.14	-10.606
243.51	-2.500
243.89	6.897
244.26	-13.793
244.63	15.476
245.00	7.216
245.38	6.186
245.75	-17.978
246.12	-1.724
246.49	5.785
246.87	4.808
247.24	-4.202
247.61	-5.263
247.98	-6.504
248.36	4.375
248.73	1.974
249.10	-0.649
249.47	-0.633
249.84	0.654
250.22	-2.353
250.59	-3.922
250.96	4.695
251.33	-5.814
251.70	-2.353
252.08	-2.030
252.45	0.000
252.82	-1.005
253.19	-0.922
253.56	-6.075
253.94	-4.955
254.31	-0.870
254.68	3.947
255.05	-0.787
255.42	-0.873
255.79	0.386
256.16	3.502
256.54	3.731
256.91	3.802
257.28	-2.602
257.65	-1.498
258.02	-0.709
258.39	3.367
258.76	1.832
259.14	2.326
259.51	3.236
259.88	-0.344
260.25	-3.922
260.62	3.472
260.99	-3.729
261.36	-3.082
261.73	-0.949
262.10	-0.912
262.47	-3.067
262.85	-0.940
263.22	-1.538
263.59	-0.935
263.96	0.311
264.33	1.818
264.70	-0.893
265.07	-0.893
265.44	0.283
265.81	-0.565
266.18	1.093
266.55	3.085
266.92	0.000
267.29	1.044
267.66	-1.790
268.03	-0.785
268.40	-4.178
268.77	3.209
269.14	-0.480
269.51	1.285
269.88	-1.247
270.25	-1.531
270.62	-0.976
270.99	-2.302
271.36	0.000
271.73	0.939
272.10	-2.190
272.47	-0.473
272.84	-1.238
273.21	1.624
273.58	1.446
273.95	0.458
274.32	-0.924
274.69	-1.357
275.06	0.670
275.43	0.680
275.80	0.442
276.17	-2.299
276.54	0.000
276.91	1.754
277.28	-0.218
277.65	2.686
278.02	-0.851
278.39	0.656
278.76	-0.210
279.13	-1.452
279.50	1.471
279.87	3.240
280.23	-1.505
280.60	2.339
280.97	-0.404
281.34	-2.115
281.71	2.053
282.08	0.000
282.45	0.000
282.82	-0.386
283.19	-0.774
283.56	1.734
283.92	-0.759
284.29	1.154
284.66	0.969
285.03	-1.179
285.40	1.323
285.77	-1.230
286.14	0.542
286.51	0.923
286.87	0.183
287.24	-2.026
287.61	-1.764
287.98	1.754
288.35	0.000
288.72	1.401
289.08	1.562
289.45	0.703
289.82	0.000
290.19	-0.171
290.56	-0.515
290.93	-3.367
291.29	0.616
291.66	1.575
292.03	0.478
292.40	-0.645
292.77	1.754
293.13	-2.760
293.50	-2.883
293.87	1.069
294.24	-0.309
294.60	-0.596
294.97	1.042
295.34	-0.153
295.71	0.149
296.08	-1.196
296.44	-1.138
296.81	0.000
297.18	-0.580
297.55	1.626
297.91	-0.137
298.28	2.243
298.65	-1.357
299.02	2.426
299.38	-2.052
299.75	-0.966
300.12	0.524
300.48	0.264
300.85	-0.634
301.22	-0.130
301.59	-0.395
301.95	0.759
302.32	0.389
302.69	-0.124
303.05	0.124
303.42	-0.498
303.79	-0.701
304.15	0.119
304.52	-0.238
304.89	0.468
305.25	-0.969
305.62	-1.284
305.99	-0.468
306.35	0.925
306.72	-1.687
307.09	-0.228
307.45	0.344
307.82	0.000
308.19	1.394
308.55	0.218
308.92	1.634
309.29	-0.447
309.65	-0.969
310.02	-0.110
310.38	0.220
310.75	-0.328
311.12	0.108
311.48	-0.106
311.85	0.000
312.22	0.422
312.58	0.000
312.95	-0.427
313.31	-0.828
313.68	-0.942
314.05	-0.102
314.41	0.000
314.78	-0.309
315.14	1.131
315.51	0.725
315.87	-0.205
316.24	1.921
316.61	0.689
316.97	1.488
317.34	0.098
317.70	0.191
318.07	0.962
318.43	-0.392
318.80	0.473
319.16	0.586
319.53	1.045
319.89	0.394
320.26	1.113
320.62	1.304
320.99	0.835
321.35	1.542
321.72	1.038
322.08	1.007
322.45	1.320
322.81	1.965
323.18	2.552
323.54	2.510
323.91	2.532
324.27	3.223
324.64	3.558
325.00	3.558
325.37	4.316
325.73	2.901
326.10	3.815
326.46	4.664
326.83	4.374
327.19	4.446
327.56	4.344
327.92	5.898
328.29	5.357
328.65	6.038
329.01	6.342
329.38	7.558
329.74	6.799
330.11	7.785
330.47	8.813
330.84	8.558
331.20	11.977
331.56	9.444
331.93	11.416
332.29	13.566
332.66	12.036
333.02	12.546
333.38	12.741
333.75	14.377
334.11	14.414
334.48	14.687
334.84	14.377
335.20	14.639
335.57	14.959
335.93	16.441
336.29	16.943
336.66	16.530
337.02	17.286
337.38	17.130
337.75	17.727
338.11	17.674
338.47	18.157
338.84	18.854
339.20	17.916
339.56	17.798
339.93	18.800
340.29	20.092
340.65	18.728
341.02	19.681
341.38	19.115
341.74	18.993
342.11	18.804
342.47	19.306
342.83	20.502
343.20	19.077
343.56	19.826
343.92	19.043
344.28	19.556
344.65	19.085
345.01	18.669
345.37	18.251
345.73	20.335
346.10	19.586
346.46	20.521
346.82	19.640
347.19	19.036
347.55	19.215
347.91	19.498
348.27	19.240
348.63	19.591
349.00	20.016
349.36	18.953
349.72	21.144
350.08	19.590
350.45	18.994
350.81	19.269
351.17	19.137
351.53	19.102
351.89	19.075
352.26	19.360
352.62	19.194
352.98	18.876
353.34	19.324
353.70	19.822
354.07	18.710
354.43	19.215
354.79	18.497
355.15	20.079
355.51	20.411
355.87	19.579
356.24	19.739
356.60	18.755
356.96	20.079
357.32	19.489
357.68	19.234
358.04	19.305
358.40	18.569
358.77	20.574
359.13	19.696
359.49	18.644
359.85	19.735
360.21	19.378
360.57	19.587
360.93	20.424
361.29	19.789
361.66	20.141
362.02	20.379
362.38	21.401
362.74	20.061
363.10	20.015
363.46	21.349
363.82	20.436
364.18	20.959
364.54	20.221
364.90	19.928
365.26	19.505
365.62	21.533
365.98	21.628
366.35	21.122
366.71	20.103
367.07	20.900
367.43	20.633
367.79	21.413
368.15	20.316
368.51	20.685
368.87	19.670
369.23	21.733
369.59	20.991
369.95	21.334
370.31	20.954
370.67	20.299
371.03	21.733
371.39	20.715
371.75	21.465
372.11	20.328
372.47	21.302
372.83	21.505
373.19	22.397
373.55	21.516
373.91	21.814
374.27	22.183
374.63	23.259
374.99	22.837
375.35	22.354
375.71	22.587
376.07	23.104
376.42	22.993
376.78	22.483
377.14	23.155
377.50	22.842
377.86	23.092
378.22	23.038
378.58	23.077
378.94	22.558
379.30	22.770
379.66	24.577
380.02	23.176
380.38	23.798
380.74	23.938
381.09	24.601
381.45	23.976
381.81	24.059
382.17	24.365
382.53	23.735
382.89	24.796
383.25	25.327
383.61	25.488
383.97	24.381
384.32	25.891
384.68	24.892
385.04	24.877
385.40	25.949
385.76	26.164
386.12	26.908
386.48	26.820
386.83	26.062
387.19	26.984
387.55	27.039
387.91	26.773
388.27	25.824
388.62	27.753
388.98	26.581
389.34	26.546
389.70	28.278
390.06	26.809
390.42	27.267
390.77	27.665
391.13	26.671
391.49	27.232
391.85	27.096
392.20	26.805
392.56	27.146
392.92	27.540
393.28	27.358
393.64	27.327
393.99	29.279
394.35	27.767
394.71	27.778
395.07	27.341
395.42	27.080
395.78	27.687
396.14	28.247
396.50	27.711
396.85	28.203
397.21	27.193
397.57	28.088
397.92	27.981
398.28	27.931
398.64	26.506
399.00	27.483
399.35	26.693
399.71	27.283
400.07	28.356
400.42	28.152
400.78	27.985
401.14	27.526
401.49	26.980
401.85	28.519
402.21	28.012
402.57	27.938
402.92	27.102
403.28	27.820
403.63	27.427
403.99	27.870
404.35	27.858
404.70	26.786
405.06	26.910
405.42	27.284
405.77	26.554
406.13	27.707
406.49	26.525
406.84	26.895
407.20	27.333
407.55	26.851
407.91	27.406
408.27	27.087
408.62	28.431
408.98	26.494
409.34	27.571
409.69	26.938
410.05	27.032
410.40	27.346
410.76	27.322
411.11	27.750
411.47	27.613
411.83	27.181
412.18	27.864
412.54	26.717
412.89	26.724
413.25	27.978
413.60	26.646
413.96	26.933
414.31	27.561
414.67	26.555
415.03	26.897
415.38	26.501
415.74	26.450
416.09	27.368
416.45	26.941
416.80	25.975
417.16	26.796
417.51	27.582
417.87	27.445
418.22	27.332
418.58	26.957
418.93	28.966
419.29	26.184
419.64	27.803
420.00	27.582
420.35	28.179
420.71	28.311
421.06	27.931
421.42	27.764
421.77	29.075
422.12	28.150
422.48	27.666
422.83	27.436
423.19	28.555
423.54	27.219
423.90	27.974
424.25	27.727
424.61	27.785
424.96	27.875
425.31	29.347
425.67	27.758
426.02	28.504
426.38	28.491
426.73	29.358
427.09	28.861
427.44	28.176
427.79	28.933
428.15	29.005
428.50	27.680
428.85	27.396
429.21	28.297
429.56	28.841
429.92	27.889
430.27	28.421
430.62	29.273
430.98	29.246
431.33	29.285
431.68	28.205
432.04	29.458
432.39	28.922
432.74	27.240
433.10	29.540
433.45	29.271
433.80	29.541
434.16	28.698
434.51	29.140
434.86	29.210
435.22	29.164
435.57	29.694
435.92	29.760
436.28	28.921
436.63	29.835
436.98	28.853
437.34	29.704
437.69	30.590
438.04	28.889
438.39	28.955
438.75	31.087
439.10	29.259
439.45	30.493
439.81	29.541
440.16	31.354
440.51	31.164
440.86	31.239
441.22	30.090
441.57	30.243
441.92	30.745
442.27	30.820
442.63	31.424
442.98	30.615
443.33	29.549
443.68	30.610
444.03	31.247
444.39	30.054
444.74	30.491
445.09	30.902
445.44	30.598
445.79	32.285
446.15	31.112
446.50	30.671
446.85	30.978
447.20	30.083
447.55	31.473
447.91	30.964
448.26	31.645
448.61	31.779
448.96	30.809
449.31	31.272
449.66	31.010
450.02	30.747
450.37	30.409
450.72	29.897
451.07	32.152
451.42	31.398
451.77	31.646
452.12	30.203
452.47	31.809
452.83	31.449
453.18	31.436
453.53	30.721
453.88	32.301
454.23	31.469
454.58	32.053
454.93	31.894
455.28	28.889
455.63	31.432
455.98	32.712
456.34	32.120
456.69	31.830
457.04	31.884
457.39	31.470
457.74	30.713
458.09	30.430
458.44	30.603
458.79	30.252
459.14	31.465
459.49	31.881
459.84	31.980
460.19	31.978
460.54	32.579
460.89	31.591
461.24	32.050
461.59	31.948
461.94	32.453
462.29	31.846
462.64	32.359
462.99	31.889
463.34	31.572
463.69	32.625
464.04	31.356
464.39	32.080
464.74	32.086
465.09	32.439
465.44	31.391
465.79	31.803
466.14	31.756
466.49	32.145
466.84	32.302
467.19	32.416
467.54	31.928
467.89	31.333
468.24	32.299
468.59	32.952
468.94	31.873
469.29	32.066
469.64	31.989
469.99	32.516
470.34	30.307
470.68	33.110
471.03	32.696
471.38	32.026
471.73	32.143
472.08	30.868
472.43	32.148
472.78	31.666
473.13	32.925
473.48	31.336
473.83	31.631
474.17	31.865
474.52	31.908
474.87	32.667
475.22	31.727
475.57	30.717
475.92	31.925
476.27	32.072
476.61	30.498
476.96	31.623
477.31	32.017
477.66	31.910
478.01	32.117
478.36	31.590
478.70	32.463
479.05	31.648
479.40	32.114
479.75	32.221
480.10	30.824
480.45	31.150
480.79	31.621
481.14	32.172
481.49	31.133
481.84	31.660
482.19	30.355
482.53	31.990
482.88	31.313
483.23	32.054
483.58	31.368
483.92	31.026
484.27	30.766
484.62	31.331
484.97	31.219
485.31	30.997
485.66	30.602
486.01	31.173
486.36	30.780
486.70	30.631
487.05	30.735
487.40	30.920
487.75	30.676
488.09	30.501
488.44	30.812
488.79	31.266
489.13	31.370
489.48	30.996
489.83	31.614
490.17	31.011
490.52	31.085
490.87	30.403
491.22	30.659
491.56	31.025
491.91	30.736
492.26	31.502
492.60	31.862
492.95	31.776
493.30	30.923
493.64	31.729
493.99	30.870
494.34	30.388
494.68	31.095
495.03	30.560
495.37	31.305
495.72	31.802
496.07	31.610
496.41	30.943
496.76	31.046
497.11	30.973
497.45	31.074
497.80	31.685
498.14	30.949
498.49	29.863
498.84	31.088
499.18	30.873
499.53	31.200
499.87	31.274
500.22	30.465
500.56	31.266
500.91	31.878
501.26	31.290
501.60	30.743
501.95	30.034
502.29	30.751
502.64	30.840
502.98	30.932
503.33	31.028
503.67	30.843
504.02	31.574
504.36	31.618
504.71	30.455
505.06	30.347
505.40	30.761
505.75	30.928
506.09	30.715
506.44	30.339
506.78	31.786
507.13	30.765
507.47	30.235
507.82	30.662
508.16	30.111
508.51	30.955
508.85	31.659
509.19	29.856
509.54	30.241
509.88	31.122
510.23	31.415
510.57	31.053
510.92	29.478
511.26	31.315
511.61	30.088
511.95	29.973
512.30	30.987
512.64	30.774
512.98	30.320
513.33	30.610
513.67	30.188
514.02	31.693
514.36	30.457
514.70	31.410
515.05	30.729
515.39	30.283
515.74	32.156
516.08	30.663
516.42	31.508
516.77	31.363
517.11	31.395
517.46	30.820
517.80	31.347
518.14	30.374
518.49	29.687
518.83	30.255
519.17	30.200
519.52	30.491
519.86	30.312
520.20	31.409
520.55	30.269
520.89	30.552
521.23	31.032
521.58	30.284
521.92	31.410
522.26	30.059
522.61	30.260
522.95	30.596
523.29	30.241
523.64	30.496
523.98	31.692
524.32	30.090
524.66	31.754
525.01	30.909
525.35	31.432
525.69	30.303
526.04	30.423
526.38	32.166
526.72	30.739
527.06	29.572
527.41	30.871
527.75	29.759
528.09	29.834
528.43	31.465
528.78	29.769
529.12	30.516
529.46	30.214
529.80	29.069
530.15	30.099
530.49	31.044
530.83	31.943
531.17	31.095
531.51	32.558
531.86	29.980
532.20	30.759
532.54	30.225
532.88	30.869
533.22	30.376
533.57	30.603
533.91	30.026
534.25	30.013
534.59	29.442
534.93	29.390
535.27	29.759
535.62	30.395
535.96	31.703
536.30	31.003
536.64	30.186
536.98	30.592
537.32	30.797
537.66	31.276
538.01	30.210
538.35	30.097
538.69	30.426
539.03	29.118
539.37	29.677
539.71	30.811
540.05	30.550
540.39	29.017
540.73	29.358
541.07	30.594
541.42	30.645
541.76	30.902
542.10	29.112
542.44	29.743
542.78	28.699
543.12	30.220
543.46	30.389
543.80	30.673
544.14	28.905
544.48	29.580
544.82	30.349
545.16	30.396
545.50	29.506
545.84	30.099
546.18	30.496
546.52	29.993
546.86	28.181
547.20	30.687
547.54	29.399
547.88	29.755
548.22	28.600
548.56	28.562
548.90	30.458
549.24	29.477
549.58	28.209
549.92	29.450
550.26	30.623
550.60	29.442
550.94	30.246
551.28	29.289
551.62	30.385
551.96	29.925
552.30	30.336
552.64	28.702
552.98	29.395
553.32	29.815
553.66	28.374
554.00	29.708
554.34	29.025
554.68	28.540
555.02	29.315
555.36	28.871
555.69	28.205
556.03	28.622
556.37	28.612
556.71	29.386
557.05	28.784
557.39	28.922
557.73	29.010
558.07	29.864
558.41	28.790
558.75	28.371
559.08	28.999
559.42	28.175
559.76	28.583
560.10	28.976
560.44	29.859
560.78	29.301
561.12	28.561
561.45	30.007
561.79	28.641
562.13	29.099
562.47	29.281
562.81	28.890
563.15	28.984
563.48	28.076
563.82	30.062
564.16	28.273
564.50	28.176
564.84	28.246
565.17	29.376
565.51	29.440
565.85	28.326
566.19	28.714
566.52	28.820
566.86	29.756
567.20	28.331
567.54	28.467
567.88	30.111
568.21	29.016
568.55	27.609
568.89	28.901
569.23	28.503
569.56	28.152
569.90	28.786
570.24	27.763
570.57	28.291
570.91	28.825
571.25	27.162
571.59	27.312
571.92	27.407
572.26	26.812
572.60	27.318
572.93	26.922
573.27	27.241
573.61	27.118
573.95	27.608
574.28	27.039
574.62	27.028
574.96	26.976
575.29	26.552
575.63	26.406
575.97	26.647
576.30	26.511
576.64	26.517
576.98	26.898
577.31	27.378
577.65	26.789
577.98	27.177
578.32	26.528
578.66	26.735
578.99	26.603
579.33	26.605
579.67	26.646
580.00	26.861
580.34	27.114
580.67	26.385
581.01	26.585
581.35	26.184
581.68	26.983
582.02	26.592
582.35	26.221
582.69	26.295
583.02	26.704
583.36	26.591
583.70	26.947
584.03	26.661
584.37	26.877
584.70	26.951
585.04	26.036
585.37	26.044
585.71	26.265
586.04	26.399
586.38	25.740
586.72	26.772
587.05	26.834
587.39	26.978
587.72	26.982
588.06	26.820
588.39	26.716
588.73	26.618
589.06	26.582
589.40	26.720
589.73	27.127
590.07	27.190
590.40	26.780
590.73	27.018
591.07	27.226
591.40	26.803
591.74	27.195
592.07	27.319
592.41	26.723
592.74	26.683
593.08	26.231
593.41	26.359
593.75	26.169
594.08	26.262
594.41	26.019
594.75	26.412
595.08	26.031
595.42	26.389
595.75	26.136
596.09	26.192
596.42	26.375
596.75	26.865
597.09	26.879
597.42	26.197
597.75	26.523
598.09	26.709
598.42	25.903
598.76	25.697
599.09	26.122
599.42	25.275
599.76	26.072
600.09	25.754
600.42	26.801
600.76	25.409
601.09	26.107
601.42	25.304
601.76	26.082
602.09	25.784
602.42	26.580
602.76	25.934
603.09	26.537
603.42	26.630
603.76	25.565
604.09	25.516
604.42	26.311
604.76	26.391
605.09	25.914
605.42	26.682
605.75	25.963
606.09	25.945
606.42	25.771
606.75	25.714
607.09	26.110
607.42	25.078
607.75	25.133
608.08	26.056
608.42	25.674
608.75	26.602
609.08	26.607
609.41	26.497
609.75	25.907
610.08	26.211
610.41	25.362
610.74	25.402
611.07	25.788
611.41	25.272
611.74	26.013
612.07	25.000
612.40	26.204
612.73	25.763
613.07	25.759
613.40	26.751
613.73	25.853
614.06	26.544
614.39	26.114
614.72	25.882
615.06	24.916
615.39	24.945
615.72	25.027
616.05	26.089
616.38	24.843
616.71	25.749
617.05	26.189
617.38	25.833
617.71	25.220
618.04	27.048
618.37	26.608
618.70	26.271
619.03	27.014
619.36	25.977
619.69	26.080
620.03	26.808
620.36	27.039
620.69	26.410
621.02	26.453
621.35	26.556
621.68	27.296
622.01	26.333
622.34	26.018
622.67	26.656
623.00	25.498
623.33	24.924
623.66	25.430
623.99	25.265
624.32	26.236
624.65	25.789
624.99	26.411
625.32	24.867
625.65	26.394
625.98	26.189
626.31	26.683
626.64	26.863
626.97	26.440
627.30	26.795
627.63	25.390
627.96	25.786
628.29	26.457
628.62	27.040
628.95	25.351
629.28	26.613
629.61	25.125
629.94	27.566
630.26	26.285
630.59	26.327
630.92	26.256
631.25	24.923
631.58	26.872
631.91	25.987
632.24	26.835
632.57	28.523
632.90	25.623
633.23	25.882
633.56	26.448
633.89	25.894
634.22	27.160
634.55	26.557
634.88	26.692
635.20	25.513
635.53	25.600
635.86	25.098
636.19	28.978
636.52	27.423
