SpectraSuite Data File
++++++++++++++++++++++++++++++++++++
Date: Fri May 15 17:26:58 PDT 2015
User: schluterlab
Dark Spectrum Present: Yes
Reference Spectrum Present: Yes
Number of Sampled Component Spectra: 1
Spectrometers: USB2E3373
Integration Time (usec): 3000 (USB2E3373)
Spectra Averaged: 3 (USB2E3373)
Boxcar Smoothing: 0 (USB2E3373)
Correct for Electrical Dark: No (USB2E3373)
Strobe/Lamp Enabled: No (USB2E3373)
Correct for Detector Non-linearity: No (USB2E3373)
Correct for Stray Light: No (USB2E3373)
Number of Pixels in Processed Spectrum: 2048
>>>>>Begin Processed Spectral Data<<<<<
178.53	0.000
178.91	0.000
179.29	150.000
179.67	-250.000
180.04	-0.000
180.42	150.000
180.80	-400.000
181.18	300.000
181.56	550.000
181.94	50.000
182.31	400.000
182.69	40.000
183.07	-400.000
183.45	-60.000
183.83	-16.667
184.20	54.545
184.58	44.444
184.96	-75.000
185.34	166.667
185.72	-100.000
186.09	69.231
186.47	-400.000
186.85	100.000
187.23	77.778
187.61	200.000
187.98	-233.333
188.36	133.333
188.74	66.667
189.12	17.647
189.49	72.222
189.87	0.000
190.25	64.286
190.63	500.000
191.00	66.667
191.38	-21.053
191.76	200.000
192.14	75.000
192.51	200.000
192.89	-22.222
193.27	-28.571
193.65	-133.333
194.02	200.000
194.40	40.000
194.78	-100.000
195.15	8.333
195.53	-87.500
195.91	-50.000
196.29	-150.000
196.66	161.538
197.04	-0.000
197.42	33.333
197.79	-333.333
198.17	-61.538
198.55	900.000
198.92	-166.667
199.30	-900.000
199.68	-60.000
200.05	133.333
200.43	0.000
200.81	-33.333
201.18	-333.333
201.56	1700.000
201.94	-200.000
202.31	-66.667
202.69	-220.000
203.07	200.000
203.44	1100.000
203.82	0.000
204.19	121.429
204.57	-566.667
204.95	100.000
205.32	-20.000
205.70	128.571
206.08	75.000
206.45	144.444
206.83	128.571
207.20	-100.000
207.58	1300.000
207.96	-233.333
208.33	0.000
208.71	300.000
209.08	-150.000
209.46	-300.000
209.84	-300.000
210.21	0.000
210.59	71.429
210.96	233.333
211.34	0.000
211.71	33.333
212.09	-28.571
212.46	-500.000
212.84	0.000
213.22	10.000
213.59	450.000
213.97	30.769
214.34	72.727
214.72	-83.333
215.09	250.000
215.47	7.692
215.84	54.545
216.22	266.667
216.59	-125.000
216.97	100.000
217.34	-50.000
217.72	-80.000
218.09	-37.500
218.47	125.000
218.84	-300.000
219.22	-22.222
219.59	-80.000
219.97	266.667
220.34	375.000
220.72	28.571
221.09	-100.000
221.47	50.000
221.84	-450.000
222.22	-900.000
222.59	36.364
222.97	16.667
223.34	66.667
223.72	-7.143
224.09	-9.524
224.46	7.143
224.84	233.333
225.21	10.000
225.59	6.667
225.96	-200.000
226.34	50.000
226.71	0.000
227.08	-16.667
227.46	50.000
227.83	100.000
228.21	55.556
228.58	54.545
228.95	25.000
229.33	80.000
229.70	25.000
230.08	-37.500
230.45	-157.143
230.82	85.714
231.20	-6.667
231.57	42.857
231.95	57.143
232.32	-40.000
232.69	71.429
233.07	-66.667
233.44	-80.000
233.81	0.000
234.19	11.111
234.56	-5.882
234.93	450.000
235.31	-300.000
235.68	-180.000
236.05	-146.154
236.43	-30.000
236.80	-35.294
237.17	-9.375
237.55	-25.000
237.92	-11.111
238.29	-27.778
238.67	6.667
239.04	-8.824
239.41	0.000
239.79	3.333
240.16	7.317
240.53	-10.526
240.91	-8.696
241.28	6.349
241.65	8.929
242.02	5.479
242.40	-10.000
242.77	0.000
243.14	-1.515
243.51	5.000
243.89	4.598
244.26	-6.897
244.63	4.762
245.00	2.062
245.38	8.247
245.75	-8.989
246.12	-8.621
246.49	0.826
246.87	3.846
247.24	-4.202
247.61	-13.158
247.98	-1.626
248.36	0.625
248.73	2.632
249.10	-1.299
249.47	0.633
249.84	-3.268
250.22	-1.765
250.59	1.961
250.96	6.103
251.33	-0.581
251.70	1.176
252.08	4.061
252.45	-3.960
252.82	-2.010
253.19	1.382
253.56	-5.140
253.94	1.351
254.31	4.783
254.68	0.877
255.05	1.575
255.42	-3.493
255.79	2.703
256.16	3.891
256.54	3.358
256.91	-1.901
257.28	-0.372
257.65	-3.371
258.02	-2.482
258.39	1.347
258.76	2.564
259.14	0.997
259.51	0.971
259.88	-2.749
260.25	0.000
260.62	0.347
260.99	0.000
261.36	-4.795
261.73	1.266
262.10	-1.824
262.47	-0.613
262.85	0.000
263.22	0.308
263.59	-1.246
263.96	1.242
264.33	0.909
264.70	-0.298
265.07	-2.381
265.44	0.567
265.81	-0.565
266.18	-1.639
266.55	1.799
266.92	2.850
267.29	2.089
267.66	-0.512
268.03	2.880
268.40	-2.350
268.77	5.080
269.14	1.199
269.51	2.314
269.88	-0.249
270.25	-1.020
270.62	-0.488
270.99	0.000
271.36	-3.423
271.73	0.939
272.10	-0.487
272.47	0.709
272.84	-0.495
273.21	2.088
273.58	1.446
273.95	1.373
274.32	0.000
274.69	0.226
275.06	-0.223
275.43	-0.454
275.80	2.428
276.17	0.000
276.54	-0.214
276.91	-1.535
277.28	0.218
277.65	1.446
278.02	-0.213
278.39	-1.313
278.76	-0.839
279.13	-2.490
279.50	0.840
279.87	-0.216
280.23	0.215
280.60	0.780
280.97	-0.404
281.34	0.000
281.71	2.053
282.08	-0.818
282.45	-0.587
282.82	-2.317
283.19	1.161
283.56	1.734
283.92	-1.139
284.29	-0.769
284.66	0.194
285.03	0.196
285.40	0.756
285.77	-0.176
286.14	0.181
286.51	-0.369
286.87	-1.280
287.24	0.184
287.61	-1.058
287.98	1.053
288.35	0.000
288.72	0.525
289.08	0.000
289.45	3.515
289.82	0.874
290.19	-0.853
290.56	0.343
290.93	-1.515
291.29	-0.462
291.66	2.520
292.03	-1.754
292.40	0.645
292.77	-0.319
293.13	-2.760
293.50	-1.214
293.87	-0.458
294.24	0.773
294.60	0.298
294.97	1.488
295.34	0.307
295.71	-1.043
296.08	-0.897
296.44	-2.134
296.81	-0.833
297.18	0.145
297.55	1.626
297.91	0.685
298.28	1.055
298.65	1.221
299.02	0.674
299.38	-1.778
299.75	0.966
300.12	0.262
300.48	0.395
300.85	0.127
301.22	-0.130
301.59	0.789
301.95	1.266
302.32	1.556
302.69	0.746
303.05	0.371
303.42	1.494
303.79	1.402
304.15	0.597
304.52	-1.308
304.89	0.468
305.25	0.484
305.62	-1.400
305.99	0.000
306.35	0.000
306.72	-0.450
307.09	0.456
307.45	0.574
307.82	-0.231
308.19	0.813
308.55	-0.218
308.92	1.416
309.29	-1.564
309.65	0.431
310.02	-0.110
310.38	-0.439
310.75	0.000
311.12	0.000
311.48	-0.424
311.85	0.628
312.22	0.000
312.58	0.531
312.95	-0.534
313.31	-0.207
313.68	0.838
314.05	0.000
314.41	-0.103
314.78	0.206
315.14	1.233
315.51	0.828
315.87	-0.615
316.24	1.820
316.61	1.673
316.97	2.083
317.34	0.293
317.70	1.147
318.07	0.577
318.43	1.078
318.80	1.042
319.16	1.172
319.53	2.089
319.89	1.870
320.26	1.316
320.62	2.106
320.99	1.148
321.35	1.953
321.72	2.388
322.08	2.316
322.45	1.827
322.81	2.259
323.18	1.079
323.54	1.062
323.91	2.726
324.27	2.539
324.64	4.026
325.00	5.109
325.37	5.142
325.73	4.352
326.10	3.906
326.46	4.215
326.83	4.374
327.19	5.405
327.56	7.211
327.92	6.602
328.29	5.804
328.65	6.132
329.01	7.261
329.38	8.018
329.74	6.893
330.11	8.619
330.47	8.442
330.84	7.885
331.20	11.312
331.56	9.907
331.93	11.324
332.29	12.007
332.66	11.855
333.02	11.896
333.38	12.007
333.75	14.469
334.11	13.429
334.48	14.053
334.84	14.011
335.20	15.554
335.57	14.506
335.93	15.447
336.29	14.365
336.66	15.531
337.02	14.126
337.38	15.556
337.75	15.727
338.11	15.690
338.47	15.967
338.84	15.065
339.20	16.088
339.56	16.881
339.93	17.816
340.29	16.514
340.65	17.025
341.02	17.110
341.38	16.460
341.74	16.343
342.11	16.378
342.47	17.705
342.83	16.609
343.20	16.376
343.56	16.435
343.92	17.626
344.28	17.079
344.65	16.580
345.01	17.113
345.37	16.484
345.73	16.234
346.10	16.566
346.46	18.839
346.82	16.858
347.19	16.293
347.55	16.708
347.91	16.909
348.27	16.572
348.63	16.184
349.00	15.176
349.36	16.376
349.72	17.579
350.08	16.230
350.45	17.239
350.81	16.113
351.17	16.287
351.53	16.653
351.89	16.185
352.26	16.240
352.62	17.419
352.98	16.305
353.34	16.586
353.70	17.799
354.07	15.726
354.43	15.773
354.79	17.258
355.15	16.905
355.51	17.168
355.87	16.667
356.24	15.498
356.60	15.764
356.96	17.143
357.32	16.773
357.68	16.497
358.04	16.801
358.40	16.479
358.77	17.145
359.13	17.694
359.49	16.487
359.85	17.005
360.21	16.667
360.57	16.603
360.93	17.776
361.29	15.861
361.66	17.790
362.02	17.500
362.38	17.517
362.74	17.638
363.10	17.908
363.46	17.124
363.82	17.731
364.18	16.753
364.54	17.574
364.90	16.487
365.26	17.031
365.62	18.905
365.98	17.082
366.35	17.553
366.71	17.960
367.07	18.070
367.43	17.182
367.79	16.961
368.15	17.588
368.51	17.626
368.87	16.368
369.23	17.040
369.59	17.566
369.95	18.035
370.31	18.931
370.67	17.687
371.03	17.550
371.39	18.308
371.75	18.242
372.11	18.260
372.47	19.157
372.83	17.530
373.19	18.260
373.55	18.123
373.91	19.150
374.27	18.498
374.63	19.167
374.99	18.652
375.35	19.220
375.71	19.441
376.07	18.188
376.42	20.136
376.78	19.866
377.14	19.770
377.50	18.858
377.86	20.482
378.22	19.336
378.58	20.000
378.94	19.660
379.30	19.588
379.66	20.439
380.02	20.172
380.38	20.268
380.74	19.629
381.09	20.982
381.45	20.550
381.81	20.049
382.17	19.987
382.53	20.487
382.89	20.402
383.25	20.597
383.61	21.890
383.97	21.651
384.32	20.888
384.68	21.300
385.04	21.507
385.40	21.220
385.76	21.509
386.12	21.345
386.48	22.031
386.83	21.306
387.19	22.039
387.55	21.518
387.91	22.372
388.27	21.551
388.62	21.838
388.98	21.793
389.34	22.861
389.70	22.436
390.06	21.020
390.42	22.280
390.77	22.237
391.13	22.636
391.49	23.092
391.85	22.287
392.20	22.724
392.56	22.505
392.92	22.842
393.28	22.111
393.64	21.321
393.99	24.263
394.35	22.201
394.71	22.989
395.07	21.245
395.42	22.344
395.78	22.410
396.14	21.942
396.50	22.067
396.85	23.117
397.21	22.118
397.57	22.571
397.92	22.528
398.28	22.874
398.64	22.169
399.00	23.138
399.35	22.122
399.71	23.205
400.07	22.551
400.42	23.011
400.78	22.535
401.14	22.142
401.49	21.680
401.85	22.669
402.21	22.651
402.57	21.750
402.92	21.706
403.28	22.368
403.63	21.816
403.99	21.173
404.35	22.486
404.70	21.726
405.06	21.387
405.42	22.996
405.77	20.976
406.13	22.526
406.49	21.729
406.84	22.494
407.20	22.336
407.55	20.992
407.91	22.059
408.27	21.797
408.62	22.338
408.98	21.503
409.34	22.429
409.69	21.512
410.05	21.490
410.40	22.407
410.76	22.799
411.11	22.375
411.47	23.077
411.83	21.469
412.18	22.136
412.54	21.973
412.89	20.813
413.25	22.262
413.60	21.988
413.96	21.963
414.31	23.171
414.67	22.707
415.03	21.372
415.38	21.540
415.74	22.410
416.09	22.861
416.45	22.620
416.80	21.745
417.16	22.790
417.51	22.585
417.87	22.425
418.22	22.733
418.58	22.475
418.93	22.508
419.29	21.703
419.64	21.257
420.00	23.929
420.35	22.269
420.71	23.208
421.06	22.284
421.42	22.536
421.77	23.179
422.12	22.645
422.48	22.306
422.83	21.578
423.19	23.025
423.54	22.928
423.90	22.968
424.25	22.905
424.61	23.439
424.96	22.300
425.31	24.841
425.67	23.885
426.02	24.205
426.38	23.168
426.73	24.395
427.09	24.114
427.44	23.647
427.79	22.982
428.15	23.726
428.50	23.380
428.85	22.727
429.21	23.260
429.56	23.774
429.92	23.729
430.27	23.459
430.62	23.366
430.98	22.824
431.33	24.395
431.68	24.333
432.04	23.421
432.39	23.731
432.74	23.632
433.10	25.460
433.45	24.134
433.80	23.099
434.16	23.324
434.51	24.946
434.86	25.029
435.22	24.734
435.57	24.641
435.92	25.329
436.28	24.747
436.63	25.043
436.98	23.696
437.34	25.166
437.69	24.508
438.04	25.185
438.39	24.252
438.75	24.529
439.10	25.241
439.45	25.380
439.81	24.465
440.16	25.416
440.51	25.493
440.86	26.163
441.22	25.792
441.57	25.110
441.92	25.708
442.27	26.441
442.63	26.071
442.98	25.790
443.33	25.487
443.68	25.411
444.03	26.031
444.39	26.119
444.74	26.756
445.09	26.615
445.44	26.553
445.79	27.540
446.15	25.661
446.50	25.402
446.85	26.355
447.20	26.590
447.55	27.065
447.91	25.719
448.26	27.205
448.61	27.001
448.96	26.449
449.31	26.069
449.66	28.223
450.02	26.298
450.37	26.675
450.72	26.117
451.07	26.456
451.42	27.528
451.77	26.763
452.12	26.734
452.47	26.916
452.83	27.150
453.18	26.818
453.53	27.370
453.88	27.505
454.23	27.843
454.58	28.841
454.93	27.835
455.28	27.175
455.63	28.084
455.98	27.901
456.34	27.842
456.69	27.192
457.04	27.221
457.39	27.217
457.74	27.267
458.09	26.427
458.44	26.799
458.79	26.443
459.14	27.460
459.49	27.821
459.84	27.750
460.19	26.699
460.54	27.689
460.89	27.330
461.24	26.708
461.59	27.910
461.94	26.604
462.29	28.287
462.64	28.970
462.99	27.624
463.34	27.677
463.69	27.091
464.04	27.724
464.39	27.714
464.74	27.730
465.09	27.137
465.44	27.813
465.79	27.664
466.14	27.765
466.49	27.545
466.84	28.138
467.19	27.847
467.54	27.267
467.89	27.606
468.24	27.251
468.59	28.381
468.94	27.937
469.29	28.590
469.64	27.751
469.99	28.381
470.34	28.396
470.68	27.890
471.03	28.167
471.38	27.960
471.73	28.361
472.08	27.273
472.43	27.651
472.78	27.142
473.13	28.435
473.48	27.883
473.83	27.646
474.17	29.145
474.52	28.207
474.87	27.758
475.22	29.286
475.57	27.724
475.92	29.073
476.27	29.045
476.61	28.530
476.96	27.384
477.31	29.151
477.66	27.303
478.01	28.411
478.36	28.050
478.70	29.473
479.05	28.956
479.40	28.405
479.75	27.789
480.10	28.571
480.45	28.350
480.79	28.348
481.14	28.996
481.49	28.473
481.84	27.799
482.19	28.064
482.53	28.969
482.88	28.544
483.23	27.687
483.58	27.830
483.92	27.880
484.27	28.031
484.62	27.163
484.97	27.612
485.31	27.890
485.66	27.431
486.01	27.539
486.36	27.224
486.70	27.820
487.05	27.764
487.40	27.921
487.75	27.465
488.09	27.627
488.44	27.889
488.79	28.539
489.13	28.405
489.48	28.431
489.83	28.206
490.17	27.371
490.52	27.852
490.87	26.701
491.22	28.319
491.56	28.416
491.91	27.486
492.26	28.245
492.60	28.119
492.95	27.890
493.30	27.797
493.64	28.438
493.99	28.164
494.34	27.718
494.68	28.619
495.03	27.251
495.37	28.018
495.72	28.723
496.07	29.366
496.41	27.877
496.76	28.282
497.11	26.362
497.45	28.735
497.80	28.809
498.14	27.571
498.49	28.136
498.84	27.645
499.18	28.564
499.53	28.869
499.87	27.286
500.22	27.596
500.56	27.988
500.91	28.514
501.26	28.522
501.60	28.037
501.95	27.171
502.29	27.990
502.64	28.185
502.98	28.811
503.33	27.522
503.67	27.807
504.02	29.228
504.36	28.649
504.71	28.030
505.06	28.133
505.40	27.716
505.75	28.505
506.09	27.015
506.44	28.645
506.78	28.316
507.13	28.128
507.47	27.415
507.82	28.632
508.16	28.209
508.51	28.594
508.85	28.310
509.19	27.621
509.54	28.311
509.88	27.832
510.23	28.133
510.57	29.770
510.92	27.559
511.26	28.805
511.61	28.658
511.95	28.767
512.30	29.324
512.64	29.215
512.98	28.411
513.33	28.707
513.67	29.562
514.02	30.034
514.36	30.000
514.70	29.312
515.05	30.082
515.39	29.988
515.74	30.299
516.08	28.751
516.42	30.153
516.77	29.842
517.11	29.733
517.46	30.042
517.80	29.559
518.14	29.577
518.49	29.808
518.83	29.405
519.17	28.623
519.52	29.781
519.86	28.271
520.20	29.405
520.55	30.081
520.89	29.046
521.23	29.892
521.58	30.473
521.92	30.449
522.26	30.449
522.61	29.610
522.95	30.861
523.29	30.114
523.64	30.686
523.98	30.590
524.32	29.188
524.66	30.410
525.01	29.870
525.35	30.979
525.69	29.697
526.04	30.093
526.38	31.842
526.72	28.777
527.06	29.507
527.41	30.937
527.75	29.424
528.09	30.033
528.43	31.668
528.78	29.373
529.12	30.581
529.46	30.669
529.80	29.639
530.15	32.871
530.49	30.438
530.83	30.917
531.17	29.819
531.51	32.421
531.86	30.387
532.20	30.411
532.54	30.293
532.88	31.280
533.22	29.973
533.57	30.996
533.91	30.287
534.25	31.120
534.59	29.891
534.93	29.767
535.27	29.505
535.62	29.812
535.96	30.267
536.30	31.201
536.64	31.633
536.98	30.105
537.32	31.294
537.66	30.715
538.01	31.538
538.35	30.721
538.69	30.692
539.03	30.485
539.37	30.081
539.71	31.220
540.05	30.075
540.39	30.886
540.73	31.172
541.07	31.285
541.42	30.376
541.76	31.246
542.10	30.764
542.44	30.716
542.78	29.456
543.12	31.113
543.46	31.363
543.80	31.783
544.14	29.706
544.48	29.913
544.82	31.511
545.16	31.626
545.50	30.708
545.84	31.161
546.18	31.560
546.52	30.497
546.86	31.344
547.20	30.544
547.54	29.187
547.88	30.503
548.22	29.520
548.56	30.211
548.90	30.795
549.24	29.683
549.58	29.196
549.92	30.093
550.26	29.890
550.60	31.078
550.94	31.143
551.28	30.989
551.62	31.154
551.96	30.827
552.30	30.921
552.64	30.748
552.98	30.731
553.32	31.170
553.66	30.189
554.00	31.314
554.34	30.207
554.68	30.236
555.02	30.506
555.36	31.264
555.69	29.597
556.03	29.907
556.37	30.676
556.71	30.686
557.05	30.723
557.39	29.591
557.73	31.109
558.07	30.769
558.41	30.475
558.75	30.631
559.08	30.733
559.42	30.873
559.76	30.905
560.10	30.122
560.44	30.454
560.78	31.538
561.12	30.959
561.45	31.131
561.79	30.602
562.13	31.512
562.47	30.719
562.81	30.187
563.15	31.100
563.48	31.966
563.82	31.709
564.16	31.128
564.50	30.608
564.84	31.191
565.17	30.584
565.51	32.104
565.85	31.070
566.19	30.968
566.52	32.373
566.86	31.941
567.20	30.448
567.54	31.387
567.88	30.990
568.21	31.222
568.55	31.087
568.89	30.903
569.23	31.777
569.56	31.743
569.90	31.384
570.24	31.150
570.57	30.909
570.91	31.718
571.25	30.385
571.59	29.897
571.92	29.630
572.26	30.254
572.60	29.984
572.93	30.405
573.27	29.937
573.61	29.982
573.95	30.366
574.28	29.952
574.62	29.392
574.96	29.594
575.29	29.657
575.63	29.464
575.97	29.547
576.30	29.435
576.64	29.377
576.98	29.627
577.31	30.204
577.65	30.206
577.98	30.262
578.32	29.677
578.66	29.443
578.99	29.691
579.33	29.028
579.67	29.220
580.00	29.747
580.34	29.950
580.67	29.228
581.01	29.923
581.35	29.931
581.68	29.817
582.02	29.932
582.35	30.121
582.69	29.821
583.02	29.865
583.36	29.737
583.70	30.633
584.03	30.609
584.37	30.463
584.70	29.890
585.04	29.637
585.37	29.926
585.71	29.993
586.04	29.728
586.38	29.901
586.72	30.789
587.05	30.474
587.39	30.584
587.72	30.809
588.06	30.086
588.39	30.333
588.73	30.311
589.06	31.148
589.40	30.729
589.73	31.325
590.07	30.778
590.40	31.037
590.73	30.601
591.07	30.958
591.40	30.766
591.74	32.081
592.07	31.772
592.41	31.581
592.74	30.546
593.08	30.108
593.41	30.906
593.75	31.207
594.08	30.759
594.41	31.259
594.75	30.992
595.08	30.420
595.42	31.321
595.75	31.581
596.09	30.844
596.42	30.963
596.75	31.661
597.09	31.116
597.42	31.527
597.75	31.929
598.09	30.330
598.42	30.551
598.76	31.403
599.09	30.929
599.42	30.125
599.76	30.775
600.09	30.468
600.42	30.743
600.76	31.055
601.09	30.458
601.42	30.161
601.76	30.925
602.09	31.312
602.42	31.297
602.76	30.985
603.09	31.395
603.42	31.982
603.76	30.766
604.09	30.701
604.42	31.472
604.76	32.221
605.09	31.536
605.42	31.061
605.75	31.349
606.09	31.253
606.42	30.400
606.75	31.082
607.09	31.824
607.42	30.749
607.75	30.728
608.08	30.952
608.42	30.836
608.75	31.518
609.08	31.938
609.41	31.218
609.75	32.611
610.08	32.052
610.41	31.014
610.74	31.399
611.07	31.266
611.41	32.434
611.74	31.876
612.07	31.906
612.40	32.330
612.73	32.599
613.07	31.496
613.40	31.783
613.73	31.953
614.06	32.276
614.39	30.964
614.72	31.597
615.06	32.291
615.39	31.987
615.72	31.001
616.05	30.950
616.38	30.541
616.71	31.193
617.05	32.366
617.38	32.684
617.71	32.013
618.04	32.635
618.37	33.039
618.70	33.069
619.03	32.708
619.36	31.042
619.69	32.752
620.03	34.259
620.36	32.976
620.69	33.119
621.02	31.575
621.35	33.693
621.68	33.418
622.01	33.750
622.34	33.360
622.67	33.123
623.00	32.542
623.33	32.393
623.66	31.937
623.99	33.585
624.32	32.471
624.65	32.105
624.99	33.258
625.32	32.070
625.65	33.621
625.98	33.441
626.31	32.253
626.64	33.709
626.97	32.635
627.30	34.326
627.63	34.055
627.96	32.884
628.29	32.840
628.62	33.727
628.95	33.467
629.28	34.778
629.61	33.300
629.94	35.093
630.26	33.103
630.59	33.403
630.92	34.769
631.25	32.718
631.58	32.269
631.91	32.127
632.24	33.257
632.57	35.455
632.90	34.401
633.23	33.412
633.56	33.627
633.89	34.402
634.22	34.938
634.55	33.418
634.88	32.695
635.20	35.256
635.53	35.333
635.86	32.120
636.19	35.188
636.52	34.949
636.85	32.506
637.18	34.591
637.51	34.591
