SpectraSuite Data File
++++++++++++++++++++++++++++++++++++
Date: Fri May 15 20:07:29 PDT 2015
User: schluterlab
Dark Spectrum Present: Yes
Reference Spectrum Present: Yes
Number of Sampled Component Spectra: 1
Spectrometers: USB2E3373
Integration Time (usec): 3000 (USB2E3373)
Spectra Averaged: 3 (USB2E3373)
Boxcar Smoothing: 0 (USB2E3373)
Correct for Electrical Dark: No (USB2E3373)
Strobe/Lamp Enabled: No (USB2E3373)
Correct for Detector Non-linearity: No (USB2E3373)
Correct for Stray Light: No (USB2E3373)
Number of Pixels in Processed Spectrum: 2048
>>>>>Begin Processed Spectral Data<<<<<
178.53	0.000
178.91	0.000
179.29	37.500
179.67	-500.000
180.04	-57.143
180.42	100.000
180.80	0.000
181.18	66.667
181.56	-150.000
181.94	-250.000
182.31	200.000
182.69	60.000
183.07	-33.333
183.45	-180.000
183.83	300.000
184.20	-45.455
184.58	122.222
184.96	-100.000
185.34	-66.667
185.72	-500.000
186.09	100.000
186.47	-200.000
186.85	83.333
187.23	77.778
187.61	700.000
187.98	-66.667
188.36	88.889
188.74	-200.000
189.12	11.765
189.49	5.556
189.87	0.000
190.25	28.571
190.63	250.000
191.00	-200.000
191.38	47.368
191.76	-150.000
192.14	-100.000
192.51	-200.000
192.89	-22.222
193.27	-71.429
193.65	216.667
194.02	45.455
194.40	-20.000
194.78	-112.500
195.15	0.000
195.53	37.500
195.91	375.000
196.29	25.000
196.66	123.077
197.04	-28.571
197.42	11.111
197.79	-400.000
198.17	-46.154
198.55	1000.000
198.92	-100.000
199.30	500.000
199.68	-80.000
200.05	-133.333
200.43	0.000
200.81	100.000
201.18	-66.667
201.56	900.000
201.94	0.000
202.31	-66.667
202.69	-240.000
203.07	75.000
203.44	-500.000
203.82	0.000
204.19	28.571
204.57	0.000
204.95	62.500
205.32	80.000
205.70	0.000
206.08	-150.000
206.45	133.333
206.83	85.714
207.20	0.000
207.58	-200.000
207.96	-33.333
208.33	-20.000
208.71	-125.000
209.08	-266.667
209.46	-300.000
209.84	0.000
210.21	-900.000
210.59	28.571
210.96	66.667
211.34	-175.000
211.71	6.667
212.09	-42.857
212.46	-800.000
212.84	0.000
213.22	20.000
213.59	300.000
213.97	30.769
214.34	54.545
214.72	-116.667
215.09	325.000
215.47	15.385
215.84	-27.273
216.22	-33.333
216.59	-75.000
216.97	100.000
217.34	50.000
217.72	-260.000
218.09	-50.000
218.47	137.500
218.84	-500.000
219.22	-11.111
219.59	0.000
219.97	-66.667
220.34	100.000
220.72	-85.714
221.09	125.000
221.47	-100.000
221.84	-150.000
222.22	-500.000
222.59	63.636
222.97	41.667
223.34	-33.333
223.72	28.571
224.09	38.095
224.46	42.857
224.84	200.000
225.21	0.000
225.59	40.000
225.96	250.000
226.34	200.000
226.71	0.000
227.08	116.667
227.46	125.000
227.83	-550.000
228.21	-22.222
228.58	163.636
228.95	75.000
229.33	100.000
229.70	37.500
230.08	-12.500
230.45	28.571
230.82	0.000
231.20	6.667
231.57	121.429
231.95	14.286
232.32	-60.000
232.69	92.857
233.07	66.667
233.44	-60.000
233.81	110.000
234.19	144.444
234.56	29.412
234.93	350.000
235.31	150.000
235.68	80.000
236.05	0.000
236.43	-20.000
236.80	123.529
237.17	34.375
237.55	45.000
237.92	44.444
238.29	27.778
238.67	73.333
239.04	29.412
239.41	21.951
239.79	53.333
240.16	26.829
240.53	36.842
240.91	34.783
241.28	17.460
241.65	42.857
242.02	31.507
242.40	43.333
242.77	52.542
243.14	39.394
243.51	32.500
243.89	57.471
244.26	35.632
244.63	40.476
245.00	41.237
245.38	45.361
245.75	31.461
246.12	37.931
246.49	29.752
246.87	50.000
247.24	36.975
247.61	30.702
247.98	46.341
248.36	35.000
248.73	35.526
249.10	38.961
249.47	29.747
249.84	38.562
250.22	34.118
250.59	41.176
250.96	37.559
251.33	35.465
251.70	40.588
252.08	39.594
252.45	42.574
252.82	37.186
253.19	39.631
253.56	35.514
253.94	37.387
254.31	40.870
254.68	42.982
255.05	37.402
255.42	39.301
255.79	37.066
256.16	45.136
256.54	39.552
256.91	36.502
257.28	37.546
257.65	32.959
258.02	39.007
258.39	44.108
258.76	38.462
259.14	39.535
259.51	37.217
259.88	35.739
260.25	38.235
260.62	43.056
260.99	34.915
261.36	40.411
261.73	39.557
262.10	39.514
262.47	36.810
262.85	37.618
263.22	38.154
263.59	42.679
263.96	42.857
264.33	38.485
264.70	36.905
265.07	38.690
265.44	37.677
265.81	40.678
266.18	39.071
266.55	41.388
266.92	36.788
267.29	39.164
267.66	38.875
268.03	39.267
268.40	39.426
268.77	41.711
269.14	37.170
269.51	38.817
269.88	39.651
270.25	38.520
270.62	36.341
270.99	37.340
271.36	33.985
271.73	38.263
272.10	39.173
272.47	39.243
272.84	37.376
273.21	34.803
273.58	41.687
273.95	37.529
274.32	36.028
274.69	34.842
275.06	37.500
275.43	38.095
275.80	38.190
276.17	36.092
276.54	35.974
276.91	36.623
277.28	36.463
277.65	36.983
278.02	35.319
278.39	35.667
278.76	35.849
279.13	36.307
279.50	36.975
279.87	36.933
280.23	35.054
280.60	35.088
280.97	35.556
281.34	32.885
281.71	38.193
282.08	33.742
282.45	35.616
282.82	35.521
283.19	35.977
283.56	35.067
283.92	33.776
284.29	35.000
284.66	32.946
285.03	33.792
285.40	36.106
285.77	31.459
286.14	33.394
286.51	37.638
286.87	33.821
287.24	36.096
287.61	34.568
287.98	35.439
288.35	35.529
288.72	35.201
289.08	30.903
289.45	32.337
289.82	31.469
290.19	32.253
290.56	32.247
290.93	30.303
291.29	31.433
291.66	32.913
292.03	31.419
292.40	30.323
292.77	30.622
293.13	28.247
293.50	27.618
293.87	30.534
294.24	30.294
294.60	29.806
294.97	27.679
295.34	28.374
295.71	28.614
296.08	29.596
296.44	28.023
296.81	28.750
297.18	25.942
297.55	28.726
297.91	26.438
298.28	29.683
298.65	27.137
299.02	26.685
299.38	25.855
299.75	27.448
300.12	24.738
300.48	27.273
300.85	26.489
301.22	26.623
301.59	26.974
301.95	26.203
302.32	25.811
302.69	26.617
303.05	25.371
303.42	26.152
303.79	27.453
304.15	26.523
304.52	24.138
304.89	24.327
305.25	26.150
305.62	25.671
305.99	24.444
306.35	25.318
306.72	25.872
307.09	25.314
307.45	25.373
307.82	25.579
308.19	26.597
308.55	24.646
308.92	27.342
309.29	25.698
309.65	25.727
310.02	27.283
310.38	26.015
310.75	26.667
311.12	26.911
311.48	25.769
311.85	27.120
312.22	27.426
312.58	28.662
312.95	26.254
313.31	28.468
313.68	27.958
314.05	28.367
314.41	29.691
314.78	28.557
315.14	30.524
315.51	31.159
315.87	31.557
316.24	32.457
316.61	31.693
316.97	32.143
317.34	32.324
317.70	32.696
318.07	32.981
318.43	34.412
318.80	36.080
319.16	36.426
319.53	35.992
319.89	37.500
320.26	38.563
320.62	39.719
320.99	39.353
321.35	41.932
321.72	43.821
322.08	41.793
322.45	44.061
322.81	43.418
323.18	43.572
323.54	46.236
323.91	48.393
324.27	49.023
324.64	51.124
325.00	51.460
325.37	54.913
325.73	53.581
326.10	57.856
326.46	57.489
326.83	58.355
327.19	60.331
327.56	61.772
327.92	64.261
328.29	64.821
328.65	66.415
329.01	67.004
329.38	67.742
329.74	67.517
330.11	70.992
330.47	69.944
330.84	71.058
331.20	75.095
331.56	72.870
331.93	73.973
332.29	74.885
332.66	73.032
333.02	74.349
333.38	74.244
333.75	76.740
334.11	75.291
334.48	77.969
334.84	77.473
335.20	78.225
335.57	77.516
335.93	79.313
336.29	80.755
336.66	80.200
337.02	77.788
337.38	77.963
337.75	80.273
338.11	80.703
338.47	81.204
338.84	81.331
339.20	80.073
339.56	81.651
339.93	81.200
340.29	82.661
340.65	82.348
341.02	81.649
341.38	79.558
341.74	80.124
342.11	79.636
342.47	81.940
342.83	81.488
343.20	80.314
343.56	82.609
343.92	82.197
344.28	82.323
344.65	83.247
345.01	83.146
345.37	80.067
345.73	80.753
346.10	82.312
346.46	82.338
346.82	80.687
347.19	81.214
347.55	83.960
347.91	80.825
348.27	80.922
348.63	83.731
349.00	81.378
349.36	82.377
349.72	83.665
350.08	83.525
350.45	81.165
350.81	82.558
351.17	83.062
351.53	85.551
351.89	84.310
352.26	81.920
352.62	82.823
352.98	82.811
353.34	82.850
353.70	83.333
354.07	82.823
354.43	82.866
354.79	85.714
355.15	83.175
355.51	82.516
355.87	84.223
356.24	85.155
356.60	85.125
356.96	84.286
357.32	84.026
357.68	84.363
358.04	84.087
358.40	84.727
358.77	85.327
359.13	84.307
359.49	83.128
359.85	85.179
360.21	84.609
360.57	83.627
360.93	85.250
361.29	84.592
361.66	85.815
362.02	87.045
362.38	86.062
362.74	87.964
363.10	85.929
363.46	87.102
363.82	87.528
364.18	85.830
364.54	85.882
364.90	85.591
365.26	85.881
365.62	89.562
365.98	87.170
366.35	89.148
366.71	89.579
367.07	87.373
367.43	86.341
367.79	86.290
368.15	89.017
368.51	89.439
368.87	90.165
369.23	87.509
369.59	89.504
369.95	89.370
370.31	89.740
370.67	90.746
371.03	87.155
371.39	88.621
371.75	89.890
372.11	86.234
372.47	90.163
372.83	88.502
373.19	87.019
373.55	88.303
373.91	89.201
374.27	89.440
374.63	90.093
374.99	88.582
375.35	90.669
375.71	92.378
376.07	91.854
376.42	91.429
376.78	90.134
377.14	90.657
377.50	91.633
377.86	92.303
378.22	90.045
378.58	92.692
378.94	89.918
379.30	92.389
379.66	93.918
380.02	91.048
380.38	92.818
380.74	91.801
381.09	93.865
381.45	93.639
381.81	92.042
382.17	93.020
382.53	93.379
382.89	95.041
383.25	94.897
383.61	93.476
383.97	94.921
384.32	93.308
384.68	93.932
385.04	91.850
385.40	92.782
385.76	95.786
386.12	94.114
386.48	95.338
386.83	93.786
387.19	93.590
387.55	94.856
387.91	93.765
388.27	93.834
388.62	96.790
388.98	93.738
389.34	94.004
389.70	94.904
390.06	92.826
390.42	93.070
390.77	95.749
391.13	93.947
391.49	95.990
391.85	96.491
392.20	93.723
392.56	95.931
392.92	95.244
393.28	94.811
393.64	93.574
393.99	96.803
394.35	97.027
394.71	94.508
395.07	93.777
395.42	93.625
395.78	94.072
396.14	93.821
396.50	94.864
396.85	94.591
397.21	93.922
397.57	94.107
397.92	93.829
398.28	95.920
398.64	92.892
399.00	94.187
399.35	93.510
399.71	92.476
400.07	95.828
400.42	93.635
400.78	95.346
401.14	93.285
401.49	94.282
401.85	92.017
402.21	94.337
402.57	93.625
402.92	91.092
403.28	93.358
403.63	95.586
403.99	92.730
404.35	93.941
404.70	90.536
405.06	91.363
405.42	92.542
405.77	90.703
406.13	93.655
406.49	91.474
406.84	93.582
407.20	92.113
407.55	91.436
407.91	90.709
408.27	90.695
408.62	90.338
408.98	89.834
409.34	90.768
409.69	91.150
410.05	90.209
410.40	90.802
410.76	91.496
411.11	92.562
411.47	90.861
411.83	90.584
412.18	92.407
412.54	89.263
412.89	89.532
413.25	91.396
413.60	90.248
413.96	88.712
414.31	90.671
414.67	88.903
415.03	88.948
415.38	89.556
415.74	91.270
416.09	90.790
416.45	90.142
416.80	89.822
417.16	91.160
417.51	89.740
417.87	89.179
418.22	90.997
418.58	90.635
418.93	91.473
419.29	90.077
419.64	92.223
420.00	93.010
420.35	90.567
420.71	92.163
421.06	90.731
421.42	91.406
421.77	92.601
422.12	91.771
422.48	90.633
422.83	91.415
423.19	90.350
423.54	91.064
423.90	90.813
424.25	91.447
424.61	92.411
424.96	91.347
425.31	94.223
425.67	93.251
426.02	93.993
426.38	94.991
426.73	93.220
427.09	93.544
427.44	92.647
427.79	93.518
428.15	92.658
428.50	94.488
428.85	93.489
429.21	94.680
429.56	94.609
429.92	94.658
430.27	92.932
430.62	92.734
430.98	94.958
431.33	94.953
431.68	93.407
432.04	94.522
432.39	93.953
432.74	92.423
433.10	93.793
433.45	94.146
433.80	96.518
434.16	94.737
434.51	94.140
434.86	94.774
435.22	95.738
435.57	97.255
435.92	95.030
436.28	94.395
436.63	95.779
436.98	92.758
437.34	95.281
437.69	97.197
438.04	94.815
438.39	94.075
438.75	98.361
439.10	95.076
439.45	96.348
439.81	96.942
440.16	97.565
440.51	94.985
440.86	98.912
441.22	95.701
441.57	98.068
441.92	98.531
442.27	99.169
442.63	97.002
442.98	96.324
443.33	94.880
443.68	97.082
444.03	96.920
444.39	96.557
444.74	98.161
445.09	98.608
445.44	96.923
445.79	100.103
446.15	96.200
446.50	96.284
446.85	98.300
447.20	96.403
447.55	96.987
447.91	96.560
448.26	98.349
448.61	95.797
448.96	97.361
449.31	97.283
449.66	97.677
450.02	98.060
450.37	97.214
450.72	97.365
451.07	98.291
451.42	97.253
451.77	97.770
452.12	95.754
452.47	96.137
452.83	96.231
453.18	97.217
453.53	97.598
453.88	97.389
454.23	96.189
454.58	98.174
454.93	96.070
455.28	96.254
455.63	96.714
455.98	97.354
456.34	95.849
456.69	95.680
457.04	96.660
457.39	97.145
457.74	96.735
458.09	95.821
458.44	97.191
458.79	98.711
459.14	98.055
459.49	98.328
459.84	97.236
460.19	96.784
460.54	99.267
460.89	98.409
461.24	97.391
461.59	97.268
461.94	96.038
462.29	97.587
462.64	97.209
462.99	95.599
463.34	97.218
463.69	96.203
464.04	97.397
464.39	96.483
464.74	95.767
465.09	96.881
465.44	98.269
465.79	95.181
466.14	98.290
466.49	97.355
466.84	97.383
467.19	96.809
467.54	95.083
467.89	97.979
468.24	95.255
468.59	97.270
468.94	94.286
469.29	97.902
469.64	96.514
469.99	97.267
470.34	94.676
470.68	97.465
471.03	95.683
471.38	97.290
471.73	96.569
472.08	93.894
472.43	97.047
472.78	94.037
473.13	97.347
473.48	96.287
473.83	95.455
474.17	96.632
474.52	95.533
474.87	95.758
475.22	95.973
475.57	96.838
475.92	96.270
476.27	96.857
476.61	97.801
476.96	94.534
477.31	94.105
477.66	94.270
478.01	95.957
478.36	95.643
478.70	98.532
479.05	96.319
479.40	96.608
479.75	96.403
480.10	94.163
480.45	97.050
480.79	98.540
481.14	97.951
481.49	95.665
481.84	98.600
482.19	95.884
482.53	96.787
482.88	94.272
483.23	94.098
483.58	95.660
483.92	96.515
484.27	94.394
484.62	95.249
484.97	96.932
485.31	97.363
485.66	99.033
486.01	101.277
486.36	101.586
486.70	100.468
487.05	99.062
487.40	99.147
487.75	95.465
488.09	93.758
488.44	93.191
488.79	93.799
489.13	94.752
489.48	94.143
489.83	93.229
490.17	93.528
490.52	95.012
490.87	93.151
491.22	95.368
491.56	93.975
491.91	93.547
492.26	94.944
492.60	93.618
492.95	96.852
493.30	93.258
493.64	96.169
493.99	94.541
494.34	94.806
494.68	93.619
495.03	93.187
495.37	94.161
495.72	93.034
496.07	96.293
496.41	95.283
496.76	95.164
497.11	94.131
497.45	94.320
497.80	95.106
498.14	92.896
498.49	94.413
498.84	93.563
499.18	96.386
499.53	93.700
499.87	93.239
500.22	94.214
500.56	95.562
500.91	94.177
501.26	94.810
501.60	96.114
501.95	95.245
502.29	95.061
502.64	95.463
502.98	95.757
503.33	92.988
503.67	94.217
504.02	94.673
504.36	95.002
504.71	93.586
505.06	93.206
505.40	93.452
505.75	94.485
506.09	92.347
506.44	93.789
506.78	95.051
507.13	94.105
507.47	92.428
507.82	93.536
508.16	92.763
508.51	94.334
508.85	94.349
509.19	95.210
509.54	92.922
509.88	93.959
510.23	93.760
510.57	92.785
510.92	92.697
511.26	93.562
511.61	93.839
511.95	92.055
512.30	92.849
512.64	92.710
512.98	94.161
513.33	93.844
513.67	93.405
514.02	94.394
514.36	92.629
514.70	93.124
515.05	92.656
515.39	91.204
515.74	95.030
516.08	93.604
516.42	94.287
516.77	93.856
517.11	94.481
517.46	91.741
517.80	93.027
518.14	93.999
518.49	91.887
518.83	91.920
519.17	91.267
519.52	91.415
519.86	92.197
520.20	92.041
520.55	92.120
520.89	92.409
521.23	90.754
521.58	91.987
521.92	91.154
522.26	91.217
522.61	91.883
522.95	92.119
523.29	91.741
523.64	91.296
523.98	93.649
524.32	90.786
524.66	92.382
525.01	92.468
525.35	91.445
525.69	91.987
526.04	90.807
526.38	92.931
526.72	89.863
527.06	89.235
527.41	91.359
527.75	91.220
528.09	89.435
528.43	91.357
528.78	90.957
529.12	92.710
529.46	93.242
529.80	91.197
530.15	92.079
530.49	93.805
530.83	92.066
531.17	89.590
531.51	91.724
531.86	90.619
532.20	90.675
532.54	91.150
532.88	92.266
533.22	93.145
533.57	91.284
533.91	92.428
534.25	94.531
534.59	92.688
534.93	90.875
535.27	91.815
535.62	93.130
535.96	91.650
536.30	90.435
536.64	91.454
536.98	90.035
537.32	89.972
537.66	90.393
538.01	91.748
538.35	92.510
538.69	89.614
539.03	91.388
539.37	90.579
539.71	91.343
540.05	89.749
540.39	91.690
540.73	91.841
541.07	91.575
541.42	91.062
541.76	93.255
542.10	93.118
542.44	91.869
542.78	89.883
543.12	91.896
543.46	90.890
543.80	93.269
544.14	89.653
544.48	92.338
544.82	92.686
545.16	92.145
545.50	89.920
545.84	92.918
546.18	92.199
546.52	90.195
546.86	91.229
547.20	91.488
547.54	90.106
547.88	92.595
548.22	91.782
548.56	91.953
548.90	91.779
549.24	90.909
549.58	89.281
549.92	90.422
550.26	91.136
550.60	90.260
550.94	91.412
551.28	91.267
551.62	92.462
551.96	92.481
552.30	94.371
552.64	91.890
552.98	90.577
553.32	90.870
553.66	91.582
554.00	92.555
554.34	92.688
554.68	90.708
555.02	92.857
555.36	93.493
555.69	91.429
556.03	92.434
556.37	92.171
556.71	92.202
557.05	93.214
557.39	90.260
557.73	91.004
558.07	92.308
558.41	92.496
558.75	92.595
559.08	91.174
559.42	91.587
559.76	91.753
560.10	90.367
560.44	92.703
560.78	92.028
561.12	94.288
561.45	94.940
561.79	95.098
562.13	94.109
562.47	94.029
562.81	93.372
563.15	90.409
563.48	92.433
563.82	93.548
564.16	93.245
564.50	93.784
564.84	92.570
565.17	93.964
565.51	94.467
565.85	94.307
566.19	92.772
566.52	93.968
566.86	94.987
567.20	94.645
567.54	97.263
567.88	98.125
568.21	97.172
568.55	97.283
568.89	97.895
569.23	98.700
569.56	98.862
569.90	101.746
570.24	99.553
570.57	100.327
570.91	101.534
571.25	100.230
571.59	100.156
571.92	97.719
572.26	99.789
572.60	98.419
572.93	97.866
573.27	98.119
573.61	99.582
573.95	100.000
574.28	100.079
574.62	99.669
574.96	98.828
575.29	99.268
575.63	96.813
575.97	97.886
576.30	98.201
576.64	98.596
576.98	99.331
577.31	99.361
577.65	100.665
577.98	100.951
578.32	101.356
578.66	99.398
578.99	97.730
579.33	98.276
579.67	97.376
580.00	98.278
580.34	98.781
580.67	98.912
581.01	99.400
581.35	100.560
581.68	101.771
582.02	102.808
582.35	101.838
582.69	101.286
583.02	100.427
583.36	100.426
583.70	99.143
584.03	100.083
584.37	99.718
584.70	98.874
585.04	99.275
585.37	99.803
585.71	101.876
586.04	100.883
586.38	100.080
586.72	100.832
587.05	101.704
587.39	101.985
587.72	102.898
588.06	101.578
588.39	100.370
588.73	100.672
589.06	101.598
589.40	98.756
589.73	99.927
590.07	99.849
590.40	100.503
590.73	101.194
591.07	100.763
591.40	99.510
591.74	100.543
592.07	99.675
592.41	99.779
592.74	101.832
593.08	101.467
593.41	103.361
593.75	101.963
594.08	98.764
594.41	100.364
594.75	100.992
595.08	101.930
595.42	101.104
595.75	102.140
596.09	99.570
596.42	99.959
596.75	99.911
597.09	98.633
597.42	99.639
597.75	101.283
598.09	98.144
598.42	97.292
598.76	102.274
599.09	101.082
599.42	100.606
599.76	100.339
600.09	101.433
600.42	100.607
600.76	99.257
601.09	100.954
601.42	99.099
601.76	100.397
602.09	100.908
602.42	100.674
602.76	99.788
603.09	101.121
603.42	104.933
603.76	102.016
604.09	100.608
604.42	101.227
604.76	101.869
605.09	100.366
605.42	100.181
605.75	99.475
606.09	101.614
606.42	100.167
606.75	99.697
607.09	99.780
607.42	99.823
607.75	99.822
608.08	98.697
608.42	96.939
608.75	101.012
609.08	100.897
609.41	98.629
609.75	99.345
610.08	100.150
610.41	100.193
610.74	100.000
611.07	101.085
611.41	99.689
611.74	100.373
612.07	99.090
612.40	99.726
612.73	99.435
613.07	98.313
613.40	99.781
613.73	100.448
614.06	100.445
614.39	99.492
614.72	97.759
615.06	98.324
615.39	97.489
615.72	98.062
616.05	99.385
616.38	97.550
616.71	99.755
617.05	98.950
617.38	97.549
617.71	99.119
618.04	100.889
618.37	99.433
618.70	97.162
619.03	99.653
619.36	97.323
619.69	98.256
620.03	98.539
620.36	97.639
620.69	95.646
621.02	95.107
621.35	95.768
621.68	97.364
622.01	97.417
622.34	96.249
622.67	97.161
623.00	96.708
623.33	97.790
623.66	96.410
623.99	97.201
624.32	96.502
624.65	98.496
624.99	99.549
625.32	97.498
625.65	96.544
625.98	96.293
626.31	96.509
626.64	97.400
626.97	96.422
627.30	96.848
627.63	94.367
627.96	97.574
628.29	95.837
628.62	95.477
628.95	94.389
629.28	98.488
629.61	96.012
629.94	94.819
630.26	95.158
630.59	98.751
630.92	95.077
631.25	93.026
631.58	95.595
631.91	96.930
632.24	95.872
