SpectraSuite Data File
++++++++++++++++++++++++++++++++++++
Date: Fri May 15 20:12:06 PDT 2015
User: schluterlab
Dark Spectrum Present: Yes
Reference Spectrum Present: Yes
Number of Sampled Component Spectra: 1
Spectrometers: USB2E3373
Integration Time (usec): 3000 (USB2E3373)
Spectra Averaged: 3 (USB2E3373)
Boxcar Smoothing: 0 (USB2E3373)
Correct for Electrical Dark: No (USB2E3373)
Strobe/Lamp Enabled: No (USB2E3373)
Correct for Detector Non-linearity: No (USB2E3373)
Correct for Stray Light: No (USB2E3373)
Number of Pixels in Processed Spectrum: 2048
>>>>>Begin Processed Spectral Data<<<<<
178.53	0.000
178.91	0.000
179.29	62.500
179.67	-500.000
180.04	-14.286
180.42	50.000
180.80	-700.000
181.18	200.000
181.56	250.000
181.94	150.000
182.31	-300.000
182.69	-140.000
183.07	-300.000
183.45	20.000
183.83	100.000
184.20	36.364
184.58	111.111
184.96	-75.000
185.34	266.667
185.72	-100.000
186.09	38.462
186.47	200.000
186.85	83.333
187.23	44.444
187.61	-1200.000
187.98	-266.667
188.36	22.222
188.74	33.333
189.12	35.294
189.49	61.111
189.87	0.000
190.25	78.571
190.63	500.000
191.00	-66.667
191.38	10.526
191.76	450.000
192.14	175.000
192.51	150.000
192.89	33.333
193.27	-57.143
193.65	100.000
194.02	63.636
194.40	130.000
194.78	-87.500
195.15	-41.667
195.53	12.500
195.91	150.000
196.29	-25.000
196.66	23.077
197.04	171.429
197.42	-66.667
197.79	-200.000
198.17	-30.769
198.55	1300.000
198.92	-266.667
199.30	-200.000
199.68	200.000
200.05	0.000
200.43	0.000
200.81	233.333
201.18	66.667
201.56	-0.000
201.94	150.000
202.31	-0.000
202.69	-120.000
203.07	-100.000
203.44	200.000
203.82	0.000
204.19	42.857
204.57	-133.333
204.95	50.000
205.32	20.000
205.70	-28.571
206.08	-125.000
206.45	244.444
206.83	7.143
207.20	-28.571
207.58	700.000
207.96	-100.000
208.33	-20.000
208.71	-200.000
209.08	-50.000
209.46	400.000
209.84	20.000
210.21	-800.000
210.59	28.571
210.96	-50.000
211.34	-125.000
211.71	6.667
212.09	-28.571
212.46	-1600.000
212.84	0.000
213.22	200.000
213.59	150.000
213.97	-23.077
214.34	81.818
214.72	66.667
215.09	250.000
215.47	-46.154
215.84	9.091
216.22	-266.667
216.59	-25.000
216.97	550.000
217.34	75.000
217.72	-280.000
218.09	50.000
218.47	100.000
218.84	0.000
219.22	0.000
219.59	0.000
219.97	166.667
220.34	50.000
220.72	85.714
221.09	25.000
221.47	-150.000
221.84	-700.000
222.22	-450.000
222.59	18.182
222.97	-8.333
223.34	-33.333
223.72	14.286
224.09	71.429
224.46	35.714
224.84	466.667
225.21	-70.000
225.59	6.667
225.96	50.000
226.34	300.000
226.71	-57.143
227.08	-133.333
227.46	-50.000
227.83	-500.000
228.21	77.778
228.58	118.182
228.95	25.000
229.33	130.000
229.70	12.500
230.08	-25.000
230.45	142.857
230.82	42.857
231.20	26.667
231.57	64.286
231.95	28.571
232.32	10.000
232.69	-28.571
233.07	-66.667
233.44	-40.000
233.81	-80.000
234.19	33.333
234.56	11.765
234.93	100.000
235.31	125.000
235.68	-120.000
236.05	-61.538
236.43	15.000
236.80	23.529
237.17	46.875
237.55	-10.000
237.92	3.704
238.29	8.333
238.67	-3.333
239.04	5.882
239.41	-21.951
239.79	30.000
240.16	14.634
240.53	0.000
240.91	0.000
241.28	20.635
241.65	19.643
242.02	9.589
242.40	-5.000
242.77	6.780
243.14	-3.030
243.51	6.250
243.89	21.839
244.26	-3.448
244.63	9.524
245.00	9.278
245.38	3.093
245.75	-3.371
246.12	6.897
246.49	9.091
246.87	13.462
247.24	3.361
247.61	-5.263
247.98	8.130
248.36	5.625
248.73	2.632
249.10	5.844
249.47	5.696
249.84	2.614
250.22	4.118
250.59	13.725
250.96	12.676
251.33	0.000
251.70	7.647
252.08	11.675
252.45	7.426
252.82	9.045
253.19	9.677
253.56	1.869
253.94	9.009
254.31	6.087
254.68	3.947
255.05	9.843
255.42	4.367
255.79	8.880
256.16	5.837
256.54	8.209
256.91	3.042
257.28	7.435
257.65	3.745
258.02	8.511
258.39	6.397
258.76	6.960
259.14	8.970
259.51	8.091
259.88	6.186
260.25	7.190
260.62	7.986
260.99	3.390
261.36	1.712
261.73	3.481
262.10	7.903
262.47	3.681
262.85	8.150
263.22	6.462
263.59	11.526
263.96	9.317
264.33	6.970
264.70	4.464
265.07	6.845
265.44	8.215
265.81	6.780
266.18	7.377
266.55	10.026
266.92	6.995
267.29	6.005
267.66	7.161
268.03	8.377
268.40	5.222
268.77	8.289
269.14	6.954
269.51	8.740
269.88	3.491
270.25	4.592
270.62	7.561
270.99	4.859
271.36	7.090
271.73	8.920
272.10	6.083
272.47	6.856
272.84	4.703
273.21	9.049
273.58	6.265
273.95	6.636
274.32	3.464
274.69	3.167
275.06	5.804
275.43	5.669
275.80	6.843
276.17	5.747
276.54	5.996
276.91	6.798
277.28	5.895
277.65	8.264
278.02	8.723
278.39	5.689
278.76	7.757
279.13	3.734
279.50	5.672
279.87	6.048
280.23	5.591
280.60	6.043
280.97	6.869
281.34	5.192
281.71	5.955
282.08	6.135
282.45	6.654
282.82	6.950
283.19	4.449
283.56	6.358
283.92	4.554
284.29	5.385
284.66	4.264
285.03	6.680
285.40	6.427
285.77	5.272
286.14	5.957
286.51	6.089
286.87	4.570
287.24	4.604
287.61	6.173
287.98	7.193
288.35	5.719
288.72	7.531
289.08	5.903
289.45	7.381
289.82	6.643
290.19	4.949
290.56	4.803
290.93	4.377
291.29	4.314
291.66	5.669
292.03	5.582
292.40	5.806
292.77	3.987
293.13	3.571
293.50	5.463
293.87	5.802
294.24	5.873
294.60	4.024
294.97	4.315
295.34	4.294
295.71	6.110
296.08	5.381
296.44	4.410
296.81	2.639
297.18	3.768
297.55	6.911
297.91	4.384
298.28	5.277
298.65	4.071
299.02	4.447
299.38	2.736
299.75	5.655
300.12	3.534
300.48	3.426
300.85	5.450
301.22	6.104
301.59	3.026
301.95	4.304
302.32	6.096
302.69	3.607
303.05	4.332
303.42	5.355
303.79	4.790
304.15	5.376
304.52	3.686
304.89	3.743
305.25	3.753
305.62	1.634
305.99	2.924
306.35	3.815
306.72	2.812
307.09	5.017
307.45	4.822
307.82	4.282
308.19	3.833
308.55	3.381
308.92	5.229
309.29	3.240
309.65	4.306
310.02	3.630
310.38	5.049
310.75	5.137
311.12	3.552
311.48	4.348
311.85	4.921
312.22	3.376
312.58	4.246
312.95	3.949
313.31	3.313
313.68	3.560
314.05	3.571
314.41	3.918
314.78	3.608
315.14	4.522
315.51	4.555
315.87	4.303
316.24	5.662
316.61	5.217
316.97	5.556
317.34	5.273
317.70	5.641
318.07	4.712
318.43	5.294
318.80	5.114
319.16	5.566
319.53	6.268
319.89	4.724
320.26	6.275
320.62	6.921
320.99	4.802
321.35	5.961
321.72	7.061
322.08	7.553
322.45	5.787
322.81	6.974
323.18	6.281
323.54	7.819
323.91	7.400
324.27	7.715
324.64	8.989
325.00	9.398
325.37	9.917
325.73	8.704
326.10	8.901
326.46	9.776
326.83	9.536
327.19	10.026
327.56	10.252
327.92	11.092
328.29	10.893
328.65	11.887
329.01	12.408
329.38	12.350
329.74	12.653
330.11	13.160
330.47	11.224
330.84	12.500
331.20	13.878
331.56	13.333
331.93	13.607
332.29	14.482
332.66	14.299
333.02	13.848
333.38	13.749
333.75	14.560
334.11	13.697
334.48	15.503
334.84	14.835
335.20	13.175
335.57	13.327
335.93	14.905
336.29	14.641
336.66	14.441
337.02	14.033
337.38	13.981
337.75	15.364
338.11	15.509
338.47	15.420
338.84	15.250
339.20	15.539
339.56	14.495
339.93	15.219
340.29	14.587
340.65	14.875
341.02	15.780
341.38	15.310
341.74	14.664
342.11	14.038
342.47	14.858
342.83	15.398
343.20	15.244
343.56	15.043
343.92	14.969
344.28	16.567
344.65	16.062
345.01	14.434
345.37	15.559
345.73	17.071
346.10	16.566
346.46	15.139
346.82	15.057
347.19	14.547
347.55	15.789
347.91	16.343
348.27	16.168
348.63	16.780
349.00	16.079
349.36	15.628
349.72	16.335
350.08	15.738
350.45	17.239
350.81	15.864
351.17	15.879
351.53	17.143
351.89	15.359
352.26	15.360
352.62	16.048
352.98	15.261
353.34	16.345
353.70	16.828
354.07	16.613
354.43	17.054
354.79	15.855
355.15	16.587
355.51	16.930
355.87	16.424
356.24	15.416
356.60	16.653
356.96	16.508
357.32	15.895
357.68	15.872
358.04	15.994
358.40	16.881
358.77	17.863
359.13	16.733
359.49	16.333
359.85	16.771
360.21	16.986
360.57	17.138
360.93	17.625
361.29	16.994
361.66	17.085
362.02	17.197
362.38	18.203
362.74	16.957
363.10	17.682
363.46	17.198
363.82	19.384
364.18	18.967
364.54	17.794
364.90	17.849
365.26	18.486
365.62	18.321
365.98	18.915
366.35	18.718
366.71	18.995
367.07	18.940
367.43	17.973
367.79	19.505
368.15	19.383
368.51	18.791
368.87	18.234
369.23	18.628
369.59	19.461
369.95	20.015
370.31	19.581
370.67	19.328
371.03	19.492
371.39	19.183
371.75	19.048
372.11	18.616
372.47	19.970
372.83	20.653
373.19	20.685
373.55	19.783
373.91	20.374
374.27	20.411
374.63	20.962
374.99	19.291
375.35	20.822
375.71	20.699
376.07	20.154
376.42	20.952
376.78	21.879
377.14	21.259
377.50	21.116
377.86	21.419
378.22	21.698
378.58	21.923
378.94	20.731
379.30	22.146
379.66	22.132
380.02	21.459
380.38	22.155
380.74	22.501
381.09	23.620
381.45	22.630
381.81	22.394
382.17	23.223
382.53	22.548
382.89	23.729
383.25	24.393
383.61	24.268
383.97	24.127
384.32	24.328
384.68	23.653
385.04	23.836
385.40	23.895
385.76	24.969
386.12	24.903
386.48	25.032
386.83	25.491
387.19	25.580
387.55	26.788
387.91	25.122
388.27	25.214
388.62	25.299
388.98	25.353
389.34	25.921
389.70	27.160
390.06	25.236
390.42	25.712
390.77	26.422
391.13	26.860
391.49	26.455
391.85	27.485
392.20	26.868
392.56	26.955
392.92	28.479
393.28	26.592
393.64	27.447
393.99	28.903
394.35	27.198
394.71	27.778
395.07	26.964
395.42	27.140
395.78	27.818
396.14	27.491
396.50	28.789
396.85	28.010
397.21	26.880
397.57	27.837
397.92	28.400
398.28	27.989
398.64	27.771
399.00	28.612
399.35	27.088
399.71	27.398
400.07	29.081
400.42	27.662
400.78	28.720
401.14	27.949
401.49	29.065
401.85	27.361
402.21	28.614
402.57	28.500
402.92	27.980
403.28	27.632
403.63	29.256
403.99	28.444
404.35	28.607
404.70	27.619
405.06	28.437
405.42	28.403
405.77	27.833
406.13	28.231
406.49	28.834
406.84	28.423
407.20	28.597
407.55	28.397
407.91	27.607
408.27	28.681
408.62	29.231
408.98	29.390
409.34	28.934
409.69	29.264
410.05	28.387
410.40	28.333
410.76	28.468
411.11	29.312
411.47	28.863
411.83	27.809
412.18	29.408
412.54	28.652
412.89	28.387
413.25	29.362
413.60	28.882
413.96	28.589
414.31	29.451
414.67	28.352
415.03	29.228
415.38	28.133
415.74	28.860
416.09	29.197
416.45	29.440
416.80	28.354
417.16	28.936
417.51	29.247
417.87	29.465
418.22	28.433
418.58	29.097
418.93	29.843
419.29	28.041
419.64	29.423
420.00	31.108
420.35	28.657
420.71	29.769
421.06	29.343
421.42	30.349
421.77	30.000
422.12	29.171
422.48	29.020
422.83	29.988
423.19	29.910
423.54	29.277
423.90	29.034
424.25	30.195
424.61	29.682
424.96	28.978
425.31	31.196
425.67	30.575
426.02	30.271
426.38	29.180
426.73	31.114
427.09	31.203
427.44	30.647
427.79	30.112
428.15	30.643
428.50	31.072
428.85	28.993
429.21	30.617
429.56	30.458
429.92	30.508
430.27	29.624
430.62	30.737
430.98	30.839
431.33	30.547
431.68	30.926
432.04	30.408
432.39	29.778
432.74	30.186
433.10	30.345
433.45	31.123
433.80	30.180
434.16	30.582
434.51	31.452
434.86	31.359
435.22	30.959
435.57	31.379
435.92	31.018
436.28	30.888
436.63	30.462
436.98	30.185
437.34	30.127
437.69	31.366
438.04	31.738
438.39	31.032
438.75	31.026
439.10	30.843
439.45	31.223
439.81	31.315
440.16	32.660
440.51	31.224
440.86	32.810
441.22	31.109
441.57	31.347
441.92	32.529
442.27	32.483
442.63	32.013
442.98	31.763
443.33	31.052
443.68	31.194
444.03	31.446
444.39	31.874
444.74	33.222
445.09	32.016
445.44	32.479
445.79	32.955
446.15	31.773
446.50	31.392
446.85	32.306
447.20	31.960
447.55	32.087
447.91	31.303
448.26	33.125
448.61	32.758
448.96	31.727
449.31	31.098
449.66	31.823
450.02	32.116
450.37	32.187
450.72	32.016
451.07	31.709
451.42	31.211
451.77	31.706
452.12	30.981
452.47	31.037
452.83	32.097
453.18	31.879
453.53	31.985
453.88	31.633
454.23	32.637
454.58	32.116
454.93	32.474
455.28	31.048
455.63	32.052
455.98	32.832
456.34	32.120
456.69	32.338
457.04	32.451
457.39	32.139
457.74	32.527
458.09	30.901
458.44	31.539
458.79	32.213
459.14	30.721
459.49	32.358
459.84	31.980
460.19	32.282
460.54	31.968
460.89	31.705
461.24	32.422
461.59	31.354
461.94	31.447
462.29	32.871
462.64	31.694
462.99	31.618
463.34	31.572
463.69	31.338
464.04	31.780
464.39	31.474
464.74	31.288
465.09	31.878
465.44	31.679
465.79	31.576
466.14	30.958
466.49	30.937
466.84	31.112
467.19	32.478
467.54	31.226
467.89	31.838
468.24	30.961
468.59	32.317
468.94	32.508
469.29	32.131
469.64	30.964
469.99	33.076
470.34	31.263
470.68	32.066
471.03	32.909
471.38	31.669
471.73	31.723
472.08	31.682
472.43	30.604
472.78	30.843
473.13	31.633
473.48	31.726
473.83	31.382
474.17	31.282
474.52	32.036
474.87	31.879
475.22	32.215
475.57	30.378
475.92	31.322
476.27	32.014
476.61	32.060
476.96	31.177
477.31	31.693
477.66	31.124
478.01	32.229
478.36	30.719
478.70	31.648
479.05	31.484
479.40	32.167
479.75	31.126
480.10	31.644
480.45	30.800
480.79	32.226
481.14	32.480
481.49	31.921
481.84	30.550
482.19	30.589
482.53	32.230
482.88	31.217
483.23	30.950
483.58	31.462
483.92	31.559
484.27	31.222
484.62	30.883
484.97	30.680
485.31	30.455
485.66	30.817
486.01	30.544
486.36	30.546
486.70	30.324
487.05	30.266
487.40	31.075
487.75	30.366
488.09	30.161
488.44	30.605
488.79	30.743
489.13	30.729
489.48	30.953
489.83	30.493
490.17	30.966
490.52	30.300
490.87	31.236
491.22	30.516
491.56	31.641
491.91	30.641
492.26	30.967
492.60	30.806
492.95	31.776
493.30	30.972
493.64	31.090
493.99	31.111
494.34	30.534
494.68	30.667
495.03	30.462
495.37	30.962
495.72	30.540
496.07	30.780
496.41	31.226
496.76	30.861
497.11	29.949
497.45	30.979
497.80	31.534
498.14	30.651
498.49	30.675
498.84	30.838
499.18	30.773
499.53	30.804
499.87	30.447
500.22	31.405
500.56	31.215
500.91	31.627
501.26	30.549
501.60	31.185
501.95	31.295
502.29	31.138
502.64	31.081
502.98	31.623
503.33	30.019
503.67	30.988
504.02	31.672
504.36	31.024
504.71	29.899
505.06	30.398
505.40	30.406
505.75	30.825
506.09	30.917
506.44	31.674
506.78	31.990
507.13	30.610
507.47	30.601
507.82	30.502
508.16	30.956
508.51	31.270
508.85	30.717
509.19	30.761
509.54	30.670
509.88	30.744
510.23	30.877
510.57	32.122
510.92	29.424
511.26	30.878
511.61	31.408
511.95	31.616
512.30	30.432
512.64	30.774
512.98	30.376
513.33	31.114
513.67	30.756
514.02	31.979
514.36	31.257
514.70	31.527
515.05	31.845
515.39	32.409
515.74	32.575
516.08	31.739
516.42	31.979
516.77	30.895
517.11	32.285
517.46	32.017
517.80	31.466
518.14	31.721
518.49	31.611
518.83	31.470
519.17	30.261
519.52	31.498
519.86	30.492
520.20	31.045
520.55	31.019
520.89	31.681
521.23	30.906
521.58	31.924
521.92	30.897
522.26	32.010
522.61	31.818
522.95	31.854
523.29	31.321
523.64	31.957
523.98	32.016
524.32	30.541
524.66	30.986
525.01	31.558
525.35	31.821
525.69	31.044
526.04	31.415
526.38	32.036
526.72	30.935
527.06	30.674
527.41	31.728
527.75	31.568
528.09	30.963
528.43	32.478
528.78	31.749
529.12	31.032
529.46	31.449
529.80	30.969
530.15	32.145
530.49	31.785
530.83	30.985
531.17	31.699
531.51	31.122
531.86	31.475
532.20	31.106
532.54	31.586
532.88	31.143
533.22	30.981
533.57	31.455
533.91	30.940
534.25	31.576
534.59	32.136
534.93	30.208
535.27	30.013
535.62	30.331
535.96	31.376
536.30	31.201
536.64	31.496
536.98	31.150
537.32	32.361
537.66	33.100
538.01	31.608
538.35	30.721
538.69	30.892
539.03	31.237
539.37	31.359
539.71	31.425
540.05	31.500
540.39	31.371
540.73	31.939
541.07	30.939
541.42	31.384
541.76	31.383
542.10	30.902
542.44	31.967
542.78	30.902
543.12	29.876
543.46	31.850
543.80	32.824
544.14	30.841
544.48	31.912
544.82	31.237
545.16	31.148
545.50	31.175
545.84	31.941
546.18	32.695
546.52	32.012
546.86	31.488
547.20	31.974
547.54	31.731
547.88	30.639
548.22	30.835
548.56	30.409
548.90	30.863
549.24	30.992
549.58	31.735
549.92	31.022
550.26	32.308
550.60	31.896
550.94	31.964
551.28	30.526
551.62	31.769
551.96	32.180
552.30	31.213
552.64	30.606
552.98	31.153
553.32	30.385
553.66	31.350
554.00	30.657
554.34	30.576
554.68	29.646
555.02	30.432
555.36	31.264
555.69	30.916
556.03	30.978
556.37	30.249
556.71	30.758
557.05	31.245
557.39	29.517
557.73	30.360
558.07	32.051
558.41	29.709
558.75	30.320
559.08	30.418
559.42	30.238
559.76	30.424
560.10	29.740
560.44	30.603
560.78	30.420
561.12	30.818
561.45	30.991
561.79	31.583
562.13	30.802
562.47	30.216
562.81	31.340
563.15	31.946
563.48	30.552
563.82	30.679
564.16	30.571
564.50	29.932
564.84	31.124
565.17	29.913
565.51	31.079
565.85	30.864
566.19	30.769
566.52	31.635
566.86	31.041
567.20	31.756
567.54	30.657
567.88	31.752
568.21	30.769
568.55	30.163
568.89	30.698
569.23	30.380
569.56	31.392
569.90	31.060
570.24	30.406
570.57	30.218
570.91	30.464
571.25	29.497
571.59	29.337
571.92	29.096
572.26	29.620
572.60	30.109
572.93	29.965
573.27	29.342
573.61	29.803
573.95	29.410
574.28	29.131
574.62	28.731
574.96	29.220
575.29	28.622
575.63	28.194
575.97	28.870
576.30	29.688
576.64	28.768
576.98	29.601
577.31	29.393
577.65	29.358
577.98	29.079
578.32	29.114
578.66	28.648
578.99	28.919
579.33	28.629
579.67	28.892
580.00	28.911
580.34	28.632
580.67	28.783
581.01	29.635
581.35	28.876
581.68	29.167
582.02	29.326
582.35	29.192
582.69	29.314
583.02	28.925
583.36	29.430
583.70	29.491
584.03	29.914
584.37	29.898
584.70	29.038
585.04	28.549
585.37	28.919
585.71	29.178
586.04	28.643
586.38	28.994
586.72	28.924
587.05	29.607
587.39	30.249
587.72	30.290
588.06	29.172
588.39	29.422
588.73	29.579
589.06	30.202
589.40	29.900
589.73	29.901
590.07	30.325
590.40	29.954
590.73	29.736
591.07	29.601
591.40	29.697
591.74	30.498
592.07	30.612
592.41	31.051
592.74	29.709
593.08	29.270
593.41	30.115
593.75	29.146
594.08	29.317
594.41	29.913
594.75	29.847
595.08	30.306
595.42	30.990
595.75	29.478
596.09	29.476
596.42	29.516
596.75	30.107
597.09	29.658
597.42	29.810
597.75	30.371
598.09	30.330
598.42	30.054
598.76	30.245
599.09	29.567
599.42	29.481
599.76	29.759
600.09	29.977
600.42	29.871
600.76	29.829
601.09	29.885
601.42	28.986
601.76	29.337
602.09	29.497
602.42	30.160
602.76	29.372
603.09	30.274
603.42	31.145
603.76	29.758
604.09	29.283
604.42	30.372
604.76	30.663
605.09	29.525
605.42	29.661
605.75	29.116
606.09	29.639
606.42	28.982
606.75	29.221
607.09	29.758
607.42	29.597
607.75	29.352
608.08	28.661
608.42	29.511
608.75	30.313
609.08	30.344
609.41	29.746
609.75	29.032
610.08	29.755
610.41	29.517
610.74	29.985
611.07	30.336
611.41	30.514
611.74	30.011
612.07	30.514
612.40	29.814
612.73	30.678
613.07	30.034
613.40	30.689
613.73	29.603
614.06	29.883
614.39	30.175
614.72	29.972
615.06	30.447
615.39	29.258
615.72	29.763
616.05	29.777
616.38	29.288
616.71	30.948
617.05	30.945
617.38	30.044
617.71	30.063
618.04	30.730
618.37	30.706
618.70	31.023
619.03	30.972
619.36	30.680
619.69	31.766
620.03	31.921
620.36	31.116
620.69	31.192
621.02	30.887
621.35	30.954
621.68	31.293
622.01	31.000
622.34	31.684
622.67	31.230
623.00	30.245
623.33	30.793
623.66	30.666
623.99	30.182
624.32	31.483
624.65	29.398
624.99	31.076
625.32	30.402
625.65	31.108
625.98	31.023
626.31	29.842
626.64	32.669
626.97	32.897
627.30	30.823
627.63	31.109
627.96	30.638
628.29	31.730
628.62	30.678
628.95	31.062
629.28	31.149
629.61	32.802
629.94	31.378
630.26	31.719
630.59	31.842
630.92	30.974
631.25	30.769
631.58	31.718
631.91	30.263
632.24	31.537
632.57	30.682
632.90	31.079
633.23	31.529
633.56	31.486
633.89	32.922
634.22	32.840
634.55	33.926
634.88	32.439
635.20	31.154
635.53	32.533
635.86	30.949
636.19	33.635
636.52	30.867
636.85	31.638
637.18	30.818
637.51	33.836
637.83	32.194
638.16	33.015
638.49	31.063
638.82	33.289
