SpectraSuite Data File
++++++++++++++++++++++++++++++++++++
Date: Fri May 15 20:02:18 PDT 2015
User: schluterlab
Dark Spectrum Present: Yes
Reference Spectrum Present: Yes
Number of Sampled Component Spectra: 1
Spectrometers: USB2E3373
Integration Time (usec): 3000 (USB2E3373)
Spectra Averaged: 3 (USB2E3373)
Boxcar Smoothing: 0 (USB2E3373)
Correct for Electrical Dark: No (USB2E3373)
Strobe/Lamp Enabled: No (USB2E3373)
Correct for Detector Non-linearity: No (USB2E3373)
Correct for Stray Light: No (USB2E3373)
Number of Pixels in Processed Spectrum: 2048
>>>>>Begin Processed Spectral Data<<<<<
178.53	0.000
178.91	0.000
179.29	162.500
179.67	-800.000
180.04	57.143
180.42	325.000
180.80	-500.000
181.18	-100.000
181.56	500.000
181.94	400.000
182.31	100.000
182.69	40.000
183.07	166.667
183.45	-40.000
183.83	-0.000
184.20	-36.364
184.58	88.889
184.96	-25.000
185.34	-266.667
185.72	-100.000
186.09	-46.154
186.47	200.000
186.85	-100.000
187.23	88.889
187.61	-300.000
187.98	300.000
188.36	-44.444
188.74	-100.000
189.12	17.647
189.49	88.889
189.87	0.000
190.25	21.429
190.63	200.000
191.00	66.667
191.38	36.842
191.76	300.000
192.14	-225.000
192.51	300.000
192.89	-88.889
193.27	-114.286
193.65	116.667
194.02	163.636
194.40	150.000
194.78	-100.000
195.15	-41.667
195.53	-50.000
195.91	250.000
196.29	150.000
196.66	23.077
197.04	85.714
197.42	-55.556
197.79	-433.333
198.17	-23.077
198.55	200.000
198.92	-66.667
199.30	900.000
199.68	-60.000
200.05	-266.667
200.43	0.000
200.81	-100.000
201.18	-166.667
201.56	400.000
201.94	-500.000
202.31	133.333
202.69	-300.000
203.07	100.000
203.44	300.000
203.82	0.000
204.19	28.571
204.57	-100.000
204.95	25.000
205.32	-50.000
205.70	42.857
206.08	-25.000
206.45	122.222
206.83	78.571
207.20	-71.429
207.58	-100.000
207.96	66.667
208.33	10.000
208.71	75.000
209.08	-116.667
209.46	-1100.000
209.84	0.000
210.21	-1900.000
210.59	100.000
210.96	66.667
211.34	125.000
211.71	13.333
212.09	-142.857
212.46	-300.000
212.84	0.000
213.22	80.000
213.59	550.000
213.97	53.846
214.34	100.000
214.72	133.333
215.09	300.000
215.47	15.385
215.84	-9.091
216.22	0.000
216.59	0.000
216.97	450.000
217.34	-50.000
217.72	-80.000
218.09	75.000
218.47	50.000
218.84	-1000.000
219.22	-22.222
219.59	80.000
219.97	200.000
220.34	150.000
220.72	14.286
221.09	0.000
221.47	350.000
221.84	-600.000
222.22	-300.000
222.59	127.273
222.97	58.333
223.34	400.000
223.72	-21.429
224.09	66.667
224.46	53.571
224.84	100.000
225.21	90.000
225.59	-13.333
225.96	-100.000
226.34	300.000
226.71	-128.571
227.08	-66.667
227.46	62.500
227.83	-550.000
228.21	188.889
228.58	81.818
228.95	0.000
229.33	20.000
229.70	56.250
230.08	-12.500
230.45	-114.286
230.82	171.429
231.20	0.000
231.57	57.143
231.95	14.286
232.32	30.000
232.69	0.000
233.07	266.667
233.44	120.000
233.81	-20.000
234.19	22.222
234.56	0.000
234.93	100.000
235.31	375.000
235.68	-220.000
236.05	23.077
236.43	15.000
236.80	64.706
237.17	15.625
237.55	25.000
237.92	14.815
238.29	36.111
238.67	53.333
239.04	29.412
239.41	19.512
239.79	36.667
240.16	34.146
240.53	34.211
240.91	41.304
241.28	38.095
241.65	66.071
242.02	46.575
242.40	56.667
242.77	47.458
243.14	54.545
243.51	57.500
243.89	54.023
244.26	52.874
244.63	54.762
245.00	58.763
245.38	43.299
245.75	55.056
246.12	45.690
246.49	49.587
246.87	58.654
247.24	46.218
247.61	45.614
247.98	58.537
248.36	45.000
248.73	54.605
249.10	50.000
249.47	50.633
249.84	60.784
250.22	56.471
250.59	50.980
250.96	51.174
251.33	52.326
251.70	58.824
252.08	50.254
252.45	52.970
252.82	51.256
253.19	55.300
253.56	50.000
253.94	49.550
254.31	56.522
254.68	54.386
255.05	50.394
255.42	55.895
255.79	57.143
256.16	54.475
256.54	55.597
256.91	53.612
257.28	48.699
257.65	49.813
258.02	51.773
258.39	51.515
258.76	57.143
259.14	57.807
259.51	52.104
259.88	49.485
260.25	52.941
260.62	55.208
260.99	51.186
261.36	53.767
261.73	52.848
262.10	54.407
262.47	55.215
262.85	52.351
263.22	51.692
263.59	55.452
263.96	56.211
264.33	56.970
264.70	52.976
265.07	53.571
265.44	57.224
265.81	55.932
266.18	53.005
266.55	53.728
266.92	50.777
267.29	56.919
267.66	50.639
268.03	56.283
268.40	55.614
268.77	56.952
269.14	52.518
269.51	53.985
269.88	52.868
270.25	53.316
270.62	54.634
270.99	54.220
271.36	49.633
271.73	52.582
272.10	52.555
272.47	53.901
272.84	55.693
273.21	53.596
273.58	54.699
273.95	52.174
274.32	49.192
274.69	48.190
275.06	53.571
275.43	52.154
275.80	51.435
276.17	55.172
276.54	50.321
276.91	54.605
277.28	52.620
277.65	50.207
278.02	54.255
278.39	52.298
278.76	50.314
279.13	50.830
279.50	51.891
279.87	52.268
280.23	51.398
280.60	48.928
280.97	54.545
281.34	49.615
281.71	51.951
282.08	51.943
282.45	50.685
282.82	50.386
283.19	51.644
283.56	52.216
283.92	51.613
284.29	51.346
284.66	48.062
285.03	50.884
285.40	47.826
285.77	47.979
286.14	47.834
286.51	51.476
286.87	49.543
287.24	51.013
287.61	50.441
287.98	49.123
288.35	50.260
288.72	49.912
289.08	47.743
289.45	51.845
289.82	47.378
290.19	48.976
290.56	48.027
290.93	46.128
291.29	43.914
291.66	43.780
292.03	47.368
292.40	45.323
292.77	46.571
293.13	44.805
293.50	45.068
293.87	46.565
294.24	44.359
294.60	44.113
294.97	45.089
295.34	43.865
295.71	43.666
296.08	42.152
296.44	41.394
296.81	43.056
297.18	43.623
297.55	44.309
297.91	43.288
298.28	42.612
298.65	41.791
299.02	42.857
299.38	41.997
299.75	41.379
300.12	41.099
300.48	41.765
300.85	41.065
301.22	41.429
301.59	41.711
301.95	41.772
302.32	43.061
302.69	40.920
303.05	40.470
303.42	40.722
303.79	41.355
304.15	40.502
304.52	40.666
304.89	36.959
305.25	38.620
305.62	36.873
305.99	39.532
306.35	40.231
306.72	38.358
307.09	37.856
307.45	39.839
307.82	38.426
308.19	42.509
308.55	39.258
308.92	40.959
309.29	39.330
309.65	37.783
310.02	38.724
310.38	39.517
310.75	41.311
311.12	39.612
311.48	39.024
311.85	37.068
312.22	37.553
312.58	36.730
312.95	36.926
313.31	37.267
313.68	37.906
314.05	38.061
314.41	39.278
314.78	37.938
315.14	41.521
315.51	38.716
315.87	38.320
316.24	39.434
316.61	37.894
316.97	38.988
317.34	38.086
317.70	37.285
318.07	36.827
318.43	37.941
318.80	35.417
319.16	38.281
319.53	38.746
319.89	38.386
320.26	39.271
320.62	38.114
320.99	37.265
321.35	39.157
321.72	39.252
322.08	38.469
322.45	38.274
322.81	38.998
323.18	37.488
323.54	38.224
323.91	37.585
324.27	40.039
324.64	39.232
325.00	40.055
325.37	41.230
325.73	40.073
326.10	42.234
326.46	42.511
326.83	41.295
327.19	42.371
327.56	42.919
327.92	43.750
328.29	42.500
328.65	45.660
329.01	45.129
329.38	45.622
329.74	44.004
330.11	46.154
330.47	46.382
330.84	46.731
331.20	49.335
331.56	46.019
331.93	48.767
332.29	48.763
332.66	49.140
333.02	49.721
333.38	49.496
333.75	50.916
334.11	48.791
334.48	51.677
334.84	51.557
335.20	51.693
335.57	50.680
335.93	52.213
336.29	52.486
336.66	51.499
337.02	50.000
337.38	51.204
337.75	52.636
338.11	51.939
338.47	52.464
338.84	52.403
339.20	52.468
339.56	53.303
339.93	50.850
340.29	53.303
340.65	52.151
341.02	52.128
341.38	51.593
341.74	50.795
342.11	50.780
342.47	51.601
342.83	51.730
343.20	50.871
343.56	52.696
343.92	51.550
344.28	52.519
344.65	50.691
345.01	50.994
345.37	50.799
345.73	50.209
346.10	52.200
346.46	50.547
346.82	51.146
347.19	49.626
347.55	51.462
347.91	50.971
348.27	50.687
348.63	50.085
349.00	50.369
349.36	50.291
349.72	53.068
350.08	50.738
350.45	50.200
350.81	50.831
351.17	49.511
351.53	50.286
351.89	49.463
352.26	49.920
352.62	50.161
352.98	49.157
353.34	50.000
353.70	50.890
354.07	48.790
354.43	49.560
354.79	49.298
355.15	49.127
355.51	50.079
355.87	49.272
356.24	49.674
356.60	49.070
356.96	49.286
357.32	48.243
357.68	48.319
358.04	50.323
358.40	50.804
358.77	50.319
359.13	51.081
359.49	48.613
359.85	48.518
360.21	50.877
360.57	49.809
360.93	48.260
361.29	48.036
361.66	49.843
362.02	50.000
362.38	50.876
362.74	50.795
363.10	50.339
363.46	49.666
363.82	50.338
364.18	48.930
364.54	49.412
364.90	49.391
365.26	50.073
365.62	51.022
365.98	50.440
366.35	49.745
366.71	51.220
367.07	49.782
367.43	49.605
367.79	50.177
368.15	50.251
368.51	50.619
368.87	48.241
369.23	48.592
369.59	50.364
369.95	50.440
370.31	50.939
370.67	51.493
371.03	49.291
371.39	49.015
371.75	50.623
372.11	50.214
372.47	49.926
372.83	51.455
373.19	50.499
373.55	49.170
373.91	50.684
374.27	51.453
374.63	50.251
374.99	50.496
375.35	50.139
375.71	50.559
376.07	50.421
376.42	51.020
376.78	51.879
377.14	50.711
377.50	51.926
377.86	51.606
378.22	52.074
378.58	51.987
378.94	50.788
379.30	51.591
379.66	51.975
380.02	51.441
380.38	52.526
380.74	51.646
381.09	54.663
381.45	51.498
381.81	51.635
382.17	52.602
382.53	52.967
382.89	53.296
383.25	53.827
383.61	52.927
383.97	53.333
384.32	52.595
384.68	52.570
385.04	53.064
385.40	52.209
385.76	55.220
386.12	54.204
386.48	54.406
386.83	53.900
387.19	54.640
387.55	54.831
387.91	54.279
388.27	54.029
388.62	54.248
388.98	54.021
389.34	54.341
389.70	55.873
390.06	53.619
390.42	54.534
390.77	56.900
391.13	54.224
391.49	55.821
391.85	54.646
392.20	54.488
392.56	55.245
392.92	55.197
393.28	54.304
393.64	54.354
393.99	56.426
394.35	54.522
394.71	55.300
395.07	53.928
395.42	54.402
395.78	55.179
396.14	55.864
396.50	56.436
396.85	54.024
397.21	55.013
397.57	56.050
397.92	53.445
398.28	55.632
398.64	53.434
399.00	54.797
399.35	54.063
399.71	54.451
400.07	54.474
400.42	54.529
400.78	55.113
401.14	54.567
401.49	54.616
401.85	54.174
402.21	53.855
402.57	53.437
402.92	53.639
403.28	54.887
403.63	54.035
403.99	54.018
404.35	54.716
404.70	53.929
405.06	53.760
405.42	53.822
405.77	54.213
406.13	53.667
406.49	53.996
406.84	54.218
407.20	54.907
407.55	52.479
407.91	53.075
408.27	53.155
408.62	54.400
408.98	53.296
409.34	54.275
409.69	54.070
410.05	51.170
410.40	53.704
410.76	53.136
411.11	53.437
411.47	54.832
411.83	53.107
412.18	54.054
412.54	52.185
412.89	53.571
413.25	53.490
413.60	54.161
413.96	51.595
414.31	52.683
414.67	52.983
415.03	53.196
415.38	52.546
415.74	53.225
416.09	53.952
416.45	52.127
416.80	52.677
417.16	54.972
417.51	53.431
417.87	53.129
418.22	54.922
418.58	54.247
418.93	53.354
419.29	52.689
419.64	53.467
420.00	54.471
420.35	53.134
420.71	54.313
421.06	53.284
421.42	54.507
421.77	53.699
422.12	54.086
422.48	53.763
422.83	54.060
423.19	54.402
423.54	54.027
423.90	54.535
424.25	55.109
424.61	55.630
424.96	53.659
425.31	55.864
425.67	55.164
426.02	55.300
426.38	56.293
426.73	55.872
427.09	56.646
427.44	55.235
427.79	55.922
428.15	56.432
428.50	54.876
428.85	55.098
429.21	55.631
429.56	56.173
429.92	56.549
430.27	54.987
430.62	55.881
430.98	55.786
431.33	55.836
431.68	55.259
432.04	56.959
432.39	55.048
432.74	54.119
433.10	56.609
433.45	56.153
433.80	56.878
434.16	56.787
434.51	56.022
434.86	56.911
435.22	56.141
435.57	56.831
435.92	55.689
436.28	55.218
436.63	55.961
436.98	55.794
437.34	56.080
437.69	57.424
438.04	56.353
438.39	56.445
438.75	57.741
439.10	57.329
439.45	57.395
439.81	56.881
440.16	58.017
440.51	57.791
440.86	57.946
441.22	56.957
441.57	56.071
441.92	56.821
442.27	57.206
442.63	57.388
442.98	57.611
443.33	55.982
443.68	57.188
444.03	57.526
444.39	56.026
444.74	58.082
445.09	56.960
445.44	57.436
445.79	58.432
446.15	56.388
446.50	56.683
446.85	58.395
447.20	56.569
447.55	57.087
447.91	57.586
448.26	57.371
448.61	57.225
448.96	58.118
449.31	57.688
449.66	56.446
450.02	58.129
450.37	58.803
450.72	56.873
451.07	58.038
451.42	57.303
451.77	56.962
452.12	56.280
452.47	57.888
452.83	57.656
453.18	57.622
453.53	57.712
453.88	57.498
454.23	58.574
454.58	59.131
454.93	57.281
455.28	56.889
455.63	59.640
455.98	58.809
456.34	58.238
456.69	57.179
457.04	59.294
457.39	58.141
457.74	57.860
458.09	57.034
458.44	57.519
458.79	57.087
459.14	57.380
459.49	58.925
459.84	57.135
460.19	56.675
460.54	57.457
460.89	57.557
461.24	58.385
461.59	57.838
461.94	56.730
462.29	58.565
462.64	58.272
462.99	57.007
463.34	57.580
463.69	58.430
464.04	58.535
464.39	57.671
464.74	58.773
465.09	57.704
465.44	58.050
465.79	57.596
466.14	57.640
466.49	56.757
466.84	58.061
467.19	58.135
467.54	57.599
467.89	57.486
468.24	58.029
468.59	58.857
468.94	57.841
469.29	57.705
469.64	58.442
469.99	60.056
470.34	57.884
470.68	58.688
471.03	58.033
471.38	58.203
471.73	59.804
472.08	58.616
472.43	58.322
472.78	58.328
473.13	58.776
473.48	57.199
473.83	57.659
474.17	59.067
474.52	57.371
474.87	58.121
475.22	58.145
475.57	57.651
475.92	59.682
476.27	57.974
476.61	59.086
476.96	57.724
477.31	57.923
477.66	58.596
478.01	58.563
478.36	58.007
478.70	59.652
479.05	58.022
479.40	57.075
479.75	58.394
480.10	58.679
480.45	57.600
480.79	59.164
481.14	58.709
481.49	57.980
481.84	58.736
482.19	57.717
482.53	58.801
482.88	58.282
483.23	57.678
483.58	58.113
483.92	58.422
484.27	57.748
484.62	57.822
484.97	57.172
485.31	56.611
485.66	56.690
486.01	56.806
486.36	56.752
486.70	56.649
487.05	56.935
487.40	56.489
487.75	56.648
488.09	56.088
488.44	56.534
488.79	57.789
489.13	57.532
489.48	57.845
489.83	57.489
490.17	58.292
490.52	58.476
490.87	57.566
491.22	58.262
491.56	58.871
491.91	58.413
492.26	59.115
492.60	58.733
492.95	59.862
493.30	57.401
493.64	59.774
493.99	58.599
494.34	58.495
494.68	58.000
495.03	58.637
495.37	57.949
495.72	58.152
496.07	59.707
496.41	57.736
496.76	57.992
497.11	57.755
497.45	58.711
497.80	59.082
498.14	57.774
498.49	58.405
498.84	58.982
499.18	58.384
499.53	58.135
499.87	58.074
500.22	57.765
500.56	57.388
500.91	58.384
501.26	57.538
501.60	59.420
501.95	58.030
502.29	58.402
502.64	58.301
502.98	59.546
503.33	57.685
503.67	58.313
504.02	58.358
504.36	59.476
504.71	57.172
505.06	57.927
505.40	58.274
505.75	58.814
506.09	58.743
506.44	59.754
506.78	59.184
507.13	58.118
507.47	58.329
507.82	59.348
508.16	58.796
508.51	58.867
508.85	58.556
509.19	58.595
509.54	59.410
509.88	59.115
510.23	59.817
510.57	59.540
510.92	57.676
511.26	60.393
511.61	60.176
511.95	57.753
512.30	59.479
512.64	58.431
512.98	59.293
513.33	59.597
513.67	59.181
514.02	60.927
514.36	60.229
514.70	60.490
515.05	59.988
515.39	61.334
515.74	61.317
516.08	60.430
516.42	59.600
516.77	59.274
517.11	60.534
517.46	60.503
517.80	59.297
518.14	60.502
518.49	59.555
518.83	59.599
519.17	59.248
519.52	58.911
519.86	59.784
520.20	59.660
520.55	59.912
520.89	60.351
521.23	61.115
521.58	61.577
521.92	60.962
522.26	60.442
522.61	60.779
522.95	62.119
523.29	59.720
523.64	61.118
523.98	61.244
524.32	59.665
524.66	60.691
525.01	61.494
525.35	60.661
525.69	60.606
526.04	59.458
526.38	60.960
526.72	59.581
527.06	61.025
527.41	60.026
527.75	61.260
528.09	60.797
528.43	60.770
528.78	61.386
529.12	61.097
529.46	60.299
529.80	60.101
530.15	60.726
530.49	61.279
530.83	60.739
531.17	59.167
531.51	61.628
531.86	59.823
532.20	60.473
532.54	60.177
532.88	59.959
533.22	61.626
533.57	59.371
533.91	60.444
534.25	62.109
534.59	60.487
534.93	59.471
535.27	58.693
535.62	59.430
535.96	60.731
536.30	60.422
536.64	60.992
536.98	60.976
537.32	62.447
537.66	61.360
538.01	62.098
538.35	60.957
538.69	60.852
539.03	59.672
539.37	62.046
539.71	60.055
540.05	61.779
540.39	61.288
540.73	61.855
541.07	60.497
541.42	60.484
541.76	61.734
542.10	61.115
542.44	60.459
542.78	59.257
543.12	60.646
543.46	60.848
543.80	61.346
544.14	58.745
544.48	60.227
544.82	60.697
545.16	61.202
545.50	60.414
545.84	60.977
546.18	61.560
546.52	60.923
546.86	61.682
547.20	62.017
547.54	60.424
547.88	61.141
548.22	60.158
548.56	60.686
548.90	61.051
549.24	59.848
549.58	60.296
549.92	59.757
550.26	60.513
550.60	61.561
550.94	62.808
551.28	60.355
551.62	61.923
551.96	62.105
552.30	60.965
552.64	61.566
552.98	60.549
553.32	60.200
553.66	62.046
554.00	60.949
554.34	60.783
554.68	58.997
555.02	61.235
555.36	60.957
555.69	60.366
556.03	59.529
556.37	59.786
556.71	60.505
557.05	63.460
557.39	60.818
557.73	61.319
558.07	61.463
558.41	62.328
558.75	61.496
559.08	60.678
559.42	60.952
559.76	62.850
560.10	62.462
560.44	60.759
560.78	60.070
561.12	60.508
561.45	62.263
561.79	60.644
562.13	60.539
562.47	59.496
562.81	61.599
563.15	60.790
563.48	60.325
563.82	61.428
564.16	59.262
564.50	58.311
564.84	60.509
565.17	61.100
565.51	62.022
565.85	61.317
566.19	60.544
566.52	60.724
566.86	60.154
567.20	60.087
567.54	60.462
567.88	60.105
568.21	59.502
568.55	59.239
568.89	60.524
569.23	59.894
569.56	58.100
569.90	59.359
570.24	57.834
570.57	57.600
570.91	57.337
571.25	57.251
571.59	56.431
571.92	55.970
572.26	56.129
572.60	56.465
572.93	55.789
573.27	56.426
573.61	56.444
573.95	56.226
574.28	55.879
574.62	55.250
574.96	55.597
575.29	55.704
575.63	55.014
575.97	55.056
576.30	55.524
576.64	55.020
576.98	55.650
577.31	56.083
577.65	55.986
577.98	55.325
578.32	55.474
578.66	54.653
578.99	54.960
579.33	54.334
579.67	53.747
580.00	55.949
580.34	55.199
580.67	55.069
581.01	55.283
581.35	54.694
581.68	55.245
582.02	55.056
582.35	54.930
582.69	54.636
583.02	54.198
583.36	55.122
583.70	55.919
584.03	56.631
584.37	56.804
584.70	55.027
585.04	54.896
585.37	55.135
585.71	55.567
586.04	55.119
586.38	53.961
586.72	55.179
587.05	56.066
587.39	55.577
587.72	56.616
588.06	55.190
588.39	55.597
588.73	55.525
589.06	56.491
589.40	55.582
589.73	56.042
590.07	56.949
590.40	56.618
590.73	57.908
591.07	57.125
591.40	56.411
591.74	56.516
592.07	56.633
592.41	55.963
592.74	56.073
593.08	54.418
593.41	55.980
593.75	55.970
594.08	55.166
594.41	55.968
594.75	54.924
595.08	55.883
595.42	56.680
595.75	56.628
596.09	56.802
596.42	56.718
596.75	57.016
597.09	56.401
597.42	56.775
597.75	57.032
598.09	55.319
598.42	56.453
598.76	55.598
599.09	56.130
599.42	53.732
599.76	54.289
600.09	54.977
600.42	54.132
600.76	54.643
601.09	54.008
601.42	54.250
601.76	55.141
602.09	56.106
602.42	56.318
602.76	55.475
603.09	56.105
603.42	56.438
603.76	55.847
604.09	55.245
604.42	56.387
604.76	55.585
605.09	56.079
605.42	56.208
605.75	54.816
606.09	55.626
606.42	55.546
606.75	55.844
607.09	55.560
607.42	54.231
607.75	55.284
608.08	54.537
608.42	54.180
608.75	56.193
609.08	56.303
609.41	56.853
609.75	56.149
610.08	57.264
610.41	56.135
610.74	55.339
611.07	55.556
611.41	56.357
611.74	56.290
612.07	55.460
612.40	55.525
612.73	56.384
613.07	56.468
613.40	56.565
613.73	57.079
614.06	55.871
614.39	56.684
614.72	54.006
615.06	56.872
615.39	55.731
615.72	55.436
616.05	55.363
616.38	54.815
616.71	56.147
617.05	56.393
617.38	56.631
617.71	55.975
618.04	56.889
618.37	56.936
618.70	58.086
619.03	56.806
619.36	56.078
619.69	59.212
620.03	57.925
620.36	56.724
620.69	57.102
621.02	57.645
621.35	58.755
621.68	59.779
622.01	58.667
622.34	57.702
622.67	58.360
623.00	57.121
623.33	57.393
623.66	57.442
623.99	56.505
624.32	57.719
624.65	57.669
624.99	58.616
625.32	57.847
625.65	57.738
625.98	58.501
626.31	58.271
626.64	58.666
626.97	59.337
627.30	57.881
627.63	59.359
627.96	59.748
628.29	60.315
628.62	59.095
628.95	58.918
629.28	59.577
629.61	59.123
629.94	60.117
630.26	59.387
630.59	60.666
630.92	59.590
631.25	57.641
631.58	59.471
631.91	58.333
632.24	61.009
632.57	61.250
632.90	60.498
633.23	61.412
633.56	61.209
633.89	61.899
