SpectraSuite Data File
++++++++++++++++++++++++++++++++++++
Date: Fri May 15 20:00:26 PDT 2015
User: schluterlab
Dark Spectrum Present: Yes
Reference Spectrum Present: Yes
Number of Sampled Component Spectra: 1
Spectrometers: USB2E3373
Integration Time (usec): 3000 (USB2E3373)
Spectra Averaged: 3 (USB2E3373)
Boxcar Smoothing: 0 (USB2E3373)
Correct for Electrical Dark: No (USB2E3373)
Strobe/Lamp Enabled: No (USB2E3373)
Correct for Detector Non-linearity: No (USB2E3373)
Correct for Stray Light: No (USB2E3373)
Number of Pixels in Processed Spectrum: 2048
>>>>>Begin Processed Spectral Data<<<<<
178.53	0.000
178.91	0.000
179.29	100.000
179.67	0.000
180.04	-71.429
180.42	100.000
180.80	600.000
181.18	233.333
181.56	200.000
181.94	350.000
182.31	-400.000
182.69	20.000
183.07	-166.667
183.45	200.000
183.83	33.333
184.20	109.091
184.58	11.111
184.96	-225.000
185.34	-300.000
185.72	300.000
186.09	84.615
186.47	-400.000
186.85	66.667
187.23	77.778
187.61	-200.000
187.98	0.000
188.36	-44.444
188.74	233.333
189.12	29.412
189.49	16.667
189.87	0.000
190.25	28.571
190.63	600.000
191.00	133.333
191.38	52.632
191.76	450.000
192.14	-200.000
192.51	400.000
192.89	144.444
193.27	71.429
193.65	-16.667
194.02	45.455
194.40	170.000
194.78	-100.000
195.15	66.667
195.53	-25.000
195.91	100.000
196.29	25.000
196.66	-23.077
197.04	28.571
197.42	-22.222
197.79	-266.667
198.17	-53.846
198.55	1000.000
198.92	-166.667
199.30	500.000
199.68	100.000
200.05	-266.667
200.43	0.000
200.81	133.333
201.18	100.000
201.56	100.000
201.94	0.000
202.31	-200.000
202.69	-20.000
203.07	-0.000
203.44	0.000
203.82	0.000
204.19	114.286
204.57	100.000
204.95	100.000
205.32	-30.000
205.70	-85.714
206.08	-150.000
206.45	188.889
206.83	85.714
207.20	-57.143
207.58	-300.000
207.96	-200.000
208.33	-90.000
208.71	200.000
209.08	66.667
209.46	-200.000
209.84	120.000
210.21	800.000
210.59	100.000
210.96	33.333
211.34	25.000
211.71	33.333
212.09	-71.429
212.46	-1000.000
212.84	0.000
213.22	20.000
213.59	300.000
213.97	-46.154
214.34	136.364
214.72	166.667
215.09	150.000
215.47	53.846
215.84	-90.909
216.22	-133.333
216.59	-100.000
216.97	400.000
217.34	0.000
217.72	-100.000
218.09	200.000
218.47	112.500
218.84	100.000
219.22	66.667
219.59	100.000
219.97	300.000
220.34	50.000
220.72	128.571
221.09	-150.000
221.47	650.000
221.84	100.000
222.22	-600.000
222.59	109.091
222.97	58.333
223.34	166.667
223.72	14.286
224.09	38.095
224.46	25.000
224.84	166.667
225.21	40.000
225.59	60.000
225.96	250.000
226.34	100.000
226.71	28.571
227.08	-116.667
227.46	175.000
227.83	-350.000
228.21	122.222
228.58	54.545
228.95	-12.500
229.33	50.000
229.70	18.750
230.08	-62.500
230.45	71.429
230.82	185.714
231.20	46.667
231.57	71.429
231.95	0.000
232.32	-50.000
232.69	57.143
233.07	166.667
233.44	60.000
233.81	-20.000
234.19	-55.556
234.56	-5.882
234.93	250.000
235.31	75.000
235.68	-200.000
236.05	138.462
236.43	10.000
236.80	82.353
237.17	65.625
237.55	10.000
237.92	22.222
238.29	47.222
238.67	43.333
239.04	23.529
239.41	17.073
239.79	20.000
240.16	43.902
240.53	28.947
240.91	30.435
241.28	28.571
241.65	50.000
242.02	45.205
242.40	38.333
242.77	37.288
243.14	34.848
243.51	42.500
243.89	49.425
244.26	22.989
244.63	34.524
245.00	37.113
245.38	41.237
245.75	31.461
246.12	30.172
246.49	35.537
246.87	36.538
247.24	29.412
247.61	28.947
247.98	28.455
248.36	24.375
248.73	36.184
249.10	35.714
249.47	29.747
249.84	32.026
250.22	33.529
250.59	32.026
250.96	34.272
251.33	34.302
251.70	34.706
252.08	29.442
252.45	34.158
252.82	34.171
253.19	35.023
253.56	31.308
253.94	35.586
254.31	36.957
254.68	39.035
255.05	35.827
255.42	33.624
255.79	33.205
256.16	33.463
256.54	35.821
256.91	33.080
257.28	28.253
257.65	29.588
258.02	30.496
258.39	32.997
258.76	32.967
259.14	32.226
259.51	32.686
259.88	32.302
260.25	34.314
260.62	37.847
260.99	30.169
261.36	29.795
261.73	31.646
262.10	34.043
262.47	31.595
262.85	31.034
263.22	34.462
263.59	35.826
263.96	36.335
264.33	34.848
264.70	33.036
265.07	34.821
265.44	32.295
265.81	30.226
266.18	33.333
266.55	32.134
266.92	33.679
267.29	33.159
267.66	32.737
268.03	35.864
268.40	31.070
268.77	36.898
269.14	34.532
269.51	32.648
269.88	34.663
270.25	30.102
270.62	31.220
270.99	32.225
271.36	31.785
271.73	32.160
272.10	29.197
272.47	32.388
272.84	30.941
273.21	32.483
273.58	33.494
273.95	31.579
274.32	33.949
274.69	26.923
275.06	34.152
275.43	31.973
275.80	30.464
276.17	32.644
276.54	29.764
276.91	32.456
277.28	29.694
277.65	30.165
278.02	32.128
278.39	32.823
278.76	31.656
279.13	28.423
279.50	33.403
279.87	28.726
280.23	29.892
280.60	31.384
280.97	31.717
281.34	27.308
281.71	29.979
282.08	30.470
282.45	29.354
282.82	27.413
283.19	31.335
283.56	29.287
283.92	30.171
284.29	28.462
284.66	27.713
285.03	28.487
285.40	27.788
285.77	27.768
286.14	29.603
286.51	28.967
286.87	25.960
287.24	30.203
287.61	26.455
287.98	30.000
288.35	26.690
288.72	28.722
289.08	27.951
289.45	28.120
289.82	28.671
290.19	26.621
290.56	26.930
290.93	24.242
291.29	25.886
291.66	26.457
292.03	23.764
292.40	26.613
292.77	26.475
293.13	22.890
293.50	24.734
293.87	23.511
294.24	24.575
294.60	22.802
294.97	24.851
295.34	24.847
295.71	23.249
296.08	23.468
296.44	20.057
296.81	21.806
297.18	22.174
297.55	23.442
297.91	20.959
298.28	24.670
298.65	22.931
299.02	22.642
299.38	23.666
299.75	22.621
300.12	20.942
300.48	20.290
300.85	22.180
301.22	21.688
301.59	21.184
301.95	20.127
302.32	21.401
302.69	20.522
303.05	20.545
303.42	20.423
303.79	21.846
304.15	21.505
304.52	21.165
304.89	19.532
305.25	20.460
305.62	19.370
305.99	19.883
306.35	19.538
306.72	20.810
307.09	20.753
307.45	20.896
307.82	19.560
308.19	21.487
308.55	17.775
308.92	20.153
309.29	19.330
309.65	19.699
310.02	19.692
310.38	19.978
310.75	20.328
311.12	19.914
311.48	19.406
311.85	20.105
312.22	19.304
312.58	18.684
312.95	20.598
313.31	19.462
313.68	20.105
314.05	20.408
314.41	20.206
314.78	19.794
315.14	22.097
315.51	20.186
315.87	19.775
316.24	23.357
316.61	21.457
316.97	21.925
317.34	22.363
317.70	22.275
318.07	21.827
318.43	21.863
318.80	20.833
319.16	21.875
319.53	23.457
319.89	24.508
320.26	26.012
320.62	25.577
320.99	24.426
321.35	26.413
321.72	27.414
322.08	25.881
322.45	26.802
322.81	25.639
323.18	26.987
323.54	26.834
323.91	28.335
324.27	29.883
324.64	31.273
325.00	31.022
325.37	33.150
325.73	33.001
326.10	33.787
326.46	35.067
326.83	35.608
327.19	35.833
327.56	37.619
327.92	38.908
328.29	37.946
328.65	40.189
329.01	40.717
329.38	42.488
329.74	42.210
330.11	43.095
330.47	42.208
330.84	43.654
331.20	46.483
331.56	45.463
331.93	46.027
332.29	45.738
332.66	45.339
333.02	46.468
333.38	46.563
333.75	49.634
334.11	46.374
334.48	48.595
334.84	48.810
335.20	49.222
335.57	49.320
335.93	49.322
336.29	50.276
336.66	50.772
337.02	50.929
337.38	49.074
337.75	50.273
338.11	51.037
338.47	51.277
338.84	51.571
339.20	50.366
339.56	53.028
339.93	50.671
340.29	52.202
340.65	51.703
341.02	50.887
341.38	50.442
341.74	50.972
342.11	49.913
342.47	51.335
342.83	52.163
343.20	50.000
343.56	51.652
343.92	51.993
344.28	51.836
344.65	51.554
345.01	51.513
345.37	51.724
345.73	51.297
346.10	51.682
346.46	51.388
346.82	51.309
347.19	50.208
347.55	52.381
347.91	52.104
348.27	51.900
348.63	52.300
349.00	52.502
349.36	52.203
349.72	52.073
350.08	51.066
350.45	51.716
350.81	51.910
351.17	50.977
351.53	51.020
351.89	50.784
352.26	50.960
352.62	52.500
352.98	50.924
353.34	49.839
353.70	51.861
354.07	51.694
354.43	50.921
354.79	52.849
355.15	52.857
355.51	52.769
355.87	51.861
356.24	50.653
356.60	53.597
356.96	52.540
357.32	50.719
357.68	50.508
358.04	52.423
358.40	51.768
358.77	53.030
359.13	51.561
359.49	51.849
359.85	53.510
360.21	52.233
360.57	50.191
360.93	53.101
361.29	50.529
361.66	52.978
362.02	52.273
362.38	53.008
362.74	53.596
363.10	53.424
363.46	51.890
363.82	53.794
364.18	52.546
364.54	52.279
364.90	53.548
365.26	53.057
365.62	53.796
365.98	54.619
366.35	53.897
366.71	54.250
367.07	53.483
367.43	54.062
367.79	53.640
368.15	54.056
368.51	54.406
368.87	53.697
369.23	52.852
369.59	55.466
369.95	54.252
370.31	53.540
370.67	54.851
371.03	54.444
371.39	53.975
371.75	54.725
372.11	54.137
372.47	55.843
372.83	54.365
373.19	54.066
373.55	54.729
373.91	55.148
374.27	56.130
374.63	55.635
374.99	56.028
375.35	55.014
375.71	57.203
376.07	55.548
376.42	55.510
376.78	56.644
377.14	56.263
377.50	56.109
377.86	57.764
378.22	57.052
378.58	56.795
378.94	58.286
379.30	56.831
379.66	58.809
380.02	56.101
380.38	58.065
380.74	57.391
381.09	58.957
381.45	57.737
381.81	58.236
382.17	58.185
382.53	57.714
382.89	60.013
383.25	59.365
383.61	60.122
383.97	58.921
384.32	59.662
384.68	59.567
385.04	59.130
385.40	59.490
385.76	61.069
386.12	60.737
386.48	59.898
386.83	61.065
387.19	61.294
387.55	61.104
387.91	60.758
388.27	61.538
388.62	62.807
388.98	61.387
389.34	60.525
389.70	60.845
390.06	60.227
390.42	61.788
390.77	61.216
391.13	61.791
391.49	62.031
391.85	62.573
392.20	60.138
392.56	61.793
392.92	62.654
393.28	62.441
393.64	62.162
393.99	64.013
394.35	62.113
394.71	62.963
395.07	60.779
395.42	61.263
395.78	62.736
396.14	61.917
396.50	61.699
396.85	61.880
397.21	62.845
397.57	62.006
397.92	63.391
398.28	64.023
398.64	61.627
399.00	62.867
399.35	61.569
399.71	61.401
400.07	64.027
400.42	61.689
400.78	62.339
401.14	60.194
401.49	62.120
401.85	62.035
402.21	61.867
402.57	63.937
402.92	61.857
403.28	61.905
403.63	62.547
403.99	64.477
404.35	63.523
404.70	61.250
405.06	62.338
405.42	62.275
405.77	61.650
406.13	63.213
406.49	61.634
406.84	61.736
407.20	62.492
407.55	62.460
407.91	61.832
408.27	62.651
408.62	62.708
408.98	61.245
409.34	62.454
409.69	60.982
410.05	60.899
410.40	61.420
410.76	62.364
411.11	62.437
411.47	62.788
411.83	61.017
412.18	62.355
412.54	61.923
412.89	61.576
413.25	62.455
413.60	61.242
413.96	60.491
414.31	61.951
414.67	61.578
415.03	61.385
415.38	62.141
415.74	61.759
416.09	62.639
416.45	61.377
416.80	61.401
417.16	62.431
417.51	61.892
417.87	61.930
418.22	64.119
418.58	62.007
418.93	62.947
419.29	61.460
419.64	63.772
420.00	64.232
420.35	63.522
420.71	63.062
421.06	62.983
421.42	64.002
421.77	62.659
422.12	64.188
422.48	62.967
422.83	63.689
423.19	63.488
423.54	62.375
423.90	62.956
424.25	63.605
424.61	65.422
424.96	62.485
425.31	65.396
425.67	65.317
426.02	64.547
426.38	65.122
426.73	65.738
427.09	65.886
427.44	65.588
427.79	64.643
428.15	64.138
428.50	65.657
428.85	64.251
429.21	65.478
429.56	65.229
429.92	65.537
430.27	64.311
430.62	66.022
430.98	66.507
431.33	65.668
431.68	65.358
432.04	66.238
432.39	65.145
432.74	64.522
433.10	66.149
433.45	64.755
433.80	67.092
434.16	65.651
434.51	66.613
434.86	66.957
435.22	64.554
435.57	65.939
435.92	65.868
436.28	63.804
436.63	65.203
436.98	66.396
437.34	66.848
437.69	67.203
438.04	66.382
438.39	65.547
438.75	67.699
439.10	67.402
439.45	68.655
439.81	67.706
440.16	69.002
440.51	67.642
440.86	68.036
441.22	66.403
441.57	67.826
441.92	69.885
442.27	68.348
442.63	67.184
442.98	68.122
443.33	68.225
443.68	67.639
444.03	68.107
444.39	67.880
444.74	69.064
445.09	69.154
445.44	69.231
445.79	68.953
446.15	67.566
446.50	67.776
446.85	69.182
447.20	68.040
447.55	69.029
447.91	67.908
448.26	69.095
448.61	69.545
448.96	68.503
449.31	69.422
449.66	68.583
450.02	68.967
450.37	69.354
450.72	69.129
451.07	67.848
451.42	66.979
451.77	68.174
452.12	67.404
452.47	68.126
452.83	69.140
453.18	68.564
453.53	68.837
453.88	68.488
454.23	69.084
454.58	69.521
454.93	68.750
455.28	67.873
455.63	69.746
455.98	69.032
456.34	67.688
456.69	69.377
457.04	69.124
457.39	70.778
457.74	69.166
458.09	68.158
458.44	68.754
458.79	69.356
459.14	69.108
459.49	70.507
459.84	68.754
460.19	69.539
460.54	70.049
460.89	69.432
461.24	70.559
461.59	71.556
461.94	66.981
462.29	69.119
462.64	69.701
462.99	69.736
463.34	69.541
463.69	69.562
464.04	69.734
464.39	69.315
464.74	69.571
465.09	69.432
465.44	69.590
465.79	69.388
466.14	69.840
466.49	69.465
466.84	69.066
467.19	69.024
467.54	67.816
467.89	70.246
468.24	69.161
468.59	71.556
468.94	68.889
469.29	69.311
469.64	68.148
469.99	70.918
470.34	68.123
470.68	69.426
471.03	69.214
471.38	69.615
471.73	70.098
472.08	68.792
472.43	70.604
472.78	68.129
473.13	69.456
473.48	70.423
473.83	69.365
474.17	69.301
474.52	68.475
474.87	70.000
475.22	69.616
475.57	69.622
475.92	70.927
476.27	70.955
476.61	70.255
476.96	69.214
477.31	68.524
477.66	68.876
478.01	70.578
478.36	69.935
478.70	70.038
479.05	69.780
479.40	71.489
479.75	68.457
480.10	69.176
480.45	70.400
480.79	70.846
481.14	70.799
481.49	69.606
481.84	71.284
482.19	69.130
482.53	69.832
482.88	70.549
483.23	68.954
483.58	70.283
483.92	69.216
484.27	68.733
484.62	68.848
484.97	69.527
485.31	70.376
485.66	72.004
486.01	74.386
486.36	73.727
486.70	72.613
487.05	71.856
487.40	71.613
487.75	70.113
488.09	69.376
488.44	68.982
488.79	69.481
489.13	69.872
489.48	68.405
489.83	70.359
490.17	68.854
490.52	68.915
490.87	69.273
491.22	69.819
491.56	68.406
491.91	68.929
492.26	70.102
492.60	68.090
492.95	69.946
493.30	68.784
493.64	68.762
493.99	69.952
494.34	69.563
494.68	69.000
495.03	68.564
495.37	68.597
495.72	70.015
496.07	70.341
496.41	70.094
496.76	69.922
497.11	69.353
497.45	69.069
497.80	70.182
498.14	69.001
498.49	68.969
498.84	69.062
499.18	69.478
499.53	70.188
499.87	68.191
500.22	70.129
500.56	70.449
500.91	68.173
501.26	67.968
501.60	69.159
501.95	70.015
502.29	69.153
502.64	70.608
502.98	70.794
503.33	68.204
503.67	68.578
504.02	70.039
504.36	68.976
504.71	69.293
505.06	68.395
505.40	67.919
505.75	69.536
506.09	67.714
506.44	70.226
506.78	69.643
507.13	68.925
507.47	67.467
507.82	67.895
508.16	66.614
508.51	69.517
508.85	68.707
509.19	67.696
509.54	68.579
509.88	67.691
510.23	69.123
510.57	67.825
510.92	67.058
511.26	68.631
511.61	68.867
511.95	68.767
512.30	68.514
512.64	67.334
512.98	68.332
513.33	68.607
513.67	67.993
514.02	69.336
514.36	68.000
514.70	69.872
515.05	67.626
515.39	67.237
515.74	67.904
516.08	68.141
516.42	68.139
516.77	68.637
517.11	67.953
517.46	68.462
517.80	68.713
518.14	68.708
518.49	66.947
518.83	68.955
519.17	66.161
519.52	67.673
519.86	67.647
520.20	68.469
520.55	67.230
520.89	66.688
521.23	66.434
521.58	68.580
521.92	66.923
522.26	67.209
522.61	67.273
522.95	69.272
523.29	67.408
523.64	67.598
523.98	67.790
524.32	67.526
524.66	69.014
525.01	67.338
525.35	67.272
525.69	68.350
526.04	67.063
526.38	66.667
526.72	66.514
527.06	66.018
527.41	67.942
527.75	69.102
528.09	65.449
528.43	68.130
528.78	67.129
529.12	67.032
529.46	68.291
529.80	66.371
530.15	68.185
530.49	68.620
530.83	68.741
531.17	67.025
531.51	68.468
531.86	66.417
532.20	68.546
532.54	67.937
532.88	67.351
533.22	67.070
533.57	68.021
533.91	68.277
534.25	68.815
534.59	67.928
534.93	67.527
535.27	66.815
535.62	67.855
535.96	67.645
536.30	67.348
536.64	68.573
536.98	67.944
537.32	68.065
537.66	66.620
538.01	68.462
538.35	68.239
538.69	68.309
539.03	67.532
539.37	68.641
539.71	68.303
540.05	68.092
540.39	67.659
540.73	67.713
541.07	69.268
541.42	67.876
541.76	69.924
542.10	68.341
542.44	69.145
542.78	66.965
543.12	67.720
543.46	68.428
543.80	69.882
544.14	66.489
544.48	67.888
544.82	68.353
545.16	70.628
545.50	67.423
545.84	68.059
546.18	68.511
546.52	66.835
546.86	68.009
547.20	68.383
547.54	67.420
547.88	69.769
548.22	68.376
548.56	67.084
548.90	69.609
549.24	66.598
549.58	67.419
549.92	66.762
550.26	67.253
550.60	67.955
550.94	67.961
551.28	66.538
551.62	67.923
551.96	67.519
552.30	69.591
552.64	68.406
552.98	68.214
553.32	68.188
553.66	69.231
554.00	67.153
554.34	68.685
554.68	67.773
555.02	67.932
555.36	69.783
555.69	66.960
556.03	67.380
556.37	67.544
556.71	68.448
557.05	68.084
557.39	67.286
557.73	66.117
558.07	68.401
558.41	68.913
558.75	67.498
559.08	65.563
559.42	66.746
559.76	69.496
560.10	67.813
560.44	67.089
560.78	67.133
561.12	68.970
561.45	69.079
561.79	68.697
562.13	68.559
562.47	69.137
562.81	68.156
563.15	66.432
563.48	68.105
563.82	68.977
564.16	68.733
564.50	69.730
564.84	68.474
565.17	67.539
565.51	70.150
565.85	70.576
566.19	70.027
566.52	70.040
566.86	69.730
567.20	69.116
567.54	70.073
567.88	71.295
568.21	71.154
568.55	70.761
568.89	71.766
569.23	71.642
569.56	72.636
569.90	73.366
570.24	73.539
570.57	73.927
570.91	73.754
571.25	73.167
571.59	72.656
571.92	72.237
572.26	73.400
572.60	73.302
572.93	73.015
573.27	72.539
573.61	73.359
573.95	73.812
574.28	73.358
574.62	73.354
574.96	73.872
575.29	73.094
575.63	71.547
575.97	72.242
576.30	73.039
576.64	72.503
576.98	74.028
577.31	73.999
577.65	75.092
577.98	75.232
578.32	74.453
578.66	73.114
578.99	72.953
579.33	72.271
579.67	72.041
580.00	72.582
580.34	73.781
580.67	72.008
581.01	73.103
581.35	74.096
581.68	74.926
582.02	74.527
582.35	74.522
582.69	74.795
583.02	73.788
583.36	73.646
583.70	73.027
584.03	73.339
584.37	74.026
584.70	72.665
585.04	72.694
585.37	73.907
585.71	73.834
586.04	72.995
586.38	72.899
586.72	74.204
587.05	73.657
587.39	74.616
587.72	75.642
588.06	74.011
588.39	73.170
588.73	71.703
589.06	72.505
589.40	73.453
589.73	73.019
590.07	73.452
590.40	72.678
590.73	73.229
591.07	71.162
591.40	71.638
591.74	71.448
592.07	71.892
592.41	73.101
592.74	72.521
593.08	72.756
593.41	74.366
593.75	73.373
594.08	72.091
594.41	72.562
594.75	72.824
595.08	72.947
595.42	72.874
595.75	73.639
596.09	72.088
596.42	72.303
596.75	71.803
597.09	71.572
597.42	71.635
597.75	72.744
598.09	71.163
598.42	71.029
598.76	73.059
599.09	73.077
599.42	72.149
599.76	73.514
600.09	72.398
600.42	73.541
600.76	72.028
601.09	72.863
601.42	71.876
601.76	71.695
602.09	73.061
602.42	73.673
602.76	72.538
603.09	72.550
603.42	74.498
603.76	71.734
604.09	71.891
604.42	72.420
604.76	73.698
605.09	71.755
605.42	71.422
605.75	72.723
606.09	72.739
606.42	71.726
606.75	72.078
607.09	71.780
607.42	71.422
607.75	71.137
608.08	70.261
608.42	70.443
608.75	73.301
609.08	71.550
609.41	72.234
609.75	69.909
610.08	71.593
610.41	71.014
610.74	72.745
611.07	72.972
611.41	71.614
611.74	73.081
612.07	71.306
612.40	72.155
612.73	72.260
613.07	70.247
613.40	70.733
613.73	72.020
614.06	71.285
614.39	70.389
614.72	71.317
615.06	71.397
615.39	70.742
615.72	70.452
616.05	70.782
616.38	70.085
616.71	70.642
617.05	69.487
617.38	69.516
617.71	70.126
618.04	70.476
618.37	70.996
618.70	70.825
619.03	70.972
619.36	68.886
619.69	70.432
620.03	71.220
620.36	69.886
620.69	69.165
621.02	68.578
621.35	69.046
621.68	68.878
622.01	69.417
622.34	69.114
622.67	69.795
623.00	69.066
623.33	70.427
623.66	68.736
623.99	68.835
624.32	70.038
624.65	69.398
624.99	70.278
625.32	69.598
625.65	70.149
625.98	70.105
626.31	67.664
626.64	69.151
626.97	67.365
627.30	68.827
627.63	67.418
627.96	69.362
628.29	69.288
628.62	66.273
628.95	66.533
629.28	68.448
629.61	66.500
629.94	66.764
630.26	66.502
630.59	69.303
630.92	68.103
631.25	66.154
631.58	66.410
631.91	67.873
632.24	66.972
632.57	65.455
632.90	63.582
633.23	65.882
633.56	64.987
633.89	64.612
