SpectraSuite Data File
++++++++++++++++++++++++++++++++++++
Date: Fri May 15 17:27:12 PDT 2015
User: schluterlab
Dark Spectrum Present: Yes
Reference Spectrum Present: Yes
Number of Sampled Component Spectra: 1
Spectrometers: USB2E3373
Integration Time (usec): 3000 (USB2E3373)
Spectra Averaged: 3 (USB2E3373)
Boxcar Smoothing: 0 (USB2E3373)
Correct for Electrical Dark: No (USB2E3373)
Strobe/Lamp Enabled: No (USB2E3373)
Correct for Detector Non-linearity: No (USB2E3373)
Correct for Stray Light: No (USB2E3373)
Number of Pixels in Processed Spectrum: 2048
>>>>>Begin Processed Spectral Data<<<<<
178.53	0.000
178.91	0.000
179.29	100.000
179.67	-200.000
180.04	-42.857
180.42	300.000
180.80	0.000
181.18	133.333
181.56	450.000
181.94	200.000
182.31	600.000
182.69	-140.000
183.07	-200.000
183.45	-20.000
183.83	183.333
184.20	-9.091
184.58	111.111
184.96	-150.000
185.34	-133.333
185.72	-100.000
186.09	107.692
186.47	0.000
186.85	100.000
187.23	122.222
187.61	-600.000
187.98	-233.333
188.36	11.111
188.74	-333.333
189.12	41.176
189.49	61.111
189.87	0.000
190.25	64.286
190.63	250.000
191.00	0.000
191.38	10.526
191.76	250.000
192.14	-125.000
192.51	200.000
192.89	33.333
193.27	0.000
193.65	66.667
194.02	100.000
194.40	100.000
194.78	-112.500
195.15	0.000
195.53	37.500
195.91	225.000
196.29	-150.000
196.66	100.000
197.04	171.429
197.42	44.444
197.79	-66.667
198.17	-107.692
198.55	1300.000
198.92	-100.000
199.30	-100.000
199.68	40.000
200.05	-233.333
200.43	0.000
200.81	466.667
201.18	-233.333
201.56	1100.000
201.94	-250.000
202.31	-233.333
202.69	-100.000
203.07	-175.000
203.44	500.000
203.82	0.000
204.19	64.286
204.57	-133.333
204.95	12.500
205.32	110.000
205.70	128.571
206.08	150.000
206.45	122.222
206.83	28.571
207.20	-171.429
207.58	400.000
207.96	0.000
208.33	-70.000
208.71	75.000
209.08	-83.333
209.46	0.000
209.84	-20.000
210.21	-1000.000
210.59	71.429
210.96	-200.000
211.34	50.000
211.71	13.333
212.09	-42.857
212.46	-1100.000
212.84	0.000
213.22	70.000
213.59	700.000
213.97	-23.077
214.34	9.091
214.72	-233.333
215.09	175.000
215.47	-46.154
215.84	45.455
216.22	-333.333
216.59	-37.500
216.97	850.000
217.34	0.000
217.72	-60.000
218.09	87.500
218.47	200.000
218.84	-100.000
219.22	-11.111
219.59	-20.000
219.97	100.000
220.34	75.000
220.72	128.571
221.09	-225.000
221.47	350.000
221.84	-300.000
222.22	-300.000
222.59	45.455
222.97	91.667
223.34	133.333
223.72	-7.143
224.09	-9.524
224.46	21.429
224.84	433.333
225.21	90.000
225.59	53.333
225.96	-50.000
226.34	150.000
226.71	14.286
227.08	0.000
227.46	-25.000
227.83	-500.000
228.21	33.333
228.58	90.909
228.95	0.000
229.33	100.000
229.70	-6.250
230.08	-137.500
230.45	-142.857
230.82	157.143
231.20	6.667
231.57	157.143
231.95	-14.286
232.32	-120.000
232.69	78.571
233.07	466.667
233.44	-60.000
233.81	-120.000
234.19	77.778
234.56	5.882
234.93	-250.000
235.31	325.000
235.68	-220.000
236.05	-15.385
236.43	20.000
236.80	82.353
237.17	28.125
237.55	-10.000
237.92	-29.630
238.29	13.889
238.67	83.333
239.04	14.706
239.41	-4.878
239.79	6.667
240.16	34.146
240.53	0.000
240.91	28.261
241.28	25.397
241.65	26.786
242.02	27.397
242.40	33.333
242.77	30.508
243.14	34.848
243.51	31.250
243.89	39.080
244.26	32.184
244.63	19.048
245.00	26.804
245.38	38.144
245.75	19.101
246.12	15.517
246.49	29.752
246.87	29.808
247.24	25.210
247.61	21.053
247.98	23.577
248.36	26.250
248.73	26.316
249.10	27.922
249.47	21.519
249.84	26.797
250.22	30.588
250.59	26.797
250.96	30.986
251.33	30.233
251.70	25.882
252.08	27.411
252.45	29.703
252.82	28.141
253.19	29.493
253.56	28.505
253.94	31.081
254.31	28.696
254.68	29.825
255.05	23.228
255.42	24.891
255.79	27.027
256.16	31.128
256.54	29.851
256.91	27.376
257.28	24.907
257.65	22.846
258.02	26.950
258.39	28.956
258.76	29.670
259.14	29.568
259.51	28.803
259.88	26.804
260.25	24.510
260.62	30.208
260.99	25.085
261.36	23.973
261.73	25.633
262.10	27.964
262.47	27.301
262.85	24.765
263.22	24.000
263.59	31.464
263.96	28.261
264.33	27.576
264.70	27.679
265.07	25.000
265.44	27.762
265.81	25.141
266.18	25.956
266.55	29.563
266.92	28.756
267.29	24.543
267.66	24.552
268.03	25.131
268.40	24.543
268.77	31.283
269.14	26.379
269.51	29.049
269.88	24.439
270.25	26.276
270.62	25.366
270.99	23.529
271.36	23.227
271.73	29.577
272.10	26.277
272.47	27.423
272.84	26.485
273.21	26.218
273.58	26.265
273.95	27.689
274.32	25.635
274.69	23.982
275.06	27.232
275.43	23.583
275.80	26.932
276.17	24.598
276.54	27.623
276.91	23.684
277.28	26.419
277.65	28.306
278.02	23.404
278.39	22.976
278.76	28.721
279.13	23.651
279.50	26.891
279.87	25.918
280.23	26.022
280.60	27.875
280.97	23.434
281.34	27.115
281.71	26.283
282.08	25.153
282.45	25.049
282.82	23.359
283.19	25.338
283.56	26.397
283.92	24.288
284.29	25.000
284.66	25.388
285.03	23.183
285.40	26.087
285.77	23.726
286.14	23.646
286.51	24.170
286.87	27.239
287.24	23.020
287.61	24.868
287.98	25.614
288.35	23.050
288.72	24.168
289.08	21.701
289.45	23.199
289.82	23.252
290.19	21.502
290.56	20.755
290.93	22.391
291.29	20.185
291.66	24.094
292.03	23.126
292.40	21.452
292.77	23.445
293.13	19.968
293.50	22.155
293.87	22.290
294.24	20.556
294.60	21.610
294.97	21.726
295.34	18.405
295.71	19.821
296.08	19.731
296.44	17.212
296.81	19.167
297.18	19.420
297.55	19.648
297.91	19.452
298.28	19.261
298.65	18.725
299.02	18.464
299.38	15.732
299.75	18.897
300.12	18.194
300.48	17.787
300.85	18.758
301.22	20.130
301.59	17.632
301.95	17.595
302.32	19.066
302.69	17.786
303.05	17.327
303.42	18.057
303.79	16.706
304.15	17.802
304.52	17.479
304.89	17.895
305.25	16.828
305.62	16.453
305.99	17.427
306.35	17.110
306.72	15.861
307.09	17.218
307.45	17.107
307.82	16.898
308.19	16.957
308.55	17.012
308.92	19.172
309.29	15.084
309.65	16.254
310.02	14.961
310.38	16.026
310.75	17.814
311.12	16.469
311.48	17.179
311.85	17.277
312.22	16.034
312.58	16.985
312.95	15.368
313.31	15.735
313.68	15.393
314.05	16.327
314.41	16.082
314.78	15.464
315.14	17.472
315.51	16.253
315.87	16.496
316.24	18.908
316.61	17.323
316.97	17.063
317.34	17.773
317.70	16.826
318.07	15.673
318.43	17.255
318.80	17.045
319.16	17.871
319.53	17.569
319.89	17.520
320.26	18.219
320.62	17.854
320.99	17.328
321.35	17.986
321.72	18.380
322.08	20.040
322.45	18.274
322.81	18.075
323.18	17.370
323.54	18.340
323.91	18.500
324.27	19.629
324.64	19.850
325.00	21.259
325.37	21.763
325.73	20.218
326.10	21.708
326.46	22.691
326.83	23.097
327.19	22.319
327.56	23.197
327.92	23.327
328.29	23.839
328.65	24.717
329.01	24.908
329.38	25.622
329.74	26.157
330.11	26.228
330.47	25.974
330.84	26.923
331.20	29.658
331.56	26.389
331.93	28.311
332.29	29.606
332.66	28.235
333.02	28.346
333.38	27.864
333.75	29.121
334.11	28.111
334.48	29.556
334.84	29.396
335.20	30.284
335.57	29.918
335.93	30.081
336.29	29.466
336.66	30.336
337.02	29.554
337.38	30.093
337.75	30.818
338.11	30.748
338.47	31.661
338.84	31.885
339.20	31.261
339.56	31.651
339.93	31.065
340.29	30.459
340.65	31.183
341.02	31.117
341.38	31.770
341.74	31.184
342.11	30.676
342.47	32.295
342.83	31.747
343.20	31.794
343.56	32.522
343.92	31.532
344.28	33.646
344.65	33.074
345.01	32.498
345.37	31.119
345.73	32.134
346.10	34.167
346.46	32.380
346.82	32.570
347.19	31.505
347.55	31.830
347.91	31.715
348.27	32.498
348.63	32.198
349.00	31.337
349.36	32.668
349.72	33.665
350.08	31.803
350.45	31.604
350.81	31.395
351.17	31.922
351.53	33.143
351.89	32.122
352.26	30.720
352.62	33.145
352.98	32.369
353.34	32.770
353.70	32.443
354.07	32.661
354.43	32.346
354.79	33.691
355.15	33.889
355.51	32.991
355.87	32.848
356.24	31.321
356.60	32.175
356.96	33.492
357.32	31.869
357.68	32.838
358.04	34.006
358.40	34.003
358.77	32.775
359.13	34.588
359.49	32.820
359.85	33.385
360.21	32.935
360.57	33.588
360.93	34.493
361.29	32.024
361.66	34.639
362.02	33.712
362.38	34.653
362.74	34.671
363.10	34.086
363.46	34.099
363.82	35.237
364.18	35.277
364.54	34.191
364.90	34.050
365.26	34.425
365.62	35.620
365.98	34.531
366.35	36.344
366.71	36.659
367.07	36.430
367.43	35.226
367.79	36.678
368.15	35.319
368.51	35.615
368.87	35.894
369.23	34.440
369.59	35.714
369.95	35.191
370.31	35.910
370.67	36.493
371.03	36.370
371.39	35.376
371.75	36.630
372.11	35.877
372.47	37.574
372.83	37.331
373.19	36.876
373.55	35.235
373.91	36.573
374.27	38.271
374.63	36.540
374.99	37.021
375.35	38.231
375.71	37.762
376.07	38.483
376.42	37.687
376.78	38.792
377.14	38.050
377.50	39.110
377.86	38.554
378.22	40.013
378.58	39.231
378.94	38.689
379.30	39.800
379.66	40.000
380.02	40.589
380.38	40.596
380.74	40.215
381.09	41.840
381.45	41.957
381.81	42.751
382.17	41.878
382.53	42.598
382.89	42.812
383.25	42.315
383.61	43.049
383.97	44.127
384.32	42.714
384.68	42.910
385.04	42.279
385.40	42.937
385.76	44.088
386.12	44.955
386.48	45.211
386.83	43.500
387.19	44.383
387.55	44.981
387.91	45.660
388.27	44.872
388.62	46.759
388.98	44.015
389.34	45.097
389.70	45.245
390.06	46.193
390.42	46.438
390.77	46.305
391.13	45.776
391.49	46.766
391.85	47.693
392.20	46.453
392.56	47.044
392.92	48.150
393.28	47.347
393.64	47.808
393.99	47.461
394.35	46.806
394.71	47.510
395.07	47.643
395.42	47.237
395.78	48.469
396.14	48.172
396.50	48.573
396.85	49.131
397.21	48.183
397.57	48.339
397.92	48.232
398.28	48.046
398.64	47.530
399.00	49.492
399.35	47.912
399.71	48.363
400.07	48.489
400.42	48.225
400.78	48.561
401.14	48.336
401.49	49.315
401.85	48.202
402.21	48.614
402.57	47.812
402.92	49.184
403.28	49.812
403.63	49.811
403.99	50.064
404.35	49.656
404.70	47.738
405.06	49.177
405.42	49.410
405.77	48.925
406.13	49.884
406.49	49.082
406.84	49.205
407.20	49.187
407.55	49.195
407.91	48.396
408.27	48.821
408.62	50.031
408.98	50.031
409.34	50.124
409.69	49.225
410.05	48.214
410.40	49.753
410.76	49.095
411.11	49.375
411.47	49.047
411.83	47.897
412.18	50.772
412.54	49.064
412.89	49.076
413.25	50.662
413.60	49.379
413.96	48.896
414.31	49.390
414.67	49.198
415.03	49.201
415.38	50.000
415.74	51.075
416.09	48.857
416.45	50.979
416.80	49.967
417.16	50.622
417.51	49.101
417.87	49.674
418.22	50.518
418.58	49.766
418.93	50.721
419.29	49.040
419.64	50.940
420.00	50.630
420.35	50.746
420.71	51.094
421.06	50.952
421.42	51.082
421.77	51.272
422.12	50.795
422.48	51.056
422.83	50.928
423.19	52.257
423.54	51.029
423.90	50.294
424.25	51.378
424.61	51.285
424.96	51.742
425.31	53.380
425.67	52.465
426.02	52.827
426.38	52.912
426.73	51.695
427.09	52.722
427.44	52.294
427.79	52.210
428.15	52.731
428.50	51.726
428.85	50.553
429.21	52.915
429.56	52.022
429.92	52.388
430.27	51.629
430.62	51.281
430.98	51.858
431.33	52.419
431.68	52.119
432.04	50.978
432.39	51.112
432.74	52.135
433.10	53.103
433.45	51.254
433.80	52.815
434.16	52.632
434.51	53.495
434.86	53.426
435.22	53.113
435.57	54.086
435.92	53.473
436.28	52.534
436.63	53.908
436.98	52.607
437.34	53.055
437.69	52.415
438.04	53.561
438.39	53.574
438.75	53.370
439.10	53.424
439.45	54.960
439.81	53.823
440.16	55.760
440.51	53.791
440.86	56.798
441.22	53.790
441.57	54.801
441.92	55.509
442.27	55.488
442.63	55.300
442.98	54.337
443.33	54.090
443.68	54.058
444.03	55.539
444.39	54.353
444.74	56.187
445.09	55.178
445.44	56.410
445.79	55.286
446.15	54.460
446.50	55.297
446.85	56.323
447.20	55.735
447.55	56.473
447.91	55.217
448.26	55.435
448.61	56.937
448.96	57.143
449.31	56.879
449.66	56.620
450.02	54.421
450.37	56.017
450.72	55.155
451.07	56.899
451.42	55.868
451.77	56.299
452.12	55.203
452.47	55.570
452.83	56.537
453.18	56.040
453.53	56.384
453.88	56.223
454.23	55.931
454.58	56.234
454.93	56.572
455.28	55.492
455.63	56.293
455.98	55.983
456.34	56.130
456.69	56.480
457.04	55.640
457.39	56.015
457.74	55.502
458.09	55.091
458.44	55.939
458.79	55.966
459.14	56.636
459.49	56.239
459.84	55.386
460.19	56.371
460.54	56.479
460.89	55.795
461.24	55.963
461.59	55.701
461.94	54.906
462.29	54.644
462.64	56.279
462.99	55.179
463.34	55.007
463.69	56.821
464.04	55.751
464.39	56.095
464.74	56.564
465.09	55.209
465.44	55.049
465.79	54.762
466.14	55.416
466.49	55.894
466.84	56.038
467.19	55.757
467.54	56.258
467.89	55.148
468.24	54.501
468.59	55.937
468.94	56.127
469.29	55.475
469.64	55.639
469.99	57.463
470.34	54.266
470.68	53.915
471.03	54.848
471.38	55.920
471.73	54.552
472.08	55.427
472.43	55.436
472.78	54.764
473.13	56.190
473.48	55.114
473.83	55.791
474.17	56.671
474.52	56.796
474.87	54.667
475.22	56.010
475.57	55.392
475.92	54.690
476.27	55.413
476.61	57.176
476.96	54.434
477.31	55.760
477.66	54.551
478.01	55.194
478.36	54.956
478.70	57.477
479.05	55.769
479.40	56.704
479.75	53.806
480.10	53.866
480.45	55.800
480.79	57.503
481.14	55.789
481.49	55.271
481.84	56.274
482.19	54.724
482.53	56.259
482.88	55.943
483.23	54.271
483.58	53.962
483.92	54.889
484.27	54.512
484.62	54.325
484.97	55.431
485.31	54.733
485.66	55.508
486.01	57.474
486.36	56.685
486.70	56.649
487.05	56.466
487.40	55.946
487.75	54.648
488.09	53.585
488.44	53.508
488.79	53.717
489.13	54.447
489.48	54.382
489.83	53.722
490.17	53.753
490.52	54.226
490.87	52.615
491.22	54.489
491.56	54.507
491.91	52.868
492.26	54.302
492.60	53.311
492.95	55.632
493.30	54.372
493.64	55.108
493.99	53.720
494.34	53.981
494.68	53.905
495.03	52.847
495.37	54.760
495.72	54.165
496.07	54.585
496.41	53.726
496.76	55.044
497.11	54.262
497.45	54.702
497.80	54.743
498.14	54.049
498.49	53.936
498.84	53.693
499.18	54.669
499.53	54.712
499.87	54.669
500.22	54.847
500.56	55.219
500.91	54.317
501.26	53.337
501.60	54.894
501.95	53.615
502.29	54.915
502.64	54.199
502.98	55.501
503.33	52.642
503.67	53.542
504.02	54.985
504.36	54.824
504.71	53.939
505.06	53.900
505.40	54.315
505.75	54.536
506.09	52.965
506.44	55.544
506.78	54.337
507.13	54.240
507.47	52.950
507.82	54.594
508.16	53.619
508.51	55.037
508.85	54.108
509.19	54.125
509.54	54.263
509.88	52.967
510.23	53.954
510.57	53.715
510.92	52.505
511.26	54.337
511.61	55.611
511.95	54.137
512.30	54.823
512.64	53.923
512.98	53.678
513.33	53.330
513.67	53.610
514.02	55.549
514.36	53.829
514.70	54.196
515.05	55.347
515.39	54.486
515.74	54.970
516.08	54.453
516.42	54.947
516.77	53.950
517.11	55.312
517.46	55.416
517.80	53.576
518.14	53.950
518.49	54.207
518.83	55.286
519.17	52.032
519.52	53.700
519.86	54.322
520.20	55.589
520.55	52.533
520.89	53.199
521.23	54.085
521.58	54.132
521.92	53.205
522.26	53.871
522.61	53.896
522.95	54.238
523.29	54.828
523.64	55.400
523.98	55.412
524.32	53.673
524.66	54.673
525.01	54.351
525.35	54.051
525.69	54.478
526.04	54.696
526.38	53.761
526.72	52.780
527.06	53.243
527.41	54.024
527.75	54.826
528.09	54.153
528.43	55.841
528.78	54.983
529.12	54.581
529.46	55.036
529.80	54.022
530.15	55.446
530.49	55.286
530.83	55.746
531.17	54.197
531.51	55.404
531.86	52.957
532.20	54.071
532.54	54.527
532.88	54.894
533.22	54.772
533.57	54.849
533.91	55.614
534.25	56.771
534.59	55.869
534.93	54.059
535.27	54.569
535.62	54.180
535.96	54.468
536.30	54.551
536.64	55.272
536.98	54.843
537.32	54.836
537.66	54.418
538.01	54.336
538.35	55.062
538.69	54.328
539.03	54.204
539.37	54.374
539.71	54.329
540.05	55.397
540.39	55.055
540.73	55.649
541.07	55.249
541.42	54.368
541.76	55.471
542.10	54.714
542.44	56.011
542.78	54.233
543.12	56.044
543.46	53.408
543.80	55.170
544.14	53.471
544.48	54.164
544.82	55.571
545.16	56.694
545.50	53.338
545.84	54.745
546.18	54.965
546.52	54.074
546.86	54.709
547.20	55.722
547.54	53.640
547.88	55.095
548.22	54.767
548.56	54.024
548.90	55.795
549.24	53.857
549.58	53.738
549.92	53.252
550.26	53.480
550.60	55.316
550.94	54.966
551.28	54.791
551.62	55.615
551.96	56.015
552.30	55.263
552.64	54.795
552.98	53.586
553.32	54.850
553.66	53.701
554.00	54.307
554.34	54.431
554.68	53.835
555.02	54.688
555.36	54.151
555.69	55.018
556.03	54.532
556.37	55.089
556.71	53.791
557.05	56.600
557.39	53.234
557.73	55.247
558.07	55.204
558.41	54.441
558.75	55.495
559.08	54.768
559.42	55.873
559.76	55.965
560.10	54.511
560.44	55.622
560.78	54.895
561.12	55.994
561.45	56.219
561.79	54.832
562.13	55.926
562.47	55.324
562.81	54.755
563.15	55.289
563.48	55.446
563.82	55.800
564.16	56.198
564.50	56.149
564.84	55.622
565.17	55.869
565.51	56.626
565.85	56.516
566.19	55.040
566.52	56.367
566.86	57.069
567.20	56.476
567.54	58.090
567.88	58.055
568.21	56.844
568.55	57.337
568.89	58.162
569.23	58.690
569.56	57.356
569.90	58.790
570.24	57.722
570.57	58.982
570.91	58.452
571.25	58.040
571.59	57.895
571.92	56.533
572.26	57.850
572.60	57.147
572.93	56.605
573.27	57.837
573.61	57.518
573.95	57.701
574.28	57.574
574.62	57.539
574.96	57.417
575.29	57.420
575.63	55.947
575.97	56.519
576.30	56.958
576.64	55.868
576.98	57.992
577.31	58.688
577.65	58.372
577.98	58.538
578.32	58.540
578.66	57.124
578.99	57.511
579.33	57.582
579.67	56.876
580.00	57.139
580.34	58.159
580.67	56.850
581.01	58.093
581.35	56.977
581.68	58.768
582.02	58.414
582.35	58.793
582.69	59.116
583.02	58.257
583.36	58.434
583.70	58.879
584.03	58.632
584.37	59.119
584.70	57.610
585.04	57.176
585.37	58.354
585.71	58.751
586.04	58.775
586.38	57.295
586.72	57.963
587.05	59.445
587.39	58.457
587.72	59.431
588.06	58.954
588.39	57.875
588.73	58.394
589.06	58.643
589.40	57.380
589.73	58.562
590.07	58.912
590.40	58.166
590.73	58.320
591.07	57.718
591.40	57.435
591.74	57.376
592.07	58.395
592.41	58.304
592.74	58.264
593.08	57.981
593.41	59.012
593.75	58.194
594.08	58.290
594.41	56.732
594.75	57.595
595.08	59.024
595.42	58.226
595.75	59.482
596.09	58.561
596.42	58.041
596.75	56.083
597.09	57.813
597.42	57.407
597.75	58.727
598.09	56.813
598.42	56.588
598.76	58.215
599.09	58.894
599.42	57.484
599.76	58.239
600.09	58.258
600.42	58.264
600.76	57.875
601.09	58.550
601.42	57.893
601.76	57.920
602.09	58.581
602.42	58.340
602.76	58.489
603.09	59.053
603.42	60.535
603.76	58.710
604.09	57.999
604.42	59.475
604.76	59.146
605.09	59.004
605.42	58.149
605.75	57.793
606.09	58.132
606.42	57.756
606.75	58.052
607.09	58.374
607.42	57.820
607.75	58.259
608.08	57.278
608.42	57.286
608.75	59.518
609.08	59.193
609.41	58.629
609.75	57.611
610.08	58.812
610.41	56.908
610.74	58.752
611.07	59.483
611.41	58.485
611.74	58.156
612.07	57.173
612.40	58.206
612.73	58.870
613.07	56.693
613.40	57.604
613.73	59.989
614.06	57.373
614.39	58.488
614.72	56.639
615.06	57.821
615.39	56.932
615.72	57.212
616.05	57.989
616.38	57.322
616.71	58.165
617.05	58.740
617.38	58.517
617.71	57.610
618.04	58.540
618.37	59.269
618.70	58.746
619.03	59.444
619.36	56.729
619.69	58.453
620.03	59.533
620.36	57.868
620.69	58.173
621.02	56.575
621.35	57.925
621.68	58.929
622.01	59.750
622.34	58.260
622.67	56.625
623.00	56.662
623.33	58.003
623.66	57.666
623.99	56.884
624.32	58.707
624.65	57.519
624.99	59.819
625.32	57.240
625.65	58.052
625.98	58.259
626.31	57.523
626.64	57.972
626.97	58.290
627.30	58.844
627.63	58.752
627.96	58.760
628.29	57.817
628.62	56.932
628.95	57.014
629.28	56.956
629.61	57.827
629.94	57.087
630.26	56.818
630.59	58.793
630.92	56.513
631.25	55.077
631.58	56.608
631.91	55.921
632.24	57.798
632.57	56.477
632.90	57.058
633.23	56.118
633.56	58.312
633.89	58.076
