SpectraSuite Data File
++++++++++++++++++++++++++++++++++++
Date: Fri May 15 17:14:11 PDT 2015
User: schluterlab
Dark Spectrum Present: Yes
Reference Spectrum Present: Yes
Number of Sampled Component Spectra: 1
Spectrometers: USB2E3373
Integration Time (usec): 3000 (USB2E3373)
Spectra Averaged: 3 (USB2E3373)
Boxcar Smoothing: 0 (USB2E3373)
Correct for Electrical Dark: No (USB2E3373)
Strobe/Lamp Enabled: No (USB2E3373)
Correct for Detector Non-linearity: No (USB2E3373)
Correct for Stray Light: No (USB2E3373)
Number of Pixels in Processed Spectrum: 2048
>>>>>Begin Processed Spectral Data<<<<<
178.53	0.000
178.91	0.000
179.29	125.000
179.67	200.000
180.04	-42.857
180.42	250.000
180.80	-100.000
181.18	100.000
181.56	650.000
181.94	500.000
182.31	-400.000
182.69	40.000
183.07	33.333
183.45	160.000
183.83	83.333
184.20	127.273
184.58	11.111
184.96	-275.000
185.34	-266.667
185.72	100.000
186.09	23.077
186.47	-600.000
186.85	-150.000
187.23	122.222
187.61	-1000.000
187.98	-66.667
188.36	0.000
188.74	0.000
189.12	88.235
189.49	27.778
189.87	0.000
190.25	50.000
190.63	400.000
191.00	100.000
191.38	57.895
191.76	850.000
192.14	150.000
192.51	350.000
192.89	-66.667
193.27	-57.143
193.65	16.667
194.02	27.273
194.40	120.000
194.78	-50.000
195.15	83.333
195.53	-12.500
195.91	375.000
196.29	175.000
196.66	61.538
197.04	100.000
197.42	155.556
197.79	-133.333
198.17	-23.077
198.55	900.000
198.92	-100.000
199.30	-400.000
199.68	0.000
200.05	-133.333
200.43	0.000
200.81	166.667
201.18	0.000
201.56	300.000
201.94	50.000
202.31	-366.667
202.69	-40.000
203.07	-50.000
203.44	1000.000
203.82	0.000
204.19	50.000
204.57	-300.000
204.95	-25.000
205.32	50.000
205.70	185.714
206.08	150.000
206.45	166.667
206.83	142.857
207.20	0.000
207.58	500.000
207.96	-66.667
208.33	-30.000
208.71	25.000
209.08	-183.333
209.46	-500.000
209.84	-100.000
210.21	-1000.000
210.59	157.143
210.96	16.667
211.34	250.000
211.71	66.667
212.09	28.571
212.46	-500.000
212.84	0.000
213.22	110.000
213.59	-150.000
213.97	100.000
214.34	118.182
214.72	-83.333
215.09	225.000
215.47	30.769
215.84	0.000
216.22	-233.333
216.59	25.000
216.97	900.000
217.34	150.000
217.72	-60.000
218.09	112.500
218.47	25.000
218.84	-200.000
219.22	-11.111
219.59	-80.000
219.97	33.333
220.34	50.000
220.72	114.286
221.09	150.000
221.47	200.000
221.84	200.000
222.22	0.000
222.59	54.545
222.97	75.000
223.34	233.333
223.72	7.143
224.09	47.619
224.46	32.143
224.84	400.000
225.21	30.000
225.59	26.667
225.96	-350.000
226.34	75.000
226.71	-42.857
227.08	133.333
227.46	25.000
227.83	-150.000
228.21	111.111
228.58	90.909
228.95	62.500
229.33	-20.000
229.70	56.250
230.08	-100.000
230.45	42.857
230.82	0.000
231.20	53.333
231.57	35.714
231.95	71.429
232.32	40.000
232.69	0.000
233.07	200.000
233.44	80.000
233.81	40.000
234.19	0.000
234.56	58.824
234.93	-50.000
235.31	400.000
235.68	-60.000
236.05	-46.154
236.43	5.000
236.80	29.412
237.17	31.250
237.55	15.000
237.92	25.926
238.29	30.556
238.67	40.000
239.04	11.765
239.41	2.439
239.79	26.667
240.16	46.341
240.53	28.947
240.91	8.696
241.28	17.460
241.65	42.857
242.02	38.356
242.40	6.667
242.77	28.814
243.14	22.727
243.51	17.500
243.89	35.632
244.26	22.989
244.63	7.143
245.00	17.526
245.38	24.742
245.75	12.360
246.12	21.552
246.49	23.967
246.87	16.346
247.24	16.807
247.61	22.807
247.98	16.260
248.36	21.875
248.73	19.079
249.10	22.078
249.47	18.987
249.84	29.412
250.22	21.765
250.59	19.608
250.96	24.883
251.33	20.930
251.70	20.588
252.08	21.827
252.45	17.822
252.82	17.085
253.19	20.737
253.56	18.224
253.94	24.324
254.31	26.087
254.68	24.123
255.05	21.654
255.42	24.017
255.79	18.533
256.16	21.401
256.54	17.537
256.91	17.871
257.28	20.074
257.65	18.727
258.02	17.730
258.39	24.242
258.76	19.780
259.14	21.927
259.51	22.977
259.88	19.244
260.25	21.242
260.62	22.917
260.99	21.356
261.36	19.521
261.73	20.253
262.10	22.796
262.47	16.871
262.85	18.495
263.22	21.231
263.59	23.676
263.96	22.050
264.33	22.424
264.70	20.536
265.07	22.917
265.44	20.963
265.81	20.904
266.18	19.126
266.55	22.365
266.92	21.244
267.29	20.888
267.66	19.182
268.03	22.513
268.40	18.538
268.77	24.332
269.14	19.424
269.51	19.280
269.88	21.197
270.25	22.959
270.62	19.512
270.99	16.624
271.36	19.315
271.73	21.596
272.10	19.708
272.47	21.040
272.84	19.554
273.21	22.970
273.58	20.482
273.95	20.366
274.32	18.938
274.69	16.968
275.06	19.643
275.43	21.088
275.80	18.322
276.17	21.379
276.54	20.343
276.91	18.202
277.28	17.904
277.65	18.595
278.02	19.362
278.39	19.912
278.76	19.078
279.13	18.880
279.50	20.378
279.87	20.734
280.23	16.774
280.60	19.688
280.97	20.606
281.34	20.385
281.71	20.739
282.08	18.200
282.45	16.634
282.82	16.988
283.19	18.956
283.56	20.617
283.92	17.647
284.29	17.115
284.66	19.767
285.03	16.896
285.40	20.605
285.77	17.223
286.14	19.856
286.51	22.140
286.87	17.550
287.24	18.785
287.61	17.637
287.98	18.772
288.35	19.411
288.72	18.389
289.08	18.403
289.45	17.223
289.82	18.007
290.19	15.870
290.56	14.580
290.93	18.350
291.29	14.638
291.66	16.693
292.03	14.992
292.40	15.806
292.77	15.949
293.13	15.422
293.50	15.023
293.87	15.267
294.24	15.301
294.60	15.797
294.97	16.815
295.34	15.031
295.71	15.052
296.08	17.040
296.44	12.945
296.81	14.861
297.18	14.783
297.55	15.854
297.91	14.521
298.28	13.852
298.65	13.976
299.02	13.073
299.38	11.628
299.75	14.897
300.12	12.958
300.48	11.462
300.85	14.956
301.22	14.286
301.59	13.421
301.95	16.203
302.32	14.397
302.69	14.055
303.05	12.748
303.42	13.325
303.79	13.551
304.15	12.664
304.52	12.604
304.89	11.696
305.25	13.317
305.62	11.902
305.99	11.111
306.35	11.792
306.72	11.924
307.09	12.885
307.45	13.318
307.82	12.037
308.19	12.544
308.55	12.105
308.92	14.052
309.29	13.296
309.65	12.164
310.02	12.981
310.38	12.623
310.75	14.098
311.12	13.132
311.48	12.407
311.85	13.298
312.22	12.975
312.58	11.890
312.95	12.166
313.31	12.836
313.68	12.461
314.05	14.490
314.41	14.124
314.78	12.887
315.14	13.669
315.51	14.286
315.87	13.525
316.24	14.965
316.61	14.764
316.97	14.484
317.34	14.258
317.70	14.149
318.07	13.750
318.43	15.686
318.80	15.152
319.16	16.602
319.53	16.809
319.89	15.945
320.26	16.599
320.62	18.054
320.99	16.910
321.35	18.191
321.72	19.107
322.08	18.832
322.45	19.797
322.81	18.861
323.18	18.744
323.54	19.691
323.91	20.935
324.27	21.094
324.64	21.723
325.00	21.350
325.37	23.691
325.73	23.209
326.10	24.342
326.46	24.395
326.83	25.722
327.19	25.022
327.56	25.543
327.92	27.025
328.29	26.161
328.65	27.264
329.01	27.114
329.38	27.834
329.74	28.517
330.11	27.340
330.47	28.942
330.84	29.808
331.20	31.559
331.56	29.074
331.93	30.137
332.29	31.347
332.66	30.679
333.02	32.156
333.38	30.431
333.75	31.044
334.11	29.812
334.48	32.185
334.84	32.967
335.20	32.022
335.57	31.278
335.93	32.611
336.29	32.228
336.66	33.061
337.02	33.271
337.38	31.944
337.75	31.727
338.11	33.454
338.47	33.668
338.84	34.011
339.20	33.181
339.56	33.578
339.93	33.751
340.29	33.486
340.65	34.319
341.02	33.245
341.38	33.274
341.74	33.392
342.11	33.189
342.47	33.897
342.83	34.429
343.20	33.798
343.56	34.957
343.92	34.810
344.28	34.842
344.65	34.542
345.01	34.659
345.37	33.894
345.73	35.397
346.10	35.375
346.46	35.828
346.82	35.270
347.19	36.575
347.55	35.756
347.91	34.628
348.27	34.519
348.63	36.286
349.00	36.505
349.36	35.245
349.72	35.904
350.08	34.836
350.45	34.796
350.81	36.628
351.17	36.156
351.53	37.551
351.89	35.343
352.26	35.600
352.62	35.887
352.98	35.181
353.34	35.668
353.70	36.246
354.07	36.935
354.43	36.589
354.79	37.572
355.15	37.381
355.51	37.104
355.87	37.945
356.24	37.357
356.60	37.429
356.96	38.175
357.32	36.901
357.68	38.546
358.04	39.742
358.40	38.344
358.77	39.394
359.13	37.790
359.49	38.521
359.85	39.002
360.21	38.836
360.57	38.026
360.93	39.637
361.29	37.613
361.66	40.596
362.02	40.000
362.38	40.289
362.74	41.332
363.10	41.384
363.46	41.067
363.82	39.745
364.18	40.221
364.54	39.779
364.90	41.075
365.26	40.539
365.62	42.628
365.98	41.716
366.35	42.316
366.71	41.537
367.07	42.380
367.43	41.409
367.79	41.201
368.15	42.785
368.51	42.607
368.87	43.360
369.23	43.249
369.59	43.950
369.95	44.135
370.31	44.292
370.67	43.582
371.03	42.868
371.39	43.472
371.75	45.201
372.11	44.864
372.47	44.970
372.83	45.919
373.19	44.223
373.55	44.260
373.91	45.140
374.27	45.996
374.63	46.662
374.99	46.312
375.35	46.657
375.71	48.531
376.07	46.629
376.42	47.415
376.78	47.852
377.14	46.649
377.50	47.875
377.86	47.055
378.22	48.181
378.58	46.987
378.94	48.771
379.30	47.723
379.66	50.157
380.02	48.559
380.38	48.691
380.74	49.132
381.09	48.589
381.45	49.969
381.81	49.599
382.17	49.429
382.53	50.156
382.89	51.789
383.25	51.027
383.61	50.488
383.97	51.048
384.32	50.532
384.68	50.464
385.04	50.123
385.40	50.591
385.76	53.082
386.12	53.105
386.48	52.746
386.83	52.251
387.19	52.869
387.55	52.070
387.91	52.139
388.27	51.160
388.62	52.926
388.98	52.241
389.34	52.904
389.70	51.833
390.06	51.668
390.42	52.461
390.77	53.695
391.13	52.522
391.49	52.587
391.85	53.021
392.20	53.547
392.56	53.592
392.92	52.965
393.28	52.830
393.64	53.814
393.99	54.734
394.35	53.257
394.71	54.598
395.07	52.671
395.42	52.884
395.78	53.550
396.14	53.216
396.50	55.041
396.85	54.668
397.21	53.321
397.57	53.668
397.92	53.325
398.28	54.310
398.64	52.711
399.00	54.063
399.35	51.693
399.71	53.245
400.07	54.172
400.42	52.448
400.78	54.256
401.14	52.571
401.49	53.663
401.85	54.113
402.21	53.916
402.57	54.188
402.92	52.509
403.28	53.571
403.63	54.414
403.99	54.719
404.35	53.904
404.70	51.310
405.06	52.585
405.42	53.449
405.77	52.992
406.13	53.143
406.49	52.220
406.84	53.606
407.20	53.341
407.55	52.222
407.91	51.872
408.27	52.199
408.62	53.108
408.98	52.619
409.34	53.470
409.69	52.842
410.05	52.217
410.40	52.346
410.76	53.136
411.11	52.688
411.47	53.123
411.83	51.412
412.18	53.797
412.54	52.310
412.89	52.094
413.25	52.286
413.60	51.925
413.96	51.902
414.31	51.402
414.67	51.956
415.03	51.065
415.38	51.958
415.74	52.638
416.09	52.711
416.45	52.397
416.80	51.091
417.16	53.936
417.51	52.765
417.87	51.825
418.22	53.562
418.58	54.114
418.93	53.480
419.29	51.665
419.64	53.078
420.00	54.534
420.35	52.896
420.71	52.855
421.06	53.468
421.42	53.185
421.77	53.642
422.12	53.292
422.48	53.979
422.83	53.828
423.19	54.515
423.54	53.028
423.90	53.828
424.25	54.363
424.61	55.263
424.96	54.181
425.31	55.228
425.67	54.343
426.02	55.183
426.38	55.229
426.73	54.843
427.09	56.582
427.44	55.353
427.79	55.451
428.15	55.218
428.50	55.784
428.85	56.143
429.21	55.008
429.56	57.412
429.92	55.265
430.27	54.586
430.62	54.260
430.98	54.406
431.33	54.784
431.68	55.573
432.04	55.953
432.39	55.048
432.74	55.021
433.10	56.264
433.45	56.332
433.80	56.413
434.16	55.235
434.51	56.828
434.86	56.039
435.22	55.805
435.57	58.827
435.92	57.485
436.28	56.291
436.63	57.159
436.98	57.242
437.34	57.653
437.69	57.364
438.04	57.208
438.39	56.995
438.75	57.438
439.10	56.706
439.45	57.212
439.81	56.942
440.16	57.957
440.51	57.433
440.86	59.456
441.22	56.448
441.57	57.340
441.92	58.237
442.27	57.594
442.63	58.351
442.98	57.725
443.33	57.095
443.68	57.082
444.03	58.371
444.39	56.665
444.74	58.584
445.09	59.020
445.44	57.607
445.79	58.690
446.15	58.866
446.50	57.571
446.85	58.395
447.20	57.456
447.55	58.092
447.91	58.094
448.26	57.997
448.61	59.125
448.96	59.094
449.31	58.613
449.66	59.872
450.02	58.072
450.37	59.277
450.72	58.247
451.07	58.608
451.42	57.553
451.77	57.866
452.12	56.998
452.47	58.339
452.83	57.479
453.18	57.242
453.53	58.597
453.88	58.227
454.23	57.222
454.58	58.501
454.93	59.472
455.28	57.841
455.63	58.834
455.98	57.306
456.34	58.301
456.69	58.704
457.04	57.782
457.39	59.174
457.74	58.646
458.09	57.210
458.44	58.865
458.79	57.983
459.14	57.666
459.49	57.254
459.84	58.432
460.19	57.039
460.54	57.946
460.89	58.295
461.24	57.391
461.59	56.770
461.94	56.730
462.29	58.444
462.64	57.874
462.99	58.362
463.34	57.997
463.69	57.786
464.04	56.961
464.39	57.611
464.74	57.362
465.09	58.141
465.44	57.242
465.79	56.066
466.14	57.640
466.49	56.699
466.84	56.692
467.19	57.259
467.54	57.407
467.89	56.854
468.24	55.718
468.59	57.206
468.94	56.000
469.29	56.197
469.64	56.596
469.99	58.234
470.34	55.495
470.68	57.644
471.03	57.962
471.38	56.562
471.73	58.543
472.08	56.309
472.43	57.987
472.78	55.380
473.13	57.143
473.48	56.417
473.83	55.604
474.17	55.635
474.52	56.350
474.87	55.758
475.22	55.705
475.57	55.618
475.92	56.994
476.27	56.170
476.61	56.134
476.96	54.601
477.31	55.976
477.66	55.281
478.01	55.755
478.36	55.338
478.70	55.411
479.05	55.824
479.40	54.902
479.75	54.797
480.10	54.685
480.45	55.000
480.79	54.834
481.14	55.891
481.49	54.138
481.84	54.392
482.19	53.555
482.53	53.669
482.88	52.649
483.23	53.599
483.58	52.972
483.92	53.340
484.27	52.552
484.62	52.622
484.97	51.824
485.31	50.939
485.66	50.806
486.01	50.501
486.36	49.508
486.70	49.640
487.05	49.966
487.40	50.465
487.75	50.620
488.09	50.216
488.44	50.447
488.79	50.131
489.13	51.322
489.48	51.304
489.83	51.211
490.17	51.685
490.52	51.871
490.87	50.532
491.22	51.576
491.56	50.712
491.91	50.287
492.26	51.094
492.60	50.768
492.95	52.041
493.30	50.806
493.64	50.933
493.99	50.435
494.34	49.951
494.68	50.476
495.03	49.440
495.37	50.343
495.72	50.177
496.07	50.390
496.41	49.811
496.76	49.562
497.11	49.185
497.45	49.690
497.80	49.647
498.14	48.932
498.49	50.584
498.84	50.000
499.18	48.946
499.53	48.810
499.87	47.811
500.22	49.209
500.56	48.815
500.91	49.498
501.26	48.047
501.60	48.746
501.95	48.180
502.29	48.281
502.64	48.263
502.98	48.643
503.33	47.839
503.67	47.373
504.02	49.511
504.36	47.204
504.71	47.727
505.06	47.157
505.40	47.056
505.75	47.938
506.09	47.035
506.44	47.690
506.78	48.010
507.13	46.898
507.47	46.632
507.82	47.062
508.16	47.385
508.51	48.164
508.85	46.259
509.19	46.621
509.54	47.239
509.88	45.092
510.23	46.423
510.57	46.499
510.92	45.522
511.26	45.608
511.61	47.525
511.95	44.822
512.30	46.064
512.64	45.465
512.98	45.873
513.33	45.159
513.67	45.026
514.02	46.682
514.36	46.229
514.70	46.970
515.05	45.946
515.39	45.927
515.74	46.647
516.08	46.145
516.42	46.054
516.77	45.699
517.11	45.757
517.46	46.738
517.80	45.650
518.14	44.887
518.49	44.411
518.83	45.869
519.17	44.694
519.52	44.642
519.86	44.478
520.20	44.532
520.55	44.403
520.89	44.542
521.23	45.155
521.58	45.110
521.92	44.615
522.26	44.112
522.61	45.065
522.95	45.364
523.29	44.854
523.64	44.917
523.98	45.301
524.32	44.459
524.66	45.647
525.01	44.870
525.35	43.940
525.69	44.175
526.04	45.106
526.38	44.942
526.72	42.446
527.06	42.542
527.41	43.668
527.75	43.633
528.09	42.326
528.43	44.767
528.78	43.498
529.12	44.387
529.46	42.690
529.80	41.735
530.15	44.158
530.49	43.704
530.83	43.502
531.17	42.445
531.51	43.434
531.86	41.604
532.20	42.171
532.54	42.342
532.88	43.053
533.22	43.145
533.57	42.595
533.91	42.037
534.25	43.490
534.59	41.501
534.93	41.284
535.27	40.990
535.62	41.283
535.96	41.031
536.30	41.887
536.64	41.902
536.98	41.951
537.32	42.959
537.66	42.006
538.01	41.538
538.35	40.014
538.69	41.278
539.03	40.055
539.37	41.588
539.71	40.423
540.05	39.511
540.39	40.928
540.73	41.283
541.07	41.022
541.42	40.457
541.76	41.019
542.10	40.193
542.44	39.819
542.78	39.023
543.12	40.591
543.46	40.056
543.80	40.458
544.14	38.251
544.48	39.307
544.82	39.440
545.16	40.164
545.50	39.386
545.84	40.085
546.18	40.284
546.52	39.293
546.86	39.612
547.20	39.771
547.54	37.951
547.88	38.995
548.22	38.790
548.56	39.644
548.90	38.679
549.24	37.741
549.58	38.999
549.92	38.313
550.26	39.707
550.60	40.074
550.94	41.299
551.28	40.263
551.62	39.231
551.96	39.474
552.30	38.596
552.64	37.165
552.98	38.256
553.32	37.803
553.66	37.808
554.00	39.124
554.34	40.177
554.68	38.938
555.02	39.063
555.36	38.369
555.69	38.022
556.03	37.830
556.37	37.224
556.71	38.556
557.05	38.404
557.39	37.472
557.73	37.781
558.07	38.914
558.41	38.361
558.75	39.049
559.08	40.110
559.42	38.254
559.76	38.671
560.10	37.997
560.44	37.007
560.78	38.322
561.12	38.011
561.45	38.299
561.79	37.675
562.13	38.538
562.47	36.906
562.81	38.689
563.15	37.447
563.48	38.543
563.82	38.229
564.16	37.326
564.50	36.284
564.84	37.416
565.17	36.955
565.51	38.046
565.85	37.860
566.19	36.870
566.52	36.930
566.86	37.339
567.20	36.364
567.54	36.192
567.88	36.790
568.21	36.199
568.55	36.250
568.89	36.858
569.23	35.484
569.56	35.464
569.90	35.404
570.24	34.388
570.57	35.164
570.91	35.169
571.25	34.364
571.59	33.572
571.92	33.274
572.26	33.575
572.60	33.364
572.93	33.668
573.27	33.511
573.61	33.562
573.95	33.124
574.28	32.627
574.62	32.418
574.96	32.386
575.29	32.837
575.63	32.133
575.97	32.123
576.30	33.090
576.64	32.106
576.98	32.690
577.31	33.202
577.65	32.798
577.98	32.840
578.32	32.784
578.66	32.044
578.99	31.984
579.33	31.376
579.67	32.147
580.00	32.481
580.34	32.040
580.67	31.924
581.01	32.397
581.35	32.214
581.68	31.864
582.02	31.932
582.35	31.513
582.69	31.749
583.02	31.446
583.36	32.387
583.70	32.996
584.03	33.028
584.37	32.806
584.70	31.841
585.04	31.425
585.37	32.383
585.71	31.819
586.04	31.694
586.38	32.062
586.72	32.769
587.05	33.073
587.39	32.429
587.72	32.969
588.06	32.355
588.39	32.270
588.73	33.089
589.06	33.170
589.40	32.872
589.73	32.530
590.07	33.082
590.40	33.940
590.73	33.361
591.07	32.570
591.40	32.458
591.74	33.394
592.07	34.045
592.41	33.746
592.74	32.696
593.08	31.645
593.41	32.059
593.75	31.665
594.08	31.926
594.41	32.278
594.75	32.519
595.08	32.728
595.42	32.499
595.75	33.346
596.09	33.151
596.42	32.947
596.75	32.726
597.09	32.620
597.42	33.650
597.75	33.211
598.09	32.684
598.42	32.175
598.76	32.390
599.09	31.971
599.42	31.565
599.76	32.205
600.09	31.523
600.42	31.577
600.76	32.058
601.09	32.252
601.42	32.237
601.76	32.394
602.09	32.550
602.42	32.603
602.76	30.603
603.09	32.890
603.42	33.445
603.76	31.895
604.09	32.361
604.42	32.614
604.76	32.710
605.09	31.947
605.42	32.867
605.75	32.137
606.09	32.229
606.42	31.568
606.75	31.342
607.09	32.220
607.42	31.015
607.75	32.060
608.08	31.851
608.42	31.293
608.75	31.952
609.08	32.287
609.41	32.893
609.75	32.409
610.08	33.200
610.41	31.787
610.74	32.716
611.07	31.680
611.41	32.226
611.74	33.102
612.07	32.013
612.40	31.893
612.73	32.994
613.07	32.115
613.40	33.370
613.73	31.561
614.06	32.387
614.39	32.431
614.72	31.989
615.06	32.235
615.39	31.605
615.72	32.024
616.05	31.732
616.38	31.225
616.71	32.538
617.05	32.242
617.38	32.181
617.71	33.145
618.04	33.016
618.37	33.607
618.70	33.729
619.03	34.375
619.36	33.213
619.69	33.965
620.03	33.893
620.36	34.049
620.69	33.119
621.02	33.028
621.35	35.602
621.68	34.524
622.01	35.333
622.34	34.477
622.67	33.833
623.00	32.312
623.33	32.470
623.66	32.461
623.99	31.997
624.32	33.916
624.65	32.406
624.99	33.785
625.32	31.918
625.65	34.564
625.98	33.683
626.31	33.167
626.64	34.835
626.97	35.864
627.30	34.238
627.63	34.315
627.96	33.603
628.29	34.875
628.62	34.710
628.95	34.369
629.28	34.677
629.61	35.294
629.94	36.070
630.26	34.486
630.59	37.461
630.92	34.667
631.25	34.564
631.58	35.022
631.91	34.430
632.24	35.894
632.57	35.455
632.90	35.824
633.23	36.000
633.56	36.524
633.89	35.758
634.22	35.556
