SpectraSuite Data File
++++++++++++++++++++++++++++++++++++
Date: Fri May 15 20:07:41 PDT 2015
User: schluterlab
Dark Spectrum Present: Yes
Reference Spectrum Present: Yes
Number of Sampled Component Spectra: 1
Spectrometers: USB2E3373
Integration Time (usec): 3000 (USB2E3373)
Spectra Averaged: 3 (USB2E3373)
Boxcar Smoothing: 0 (USB2E3373)
Correct for Electrical Dark: No (USB2E3373)
Strobe/Lamp Enabled: No (USB2E3373)
Correct for Detector Non-linearity: No (USB2E3373)
Correct for Stray Light: No (USB2E3373)
Number of Pixels in Processed Spectrum: 2048
>>>>>Begin Processed Spectral Data<<<<<
178.53	0.000
178.91	0.000
179.29	125.000
179.67	-500.000
180.04	-128.571
180.42	50.000
180.80	-600.000
181.18	-200.000
181.56	400.000
181.94	100.000
182.31	900.000
182.69	100.000
183.07	-233.333
183.45	-80.000
183.83	150.000
184.20	54.545
184.58	33.333
184.96	-425.000
185.34	-166.667
185.72	-100.000
186.09	7.692
186.47	-600.000
186.85	-50.000
187.23	88.889
187.61	-200.000
187.98	-266.667
188.36	22.222
188.74	-66.667
189.12	41.176
189.49	83.333
189.87	0.000
190.25	35.714
190.63	-550.000
191.00	-466.667
191.38	5.263
191.76	250.000
192.14	-50.000
192.51	50.000
192.89	66.667
193.27	-28.571
193.65	83.333
194.02	136.364
194.40	80.000
194.78	0.000
195.15	-50.000
195.53	-50.000
195.91	50.000
196.29	75.000
196.66	115.385
197.04	28.571
197.42	-66.667
197.79	-233.333
198.17	-107.692
198.55	1800.000
198.92	-633.333
199.30	-200.000
199.68	-20.000
200.05	-133.333
200.43	0.000
200.81	0.000
201.18	-266.667
201.56	-300.000
201.94	-50.000
202.31	133.333
202.69	-40.000
203.07	25.000
203.44	-200.000
203.82	0.000
204.19	35.714
204.57	-433.333
204.95	137.500
205.32	10.000
205.70	42.857
206.08	-225.000
206.45	144.444
206.83	107.143
207.20	42.857
207.58	-100.000
207.96	-100.000
208.33	-100.000
208.71	-300.000
209.08	-66.667
209.46	-1000.000
209.84	-20.000
210.21	-500.000
210.59	71.429
210.96	16.667
211.34	-175.000
211.71	93.333
212.09	-85.714
212.46	-700.000
212.84	0.000
213.22	90.000
213.59	500.000
213.97	84.615
214.34	9.091
214.72	-116.667
215.09	175.000
215.47	15.385
215.84	-27.273
216.22	-266.667
216.59	50.000
216.97	-200.000
217.34	-250.000
217.72	-120.000
218.09	112.500
218.47	-0.000
218.84	200.000
219.22	66.667
219.59	-20.000
219.97	400.000
220.34	75.000
220.72	157.143
221.09	0.000
221.47	400.000
221.84	-250.000
222.22	-300.000
222.59	72.727
222.97	66.667
223.34	-400.000
223.72	-28.571
224.09	38.095
224.46	50.000
224.84	233.333
225.21	20.000
225.59	6.667
225.96	100.000
226.34	175.000
226.71	42.857
227.08	0.000
227.46	-112.500
227.83	-450.000
228.21	-44.444
228.58	-63.636
228.95	37.500
229.33	70.000
229.70	18.750
230.08	-150.000
230.45	71.429
230.82	71.429
231.20	0.000
231.57	28.571
231.95	114.286
232.32	10.000
232.69	78.571
233.07	-100.000
233.44	-20.000
233.81	-90.000
234.19	-33.333
234.56	5.882
234.93	350.000
235.31	75.000
235.68	-300.000
236.05	-53.846
236.43	25.000
236.80	0.000
237.17	21.875
237.55	-25.000
237.92	29.630
238.29	11.111
238.67	33.333
239.04	26.471
239.41	-4.878
239.79	13.333
240.16	19.512
240.53	42.105
240.91	8.696
241.28	26.984
241.65	46.429
242.02	32.877
242.40	23.333
242.77	22.034
243.14	36.364
243.51	25.000
243.89	43.678
244.26	25.287
244.63	39.286
245.00	25.773
245.38	22.680
245.75	20.225
246.12	20.690
246.49	34.711
246.87	31.731
247.24	29.412
247.61	32.456
247.98	22.764
248.36	26.875
248.73	34.211
249.10	28.571
249.47	24.051
249.84	22.876
250.22	29.412
250.59	31.373
250.96	27.700
251.33	22.674
251.70	35.294
252.08	35.025
252.45	32.178
252.82	30.151
253.19	33.641
253.56	28.505
253.94	27.928
254.31	28.261
254.68	32.895
255.05	28.346
255.42	32.314
255.79	32.819
256.16	28.794
256.54	29.851
256.91	27.757
257.28	24.535
257.65	31.461
258.02	26.241
258.39	28.956
258.76	34.432
259.14	32.558
259.51	27.508
259.88	26.460
260.25	30.065
260.62	28.472
260.99	28.136
261.36	26.370
261.73	27.215
262.10	31.307
262.47	30.061
262.85	29.467
263.22	30.769
263.59	31.464
263.96	27.950
264.33	30.606
264.70	27.381
265.07	29.464
265.44	32.011
265.81	27.401
266.18	30.601
266.55	26.992
266.92	31.865
267.29	30.548
267.66	29.412
268.03	28.010
268.40	29.243
268.77	32.620
269.14	27.578
269.51	31.620
269.88	30.424
270.25	31.378
270.62	29.756
270.99	27.366
271.36	28.606
271.73	30.282
272.10	30.900
272.47	30.024
272.84	29.455
273.21	29.234
273.58	31.084
273.95	28.604
274.32	29.099
274.69	29.638
275.06	31.250
275.43	28.118
275.80	27.594
276.17	29.885
276.54	28.051
276.91	27.412
277.28	25.764
277.65	29.339
278.02	29.787
278.39	29.322
278.76	29.140
279.13	25.726
279.50	27.731
279.87	28.942
280.23	26.667
280.60	28.460
280.97	29.495
281.34	28.846
281.71	29.569
282.08	26.176
282.45	27.202
282.82	26.255
283.19	24.952
283.56	28.516
283.92	27.135
284.29	27.692
284.66	26.550
285.03	29.273
285.40	27.788
285.77	24.956
286.14	29.422
286.51	28.413
286.87	24.132
287.24	26.151
287.61	26.102
287.98	28.421
288.35	26.863
288.72	27.496
289.08	26.215
289.45	26.011
289.82	27.622
290.19	24.573
290.56	24.871
290.93	25.758
291.29	22.342
291.66	27.559
292.03	24.561
292.40	25.000
292.77	24.561
293.13	24.026
293.50	22.610
293.87	23.817
294.24	23.338
294.60	22.504
294.97	24.256
295.34	23.620
295.71	22.206
296.08	21.375
296.44	20.768
296.81	20.833
297.18	22.464
297.55	25.068
297.91	21.370
298.28	23.087
298.65	20.353
299.02	21.563
299.38	20.109
299.75	22.621
300.12	20.550
300.48	21.344
300.85	21.800
301.22	20.260
301.59	19.868
301.95	22.911
302.32	20.363
302.69	19.030
303.05	20.297
303.42	19.178
303.79	20.327
304.15	20.789
304.52	19.976
304.89	19.415
305.25	19.370
305.62	17.736
305.99	19.064
306.35	18.382
306.72	18.673
307.09	19.042
307.45	19.862
307.82	19.329
308.19	19.744
308.55	18.975
308.92	18.627
309.29	18.659
309.65	18.622
310.02	19.582
310.38	19.319
310.75	19.344
311.12	19.806
311.48	18.770
311.85	19.058
312.22	18.143
312.58	19.427
312.95	18.783
313.31	19.462
313.68	19.162
314.05	17.959
314.41	19.381
314.78	18.866
315.14	20.863
315.51	19.358
315.87	19.160
316.24	21.234
316.61	21.063
316.97	19.643
317.34	19.336
317.70	20.554
318.07	19.712
318.43	20.196
318.80	21.212
319.16	21.582
319.53	22.032
319.89	20.669
320.26	21.255
320.62	21.765
320.99	20.877
321.35	21.172
321.72	23.572
322.08	23.867
322.45	23.452
322.81	23.281
323.18	23.945
323.54	25.386
323.91	24.245
324.27	26.074
324.64	26.217
325.00	27.007
325.37	27.089
325.73	25.929
326.10	26.975
326.46	28.879
326.83	28.959
327.19	29.991
327.56	30.843
327.92	30.282
328.29	29.018
328.65	31.321
329.01	31.985
329.38	32.166
329.74	33.050
330.11	32.901
330.47	31.818
330.84	34.135
331.20	36.407
331.56	34.815
331.93	33.881
332.29	34.830
332.66	35.747
333.02	35.874
333.38	34.555
333.75	37.179
334.11	35.810
334.48	37.081
334.84	36.447
335.20	35.956
335.57	36.083
335.93	36.766
336.29	37.385
336.66	37.239
337.02	35.688
337.38	37.222
337.75	37.364
338.11	37.421
338.47	37.500
338.84	37.246
339.20	37.934
339.56	38.257
339.93	39.391
340.29	39.174
340.65	38.710
341.02	38.387
341.38	37.788
341.74	38.339
342.11	36.915
342.47	36.477
342.83	38.322
343.20	37.108
343.56	38.609
343.92	38.618
344.28	39.026
344.65	38.860
345.01	37.684
345.37	39.361
345.73	38.326
346.10	37.877
346.46	37.511
346.82	36.743
347.19	37.739
347.55	38.931
347.91	38.592
348.27	38.076
348.63	39.012
349.00	37.982
349.36	38.986
349.72	39.801
350.08	37.787
350.45	37.989
350.81	37.542
351.17	38.029
351.53	38.449
351.89	37.407
352.26	38.240
352.62	38.065
352.98	38.072
353.34	38.406
353.70	39.078
354.07	39.194
354.43	37.710
354.79	39.059
355.15	38.730
355.51	39.082
355.87	39.401
356.24	38.254
356.60	39.046
356.96	39.206
357.32	37.700
357.68	39.093
358.04	39.661
358.40	39.309
358.77	40.431
359.13	37.950
359.49	38.521
359.85	40.094
360.21	40.670
360.57	39.862
360.93	41.225
361.29	38.973
361.66	40.517
362.02	40.682
362.38	39.680
362.74	40.954
363.10	42.287
363.46	41.290
363.82	41.172
364.18	40.517
364.54	40.441
364.90	40.789
365.26	41.703
365.62	42.409
365.98	41.496
366.35	40.859
366.71	41.390
367.07	43.614
367.43	41.481
367.79	43.322
368.15	40.991
368.51	42.826
368.87	41.709
369.23	41.805
369.59	43.003
369.95	43.402
370.31	44.220
370.67	45.224
371.03	43.167
371.39	42.815
371.75	44.469
372.11	44.437
372.47	44.970
372.83	45.067
373.19	43.367
373.55	44.043
373.91	44.708
374.27	46.067
374.63	45.441
374.99	46.028
375.35	45.543
375.71	45.664
376.07	45.014
376.42	46.395
376.78	47.047
377.14	46.242
377.50	47.875
377.86	46.118
378.22	47.415
378.58	47.821
378.94	48.141
379.30	47.973
379.66	48.715
380.02	48.130
380.38	48.083
380.74	48.474
381.09	48.773
381.45	49.358
381.81	49.352
382.17	49.048
382.53	49.094
382.89	49.969
383.25	50.467
383.61	50.000
383.97	50.730
384.32	50.594
384.68	51.207
385.04	50.735
385.40	51.089
385.76	53.522
386.12	52.393
386.48	52.427
386.83	52.505
387.19	52.198
387.55	53.576
387.91	52.995
388.27	52.808
388.62	53.807
388.98	53.959
389.34	53.654
389.70	54.133
390.06	52.549
390.42	53.821
390.77	54.349
391.13	54.351
391.49	54.787
391.85	55.686
392.20	54.802
392.56	56.071
392.92	56.019
393.28	55.719
393.64	54.595
393.99	56.677
394.35	55.787
394.71	55.492
395.07	54.557
395.42	55.373
395.78	57.199
396.14	55.801
396.50	57.261
396.85	58.339
397.21	56.767
397.57	57.492
397.92	55.123
398.28	55.977
398.64	55.422
399.00	57.336
399.35	55.587
399.71	56.060
400.07	57.557
400.42	56.120
400.78	56.828
401.14	57.048
401.49	57.236
401.85	56.977
402.21	56.928
402.57	58.062
402.92	55.897
403.28	57.707
403.63	58.071
403.99	57.781
404.35	59.963
404.70	57.083
405.06	57.462
405.42	57.427
405.77	57.873
406.13	58.265
406.49	56.779
406.84	58.985
407.20	58.519
407.55	58.532
407.91	59.158
408.27	59.401
408.62	59.754
408.98	58.287
409.34	58.922
409.69	58.463
410.05	56.958
410.40	57.407
410.76	59.228
411.11	58.812
411.47	58.909
411.83	57.627
412.18	57.786
412.54	57.990
412.89	58.436
413.25	58.965
413.60	59.193
413.96	57.117
414.31	58.232
414.67	59.910
415.03	59.387
415.38	59.204
415.74	58.827
416.09	59.308
416.45	58.542
416.80	59.286
417.16	60.912
417.51	59.560
417.87	58.344
418.22	60.687
418.58	61.472
418.93	59.498
419.29	58.835
419.64	60.467
420.00	60.957
420.35	59.642
420.71	60.085
421.06	60.221
421.42	60.337
421.77	60.058
422.12	59.875
422.48	60.097
422.83	60.093
423.19	60.835
423.54	59.494
423.90	60.247
424.25	60.333
424.61	61.934
424.96	60.859
425.31	62.912
425.67	61.796
426.02	62.014
426.38	62.430
426.73	63.015
427.09	63.291
427.44	62.941
427.79	63.052
428.15	62.379
428.50	63.780
428.85	62.531
429.21	63.271
429.56	63.073
429.92	62.250
430.27	62.306
430.62	61.683
430.98	61.996
431.33	63.039
431.68	62.951
432.04	62.325
432.39	62.521
432.74	62.417
433.10	63.736
433.45	64.397
433.80	64.481
434.16	63.601
434.51	63.118
434.86	64.925
435.22	63.993
435.57	65.565
435.92	65.090
436.28	63.745
436.63	62.807
436.98	63.499
437.34	63.642
437.69	64.639
438.04	64.729
438.39	64.936
438.75	65.574
439.10	64.290
439.45	65.247
439.81	65.138
440.16	66.568
440.51	65.134
440.86	65.982
441.22	65.950
441.57	65.563
441.92	66.055
442.27	66.242
442.63	66.595
442.98	65.020
443.33	65.498
443.68	65.729
444.03	66.071
444.39	64.830
444.74	66.945
445.09	66.091
445.44	65.755
445.79	67.200
446.15	65.088
446.50	65.225
446.85	65.887
447.20	66.215
447.55	66.741
447.91	66.779
448.26	66.648
448.61	67.473
448.96	66.896
449.31	66.474
449.66	67.247
450.02	65.830
450.37	67.457
450.72	67.297
451.07	67.468
451.42	65.668
451.77	66.426
452.12	65.670
452.47	67.611
452.83	66.667
453.18	67.742
453.53	68.647
453.88	66.242
454.23	66.564
454.58	67.380
454.93	67.332
455.28	64.381
455.63	67.328
455.98	67.048
456.34	67.497
456.69	68.806
457.04	68.494
457.39	67.679
457.74	67.896
458.09	65.097
458.44	66.004
458.79	66.218
459.14	66.876
459.49	68.179
459.84	66.272
460.19	66.748
460.54	67.910
460.89	66.591
461.24	67.019
461.59	66.746
461.94	66.289
462.29	65.923
462.64	66.379
462.99	67.366
463.34	66.620
463.69	66.281
464.04	66.344
464.39	67.132
464.74	65.521
465.09	66.937
465.44	67.282
465.79	65.079
466.14	66.819
466.49	64.635
466.84	66.449
467.19	66.270
467.54	65.390
467.89	66.961
468.24	67.701
468.59	65.778
468.94	66.667
469.29	67.082
469.64	66.439
469.99	67.975
470.34	67.577
470.68	67.412
471.03	67.162
471.38	67.404
471.73	67.087
472.08	67.571
472.43	67.450
472.78	66.895
473.13	68.163
473.48	66.319
473.83	66.127
474.17	67.940
474.52	67.518
474.87	67.030
475.22	65.955
475.57	66.234
475.92	66.868
476.27	66.298
476.61	66.204
476.96	67.540
477.31	67.442
477.66	66.461
478.01	66.929
478.36	66.394
478.70	67.972
479.05	66.429
479.40	67.939
479.75	65.798
480.10	66.103
480.45	66.050
480.79	66.616
481.14	67.469
481.49	67.094
481.84	68.243
482.19	65.903
482.53	67.626
482.88	66.444
483.23	67.706
483.58	67.264
483.92	66.409
484.27	66.044
484.62	67.190
484.97	65.506
485.31	66.329
485.66	65.180
486.01	66.313
486.36	65.615
486.70	66.577
487.05	66.138
487.40	66.003
487.75	65.915
488.09	64.184
488.44	65.199
488.79	64.662
489.13	66.346
489.48	65.797
489.83	66.502
490.17	65.483
490.52	65.635
490.87	64.831
491.22	66.237
491.56	66.224
491.91	65.488
492.26	67.185
492.60	65.931
492.95	66.847
493.30	65.706
493.64	67.191
493.99	65.362
494.34	66.165
494.68	66.095
495.03	65.791
495.37	66.192
495.72	66.936
496.07	65.463
496.41	65.991
496.76	66.191
497.11	65.254
497.45	65.155
497.80	66.448
498.14	66.120
498.49	67.547
498.84	66.317
499.18	66.265
499.53	67.659
499.87	65.905
500.22	66.864
500.56	66.011
500.91	66.767
501.26	65.200
501.60	65.421
501.95	66.812
502.29	65.569
502.64	65.541
502.98	65.762
503.33	65.082
503.67	66.072
504.02	66.422
504.36	66.155
504.71	65.707
505.06	65.224
505.40	65.330
505.75	66.907
506.09	65.484
506.44	68.275
506.78	66.378
507.13	66.649
507.47	66.214
507.82	66.293
508.16	66.033
508.51	66.474
508.85	66.405
509.19	66.418
509.54	66.488
509.88	66.073
510.23	67.348
510.57	66.916
510.92	64.765
511.26	66.394
511.61	67.492
511.95	66.630
512.30	65.854
512.64	64.997
512.98	65.862
513.33	66.032
513.67	65.435
514.02	67.963
514.36	67.714
514.70	67.366
515.05	68.566
515.39	66.588
515.74	68.862
516.08	66.109
516.42	67.962
516.77	66.589
517.11	68.190
517.46	67.624
517.80	67.938
518.14	67.177
518.49	66.106
518.83	66.829
519.17	66.828
519.52	67.377
519.86	66.747
520.20	68.104
520.55	67.042
520.89	67.440
521.23	66.244
521.58	68.454
521.92	66.795
522.26	69.226
522.61	68.701
522.95	68.411
523.29	68.170
523.64	68.488
523.98	68.244
524.32	68.235
524.66	68.118
525.01	67.338
525.35	67.725
525.69	68.418
526.04	67.063
526.38	69.196
526.72	65.925
527.06	66.667
527.41	68.008
527.75	67.426
528.09	66.844
528.43	68.197
528.78	66.733
529.12	67.484
529.46	67.446
529.80	66.814
530.15	68.713
530.49	69.293
530.83	69.767
531.17	66.756
531.51	68.878
531.86	66.757
532.20	67.919
532.54	67.801
532.88	67.830
533.22	68.683
533.57	67.366
533.91	67.559
534.25	68.555
534.59	66.389
534.93	67.338
535.27	65.990
535.62	66.105
535.96	68.363
536.30	67.282
536.64	68.780
536.98	66.690
537.32	69.275
537.66	68.022
538.01	67.413
538.35	67.892
538.69	67.909
539.03	67.122
539.37	67.900
539.71	66.530
540.05	66.056
540.39	68.006
540.73	67.434
541.07	67.472
541.42	66.398
541.76	67.515
542.10	66.965
542.44	68.311
542.78	66.896
543.12	66.758
543.46	68.776
543.80	67.800
544.14	66.222
544.48	67.288
544.82	67.532
545.16	68.921
545.50	67.557
545.84	68.272
546.18	67.660
546.52	67.916
546.86	66.355
547.20	67.883
547.54	66.078
547.88	68.886
548.22	65.549
548.56	66.491
548.90	67.520
549.24	66.736
549.58	66.643
549.92	66.119
550.26	67.106
550.60	67.212
550.94	66.617
551.28	68.856
551.62	69.000
551.96	68.045
552.30	68.933
552.64	67.066
552.98	67.370
553.32	67.760
553.66	66.183
554.00	69.051
554.34	69.276
554.68	67.478
555.02	66.220
555.36	67.091
555.69	67.399
556.03	67.595
556.37	66.192
556.71	67.798
557.05	68.456
557.39	67.658
557.73	67.841
558.07	69.683
558.41	68.683
558.75	68.589
559.08	65.800
559.42	67.222
559.76	68.695
560.10	68.502
560.44	66.940
560.78	66.783
561.12	67.983
561.45	68.939
561.79	67.087
562.13	67.991
562.47	68.058
562.81	67.723
563.15	67.348
563.48	67.751
563.82	67.330
564.16	68.315
564.50	67.905
564.84	66.734
565.17	67.270
565.51	70.560
565.85	69.273
566.19	67.971
566.52	68.901
566.86	66.774
567.20	68.306
567.54	67.579
567.88	69.596
568.21	68.382
568.55	66.957
568.89	68.224
569.23	68.079
569.56	68.257
569.90	68.006
570.24	66.208
570.57	68.145
570.91	67.689
571.25	66.458
571.59	66.646
571.92	64.652
572.26	65.912
572.60	65.333
572.93	64.449
573.27	64.702
573.61	65.155
573.95	65.920
574.28	65.281
574.62	64.556
574.96	65.096
575.29	65.497
575.63	63.488
575.97	64.137
576.30	64.999
576.64	63.974
576.98	65.122
577.31	66.085
577.65	65.367
577.98	65.533
578.32	65.506
578.66	63.851
578.99	64.319
579.33	63.303
579.67	63.235
580.00	64.937
580.34	64.826
580.67	63.724
581.01	64.337
581.35	64.750
581.68	65.479
582.02	65.003
582.35	65.478
582.69	64.803
583.02	64.580
583.36	64.467
583.70	65.680
584.03	65.972
584.37	65.980
584.70	65.055
585.04	64.145
585.37	64.914
585.71	66.231
586.04	65.431
586.38	64.897
586.72	65.825
587.05	66.407
587.39	65.530
587.72	66.594
588.06	65.043
588.39	65.366
588.73	65.049
589.06	65.819
589.40	65.676
589.73	66.156
590.07	66.730
590.40	66.409
590.73	67.339
591.07	65.818
591.40	65.494
591.74	66.742
592.07	66.512
592.41	65.769
592.74	66.866
593.08	65.630
593.41	66.656
593.75	66.798
594.08	65.499
594.41	66.376
594.75	65.992
595.08	66.099
595.42	66.250
595.75	67.030
596.09	66.302
596.42	66.184
596.75	66.696
597.09	65.513
597.42	66.215
597.75	67.201
598.09	65.188
598.42	64.666
598.76	64.693
599.09	65.385
599.42	64.797
599.76	65.989
600.09	66.176
600.42	65.390
600.76	64.599
601.09	64.847
601.42	64.395
601.76	65.661
602.09	64.769
602.42	66.302
602.76	66.087
603.09	67.027
603.42	67.768
603.76	65.806
604.09	65.290
604.42	66.582
604.76	67.245
605.09	64.991
605.42	65.824
605.75	66.243
606.09	66.242
606.42	65.263
606.75	64.935
607.09	64.352
607.42	65.662
607.75	66.385
608.08	64.151
608.42	64.093
608.75	67.181
609.08	66.268
609.41	66.904
609.75	65.222
610.08	65.252
610.41	64.396
610.74	66.455
611.07	66.460
611.41	66.373
611.74	66.471
612.07	65.739
612.40	66.466
612.73	67.910
613.07	66.367
613.40	66.247
613.73	67.152
614.06	66.945
614.39	65.821
614.72	66.218
615.06	64.916
615.39	65.011
615.72	65.016
616.05	66.201
616.38	64.387
616.71	65.810
617.05	66.708
617.38	66.562
617.71	67.170
618.04	67.111
618.37	67.024
618.70	68.119
619.03	68.125
619.36	66.643
619.69	67.779
620.03	68.079
620.36	68.598
620.69	66.453
621.02	66.896
621.35	69.378
621.68	67.772
622.01	68.417
622.34	67.518
622.67	67.035
623.00	67.075
623.33	65.930
623.66	67.315
623.99	66.490
624.32	66.996
624.65	66.992
624.99	68.548
625.32	67.096
625.65	67.243
625.98	68.735
626.31	65.004
626.64	67.678
626.97	65.707
627.30	68.126
627.63	68.718
627.96	67.026
628.29	69.565
628.62	68.437
628.95	67.635
629.28	68.448
629.61	68.594
629.94	67.058
630.26	68.379
630.59	68.366
630.92	69.128
631.25	65.744
631.58	67.511
631.91	66.667
632.24	68.922
632.57	68.523
632.90	70.463
633.23	66.941
633.56	70.277
633.89	69.420
