SpectraSuite Data File
++++++++++++++++++++++++++++++++++++
Date: Fri May 15 17:18:29 PDT 2015
User: schluterlab
Dark Spectrum Present: Yes
Reference Spectrum Present: Yes
Number of Sampled Component Spectra: 1
Spectrometers: USB2E3373
Integration Time (usec): 3000 (USB2E3373)
Spectra Averaged: 3 (USB2E3373)
Boxcar Smoothing: 0 (USB2E3373)
Correct for Electrical Dark: No (USB2E3373)
Strobe/Lamp Enabled: No (USB2E3373)
Correct for Detector Non-linearity: No (USB2E3373)
Correct for Stray Light: No (USB2E3373)
Number of Pixels in Processed Spectrum: 2048
>>>>>Begin Processed Spectral Data<<<<<
178.53	0.000
178.91	0.000
179.29	225.000
179.67	150.000
180.04	57.143
180.42	300.000
180.80	200.000
181.18	-66.667
181.56	100.000
181.94	400.000
182.31	-100.000
182.69	180.000
183.07	33.333
183.45	20.000
183.83	-50.000
184.20	90.909
184.58	88.889
184.96	-175.000
185.34	-233.333
185.72	-150.000
186.09	46.154
186.47	-400.000
186.85	133.333
187.23	77.778
187.61	-200.000
187.98	100.000
188.36	133.333
188.74	200.000
189.12	35.294
189.49	72.222
189.87	0.000
190.25	100.000
190.63	600.000
191.00	500.000
191.38	47.368
191.76	750.000
192.14	-75.000
192.51	150.000
192.89	22.222
193.27	-14.286
193.65	-0.000
194.02	72.727
194.40	90.000
194.78	25.000
195.15	50.000
195.53	-25.000
195.91	100.000
196.29	125.000
196.66	15.385
197.04	71.429
197.42	200.000
197.79	-266.667
198.17	-46.154
198.55	500.000
198.92	-200.000
199.30	-1000.000
199.68	200.000
200.05	-333.333
200.43	0.000
200.81	100.000
201.18	0.000
201.56	-100.000
201.94	250.000
202.31	-66.667
202.69	0.000
203.07	75.000
203.44	200.000
203.82	0.000
204.19	42.857
204.57	0.000
204.95	112.500
205.32	40.000
205.70	157.143
206.08	150.000
206.45	155.556
206.83	78.571
207.20	42.857
207.58	300.000
207.96	-33.333
208.33	-30.000
208.71	25.000
209.08	0.000
209.46	-300.000
209.84	-120.000
210.21	0.000
210.59	128.571
210.96	-16.667
211.34	100.000
211.71	80.000
212.09	28.571
212.46	-300.000
212.84	0.000
213.22	90.000
213.59	450.000
213.97	115.385
214.34	145.455
214.72	83.333
215.09	-25.000
215.47	-15.385
215.84	9.091
216.22	-100.000
216.59	75.000
216.97	600.000
217.34	25.000
217.72	20.000
218.09	62.500
218.47	-75.000
218.84	500.000
219.22	-33.333
219.59	140.000
219.97	-66.667
220.34	-125.000
220.72	85.714
221.09	-100.000
221.47	0.000
221.84	-550.000
222.22	-250.000
222.59	100.000
222.97	100.000
223.34	66.667
223.72	35.714
224.09	-9.524
224.46	25.000
224.84	100.000
225.21	60.000
225.59	53.333
225.96	400.000
226.34	325.000
226.71	85.714
227.08	-83.333
227.46	50.000
227.83	250.000
228.21	55.556
228.58	36.364
228.95	125.000
229.33	10.000
229.70	25.000
230.08	125.000
230.45	71.429
230.82	214.286
231.20	33.333
231.57	100.000
231.95	85.714
232.32	-20.000
232.69	92.857
233.07	100.000
233.44	0.000
233.81	-20.000
234.19	-22.222
234.56	64.706
234.93	300.000
235.31	125.000
235.68	-240.000
236.05	-46.154
236.43	-20.000
236.80	35.294
237.17	46.875
237.55	-25.000
237.92	22.222
238.29	22.222
238.67	26.667
239.04	32.353
239.41	0.000
239.79	0.000
240.16	17.073
240.53	13.158
240.91	28.261
241.28	23.810
241.65	26.786
242.02	31.507
242.40	18.333
242.77	-10.169
243.14	3.030
243.51	3.750
243.89	16.092
244.26	10.345
244.63	5.952
245.00	10.309
245.38	11.340
245.75	3.371
246.12	10.345
246.49	14.050
246.87	9.615
247.24	17.647
247.61	7.895
247.98	10.569
248.36	5.000
248.73	11.184
249.10	5.844
249.47	3.165
249.84	2.614
250.22	12.353
250.59	2.614
250.96	10.798
251.33	4.070
251.70	10.588
252.08	10.660
252.45	2.970
252.82	10.050
253.19	11.982
253.56	2.336
253.94	7.658
254.31	10.000
254.68	10.088
255.05	5.512
255.42	5.240
255.79	6.564
256.16	8.949
256.54	6.716
256.91	7.985
257.28	7.807
257.65	7.865
258.02	5.319
258.39	10.101
258.76	5.495
259.14	7.309
259.51	7.443
259.88	5.155
260.25	7.516
260.62	6.250
260.99	3.390
261.36	3.082
261.73	8.228
262.10	5.775
262.47	4.601
262.85	5.329
263.22	4.923
263.59	5.296
263.96	3.106
264.33	3.939
264.70	5.952
265.07	5.060
265.44	6.516
265.81	3.390
266.18	5.191
266.55	10.797
266.92	6.736
267.29	4.700
267.66	8.184
268.03	4.974
268.40	4.178
268.77	8.556
269.14	6.235
269.51	5.141
269.88	5.736
270.25	7.398
270.62	5.610
270.99	5.371
271.36	6.846
271.73	7.277
272.10	5.839
272.47	6.856
272.84	3.713
273.21	8.353
273.58	7.711
273.95	4.577
274.32	6.005
274.69	3.394
275.06	10.268
275.43	3.855
275.80	6.843
276.17	3.448
276.54	7.709
276.91	5.921
277.28	3.930
277.65	9.298
278.02	2.766
278.39	5.252
278.76	6.080
279.13	3.734
279.50	7.143
279.87	7.559
280.23	6.237
280.60	8.967
280.97	5.051
281.34	5.577
281.71	7.392
282.08	5.317
282.45	4.892
282.82	4.826
283.19	3.868
283.56	5.780
283.92	4.554
284.29	3.462
284.66	5.233
285.03	5.501
285.40	4.726
285.77	4.042
286.14	4.332
286.51	7.565
286.87	4.388
287.24	5.157
287.61	4.233
287.98	6.842
288.35	3.293
288.72	5.604
289.08	5.903
289.45	4.745
289.82	5.070
290.19	7.338
290.56	5.146
290.93	3.367
291.29	4.160
291.66	5.197
292.03	4.306
292.40	3.710
292.77	4.147
293.13	3.084
293.50	3.794
293.87	4.580
294.24	4.637
294.60	5.067
294.97	6.845
295.34	3.221
295.71	4.173
296.08	3.139
296.44	3.841
296.81	5.833
297.18	6.232
297.55	7.317
297.91	5.342
298.28	5.541
298.65	3.935
299.02	2.561
299.38	1.094
299.75	1.793
300.12	3.534
300.48	4.480
300.85	5.703
301.22	3.766
301.59	3.684
301.95	5.063
302.32	5.318
302.69	2.488
303.05	5.322
303.42	3.238
303.79	4.322
304.15	5.854
304.52	2.378
304.89	2.807
305.25	3.632
305.62	3.734
305.99	3.392
306.35	3.353
306.72	2.812
307.09	3.535
307.45	4.822
307.82	4.630
308.19	3.833
308.55	4.798
308.92	5.991
309.29	3.352
309.65	2.583
310.02	3.520
310.38	3.183
310.75	3.716
311.12	3.337
311.48	4.030
311.85	5.236
312.22	2.426
312.58	3.715
312.95	3.522
313.31	3.106
313.68	3.665
314.05	3.878
314.41	2.990
314.78	2.680
315.14	4.317
315.51	4.762
315.87	3.279
316.24	5.561
316.61	5.118
316.97	4.067
317.34	4.102
317.70	3.346
318.07	3.654
318.43	5.000
318.80	3.977
319.16	3.223
319.53	4.938
319.89	3.740
320.26	4.352
320.62	5.517
320.99	3.758
321.35	3.392
321.72	4.984
322.08	3.827
322.45	4.365
322.81	4.813
323.18	2.061
323.54	3.958
323.91	3.797
324.27	3.711
324.64	4.401
325.00	4.471
325.37	4.224
325.73	3.626
326.10	4.450
326.46	5.291
326.83	4.112
327.19	4.272
327.56	3.997
327.92	5.458
328.29	4.375
328.65	4.057
329.01	4.228
329.38	5.253
329.74	3.966
330.11	5.283
330.47	3.803
330.84	3.654
331.20	4.848
331.56	3.611
331.93	5.297
332.29	5.225
332.66	4.434
333.02	3.996
333.38	3.758
333.75	3.663
334.11	4.297
334.48	3.898
334.84	3.388
335.20	3.934
335.57	4.170
335.93	4.065
336.29	4.788
336.66	4.360
337.02	3.532
337.38	3.796
337.75	5.455
338.11	4.328
338.47	3.923
338.84	5.268
339.20	5.027
339.56	4.771
339.93	5.551
340.29	4.587
340.65	4.749
341.02	4.255
341.38	4.159
341.74	3.622
342.11	4.159
342.47	4.181
342.83	4.152
343.20	3.920
343.56	4.174
343.92	4.694
344.28	4.782
344.65	4.145
345.01	3.803
345.37	4.626
345.73	4.770
346.10	4.918
346.46	4.373
346.82	3.928
347.19	3.907
347.55	4.762
347.91	4.207
348.27	5.821
348.63	5.196
349.00	3.199
349.36	3.990
349.72	5.141
350.08	4.180
350.45	4.948
350.81	3.405
351.17	4.642
351.53	4.245
351.89	4.542
352.26	3.520
352.62	4.435
352.98	4.257
353.34	4.831
353.70	4.531
354.07	4.113
354.43	4.243
354.79	3.220
355.15	4.841
355.51	5.459
355.87	4.935
356.24	3.670
356.60	3.800
356.96	4.127
357.32	5.032
357.68	3.909
358.04	3.796
358.40	4.100
358.77	5.104
359.13	3.923
359.49	4.160
359.85	4.212
360.21	3.748
360.57	4.055
360.93	5.522
361.29	3.474
361.66	4.310
362.02	3.788
362.38	3.960
362.74	4.239
363.10	4.590
363.46	4.374
363.82	4.959
364.18	5.018
364.54	3.529
364.90	4.301
365.26	3.785
365.62	5.328
365.98	4.619
366.35	4.807
366.71	3.843
367.07	4.790
367.43	4.170
367.79	4.735
368.15	5.025
368.51	4.224
368.87	4.164
369.23	3.899
369.59	3.499
369.95	4.839
370.31	4.263
370.67	3.955
371.03	4.780
371.39	3.063
371.75	3.956
372.11	5.064
372.47	4.068
372.83	5.039
373.19	4.922
373.55	4.260
373.91	4.752
374.27	4.819
374.63	4.235
374.99	4.468
375.35	3.760
375.71	4.965
376.07	4.494
376.42	4.626
376.78	4.564
377.14	4.401
377.50	4.382
377.86	4.752
378.22	4.531
378.58	3.846
378.94	5.104
379.30	4.429
379.66	5.392
380.02	3.556
380.38	4.443
380.74	4.788
381.09	4.969
381.45	4.465
381.81	4.750
382.17	4.505
382.53	4.247
382.89	4.959
383.25	5.165
383.61	5.610
383.97	4.444
384.32	5.253
384.68	5.139
385.04	4.350
385.40	4.605
385.76	5.597
386.12	5.110
386.48	5.364
386.83	4.692
387.19	5.189
387.55	5.960
387.91	5.440
388.27	5.128
388.62	5.475
388.98	5.157
389.34	6.371
389.70	5.904
390.06	5.979
390.42	5.570
390.77	4.709
391.13	5.044
391.49	5.175
391.85	5.718
392.20	5.650
392.56	5.785
392.92	5.989
393.28	5.660
393.64	5.526
393.99	6.708
394.35	5.440
394.71	5.811
395.07	6.223
395.42	5.404
395.78	6.254
396.14	6.116
396.50	5.580
396.85	5.860
397.21	6.140
397.57	6.082
397.92	6.771
398.28	6.437
398.64	6.205
399.00	5.982
399.35	5.756
399.71	6.203
400.07	6.046
400.42	5.814
400.78	7.410
401.14	6.776
401.49	6.790
401.85	6.338
402.21	7.108
402.57	6.375
402.92	6.650
403.28	6.454
403.63	6.747
403.99	6.122
404.35	7.121
404.70	6.905
405.06	6.874
405.42	6.961
405.77	6.334
406.13	6.461
406.49	6.572
406.84	6.418
407.20	7.345
407.55	6.053
407.91	7.152
408.27	5.927
408.62	7.631
408.98	6.716
409.34	7.311
409.69	6.912
410.05	6.466
410.40	7.346
410.76	6.936
411.11	6.937
411.47	7.298
411.83	6.780
412.18	6.950
412.54	6.242
412.89	6.650
413.25	7.341
413.60	7.826
413.96	7.546
414.31	7.134
414.67	6.607
415.03	6.591
415.38	7.441
415.74	8.599
416.09	9.144
416.45	7.360
416.80	6.808
417.16	6.837
417.51	7.328
417.87	6.584
418.22	7.254
418.58	6.957
418.93	7.649
419.29	6.786
419.64	7.259
420.00	8.186
420.35	7.164
420.71	8.323
421.06	7.551
421.42	7.392
421.77	7.168
422.12	6.981
422.48	7.417
422.83	7.773
423.19	7.675
423.54	7.407
423.90	7.597
424.25	7.348
424.61	8.262
424.96	7.491
425.31	8.030
425.67	7.864
426.02	8.363
426.38	7.702
426.73	8.172
427.09	8.481
427.44	9.176
427.79	8.191
428.15	9.102
428.50	7.632
428.85	7.371
429.21	7.697
429.56	8.302
429.92	8.320
430.27	8.622
430.62	7.475
430.98	8.068
431.33	8.097
431.68	7.535
432.04	8.440
432.39	8.157
432.74	7.697
433.10	9.195
433.45	8.542
433.80	8.648
434.16	8.089
434.51	8.548
434.86	8.653
435.22	7.964
435.57	9.233
435.92	8.024
436.28	8.408
436.63	8.500
436.98	8.227
437.34	8.348
437.69	8.587
438.04	8.661
438.39	8.064
438.75	7.832
439.10	8.885
439.45	8.643
439.81	8.746
440.16	7.898
440.51	10.030
440.86	9.547
441.22	8.767
441.57	8.444
441.92	9.286
442.27	8.647
442.63	9.422
442.98	9.592
443.33	9.460
443.68	8.753
444.03	9.538
444.39	8.313
444.74	9.699
445.09	9.410
445.44	9.573
445.79	10.160
446.15	9.416
446.50	9.207
446.85	10.096
447.20	9.281
447.55	9.989
447.91	10.152
448.26	9.277
448.61	9.845
448.96	8.893
449.31	9.133
449.66	9.582
450.02	9.298
450.37	9.721
450.72	9.393
451.07	10.190
451.42	9.114
451.77	9.464
452.12	9.151
452.47	9.337
452.83	8.893
453.18	9.614
453.53	10.051
453.88	9.411
454.23	9.465
454.58	9.446
454.93	9.858
455.28	8.889
455.63	9.981
455.98	10.042
456.34	10.473
456.69	9.593
457.04	10.712
457.39	9.113
457.74	9.915
458.09	9.535
458.44	9.772
458.79	10.252
459.14	10.069
459.49	10.627
459.84	9.814
460.19	8.859
460.54	9.719
460.89	9.773
461.24	10.497
461.59	11.045
461.94	9.371
462.29	10.856
462.64	11.096
462.99	10.630
463.34	10.362
463.69	10.360
464.04	10.593
464.39	10.309
464.74	10.491
465.09	10.168
465.44	10.040
465.79	9.467
466.14	10.775
466.49	9.948
466.84	10.113
467.19	10.325
467.54	10.856
467.89	10.044
468.24	10.401
468.59	10.857
468.94	10.032
469.29	11.738
469.64	11.073
469.99	10.091
470.34	9.625
470.68	11.409
471.03	10.262
471.38	9.629
471.73	10.504
472.08	10.651
472.43	10.000
472.78	9.321
473.13	10.476
473.48	11.336
473.83	10.025
474.17	10.687
474.52	10.338
474.87	10.606
475.22	9.579
475.57	11.067
475.92	10.806
476.27	11.350
476.61	10.995
476.96	10.262
477.31	10.871
477.66	10.787
478.01	10.612
478.36	10.784
478.70	11.256
479.05	11.374
479.40	11.023
479.75	10.845
480.10	10.701
480.45	10.650
480.79	11.531
481.14	11.168
481.49	10.000
481.84	10.183
482.19	10.103
482.53	10.839
482.88	10.358
483.23	10.988
483.58	10.613
483.92	10.552
484.27	10.802
484.62	10.623
484.97	10.406
485.31	10.621
485.66	10.263
486.01	10.509
486.36	10.232
486.70	10.198
487.05	10.096
487.40	10.315
487.75	10.535
488.09	10.414
488.44	10.798
488.79	10.609
489.13	11.098
489.48	11.116
489.83	11.076
490.17	10.382
490.52	10.716
490.87	10.504
491.22	11.079
491.56	11.148
491.91	10.660
492.26	10.695
492.60	10.701
492.95	11.904
493.30	10.503
493.64	11.100
493.99	11.208
494.34	10.291
494.68	10.905
495.03	10.316
495.37	10.844
495.72	10.651
496.07	11.220
496.41	10.660
496.76	11.331
497.11	10.806
497.45	11.647
497.80	10.898
498.14	11.128
498.49	10.970
498.84	11.327
499.18	11.596
499.53	11.111
499.87	10.506
500.22	11.227
500.56	11.296
500.91	11.295
501.26	10.875
501.60	11.067
501.95	10.917
502.29	11.380
502.64	11.535
502.98	11.692
503.33	10.855
503.67	11.325
504.02	11.632
504.36	11.232
504.71	10.859
505.06	11.072
505.40	11.523
505.75	11.546
506.09	11.201
506.44	12.064
506.78	11.122
507.13	11.944
507.47	10.705
507.82	11.325
508.16	11.516
508.51	11.175
508.85	11.983
509.19	10.591
509.54	11.689
509.88	10.841
510.23	11.781
510.57	11.652
510.92	10.981
511.26	11.238
511.61	11.606
511.95	11.507
512.30	11.253
512.64	11.909
512.98	11.398
513.33	12.591
513.67	11.654
514.02	12.414
514.36	11.714
514.70	12.646
515.05	12.397
515.39	11.688
515.74	13.413
516.08	11.596
516.42	13.310
516.77	12.054
517.11	12.404
517.46	12.627
517.80	11.442
518.14	12.615
518.49	11.599
518.83	12.758
519.17	11.825
519.52	12.197
519.86	12.005
520.20	12.758
520.55	11.695
520.89	13.300
521.23	12.223
521.58	13.312
521.92	12.692
522.26	12.362
522.61	12.662
522.95	12.980
523.29	12.834
523.64	13.659
523.98	12.249
524.32	12.049
524.66	13.380
525.01	13.247
525.35	12.703
525.69	12.391
526.04	12.434
526.38	13.554
526.72	12.688
527.06	12.387
527.41	12.863
527.75	12.534
528.09	12.425
528.43	14.112
528.78	12.343
529.12	12.968
529.46	12.541
529.80	12.730
530.15	13.465
530.49	13.603
530.83	12.175
531.17	12.156
531.51	13.133
531.86	12.508
532.20	12.317
532.54	12.662
532.88	13.484
533.22	13.239
533.57	12.910
533.91	12.663
534.25	13.672
534.59	12.765
534.93	11.643
535.27	12.690
535.62	12.378
535.96	12.981
536.30	13.984
536.64	13.439
536.98	12.753
537.32	14.083
537.66	13.815
538.01	12.797
538.35	12.344
538.69	13.515
539.03	12.372
539.37	13.257
539.71	13.156
540.05	12.016
540.39	13.227
540.73	13.389
541.07	12.569
541.42	14.852
541.76	13.076
542.10	12.595
542.44	13.412
542.78	11.700
543.12	12.706
543.46	12.796
543.80	12.977
544.14	12.016
544.48	12.858
544.82	12.714
545.16	12.842
545.50	13.284
545.84	12.677
546.18	12.979
546.52	12.617
546.86	12.509
547.20	13.376
547.54	13.004
547.88	13.111
548.22	12.426
548.56	12.665
548.90	14.084
549.24	12.328
549.58	13.117
549.92	13.009
550.26	13.260
550.60	13.532
550.94	13.518
551.28	12.983
551.62	13.308
551.96	12.932
552.30	12.865
552.64	12.341
552.98	13.221
553.32	13.124
553.66	12.482
554.00	13.577
554.34	13.737
554.68	13.717
555.02	13.393
555.36	12.939
555.69	12.454
556.03	12.491
556.37	13.167
556.71	13.718
557.05	13.274
557.39	12.639
557.73	13.718
558.07	14.178
558.41	13.859
558.75	13.094
559.08	13.554
559.42	13.492
559.76	12.170
560.10	12.768
560.44	13.179
560.78	12.937
561.12	12.412
561.45	13.141
561.79	13.585
562.13	13.130
562.47	12.518
562.81	13.040
563.15	12.835
563.48	12.871
563.82	13.315
564.16	12.535
564.50	13.041
564.84	13.253
565.17	12.810
565.51	12.363
565.85	12.551
566.19	12.666
566.52	13.606
566.86	14.139
567.20	12.702
567.54	12.652
567.88	13.181
568.21	13.122
568.55	12.500
568.89	12.782
569.23	12.518
569.56	11.909
569.90	12.505
570.24	12.356
570.57	12.218
570.91	12.130
571.25	11.641
571.59	12.177
571.92	11.674
572.26	11.957
572.60	11.876
572.93	11.798
573.27	11.599
573.61	12.053
573.95	11.660
574.28	11.149
574.62	11.238
574.96	11.394
575.29	11.358
575.63	11.091
575.97	10.843
576.30	11.189
576.64	11.126
576.98	11.480
577.31	11.502
577.65	11.697
577.98	11.560
578.32	11.554
578.66	11.025
578.99	11.277
579.33	11.292
579.67	11.052
580.00	11.418
580.34	11.343
580.67	11.449
581.01	11.263
581.35	11.370
581.68	11.415
582.02	11.562
582.35	11.421
582.69	11.375
583.02	11.472
583.36	11.285
583.70	11.786
584.03	11.176
584.37	11.632
584.70	11.648
585.04	10.984
585.37	11.671
585.71	11.725
586.04	11.523
586.38	11.576
586.72	11.879
587.05	11.785
587.39	11.909
587.72	12.028
588.06	11.680
588.39	12.276
588.73	12.057
589.06	12.100
589.40	12.098
589.73	12.121
590.07	12.651
590.40	12.113
590.73	12.891
591.07	12.044
591.40	12.734
591.74	12.036
592.07	12.755
592.41	13.030
592.74	12.226
593.08	11.561
593.41	11.960
593.75	11.907
594.08	12.015
594.41	12.118
594.75	12.023
595.08	12.410
595.42	12.330
595.75	11.829
596.09	12.314
596.42	12.154
596.75	12.877
597.09	11.754
597.42	12.918
597.75	12.597
598.09	12.404
598.42	12.094
598.76	12.484
599.09	12.300
599.42	12.088
599.76	12.265
600.09	12.557
600.42	12.358
600.76	11.850
601.09	12.137
601.42	11.986
601.76	12.465
602.09	12.129
602.42	13.142
602.76	12.139
603.09	12.666
603.42	12.876
603.76	11.734
604.09	11.260
604.42	12.394
604.76	13.084
605.09	12.020
605.42	11.919
605.75	11.646
606.09	12.229
606.42	11.593
606.75	11.775
607.09	12.659
607.42	12.184
607.75	12.433
608.08	11.590
608.42	11.923
608.75	12.723
609.08	12.207
609.41	12.487
609.75	11.794
610.08	12.931
610.41	11.836
610.74	11.994
611.07	11.938
611.41	12.351
611.74	12.740
612.07	11.777
612.40	12.254
612.73	13.164
613.07	12.317
613.40	12.801
613.73	11.136
614.06	12.910
614.39	11.506
614.72	11.597
615.06	12.291
615.39	11.736
615.72	12.487
616.05	12.179
616.38	11.225
616.71	12.416
617.05	12.600
617.38	12.885
617.71	12.390
618.04	12.889
618.37	13.304
618.70	12.541
619.03	13.611
619.36	11.433
619.69	11.979
620.03	13.952
620.36	13.877
620.69	11.991
621.02	12.768
621.35	14.025
621.68	12.925
622.01	13.167
622.34	13.009
622.67	13.328
623.00	13.093
623.33	12.576
623.66	11.892
623.99	12.859
624.32	13.080
624.65	11.955
624.99	13.544
625.32	12.434
625.65	13.433
625.98	13.135
626.31	11.970
626.64	14.125
626.97	13.962
627.30	13.748
627.63	13.345
627.96	13.657
628.29	13.136
628.62	14.553
628.95	13.928
629.28	12.500
629.61	13.360
629.94	13.783
630.26	13.340
630.59	13.528
630.92	13.436
631.25	12.000
631.58	12.225
631.91	11.623
632.24	13.417
632.57	14.773
632.90	12.456
633.23	14.941
633.56	13.476
633.89	12.947
634.22	13.086
634.55	13.723
634.88	13.282
635.20	13.077
635.53	15.200
635.86	15.735
636.19	13.972
636.52	13.648
636.85	12.655
637.18	13.459
637.51	13.333
637.83	14.455
638.16	15.143
638.49	11.717
638.82	14.868
639.15	14.383
639.48	12.930
639.81	13.947
640.13	13.276
640.46	14.723
640.79	12.666
641.12	13.737
641.45	13.213
641.77	14.370
642.10	15.324
642.43	13.344
642.76	14.191
643.09	15.670
643.41	15.534
643.74	13.344
644.07	14.286
644.40	15.034
644.73	14.361
645.05	14.262
645.38	15.697
645.71	14.894
646.04	13.465
646.36	13.830
646.69	14.928
647.02	15.879
