SpectraSuite Data File
++++++++++++++++++++++++++++++++++++
Date: Fri May 15 20:01:56 PDT 2015
User: schluterlab
Dark Spectrum Present: Yes
Reference Spectrum Present: Yes
Number of Sampled Component Spectra: 1
Spectrometers: USB2E3373
Integration Time (usec): 3000 (USB2E3373)
Spectra Averaged: 3 (USB2E3373)
Boxcar Smoothing: 0 (USB2E3373)
Correct for Electrical Dark: No (USB2E3373)
Strobe/Lamp Enabled: No (USB2E3373)
Correct for Detector Non-linearity: No (USB2E3373)
Correct for Stray Light: No (USB2E3373)
Number of Pixels in Processed Spectrum: 2048
>>>>>Begin Processed Spectral Data<<<<<
178.53	0.000
178.91	0.000
179.29	150.000
179.67	100.000
180.04	-157.143
180.42	175.000
180.80	100.000
181.18	-100.000
181.56	150.000
181.94	-200.000
182.31	-400.000
182.69	0.000
183.07	-133.333
183.45	80.000
183.83	116.667
184.20	63.636
184.58	22.222
184.96	-75.000
185.34	-66.667
185.72	-250.000
186.09	46.154
186.47	-1100.000
186.85	216.667
187.23	122.222
187.61	-700.000
187.98	-266.667
188.36	-22.222
188.74	0.000
189.12	88.235
189.49	77.778
189.87	0.000
190.25	100.000
190.63	250.000
191.00	33.333
191.38	47.368
191.76	-50.000
192.14	-200.000
192.51	450.000
192.89	11.111
193.27	0.000
193.65	233.333
194.02	163.636
194.40	30.000
194.78	-137.500
195.15	-8.333
195.53	-37.500
195.91	325.000
196.29	125.000
196.66	46.154
197.04	57.143
197.42	0.000
197.79	-300.000
198.17	-23.077
198.55	1700.000
198.92	-33.333
199.30	-300.000
199.68	-160.000
200.05	-66.667
200.43	0.000
200.81	166.667
201.18	133.333
201.56	1000.000
201.94	-350.000
202.31	-33.333
202.69	-100.000
203.07	-75.000
203.44	300.000
203.82	0.000
204.19	14.286
204.57	-466.667
204.95	137.500
205.32	100.000
205.70	0.000
206.08	100.000
206.45	122.222
206.83	35.714
207.20	-28.571
207.58	-500.000
207.96	0.000
208.33	-70.000
208.71	150.000
209.08	-150.000
209.46	100.000
209.84	60.000
210.21	-300.000
210.59	100.000
210.96	133.333
211.34	225.000
211.71	73.333
212.09	-100.000
212.46	-1300.000
212.84	0.000
213.22	40.000
213.59	800.000
213.97	53.846
214.34	54.545
214.72	-66.667
215.09	75.000
215.47	46.154
215.84	18.182
216.22	266.667
216.59	25.000
216.97	-100.000
217.34	-50.000
217.72	80.000
218.09	112.500
218.47	112.500
218.84	-700.000
219.22	-11.111
219.59	200.000
219.97	366.667
220.34	200.000
220.72	28.571
221.09	25.000
221.47	100.000
221.84	100.000
222.22	-900.000
222.59	100.000
222.97	25.000
223.34	-166.667
223.72	57.143
224.09	19.048
224.46	21.429
224.84	266.667
225.21	20.000
225.59	53.333
225.96	300.000
226.34	175.000
226.71	85.714
227.08	-33.333
227.46	12.500
227.83	-700.000
228.21	33.333
228.58	27.273
228.95	-50.000
229.33	30.000
229.70	37.500
230.08	-87.500
230.45	-71.429
230.82	-42.857
231.20	-26.667
231.57	71.429
231.95	-28.571
232.32	30.000
232.69	35.714
233.07	266.667
233.44	100.000
233.81	-110.000
234.19	0.000
234.56	23.529
234.93	250.000
235.31	75.000
235.68	-40.000
236.05	23.077
236.43	-5.000
236.80	29.412
237.17	40.625
237.55	-10.000
237.92	40.741
238.29	8.333
238.67	40.000
239.04	17.647
239.41	7.317
239.79	0.000
240.16	34.146
240.53	15.789
240.91	17.391
241.28	19.048
241.65	41.071
242.02	39.726
242.40	38.333
242.77	20.339
243.14	27.273
243.51	23.750
243.89	40.230
244.26	28.736
244.63	21.429
245.00	26.804
245.38	37.113
245.75	3.371
246.12	18.103
246.49	28.926
246.87	30.769
247.24	15.126
247.61	16.667
247.98	26.016
248.36	21.875
248.73	26.316
249.10	21.429
249.47	31.013
249.84	23.529
250.22	22.941
250.59	19.608
250.96	24.413
251.33	21.512
251.70	25.882
252.08	27.919
252.45	22.772
252.82	24.121
253.19	25.806
253.56	24.766
253.94	26.126
254.31	27.391
254.68	26.754
255.05	25.591
255.42	25.764
255.79	22.780
256.16	22.957
256.54	27.239
256.91	26.236
257.28	26.394
257.65	25.094
258.02	25.177
258.39	27.946
258.76	30.769
259.14	26.910
259.51	24.595
259.88	25.773
260.25	27.124
260.62	23.958
260.99	26.102
261.36	23.973
261.73	24.051
262.10	22.188
262.47	26.074
262.85	23.197
263.22	27.385
263.59	28.037
263.96	31.677
264.33	21.818
264.70	28.274
265.07	26.488
265.44	27.479
265.81	29.379
266.18	25.956
266.55	25.450
266.92	26.166
267.29	23.499
267.66	25.064
268.03	26.963
268.40	25.587
268.77	29.144
269.14	26.619
269.51	27.506
269.88	22.943
270.25	25.510
270.62	24.390
270.99	26.087
271.36	22.494
271.73	24.883
272.10	24.574
272.47	24.586
272.84	25.495
273.21	25.290
273.58	26.988
273.95	24.027
274.32	21.016
274.69	22.851
275.06	26.116
275.43	22.449
275.80	22.075
276.17	23.678
276.54	24.625
276.91	23.904
277.28	21.834
277.65	24.380
278.02	23.617
278.39	25.821
278.76	22.222
279.13	20.954
279.50	24.580
279.87	24.190
280.23	19.355
280.60	24.561
280.97	26.061
281.34	22.308
281.71	26.694
282.08	25.153
282.45	23.679
282.82	24.324
283.19	23.017
283.56	24.663
283.92	24.288
284.29	22.885
284.66	23.062
285.03	24.951
285.40	24.008
285.77	24.077
286.14	22.202
286.51	25.092
286.87	20.110
287.24	21.547
287.61	22.751
287.98	23.158
288.35	22.530
288.72	23.818
289.08	22.049
289.45	22.144
289.82	22.203
290.19	21.160
290.56	21.955
290.93	21.717
291.29	22.034
291.66	20.945
292.03	20.255
292.40	21.290
292.77	19.139
293.13	18.669
293.50	18.816
293.87	19.542
294.24	20.866
294.60	21.908
294.97	19.940
295.34	20.399
295.71	20.417
296.08	20.329
296.44	19.061
296.81	19.167
297.18	20.725
297.55	21.138
297.91	20.411
298.28	21.240
298.65	19.946
299.02	18.868
299.38	19.152
299.75	19.862
300.12	19.895
300.48	18.182
300.85	18.251
301.22	19.221
301.59	19.079
301.95	21.519
302.32	20.104
302.69	19.527
303.05	19.183
303.42	20.174
303.79	20.444
304.15	19.474
304.52	18.906
304.89	18.480
305.25	19.007
305.62	17.620
305.99	18.129
306.35	19.538
306.72	17.435
307.09	19.726
307.45	19.633
307.82	17.361
308.19	20.674
308.55	18.321
308.92	19.717
309.29	18.771
309.65	16.900
310.02	18.262
310.38	19.429
310.75	19.454
311.12	17.653
311.48	18.876
311.85	19.476
312.22	16.878
312.58	18.365
312.95	18.463
313.31	18.323
313.68	18.010
314.05	18.980
314.41	18.351
314.78	18.660
315.14	16.752
315.51	18.841
315.87	18.443
316.24	18.605
316.61	18.898
316.97	18.353
317.34	19.336
317.70	18.069
318.07	18.942
318.43	17.549
318.80	17.140
319.16	18.555
319.53	19.468
319.89	17.126
320.26	19.231
320.62	19.258
320.99	17.537
321.35	17.780
321.72	17.549
322.08	17.825
322.45	17.766
322.81	16.798
323.18	17.763
323.54	17.181
323.91	18.208
324.27	16.797
324.64	18.633
325.00	17.974
325.37	20.018
325.73	17.226
326.10	17.984
326.46	17.489
326.83	17.498
327.19	17.262
327.56	16.942
327.92	18.310
328.29	17.143
328.65	18.774
329.01	17.647
329.38	17.880
329.74	16.431
330.11	17.331
330.47	16.883
330.84	16.731
331.20	18.346
331.56	16.667
331.93	17.260
332.29	18.515
332.66	17.557
333.02	16.914
333.38	16.407
333.75	17.216
334.11	16.741
334.48	17.407
334.84	17.674
335.20	16.834
335.57	15.594
335.93	17.435
336.29	16.022
336.66	16.440
337.02	15.056
337.38	16.481
337.75	16.364
338.11	16.141
338.47	17.518
338.84	17.652
339.20	16.088
339.56	17.339
339.93	17.995
340.29	16.606
340.65	16.219
341.02	17.021
341.38	16.726
341.74	16.166
342.11	16.464
342.47	14.858
342.83	17.647
343.20	16.376
343.56	16.870
343.92	16.918
344.28	16.567
344.65	15.976
345.01	15.385
345.37	16.148
345.73	16.736
346.10	17.515
346.46	17.157
346.82	16.039
347.19	14.963
347.55	16.708
347.91	16.181
348.27	16.087
348.63	16.695
349.00	15.176
349.36	15.295
349.72	16.833
350.08	16.475
350.45	16.042
350.81	15.698
351.17	14.577
351.53	16.163
351.89	15.111
352.26	15.760
352.62	15.806
352.98	16.064
353.34	15.700
353.70	16.505
354.07	15.565
354.43	16.733
354.79	14.781
355.15	15.952
355.51	16.693
355.87	17.071
356.24	14.600
356.60	15.602
356.96	16.032
357.32	16.054
357.68	15.481
358.04	15.509
358.40	15.675
358.77	16.268
359.13	14.652
359.49	14.407
359.85	15.367
360.21	15.869
360.57	15.302
360.93	15.734
361.29	13.671
361.66	15.047
362.02	16.667
362.38	15.385
362.74	16.276
363.10	15.500
363.46	14.974
363.82	15.702
364.18	15.720
364.54	14.706
364.90	14.767
365.26	14.702
365.62	16.204
365.98	14.589
366.35	15.368
366.71	15.595
367.07	14.877
367.43	14.666
367.79	15.124
368.15	15.721
368.51	15.004
368.87	14.645
369.23	14.368
369.59	14.942
369.95	15.982
370.31	16.257
370.67	15.970
371.03	15.011
371.39	15.317
371.75	14.579
372.11	15.549
372.47	15.680
372.83	15.046
373.19	15.621
373.55	14.224
373.91	15.407
374.27	14.812
374.63	15.937
374.99	14.184
375.35	15.111
375.71	15.455
376.07	14.958
376.42	15.034
376.78	15.302
377.14	15.301
377.50	15.073
377.86	15.127
378.22	13.848
378.58	15.321
378.94	14.619
379.30	14.473
379.66	15.611
380.02	14.715
380.38	14.729
380.74	14.303
381.09	15.031
381.45	13.761
381.81	14.621
382.17	15.228
382.53	14.803
382.89	14.564
383.25	15.681
383.61	15.732
383.97	14.476
384.32	14.947
384.68	15.232
385.04	14.461
385.40	14.250
385.76	15.975
386.12	14.942
386.48	15.645
386.83	14.965
387.19	14.408
387.55	14.429
387.91	14.670
388.27	14.957
388.62	15.230
388.98	14.549
389.34	15.178
389.70	15.227
390.06	14.600
390.42	14.443
390.77	14.846
391.13	13.808
391.49	14.942
391.85	14.035
392.20	15.129
392.56	14.685
392.92	14.974
393.28	14.033
393.64	14.294
393.99	15.486
394.35	14.358
394.71	13.729
395.07	14.519
395.42	14.815
395.78	14.202
396.14	14.817
396.50	14.775
396.85	14.295
397.21	14.536
397.57	15.172
397.92	14.679
398.28	15.115
398.64	14.096
399.00	15.350
399.35	13.939
399.71	14.762
400.07	14.389
400.42	14.749
400.78	14.819
401.14	13.914
401.49	15.188
401.85	14.199
402.21	14.759
402.57	14.813
402.92	14.492
403.28	14.348
403.63	14.754
403.99	14.031
404.35	13.929
404.70	13.810
405.06	14.160
405.42	13.860
405.77	13.945
406.13	13.795
406.49	13.262
406.84	14.242
407.20	14.630
407.55	13.844
407.91	14.037
408.27	13.894
408.62	14.092
408.98	13.247
409.34	13.569
409.69	13.824
410.05	13.916
410.40	13.395
410.76	13.752
411.11	14.438
411.47	13.741
411.83	13.622
412.18	13.707
412.54	13.296
412.89	13.608
413.25	13.478
413.60	13.106
413.96	13.926
414.31	14.573
414.67	13.342
415.03	13.981
415.38	12.990
415.74	14.137
416.09	13.978
416.45	13.707
416.80	13.219
417.16	13.052
417.51	13.524
417.87	13.820
418.22	14.119
418.58	13.980
418.93	14.232
419.29	12.100
419.64	13.286
420.00	14.106
420.35	14.030
420.71	13.973
421.06	13.014
421.42	14.543
421.77	13.931
422.12	14.075
422.48	14.239
422.83	14.385
423.19	13.883
423.54	13.933
423.90	14.370
424.25	14.753
424.61	15.055
424.96	13.589
425.31	14.789
425.67	14.378
426.02	14.782
426.38	14.652
426.73	14.891
427.09	15.190
427.44	14.118
427.79	14.202
428.15	15.049
428.50	14.113
428.85	13.636
429.21	15.054
429.56	14.555
429.92	15.100
430.27	14.586
430.62	14.480
430.98	14.544
431.33	15.089
431.68	14.861
432.04	15.372
432.39	13.976
432.74	14.311
433.10	15.230
433.45	15.293
433.80	14.161
434.16	14.183
434.51	14.301
434.86	14.866
435.22	14.638
435.57	15.159
435.92	15.509
436.28	14.788
436.63	14.546
436.98	13.847
437.34	14.217
437.69	15.027
438.04	14.473
438.39	14.478
438.75	14.693
439.10	15.224
439.45	15.216
439.81	14.312
440.16	15.083
440.51	15.522
440.86	16.375
441.22	14.989
441.57	15.011
441.92	15.373
442.27	15.078
442.63	15.578
442.98	14.934
443.33	15.025
443.68	14.960
444.03	15.052
444.39	15.839
444.74	15.552
445.09	14.978
445.44	15.499
445.79	14.956
446.15	15.253
446.50	14.531
446.85	14.984
447.20	15.433
447.55	16.183
447.91	14.044
448.26	15.652
448.61	14.680
448.96	15.663
449.31	15.491
449.66	15.796
450.02	14.489
450.37	15.353
450.72	15.178
451.07	15.000
451.42	14.544
451.77	15.310
452.12	15.012
452.47	15.068
452.83	15.548
453.18	14.991
453.53	15.613
453.88	15.361
454.23	15.796
454.58	15.680
454.93	15.979
455.28	14.603
455.63	15.933
455.98	15.695
456.34	14.432
456.69	15.248
457.04	15.753
457.39	14.459
457.74	15.538
458.09	15.303
458.44	14.745
458.79	14.846
459.14	15.675
459.49	15.164
459.84	15.905
460.19	14.806
460.54	15.465
460.89	15.398
461.24	15.280
461.59	16.152
461.94	15.723
462.29	15.682
462.64	15.615
462.99	15.640
463.34	15.090
463.69	15.573
464.04	15.496
464.39	15.161
464.74	15.031
465.09	14.847
465.44	15.061
465.79	15.363
466.14	16.249
466.49	15.239
466.84	15.824
467.19	16.333
467.54	15.709
467.89	15.035
468.24	15.268
468.59	15.556
468.94	15.429
469.29	16.918
469.64	16.678
469.99	15.907
470.34	15.085
470.68	15.511
471.03	16.773
471.38	15.335
471.73	15.336
472.08	15.332
472.43	14.899
472.78	15.284
473.13	15.646
473.48	15.896
473.83	15.255
474.17	15.738
474.52	15.954
474.87	15.515
475.22	16.473
475.57	16.375
475.92	16.018
476.27	16.240
476.61	16.377
476.96	15.839
477.31	15.576
477.66	15.393
478.01	15.104
478.36	16.285
478.70	15.824
479.05	16.154
479.40	15.898
479.75	16.319
480.10	15.668
480.45	16.250
480.79	16.113
481.14	16.291
481.49	16.207
481.84	15.927
482.19	15.482
482.53	16.307
482.88	16.372
483.23	15.691
483.58	15.849
483.92	15.150
484.27	15.406
484.62	15.778
484.97	15.299
485.31	15.426
485.66	14.831
486.01	15.635
486.36	15.540
486.70	15.315
487.05	15.233
487.40	15.538
487.75	15.155
488.09	14.833
488.44	15.440
488.79	15.689
489.13	16.026
489.48	15.733
489.83	15.381
490.17	15.236
490.52	15.797
490.87	15.178
491.22	15.712
491.56	15.607
491.91	15.201
492.26	15.800
492.60	16.555
492.95	15.740
493.30	15.095
493.64	15.717
493.99	16.329
494.34	15.874
494.68	15.333
495.03	15.231
495.37	15.260
495.72	16.002
496.07	16.049
496.41	15.330
496.76	15.845
497.11	15.510
497.45	15.943
497.80	16.498
498.14	16.244
498.49	16.303
498.84	16.667
499.18	15.713
499.53	16.567
499.87	15.564
500.22	16.172
500.56	16.137
500.91	15.763
501.26	15.175
501.60	15.199
501.95	16.157
502.29	15.932
502.64	16.313
502.98	16.626
503.33	15.658
503.67	16.096
504.02	16.178
504.36	16.625
504.71	15.758
505.06	15.450
505.40	15.431
505.75	16.340
506.09	16.016
506.44	16.119
506.78	16.224
507.13	16.391
507.47	15.561
507.82	15.598
508.16	15.901
508.51	15.950
508.85	16.222
509.19	15.168
509.54	16.300
509.88	15.804
510.23	16.460
510.57	16.782
510.92	15.139
511.26	15.930
511.61	16.942
511.95	16.822
512.30	15.632
512.64	16.305
512.98	16.339
513.33	16.564
513.67	16.373
514.02	16.304
514.36	17.429
514.70	16.667
515.05	16.863
515.39	15.998
515.74	17.305
516.08	16.856
516.42	17.138
516.77	17.379
517.11	16.380
517.46	16.697
517.80	16.389
518.14	16.534
518.49	15.745
518.83	17.132
519.17	15.828
519.52	16.223
519.86	16.387
520.20	16.586
520.55	17.011
520.89	17.127
521.23	17.099
521.58	17.792
521.92	16.538
522.26	16.721
522.61	16.364
522.95	17.417
523.29	16.709
523.64	17.217
523.98	17.369
524.32	16.173
524.66	17.093
525.01	17.532
525.35	17.045
525.69	16.431
526.04	16.138
526.38	17.769
526.72	16.678
527.06	15.888
527.41	17.018
527.75	15.751
528.09	16.279
528.43	18.231
528.78	17.162
529.12	16.710
529.46	16.244
529.80	17.036
530.15	18.152
530.49	16.296
530.83	16.553
531.17	16.790
531.51	17.510
531.86	15.976
532.20	16.284
532.54	17.291
532.88	17.112
533.22	17.339
533.57	17.104
533.91	16.645
534.25	17.383
534.59	16.549
534.93	16.614
535.27	16.053
535.62	16.073
535.96	17.091
536.30	17.084
536.64	16.334
536.98	16.516
537.32	17.781
537.66	17.251
538.01	16.154
538.35	17.337
538.69	17.310
539.03	16.131
539.37	17.160
539.71	16.769
540.05	17.787
540.39	17.798
540.73	16.736
541.07	16.851
541.42	18.011
541.76	17.688
542.10	16.105
542.44	17.026
542.78	15.279
543.12	16.621
543.46	17.316
543.80	17.557
544.14	15.821
544.48	17.189
544.82	17.840
545.16	16.667
545.50	17.957
545.84	18.555
546.18	16.667
546.52	17.015
546.86	17.326
547.20	17.310
547.54	16.537
547.88	17.120
548.22	16.108
548.56	16.821
548.90	17.588
549.24	16.667
549.58	16.784
549.92	16.512
550.26	16.996
550.60	17.100
550.94	15.907
551.28	16.461
551.62	17.692
551.96	16.842
552.30	17.398
552.64	16.502
552.98	16.456
553.32	17.332
553.66	16.183
554.00	17.226
554.34	16.839
554.68	16.519
555.02	17.039
555.36	17.203
555.69	16.777
556.03	16.060
556.37	16.940
556.71	16.751
557.05	16.033
557.39	16.134
557.73	16.567
558.07	16.667
558.41	16.692
558.75	16.056
559.08	17.021
559.42	15.079
559.76	16.173
560.10	17.431
560.44	17.573
560.78	17.483
561.12	16.432
561.45	17.639
561.79	16.737
562.13	15.969
562.47	16.115
562.81	16.066
563.15	17.560
563.48	16.761
563.82	16.472
564.16	16.435
564.50	15.541
564.84	16.734
565.17	16.365
565.51	16.189
565.85	15.706
566.19	16.711
566.52	16.555
566.86	17.031
567.20	16.874
567.54	16.180
567.88	16.813
568.21	16.742
568.55	16.467
568.89	16.838
569.23	16.803
569.56	16.068
569.90	16.646
570.24	16.226
570.57	15.927
570.91	16.556
571.25	15.751
571.59	16.319
571.92	15.822
572.26	16.123
572.60	16.558
572.93	15.689
573.27	15.486
573.61	15.304
573.95	16.029
574.28	15.678
574.62	15.611
574.96	16.006
575.29	16.027
575.63	15.444
575.97	15.587
576.30	15.715
576.64	15.523
576.98	15.933
577.31	15.557
577.65	16.376
577.98	16.061
578.32	15.892
578.66	15.710
578.99	15.395
579.33	15.314
579.67	15.241
580.00	15.544
580.34	16.045
580.67	15.480
581.01	15.346
581.35	16.236
581.68	15.725
582.02	15.819
582.35	15.617
582.69	15.914
583.02	15.851
583.36	15.780
583.70	15.836
584.03	16.069
584.37	16.064
584.70	16.044
585.04	15.881
585.37	16.118
585.71	15.478
586.04	15.582
586.38	15.364
586.72	15.725
587.05	15.973
587.39	15.907
587.72	16.484
588.06	16.468
588.39	16.178
588.73	15.659
589.06	16.112
589.40	16.350
589.73	16.028
590.07	16.541
590.40	16.641
590.73	16.351
591.07	16.455
591.40	16.162
591.74	16.697
592.07	16.373
592.41	16.608
592.74	16.169
593.08	15.927
593.41	16.112
593.75	16.323
594.08	15.585
594.41	15.502
594.75	15.916
595.08	16.156
595.42	16.010
595.75	15.058
596.09	16.224
596.42	16.205
596.75	16.430
597.09	16.446
597.42	15.854
597.75	16.079
598.09	15.980
598.42	15.478
598.76	15.616
599.09	16.426
599.42	16.105
599.76	16.065
600.09	16.063
600.42	16.452
600.76	15.379
601.09	15.382
601.42	15.629
601.76	15.641
602.09	15.800
602.42	16.723
602.76	16.087
603.09	16.404
603.42	17.015
603.76	15.726
604.09	15.674
604.42	16.836
604.76	16.466
605.09	16.225
605.42	16.163
605.75	16.112
606.09	16.433
606.42	16.597
606.75	16.234
607.09	16.923
607.42	16.039
607.75	15.853
608.08	16.262
608.42	15.761
608.75	15.855
609.08	15.595
609.41	15.787
609.75	16.028
610.08	16.126
610.41	16.232
610.74	15.505
611.07	16.486
611.41	16.347
611.74	16.258
612.07	16.274
612.40	16.575
612.73	16.441
613.07	15.861
613.40	17.068
613.73	15.949
614.06	16.082
614.39	16.131
614.72	17.031
615.06	15.978
615.39	15.884
615.72	15.877
616.05	16.201
616.38	16.068
616.71	16.697
617.05	16.245
617.38	16.405
617.71	16.289
618.04	16.762
618.37	18.600
618.70	16.700
619.03	17.222
619.36	15.847
619.69	17.437
620.03	17.823
620.36	17.382
620.69	16.916
621.02	16.590
621.35	17.759
621.68	16.837
622.01	17.083
622.34	16.919
622.67	16.719
623.00	17.381
623.33	15.777
623.66	16.754
623.99	17.700
624.32	16.958
624.65	16.241
624.99	15.877
625.32	16.149
625.65	17.910
625.98	17.566
626.31	16.376
626.64	16.984
626.97	18.237
627.30	17.250
627.63	17.418
627.96	18.419
628.29	16.651
628.62	17.699
628.95	16.733
629.28	18.548
629.61	17.747
629.94	17.498
630.26	16.206
630.59	17.378
630.92	16.923
631.25	16.718
631.58	16.740
631.91	15.351
632.24	16.170
632.57	18.068
632.90	15.658
633.23	18.000
633.56	15.113
633.89	16.523
