SpectraSuite Data File
++++++++++++++++++++++++++++++++++++
Date: Fri May 15 17:32:49 PDT 2015
User: schluterlab
Dark Spectrum Present: Yes
Reference Spectrum Present: Yes
Number of Sampled Component Spectra: 1
Spectrometers: USB2E3373
Integration Time (usec): 3000 (USB2E3373)
Spectra Averaged: 3 (USB2E3373)
Boxcar Smoothing: 0 (USB2E3373)
Correct for Electrical Dark: No (USB2E3373)
Strobe/Lamp Enabled: No (USB2E3373)
Correct for Detector Non-linearity: No (USB2E3373)
Correct for Stray Light: No (USB2E3373)
Number of Pixels in Processed Spectrum: 2048
>>>>>Begin Processed Spectral Data<<<<<
178.53	0.000
178.91	0.000
179.29	162.500
179.67	-350.000
180.04	-100.000
180.42	250.000
180.80	-300.000
181.18	-200.000
181.56	350.000
181.94	400.000
182.31	-600.000
182.69	-140.000
183.07	-133.333
183.45	-160.000
183.83	-50.000
184.20	-36.364
184.58	22.222
184.96	-175.000
185.34	133.333
185.72	150.000
186.09	130.769
186.47	-1300.000
186.85	116.667
187.23	122.222
187.61	800.000
187.98	-233.333
188.36	122.222
188.74	0.000
189.12	35.294
189.49	55.556
189.87	0.000
190.25	57.143
190.63	250.000
191.00	-166.667
191.38	63.158
191.76	250.000
192.14	-0.000
192.51	50.000
192.89	44.444
193.27	-42.857
193.65	33.333
194.02	27.273
194.40	90.000
194.78	-150.000
195.15	-33.333
195.53	-37.500
195.91	175.000
196.29	0.000
196.66	-0.000
197.04	85.714
197.42	-66.667
197.79	-500.000
198.17	-84.615
198.55	1300.000
198.92	33.333
199.30	-600.000
199.68	-140.000
200.05	-100.000
200.43	0.000
200.81	-66.667
201.18	100.000
201.56	800.000
201.94	100.000
202.31	-100.000
202.69	-40.000
203.07	25.000
203.44	100.000
203.82	0.000
204.19	78.571
204.57	-133.333
204.95	100.000
205.32	210.000
205.70	100.000
206.08	-125.000
206.45	66.667
206.83	85.714
207.20	-157.143
207.58	400.000
207.96	-133.333
208.33	-20.000
208.71	100.000
209.08	-100.000
209.46	-100.000
209.84	80.000
210.21	-1100.000
210.59	-57.143
210.96	83.333
211.34	0.000
211.71	100.000
212.09	-42.857
212.46	-800.000
212.84	0.000
213.22	170.000
213.59	150.000
213.97	76.923
214.34	63.636
214.72	0.000
215.09	150.000
215.47	46.154
215.84	9.091
216.22	-33.333
216.59	62.500
216.97	550.000
217.34	125.000
217.72	-100.000
218.09	175.000
218.47	200.000
218.84	400.000
219.22	-111.111
219.59	-140.000
219.97	-133.333
220.34	-25.000
220.72	0.000
221.09	-100.000
221.47	0.000
221.84	-450.000
222.22	-400.000
222.59	36.364
222.97	91.667
223.34	-166.667
223.72	-14.286
224.09	61.905
224.46	14.286
224.84	266.667
225.21	-40.000
225.59	33.333
225.96	-750.000
226.34	-0.000
226.71	-100.000
227.08	116.667
227.46	100.000
227.83	-200.000
228.21	77.778
228.58	72.727
228.95	50.000
229.33	10.000
229.70	6.250
230.08	75.000
230.45	-85.714
230.82	100.000
231.20	-26.667
231.57	14.286
231.95	-14.286
232.32	-100.000
232.69	28.571
233.07	366.667
233.44	40.000
233.81	-50.000
234.19	-11.111
234.56	0.000
234.93	-150.000
235.31	75.000
235.68	-100.000
236.05	0.000
236.43	40.000
236.80	0.000
237.17	46.875
237.55	40.000
237.92	40.741
238.29	19.444
238.67	43.333
239.04	23.529
239.41	14.634
239.79	13.333
240.16	48.780
240.53	18.421
240.91	21.739
241.28	25.397
241.65	41.071
242.02	42.466
242.40	26.667
242.77	37.288
243.14	22.727
243.51	16.250
243.89	22.989
244.26	20.690
244.63	29.762
245.00	29.897
245.38	19.588
245.75	17.978
246.12	25.862
246.49	31.405
246.87	24.038
247.24	23.529
247.61	20.175
247.98	21.138
248.36	20.625
248.73	26.316
249.10	24.026
249.47	24.684
249.84	26.797
250.22	23.529
250.59	29.412
250.96	28.638
251.33	25.581
251.70	25.882
252.08	25.888
252.45	28.713
252.82	29.146
253.19	30.876
253.56	24.299
253.94	30.180
254.31	28.261
254.68	25.877
255.05	24.016
255.42	32.314
255.79	27.413
256.16	27.237
256.54	29.104
256.91	28.517
257.28	26.766
257.65	25.843
258.02	23.050
258.39	31.650
258.76	28.938
259.14	29.236
259.51	26.861
259.88	27.491
260.25	25.817
260.62	29.167
260.99	29.153
261.36	27.740
261.73	23.101
262.10	29.483
262.47	25.767
262.85	26.959
263.22	28.308
263.59	25.857
263.96	28.571
264.33	26.667
264.70	27.381
265.07	31.250
265.44	30.028
265.81	23.729
266.18	27.049
266.55	27.763
266.92	31.088
267.29	29.243
267.66	29.668
268.03	26.963
268.40	27.676
268.77	27.273
269.14	27.098
269.51	28.278
269.88	26.434
270.25	25.765
270.62	24.390
270.99	28.389
271.36	25.917
271.73	26.995
272.10	26.034
272.47	26.714
272.84	27.228
273.21	30.394
273.58	25.542
273.95	26.316
274.32	25.635
274.69	24.887
275.06	29.241
275.43	26.077
275.80	26.932
276.17	26.207
276.54	23.769
276.91	26.974
277.28	25.764
277.65	25.207
278.02	26.596
278.39	27.133
278.76	28.302
279.13	20.954
279.50	26.471
279.87	27.862
280.23	25.376
280.60	26.121
280.97	29.091
281.34	22.115
281.71	27.310
282.08	23.926
282.45	22.896
282.82	23.552
283.19	27.273
283.56	24.085
283.92	26.186
284.29	21.923
284.66	23.256
285.03	25.933
285.40	25.520
285.77	25.308
286.14	24.910
286.51	25.461
286.87	23.949
287.24	26.888
287.61	23.104
287.98	24.386
288.35	22.184
288.72	23.292
289.08	22.222
289.45	23.726
289.82	22.378
290.19	22.355
290.56	22.470
290.93	21.380
291.29	21.726
291.66	23.780
292.03	21.212
292.40	20.968
292.77	19.298
293.13	19.805
293.50	20.030
293.87	21.527
294.24	21.175
294.60	21.759
294.97	20.238
295.34	19.018
295.71	19.523
296.08	19.133
296.44	20.341
296.81	20.000
297.18	18.406
297.55	20.867
297.91	17.534
298.28	18.074
298.65	18.318
299.02	17.925
299.38	19.289
299.75	17.931
300.12	17.408
300.48	17.523
300.85	19.265
301.22	17.013
301.59	16.579
301.95	19.241
302.32	18.029
302.69	18.532
303.05	17.327
303.42	18.804
303.79	18.692
304.15	18.519
304.52	15.458
304.89	17.427
305.25	18.402
305.62	16.219
305.99	16.959
306.35	16.879
306.72	16.085
307.09	17.560
307.45	16.992
307.82	16.667
308.19	16.725
308.55	15.049
308.92	17.647
309.29	17.654
309.65	14.639
310.02	16.502
310.38	15.038
310.75	15.519
311.12	15.931
311.48	16.013
311.85	14.346
312.22	16.139
312.58	15.924
312.95	16.115
313.31	15.735
313.68	16.859
314.05	14.082
314.41	15.876
314.78	14.742
315.14	15.827
315.51	15.424
315.87	16.598
316.24	16.481
316.61	16.240
316.97	15.873
317.34	15.234
317.70	15.870
318.07	15.769
318.43	15.784
318.80	15.057
319.16	15.918
319.53	16.809
319.89	15.945
320.26	15.081
320.62	16.148
320.99	13.466
321.35	15.416
321.72	16.096
322.08	15.710
322.45	16.244
322.81	16.306
323.18	15.309
323.54	16.602
323.91	15.871
324.27	15.039
324.64	15.449
325.00	15.785
325.37	17.355
325.73	14.687
326.10	16.258
326.46	16.502
326.83	16.273
327.19	16.303
327.56	17.289
327.92	16.285
328.29	15.625
328.65	16.509
329.01	16.544
329.38	16.037
329.74	14.542
330.11	17.238
330.47	16.234
330.84	14.423
331.20	16.065
331.56	15.370
331.93	17.260
332.29	16.132
332.66	15.023
333.02	15.985
333.38	15.490
333.75	15.201
334.11	14.772
334.48	16.591
334.84	16.758
335.20	15.645
335.57	15.141
335.93	15.899
336.29	15.470
336.66	14.078
337.02	15.335
337.38	15.185
337.75	15.364
338.11	15.690
338.47	16.697
338.84	14.972
339.20	15.814
339.56	14.312
339.93	14.951
340.29	16.972
340.65	15.860
341.02	15.780
341.38	15.398
341.74	15.106
342.11	15.251
342.47	14.591
342.83	15.484
343.20	14.895
343.56	16.000
343.92	14.969
344.28	16.225
344.65	16.062
345.01	15.298
345.37	14.886
345.73	15.314
346.10	16.135
346.46	15.896
346.82	14.566
347.19	14.048
347.55	14.954
347.91	15.210
348.27	13.824
348.63	15.417
349.00	14.684
349.36	14.713
349.72	15.837
350.08	14.344
350.45	14.605
350.81	15.449
351.17	14.007
351.53	15.673
351.89	14.864
352.26	15.200
352.62	15.161
352.98	14.618
353.34	14.976
353.70	14.968
354.07	15.323
354.43	14.492
354.79	14.451
355.15	15.159
355.51	14.953
355.87	14.159
356.24	13.703
356.60	14.228
356.96	13.968
357.32	13.898
357.68	15.012
358.04	14.863
358.40	13.666
358.77	15.152
359.13	14.011
359.49	14.022
359.85	14.197
360.21	14.274
360.57	15.226
360.93	14.750
361.29	12.613
361.66	15.282
362.02	14.848
362.38	14.775
362.74	14.156
363.10	14.748
363.46	13.862
363.82	15.026
364.18	14.096
364.54	13.897
364.90	13.047
365.26	14.338
365.62	14.526
365.98	14.296
366.35	14.348
366.71	14.265
367.07	14.006
367.43	14.091
367.79	13.710
368.15	14.501
368.51	14.494
368.87	13.281
369.23	14.224
369.59	13.921
369.95	14.443
370.31	14.234
370.67	14.627
371.03	12.771
371.39	14.077
371.75	14.286
372.11	14.836
372.47	14.275
372.83	14.194
373.19	13.766
373.55	13.574
373.91	14.111
374.27	13.820
374.63	14.573
374.99	13.262
375.35	14.067
375.71	13.636
376.07	13.272
376.42	13.537
376.78	14.094
377.14	13.812
377.50	13.878
377.86	13.454
378.22	13.848
378.58	13.718
378.94	12.917
379.30	13.288
379.66	13.918
380.02	13.366
380.38	13.573
380.74	14.423
381.09	13.681
381.45	12.966
381.81	13.634
382.17	13.769
382.53	13.741
382.89	14.187
383.25	13.317
383.61	13.841
383.97	13.651
384.32	13.571
384.68	13.622
385.04	12.745
385.40	13.068
385.76	14.214
386.12	13.583
386.48	14.176
386.83	13.507
387.19	13.919
387.55	14.366
387.91	14.364
388.27	13.553
388.62	14.349
388.98	13.505
389.34	14.741
389.70	13.735
390.06	13.531
390.42	13.536
390.77	13.800
391.13	12.989
391.49	13.583
391.85	13.840
392.20	14.313
392.56	13.795
392.92	14.151
393.28	13.325
393.64	13.574
393.99	14.232
394.35	13.725
394.71	14.815
395.07	13.074
395.42	13.054
395.78	13.681
396.14	14.880
396.50	13.887
396.85	13.973
397.21	14.035
397.57	13.542
397.92	14.020
398.28	14.195
398.64	13.012
399.00	14.108
399.35	13.375
399.71	14.015
400.07	14.148
400.42	14.382
400.78	13.472
401.14	13.430
401.49	13.639
401.85	13.589
402.21	13.795
402.57	14.500
402.92	13.990
403.28	13.910
403.63	13.934
403.99	14.668
404.35	14.553
404.70	14.345
405.06	14.395
405.42	14.232
405.77	13.248
406.13	13.329
406.49	14.091
406.84	14.670
407.20	14.509
407.55	13.393
407.91	13.436
408.27	13.448
408.62	14.831
408.98	13.247
409.34	14.126
409.69	14.406
410.05	13.116
410.40	12.407
410.76	15.259
411.11	13.375
411.47	14.333
411.83	13.999
412.18	13.964
412.54	13.983
412.89	14.163
413.25	13.899
413.60	13.665
413.96	13.926
414.31	14.146
414.67	13.598
415.03	14.248
415.38	13.381
415.74	13.811
416.09	14.566
416.45	13.910
416.80	14.673
417.16	13.605
417.51	13.924
417.87	13.625
418.22	13.795
418.58	13.043
418.93	14.608
419.29	12.612
419.64	13.221
420.00	14.987
420.35	13.910
420.71	14.581
421.06	13.628
421.42	14.123
421.77	14.740
422.12	13.394
422.48	14.239
422.83	14.095
423.19	14.278
423.54	13.286
423.90	14.134
424.25	13.949
424.61	13.953
424.96	14.518
425.31	15.194
425.67	13.908
426.02	14.782
426.38	13.525
426.73	14.588
427.09	14.494
427.44	13.706
427.79	14.437
428.15	14.806
428.50	13.022
428.85	13.514
429.21	14.488
429.56	14.340
429.92	14.278
430.27	14.937
430.62	13.800
430.98	13.163
431.33	14.826
431.68	13.658
432.04	14.254
432.39	14.318
432.74	13.710
433.10	14.655
433.45	13.501
433.80	14.452
434.16	13.629
434.51	14.032
434.86	14.111
435.22	14.246
435.57	14.598
435.92	14.192
436.28	14.252
436.63	14.261
436.98	14.021
437.34	13.188
437.69	14.490
438.04	13.618
438.39	13.867
438.75	13.479
439.10	14.431
439.45	14.729
439.81	14.067
440.16	14.608
440.51	14.567
440.86	15.106
441.22	14.197
441.57	14.294
441.92	14.533
442.27	14.800
442.63	15.418
442.98	13.728
443.33	14.302
443.68	14.271
444.03	14.655
444.39	14.412
444.74	14.214
445.09	14.477
445.44	13.504
445.79	15.936
446.15	14.593
446.50	14.365
446.85	14.506
447.20	14.546
447.55	14.900
447.91	14.608
448.26	14.855
448.61	14.508
448.96	14.056
449.31	14.220
449.66	14.692
450.02	14.261
450.37	13.989
450.72	14.777
451.07	14.241
451.42	14.607
451.77	14.647
452.12	14.474
452.47	13.973
452.83	14.841
453.18	14.674
453.53	15.171
453.88	14.511
454.23	14.259
454.58	15.239
454.93	14.691
455.28	13.778
455.63	14.445
455.98	15.033
456.34	14.049
456.69	15.184
457.04	14.619
457.39	14.945
457.74	14.933
458.09	14.185
458.44	13.634
458.79	13.501
459.14	14.989
459.49	15.164
459.84	14.664
460.19	14.806
460.54	15.403
460.89	15.000
461.24	14.348
461.59	14.786
461.94	14.654
462.29	15.862
462.64	15.150
462.99	15.166
463.34	13.978
463.69	13.835
464.04	16.404
464.39	14.312
464.74	13.988
465.09	14.410
465.44	14.599
465.79	14.229
466.14	14.538
466.49	13.974
466.84	13.742
467.19	14.018
467.54	14.687
467.89	14.277
468.24	13.929
468.59	15.556
468.94	14.349
469.29	14.689
469.64	14.354
469.99	14.856
470.34	13.720
470.68	13.721
471.03	14.154
471.38	14.194
471.73	14.706
472.08	14.450
472.43	14.362
472.78	13.228
473.13	14.354
473.48	14.528
473.83	14.695
474.17	14.249
474.52	15.316
474.87	14.727
475.22	14.643
475.57	14.342
475.92	14.920
476.27	15.250
476.61	14.931
476.96	13.553
477.31	14.981
477.66	14.438
478.01	14.318
478.36	14.052
478.70	14.954
479.05	14.615
479.40	15.156
479.75	14.651
480.10	15.207
480.45	14.550
480.79	14.854
481.14	14.703
481.49	14.187
481.84	14.672
482.19	14.500
482.53	14.436
482.88	14.224
483.23	14.060
483.58	14.387
483.92	14.134
484.27	15.087
484.62	14.299
484.97	14.386
485.31	14.270
485.66	13.971
486.01	13.966
486.36	13.587
486.70	14.036
487.05	14.273
487.40	14.142
487.75	14.676
488.09	14.400
488.44	14.546
488.79	14.830
489.13	14.864
489.48	14.280
489.83	14.395
490.17	14.472
490.52	14.319
490.87	14.623
491.22	14.374
491.56	14.374
491.91	14.818
492.26	14.536
492.60	14.827
492.95	14.855
493.30	14.021
493.64	14.096
493.99	15.072
494.34	14.612
494.68	13.857
495.03	14.063
495.37	14.622
495.72	14.690
496.07	14.732
496.41	14.434
496.76	13.542
497.11	14.020
497.45	14.558
497.80	14.783
498.14	14.357
498.49	14.119
498.84	14.571
499.18	14.859
499.53	15.129
499.87	14.105
500.22	14.194
500.56	14.322
500.91	14.859
501.26	13.742
501.60	14.019
501.95	14.993
502.29	14.722
502.64	14.575
502.98	14.455
503.33	14.217
503.67	14.313
504.02	14.321
504.36	14.250
504.71	14.899
505.06	14.595
505.40	14.569
505.75	14.278
506.09	14.952
506.44	14.887
506.78	15.000
507.13	15.202
507.47	13.838
507.82	13.675
508.16	14.263
508.51	14.586
508.85	14.390
509.19	13.571
509.54	14.584
509.88	14.509
510.23	14.201
510.57	15.339
510.92	13.859
511.26	14.184
511.61	14.246
511.95	14.137
512.30	14.191
512.64	16.082
512.98	14.935
513.33	14.773
513.67	13.872
514.02	15.217
514.36	14.571
514.70	15.618
515.05	14.806
515.39	14.699
515.74	14.551
516.08	14.345
516.42	14.841
516.77	15.038
517.11	15.074
517.46	14.961
517.80	14.958
518.14	14.636
518.49	15.385
518.83	14.945
519.17	14.433
519.52	14.683
519.86	13.986
520.20	14.459
520.55	14.447
520.89	15.370
521.23	14.376
521.58	14.826
521.92	14.295
522.26	15.094
522.61	14.610
522.95	15.497
523.29	14.612
523.64	14.740
523.98	14.452
524.32	14.433
524.66	15.429
525.01	15.649
525.35	15.100
525.69	14.747
526.04	15.212
526.38	15.564
526.72	14.127
527.06	14.851
527.41	15.303
527.75	14.477
528.09	13.688
528.43	16.003
528.78	14.653
529.12	14.387
529.46	14.425
529.80	14.883
530.15	15.578
530.49	14.882
530.83	13.885
531.17	14.775
531.51	15.458
531.86	14.684
532.20	15.031
532.54	14.636
532.88	15.195
533.22	14.315
533.57	14.810
533.91	14.164
534.25	14.909
534.59	15.138
534.93	14.286
535.27	14.467
535.62	14.906
535.96	15.851
536.30	15.172
536.64	15.713
536.98	14.216
537.32	15.718
537.66	15.217
538.01	15.874
538.35	14.840
538.69	15.313
539.03	14.969
539.37	15.478
539.71	14.110
540.05	15.139
540.39	14.958
540.73	15.132
541.07	15.677
541.42	16.129
541.76	15.141
542.10	15.210
542.44	15.080
542.78	13.627
543.12	14.835
543.46	14.743
543.80	14.434
544.14	13.284
544.48	15.390
544.82	15.448
545.16	15.164
545.50	14.286
545.84	15.297
546.18	15.887
546.52	15.789
546.86	15.313
547.20	14.807
547.54	14.346
547.88	14.742
548.22	15.056
548.56	14.446
548.90	15.836
549.24	15.014
549.58	14.104
549.92	14.653
550.26	14.945
550.60	15.985
550.94	14.638
551.28	14.683
551.62	16.538
551.96	15.263
552.30	14.401
552.64	14.386
552.98	14.909
553.32	14.622
553.66	14.514
554.00	14.088
554.34	14.771
554.68	15.413
555.02	15.551
555.36	14.361
555.69	14.359
556.03	14.989
556.37	14.733
556.71	14.874
557.05	14.914
557.39	14.275
557.73	15.067
558.07	14.932
558.41	14.395
558.75	15.199
559.08	14.578
559.42	13.889
559.76	15.212
560.10	13.991
560.44	13.999
560.78	15.175
561.12	14.739
561.45	15.390
561.79	15.336
562.13	15.827
562.47	14.676
562.81	15.202
563.15	16.008
563.48	15.205
563.82	15.168
564.16	15.738
564.50	14.595
564.84	15.127
565.17	14.621
565.51	15.574
565.85	15.295
566.19	14.191
566.52	15.013
566.86	14.974
567.20	14.819
567.54	14.355
567.88	14.470
568.21	15.441
568.55	14.185
568.89	14.630
569.23	14.588
569.56	14.448
569.90	14.901
570.24	14.477
570.57	14.509
570.91	14.395
571.25	13.548
571.59	14.263
571.92	14.370
572.26	13.949
572.60	14.357
572.93	14.340
573.27	14.201
573.61	14.260
573.95	13.900
574.28	14.010
574.62	13.603
574.96	13.762
575.29	13.781
575.63	13.864
575.97	13.744
576.30	13.691
576.64	13.642
576.98	13.848
577.31	13.566
577.65	14.083
577.98	13.652
578.32	13.889
578.66	13.540
578.99	13.875
579.33	13.490
579.67	13.803
580.00	14.203
580.34	13.881
580.67	13.749
581.01	14.073
581.35	13.717
581.68	13.836
582.02	13.195
582.35	13.612
582.69	14.102
583.02	13.651
583.36	13.745
583.70	14.382
584.03	14.373
584.37	14.370
584.70	14.148
585.04	13.912
585.37	13.980
585.71	13.577
586.04	13.944
586.38	13.657
586.72	14.290
587.05	13.894
587.39	14.062
587.72	14.571
588.06	13.950
588.39	14.269
588.73	14.133
589.06	14.188
589.40	14.449
589.73	14.567
590.07	14.841
590.40	14.899
590.73	15.239
591.07	14.122
591.40	14.114
591.74	15.023
592.07	14.750
592.41	14.488
592.74	14.337
593.08	14.356
593.41	14.069
593.75	13.641
594.08	13.869
594.41	14.410
594.75	13.435
595.08	14.226
595.42	13.949
595.75	14.044
596.09	14.621
596.42	13.973
596.75	14.920
597.09	14.715
597.42	14.905
597.75	14.155
598.09	14.396
598.42	13.989
598.76	13.985
599.09	13.742
599.42	13.755
599.76	14.146
600.09	13.612
600.42	13.836
600.76	13.856
601.09	13.817
601.42	14.023
601.76	13.458
602.09	14.191
602.42	14.153
602.76	14.728
603.09	14.618
603.42	14.298
603.76	13.669
604.09	13.852
604.42	14.594
604.76	14.998
605.09	14.671
605.42	14.041
605.75	13.923
606.09	14.480
606.42	14.429
606.75	13.810
607.09	14.813
607.42	14.178
607.75	13.810
608.08	14.465
608.42	13.705
608.75	14.458
609.08	14.051
609.41	14.721
609.75	14.718
610.08	14.578
610.41	13.188
610.74	14.091
611.07	14.005
611.41	14.011
611.74	14.712
612.07	14.186
612.40	14.059
612.73	14.633
613.07	14.061
613.40	15.208
613.73	14.214
614.06	15.025
614.39	14.495
614.72	14.118
615.06	14.804
615.39	14.138
615.72	14.478
616.05	14.134
616.38	14.359
616.71	14.251
617.05	14.453
617.38	14.582
617.71	14.277
618.04	14.413
618.37	14.943
618.70	15.050
619.03	15.417
619.36	14.544
619.69	15.011
620.03	16.070
620.36	15.308
620.69	13.847
621.02	14.679
621.35	15.353
621.68	14.966
622.01	14.333
622.34	15.483
622.67	14.669
623.00	14.855
623.33	14.558
623.66	14.286
623.99	15.734
624.32	15.665
624.65	13.985
624.99	14.597
625.32	14.177
625.65	15.789
625.98	15.149
626.31	14.464
626.64	14.645
626.97	15.794
627.30	15.236
627.63	16.118
627.96	15.094
628.29	14.431
628.62	15.733
628.95	15.331
629.28	15.323
629.61	14.257
629.94	15.640
630.26	15.316
630.59	15.297
630.92	16.000
631.25	15.590
631.58	15.308
631.91	14.583
632.24	15.711
632.57	17.386
632.90	15.896
633.23	15.059
633.56	14.484
633.89	16.769
