SpectraSuite Data File
++++++++++++++++++++++++++++++++++++
Date: Fri May 15 17:05:20 PDT 2015
User: schluterlab
Dark Spectrum Present: Yes
Reference Spectrum Present: Yes
Number of Sampled Component Spectra: 1
Spectrometers: USB2E3373
Integration Time (usec): 3000 (USB2E3373)
Spectra Averaged: 3 (USB2E3373)
Boxcar Smoothing: 0 (USB2E3373)
Correct for Electrical Dark: No (USB2E3373)
Strobe/Lamp Enabled: No (USB2E3373)
Correct for Detector Non-linearity: No (USB2E3373)
Correct for Stray Light: No (USB2E3373)
Number of Pixels in Processed Spectrum: 2048
>>>>>Begin Processed Spectral Data<<<<<
178.53	0.000
178.91	0.000
179.29	150.000
179.67	-350.000
180.04	-85.714
180.42	75.000
180.80	-200.000
181.18	-200.000
181.56	100.000
181.94	750.000
182.31	-400.000
182.69	120.000
183.07	100.000
183.45	120.000
183.83	-83.333
184.20	127.273
184.58	44.444
184.96	-0.000
185.34	-233.333
185.72	-100.000
186.09	15.385
186.47	-200.000
186.85	-50.000
187.23	155.556
187.61	-400.000
187.98	300.000
188.36	133.333
188.74	33.333
189.12	76.471
189.49	72.222
189.87	0.000
190.25	128.571
190.63	650.000
191.00	33.333
191.38	47.368
191.76	700.000
192.14	-275.000
192.51	600.000
192.89	44.444
193.27	-57.143
193.65	-50.000
194.02	18.182
194.40	160.000
194.78	87.500
195.15	50.000
195.53	0.000
195.91	-25.000
196.29	175.000
196.66	-7.692
197.04	-57.143
197.42	55.556
197.79	-233.333
198.17	0.000
198.55	300.000
198.92	100.000
199.30	900.000
199.68	100.000
200.05	66.667
200.43	0.000
200.81	200.000
201.18	233.333
201.56	100.000
201.94	-50.000
202.31	-366.667
202.69	-160.000
203.07	-25.000
203.44	1200.000
203.82	0.000
204.19	92.857
204.57	100.000
204.95	-0.000
205.32	100.000
205.70	157.143
206.08	125.000
206.45	233.333
206.83	157.143
207.20	14.286
207.58	-400.000
207.96	100.000
208.33	-40.000
208.71	75.000
209.08	0.000
209.46	-700.000
209.84	80.000
210.21	-200.000
210.59	157.143
210.96	-33.333
211.34	75.000
211.71	20.000
212.09	85.714
212.46	-300.000
212.84	0.000
213.22	120.000
213.59	-100.000
213.97	15.385
214.34	136.364
214.72	-50.000
215.09	-50.000
215.47	61.538
215.84	18.182
216.22	166.667
216.59	50.000
216.97	450.000
217.34	225.000
217.72	-60.000
218.09	212.500
218.47	-62.500
218.84	-200.000
219.22	11.111
219.59	160.000
219.97	-0.000
220.34	-200.000
220.72	14.286
221.09	275.000
221.47	450.000
221.84	-450.000
222.22	-150.000
222.59	209.091
222.97	125.000
223.34	233.333
223.72	42.857
224.09	66.667
224.46	35.714
224.84	200.000
225.21	80.000
225.59	80.000
225.96	400.000
226.34	-75.000
226.71	42.857
227.08	233.333
227.46	112.500
227.83	250.000
228.21	144.444
228.58	36.364
228.95	62.500
229.33	50.000
229.70	50.000
230.08	62.500
230.45	100.000
230.82	314.286
231.20	40.000
231.57	107.143
231.95	85.714
232.32	100.000
232.69	78.571
233.07	433.333
233.44	320.000
233.81	100.000
234.19	111.111
234.56	76.471
234.93	-350.000
235.31	275.000
235.68	-80.000
236.05	-30.769
236.43	50.000
236.80	117.647
237.17	59.375
237.55	60.000
237.92	85.185
238.29	55.556
238.67	83.333
239.04	61.765
239.41	41.463
239.79	60.000
240.16	90.244
240.53	60.526
240.91	63.043
241.28	53.968
241.65	57.143
242.02	49.315
242.40	58.333
242.77	55.932
243.14	43.939
243.51	61.250
243.89	62.069
244.26	48.276
244.63	47.619
245.00	45.361
245.38	55.670
245.75	52.809
246.12	36.207
246.49	54.545
246.87	60.577
247.24	42.017
247.61	47.368
247.98	49.593
248.36	48.125
248.73	50.000
249.10	53.896
249.47	45.570
249.84	55.556
250.22	48.824
250.59	53.595
250.96	51.643
251.33	44.767
251.70	53.529
252.08	49.746
252.45	51.485
252.82	52.764
253.19	49.309
253.56	44.393
253.94	48.198
254.31	51.739
254.68	53.509
255.05	48.819
255.42	49.345
255.79	50.579
256.16	47.860
256.54	49.627
256.91	46.388
257.28	47.584
257.65	44.944
258.02	44.326
258.39	47.475
258.76	50.916
259.14	49.834
259.51	44.984
259.88	48.454
260.25	48.366
260.62	50.000
260.99	44.407
261.36	50.000
261.73	45.570
262.10	45.593
262.47	47.853
262.85	46.708
263.22	45.538
263.59	51.713
263.96	47.516
264.33	48.788
264.70	47.917
265.07	48.214
265.44	48.725
265.81	51.130
266.18	51.913
266.55	48.072
266.92	46.891
267.29	50.914
267.66	48.338
268.03	49.476
268.40	43.603
268.77	48.930
269.14	46.763
269.51	49.871
269.88	45.885
270.25	45.408
270.62	43.902
270.99	46.547
271.36	45.477
271.73	44.601
272.10	45.499
272.47	46.809
272.84	49.505
273.21	46.172
273.58	47.952
273.95	46.224
274.32	45.497
274.69	43.891
275.06	48.437
275.43	43.991
275.80	45.475
276.17	45.517
276.54	41.113
276.91	44.737
277.28	44.323
277.65	44.008
278.02	42.128
278.39	45.952
278.76	42.977
279.13	44.191
279.50	45.378
279.87	45.788
280.23	44.086
280.60	42.300
280.97	44.646
281.34	43.846
281.71	46.612
282.08	42.331
282.45	43.249
282.82	42.664
283.19	44.294
283.56	43.738
283.92	43.833
284.29	44.038
284.66	41.279
285.03	42.633
285.40	41.399
285.77	40.949
286.14	41.877
286.51	45.387
286.87	42.413
287.24	42.541
287.61	41.623
287.98	42.982
288.35	42.461
288.72	41.506
289.08	40.451
289.45	42.179
289.82	38.287
290.19	40.444
290.56	38.593
290.93	39.562
291.29	36.980
291.66	37.323
292.03	36.364
292.40	39.194
292.77	37.321
293.13	34.416
293.50	35.964
293.87	37.405
294.24	35.394
294.60	36.066
294.97	34.375
295.34	34.816
295.71	34.277
296.08	34.679
296.44	32.432
296.81	34.583
297.18	34.493
297.55	34.011
297.91	33.288
298.28	32.718
298.65	31.615
299.02	31.536
299.38	31.190
299.75	32.552
300.12	30.366
300.48	29.644
300.85	32.193
301.22	30.000
301.59	31.711
301.95	30.506
302.32	31.777
302.69	30.473
303.05	30.198
303.42	29.265
303.79	30.023
304.15	30.466
304.52	29.845
304.89	27.953
305.25	30.387
305.62	29.872
305.99	29.006
306.35	29.133
306.72	28.571
307.09	28.620
307.45	29.851
307.82	28.704
308.19	29.733
308.55	27.917
308.92	31.155
309.29	29.721
309.65	30.140
310.02	28.713
310.38	28.540
310.75	28.962
311.12	28.848
311.48	28.420
311.85	28.482
312.22	29.219
312.58	27.919
312.95	27.321
313.31	27.847
313.68	28.063
314.05	28.367
314.41	27.938
314.78	27.835
315.14	28.058
315.51	28.882
315.87	28.791
316.24	28.514
316.61	28.937
316.97	29.266
317.34	30.273
317.70	28.489
318.07	29.135
318.43	30.686
318.80	30.777
319.16	30.664
319.53	31.909
319.89	30.118
320.26	31.579
320.62	33.200
320.99	32.568
321.35	33.196
321.72	33.749
322.08	34.139
322.45	34.619
322.81	34.283
323.18	34.151
323.54	34.363
323.91	34.956
324.27	36.816
324.64	38.577
325.00	38.777
325.37	38.567
325.73	37.353
326.10	40.054
326.46	40.897
326.83	40.595
327.19	41.674
327.56	40.747
327.92	43.398
328.29	41.875
328.65	43.774
329.01	42.004
329.38	44.055
329.74	45.987
330.11	45.690
330.47	45.826
330.84	45.192
331.20	49.240
331.56	46.667
331.93	48.219
332.29	49.038
332.66	47.873
333.02	48.978
333.38	50.137
333.75	51.374
334.11	48.702
334.48	50.952
334.84	49.817
335.20	51.235
335.57	49.320
335.93	51.671
336.29	51.934
336.66	52.407
337.02	51.952
337.38	51.574
337.75	52.909
338.11	53.111
338.47	54.015
338.84	53.420
339.20	54.570
339.56	54.679
339.93	54.790
340.29	54.587
340.65	54.301
341.02	54.610
341.38	53.717
341.74	53.445
342.11	52.426
342.47	56.940
342.83	56.142
343.20	54.530
343.56	56.348
343.92	56.333
344.28	55.423
344.65	56.649
345.01	55.575
345.37	54.163
345.73	54.644
346.10	57.291
346.46	54.331
346.82	54.828
347.19	55.777
347.55	56.642
347.91	55.583
348.27	55.376
348.63	56.218
349.00	56.276
349.36	57.689
349.72	57.546
350.08	56.393
350.45	55.866
350.81	56.811
351.17	56.678
351.53	57.306
351.89	57.225
352.26	57.280
352.62	57.823
352.98	56.948
353.34	56.683
353.70	58.010
354.07	57.016
354.43	57.806
354.79	58.960
355.15	57.302
355.51	57.991
355.87	59.628
356.24	57.259
356.60	58.367
356.96	60.000
357.32	59.505
357.68	59.109
358.04	59.774
358.40	59.164
358.77	60.526
359.13	60.448
359.49	57.935
359.85	60.296
360.21	61.324
360.57	58.914
360.93	59.077
361.29	59.290
361.66	61.285
362.02	61.818
362.38	61.005
362.74	61.620
363.10	62.302
363.46	62.713
363.82	62.434
364.18	61.255
364.54	61.618
364.90	61.362
365.26	61.426
365.62	62.263
365.98	63.416
366.35	63.074
366.71	62.823
367.07	64.224
367.43	64.270
367.79	63.322
368.15	63.245
368.51	63.875
368.87	63.819
369.23	64.260
369.59	65.306
369.95	63.416
370.31	65.173
370.67	65.299
371.03	64.526
371.39	64.843
371.75	64.322
372.11	64.479
372.47	65.976
372.83	65.578
373.19	65.621
373.55	64.404
373.91	65.443
374.27	67.753
374.63	66.978
374.99	65.603
375.35	67.270
375.71	68.322
376.07	67.767
376.42	68.776
376.78	67.919
377.14	68.111
377.50	67.862
377.86	68.675
378.22	66.752
378.58	68.974
378.94	66.289
379.30	68.247
379.66	68.401
380.02	68.424
380.38	68.959
380.74	67.804
381.09	69.509
381.45	69.725
381.81	68.415
382.17	70.558
382.53	70.081
382.89	70.810
383.25	69.820
383.61	69.878
383.97	70.159
384.32	69.043
384.68	70.464
385.04	70.466
385.40	70.380
385.76	73.270
386.12	72.057
386.48	72.797
386.83	71.592
387.19	71.734
387.55	71.393
387.91	72.433
388.27	70.879
388.62	74.512
388.98	70.964
389.34	71.643
389.70	72.778
390.06	70.673
390.42	72.992
390.77	73.250
391.13	72.573
391.49	72.639
391.85	73.489
392.20	72.693
392.56	73.999
392.92	72.343
393.28	73.585
393.64	72.733
393.99	74.169
394.35	73.498
394.71	73.116
395.07	71.653
395.42	71.645
395.78	74.267
396.14	73.266
396.50	73.621
396.85	73.342
397.21	73.496
397.57	73.605
397.92	72.199
398.28	75.230
398.64	72.711
399.00	74.549
399.35	73.081
399.71	73.923
400.07	74.909
400.42	71.909
400.78	74.587
401.14	73.563
401.49	73.734
401.85	73.553
402.21	74.157
402.57	74.312
402.92	72.710
403.28	73.810
403.63	75.473
403.99	73.980
404.35	73.766
404.70	70.714
405.06	71.857
405.42	73.151
405.77	73.155
406.13	73.399
406.49	72.054
406.84	74.083
407.20	73.931
407.55	74.050
407.91	72.861
408.27	72.594
408.62	71.815
408.98	73.444
409.34	72.243
409.69	72.093
410.05	70.505
410.40	73.086
410.76	74.125
411.11	72.750
411.47	74.096
411.83	72.693
412.18	74.324
412.54	72.347
412.89	72.599
413.25	74.067
413.60	73.851
413.96	73.129
414.31	72.988
414.67	72.354
415.03	74.168
415.38	72.585
415.74	73.420
416.09	73.743
416.45	73.059
416.80	72.307
417.16	73.895
417.51	72.085
417.87	73.338
418.22	74.935
418.58	73.980
418.93	73.542
419.29	72.407
419.64	73.623
420.00	76.008
420.35	73.731
420.71	73.755
421.06	74.708
421.42	74.099
421.77	75.780
422.12	73.496
422.48	73.091
422.83	74.246
423.19	74.153
423.54	74.133
423.90	73.380
424.25	74.053
424.61	74.847
424.96	73.635
425.31	76.545
425.67	75.059
426.02	74.617
426.38	75.141
426.73	76.090
427.09	76.329
427.44	77.118
427.79	75.015
428.15	76.517
428.50	76.015
428.85	75.430
429.21	76.457
429.56	76.981
429.92	76.271
430.27	74.286
430.62	75.902
430.98	76.858
431.33	75.342
431.68	74.673
432.04	77.921
432.39	76.212
432.74	74.504
433.10	77.874
433.45	76.882
433.80	77.191
434.16	77.341
434.51	77.043
434.86	77.875
435.22	76.444
435.57	78.415
435.92	77.006
436.28	77.340
436.63	76.440
436.98	75.203
437.34	77.919
437.69	78.414
438.04	77.664
438.39	75.932
438.75	79.174
439.10	76.684
439.45	78.576
439.81	78.287
440.16	80.701
440.51	78.627
440.86	80.846
441.22	77.489
441.57	81.126
441.92	79.906
442.27	80.211
442.63	78.319
442.98	78.231
443.33	78.242
443.68	78.727
444.03	78.937
444.39	78.406
444.74	80.379
445.09	79.176
445.44	80.000
445.79	80.660
446.15	78.139
446.50	79.368
446.85	78.587
447.20	78.780
447.55	79.074
447.91	77.778
448.26	78.771
448.61	78.296
448.96	78.199
449.31	78.208
449.66	78.339
450.02	79.692
450.37	80.735
450.72	79.152
451.07	79.810
451.42	78.090
451.77	78.963
452.12	77.033
452.47	79.395
452.83	79.211
453.18	77.736
453.53	78.824
453.88	79.842
454.23	78.672
454.58	80.605
454.93	79.446
455.28	76.762
455.63	78.549
455.98	77.931
456.34	79.566
456.69	80.051
457.04	77.568
457.39	79.162
457.74	79.021
458.09	77.340
458.44	79.052
458.79	77.031
459.14	79.005
459.49	78.985
459.84	78.455
460.19	78.701
460.54	79.034
460.89	79.659
461.24	78.944
461.59	78.325
461.94	77.358
462.29	77.865
462.64	78.472
462.99	77.319
463.34	77.747
463.69	79.279
464.04	78.027
464.39	77.987
464.74	76.994
465.09	78.977
465.44	79.746
465.79	77.098
466.14	77.594
466.49	78.206
466.84	78.049
467.19	77.660
467.54	77.842
467.89	78.395
468.24	78.832
468.59	78.476
468.94	77.016
469.29	77.311
469.64	77.170
469.99	80.378
470.34	76.792
470.68	79.567
471.03	78.132
471.38	78.745
471.73	78.922
472.08	77.069
472.43	78.926
472.78	76.696
473.13	76.463
473.48	77.134
473.83	77.148
474.17	77.720
474.52	76.643
474.87	77.030
475.22	77.547
475.57	77.527
475.92	77.564
476.27	77.183
476.61	78.762
476.96	74.958
477.31	78.313
477.66	77.360
478.01	77.765
478.36	77.560
478.70	77.977
479.05	77.912
479.40	76.524
479.75	76.486
480.10	75.934
480.45	77.250
480.79	78.197
481.14	78.535
481.49	76.749
481.84	77.510
482.19	75.117
482.53	76.882
482.88	76.325
483.23	76.488
483.58	75.566
483.92	76.186
484.27	76.162
484.62	76.065
484.97	75.788
485.31	75.795
485.66	76.303
486.01	75.977
486.36	75.179
486.70	74.901
487.05	75.162
487.40	74.793
487.75	74.845
488.09	74.475
488.44	75.516
488.79	75.906
489.13	75.921
489.48	75.246
489.83	75.605
490.17	74.921
490.52	75.520
490.87	74.040
491.22	76.266
491.56	74.336
491.91	75.096
492.26	76.033
492.60	76.440
492.95	76.783
493.30	74.353
493.64	76.326
493.99	75.990
494.34	76.262
494.68	76.143
495.03	75.328
495.37	75.319
495.72	75.164
496.07	76.195
496.41	75.660
496.76	75.864
497.11	75.082
497.45	75.227
497.80	76.387
498.14	74.466
498.49	76.232
498.84	75.100
499.18	75.753
499.53	78.522
499.87	75.146
500.22	74.530
500.56	75.240
500.91	77.058
501.26	74.493
501.60	75.947
501.95	76.177
502.29	76.126
502.64	76.158
502.98	76.024
503.33	75.312
503.67	74.940
504.02	75.562
504.36	76.150
504.71	75.101
505.06	75.742
505.40	75.939
505.75	76.289
506.09	75.013
506.44	76.540
506.78	76.122
507.13	76.163
507.47	73.943
507.82	75.588
508.16	74.802
508.51	75.341
508.85	76.086
509.19	74.348
509.54	76.032
509.88	74.703
510.23	75.632
510.57	74.773
510.92	73.134
511.26	75.123
511.61	75.633
511.95	75.726
512.30	75.998
512.64	75.793
512.98	75.856
513.33	74.314
513.67	76.009
514.02	77.174
514.36	76.229
514.70	75.932
515.05	76.851
515.39	75.974
515.74	76.886
516.08	76.330
516.42	77.267
516.77	75.892
517.11	76.558
517.46	75.643
517.80	75.685
518.14	76.424
518.49	75.180
518.83	76.124
519.17	74.348
519.52	74.837
519.86	75.090
520.20	75.213
520.55	77.236
520.89	75.596
521.23	76.757
521.58	75.457
521.92	74.872
522.26	76.708
522.61	75.974
522.95	77.219
523.29	74.396
523.64	76.048
523.98	79.002
524.32	76.289
524.66	75.992
525.01	75.909
525.35	77.058
525.69	76.700
526.04	76.124
526.38	76.719
526.72	75.082
527.06	76.848
527.41	76.913
527.75	75.201
528.09	75.748
528.43	76.637
528.78	75.908
529.12	77.161
529.46	76.478
529.80	74.288
530.15	76.634
530.49	76.094
530.83	76.060
531.17	75.890
531.51	76.402
531.86	74.031
532.20	75.505
532.54	76.378
532.88	77.687
533.22	75.269
533.57	75.491
533.91	75.587
534.25	76.367
534.59	76.267
534.93	75.142
535.27	74.937
535.62	75.697
535.96	74.886
536.30	75.660
536.64	76.706
536.98	75.610
537.32	77.098
537.66	76.578
538.01	76.713
538.35	75.936
538.69	75.233
539.03	74.915
539.37	76.245
539.71	76.960
540.05	74.678
540.39	76.108
540.73	75.872
541.07	75.967
541.42	73.656
541.76	75.981
542.10	77.357
542.44	76.789
542.78	75.705
543.12	76.236
543.46	76.008
543.80	76.752
544.14	74.032
544.48	76.349
544.82	76.145
545.16	76.913
545.50	76.035
545.84	75.354
546.18	76.667
546.52	77.073
546.86	76.348
547.20	76.967
547.54	75.901
547.88	76.291
548.22	74.425
548.56	75.989
548.90	75.337
549.24	75.620
549.58	74.612
549.92	74.768
550.26	76.337
550.60	76.952
550.94	76.848
551.28	76.507
551.62	77.385
551.96	76.917
552.30	77.412
552.64	74.824
552.98	76.231
553.32	76.391
553.66	76.778
554.00	76.934
554.34	76.883
554.68	75.147
555.02	76.860
555.36	76.515
555.69	76.117
556.03	75.446
556.37	75.018
556.71	74.368
557.05	76.883
557.39	73.978
557.73	74.513
558.07	75.641
558.41	76.187
558.75	76.695
559.08	75.493
559.42	76.905
559.76	77.022
560.10	76.070
560.44	74.609
560.78	75.804
561.12	76.023
561.45	76.037
561.79	76.751
562.13	76.721
562.47	76.691
562.81	75.216
563.15	75.529
563.48	77.298
563.82	76.527
564.16	77.159
564.50	74.527
564.84	75.770
565.17	76.392
565.51	79.030
565.85	77.503
566.19	75.464
566.52	78.016
566.86	76.542
567.20	77.148
567.54	77.981
567.88	77.563
568.21	78.281
568.55	76.957
568.89	77.361
569.23	77.756
569.56	76.708
569.90	77.629
570.24	74.991
570.57	76.873
570.91	76.961
571.25	75.600
571.59	74.961
571.92	73.778
572.26	75.845
572.60	75.163
572.93	74.333
573.27	75.047
573.61	75.895
573.95	75.860
574.28	75.371
574.62	74.625
574.96	74.720
575.29	74.382
575.63	73.516
575.97	74.031
576.30	74.979
576.64	73.934
576.98	75.650
577.31	76.014
577.65	75.711
577.98	74.810
578.32	75.975
578.66	73.716
578.99	74.754
579.33	73.570
579.67	74.010
580.00	75.063
580.34	74.602
580.67	74.357
581.01	75.432
581.35	74.569
581.68	75.005
582.02	74.913
582.35	75.227
582.69	75.166
583.02	74.364
583.36	75.940
583.70	76.506
584.03	76.508
584.37	76.482
584.70	75.275
585.04	75.259
585.37	74.767
585.71	75.784
586.04	75.719
586.38	75.593
586.72	75.753
587.05	76.950
587.39	76.545
587.72	77.556
588.06	76.252
588.39	75.990
588.73	76.709
589.06	77.006
589.40	75.942
589.73	76.816
590.07	77.417
590.40	77.438
590.73	78.460
591.07	77.311
591.40	77.337
591.74	77.647
592.07	77.319
592.41	77.385
592.74	78.017
593.08	75.690
593.41	76.771
593.75	75.368
594.08	75.867
594.41	77.365
594.75	77.214
595.08	76.277
595.42	76.445
595.75	77.845
596.09	79.085
596.42	77.842
596.75	77.620
597.09	75.991
597.42	77.371
597.75	77.874
598.09	75.962
598.42	75.903
598.76	76.319
599.09	76.442
599.42	75.938
599.76	75.959
600.09	76.810
600.42	77.066
600.76	75.371
601.09	75.992
601.42	75.872
601.76	77.173
602.09	76.856
602.42	78.349
602.76	77.419
603.09	77.409
603.42	79.348
603.76	76.331
604.09	77.197
604.42	77.665
604.76	78.416
605.09	77.651
605.42	76.975
605.75	77.539
606.09	77.580
606.42	76.105
606.75	78.052
607.09	76.440
607.42	76.916
607.75	77.664
608.08	78.122
608.42	75.103
608.75	79.373
609.08	78.874
609.41	78.071
609.75	76.764
610.08	78.382
610.41	76.087
610.74	77.133
611.07	78.915
611.41	77.582
611.74	79.904
612.07	76.017
612.40	78.009
612.73	78.927
613.07	79.134
613.40	77.790
613.73	77.616
614.06	77.908
614.39	77.609
614.72	78.431
615.06	78.045
615.39	76.037
615.72	78.095
616.05	77.933
616.38	76.809
616.71	77.187
617.05	79.926
617.38	78.504
617.71	78.931
618.04	78.857
618.37	79.508
618.70	78.218
619.03	80.000
619.36	79.233
619.69	79.151
620.03	79.912
620.36	77.682
620.69	78.444
621.02	78.823
621.35	80.747
621.68	81.463
622.01	80.083
622.34	79.808
622.67	77.918
623.00	78.867
623.33	78.887
623.66	78.235
623.99	79.501
624.32	80.837
624.65	79.549
624.99	80.888
625.32	78.241
625.65	80.911
625.98	80.983
626.31	78.803
626.64	80.936
626.97	81.239
627.30	81.261
627.63	80.503
627.96	81.402
628.29	80.851
628.62	79.646
628.95	79.359
629.28	82.964
629.61	80.558
629.94	80.156
630.26	79.743
630.59	83.351
630.92	81.744
631.25	78.256
631.58	81.498
631.91	79.386
632.24	83.372
632.57	80.455
632.90	81.851
633.23	79.647
633.56	86.398
633.89	81.751
