SpectraSuite Data File
++++++++++++++++++++++++++++++++++++
Date: Fri May 15 17:31:01 PDT 2015
User: schluterlab
Dark Spectrum Present: Yes
Reference Spectrum Present: Yes
Number of Sampled Component Spectra: 1
Spectrometers: USB2E3373
Integration Time (usec): 3000 (USB2E3373)
Spectra Averaged: 3 (USB2E3373)
Boxcar Smoothing: 0 (USB2E3373)
Correct for Electrical Dark: No (USB2E3373)
Strobe/Lamp Enabled: No (USB2E3373)
Correct for Detector Non-linearity: No (USB2E3373)
Correct for Stray Light: No (USB2E3373)
Number of Pixels in Processed Spectrum: 2048
>>>>>Begin Processed Spectral Data<<<<<
178.53	0.000
178.91	0.000
179.29	75.000
179.67	-200.000
180.04	100.000
180.42	75.000
180.80	-100.000
181.18	266.667
181.56	150.000
181.94	350.000
182.31	-300.000
182.69	-160.000
183.07	-333.333
183.45	60.000
183.83	33.333
184.20	-45.455
184.58	-11.111
184.96	-150.000
185.34	33.333
185.72	0.000
186.09	100.000
186.47	700.000
186.85	216.667
187.23	22.222
187.61	-600.000
187.98	-166.667
188.36	11.111
188.74	-100.000
189.12	76.471
189.49	33.333
189.87	0.000
190.25	57.143
190.63	150.000
191.00	66.667
191.38	-21.053
191.76	250.000
192.14	-75.000
192.51	400.000
192.89	0.000
193.27	14.286
193.65	133.333
194.02	118.182
194.40	-50.000
194.78	-75.000
195.15	66.667
195.53	-62.500
195.91	300.000
196.29	-25.000
196.66	69.231
197.04	-114.286
197.42	22.222
197.79	33.333
198.17	-38.462
198.55	1300.000
198.92	200.000
199.30	300.000
199.68	80.000
200.05	33.333
200.43	0.000
200.81	300.000
201.18	66.667
201.56	1000.000
201.94	650.000
202.31	-266.667
202.69	-40.000
203.07	-75.000
203.44	900.000
203.82	0.000
204.19	57.143
204.57	-333.333
204.95	-62.500
205.32	50.000
205.70	85.714
206.08	0.000
206.45	77.778
206.83	64.286
207.20	14.286
207.58	-300.000
207.96	-66.667
208.33	-30.000
208.71	-25.000
209.08	-133.333
209.46	200.000
209.84	20.000
210.21	-600.000
210.59	-100.000
210.96	133.333
211.34	-225.000
211.71	26.667
212.09	-71.429
212.46	-900.000
212.84	0.000
213.22	130.000
213.59	200.000
213.97	84.615
214.34	45.455
214.72	0.000
215.09	475.000
215.47	-30.769
215.84	36.364
216.22	33.333
216.59	-12.500
216.97	50.000
217.34	100.000
217.72	-20.000
218.09	87.500
218.47	150.000
218.84	-300.000
219.22	-66.667
219.59	-140.000
219.97	166.667
220.34	-0.000
220.72	28.571
221.09	0.000
221.47	600.000
221.84	-350.000
222.22	-500.000
222.59	136.364
222.97	83.333
223.34	0.000
223.72	-7.143
224.09	23.810
224.46	28.571
224.84	433.333
225.21	10.000
225.59	86.667
225.96	-50.000
226.34	475.000
226.71	71.429
227.08	33.333
227.46	100.000
227.83	400.000
228.21	-88.889
228.58	9.091
228.95	62.500
229.33	10.000
229.70	37.500
230.08	-37.500
230.45	-57.143
230.82	100.000
231.20	13.333
231.57	107.143
231.95	71.429
232.32	-50.000
232.69	85.714
233.07	100.000
233.44	-100.000
233.81	-80.000
234.19	66.667
234.56	52.941
234.93	350.000
235.31	25.000
235.68	-60.000
236.05	0.000
236.43	10.000
236.80	52.941
237.17	18.750
237.55	-5.000
237.92	7.407
238.29	25.000
238.67	33.333
239.04	23.529
239.41	2.439
239.79	6.667
240.16	24.390
240.53	13.158
240.91	19.565
241.28	14.286
241.65	26.786
242.02	27.397
242.40	30.000
242.77	20.339
243.14	9.091
243.51	27.500
243.89	26.437
244.26	17.241
244.63	29.762
245.00	25.773
245.38	24.742
245.75	21.348
246.12	28.448
246.49	19.835
246.87	22.115
247.24	25.210
247.61	21.930
247.98	21.951
248.36	18.125
248.73	28.289
249.10	20.779
249.47	17.089
249.84	16.993
250.22	19.412
250.59	30.065
250.96	29.108
251.33	22.093
251.70	28.235
252.08	21.827
252.45	22.772
252.82	22.111
253.19	26.728
253.56	17.290
253.94	27.928
254.31	29.565
254.68	26.316
255.05	24.016
255.42	28.821
255.79	25.483
256.16	23.735
256.54	24.254
256.91	24.335
257.28	22.305
257.65	22.472
258.02	21.986
258.39	25.253
258.76	26.740
259.14	25.249
259.51	22.654
259.88	25.773
260.25	17.974
260.62	20.139
260.99	23.729
261.36	19.863
261.73	22.468
262.10	21.884
262.47	22.699
262.85	22.571
263.22	22.154
263.59	21.807
263.96	26.398
264.33	24.545
264.70	23.214
265.07	21.429
265.44	26.062
265.81	23.729
266.18	20.219
266.55	23.650
266.92	24.093
267.29	26.893
267.66	22.506
268.03	23.560
268.40	22.193
268.77	22.727
269.14	23.741
269.51	22.365
269.88	22.943
270.25	22.194
270.62	20.000
270.99	24.041
271.36	21.516
271.73	23.709
272.10	24.088
272.47	24.113
272.84	19.802
273.21	23.898
273.58	21.205
273.95	21.739
274.32	21.016
274.69	21.041
275.06	25.670
275.43	21.315
275.80	22.737
276.17	22.069
276.54	22.912
276.91	22.807
277.28	21.397
277.65	22.107
278.02	20.851
278.39	23.195
278.76	23.270
279.13	19.502
279.50	22.689
279.87	20.734
280.23	20.645
280.60	24.366
280.97	21.212
281.34	20.577
281.71	22.177
282.08	20.654
282.45	20.744
282.82	20.849
283.19	21.470
283.56	21.387
283.92	20.493
284.29	19.808
284.66	20.543
285.03	19.450
285.40	20.227
285.77	20.035
286.14	18.953
286.51	24.170
286.87	19.927
287.24	20.994
287.61	21.693
287.98	22.632
288.35	20.624
288.72	21.541
289.08	19.792
289.45	18.629
289.82	19.930
290.19	19.795
290.56	17.839
290.93	19.360
291.29	18.644
291.66	19.213
292.03	17.544
292.40	18.871
292.77	18.341
293.13	17.208
293.50	17.451
293.87	17.557
294.24	16.692
294.60	16.990
294.97	17.560
295.34	14.417
295.71	16.990
296.08	17.788
296.44	14.225
296.81	15.556
297.18	16.957
297.55	17.615
297.91	17.260
298.28	16.623
298.65	16.554
299.02	16.173
299.38	15.185
299.75	15.172
300.12	15.445
300.48	14.493
300.85	15.209
301.22	15.974
301.59	14.079
301.95	15.443
302.32	16.213
302.69	15.299
303.05	15.842
303.42	13.325
303.79	14.369
304.15	15.412
304.52	14.269
304.89	14.269
305.25	14.286
305.62	14.819
305.99	13.918
306.35	15.260
306.72	14.398
307.09	14.367
307.45	13.548
307.82	14.120
308.19	14.866
308.55	13.959
308.92	16.013
309.29	12.514
309.65	14.747
310.02	15.292
310.38	13.941
310.75	14.098
311.12	13.994
311.48	13.786
311.85	13.613
312.22	14.557
312.58	13.482
312.95	13.127
313.31	13.251
313.68	13.927
314.05	13.469
314.41	14.639
314.78	14.845
315.14	15.416
315.51	14.182
315.87	13.832
316.24	15.470
316.61	16.240
316.97	15.972
317.34	15.820
317.70	14.532
318.07	16.154
318.43	14.902
318.80	15.152
319.16	16.895
319.53	18.708
319.89	17.126
320.26	18.826
320.62	18.756
320.99	17.641
321.35	18.088
321.72	19.938
322.08	18.731
322.45	19.188
322.81	19.155
323.18	20.118
323.54	20.174
323.91	22.103
324.27	22.266
324.64	24.157
325.00	23.084
325.37	25.436
325.73	24.388
326.10	24.251
326.46	25.381
326.83	25.634
327.19	26.417
327.56	28.323
327.92	28.961
328.29	28.214
328.65	29.623
329.01	29.779
329.38	30.876
329.74	31.539
330.11	31.233
330.47	31.911
330.84	32.500
331.20	34.316
331.56	33.056
331.93	35.251
332.29	36.114
332.66	35.566
333.02	36.989
333.38	37.672
333.75	39.377
334.11	38.317
334.48	38.985
334.84	39.927
335.20	40.165
335.57	40.254
335.93	40.470
336.29	42.634
336.66	41.871
337.02	40.892
337.38	40.833
337.75	42.455
338.11	42.741
338.47	44.161
338.84	44.547
339.20	43.419
339.56	44.862
339.93	44.494
340.29	44.862
340.65	44.086
341.02	43.706
341.38	44.336
341.74	44.965
342.11	43.588
342.47	44.751
342.83	45.069
343.20	43.902
343.56	44.696
343.92	45.793
344.28	46.285
344.65	46.287
345.01	45.462
345.37	44.491
345.73	45.523
346.10	46.160
346.46	44.659
346.82	44.517
347.19	44.306
347.55	46.366
347.91	45.631
348.27	45.756
348.63	46.167
349.00	45.693
349.36	46.301
349.72	44.693
350.08	46.639
350.45	45.411
350.81	45.930
351.17	45.195
351.53	46.694
351.89	44.591
352.26	44.880
352.62	45.323
352.98	46.185
353.34	45.813
353.70	46.845
354.07	45.323
354.43	45.717
354.79	45.995
355.15	46.032
355.51	46.044
355.87	45.955
356.24	45.024
356.60	46.483
356.96	47.222
357.32	46.406
357.68	45.739
358.04	46.607
358.40	46.945
358.77	46.332
359.13	47.558
359.49	45.994
359.85	46.178
360.21	46.651
360.57	46.213
360.93	46.369
361.29	46.979
361.66	47.022
362.02	48.030
362.38	47.982
362.74	47.313
363.10	49.210
363.46	48.036
363.82	47.934
364.18	45.683
364.54	47.721
364.90	47.957
365.26	48.908
365.62	49.416
365.98	47.801
366.35	49.454
366.71	48.780
367.07	49.347
367.43	49.748
367.79	50.035
368.15	48.959
368.51	50.546
368.87	50.036
369.23	48.881
369.59	49.344
369.95	50.147
370.31	49.133
370.67	49.776
371.03	49.291
371.39	50.182
371.75	48.938
372.11	49.073
372.47	50.888
372.83	51.029
373.19	51.355
373.55	50.758
373.91	49.964
374.27	51.240
374.63	51.328
374.99	51.064
375.35	51.741
375.71	51.748
376.07	51.264
376.42	51.973
376.78	52.349
377.14	51.320
377.50	51.594
377.86	51.740
378.22	51.563
378.58	51.346
378.94	51.166
379.30	52.464
379.66	52.602
380.02	52.299
380.38	52.830
380.74	51.586
381.09	53.006
381.45	53.823
381.81	51.635
382.17	52.602
382.53	53.279
382.89	54.049
383.25	54.076
383.61	53.841
383.97	54.159
384.32	52.971
384.68	54.427
385.04	53.615
385.40	54.014
385.76	54.906
386.12	55.886
386.48	55.364
386.83	54.027
387.19	54.518
387.55	54.956
387.91	55.196
388.27	55.067
388.62	55.129
388.98	54.389
389.34	55.340
389.70	55.811
390.06	54.059
390.42	54.793
390.77	56.246
391.13	54.035
391.49	56.274
391.85	56.660
392.20	54.802
392.56	56.198
392.92	56.430
393.28	54.422
393.64	55.255
393.99	57.241
394.35	55.281
394.71	55.875
395.07	54.494
395.42	55.677
395.78	56.091
396.14	55.864
396.50	55.422
396.85	55.248
397.21	54.699
397.57	54.984
397.92	54.284
398.28	56.552
398.64	54.458
399.00	55.361
399.35	54.458
399.71	54.624
400.07	56.106
400.42	54.835
400.78	55.236
401.14	55.354
401.49	55.867
401.85	54.174
402.21	53.675
402.57	55.562
402.92	54.956
403.28	55.514
403.63	55.485
403.99	54.464
404.35	55.903
404.70	53.929
405.06	53.702
405.42	54.257
405.77	54.038
406.13	54.598
406.49	54.885
406.84	55.318
407.20	54.485
407.55	54.089
407.91	54.612
408.27	54.238
408.62	54.154
408.98	53.851
409.34	53.841
409.69	53.682
410.05	53.325
410.40	54.877
410.76	55.368
411.11	54.375
411.47	54.175
411.83	53.484
412.18	54.505
412.54	53.184
412.89	54.126
413.25	54.813
413.60	53.416
413.96	53.558
414.31	53.171
414.67	54.971
415.03	54.194
415.38	54.178
415.74	54.202
416.09	54.605
416.45	54.018
416.80	53.470
417.16	54.213
417.51	55.230
417.87	56.454
418.22	55.311
418.58	54.716
418.93	54.734
419.29	52.689
419.64	54.504
420.00	56.108
420.35	53.552
420.71	55.164
421.06	56.292
421.42	55.469
421.77	55.723
422.12	54.938
422.48	55.225
422.83	55.278
423.19	55.756
423.54	56.379
423.90	56.125
424.25	55.224
424.61	56.548
424.96	56.446
425.31	56.326
425.67	56.279
426.02	57.833
426.38	57.733
426.73	57.627
427.09	58.734
427.44	57.588
427.79	57.631
428.15	57.100
428.50	58.571
428.85	57.494
429.21	57.725
429.56	58.814
429.92	58.038
430.27	57.694
430.62	57.554
430.98	58.121
431.33	58.360
431.68	57.457
432.04	58.748
432.39	58.357
432.74	57.547
433.10	59.425
433.45	59.020
433.80	58.967
434.16	59.169
434.51	59.355
434.86	59.698
435.22	59.787
435.57	60.761
435.92	58.623
436.28	59.094
436.63	60.468
436.98	59.618
437.34	59.105
437.69	60.167
438.04	59.715
438.39	58.888
438.75	61.324
439.10	60.781
439.45	60.195
439.81	60.795
440.16	60.689
440.51	60.716
440.86	62.598
441.22	60.181
441.57	61.313
441.92	62.644
442.27	62.749
442.63	61.456
442.98	62.033
443.33	62.215
443.68	62.016
444.03	61.848
444.39	61.584
444.74	62.207
445.09	62.973
445.44	63.362
445.79	62.506
446.15	60.848
446.50	60.788
446.85	62.859
447.20	62.826
447.55	62.500
447.91	61.591
448.26	61.639
448.61	61.773
448.96	62.937
449.31	62.023
449.66	62.253
450.02	62.750
450.37	62.656
450.72	63.001
451.07	63.101
451.42	61.860
451.77	62.749
452.12	62.261
452.47	62.910
452.83	62.014
453.18	61.354
453.53	63.401
453.88	63.145
454.23	62.999
454.58	63.035
454.93	63.466
455.28	61.587
455.63	62.616
455.98	63.680
456.34	62.324
456.69	63.914
457.04	64.398
457.39	62.697
457.74	64.268
458.09	62.743
458.44	63.312
458.79	62.801
459.14	63.787
459.49	64.119
459.84	63.621
460.19	64.138
460.54	63.447
460.89	63.068
461.24	63.540
461.59	62.886
461.94	62.893
462.29	63.088
462.64	64.053
462.99	64.387
463.34	63.630
463.69	63.578
464.04	63.983
464.39	63.311
464.74	63.865
465.09	64.379
465.44	64.397
465.79	63.209
466.14	65.906
466.49	63.772
466.84	63.236
467.19	64.393
467.54	63.346
467.89	65.003
468.24	63.869
468.59	64.889
468.94	63.302
469.29	62.557
469.64	63.636
469.99	65.102
470.34	63.481
470.68	65.026
471.03	64.685
471.38	64.194
471.73	64.706
472.08	63.772
472.43	63.020
472.78	64.496
473.13	64.490
473.48	64.691
473.83	62.827
474.17	65.609
474.52	65.412
474.87	64.788
475.22	64.857
475.57	64.766
475.92	64.235
476.27	63.912
476.61	66.609
476.96	64.250
477.31	63.926
477.66	62.528
478.01	64.683
478.36	64.815
478.70	65.307
479.05	65.879
479.40	65.183
479.75	63.191
480.10	64.055
480.45	64.700
480.79	65.609
481.14	66.598
481.49	65.419
481.84	65.492
482.19	66.090
482.53	65.564
482.88	63.198
483.23	64.299
483.58	64.623
483.92	64.956
484.27	63.674
484.62	66.114
484.97	63.765
485.31	64.632
485.66	67.356
486.01	68.101
486.36	67.234
486.70	66.847
487.05	66.406
487.40	66.339
487.75	65.577
488.09	64.679
488.44	64.787
488.79	64.849
489.13	64.663
489.48	64.173
489.83	64.574
490.17	64.225
490.52	64.249
490.87	63.026
491.22	65.950
491.56	64.326
491.91	63.384
492.26	65.192
492.60	63.772
492.95	65.962
493.30	63.947
493.64	65.226
493.99	65.072
494.34	65.194
494.68	63.810
495.03	64.380
495.37	64.377
495.72	64.967
496.07	64.976
496.41	65.189
496.76	65.223
497.11	64.695
497.45	64.964
497.80	66.700
498.14	64.083
498.49	63.840
498.84	65.070
499.18	65.964
499.53	65.228
499.87	64.056
500.22	65.529
500.56	65.305
500.91	64.558
501.26	64.360
501.60	65.667
501.95	64.726
502.29	65.956
502.64	66.988
502.98	65.910
503.33	65.274
503.67	64.578
504.02	65.347
504.36	65.809
504.71	64.697
505.06	63.915
505.40	64.264
505.75	66.134
506.09	64.876
506.44	65.708
506.78	65.459
507.13	64.995
507.47	63.342
507.82	64.797
508.16	64.554
508.51	65.163
508.85	65.725
509.19	64.077
509.54	65.416
509.88	65.102
510.23	65.680
510.57	65.366
510.92	64.232
511.26	63.557
511.61	65.567
511.95	65.041
512.30	64.745
512.64	64.663
512.98	65.581
513.33	64.801
513.67	64.582
514.02	64.645
514.36	65.543
514.70	65.093
515.05	66.451
515.39	64.699
515.74	65.150
516.08	65.152
516.42	66.313
516.77	65.886
517.11	66.172
517.46	64.871
517.80	63.528
518.14	64.666
518.49	63.281
518.83	65.674
519.17	63.190
519.52	64.180
519.86	64.226
520.20	63.791
520.55	65.166
520.89	65.558
521.23	63.965
521.58	63.785
521.92	64.615
522.26	64.541
522.61	64.481
522.95	65.762
523.29	64.168
523.64	65.565
523.98	64.679
524.32	63.789
524.66	64.725
525.01	65.390
525.35	64.874
525.69	64.377
526.04	65.344
526.38	65.759
526.72	62.982
527.06	62.257
527.41	64.446
527.75	65.550
528.09	65.249
528.43	66.442
528.78	65.281
529.12	64.129
529.46	64.587
529.80	64.345
530.15	65.479
530.49	64.916
530.83	65.800
531.17	64.540
531.51	65.732
531.86	65.466
532.20	64.509
532.54	64.602
532.88	64.476
533.22	65.121
533.57	65.203
533.91	65.992
534.25	66.406
534.59	65.298
534.93	65.009
535.27	64.086
535.62	64.420
535.96	67.058
536.30	65.172
536.64	65.059
536.98	64.739
537.32	66.572
537.66	64.727
538.01	65.524
538.35	67.060
538.69	66.378
539.03	63.841
539.37	65.410
539.71	66.190
540.05	64.902
540.39	65.720
540.73	64.714
541.07	65.262
541.42	66.734
541.76	67.378
542.10	65.520
542.44	66.366
542.78	64.625
543.12	65.385
543.46	65.577
543.80	66.343
544.14	63.618
544.48	65.157
544.82	65.687
545.16	67.281
545.50	64.887
545.84	66.997
546.18	66.241
546.52	65.321
546.86	66.068
547.20	65.665
547.54	64.028
547.88	66.236
548.22	65.023
548.56	67.018
548.90	67.588
549.24	64.118
549.58	65.656
549.92	64.403
550.26	64.322
550.60	65.056
550.94	65.945
551.28	64.915
551.62	65.846
551.96	65.789
552.30	65.643
552.64	66.432
552.98	64.557
553.32	65.264
553.66	65.457
554.00	66.642
554.34	64.845
554.68	64.086
555.02	65.327
555.36	66.193
555.69	64.689
556.03	65.810
556.37	65.053
556.71	65.632
557.05	66.294
557.39	64.535
557.73	63.418
558.07	66.290
558.41	66.539
558.75	65.394
559.08	65.957
559.42	65.079
559.76	65.813
560.10	64.679
560.44	65.972
560.78	65.734
561.12	67.207
561.45	66.198
561.79	66.036
562.13	66.998
562.47	66.331
562.81	65.778
563.15	64.951
563.48	67.044
563.82	66.438
564.16	68.315
564.50	64.932
564.84	65.930
565.17	66.667
565.51	67.691
565.85	68.381
566.19	68.037
566.52	67.091
566.86	68.059
567.20	67.123
567.54	67.092
567.88	70.885
568.21	70.136
568.55	69.620
568.89	69.918
569.23	71.786
569.56	70.841
569.90	70.605
570.24	70.785
570.57	70.727
570.91	71.976
571.25	70.503
571.59	70.290
571.92	69.126
572.26	70.169
572.60	69.798
572.93	68.466
573.27	68.370
573.61	70.495
573.95	70.508
574.28	70.339
574.62	69.591
574.96	69.534
575.29	69.712
575.63	68.230
575.97	69.043
576.30	69.244
576.64	68.371
576.98	70.888
577.31	70.632
577.65	71.032
577.98	71.323
578.32	70.886
578.66	69.504
578.99	69.537
579.33	69.448
579.67	68.458
580.00	69.696
580.34	70.647
580.67	69.238
581.01	69.524
581.35	70.284
581.68	71.049
582.02	71.866
582.35	71.421
582.69	71.309
583.02	70.305
583.36	70.570
583.70	70.275
584.03	69.947
584.37	70.920
584.70	70.522
585.04	69.171
585.37	69.656
585.71	70.649
586.04	70.146
586.38	70.339
586.72	70.875
587.05	71.577
587.39	71.764
587.72	71.761
588.06	70.883
588.39	71.062
588.73	70.940
589.06	71.298
589.40	69.305
589.73	70.208
590.07	71.677
590.40	69.776
590.73	71.499
591.07	68.957
591.40	69.991
591.74	69.276
592.07	69.388
592.41	70.716
592.74	70.370
593.08	70.276
593.41	71.071
593.75	70.429
594.08	69.585
594.41	69.651
594.75	70.076
595.08	69.996
595.42	70.409
595.75	71.085
596.09	70.563
596.42	70.732
596.75	69.805
597.09	69.294
597.42	69.828
597.75	69.721
598.09	68.990
598.42	68.998
598.76	70.013
599.09	70.152
599.42	69.989
599.76	69.526
600.09	69.495
600.42	69.750
600.76	69.056
601.09	69.198
601.42	69.448
601.76	69.948
602.09	69.719
602.42	70.388
602.76	69.100
603.09	71.096
603.42	71.196
603.76	69.637
604.09	69.380
604.42	70.093
604.76	70.405
605.09	70.384
605.42	69.661
605.75	70.359
606.09	69.936
606.42	69.475
606.75	69.481
607.09	67.692
607.42	70.004
607.75	70.071
608.08	68.688
608.42	68.159
608.75	70.072
609.08	69.158
609.41	69.492
609.75	68.246
610.08	69.496
610.41	68.116
610.74	68.064
611.07	70.801
611.41	70.680
611.74	70.203
612.07	67.934
612.40	68.435
612.73	69.605
613.07	68.054
613.40	69.475
613.73	69.782
614.06	69.950
614.39	68.133
614.72	68.235
615.06	68.380
615.39	68.341
615.72	66.523
616.05	68.994
616.38	67.692
616.71	68.257
617.05	68.684
617.38	68.510
617.71	68.365
618.04	69.778
618.37	68.663
618.70	69.967
619.03	68.125
619.36	67.873
619.69	67.779
620.03	68.152
620.36	68.670
620.69	67.951
621.02	67.355
621.35	65.975
621.68	67.772
622.01	67.000
622.34	67.119
622.67	67.508
623.00	66.386
623.33	67.912
623.66	68.287
623.99	67.171
624.32	69.278
624.65	66.767
624.99	69.225
625.32	66.793
625.65	68.185
625.98	68.654
626.31	67.249
626.64	69.237
626.97	66.318
627.30	68.827
627.63	66.031
627.96	68.194
628.29	66.142
628.62	67.060
628.95	64.729
629.28	67.540
629.61	66.002
629.94	66.764
630.26	65.514
630.59	68.991
630.92	65.333
631.25	65.436
631.58	65.308
631.91	67.215
632.24	66.743
632.57	65.114
632.90	64.531
633.23	65.176
633.56	66.121
633.89	64.365
634.22	67.901
634.55	66.455
