SpectraSuite Data File
++++++++++++++++++++++++++++++++++++
Date: Fri May 15 17:25:31 PDT 2015
User: schluterlab
Dark Spectrum Present: Yes
Reference Spectrum Present: Yes
Number of Sampled Component Spectra: 1
Spectrometers: USB2E3373
Integration Time (usec): 3000 (USB2E3373)
Spectra Averaged: 3 (USB2E3373)
Boxcar Smoothing: 0 (USB2E3373)
Correct for Electrical Dark: No (USB2E3373)
Strobe/Lamp Enabled: No (USB2E3373)
Correct for Detector Non-linearity: No (USB2E3373)
Correct for Stray Light: No (USB2E3373)
Number of Pixels in Processed Spectrum: 2048
>>>>>Begin Processed Spectral Data<<<<<
178.53	0.000
178.91	0.000
179.29	100.000
179.67	150.000
180.04	-0.000
180.42	25.000
180.80	-800.000
181.18	333.333
181.56	-50.000
181.94	250.000
182.31	-1000.000
182.69	40.000
183.07	0.000
183.45	20.000
183.83	133.333
184.20	27.273
184.58	188.889
184.96	-100.000
185.34	-100.000
185.72	-100.000
186.09	100.000
186.47	-800.000
186.85	16.667
187.23	66.667
187.61	-200.000
187.98	-100.000
188.36	100.000
188.74	-133.333
189.12	76.471
189.49	44.444
189.87	0.000
190.25	78.571
190.63	-150.000
191.00	33.333
191.38	15.789
191.76	300.000
192.14	-50.000
192.51	150.000
192.89	-133.333
193.27	-42.857
193.65	-116.667
194.02	9.091
194.40	90.000
194.78	12.500
195.15	-50.000
195.53	25.000
195.91	200.000
196.29	-175.000
196.66	161.538
197.04	-28.571
197.42	-144.444
197.79	-366.667
198.17	-46.154
198.55	500.000
198.92	-100.000
199.30	500.000
199.68	-100.000
200.05	-66.667
200.43	0.000
200.81	66.667
201.18	200.000
201.56	600.000
201.94	100.000
202.31	-33.333
202.69	-200.000
203.07	125.000
203.44	900.000
203.82	0.000
204.19	21.429
204.57	-466.667
204.95	112.500
205.32	40.000
205.70	157.143
206.08	25.000
206.45	122.222
206.83	92.857
207.20	-57.143
207.58	200.000
207.96	-33.333
208.33	-70.000
208.71	-100.000
209.08	-150.000
209.46	-300.000
209.84	0.000
210.21	-800.000
210.59	85.714
210.96	116.667
211.34	75.000
211.71	60.000
212.09	14.286
212.46	-1600.000
212.84	0.000
213.22	90.000
213.59	300.000
213.97	23.077
214.34	-45.455
214.72	-33.333
215.09	325.000
215.47	-15.385
215.84	27.273
216.22	166.667
216.59	0.000
216.97	-100.000
217.34	150.000
217.72	-20.000
218.09	-25.000
218.47	75.000
218.84	200.000
219.22	-33.333
219.59	20.000
219.97	-33.333
220.34	300.000
220.72	14.286
221.09	-125.000
221.47	250.000
221.84	-150.000
222.22	-650.000
222.59	109.091
222.97	50.000
223.34	-66.667
223.72	14.286
224.09	33.333
224.46	53.571
224.84	66.667
225.21	40.000
225.59	113.333
225.96	-150.000
226.34	200.000
226.71	0.000
227.08	166.667
227.46	225.000
227.83	0.000
228.21	55.556
228.58	27.273
228.95	12.500
229.33	20.000
229.70	-18.750
230.08	-12.500
230.45	42.857
230.82	100.000
231.20	20.000
231.57	78.571
231.95	200.000
232.32	60.000
232.69	35.714
233.07	-33.333
233.44	-20.000
233.81	0.000
234.19	-11.111
234.56	-29.412
234.93	200.000
235.31	125.000
235.68	-180.000
236.05	7.692
236.43	-35.000
236.80	29.412
237.17	68.750
237.55	25.000
237.92	11.111
238.29	38.889
238.67	50.000
239.04	35.294
239.41	4.878
239.79	6.667
240.16	46.341
240.53	23.684
240.91	19.565
241.28	26.984
241.65	10.714
242.02	34.247
242.40	38.333
242.77	22.034
243.14	18.182
243.51	23.750
243.89	34.483
244.26	28.736
244.63	28.571
245.00	18.557
245.38	24.742
245.75	19.101
246.12	25.000
246.49	33.058
246.87	40.385
247.24	18.487
247.61	35.965
247.98	35.772
248.36	25.625
248.73	30.921
249.10	24.026
249.47	26.582
249.84	24.837
250.22	31.765
250.59	24.183
250.96	31.925
251.33	27.326
251.70	29.412
252.08	29.442
252.45	20.297
252.82	34.673
253.19	32.719
253.56	21.028
253.94	30.631
254.31	26.522
254.68	32.018
255.05	24.409
255.42	29.258
255.79	27.027
256.16	29.961
256.54	29.478
256.91	30.798
257.28	28.253
257.65	27.341
258.02	25.177
258.39	27.946
258.76	28.938
259.14	31.561
259.51	28.803
259.88	29.553
260.25	24.837
260.62	31.944
260.99	27.119
261.36	25.685
261.73	28.797
262.10	27.660
262.47	27.914
262.85	26.959
263.22	28.923
263.59	28.972
263.96	29.193
264.33	30.606
264.70	29.464
265.07	28.571
265.44	28.612
265.81	30.791
266.18	24.317
266.55	30.077
266.92	27.979
267.29	28.198
267.66	26.854
268.03	27.487
268.40	28.721
268.77	31.016
269.14	26.859
269.51	29.306
269.88	25.436
270.25	30.357
270.62	26.829
270.99	24.808
271.36	25.428
271.73	28.404
272.10	26.521
272.47	27.423
272.84	27.723
273.21	29.002
273.58	29.157
273.95	26.773
274.32	26.097
274.69	23.982
275.06	27.902
275.43	28.118
275.80	27.373
276.17	27.816
276.54	24.625
276.91	26.535
277.28	27.948
277.65	28.099
278.02	29.362
278.39	27.133
278.76	27.254
279.13	25.934
279.50	26.050
279.87	27.862
280.23	27.097
280.60	27.290
280.97	28.081
281.34	24.615
281.71	27.310
282.08	24.744
282.45	24.070
282.82	25.483
283.19	27.853
283.56	25.241
283.92	24.858
284.29	26.154
284.66	24.419
285.03	26.130
285.40	23.819
285.77	21.793
286.14	25.451
286.51	26.384
286.87	22.303
287.24	25.967
287.61	23.633
287.98	27.018
288.35	24.263
288.72	25.219
289.08	24.653
289.45	25.483
289.82	25.524
290.19	23.038
290.56	24.700
290.93	22.391
291.29	20.955
291.66	21.732
292.03	21.691
292.40	22.903
292.77	22.648
293.13	21.591
293.50	20.182
293.87	22.137
294.24	21.020
294.60	20.566
294.97	20.089
295.34	21.779
295.71	21.461
296.08	20.030
296.44	20.341
296.81	20.278
297.18	20.290
297.55	20.325
297.91	19.315
298.28	19.657
298.65	18.860
299.02	18.733
299.38	18.331
299.75	17.793
300.12	18.848
300.48	17.918
300.85	17.997
301.22	18.182
301.59	18.553
301.95	19.873
302.32	19.715
302.69	18.657
303.05	18.441
303.42	18.929
303.79	18.925
304.15	17.563
304.52	17.122
304.89	16.140
305.25	17.433
305.62	15.519
305.99	17.310
306.35	16.879
306.72	17.548
307.09	17.788
307.45	19.173
307.82	18.287
308.19	18.351
308.55	17.230
308.92	19.172
309.29	16.983
309.65	17.330
310.02	17.602
310.38	17.563
310.75	17.377
311.12	17.330
311.48	16.013
311.85	16.545
312.22	16.139
312.58	17.197
312.95	15.368
313.31	16.253
313.68	15.812
314.05	16.224
314.41	17.113
314.78	16.186
315.14	17.266
315.51	17.391
315.87	16.598
316.24	18.099
316.61	17.815
316.97	17.857
317.34	18.164
317.70	17.304
318.07	16.731
318.43	17.843
318.80	16.667
319.16	18.359
319.53	19.563
319.89	18.504
320.26	17.611
320.62	19.559
320.99	18.580
321.35	19.322
321.72	20.872
322.08	20.242
322.45	21.624
322.81	22.004
323.18	21.295
323.54	22.008
323.91	22.298
324.27	24.219
324.64	24.064
325.00	25.547
325.37	26.722
325.73	26.383
326.10	28.792
326.46	28.430
326.83	30.271
327.19	29.207
327.56	31.798
327.92	31.866
328.29	32.232
328.65	33.868
329.01	33.088
329.38	35.300
329.74	36.733
330.11	35.403
330.47	38.219
330.84	38.750
331.20	41.350
331.56	39.907
331.93	41.918
332.29	41.522
332.66	41.538
333.02	43.959
333.38	43.080
333.75	44.872
334.11	44.047
334.48	45.694
334.84	46.612
335.20	47.301
335.57	47.779
335.93	47.967
336.29	48.158
336.66	48.865
337.02	48.978
337.38	49.722
337.75	50.000
338.11	51.217
338.47	52.372
338.84	51.848
339.20	51.097
339.56	51.835
339.93	51.746
340.29	52.202
340.65	51.523
341.02	52.305
341.38	52.035
341.74	50.883
342.11	50.433
342.47	52.669
342.83	52.682
343.20	51.045
343.56	51.913
343.92	53.233
344.28	55.167
344.65	53.282
345.01	53.933
345.37	53.238
345.73	52.636
346.10	55.651
346.46	54.500
346.82	52.128
347.19	54.032
347.55	53.885
347.91	54.126
348.27	53.274
348.63	55.537
349.00	54.225
349.36	54.115
349.72	56.882
350.08	56.148
350.45	55.866
350.81	53.904
351.17	54.642
351.53	55.184
351.89	54.253
352.26	55.440
352.62	55.403
352.98	54.618
353.34	54.992
353.70	55.178
354.07	54.113
354.43	54.764
354.79	54.913
355.15	56.270
355.51	54.747
355.87	55.906
356.24	55.302
356.60	55.780
356.96	57.222
357.32	56.230
357.68	56.294
358.04	55.493
358.40	55.386
358.77	57.576
359.13	56.045
359.49	55.701
359.85	56.630
360.21	58.054
360.57	56.312
360.93	56.127
361.29	55.514
361.66	57.288
362.02	56.667
362.38	58.949
362.74	58.441
363.10	57.412
363.46	58.784
363.82	58.527
364.18	57.786
364.54	57.500
364.90	58.136
365.26	56.914
365.62	60.292
365.98	59.311
366.35	60.379
366.71	60.310
367.07	60.377
367.43	58.807
367.79	58.799
368.15	57.574
368.51	60.670
368.87	59.512
369.23	59.278
369.59	61.443
369.95	60.630
370.31	62.066
370.67	61.194
371.03	61.090
371.39	59.008
371.75	61.245
372.11	60.699
372.47	62.056
372.83	61.391
373.19	61.127
373.55	60.289
373.91	59.827
374.27	63.572
374.63	61.953
374.99	60.851
375.35	62.604
375.71	62.797
376.07	62.851
376.42	63.741
376.78	63.221
377.14	63.575
377.50	62.351
377.86	63.253
378.22	62.731
378.58	63.077
378.94	62.949
379.30	62.944
379.66	65.517
380.02	64.684
380.38	64.090
380.74	64.213
381.09	65.828
381.45	65.627
381.81	65.083
382.17	65.102
382.53	64.897
382.89	65.913
383.25	65.837
383.61	65.488
383.97	66.667
384.32	65.604
384.68	66.749
385.04	65.380
385.40	65.028
385.76	68.553
386.12	67.206
386.48	66.539
386.83	66.709
387.19	66.300
387.55	68.068
387.91	67.726
388.27	67.155
388.62	67.149
388.98	66.667
389.34	68.270
389.70	68.117
390.06	66.709
390.42	68.329
390.77	67.430
391.13	67.276
391.49	67.982
391.85	69.591
392.20	66.981
392.56	68.214
392.92	67.704
393.28	67.807
393.64	67.688
393.99	70.157
394.35	68.564
394.71	70.370
395.07	67.568
395.42	68.427
395.78	69.121
396.14	68.789
396.50	69.119
396.85	68.577
397.21	69.298
397.57	68.715
397.92	68.185
398.28	70.000
398.64	67.651
399.00	68.172
399.35	68.284
399.71	67.318
400.07	68.984
400.42	67.442
400.78	67.851
401.14	67.211
401.49	68.553
401.85	68.129
402.21	67.711
402.57	68.500
402.92	68.632
403.28	68.860
403.63	68.979
403.99	67.793
404.35	69.519
404.70	66.548
405.06	66.921
405.42	66.252
405.77	66.938
406.13	67.753
406.49	66.489
406.84	68.093
407.20	67.911
407.55	67.418
407.91	67.513
408.27	66.730
408.62	67.815
408.98	67.283
409.34	67.968
409.69	66.860
410.05	66.502
410.40	66.728
410.76	67.310
411.11	68.062
411.47	66.930
411.83	65.913
412.18	68.983
412.54	68.414
412.89	65.764
413.25	65.884
413.60	67.391
413.96	63.742
414.31	66.098
414.67	66.581
415.03	66.378
415.38	65.992
415.74	66.515
416.09	67.015
416.45	67.319
416.80	66.755
417.16	67.749
417.51	66.889
417.87	67.471
418.22	68.847
418.58	67.559
418.93	68.339
419.29	66.325
419.64	68.244
420.00	69.270
420.35	67.104
420.71	68.044
421.06	68.324
421.42	69.050
421.77	69.306
422.12	68.445
422.48	69.843
422.83	69.374
423.19	67.777
423.54	69.195
423.90	69.552
424.25	69.518
424.61	70.196
424.96	69.280
425.31	70.422
425.67	69.894
426.02	71.496
426.38	71.008
426.73	70.460
427.09	71.962
427.44	71.000
427.79	71.302
428.15	70.692
428.50	71.775
428.85	69.472
429.21	71.364
429.56	72.022
429.92	69.954
430.27	70.627
430.62	70.727
430.98	70.435
431.33	71.293
431.68	71.010
432.04	71.045
432.39	70.508
432.74	71.016
433.10	72.414
433.45	72.700
433.80	72.200
434.16	71.524
434.51	72.634
434.86	73.461
435.22	72.462
435.57	73.487
435.92	72.934
436.28	71.497
436.63	72.618
436.98	71.669
437.34	72.837
437.69	75.313
438.04	73.903
438.39	72.327
438.75	74.681
439.10	73.231
439.45	73.585
439.81	74.190
440.16	75.534
440.51	74.567
440.86	75.952
441.22	73.133
441.57	76.435
441.92	76.443
442.27	77.605
442.63	76.713
442.98	74.325
443.33	74.847
443.68	76.180
444.03	75.211
444.39	75.357
444.74	77.035
445.09	76.615
445.44	76.011
445.79	78.030
446.15	73.733
446.50	76.206
446.85	77.311
447.20	75.704
447.55	75.781
447.91	76.819
448.26	76.836
448.61	77.029
448.96	76.477
449.31	76.532
449.66	74.855
450.02	75.414
450.37	76.882
450.72	76.346
451.07	76.203
451.42	75.468
451.77	75.588
452.12	75.778
452.47	75.918
452.83	76.678
453.18	76.281
453.53	75.917
453.88	77.110
454.23	76.030
454.58	75.882
454.93	76.482
455.28	75.492
455.63	76.131
455.98	76.609
456.34	76.564
456.69	76.366
457.04	77.379
457.39	77.035
457.74	76.602
458.09	75.927
458.44	76.770
458.79	77.087
459.14	77.746
459.49	77.910
459.84	77.665
460.19	76.274
460.54	77.139
460.89	76.932
461.24	77.329
461.59	77.494
461.94	77.296
462.29	76.176
462.64	76.944
462.99	76.439
463.34	76.773
463.69	75.547
464.04	77.119
464.39	76.107
464.74	76.258
465.09	77.230
465.44	77.900
465.79	76.474
466.14	77.252
466.49	76.941
466.84	76.443
467.19	77.159
467.54	75.287
467.89	76.500
468.24	75.182
468.59	75.429
468.94	74.984
469.29	76.066
469.64	75.393
469.99	77.295
470.34	75.768
470.68	76.585
471.03	74.452
471.38	76.248
471.73	74.440
472.08	74.423
472.43	74.899
472.78	75.874
473.13	77.211
473.48	75.114
473.83	74.159
474.17	75.842
474.52	76.133
474.87	76.485
475.22	75.473
475.57	75.833
475.92	75.535
476.27	75.553
476.61	75.231
476.96	74.066
477.31	75.554
477.66	73.708
478.01	75.407
478.36	74.837
478.70	75.639
479.05	76.374
479.40	75.782
479.75	74.713
480.10	75.627
480.45	76.300
480.79	76.636
481.14	78.176
481.49	74.236
481.84	76.255
482.19	76.473
482.53	76.595
482.88	74.224
483.23	74.616
483.58	74.953
483.92	74.347
484.27	74.339
484.62	75.034
484.97	75.207
485.31	75.939
485.66	77.270
486.01	79.749
486.36	80.404
486.70	78.559
487.05	78.289
487.40	76.706
487.75	75.606
488.09	74.722
488.44	74.587
488.79	74.598
489.13	73.958
489.48	74.348
489.83	74.081
490.17	73.843
490.52	74.365
490.87	72.744
491.22	74.403
491.56	73.197
491.91	73.184
492.26	74.429
492.60	73.896
492.95	74.717
493.30	72.594
493.64	74.656
493.99	74.879
494.34	73.835
494.68	74.381
495.03	73.041
495.37	73.651
495.72	73.700
496.07	74.244
496.41	74.198
496.76	75.035
497.11	72.986
497.45	73.986
497.80	73.966
498.14	72.727
498.49	73.641
498.84	73.054
499.18	74.197
499.53	73.958
499.87	73.881
500.22	73.640
500.56	73.878
500.91	73.143
501.26	72.714
501.60	73.979
501.95	74.624
502.29	73.269
502.64	74.083
502.98	74.988
503.33	73.151
503.67	72.675
504.02	74.194
504.36	74.072
504.71	73.687
505.06	72.974
505.40	72.741
505.75	74.536
506.09	73.087
506.44	73.922
506.78	73.571
507.13	73.992
507.47	72.376
507.82	73.397
508.16	72.319
508.51	73.137
508.85	74.045
509.19	72.272
509.54	73.083
509.88	72.708
510.23	73.857
510.57	72.528
510.92	71.855
511.26	73.213
511.61	73.817
511.95	72.877
512.30	72.727
512.64	71.953
512.98	70.354
513.33	72.412
513.67	71.859
514.02	72.883
514.36	72.629
514.70	72.494
515.05	74.031
515.39	71.783
515.74	73.653
516.08	73.222
516.42	72.320
516.77	72.557
517.11	73.769
517.46	72.292
517.80	71.275
518.14	73.117
518.49	70.853
518.83	70.535
519.17	71.862
519.52	71.758
519.86	71.609
520.20	71.203
520.55	71.169
520.89	71.079
521.23	71.628
521.58	72.177
521.92	71.603
522.26	72.479
522.61	71.818
522.95	72.848
523.29	71.093
523.64	71.728
523.98	72.975
524.32	72.358
524.66	71.511
525.01	72.078
525.35	70.966
525.69	71.650
526.04	70.569
526.38	72.179
526.72	70.700
527.06	69.974
527.41	70.976
527.75	68.901
528.09	71.096
528.43	72.586
528.78	70.825
529.12	71.935
529.46	72.580
529.80	71.121
530.15	72.079
530.49	70.774
530.83	72.914
531.17	71.592
531.51	71.272
531.86	71.040
532.20	70.981
532.54	71.818
532.88	72.348
533.22	72.581
533.57	71.429
533.91	73.042
534.25	72.852
534.59	72.226
534.93	70.799
535.27	71.383
535.62	70.706
535.96	70.907
536.30	72.164
536.64	71.950
536.98	70.523
537.32	72.475
537.66	72.230
538.01	71.259
538.35	71.706
538.69	72.170
539.03	72.591
539.37	73.149
539.71	71.575
540.05	70.876
540.39	72.507
540.73	71.618
541.07	71.685
541.42	72.379
541.76	72.264
542.10	71.851
542.44	72.203
542.78	71.163
543.12	71.291
543.46	72.531
543.80	73.213
544.14	71.095
544.48	73.284
544.82	72.522
545.16	74.454
545.50	72.163
545.84	72.663
546.18	72.766
546.52	71.377
546.86	71.963
547.20	71.960
547.54	72.650
547.88	72.758
548.22	72.847
548.56	71.240
548.90	72.709
549.24	71.694
549.58	70.592
549.92	69.693
550.26	71.575
550.60	72.937
550.94	73.040
551.28	72.566
551.62	72.154
551.96	72.707
552.30	72.442
552.64	70.804
552.98	71.660
553.32	72.325
553.66	71.626
554.00	72.701
554.34	71.640
554.68	71.313
555.02	72.768
555.36	71.279
555.69	72.894
556.03	72.305
556.37	72.242
556.71	72.563
557.05	72.856
557.39	71.747
557.73	73.013
558.07	73.303
558.41	73.124
558.75	73.110
559.08	71.474
559.42	73.016
559.76	73.579
560.10	72.095
560.44	71.184
560.78	71.189
561.12	73.907
561.45	74.701
561.79	74.230
562.13	73.669
562.47	72.086
562.81	72.911
563.15	72.144
563.48	73.904
563.82	72.752
564.16	75.139
564.50	72.500
564.84	74.163
565.17	73.709
565.51	76.161
565.85	75.034
566.19	73.541
566.52	74.263
566.86	75.643
567.20	74.284
567.54	76.095
567.88	77.622
568.21	75.509
568.55	76.902
568.89	78.080
569.23	78.767
569.56	79.860
569.90	81.405
570.24	79.047
570.57	80.655
570.91	81.318
571.25	79.349
571.59	79.228
571.92	79.081
572.26	79.982
572.60	78.977
572.93	78.224
573.27	78.401
573.61	80.012
573.95	79.929
574.28	80.217
574.62	79.049
574.96	79.257
575.29	79.758
575.63	77.533
575.97	78.693
576.30	78.718
576.64	78.649
576.98	81.236
577.31	80.954
577.65	81.170
577.98	80.811
578.32	81.043
578.66	79.669
578.99	79.364
579.33	78.541
579.67	78.072
580.00	79.139
580.34	79.776
580.67	78.956
581.01	80.451
581.35	80.663
581.68	81.106
582.02	82.419
582.35	82.396
582.69	81.515
583.02	79.876
583.36	79.868
583.70	80.685
584.03	79.983
584.37	80.011
584.70	79.945
585.04	79.404
585.37	79.066
585.71	80.597
586.04	81.165
586.38	79.648
586.72	80.832
587.05	81.514
587.39	81.828
587.72	82.832
588.06	80.985
588.39	80.376
588.73	80.525
589.06	80.789
589.40	80.055
589.73	79.153
590.07	79.985
590.40	81.037
590.73	81.096
591.07	79.856
591.40	80.588
591.74	79.321
592.07	79.777
592.41	79.638
592.74	80.526
593.08	81.104
593.41	82.208
593.75	81.158
594.08	80.364
594.41	80.750
594.75	80.000
595.08	80.817
595.42	81.524
595.75	81.712
596.09	80.610
596.42	79.868
596.75	79.707
597.09	79.772
597.42	78.952
597.75	81.310
598.09	79.040
598.42	78.159
598.76	80.438
599.09	80.208
599.42	80.182
599.76	79.947
600.09	80.053
600.42	80.553
600.76	79.681
601.09	80.878
601.42	80.180
601.76	80.548
602.09	80.899
602.42	81.719
602.76	80.688
603.09	80.316
603.42	84.281
603.76	80.887
604.09	81.126
604.42	80.203
604.76	80.908
605.09	80.302
605.42	79.910
605.75	81.261
606.09	80.382
606.42	78.982
606.75	79.481
607.09	80.835
607.42	79.265
607.75	79.840
608.08	78.841
608.42	77.387
608.75	81.157
609.08	79.273
609.41	78.934
609.75	79.940
610.08	80.379
610.41	79.420
610.74	80.449
611.07	81.499
611.41	81.681
611.74	80.864
612.07	79.336
612.40	79.978
612.73	80.452
613.07	79.021
613.40	80.197
613.73	81.030
614.06	80.301
614.39	80.767
614.72	78.599
615.06	79.665
615.39	78.603
615.72	80.194
616.05	80.447
616.38	77.721
616.71	78.410
617.05	80.914
617.38	79.384
617.71	80.063
618.04	81.333
618.37	81.021
618.70	80.726
619.03	78.889
619.36	76.700
619.69	80.212
620.03	79.839
620.36	77.969
620.69	77.873
621.02	78.058
621.35	79.834
621.68	79.762
622.01	78.417
622.34	77.334
622.67	79.574
623.00	77.871
623.33	78.430
623.66	78.384
623.99	78.215
624.32	79.544
624.65	79.173
624.99	79.082
625.32	78.544
625.65	78.319
625.98	79.371
626.31	76.725
626.64	77.123
626.97	76.527
627.30	78.196
627.63	76.950
627.96	79.335
628.29	77.336
628.62	76.500
628.95	75.351
629.28	79.536
629.61	76.770
629.94	76.442
630.26	75.889
630.59	80.125
630.92	77.231
631.25	74.872
631.58	76.211
631.91	77.083
632.24	76.835
632.57	74.773
632.90	75.563
633.23	74.824
633.56	74.811
633.89	75.092
