SpectraSuite Data File
++++++++++++++++++++++++++++++++++++
Date: Fri May 15 17:08:54 PDT 2015
User: schluterlab
Dark Spectrum Present: Yes
Reference Spectrum Present: Yes
Number of Sampled Component Spectra: 1
Spectrometers: USB2E3373
Integration Time (usec): 3000 (USB2E3373)
Spectra Averaged: 3 (USB2E3373)
Boxcar Smoothing: 0 (USB2E3373)
Correct for Electrical Dark: No (USB2E3373)
Strobe/Lamp Enabled: No (USB2E3373)
Correct for Detector Non-linearity: No (USB2E3373)
Correct for Stray Light: No (USB2E3373)
Number of Pixels in Processed Spectrum: 2048
>>>>>Begin Processed Spectral Data<<<<<
178.53	0.000
178.91	0.000
179.29	125.000
179.67	-500.000
180.04	-85.714
180.42	200.000
180.80	800.000
181.18	-133.333
181.56	-450.000
181.94	250.000
182.31	-700.000
182.69	180.000
183.07	166.667
183.45	60.000
183.83	-33.333
184.20	90.909
184.58	66.667
184.96	-375.000
185.34	-233.333
185.72	400.000
186.09	46.154
186.47	-200.000
186.85	-83.333
187.23	77.778
187.61	-900.000
187.98	0.000
188.36	144.444
188.74	133.333
189.12	29.412
189.49	50.000
189.87	0.000
190.25	78.571
190.63	550.000
191.00	-33.333
191.38	-5.263
191.76	600.000
192.14	-125.000
192.51	600.000
192.89	100.000
193.27	171.429
193.65	-16.667
194.02	127.273
194.40	70.000
194.78	37.500
195.15	50.000
195.53	75.000
195.91	75.000
196.29	-50.000
196.66	61.538
197.04	28.571
197.42	55.556
197.79	-333.333
198.17	53.846
198.55	500.000
198.92	266.667
199.30	-400.000
199.68	0.000
200.05	133.333
200.43	0.000
200.81	100.000
201.18	133.333
201.56	100.000
201.94	250.000
202.31	-300.000
202.69	-40.000
203.07	200.000
203.44	1100.000
203.82	0.000
204.19	107.143
204.57	-133.333
204.95	37.500
205.32	60.000
205.70	0.000
206.08	425.000
206.45	266.667
206.83	114.286
207.20	157.143
207.58	-300.000
207.96	33.333
208.33	20.000
208.71	200.000
209.08	-83.333
209.46	0.000
209.84	120.000
210.21	400.000
210.59	242.857
210.96	66.667
211.34	50.000
211.71	100.000
212.09	-128.571
212.46	500.000
212.84	0.000
213.22	200.000
213.59	50.000
213.97	84.615
214.34	36.364
214.72	16.667
215.09	125.000
215.47	107.692
215.84	81.818
216.22	166.667
216.59	62.500
216.97	350.000
217.34	100.000
217.72	-80.000
218.09	100.000
218.47	50.000
218.84	700.000
219.22	66.667
219.59	140.000
219.97	-0.000
220.34	275.000
220.72	85.714
221.09	125.000
221.47	200.000
221.84	-100.000
222.22	-850.000
222.59	54.545
222.97	83.333
223.34	66.667
223.72	64.286
224.09	76.190
224.46	53.571
224.84	66.667
225.21	40.000
225.59	66.667
225.96	-100.000
226.34	75.000
226.71	42.857
227.08	100.000
227.46	12.500
227.83	-300.000
228.21	111.111
228.58	81.818
228.95	12.500
229.33	30.000
229.70	6.250
230.08	-62.500
230.45	-42.857
230.82	142.857
231.20	60.000
231.57	92.857
231.95	85.714
232.32	20.000
232.69	78.571
233.07	-33.333
233.44	-40.000
233.81	-20.000
234.19	33.333
234.56	64.706
234.93	-200.000
235.31	425.000
235.68	-100.000
236.05	-46.154
236.43	-35.000
236.80	5.882
237.17	40.625
237.55	40.000
237.92	0.000
238.29	22.222
238.67	40.000
239.04	41.176
239.41	-9.756
239.79	6.667
240.16	17.073
240.53	21.053
240.91	2.174
241.28	-1.587
241.65	26.786
242.02	13.699
242.40	3.333
242.77	11.864
243.14	3.030
243.51	2.500
243.89	14.943
244.26	5.747
244.63	-3.571
245.00	7.216
245.38	6.186
245.75	1.124
246.12	0.862
246.49	11.570
246.87	11.538
247.24	-2.521
247.61	-7.895
247.98	2.439
248.36	5.000
248.73	6.579
249.10	3.896
249.47	2.532
249.84	5.229
250.22	1.765
250.59	9.150
250.96	7.042
251.33	-1.163
251.70	6.471
252.08	3.046
252.45	5.446
252.82	3.518
253.19	3.687
253.56	-5.607
253.94	6.306
254.31	7.391
254.68	7.895
255.05	0.787
255.42	1.310
255.79	3.861
256.16	4.280
256.54	7.090
256.91	1.141
257.28	2.974
257.65	3.745
258.02	3.901
258.39	5.387
258.76	6.227
259.14	4.651
259.51	3.883
259.88	1.375
260.25	-0.327
260.62	1.389
260.99	-0.678
261.36	2.397
261.73	3.481
262.10	4.863
262.47	1.840
262.85	1.881
263.22	3.077
263.59	3.427
263.96	5.280
264.33	0.909
264.70	1.488
265.07	1.190
265.44	3.116
265.81	0.565
266.18	2.732
266.55	7.198
266.92	0.777
267.29	1.828
267.66	2.813
268.03	4.974
268.40	1.828
268.77	5.080
269.14	2.158
269.51	3.085
269.88	1.995
270.25	1.531
270.62	2.439
270.99	2.046
271.36	1.222
271.73	2.817
272.10	2.676
272.47	4.492
272.84	0.743
273.21	4.408
273.58	2.651
273.95	4.348
274.32	3.002
274.69	0.226
275.06	1.786
275.43	1.814
275.80	0.221
276.17	1.379
276.54	1.927
276.91	4.386
277.28	1.528
277.65	3.099
278.02	3.404
278.39	1.969
278.76	1.677
279.13	-0.415
279.50	5.042
279.87	3.024
280.23	-0.215
280.60	4.094
280.97	4.040
281.34	2.692
281.71	4.517
282.08	2.658
282.45	1.370
282.82	2.510
283.19	3.675
283.56	3.468
283.92	1.518
284.29	2.115
284.66	2.519
285.03	2.161
285.40	1.890
285.77	2.812
286.14	1.083
286.51	2.030
286.87	2.011
287.24	1.473
287.61	0.882
287.98	2.982
288.35	1.040
288.72	2.977
289.08	1.389
289.45	1.406
289.82	1.923
290.19	1.706
290.56	1.029
290.93	1.178
291.29	0.770
291.66	2.677
292.03	1.914
292.40	1.774
292.77	0.797
293.13	-1.948
293.50	1.062
293.87	2.290
294.24	2.628
294.60	2.832
294.97	2.381
295.34	0.613
295.71	2.235
296.08	1.794
296.44	1.849
296.81	0.833
297.18	1.304
297.55	2.575
297.91	2.740
298.28	3.298
298.65	3.664
299.02	2.291
299.38	-0.684
299.75	0.966
300.12	-0.131
300.48	0.395
300.85	2.281
301.22	1.818
301.59	1.447
301.95	3.291
302.32	2.594
302.69	1.493
303.05	3.094
303.42	2.864
303.79	1.636
304.15	1.195
304.52	0.595
304.89	1.754
305.25	1.695
305.62	0.117
305.99	1.170
306.35	1.734
306.72	0.112
307.09	2.052
307.45	3.215
307.82	1.389
308.19	2.091
308.55	2.181
308.92	3.050
309.29	0.112
309.65	0.000
310.02	1.320
310.38	2.195
310.75	2.077
311.12	1.292
311.48	1.697
311.85	2.304
312.22	2.321
312.58	2.548
312.95	1.494
313.31	0.621
313.68	1.780
314.05	1.531
314.41	3.299
314.78	2.268
315.14	3.494
315.51	3.313
315.87	3.484
316.24	4.954
316.61	3.839
316.97	4.464
317.34	4.395
317.70	4.876
318.07	4.712
318.43	5.686
318.80	5.587
319.16	5.664
319.53	6.268
319.89	6.398
320.26	7.287
320.62	7.924
320.99	6.472
321.35	6.989
321.72	8.411
322.08	7.956
322.45	8.122
322.81	10.216
323.18	9.127
323.54	8.591
323.91	9.834
324.27	10.059
324.64	11.798
325.00	12.409
325.37	13.958
325.73	12.421
326.10	13.533
326.46	14.350
326.83	14.698
327.19	15.432
327.56	15.986
327.92	16.725
328.29	17.500
328.65	17.547
329.01	17.555
329.38	17.788
329.74	18.697
330.11	20.575
330.47	19.759
330.84	20.481
331.20	22.338
331.56	21.019
331.93	22.740
332.29	23.831
332.66	23.620
333.02	22.955
333.38	23.465
333.75	24.451
334.11	23.187
334.48	25.204
334.84	24.725
335.20	24.611
335.57	24.025
335.93	26.920
336.29	25.138
336.66	24.977
337.02	25.000
337.38	27.037
337.75	25.545
338.11	27.773
338.47	26.916
338.84	28.928
339.20	27.239
339.56	26.697
339.93	29.006
340.29	29.174
340.65	28.405
341.02	27.482
341.38	26.903
341.74	28.180
342.11	26.776
342.47	27.847
342.83	28.287
343.20	27.003
343.56	27.826
343.92	28.432
344.28	28.266
344.65	28.325
345.01	28.176
345.37	28.007
345.73	29.289
346.10	28.559
346.46	29.184
346.82	27.250
347.19	28.845
347.55	29.323
347.91	29.935
348.27	29.103
348.63	29.727
349.00	28.548
349.36	30.424
349.72	29.436
350.08	28.934
350.45	30.247
350.81	29.817
351.17	28.257
351.53	29.469
351.89	27.828
352.26	29.280
352.62	30.726
352.98	28.835
353.34	28.583
353.70	29.288
354.07	28.790
354.43	28.903
354.79	29.810
355.15	29.524
355.51	30.696
355.87	30.663
356.24	29.445
356.60	30.477
356.96	30.159
357.32	30.351
357.68	28.382
358.04	30.129
358.40	30.386
358.77	31.100
359.13	29.944
359.49	30.663
359.85	30.031
360.21	30.144
360.57	29.304
360.93	30.257
361.29	29.607
361.66	30.721
362.02	30.455
362.38	30.236
362.74	30.129
363.10	30.324
363.46	30.764
363.82	32.081
364.18	29.742
364.54	29.779
364.90	30.681
365.26	30.349
365.62	32.482
365.98	30.499
366.35	32.265
366.71	30.303
367.07	31.785
367.43	30.697
367.79	30.530
368.15	30.223
368.51	31.974
368.87	32.017
369.23	30.686
369.59	31.997
369.95	32.991
370.31	32.370
370.67	31.866
371.03	31.815
371.39	31.072
371.75	32.527
372.11	30.385
372.47	31.805
372.83	32.647
373.19	32.311
373.55	31.408
373.91	32.757
374.27	32.459
374.63	32.879
374.99	32.057
375.35	32.382
375.71	32.098
376.07	33.006
376.42	33.401
376.78	31.946
377.14	31.821
377.50	33.068
377.86	33.735
378.22	33.121
378.58	32.821
378.94	34.089
379.30	32.689
379.66	34.734
380.02	32.557
380.38	32.319
380.74	31.897
381.09	34.540
381.45	33.578
381.81	33.560
382.17	33.503
382.53	33.229
382.89	33.961
383.25	33.541
383.61	33.963
383.97	34.603
384.32	33.709
384.68	33.808
385.04	32.966
385.40	33.043
385.76	34.151
386.12	34.735
386.48	33.716
386.83	34.623
387.19	34.982
387.55	34.755
387.91	34.230
388.27	34.554
388.62	34.991
388.98	34.254
389.34	33.979
389.70	35.426
390.06	33.417
390.42	34.909
390.77	34.729
391.13	33.228
391.49	34.605
391.85	34.828
392.20	35.342
392.56	33.566
392.92	35.232
393.28	35.554
393.64	34.114
393.99	34.922
394.35	33.207
394.71	34.738
395.07	34.067
395.42	33.576
395.78	33.681
396.14	34.048
396.50	34.813
396.85	33.612
397.21	34.524
397.57	34.232
397.92	34.272
398.28	34.770
398.64	34.699
399.00	33.916
399.35	32.619
399.71	33.314
400.07	34.341
400.42	34.272
400.78	34.844
401.14	35.088
401.49	35.497
401.85	33.455
402.21	34.398
402.57	35.000
402.92	34.944
403.28	33.960
403.63	34.931
403.99	34.821
404.35	35.166
404.70	33.631
405.06	33.843
405.42	34.618
405.77	34.108
406.13	34.109
406.49	33.511
406.84	34.230
407.20	34.618
407.55	33.419
407.91	33.890
408.27	33.461
408.62	33.785
408.98	33.457
409.34	34.696
409.69	33.915
410.05	34.175
410.40	33.333
410.76	34.922
411.11	34.000
411.47	33.531
411.83	33.710
412.18	34.427
412.54	33.396
412.89	32.574
413.25	34.537
413.60	33.478
413.96	34.417
414.31	33.476
414.67	35.215
415.03	34.354
415.38	34.008
415.74	34.267
416.09	34.944
416.45	34.504
416.80	34.369
417.16	35.912
417.51	34.977
417.87	34.746
418.22	34.585
418.58	34.181
418.93	34.796
419.29	33.803
419.64	35.386
420.00	35.957
420.35	35.701
420.71	36.209
421.06	34.622
421.42	35.577
421.77	36.185
422.12	34.677
422.48	35.679
422.83	34.513
423.19	35.102
423.54	34.215
423.90	34.982
424.25	35.075
424.61	36.720
424.96	36.005
425.31	36.742
425.67	35.798
426.02	36.572
426.38	35.692
426.73	36.622
427.09	37.025
427.44	37.353
427.79	36.358
428.15	36.772
428.50	35.615
428.85	36.057
429.21	37.012
429.56	36.173
429.92	35.953
430.27	36.792
430.62	36.017
430.98	37.951
431.33	36.909
431.68	36.787
432.04	37.898
432.39	37.365
432.74	36.801
433.10	37.816
433.45	37.276
433.80	37.783
434.16	36.898
434.51	37.419
434.86	36.702
435.22	36.848
435.57	36.369
435.92	37.066
436.28	38.044
436.63	37.650
436.98	36.964
437.34	37.931
437.69	38.879
438.04	38.405
438.39	37.691
438.75	38.494
439.10	38.653
439.45	39.136
439.81	38.654
440.16	39.192
440.51	39.403
440.86	40.060
441.22	38.292
441.57	38.907
441.92	39.454
442.27	38.747
442.63	39.240
442.98	39.690
443.33	38.509
443.68	38.515
444.03	39.593
444.39	38.416
444.74	40.245
445.09	39.421
445.44	38.462
445.79	39.969
446.15	38.546
446.50	39.046
446.85	39.639
447.20	39.520
447.55	39.118
447.91	39.368
448.26	39.101
448.61	39.954
448.96	39.759
449.31	40.058
449.66	39.895
450.02	40.502
450.37	38.767
450.72	39.404
451.07	40.063
451.42	39.576
451.77	39.783
452.12	38.995
452.47	39.601
452.83	40.283
453.18	38.836
453.53	40.582
453.88	39.951
454.23	40.012
454.58	40.743
454.93	40.851
455.28	38.667
455.63	39.554
455.98	40.409
456.34	39.208
456.69	40.470
457.04	39.572
457.39	39.368
457.74	39.661
458.09	39.788
458.44	40.667
458.79	40.112
459.14	40.217
459.49	39.582
459.84	40.045
460.19	39.138
460.54	40.159
460.89	40.114
461.24	40.932
461.59	40.321
461.94	39.811
462.29	40.651
462.64	40.133
462.99	39.810
463.34	39.917
463.69	40.219
464.04	41.162
464.39	40.631
464.74	40.491
465.09	40.362
465.44	40.854
465.79	39.399
466.14	39.624
466.49	40.081
466.84	39.560
467.19	40.613
467.54	39.911
467.89	39.482
468.24	40.268
468.59	39.746
468.94	39.429
469.29	40.918
469.64	39.645
469.99	40.715
470.34	39.386
470.68	40.492
471.03	41.047
471.38	40.728
471.73	40.616
472.08	40.502
472.43	40.872
472.78	40.370
473.13	40.884
473.48	41.173
473.83	39.913
474.17	40.933
474.52	40.204
474.87	40.182
475.22	39.231
475.57	39.921
475.92	41.141
476.27	40.396
476.61	40.509
476.96	39.041
477.31	40.562
477.66	39.551
478.01	39.585
478.36	39.107
478.70	40.239
479.05	40.604
479.40	40.170
479.75	39.208
480.10	40.399
480.45	39.900
480.79	40.886
481.14	40.318
481.49	39.163
481.84	39.044
482.19	38.868
482.53	40.336
482.88	39.905
483.23	40.163
483.58	39.387
483.92	39.351
484.27	39.699
484.62	40.341
484.97	38.930
485.31	39.306
485.66	38.769
486.01	38.833
486.36	38.324
486.70	38.541
487.05	38.486
487.40	38.133
487.75	38.394
488.09	37.886
488.44	39.202
488.79	38.887
489.13	40.304
489.48	39.419
489.83	39.013
490.17	38.876
490.52	39.122
490.87	39.149
491.22	39.112
491.56	39.943
491.91	38.719
492.26	39.426
492.60	39.251
492.95	41.220
493.30	38.398
493.64	39.882
493.99	39.662
494.34	39.515
494.68	39.476
495.03	39.124
495.37	39.598
495.72	39.525
496.07	39.854
496.41	39.953
496.76	40.212
497.11	38.891
497.45	39.952
497.80	40.969
498.14	39.146
498.49	40.071
498.84	39.621
499.18	40.110
499.53	39.534
499.87	38.813
500.22	38.131
500.56	40.192
500.91	39.960
501.26	39.298
501.60	39.990
501.95	39.932
502.29	39.709
502.64	40.106
502.98	39.813
503.33	39.433
503.67	40.096
504.02	40.274
504.36	40.327
504.71	38.737
505.06	39.456
505.40	39.340
505.75	40.309
506.09	38.368
506.44	40.554
506.78	40.153
507.13	40.124
507.47	39.634
507.82	39.156
508.16	39.461
508.51	40.031
508.85	40.816
509.19	39.702
509.54	39.088
509.88	39.213
510.23	39.914
510.57	41.048
510.92	38.646
511.26	40.044
511.61	40.154
511.95	39.836
512.30	40.022
512.64	40.957
512.98	40.202
513.33	40.123
513.67	40.193
514.02	40.789
514.36	40.286
514.70	41.317
515.05	41.363
515.39	41.204
515.74	42.395
516.08	41.004
516.42	40.872
516.77	40.492
517.11	41.602
517.46	41.472
517.80	40.405
518.14	41.580
518.49	40.325
518.83	40.097
519.17	40.449
519.52	40.557
519.86	40.276
520.20	41.069
520.55	39.837
520.89	41.092
521.23	40.849
521.58	40.820
521.92	41.731
522.26	41.444
522.61	41.039
522.95	41.523
523.29	40.788
523.64	40.978
523.98	42.255
524.32	40.722
524.66	41.805
525.01	41.429
525.35	41.672
525.69	41.279
526.04	41.138
526.38	41.245
526.72	40.680
527.06	40.791
527.41	40.567
527.75	40.952
528.09	40.399
528.43	40.918
528.78	41.122
529.12	40.710
529.46	40.416
529.80	40.279
530.15	41.188
530.49	41.145
530.83	42.339
531.17	40.833
531.51	40.766
531.86	40.925
532.20	41.127
532.54	41.048
532.88	41.615
533.22	41.263
533.57	39.515
533.91	39.164
534.25	41.081
534.59	40.539
534.93	39.773
535.27	39.911
535.62	39.793
535.96	40.965
536.30	40.765
536.64	41.006
536.98	40.070
537.32	41.963
537.66	42.216
538.01	41.538
538.35	40.985
538.69	39.680
539.03	39.850
539.37	41.319
539.71	40.082
540.05	40.665
540.39	39.820
540.73	40.028
541.07	40.953
541.42	40.323
541.76	41.638
542.10	40.881
542.44	40.375
542.78	39.849
543.12	39.904
543.46	40.612
543.80	40.944
544.14	40.454
544.48	40.107
544.82	41.695
545.16	41.598
545.50	40.988
545.84	41.218
546.18	41.844
546.52	39.221
546.86	40.906
547.20	40.558
547.54	39.293
547.88	40.489
548.22	39.645
548.56	39.578
548.90	40.566
549.24	41.253
549.58	41.185
549.92	40.386
550.26	41.026
550.60	43.048
550.94	41.075
551.28	40.495
551.62	41.385
551.96	41.729
552.30	41.155
552.64	40.268
552.98	40.717
553.32	40.157
553.66	39.695
554.00	39.562
554.34	41.950
554.68	40.560
555.02	40.699
555.36	41.212
555.69	40.659
556.03	40.471
556.37	40.142
556.71	41.155
557.05	41.163
557.39	40.223
557.73	41.079
558.07	41.629
558.41	41.271
558.75	41.699
559.08	40.662
559.42	40.952
559.76	42.754
560.10	41.514
560.44	41.102
560.78	42.098
561.12	41.961
561.45	41.673
561.79	41.667
562.13	40.454
562.47	41.439
562.81	41.571
563.15	41.185
563.48	41.867
563.82	42.347
564.16	42.061
564.50	41.351
564.84	41.165
565.17	41.247
565.51	42.691
565.85	41.907
566.19	41.578
566.52	42.359
566.86	42.416
567.20	40.909
567.54	41.302
567.88	42.062
568.21	42.760
568.55	41.630
568.89	40.349
569.23	41.117
569.56	40.543
569.90	40.723
570.24	40.305
570.57	39.818
570.91	39.735
571.25	39.132
571.59	39.645
571.92	38.252
572.26	38.647
572.60	38.760
572.93	38.532
573.27	39.373
573.61	39.439
573.95	38.777
574.28	39.142
574.62	38.622
574.96	38.619
575.29	39.122
575.63	37.963
575.97	38.357
576.30	39.078
576.64	37.960
576.98	39.305
577.31	38.855
577.65	39.151
577.98	39.074
578.32	38.165
578.66	37.739
578.99	38.395
579.33	38.421
579.67	37.598
580.00	38.886
580.34	39.080
580.67	38.353
581.01	38.761
581.35	38.717
581.68	38.634
582.02	38.576
582.35	38.422
582.69	38.605
583.02	37.834
583.36	38.727
583.70	39.278
584.03	39.894
584.37	39.497
584.70	39.011
585.04	39.093
585.37	38.968
585.71	38.929
586.04	39.309
586.38	39.611
586.72	39.943
587.05	39.890
587.39	39.419
587.72	40.432
588.06	40.022
588.39	39.390
588.73	39.774
589.06	40.933
589.40	39.647
589.73	40.416
590.07	41.201
590.40	40.054
590.73	40.857
591.07	40.882
591.40	41.095
591.74	41.267
592.07	40.492
592.41	42.270
592.74	40.860
593.08	39.714
593.41	40.428
593.75	40.105
594.08	39.684
594.41	40.247
594.75	40.763
595.08	40.144
595.42	40.486
595.75	40.706
596.09	41.048
596.42	40.678
596.75	41.430
597.09	41.412
597.42	41.870
597.75	42.190
598.09	40.923
598.42	39.486
598.76	41.227
599.09	41.066
599.42	39.788
599.76	40.632
600.09	39.630
600.42	40.864
600.76	39.562
601.09	39.924
601.42	40.815
601.76	40.056
602.09	40.965
602.42	41.997
602.76	40.280
603.09	41.777
603.42	42.182
603.76	41.815
604.09	41.069
604.42	41.328
604.76	41.656
605.09	42.048
605.42	41.264
605.75	41.112
606.09	41.231
606.42	41.368
606.75	41.082
607.09	40.132
607.42	41.338
607.75	41.519
608.08	39.937
608.42	41.709
608.75	42.940
609.08	42.601
609.41	41.929
609.75	41.532
610.08	42.386
610.41	41.111
610.74	40.663
611.07	42.067
611.41	42.398
611.74	42.910
612.07	42.131
612.40	42.998
612.73	42.316
613.07	41.395
613.40	42.123
613.73	42.250
614.06	42.237
614.39	42.470
614.72	41.849
615.06	42.123
615.39	40.993
615.72	42.304
616.05	41.117
616.38	40.114
616.71	42.752
617.05	42.310
617.38	43.118
617.71	43.208
618.04	43.429
618.37	44.578
618.70	43.828
619.03	43.194
619.36	43.705
619.69	44.124
620.03	45.435
620.36	44.063
620.69	44.183
621.02	43.578
621.35	45.809
621.68	44.133
622.01	46.333
622.34	43.655
622.67	44.716
623.00	44.334
623.33	43.293
623.66	44.353
623.99	43.570
624.32	45.323
624.65	44.962
624.99	43.416
625.32	44.049
625.65	44.148
625.98	44.641
626.31	44.057
626.64	46.534
626.97	46.248
627.30	45.271
627.63	45.667
627.96	45.103
628.29	46.716
628.62	47.689
628.95	46.293
629.28	47.077
629.61	45.264
629.94	46.725
630.26	44.071
630.59	48.699
630.92	46.462
631.25	46.051
631.58	48.348
631.91	46.930
632.24	47.592
632.57	47.045
632.90	47.212
633.23	46.000
633.56	47.607
633.89	46.363
634.22	47.531
634.55	48.412
634.88	47.254
635.20	48.462
635.53	49.333
635.86	46.554
636.19	50.453
636.52	47.066
636.85	46.650
637.18	45.786
637.51	47.925
637.83	50.066
638.16	49.659
638.49	47.956
638.82	49.605
