SpectraSuite Data File
++++++++++++++++++++++++++++++++++++
Date: Fri May 15 20:10:29 PDT 2015
User: schluterlab
Dark Spectrum Present: Yes
Reference Spectrum Present: Yes
Number of Sampled Component Spectra: 1
Spectrometers: USB2E3373
Integration Time (usec): 3000 (USB2E3373)
Spectra Averaged: 3 (USB2E3373)
Boxcar Smoothing: 0 (USB2E3373)
Correct for Electrical Dark: No (USB2E3373)
Strobe/Lamp Enabled: No (USB2E3373)
Correct for Detector Non-linearity: No (USB2E3373)
Correct for Stray Light: No (USB2E3373)
Number of Pixels in Processed Spectrum: 2048
>>>>>Begin Processed Spectral Data<<<<<
178.53	0.000
178.91	0.000
179.29	25.000
179.67	-300.000
180.04	-114.286
180.42	150.000
180.80	-100.000
181.18	-33.333
181.56	250.000
181.94	200.000
182.31	-800.000
182.69	100.000
183.07	-333.333
183.45	-80.000
183.83	-0.000
184.20	-54.545
184.58	55.556
184.96	-175.000
185.34	-66.667
185.72	250.000
186.09	15.385
186.47	-900.000
186.85	100.000
187.23	88.889
187.61	600.000
187.98	-133.333
188.36	22.222
188.74	333.333
189.12	-23.529
189.49	50.000
189.87	0.000
190.25	100.000
190.63	50.000
191.00	0.000
191.38	31.579
191.76	400.000
192.14	50.000
192.51	250.000
192.89	-11.111
193.27	-128.571
193.65	200.000
194.02	118.182
194.40	-10.000
194.78	-62.500
195.15	116.667
195.53	-62.500
195.91	75.000
196.29	75.000
196.66	53.846
197.04	185.714
197.42	-55.556
197.79	-133.333
198.17	-107.692
198.55	1600.000
198.92	-166.667
199.30	-300.000
199.68	-160.000
200.05	200.000
200.43	0.000
200.81	300.000
201.18	-166.667
201.56	600.000
201.94	-400.000
202.31	-200.000
202.69	-20.000
203.07	450.000
203.44	800.000
203.82	0.000
204.19	57.143
204.57	-33.333
204.95	100.000
205.32	110.000
205.70	0.000
206.08	150.000
206.45	277.778
206.83	42.857
207.20	-57.143
207.58	300.000
207.96	-333.333
208.33	-140.000
208.71	-50.000
209.08	-116.667
209.46	-400.000
209.84	0.000
210.21	-600.000
210.59	71.429
210.96	-50.000
211.34	50.000
211.71	86.667
212.09	-100.000
212.46	-700.000
212.84	0.000
213.22	100.000
213.59	250.000
213.97	100.000
214.34	36.364
214.72	-50.000
215.09	75.000
215.47	-15.385
215.84	18.182
216.22	400.000
216.59	-87.500
216.97	300.000
217.34	-25.000
217.72	-200.000
218.09	150.000
218.47	150.000
218.84	-300.000
219.22	-33.333
219.59	120.000
219.97	33.333
220.34	75.000
220.72	-14.286
221.09	125.000
221.47	450.000
221.84	-850.000
222.22	-600.000
222.59	72.727
222.97	-75.000
223.34	-133.333
223.72	7.143
224.09	57.143
224.46	42.857
224.84	166.667
225.21	10.000
225.59	26.667
225.96	300.000
226.34	125.000
226.71	-28.571
227.08	50.000
227.46	-62.500
227.83	100.000
228.21	-77.778
228.58	18.182
228.95	-25.000
229.33	60.000
229.70	50.000
230.08	12.500
230.45	-42.857
230.82	-28.571
231.20	40.000
231.57	28.571
231.95	28.571
232.32	-30.000
232.69	64.286
233.07	266.667
233.44	320.000
233.81	50.000
234.19	88.889
234.56	47.059
234.93	150.000
235.31	525.000
235.68	-160.000
236.05	-30.769
236.43	-10.000
236.80	58.824
237.17	43.750
237.55	45.000
237.92	40.741
238.29	30.556
238.67	73.333
239.04	58.824
239.41	12.195
239.79	33.333
240.16	60.976
240.53	47.368
240.91	30.435
241.28	47.619
241.65	58.929
242.02	68.493
242.40	51.667
242.77	49.153
243.14	50.000
243.51	63.750
243.89	60.920
244.26	43.678
244.63	64.286
245.00	48.454
245.38	56.701
245.75	50.562
246.12	51.724
246.49	51.240
246.87	52.885
247.24	47.059
247.61	61.404
247.98	66.667
248.36	46.875
248.73	56.579
249.10	53.896
249.47	62.025
249.84	54.902
250.22	51.765
250.59	62.092
250.96	54.930
251.33	54.651
251.70	58.235
252.08	57.360
252.45	51.980
252.82	55.276
253.19	56.682
253.56	55.607
253.94	58.559
254.31	55.217
254.68	63.158
255.05	56.299
255.42	54.585
255.79	54.826
256.16	56.031
256.54	59.328
256.91	54.753
257.28	52.416
257.65	55.056
258.02	56.383
258.39	53.199
258.76	56.044
259.14	50.498
259.51	53.398
259.88	56.014
260.25	55.229
260.62	57.986
260.99	54.237
261.36	54.110
261.73	52.848
262.10	52.280
262.47	55.521
262.85	57.367
263.22	53.846
263.59	54.829
263.96	57.143
264.33	53.939
264.70	58.929
265.07	51.786
265.44	55.241
265.81	55.367
266.18	58.197
266.55	55.270
266.92	53.109
267.29	52.480
267.66	54.987
268.03	54.450
268.40	54.308
268.77	60.428
269.14	52.518
269.51	56.555
269.88	52.120
270.25	53.571
270.62	51.220
270.99	53.453
271.36	54.523
271.73	56.808
272.10	55.718
272.47	56.265
272.84	51.980
273.21	51.972
273.58	54.458
273.95	53.318
274.32	51.963
274.69	50.905
275.06	54.911
275.43	53.288
275.80	49.448
276.17	53.103
276.54	47.966
276.91	52.851
277.28	50.437
277.65	50.413
278.02	51.064
278.39	52.298
278.76	51.363
279.13	50.000
279.50	51.471
279.87	51.836
280.23	49.677
280.60	50.292
280.97	49.495
281.34	48.654
281.71	51.540
282.08	52.556
282.45	50.489
282.82	48.456
283.19	51.644
283.56	49.711
283.92	52.372
284.29	48.462
284.66	49.225
285.03	49.509
285.40	48.771
285.77	48.155
286.14	48.014
286.51	51.845
286.87	47.715
287.24	49.355
287.61	50.088
287.98	46.491
288.35	46.794
288.72	47.110
289.08	44.792
289.45	46.573
289.82	45.979
290.19	46.075
290.56	45.283
290.93	44.613
291.29	43.606
291.66	43.465
292.03	43.700
292.40	44.194
292.77	41.627
293.13	40.422
293.50	39.150
293.87	41.069
294.24	42.813
294.60	41.282
294.97	41.667
295.34	41.718
295.71	40.089
296.08	39.163
296.44	38.834
296.81	36.806
297.18	39.565
297.55	38.753
297.91	39.178
298.28	39.182
298.65	36.228
299.02	36.658
299.38	37.756
299.75	37.517
300.12	37.958
300.48	37.418
300.85	37.262
301.22	36.883
301.59	38.026
301.95	37.089
302.32	38.003
302.69	35.448
303.05	37.252
303.42	36.364
303.79	34.813
304.15	35.842
304.52	35.910
304.89	35.673
305.25	36.441
305.62	33.956
305.99	33.684
306.35	34.451
306.72	33.858
307.09	35.576
307.45	35.821
307.82	34.375
308.19	36.469
308.55	35.005
308.92	35.948
309.29	36.760
309.65	34.769
310.02	34.653
310.38	34.248
310.75	36.393
311.12	34.015
311.48	34.358
311.85	35.393
312.22	34.494
312.58	35.456
312.95	33.511
313.31	35.818
313.68	34.555
314.05	35.816
314.41	35.258
314.78	35.052
315.14	36.074
315.51	36.542
315.87	35.451
316.24	36.400
316.61	34.646
316.97	34.226
317.34	35.645
317.70	35.373
318.07	35.192
318.43	36.667
318.80	34.943
319.16	37.598
319.53	36.182
319.89	35.531
320.26	36.235
320.62	36.610
320.99	35.177
321.35	36.280
321.72	35.826
322.08	34.542
322.45	37.360
322.81	37.525
323.18	37.782
323.54	35.714
323.91	38.072
324.27	38.086
324.64	37.172
325.00	37.135
325.37	39.578
325.73	38.531
326.10	38.874
326.46	39.372
326.83	39.545
327.19	39.669
327.56	40.487
327.92	43.134
328.29	40.357
328.65	42.075
329.01	42.004
329.38	41.843
329.74	43.532
330.11	43.652
330.47	41.744
330.84	43.750
331.20	44.392
331.56	41.852
331.93	43.836
332.29	44.638
332.66	43.620
333.02	42.937
333.38	43.446
333.75	45.055
334.11	44.315
334.48	43.427
334.84	44.597
335.20	44.282
335.57	44.515
335.93	44.986
336.29	44.659
336.66	45.050
337.02	43.866
337.38	43.426
337.75	45.091
338.11	45.537
338.47	44.799
338.84	45.102
339.20	45.521
339.56	46.055
339.93	44.763
340.29	44.679
340.65	46.416
341.02	44.681
341.38	44.602
341.74	45.848
342.11	44.281
342.47	45.996
342.83	46.713
343.20	44.164
343.56	45.739
343.92	45.527
344.28	46.541
344.65	44.214
345.01	44.944
345.37	45.837
345.73	45.607
346.10	47.541
346.46	45.753
346.82	44.926
347.19	44.555
347.55	45.865
347.91	45.955
348.27	44.705
348.63	46.508
349.00	46.267
349.36	45.553
349.72	46.103
350.08	45.984
350.45	46.449
350.81	45.432
351.17	45.847
351.53	46.939
351.89	47.564
352.26	45.840
352.62	46.855
352.98	45.060
353.34	46.055
353.70	46.359
354.07	45.806
354.43	46.437
354.79	47.481
355.15	47.857
355.51	48.655
355.87	45.793
356.24	46.330
356.60	46.807
356.96	46.905
357.32	46.725
357.68	45.113
358.04	47.011
358.40	46.141
358.77	47.767
359.13	47.638
359.49	46.610
359.85	46.568
360.21	47.528
360.57	46.442
360.93	46.747
361.29	46.903
361.66	47.727
362.02	47.045
362.38	47.906
362.74	48.145
363.10	47.705
363.46	46.924
363.82	48.310
364.18	47.159
364.54	47.574
364.90	47.097
365.26	47.598
365.62	49.270
365.98	48.900
366.35	48.143
366.71	49.372
367.07	47.968
367.43	49.101
367.79	48.693
368.15	48.313
368.51	50.328
368.87	47.810
369.23	49.386
369.59	49.344
369.95	49.340
370.31	51.084
370.67	49.104
371.03	48.245
371.39	50.036
371.75	49.011
372.11	49.215
372.47	50.370
372.83	50.674
373.19	49.215
373.55	49.097
373.91	49.316
374.27	50.532
374.63	50.610
374.99	49.645
375.35	50.766
375.71	50.140
376.07	50.983
376.42	51.361
376.78	51.879
377.14	49.289
377.50	50.000
377.86	50.937
378.22	50.032
378.58	51.346
378.94	51.481
379.30	51.341
379.66	52.790
380.02	51.625
380.38	51.309
380.74	51.346
381.09	51.779
381.45	51.560
381.81	51.943
382.17	52.411
382.53	52.092
382.89	53.861
383.25	53.205
383.61	53.049
383.97	52.571
384.32	51.782
384.68	53.003
385.04	52.757
385.40	53.080
385.76	55.535
386.12	54.592
386.48	55.236
386.83	54.027
387.19	54.151
387.55	54.956
387.91	54.462
388.27	53.663
388.62	55.947
388.98	54.635
389.34	55.715
389.70	55.252
390.06	52.989
390.42	54.858
390.77	56.704
391.13	53.783
391.49	56.468
391.85	56.075
392.20	55.179
392.56	56.453
392.92	55.255
393.28	56.132
393.64	56.396
393.99	57.116
394.35	56.420
394.71	56.833
395.07	55.625
395.42	56.406
395.78	57.720
396.14	55.990
396.50	56.627
396.85	56.407
397.21	56.454
397.57	55.611
397.92	56.441
398.28	57.011
398.64	56.084
399.00	56.264
399.35	55.530
399.71	56.002
400.07	56.409
400.42	56.181
400.78	57.563
401.14	56.443
401.49	57.772
401.85	55.515
402.21	56.506
402.57	56.562
402.92	56.148
403.28	57.644
403.63	57.818
403.99	56.505
404.35	58.588
404.70	55.536
405.06	56.228
405.42	56.308
405.77	56.188
406.13	55.704
406.49	56.720
406.84	58.130
407.20	57.797
407.55	56.343
407.91	55.749
408.27	56.979
408.62	56.985
408.98	56.069
409.34	56.506
409.69	56.266
410.05	56.096
410.40	57.284
410.76	55.609
411.11	57.125
411.47	56.082
411.83	54.112
412.18	57.658
412.54	55.743
412.89	55.973
413.25	56.859
413.60	56.522
413.96	56.012
414.31	55.366
414.67	56.062
415.03	56.258
415.38	56.332
415.74	56.352
416.09	57.348
416.45	56.718
416.80	55.321
417.16	56.768
417.51	56.629
417.87	56.389
418.22	56.930
418.58	57.659
418.93	56.803
419.29	55.506
419.64	56.384
420.00	58.501
420.35	56.478
420.71	57.898
421.06	56.599
421.42	56.851
421.77	57.630
422.12	57.378
422.48	57.445
422.83	55.800
423.19	56.998
423.54	57.084
423.90	55.948
424.25	57.118
424.61	57.589
424.96	56.562
425.31	58.521
425.67	56.925
426.02	57.420
426.38	58.046
426.73	57.567
427.09	57.468
427.44	56.824
427.79	57.101
428.15	56.432
428.50	56.935
428.85	55.958
429.21	57.329
429.56	58.329
429.92	56.549
430.27	56.241
430.62	57.344
430.98	57.484
431.33	58.149
431.68	55.730
432.04	57.127
432.39	55.904
432.74	55.382
433.10	56.207
433.45	57.228
433.80	57.632
434.16	56.676
434.51	56.505
434.86	56.098
435.22	56.590
435.57	57.767
435.92	57.246
436.28	55.754
436.63	57.444
436.98	56.663
437.34	56.745
437.69	57.543
438.04	56.353
438.39	56.078
438.75	57.377
439.10	56.537
439.45	56.360
439.81	55.963
440.16	56.888
440.51	57.672
440.86	58.429
441.22	55.882
441.57	57.064
441.92	57.188
442.27	57.483
442.63	57.173
442.98	57.381
443.33	55.648
443.68	56.923
444.03	56.483
444.39	56.960
444.74	58.305
445.09	57.906
445.44	58.120
445.79	58.484
446.15	56.938
446.50	56.184
446.85	57.226
447.20	56.204
447.55	57.254
447.91	56.458
448.26	56.346
448.61	57.283
448.96	57.430
449.31	56.705
449.66	55.575
450.02	56.303
450.37	56.313
450.72	56.300
451.07	56.835
451.42	55.181
451.77	56.118
452.12	54.785
452.47	56.214
452.83	55.241
453.18	55.598
453.53	56.827
453.88	56.406
454.23	55.009
454.58	56.108
454.93	55.606
455.28	54.667
455.63	55.425
455.98	56.344
456.34	56.130
456.69	55.273
457.04	55.514
457.39	54.982
457.74	56.288
458.09	55.268
458.44	54.827
458.79	54.566
459.14	55.320
459.49	56.060
459.84	55.838
460.19	55.704
460.54	56.357
460.89	55.284
461.24	55.839
461.59	54.988
461.94	54.151
462.29	55.187
462.64	56.013
462.99	54.164
463.34	53.547
463.69	54.183
464.04	55.266
464.39	55.124
464.74	55.399
465.09	55.833
465.44	55.107
465.79	54.422
466.14	55.758
466.49	55.147
466.84	55.919
467.19	54.756
467.54	53.001
467.89	52.937
468.24	53.406
468.59	54.476
468.94	52.698
469.29	54.623
469.64	54.272
469.99	56.132
470.34	52.628
470.68	53.318
471.03	52.937
471.38	53.281
471.73	53.852
472.08	53.121
472.43	54.027
472.78	52.776
473.13	54.218
473.48	53.355
473.83	53.487
474.17	54.793
474.52	53.797
474.87	54.182
475.22	54.240
475.57	52.682
475.92	53.538
476.27	52.969
476.61	54.572
476.96	52.091
477.31	53.164
477.66	52.416
478.01	52.611
478.36	52.832
478.70	54.214
479.05	54.011
479.40	53.047
479.75	52.503
480.10	52.432
480.45	52.850
480.79	54.733
481.14	54.559
481.49	52.266
481.84	53.909
482.19	53.227
482.53	53.477
482.88	52.506
483.23	52.207
483.58	53.396
483.92	51.694
484.27	51.276
484.62	52.801
484.97	52.239
485.31	53.215
485.66	54.541
486.01	56.688
486.36	56.735
486.70	56.577
487.05	55.394
487.40	54.809
487.75	53.268
488.09	53.121
488.44	52.476
488.79	51.662
489.13	51.963
489.48	51.047
489.83	51.614
490.17	51.955
490.52	51.686
490.87	50.393
491.22	51.528
491.56	51.423
491.91	50.526
492.26	51.434
492.60	51.583
492.95	52.287
493.30	51.197
493.64	52.308
493.99	50.725
494.34	51.262
494.68	50.381
495.03	50.073
495.37	50.491
495.72	50.984
496.07	50.732
496.41	50.660
496.76	50.898
497.11	50.070
497.45	51.122
497.80	51.917
498.14	50.174
498.49	50.584
498.84	50.000
499.18	50.753
499.53	50.496
499.87	50.292
500.22	50.346
500.56	49.622
500.91	51.155
501.26	50.173
501.60	51.008
501.95	50.218
502.29	51.525
502.64	50.676
502.98	51.554
503.33	50.192
503.67	50.699
504.02	50.880
504.36	51.460
504.71	49.596
505.06	49.270
505.40	49.746
505.75	51.237
506.09	50.025
506.44	51.078
506.78	51.582
507.13	50.517
507.47	48.721
507.82	50.267
508.16	49.815
508.51	50.367
508.85	49.608
509.19	49.494
509.54	49.169
509.88	49.137
510.23	49.489
510.57	49.973
510.92	47.868
511.26	49.591
511.61	49.230
511.95	49.863
512.30	48.559
512.64	49.026
512.98	48.568
513.33	47.957
513.67	48.209
514.02	49.314
514.36	48.914
514.70	50.117
515.05	49.589
515.39	49.646
515.74	49.461
516.08	49.253
516.42	49.647
516.77	49.444
517.11	48.724
517.46	49.192
517.80	49.404
518.14	48.928
518.49	48.858
518.83	49.575
519.17	48.272
519.52	47.188
519.86	47.899
520.20	49.210
520.55	47.405
520.89	47.302
521.23	48.448
521.58	48.454
521.92	48.718
522.26	47.430
522.61	47.078
522.95	49.536
523.29	48.094
523.64	47.522
523.98	48.088
524.32	47.229
524.66	48.528
525.01	48.117
525.35	47.116
525.69	48.687
526.04	47.354
526.38	48.768
526.72	47.024
527.06	47.536
527.41	49.538
527.75	48.324
528.09	47.375
528.43	49.494
528.78	48.713
529.12	48.258
529.46	48.668
529.80	48.005
530.15	48.185
530.49	47.677
530.83	48.016
531.17	47.750
531.51	48.632
531.86	47.655
532.20	48.156
532.54	48.128
532.88	48.597
533.22	47.917
533.57	48.231
533.91	49.282
534.25	50.260
534.59	48.942
534.93	48.584
535.27	47.335
535.62	48.477
535.96	47.750
536.30	48.087
536.64	48.312
536.98	47.944
537.32	49.075
537.66	48.177
538.01	48.252
538.35	48.266
538.69	48.069
539.03	47.984
539.37	49.260
539.71	48.943
540.05	48.405
540.39	48.823
540.73	48.954
541.07	48.688
541.42	47.312
541.76	48.520
542.10	48.314
542.44	48.367
542.78	47.213
543.12	47.390
543.46	49.026
543.80	47.814
544.14	47.597
544.48	49.434
544.82	49.146
545.16	50.342
545.50	48.465
545.84	48.938
546.18	48.511
546.52	48.306
546.86	48.382
547.20	48.784
547.54	47.350
547.88	46.467
548.22	48.126
548.56	47.559
548.90	50.404
549.24	46.901
549.58	47.109
549.92	46.962
550.26	46.813
550.60	47.212
550.94	47.946
551.28	46.986
551.62	48.308
551.96	47.895
552.30	47.880
552.64	47.743
552.98	47.046
553.32	47.361
553.66	46.734
554.00	48.686
554.34	46.824
554.68	46.313
555.02	47.098
555.36	46.821
555.69	47.473
556.03	47.038
556.37	47.046
556.71	47.004
557.05	47.651
557.39	46.691
557.73	47.376
558.07	46.682
558.41	46.784
558.75	45.908
559.08	46.020
559.42	46.429
559.76	48.279
560.10	45.795
560.44	46.761
560.78	46.434
561.12	48.590
561.45	48.559
561.79	47.969
562.13	46.984
562.47	47.338
562.81	46.326
563.15	47.391
563.48	46.535
563.82	47.769
564.16	46.936
564.50	46.959
564.84	47.992
565.17	46.814
565.51	48.156
565.85	48.217
566.19	46.950
566.52	48.928
566.86	48.586
567.20	47.945
567.54	50.122
567.88	50.615
568.21	51.527
568.55	50.707
568.89	50.103
569.23	50.794
569.56	50.832
569.90	52.862
570.24	51.917
570.57	51.964
570.91	52.597
571.25	51.957
571.59	52.445
571.92	51.319
572.26	51.721
572.60	51.163
572.93	50.988
573.27	50.564
573.61	52.387
573.95	52.758
574.28	52.198
574.62	51.767
574.96	51.957
575.29	52.145
575.63	50.894
575.97	51.098
576.30	51.588
576.64	51.788
576.98	52.175
577.31	52.494
577.65	52.615
577.98	53.445
578.32	52.868
578.66	51.752
578.99	51.614
579.33	50.637
579.67	50.971
580.00	51.468
580.34	51.791
580.67	51.583
581.01	51.897
581.35	52.196
581.68	52.962
582.02	52.890
582.35	52.925
582.69	53.019
583.02	52.232
583.36	51.833
583.70	51.558
584.03	51.821
584.37	52.033
584.70	50.632
585.04	50.907
585.37	51.376
585.71	52.135
586.04	51.261
586.38	51.000
586.72	51.277
587.05	52.080
587.39	51.747
587.72	52.870
588.06	51.647
588.39	51.324
588.73	51.129
589.06	51.207
589.40	49.983
589.73	50.821
590.07	50.869
590.40	50.580
590.73	50.906
591.07	49.576
591.40	49.599
591.74	50.090
592.07	50.371
592.41	50.663
592.74	50.219
593.08	50.157
593.41	50.544
593.75	50.474
594.08	49.296
594.41	50.000
594.75	50.038
595.08	50.132
595.42	51.049
595.75	51.145
596.09	50.039
596.42	49.483
596.75	49.689
597.09	48.747
597.42	49.864
597.75	50.389
598.09	47.986
598.42	48.511
598.76	48.949
599.09	49.599
599.42	48.768
599.76	49.699
600.09	48.906
600.42	48.446
600.76	49.220
601.09	49.351
601.42	48.923
601.76	49.940
602.09	49.505
602.42	50.295
602.76	49.024
603.09	49.377
603.42	51.338
603.76	49.153
604.09	49.332
604.42	48.816
604.76	49.488
605.09	49.132
605.42	47.810
605.75	49.168
606.09	48.960
606.42	47.998
606.75	49.048
607.09	48.264
607.42	48.117
607.75	48.268
608.08	47.844
608.42	48.013
608.75	49.157
609.08	48.381
609.41	48.782
609.75	48.891
610.08	48.128
610.41	48.116
610.74	48.464
611.07	48.475
611.41	48.313
611.74	48.561
612.07	47.645
612.40	48.578
612.73	47.345
613.07	47.188
613.40	48.359
613.73	47.062
614.06	46.800
614.39	47.377
614.72	46.667
615.06	47.654
615.39	47.544
615.72	46.286
616.05	48.212
616.38	45.926
616.71	47.401
617.05	47.560
617.38	47.329
617.71	47.044
618.04	48.317
618.37	46.847
618.70	46.931
619.03	46.389
619.36	44.863
619.69	47.081
620.03	47.772
620.36	46.495
620.69	45.253
621.02	46.024
621.35	46.058
621.68	46.259
622.01	46.000
622.34	45.730
622.67	44.874
623.00	45.865
623.33	45.960
623.66	44.428
623.99	45.764
624.32	46.312
624.65	45.489
624.99	45.071
625.32	45.262
625.65	46.033
625.98	44.803
626.31	43.059
626.64	44.367
626.97	43.630
627.30	44.571
627.63	43.588
627.96	44.205
628.29	41.443
628.62	43.854
628.95	43.587
629.28	44.153
629.61	42.971
629.94	43.304
630.26	42.787
630.59	44.433
630.92	42.462
631.25	41.641
631.58	42.401
631.91	41.118
632.24	42.775
632.57	43.295
632.90	41.163
633.23	41.647
633.56	42.695
