SpectraSuite Data File
++++++++++++++++++++++++++++++++++++
Date: Fri May 15 17:12:40 PDT 2015
User: schluterlab
Dark Spectrum Present: Yes
Reference Spectrum Present: Yes
Number of Sampled Component Spectra: 1
Spectrometers: USB2E3373
Integration Time (usec): 3000 (USB2E3373)
Spectra Averaged: 3 (USB2E3373)
Boxcar Smoothing: 0 (USB2E3373)
Correct for Electrical Dark: No (USB2E3373)
Strobe/Lamp Enabled: No (USB2E3373)
Correct for Detector Non-linearity: No (USB2E3373)
Correct for Stray Light: No (USB2E3373)
Number of Pixels in Processed Spectrum: 2048
>>>>>Begin Processed Spectral Data<<<<<
178.53	0.000
178.91	0.000
179.29	112.500
179.67	-50.000
180.04	14.286
180.42	200.000
180.80	600.000
181.18	300.000
181.56	-350.000
181.94	50.000
182.31	500.000
182.69	80.000
183.07	33.333
183.45	40.000
183.83	166.667
184.20	36.364
184.58	111.111
184.96	-50.000
185.34	-100.000
185.72	100.000
186.09	92.308
186.47	-400.000
186.85	33.333
187.23	166.667
187.61	-600.000
187.98	-66.667
188.36	-11.111
188.74	233.333
189.12	64.706
189.49	38.889
189.87	0.000
190.25	64.286
190.63	50.000
191.00	-300.000
191.38	-21.053
191.76	650.000
192.14	150.000
192.51	600.000
192.89	11.111
193.27	42.857
193.65	166.667
194.02	63.636
194.40	40.000
194.78	-100.000
195.15	16.667
195.53	-100.000
195.91	100.000
196.29	-50.000
196.66	69.231
197.04	114.286
197.42	200.000
197.79	-233.333
198.17	-53.846
198.55	400.000
198.92	0.000
199.30	400.000
199.68	60.000
200.05	133.333
200.43	0.000
200.81	-133.333
201.18	133.333
201.56	1700.000
201.94	50.000
202.31	-300.000
202.69	-60.000
203.07	-100.000
203.44	700.000
203.82	0.000
204.19	28.571
204.57	0.000
204.95	150.000
205.32	50.000
205.70	57.143
206.08	-225.000
206.45	244.444
206.83	100.000
207.20	-128.571
207.58	100.000
207.96	33.333
208.33	-60.000
208.71	225.000
209.08	-216.667
209.46	100.000
209.84	0.000
210.21	300.000
210.59	-114.286
210.96	100.000
211.34	-75.000
211.71	100.000
212.09	28.571
212.46	-1700.000
212.84	0.000
213.22	90.000
213.59	200.000
213.97	46.154
214.34	9.091
214.72	16.667
215.09	425.000
215.47	53.846
215.84	-36.364
216.22	-66.667
216.59	12.500
216.97	550.000
217.34	-125.000
217.72	-180.000
218.09	100.000
218.47	112.500
218.84	300.000
219.22	-44.444
219.59	-20.000
219.97	266.667
220.34	200.000
220.72	-57.143
221.09	75.000
221.47	300.000
221.84	-300.000
222.22	-850.000
222.59	-9.091
222.97	58.333
223.34	-166.667
223.72	0.000
224.09	38.095
224.46	28.571
224.84	266.667
225.21	30.000
225.59	60.000
225.96	150.000
226.34	150.000
226.71	71.429
227.08	250.000
227.46	12.500
227.83	-250.000
228.21	-77.778
228.58	72.727
228.95	25.000
229.33	-40.000
229.70	68.750
230.08	25.000
230.45	0.000
230.82	57.143
231.20	33.333
231.57	85.714
231.95	185.714
232.32	-130.000
232.69	92.857
233.07	366.667
233.44	120.000
233.81	0.000
234.19	55.556
234.56	-29.412
234.93	-250.000
235.31	100.000
235.68	-80.000
236.05	0.000
236.43	-25.000
236.80	-17.647
237.17	46.875
237.55	50.000
237.92	44.444
238.29	13.889
238.67	46.667
239.04	8.824
239.41	-21.951
239.79	13.333
240.16	19.512
240.53	39.474
240.91	26.087
241.28	19.048
241.65	32.143
242.02	20.548
242.40	20.000
242.77	23.729
243.14	28.788
243.51	13.750
243.89	34.483
244.26	8.046
244.63	22.619
245.00	16.495
245.38	29.897
245.75	7.865
246.12	17.241
246.49	23.140
246.87	27.885
247.24	10.084
247.61	22.807
247.98	18.699
248.36	18.750
248.73	18.421
249.10	20.130
249.47	20.886
249.84	23.529
250.22	22.353
250.59	25.490
250.96	23.005
251.33	16.279
251.70	16.471
252.08	18.782
252.45	19.307
252.82	22.111
253.19	23.502
253.56	16.822
253.94	25.676
254.31	23.043
254.68	23.684
255.05	20.079
255.42	22.707
255.79	23.552
256.16	22.957
256.54	25.000
256.91	19.772
257.28	21.933
257.65	24.345
258.02	17.730
258.39	21.549
258.76	24.176
259.14	24.585
259.51	20.065
259.88	21.649
260.25	19.935
260.62	24.306
260.99	21.356
261.36	15.753
261.73	19.937
262.10	23.100
262.47	21.472
262.85	21.003
263.22	24.308
263.59	20.249
263.96	23.602
264.33	23.939
264.70	23.214
265.07	21.429
265.44	24.079
265.81	22.034
266.18	18.579
266.55	22.879
266.92	21.503
267.29	21.410
267.66	21.995
268.03	23.560
268.40	21.149
268.77	22.727
269.14	21.103
269.51	22.622
269.88	21.197
270.25	20.918
270.62	19.512
270.99	20.205
271.36	19.804
271.73	21.596
272.10	21.655
272.47	21.986
272.84	23.267
273.21	21.578
273.58	22.651
273.95	19.908
274.32	17.321
274.69	17.421
275.06	21.205
275.43	20.181
275.80	22.517
276.17	21.609
276.54	20.985
276.91	21.711
277.28	20.742
277.65	20.661
278.02	19.787
278.39	20.131
278.76	22.222
279.13	16.805
279.50	22.269
279.87	17.711
280.23	19.140
280.60	22.807
280.97	20.404
281.34	17.500
281.71	20.123
282.08	19.223
282.45	18.591
282.82	19.498
283.19	19.342
283.56	21.580
283.92	18.027
284.29	20.577
284.66	18.411
285.03	18.468
285.40	20.038
285.77	16.872
286.14	16.968
286.51	20.664
286.87	17.916
287.24	18.969
287.61	18.166
287.98	21.053
288.35	19.757
288.72	19.790
289.08	17.188
289.45	17.047
289.82	19.056
290.19	17.065
290.56	16.638
290.93	16.667
291.29	16.025
291.66	17.480
292.03	15.789
292.40	16.935
292.77	18.660
293.13	16.396
293.50	14.568
293.87	16.183
294.24	13.601
294.60	15.052
294.97	16.071
295.34	15.644
295.71	14.456
296.08	14.200
296.44	12.802
296.81	14.861
297.18	14.928
297.55	15.989
297.91	15.479
298.28	15.172
298.65	13.297
299.02	12.938
299.38	10.807
299.75	14.207
300.12	14.660
300.48	13.702
300.85	14.322
301.22	13.377
301.59	13.158
301.95	14.557
302.32	15.305
302.69	13.682
303.05	14.480
303.42	13.823
303.79	13.201
304.15	13.620
304.52	12.485
304.89	14.386
305.25	12.591
305.62	12.019
305.99	13.333
306.35	13.179
306.72	12.598
307.09	13.227
307.45	12.055
307.82	13.194
308.19	13.008
308.55	13.086
308.92	14.270
309.29	12.514
309.65	12.702
310.02	12.981
310.38	12.733
310.75	11.803
311.12	12.271
311.48	11.983
311.85	12.880
312.22	12.342
312.58	12.314
312.95	11.526
313.31	12.112
313.68	13.089
314.05	12.857
314.41	13.299
314.78	12.062
315.14	13.772
315.51	12.940
315.87	11.270
316.24	13.448
316.61	12.303
316.97	13.194
317.34	12.012
317.70	12.237
318.07	12.308
318.43	12.647
318.80	12.121
319.16	11.523
319.53	13.675
319.89	13.189
320.26	12.348
320.62	13.741
320.99	12.004
321.35	12.127
321.72	13.396
322.08	12.185
322.45	12.690
322.81	12.574
323.18	11.776
323.54	10.811
323.91	12.658
324.27	12.207
324.64	13.015
325.00	12.956
325.37	12.580
325.73	12.058
326.10	12.352
326.46	13.274
326.83	12.598
327.19	12.816
327.56	12.076
327.92	12.852
328.29	11.339
328.65	12.453
329.01	13.051
329.38	12.166
329.74	11.804
330.11	12.604
330.47	12.894
330.84	11.731
331.20	13.023
331.56	12.222
331.93	13.242
332.29	12.832
332.66	12.127
333.02	11.803
333.38	12.099
333.75	13.187
334.11	11.817
334.48	12.421
334.84	12.454
335.20	12.809
335.57	12.330
335.93	13.008
336.29	11.971
336.66	10.899
337.02	12.175
337.38	12.315
337.75	12.091
338.11	11.903
338.47	12.774
338.84	12.847
339.20	13.437
339.56	12.294
339.93	12.802
340.29	12.844
340.65	12.545
341.02	11.170
341.38	12.920
341.74	11.131
342.11	11.438
342.47	12.189
342.83	12.457
343.20	11.498
343.56	12.435
343.92	11.957
344.28	12.126
344.65	12.608
345.01	11.841
345.37	12.447
345.73	12.720
346.10	12.597
346.46	11.354
346.82	12.111
347.19	11.305
347.55	12.030
347.91	12.136
348.27	11.237
348.63	12.266
349.00	11.485
349.36	11.554
349.72	12.272
350.08	11.311
350.45	11.572
350.81	11.213
351.17	11.319
351.53	12.163
351.89	11.478
352.26	11.280
352.62	11.048
352.98	11.647
353.34	11.192
353.70	12.460
354.07	11.774
354.43	11.930
354.79	11.726
355.15	12.460
355.51	11.234
355.87	11.489
356.24	9.706
356.60	11.318
356.96	11.905
357.32	11.581
357.68	10.946
358.04	12.036
358.40	11.013
358.77	11.962
359.13	11.209
359.49	11.479
359.85	10.998
360.21	11.802
360.57	12.089
360.93	11.573
361.29	10.423
361.66	11.599
362.02	11.818
362.38	11.957
362.74	10.371
363.10	11.136
363.46	11.342
363.82	12.021
364.18	10.332
364.54	11.471
364.90	9.964
365.26	11.572
365.62	12.774
365.98	10.337
366.35	12.236
366.71	11.530
367.07	12.046
367.43	10.137
367.79	12.014
368.15	10.696
368.51	10.779
368.87	9.978
369.23	10.758
369.59	11.443
369.95	11.510
370.31	11.127
370.67	10.672
371.03	10.007
371.39	10.357
371.75	10.842
372.11	10.628
372.47	11.317
372.83	11.356
373.19	11.626
373.55	9.964
373.91	11.663
374.27	11.127
374.63	11.917
374.99	10.638
375.35	11.281
375.71	11.399
376.07	10.463
376.42	12.449
376.78	11.409
377.14	10.697
377.50	10.757
377.86	11.044
378.22	10.274
378.58	11.346
378.94	10.838
379.30	10.730
379.66	11.348
380.02	11.343
380.38	10.347
380.74	10.293
381.09	11.472
381.45	10.459
381.81	10.734
382.17	10.850
382.53	10.868
382.89	10.797
383.25	11.388
383.61	12.195
383.97	10.921
384.32	10.381
384.68	11.641
385.04	10.784
385.40	10.205
385.76	11.509
386.12	12.678
386.48	11.941
386.83	11.921
387.19	11.477
387.55	11.794
387.91	10.391
388.27	10.562
388.62	11.076
388.98	11.786
389.34	11.243
389.70	11.746
390.06	11.139
390.42	10.751
390.77	11.642
391.13	10.782
391.49	12.031
391.85	11.176
392.20	11.613
392.56	11.380
392.92	11.392
393.28	11.203
393.64	11.111
393.99	11.912
394.35	11.448
394.71	11.941
395.07	12.131
395.42	11.475
395.78	11.010
396.14	12.295
396.50	11.604
396.85	11.848
397.21	11.779
397.57	11.536
397.92	12.043
398.28	10.977
398.64	11.627
399.00	11.569
399.35	11.061
399.71	11.258
400.07	11.790
400.42	11.628
400.78	12.064
401.14	11.615
401.49	11.554
401.85	12.005
402.21	11.928
402.57	11.938
402.92	11.794
403.28	12.218
403.63	12.169
403.99	11.798
404.35	12.367
404.70	11.667
405.06	11.633
405.42	11.933
405.77	11.040
406.13	11.234
406.49	11.604
406.84	12.286
407.20	12.101
407.55	11.526
407.91	11.163
408.27	11.727
408.62	12.369
408.98	11.583
409.34	12.454
409.69	11.047
410.05	11.823
410.40	11.235
410.76	11.821
411.11	12.562
411.47	11.834
411.83	11.048
412.18	12.420
412.54	12.297
412.89	11.946
413.25	11.853
413.60	12.174
413.96	11.411
414.31	12.744
414.67	11.995
415.03	12.517
415.38	11.488
415.74	12.443
416.09	12.476
416.45	11.344
416.80	12.293
417.16	11.809
417.51	13.125
417.87	12.256
418.22	12.241
418.58	12.575
418.93	12.476
419.29	11.140
419.64	11.666
420.00	13.665
420.35	12.358
420.71	12.880
421.06	12.462
421.42	12.380
421.77	12.370
422.12	12.145
422.48	12.398
422.83	12.413
423.19	11.738
423.54	11.699
423.90	12.191
424.25	12.859
424.61	13.035
424.96	12.195
425.31	12.825
425.67	12.265
426.02	13.251
426.38	12.461
426.73	12.772
427.09	13.101
427.44	13.000
427.79	12.669
428.15	13.228
428.50	13.265
428.85	11.916
429.21	13.299
429.56	13.423
429.92	12.994
430.27	13.033
430.62	12.337
430.98	11.624
431.33	13.197
431.68	12.297
432.04	12.633
432.39	12.379
432.74	12.387
433.10	12.529
433.45	13.082
433.80	12.478
434.16	11.967
434.51	13.280
434.86	13.705
435.22	13.236
435.57	13.288
435.92	13.473
436.28	13.655
436.63	13.349
436.98	12.978
437.34	13.007
437.69	13.894
438.04	13.105
438.39	12.584
438.75	13.843
439.10	14.035
439.45	13.268
439.81	13.272
440.16	13.658
440.51	13.672
440.86	14.199
441.22	12.783
441.57	13.024
441.92	14.113
442.27	13.525
442.63	14.454
442.98	13.555
443.33	13.300
443.68	12.997
444.03	13.711
444.39	14.412
444.74	13.880
445.09	14.143
445.44	13.903
445.79	15.266
446.15	13.767
446.50	13.089
446.85	14.081
447.20	14.234
447.55	14.955
447.91	14.721
448.26	14.286
448.61	14.393
448.96	14.573
449.31	13.873
449.66	14.111
450.02	13.577
450.37	14.878
450.72	14.147
451.07	14.304
451.42	14.295
451.77	15.371
452.12	13.935
452.47	13.973
452.83	15.077
453.18	14.738
453.53	14.412
453.88	15.968
454.23	14.198
454.58	14.673
454.93	15.399
455.28	13.905
455.63	15.313
455.98	15.093
456.34	14.176
456.69	15.121
457.04	15.753
457.39	14.642
457.74	14.571
458.09	15.127
458.44	14.628
458.79	14.622
459.14	14.931
459.49	15.045
459.84	15.228
460.19	14.684
460.54	15.587
460.89	15.625
461.24	14.969
461.59	15.083
461.94	14.591
462.29	15.923
462.64	15.615
462.99	15.911
463.34	14.604
463.69	14.672
464.04	15.254
464.39	15.343
464.74	15.215
465.09	15.970
465.44	15.868
465.79	14.796
466.14	15.735
466.49	14.779
466.84	15.526
467.19	15.895
467.54	15.390
467.89	14.972
468.24	14.842
468.59	16.317
468.94	14.857
469.29	15.934
469.64	15.926
469.99	15.627
470.34	15.085
470.68	15.585
471.03	15.570
471.38	16.476
471.73	15.826
472.08	15.536
472.43	15.705
472.78	14.873
473.13	16.599
473.48	15.765
473.83	15.131
474.17	16.904
474.52	15.252
474.87	16.364
475.22	15.680
475.57	14.625
475.92	16.018
476.27	16.007
476.61	16.435
476.96	15.449
477.31	16.495
477.66	15.674
478.01	15.385
478.36	15.959
478.70	15.987
479.05	16.209
479.40	16.587
479.75	15.433
480.10	15.719
480.45	16.050
480.79	15.660
481.14	15.779
481.49	15.320
481.84	15.492
482.19	15.295
482.53	15.540
482.88	16.181
483.23	15.835
483.58	16.274
483.92	16.118
484.27	15.406
484.62	15.912
484.97	15.796
485.31	15.390
485.66	14.562
486.01	14.535
486.36	14.038
486.70	14.234
487.05	14.273
487.40	14.840
487.75	14.789
488.09	14.957
488.44	15.268
488.79	14.979
489.13	15.665
489.48	16.075
489.83	15.381
490.17	15.865
490.52	15.982
490.87	16.242
491.22	16.141
491.56	16.698
491.91	15.774
492.26	16.772
492.60	16.795
492.95	17.659
493.30	16.072
493.64	16.503
493.99	16.618
494.34	15.922
494.68	16.286
495.03	15.961
495.37	15.947
495.72	16.456
496.07	16.878
496.41	16.792
496.76	16.859
497.11	15.603
497.45	16.897
497.80	17.356
498.14	17.288
498.49	16.607
498.84	16.517
499.18	16.616
499.53	16.766
499.87	16.099
500.22	16.617
500.56	16.843
500.91	16.968
501.26	16.214
501.60	16.429
501.95	16.642
502.29	16.513
502.64	17.085
502.98	16.724
503.33	15.610
503.67	16.627
504.02	17.107
504.36	17.170
504.71	16.414
505.06	16.709
505.40	16.904
505.75	16.907
506.09	16.523
506.44	16.684
506.78	16.939
507.13	17.218
507.47	16.658
507.82	16.774
508.16	16.799
508.51	17.209
508.85	16.431
509.19	16.232
509.54	17.265
509.88	17.152
510.23	16.729
510.57	17.531
510.92	16.525
511.26	16.967
511.61	18.317
511.95	16.822
512.30	18.625
512.64	18.141
512.98	17.518
513.33	18.187
513.67	17.453
514.02	18.078
514.36	18.229
514.70	18.182
515.05	18.155
515.39	17.532
515.74	19.341
516.08	18.051
516.42	18.257
516.77	18.256
517.11	17.389
517.46	18.671
517.80	18.176
518.14	18.004
518.49	17.788
518.83	17.983
519.17	18.253
519.52	17.407
519.86	18.247
520.20	18.530
520.55	17.386
520.89	19.636
521.23	18.176
521.58	18.927
521.92	18.974
522.26	17.502
522.61	18.377
522.95	20.000
523.29	17.535
523.64	19.377
523.98	19.183
524.32	18.814
524.66	18.310
525.01	18.961
525.35	18.859
525.69	19.192
526.04	17.923
526.38	19.066
526.72	18.313
527.06	18.223
527.41	18.865
527.75	18.097
528.09	19.003
528.43	19.649
528.78	17.426
529.12	19.484
529.46	18.389
529.80	18.619
530.15	19.142
530.49	19.125
530.83	18.673
531.17	17.931
531.51	18.331
531.86	19.171
532.20	18.024
532.54	19.061
532.88	19.576
533.22	18.280
533.57	18.611
533.91	18.081
534.25	19.206
534.59	17.640
534.93	17.495
535.27	17.449
535.62	18.276
535.96	18.917
536.30	18.931
536.64	18.125
536.98	17.631
537.32	20.057
537.66	20.407
538.01	18.951
538.35	17.961
538.69	19.108
539.03	18.250
539.37	18.170
539.71	18.814
540.05	19.077
540.39	19.252
540.73	18.410
541.07	18.508
541.42	18.750
541.76	19.683
542.10	18.376
542.44	17.373
542.78	17.412
543.12	17.857
543.46	18.359
543.80	18.390
544.14	17.423
544.48	18.654
544.82	18.865
545.16	18.511
545.50	18.425
545.84	18.980
546.18	18.227
546.52	19.394
546.86	19.051
547.20	18.956
547.54	19.011
547.88	18.614
548.22	18.080
548.56	16.689
548.90	18.531
549.24	18.802
549.58	19.182
549.92	18.299
550.26	18.608
550.60	18.810
550.94	20.015
551.28	19.320
551.62	19.846
551.96	19.173
552.30	18.567
552.64	18.618
552.98	18.987
553.32	18.759
553.66	17.997
554.00	18.905
554.34	19.276
554.68	18.510
555.02	19.420
555.36	19.820
555.69	18.168
556.03	19.415
556.37	18.434
556.71	18.845
557.05	19.761
557.39	18.439
557.73	20.465
558.07	19.985
558.41	17.611
558.75	19.174
559.08	18.755
559.42	19.683
559.76	19.295
560.10	19.190
560.44	18.168
560.78	17.972
561.12	18.547
561.45	19.325
561.79	19.118
562.13	18.879
562.47	17.986
562.81	19.452
563.15	19.464
563.48	19.378
563.82	19.355
564.16	19.568
564.50	18.176
564.84	19.143
565.17	18.444
565.51	19.399
565.85	18.724
566.19	18.369
566.52	19.102
566.86	19.152
567.20	18.369
567.54	18.552
567.88	17.926
568.21	18.495
568.55	16.848
568.89	17.556
569.23	17.477
569.56	16.112
569.90	16.525
570.24	16.226
570.57	15.964
570.91	16.312
571.25	15.390
571.59	15.135
571.92	15.111
572.26	15.036
572.60	15.256
572.93	15.532
573.27	15.016
573.61	15.573
573.95	15.183
574.28	14.778
574.62	14.849
574.96	14.859
575.29	14.917
575.63	14.278
575.97	15.045
576.30	14.956
576.64	14.781
576.98	14.929
577.31	14.524
577.65	14.633
577.98	14.645
578.32	14.098
578.66	14.292
578.99	14.600
579.33	14.589
579.67	14.509
580.00	14.785
580.34	14.925
580.67	14.219
581.01	14.481
581.35	14.599
581.68	14.249
582.02	13.727
582.35	13.983
582.69	14.297
583.02	13.993
583.36	14.573
583.70	14.720
584.03	14.846
584.37	15.443
584.70	15.110
585.04	14.119
585.37	14.865
585.71	14.712
586.04	14.523
586.38	15.151
586.72	15.093
587.05	14.934
587.39	15.068
587.72	15.801
588.06	15.500
588.39	15.266
588.73	15.263
589.06	15.884
589.40	15.797
589.73	16.685
590.07	16.503
590.40	16.331
590.73	16.639
591.07	16.412
591.40	16.162
591.74	16.697
592.07	16.790
592.41	16.740
592.74	16.169
593.08	15.718
593.41	15.519
593.75	15.865
594.08	15.208
594.41	15.793
594.75	15.954
595.08	16.194
595.42	16.268
595.75	16.147
596.09	16.458
596.42	16.081
596.75	16.918
597.09	17.084
597.42	16.983
597.75	16.308
598.09	16.795
598.42	16.291
598.76	16.431
599.09	16.667
599.42	15.726
599.76	16.441
600.09	16.176
600.42	16.490
600.76	15.825
601.09	16.031
601.42	15.981
601.76	15.840
602.09	16.832
602.42	16.849
602.76	16.851
603.09	16.653
603.42	16.848
603.76	15.565
604.09	15.796
604.42	16.540
604.76	16.911
605.09	16.865
605.42	16.704
605.75	16.550
606.09	16.306
606.42	16.472
606.75	16.407
607.09	16.527
607.42	16.172
607.75	16.385
608.08	16.128
608.42	16.537
608.75	17.349
609.08	17.190
609.41	17.005
609.75	17.137
610.08	17.174
610.41	16.184
610.74	17.016
611.07	16.744
611.41	17.021
611.74	17.804
612.07	17.077
612.40	17.834
612.73	17.740
613.07	17.548
613.40	16.685
613.73	17.571
614.06	17.585
614.39	17.259
614.72	17.479
615.06	17.542
615.39	17.413
615.72	16.362
616.05	17.821
616.38	16.980
616.71	17.676
617.05	17.665
617.38	17.725
617.71	18.616
618.04	18.730
618.37	19.483
618.70	19.076
619.03	19.722
619.36	18.452
619.69	19.105
620.03	19.722
620.36	19.170
620.69	19.843
621.02	20.183
621.35	20.581
621.68	20.323
622.01	19.833
622.34	20.511
622.67	19.795
623.00	19.066
623.33	20.046
623.66	19.222
623.99	19.213
624.32	19.772
624.65	19.323
624.99	19.263
625.32	18.271
625.65	20.031
625.98	20.145
626.31	19.534
626.64	20.797
626.97	20.942
627.30	21.191
627.63	20.191
627.96	21.923
628.29	20.444
628.62	21.534
628.95	22.144
629.28	21.673
629.61	20.239
629.94	21.017
630.26	20.949
630.59	22.789
630.92	21.231
631.25	20.000
631.58	21.916
631.91	20.066
632.24	20.528
632.57	22.614
632.90	23.725
633.23	23.176
633.56	21.411
633.89	21.825
634.22	23.827
