SpectraSuite Data File
++++++++++++++++++++++++++++++++++++
Date: Fri May 15 17:29:27 PDT 2015
User: schluterlab
Dark Spectrum Present: Yes
Reference Spectrum Present: Yes
Number of Sampled Component Spectra: 1
Spectrometers: USB2E3373
Integration Time (usec): 3000 (USB2E3373)
Spectra Averaged: 3 (USB2E3373)
Boxcar Smoothing: 0 (USB2E3373)
Correct for Electrical Dark: No (USB2E3373)
Strobe/Lamp Enabled: No (USB2E3373)
Correct for Detector Non-linearity: No (USB2E3373)
Correct for Stray Light: No (USB2E3373)
Number of Pixels in Processed Spectrum: 2048
>>>>>Begin Processed Spectral Data<<<<<
178.53	0.000
178.91	0.000
179.29	50.000
179.67	-300.000
180.04	-71.429
180.42	300.000
180.80	100.000
181.18	-366.667
181.56	400.000
181.94	200.000
182.31	900.000
182.69	-40.000
183.07	33.333
183.45	0.000
183.83	133.333
184.20	63.636
184.58	44.444
184.96	100.000
185.34	66.667
185.72	-150.000
186.09	23.077
186.47	-1200.000
186.85	50.000
187.23	133.333
187.61	100.000
187.98	-33.333
188.36	88.889
188.74	-200.000
189.12	47.059
189.49	22.222
189.87	0.000
190.25	35.714
190.63	-50.000
191.00	-100.000
191.38	47.368
191.76	150.000
192.14	100.000
192.51	100.000
192.89	-11.111
193.27	-71.429
193.65	33.333
194.02	90.909
194.40	30.000
194.78	-62.500
195.15	-33.333
195.53	-12.500
195.91	100.000
196.29	0.000
196.66	69.231
197.04	-14.286
197.42	188.889
197.79	-500.000
198.17	-107.692
198.55	700.000
198.92	-66.667
199.30	0.000
199.68	80.000
200.05	-33.333
200.43	0.000
200.81	133.333
201.18	-266.667
201.56	200.000
201.94	-450.000
202.31	-0.000
202.69	-140.000
203.07	-0.000
203.44	300.000
203.82	0.000
204.19	92.857
204.57	-333.333
204.95	50.000
205.32	20.000
205.70	14.286
206.08	50.000
206.45	233.333
206.83	92.857
207.20	-185.714
207.58	400.000
207.96	-66.667
208.33	-40.000
208.71	25.000
209.08	-150.000
209.46	-900.000
209.84	20.000
210.21	-2000.000
210.59	28.571
210.96	-50.000
211.34	-50.000
211.71	13.333
212.09	-71.429
212.46	-1700.000
212.84	0.000
213.22	30.000
213.59	300.000
213.97	38.462
214.34	9.091
214.72	0.000
215.09	225.000
215.47	23.077
215.84	-45.455
216.22	100.000
216.59	-37.500
216.97	400.000
217.34	100.000
217.72	-100.000
218.09	50.000
218.47	137.500
218.84	300.000
219.22	88.889
219.59	-20.000
219.97	266.667
220.34	225.000
220.72	85.714
221.09	50.000
221.47	0.000
221.84	-350.000
222.22	-650.000
222.59	72.727
222.97	75.000
223.34	-100.000
223.72	7.143
224.09	66.667
224.46	-10.714
224.84	266.667
225.21	30.000
225.59	53.333
225.96	0.000
226.34	225.000
226.71	-128.571
227.08	33.333
227.46	75.000
227.83	-350.000
228.21	-44.444
228.58	18.182
228.95	62.500
229.33	50.000
229.70	0.000
230.08	37.500
230.45	-42.857
230.82	185.714
231.20	-33.333
231.57	28.571
231.95	128.571
232.32	-20.000
232.69	28.571
233.07	233.333
233.44	40.000
233.81	60.000
234.19	111.111
234.56	52.941
234.93	-0.000
235.31	75.000
235.68	-140.000
236.05	61.538
236.43	10.000
236.80	117.647
237.17	9.375
237.55	25.000
237.92	18.519
238.29	22.222
238.67	73.333
239.04	52.941
239.41	53.659
239.79	43.333
240.16	43.902
240.53	21.053
240.91	39.130
241.28	39.683
241.65	57.143
242.02	30.137
242.40	40.000
242.77	42.373
243.14	40.909
243.51	57.500
243.89	57.471
244.26	31.034
244.63	42.857
245.00	38.144
245.38	45.361
245.75	43.820
246.12	34.483
246.49	33.884
246.87	40.385
247.24	38.655
247.61	39.474
247.98	37.398
248.36	46.875
248.73	42.105
249.10	38.312
249.47	40.506
249.84	43.791
250.22	37.059
250.59	41.830
250.96	40.376
251.33	44.186
251.70	47.647
252.08	36.548
252.45	39.604
252.82	43.719
253.19	46.083
253.56	38.785
253.94	42.793
254.31	40.000
254.68	43.860
255.05	40.157
255.42	37.991
255.79	38.996
256.16	40.078
256.54	39.925
256.91	37.262
257.28	42.379
257.65	39.700
258.02	41.135
258.39	43.098
258.76	40.659
259.14	41.528
259.51	39.806
259.88	41.924
260.25	35.948
260.62	41.667
260.99	40.678
261.36	38.699
261.73	40.190
262.10	39.818
262.47	38.344
262.85	41.693
263.22	40.923
263.59	36.449
263.96	40.994
264.33	40.909
264.70	41.071
265.07	38.690
265.44	43.059
265.81	41.243
266.18	39.344
266.55	40.103
266.92	42.487
267.29	41.775
267.66	38.363
268.03	42.670
268.40	38.903
268.77	41.979
269.14	37.650
269.51	37.789
269.88	38.404
270.25	37.500
270.62	37.073
270.99	36.317
271.36	35.208
271.73	36.620
272.10	41.606
272.47	37.352
272.84	38.861
273.21	39.907
273.58	39.518
273.95	37.071
274.32	34.642
274.69	35.973
275.06	39.509
275.43	37.642
275.80	37.748
276.17	34.253
276.54	34.690
276.91	37.281
277.28	36.245
277.65	33.264
278.02	34.681
278.39	35.230
278.76	36.059
279.13	31.535
279.50	37.395
279.87	36.069
280.23	32.043
280.60	36.062
280.97	37.172
281.34	35.000
281.71	33.881
282.08	36.196
282.45	32.681
282.82	30.502
283.19	35.590
283.56	35.645
283.92	35.294
284.29	32.692
284.66	34.109
285.03	30.452
285.40	33.648
285.77	34.271
286.14	32.491
286.51	33.948
286.87	30.896
287.24	35.359
287.61	30.511
287.98	31.754
288.35	30.676
288.72	32.049
289.08	32.292
289.45	32.513
289.82	30.245
290.19	32.082
290.56	28.473
290.93	29.798
291.29	28.351
291.66	29.291
292.03	29.984
292.40	28.065
292.77	28.389
293.13	25.000
293.50	28.376
293.87	27.328
294.24	29.057
294.60	28.465
294.97	26.935
295.34	26.840
295.71	27.273
296.08	27.205
296.44	24.893
296.81	26.250
297.18	26.812
297.55	26.829
297.91	24.932
298.28	26.781
298.65	24.830
299.02	24.798
299.38	23.529
299.75	24.000
300.12	23.429
300.48	24.374
300.85	23.954
301.22	25.455
301.59	23.289
301.95	24.304
302.32	26.329
302.69	22.139
303.05	23.515
303.42	24.284
303.79	25.117
304.15	24.373
304.52	21.998
304.89	23.860
305.25	22.276
305.62	20.653
305.99	22.222
306.35	23.237
306.72	20.922
307.09	20.753
307.45	22.158
307.82	20.486
308.19	23.345
308.55	21.374
308.92	22.440
309.29	22.011
309.65	21.744
310.02	20.572
310.38	22.942
310.75	21.530
311.12	22.174
311.48	21.421
311.85	21.675
312.22	21.203
312.58	21.338
312.95	20.277
313.31	20.393
313.68	19.581
314.05	20.204
314.41	20.515
314.78	20.206
315.14	20.555
315.51	21.118
315.87	20.287
316.24	22.548
316.61	21.063
316.97	19.246
317.34	20.020
317.70	20.554
318.07	19.712
318.43	20.980
318.80	20.549
319.16	20.508
319.53	20.038
319.89	19.587
320.26	20.243
320.62	21.163
320.99	19.207
321.35	20.658
321.72	20.249
322.08	19.738
322.45	19.289
322.81	18.861
323.18	18.646
323.54	19.305
323.91	18.987
324.27	19.629
324.64	20.599
325.00	19.982
325.37	19.651
325.73	19.039
326.10	19.891
326.46	20.628
326.83	19.510
327.19	18.745
327.56	19.983
327.92	20.335
328.29	20.000
328.65	19.340
329.01	18.474
329.38	19.447
329.74	18.886
330.11	18.536
330.47	19.109
330.84	18.365
331.20	20.437
331.56	18.241
331.93	19.269
332.29	19.615
332.66	18.643
333.02	19.424
333.38	18.790
333.75	19.780
334.11	18.442
334.48	19.130
334.84	18.681
335.20	19.488
335.57	18.495
335.93	18.428
336.29	18.969
336.66	17.984
337.02	16.078
337.38	17.500
337.75	18.909
338.11	18.034
338.47	18.887
338.84	19.224
339.20	18.373
339.56	18.165
339.93	18.890
340.29	17.706
340.65	18.996
341.02	18.085
341.38	17.257
341.74	16.696
342.11	16.638
342.47	18.416
342.83	18.599
343.20	17.944
343.56	17.739
343.92	18.955
344.28	18.190
344.65	16.667
345.01	16.854
345.37	17.830
345.73	19.331
346.10	17.947
346.46	17.662
346.82	17.349
347.19	17.290
347.55	17.794
347.91	18.123
348.27	16.330
348.63	17.888
349.00	16.489
349.36	17.872
349.72	17.413
350.08	17.705
350.45	17.797
350.81	17.276
351.17	16.775
351.53	17.143
351.89	16.185
352.26	17.600
352.62	17.177
352.98	17.510
353.34	17.069
353.70	17.152
354.07	17.742
354.43	16.413
354.79	16.350
355.15	17.302
355.51	16.614
355.87	16.586
356.24	15.742
356.60	15.683
356.96	17.063
357.32	15.655
357.68	15.794
358.04	16.882
358.40	15.916
358.77	17.305
359.13	16.413
359.49	16.025
359.85	16.303
360.21	15.949
360.57	17.445
360.93	16.112
361.29	14.653
361.66	16.379
362.02	15.985
362.38	15.689
362.74	16.276
363.10	17.231
363.46	15.419
363.82	17.806
364.18	15.572
364.54	15.368
364.90	16.272
365.26	14.920
365.62	16.204
365.98	16.716
366.35	15.950
366.71	15.743
367.07	15.239
367.43	15.025
367.79	15.336
368.15	15.434
368.51	16.169
368.87	15.219
369.23	15.668
369.59	16.108
369.95	16.496
370.31	16.618
370.67	16.418
371.03	15.758
371.39	14.953
371.75	16.484
372.11	15.264
372.47	15.385
372.83	16.182
373.19	16.476
373.55	14.729
373.91	15.407
374.27	15.096
374.63	15.506
374.99	14.468
375.35	15.877
375.71	15.804
376.07	14.466
376.42	17.075
376.78	15.235
377.14	15.572
377.50	14.608
377.86	15.060
378.22	15.252
378.58	15.641
378.94	15.060
379.30	15.908
379.66	15.172
380.02	14.960
380.38	14.242
380.74	15.021
381.09	15.153
381.45	14.251
381.81	15.484
382.17	15.165
382.53	14.991
382.89	15.505
383.25	15.681
383.61	15.610
383.97	14.540
384.32	15.385
384.68	15.046
385.04	14.583
385.40	14.312
385.76	14.780
386.12	15.395
386.48	15.709
386.83	15.346
387.19	15.385
387.55	14.743
387.91	14.487
388.27	14.591
388.62	15.356
388.98	15.347
389.34	14.304
389.70	15.475
390.06	14.852
390.42	15.155
390.77	14.977
391.13	14.691
391.49	14.877
391.85	15.400
392.20	15.003
392.56	15.067
392.92	15.854
393.28	14.917
393.64	14.955
393.99	15.737
394.35	14.105
394.71	15.390
395.07	14.645
395.42	15.361
395.78	15.049
396.14	15.195
396.50	15.536
396.85	15.454
397.21	14.474
397.57	14.922
397.92	15.339
398.28	14.885
398.64	13.976
399.00	15.406
399.35	14.391
399.71	14.762
400.07	15.357
400.42	14.871
400.78	15.003
401.14	15.547
401.49	15.485
401.85	15.478
402.21	15.783
402.57	15.750
402.92	13.802
403.28	14.850
403.63	15.259
403.99	14.923
404.35	15.053
404.70	14.643
405.06	14.571
405.42	14.481
405.77	13.539
406.13	15.192
406.49	14.624
406.84	14.487
407.20	14.389
407.55	13.844
407.91	14.773
408.27	13.512
408.62	14.646
408.98	15.096
409.34	15.613
409.69	14.729
410.05	13.916
410.40	14.568
410.76	14.777
411.11	15.375
411.47	14.727
411.83	14.689
412.18	14.028
412.54	14.607
412.89	13.916
413.25	14.440
413.60	15.155
413.96	13.865
414.31	15.183
414.67	14.176
415.03	14.714
415.38	14.556
415.74	14.463
416.09	15.545
416.45	14.720
416.80	14.541
417.16	15.055
417.51	14.990
417.87	14.733
418.22	14.508
418.58	14.916
418.93	14.169
419.29	14.597
419.64	13.934
420.00	16.121
420.35	13.791
420.71	15.006
421.06	13.689
421.42	14.724
421.77	14.624
422.12	14.415
422.48	14.997
422.83	14.617
423.19	14.673
423.54	13.874
423.90	13.840
424.25	14.753
424.61	14.443
424.96	15.157
425.31	14.731
425.67	14.437
426.02	14.547
426.38	15.091
426.73	14.952
427.09	14.557
427.44	14.824
427.79	14.673
428.15	15.231
428.50	14.416
428.85	13.575
429.21	15.393
429.56	15.256
429.92	15.460
430.27	14.586
430.62	14.480
430.98	14.862
431.33	15.037
431.68	14.757
432.04	14.533
432.39	14.033
432.74	14.913
433.10	14.655
433.45	14.875
433.80	14.742
434.16	14.183
434.51	15.484
434.86	14.983
435.22	15.031
435.57	14.972
435.92	15.150
436.28	13.894
436.63	14.318
436.98	14.195
437.34	14.035
437.69	15.027
438.04	14.188
438.39	14.050
438.75	14.268
439.10	14.714
439.45	14.364
439.81	14.312
440.16	15.143
440.51	14.567
440.86	16.012
441.22	14.367
441.57	14.238
441.92	15.582
442.27	15.355
442.63	15.418
442.98	15.336
443.33	15.526
443.68	15.013
444.03	15.350
444.39	15.691
444.74	15.440
445.09	14.811
445.44	14.644
445.79	15.781
446.15	14.648
446.50	14.365
446.85	15.356
447.20	14.442
447.55	15.625
447.91	14.608
448.26	15.026
448.61	15.544
448.96	15.089
449.31	14.913
449.66	15.505
450.02	14.775
450.37	15.056
450.72	15.349
451.07	15.823
451.42	15.980
451.77	14.587
452.12	13.995
452.47	14.231
452.83	15.194
453.18	14.674
453.53	15.107
453.88	14.633
454.23	14.382
454.58	15.365
454.93	14.562
455.28	14.476
455.63	15.127
455.98	15.274
456.34	14.687
456.69	14.994
457.04	15.186
457.39	14.156
457.74	14.027
458.09	13.537
458.44	14.862
458.79	14.454
459.14	15.103
459.49	15.343
459.84	14.890
460.19	14.684
460.54	15.220
460.89	14.830
461.24	15.280
461.59	15.380
461.94	14.591
462.29	15.802
462.64	15.083
462.99	14.353
463.34	14.186
463.69	14.221
464.04	15.133
464.39	15.282
464.74	14.479
465.09	14.910
465.44	14.945
465.79	14.626
466.14	14.880
466.49	14.606
466.84	15.526
467.19	14.581
467.54	14.815
467.89	14.466
468.24	14.294
468.59	15.937
468.94	14.286
469.29	15.279
469.64	15.038
469.99	14.085
470.34	14.471
470.68	14.019
471.03	14.154
471.38	13.980
471.73	14.426
472.08	13.772
472.43	13.557
472.78	13.708
473.13	14.966
473.48	14.919
473.83	14.010
474.17	14.054
474.52	13.465
474.87	14.182
475.22	15.070
475.57	13.947
475.92	14.372
476.27	14.959
476.61	14.583
476.96	14.166
477.31	14.494
477.66	13.708
478.01	13.644
478.36	13.943
478.70	15.063
479.05	14.725
479.40	13.990
479.75	14.234
480.10	13.569
480.45	13.700
480.79	14.703
481.14	14.908
481.49	13.842
481.84	14.189
482.19	13.985
482.53	14.341
482.88	14.463
483.23	13.676
483.58	14.198
483.92	14.134
484.27	13.719
484.62	14.388
484.97	13.599
485.31	14.415
485.66	15.261
486.01	16.618
486.36	16.074
486.70	15.730
487.05	15.189
487.40	14.969
487.75	14.423
488.09	13.844
488.44	13.652
488.79	13.074
489.13	13.742
489.48	13.724
489.83	13.901
490.17	12.899
490.52	13.487
490.87	13.142
491.22	13.563
491.56	13.235
491.91	13.576
492.26	13.418
492.60	14.251
492.95	13.822
493.30	13.776
493.64	13.802
493.99	14.155
494.34	13.204
494.68	13.381
495.03	13.187
495.37	13.984
495.72	13.680
496.07	13.463
496.41	13.632
496.76	13.726
497.11	13.600
497.45	13.174
497.80	14.279
498.14	13.413
498.49	13.205
498.84	13.673
499.18	13.906
499.53	14.187
499.87	12.549
500.22	12.809
500.56	13.414
500.91	13.203
501.26	12.704
501.60	13.035
501.95	12.615
502.29	13.269
502.64	14.093
502.98	13.518
503.33	12.920
503.67	13.398
504.02	13.587
504.36	14.003
504.71	13.131
505.06	13.387
505.40	12.893
505.75	13.041
506.09	13.533
506.44	13.912
506.78	13.469
507.13	13.340
507.47	12.898
507.82	12.126
508.16	12.203
508.51	12.907
508.85	12.768
509.19	12.453
509.54	12.708
509.88	12.945
510.23	13.072
510.57	13.148
510.92	11.514
511.26	13.093
511.61	13.366
511.95	13.041
512.30	12.417
512.64	13.244
512.98	12.240
513.33	12.871
513.67	12.280
514.02	12.471
514.36	13.600
514.70	13.170
515.05	13.455
515.39	11.865
515.74	13.174
516.08	12.194
516.42	12.780
516.77	12.580
517.11	12.463
517.46	12.867
517.80	12.217
518.14	11.574
518.49	12.500
518.83	11.543
519.17	12.310
519.52	11.841
519.86	11.405
520.20	11.604
520.55	11.570
520.89	12.673
521.23	12.096
521.58	12.681
521.92	12.500
522.26	11.256
522.61	11.753
522.95	12.318
523.29	11.944
523.64	12.198
523.98	12.119
524.32	11.405
524.66	12.356
525.01	13.052
525.35	12.184
525.69	11.785
526.04	11.706
526.38	12.062
526.72	11.380
527.06	11.219
527.41	12.203
527.75	11.930
528.09	11.827
528.43	12.492
528.78	12.013
529.12	12.645
529.46	12.346
529.80	12.350
530.15	12.541
530.49	11.650
530.83	11.833
531.17	11.014
531.51	11.833
531.86	11.761
532.20	11.482
532.54	12.321
532.88	12.183
533.22	12.634
533.57	12.779
533.91	11.684
534.25	12.435
534.59	11.995
534.93	11.705
535.27	12.373
535.62	11.925
535.96	12.590
536.30	12.731
536.64	12.612
536.98	11.220
537.32	12.304
537.66	12.553
538.01	12.797
538.35	11.581
538.69	12.383
539.03	11.688
539.37	12.517
539.71	12.202
540.05	12.695
540.39	12.050
540.73	11.855
541.07	12.569
541.42	12.634
541.76	12.113
542.10	11.425
542.44	12.231
542.78	11.218
543.12	11.332
543.46	12.239
543.80	12.283
544.14	12.350
544.48	12.592
544.82	13.124
545.16	12.978
545.50	12.817
545.84	12.181
546.18	12.340
546.52	11.680
546.86	11.574
547.20	12.804
547.54	11.590
547.88	12.636
548.22	12.163
548.56	11.873
548.90	12.534
549.24	12.121
549.58	12.482
549.92	11.294
550.26	11.795
550.60	12.714
550.94	11.875
551.28	11.051
551.62	11.769
551.96	11.504
552.30	12.939
552.64	12.059
552.98	12.307
553.32	13.124
553.66	11.756
554.00	12.190
554.34	11.891
554.68	11.136
555.02	11.607
555.36	11.967
555.69	12.015
556.03	11.991
556.37	11.815
556.71	11.913
557.05	11.708
557.39	11.450
557.73	11.994
558.07	12.368
558.41	11.868
558.75	11.613
559.08	10.875
559.42	11.746
559.76	11.849
560.10	12.156
560.44	11.095
560.78	12.448
561.12	12.482
561.45	12.509
561.79	12.325
562.13	11.852
562.47	11.942
562.81	12.248
563.15	12.835
563.48	12.871
563.82	13.178
564.16	12.047
564.50	12.500
564.84	13.052
565.17	12.810
565.51	12.432
565.85	12.757
566.19	12.401
566.52	13.271
566.86	12.982
567.20	12.827
567.54	12.895
567.88	14.001
568.21	13.462
568.55	13.315
568.89	14.117
569.23	14.203
569.56	14.054
569.90	14.535
570.24	14.365
570.57	14.691
570.91	15.092
571.25	14.765
571.59	14.668
571.92	14.815
572.26	14.946
572.60	15.039
572.93	14.591
573.27	14.671
573.61	14.678
573.95	14.937
574.28	14.804
574.62	14.874
574.96	15.009
575.29	14.690
575.63	14.123
575.97	14.367
576.30	14.535
576.64	14.649
576.98	15.290
577.31	14.918
577.65	15.872
577.98	15.110
578.32	15.412
578.66	15.087
578.99	15.185
579.33	14.714
579.67	14.307
580.00	14.987
580.34	14.527
580.67	14.466
581.01	14.817
581.35	15.030
581.68	15.292
582.02	15.342
582.35	15.227
582.69	15.388
583.02	15.317
583.36	14.810
583.70	15.187
584.03	14.429
584.37	14.794
584.70	15.275
585.04	14.663
585.37	14.914
585.71	15.231
586.04	14.523
586.38	15.044
586.72	15.151
587.05	15.598
587.39	16.159
587.72	15.637
588.06	15.195
588.39	14.754
588.73	14.652
589.06	15.199
589.40	15.105
589.73	14.969
590.07	14.841
590.40	14.977
590.73	14.703
591.07	14.122
591.40	14.381
591.74	14.299
592.07	14.889
592.41	14.841
592.74	14.616
593.08	15.229
593.41	15.058
593.75	14.818
594.08	15.070
594.41	15.211
594.75	14.771
595.08	14.756
595.42	14.796
595.75	14.946
596.09	14.425
596.42	14.841
596.75	14.876
597.09	14.396
597.42	13.957
597.75	14.567
598.09	14.215
598.42	14.711
598.76	13.857
599.09	14.944
599.42	14.968
599.76	15.124
600.09	14.857
600.42	14.746
600.76	14.376
601.09	14.847
601.42	14.767
601.76	14.887
602.09	14.769
602.42	15.206
602.76	14.431
603.09	14.826
603.42	15.134
603.76	14.435
604.09	14.864
604.42	15.102
604.76	14.909
605.09	14.625
605.42	14.041
605.75	14.623
606.09	14.098
606.42	14.470
606.75	14.156
607.09	15.121
607.42	13.912
607.75	14.210
608.08	14.106
608.42	14.299
608.75	14.313
609.08	14.549
609.41	14.010
609.75	14.365
610.08	14.528
610.41	14.203
610.74	13.554
611.07	13.850
611.41	14.530
611.74	15.192
612.07	13.972
612.40	14.442
612.73	13.955
613.07	13.836
613.40	14.497
613.73	13.430
614.06	14.079
614.39	14.326
614.72	13.782
615.06	14.581
615.39	14.465
615.72	14.047
616.05	14.749
616.38	13.105
616.71	13.639
617.05	13.033
617.38	14.393
617.71	13.648
618.04	13.651
618.37	14.502
618.70	13.993
619.03	13.472
619.36	11.939
619.69	13.874
620.03	14.171
620.36	13.662
620.69	12.991
621.02	12.768
621.35	12.863
621.68	13.520
622.01	13.250
622.34	13.328
622.67	12.934
623.00	13.706
623.33	13.186
623.66	13.912
623.99	12.103
624.32	13.080
624.65	12.707
624.99	13.093
625.32	11.600
625.65	13.904
625.98	12.168
626.31	12.386
626.64	13.172
626.97	13.351
627.30	13.047
627.63	12.045
627.96	12.938
628.29	12.396
628.62	12.389
628.95	13.026
629.28	11.694
629.61	12.064
629.94	12.708
630.26	11.561
630.59	11.967
630.92	12.410
631.25	10.769
631.58	12.445
631.91	11.404
632.24	10.550
632.57	12.727
632.90	10.795
633.23	12.588
633.56	9.950
633.89	10.727
634.22	11.481
634.55	10.801
