SpectraSuite Data File
++++++++++++++++++++++++++++++++++++
Date: Fri May 15 17:15:35 PDT 2015
User: schluterlab
Dark Spectrum Present: Yes
Reference Spectrum Present: Yes
Number of Sampled Component Spectra: 1
Spectrometers: USB2E3373
Integration Time (usec): 3000 (USB2E3373)
Spectra Averaged: 3 (USB2E3373)
Boxcar Smoothing: 0 (USB2E3373)
Correct for Electrical Dark: No (USB2E3373)
Strobe/Lamp Enabled: No (USB2E3373)
Correct for Detector Non-linearity: No (USB2E3373)
Correct for Stray Light: No (USB2E3373)
Number of Pixels in Processed Spectrum: 2048
>>>>>Begin Processed Spectral Data<<<<<
178.53	0.000
178.91	0.000
179.29	87.500
179.67	-100.000
180.04	-171.429
180.42	250.000
180.80	-400.000
181.18	-66.667
181.56	-300.000
181.94	-200.000
182.31	300.000
182.69	120.000
183.07	33.333
183.45	-60.000
183.83	16.667
184.20	0.000
184.58	55.556
184.96	-150.000
185.34	-166.667
185.72	150.000
186.09	69.231
186.47	300.000
186.85	-33.333
187.23	111.111
187.61	-1800.000
187.98	100.000
188.36	100.000
188.74	366.667
189.12	88.235
189.49	50.000
189.87	0.000
190.25	114.286
190.63	250.000
191.00	233.333
191.38	36.842
191.76	300.000
192.14	-50.000
192.51	450.000
192.89	0.000
193.27	28.571
193.65	116.667
194.02	81.818
194.40	-20.000
194.78	-50.000
195.15	-8.333
195.53	-12.500
195.91	100.000
196.29	150.000
196.66	46.154
197.04	-14.286
197.42	-33.333
197.79	-466.667
198.17	-7.692
198.55	1700.000
198.92	-366.667
199.30	0.000
199.68	-20.000
200.05	-366.667
200.43	0.000
200.81	33.333
201.18	200.000
201.56	600.000
201.94	0.000
202.31	-133.333
202.69	-140.000
203.07	25.000
203.44	1600.000
203.82	0.000
204.19	-14.286
204.57	-500.000
204.95	62.500
205.32	120.000
205.70	0.000
206.08	50.000
206.45	77.778
206.83	64.286
207.20	28.571
207.58	100.000
207.96	33.333
208.33	20.000
208.71	50.000
209.08	0.000
209.46	-400.000
209.84	-120.000
210.21	100.000
210.59	28.571
210.96	0.000
211.34	150.000
211.71	100.000
212.09	-42.857
212.46	-1200.000
212.84	0.000
213.22	60.000
213.59	150.000
213.97	61.538
214.34	81.818
214.72	0.000
215.09	350.000
215.47	30.769
215.84	45.455
216.22	533.333
216.59	50.000
216.97	850.000
217.34	75.000
217.72	-180.000
218.09	25.000
218.47	75.000
218.84	900.000
219.22	-33.333
219.59	100.000
219.97	-0.000
220.34	25.000
220.72	-14.286
221.09	175.000
221.47	250.000
221.84	-100.000
222.22	-100.000
222.59	127.273
222.97	0.000
223.34	0.000
223.72	7.143
224.09	28.571
224.46	14.286
224.84	233.333
225.21	60.000
225.59	13.333
225.96	200.000
226.34	175.000
226.71	28.571
227.08	16.667
227.46	50.000
227.83	-350.000
228.21	0.000
228.58	100.000
228.95	87.500
229.33	80.000
229.70	25.000
230.08	-50.000
230.45	14.286
230.82	114.286
231.20	66.667
231.57	128.571
231.95	100.000
232.32	-30.000
232.69	92.857
233.07	100.000
233.44	-200.000
233.81	60.000
234.19	55.556
234.56	-5.882
234.93	-350.000
235.31	425.000
235.68	20.000
236.05	-15.385
236.43	30.000
236.80	47.059
237.17	37.500
237.55	35.000
237.92	44.444
238.29	36.111
238.67	40.000
239.04	14.706
239.41	29.268
239.79	10.000
240.16	48.780
240.53	23.684
240.91	17.391
241.28	34.921
241.65	39.286
242.02	63.014
242.40	40.000
242.77	38.983
243.14	37.879
243.51	37.500
243.89	52.874
244.26	28.736
244.63	40.476
245.00	31.959
245.38	51.546
245.75	33.708
246.12	29.310
246.49	37.190
246.87	40.385
247.24	31.933
247.61	41.228
247.98	36.585
248.36	35.000
248.73	37.500
249.10	30.519
249.47	32.278
249.84	33.333
250.22	36.471
250.59	42.484
250.96	34.272
251.33	34.884
251.70	36.471
252.08	33.503
252.45	34.653
252.82	37.186
253.19	35.484
253.56	33.645
253.94	34.234
254.31	32.174
254.68	37.281
255.05	32.677
255.42	38.865
255.79	35.907
256.16	35.798
256.54	33.955
256.91	36.502
257.28	31.227
257.65	31.835
258.02	33.333
258.39	35.690
258.76	39.194
259.14	37.542
259.51	33.981
259.88	32.302
260.25	34.314
260.62	39.931
260.99	32.203
261.36	34.247
261.73	31.962
262.10	34.954
262.47	34.356
262.85	33.229
263.22	37.538
263.59	36.137
263.96	35.714
264.33	37.879
264.70	38.095
265.07	33.036
265.44	39.943
265.81	33.051
266.18	34.699
266.55	36.761
266.92	37.047
267.29	37.598
267.66	35.550
268.03	34.817
268.40	37.076
268.77	42.246
269.14	34.053
269.51	37.018
269.88	33.167
270.25	32.908
270.62	34.390
270.99	32.481
271.36	34.719
271.73	37.559
272.10	36.496
272.47	30.969
272.84	36.881
273.21	35.499
273.58	36.145
273.95	32.494
274.32	34.642
274.69	31.222
275.06	36.384
275.43	34.921
275.80	34.658
276.17	35.632
276.54	34.047
276.91	35.965
277.28	32.533
277.65	34.917
278.02	32.340
278.39	37.418
278.76	32.704
279.13	30.705
279.50	35.714
279.87	35.853
280.23	35.484
280.60	33.528
280.97	33.939
281.34	32.692
281.71	34.086
282.08	32.515
282.45	33.072
282.82	30.888
283.19	34.043
283.56	31.792
283.92	31.120
284.29	30.577
284.66	32.752
285.03	32.417
285.40	32.136
285.77	30.404
286.14	31.227
286.51	33.764
286.87	30.165
287.24	31.860
287.61	32.804
287.98	32.807
288.35	29.116
288.72	31.699
289.08	27.778
289.45	30.053
289.82	30.944
290.19	30.717
290.56	28.988
290.93	28.788
291.29	30.046
291.66	28.346
292.03	28.230
292.40	28.548
292.77	26.954
293.13	26.299
293.50	27.162
293.87	28.244
294.24	26.739
294.60	27.124
294.97	28.274
295.34	26.840
295.71	24.739
296.08	26.607
296.44	23.044
296.81	25.000
297.18	25.942
297.55	26.694
297.91	24.795
298.28	26.385
298.65	25.237
299.02	23.854
299.38	20.246
299.75	24.690
300.12	24.346
300.48	23.452
300.85	24.081
301.22	23.766
301.59	22.895
301.95	24.304
302.32	23.346
302.69	23.507
303.05	23.267
303.42	23.661
303.79	21.612
304.15	23.536
304.52	22.592
304.89	22.339
305.25	22.639
305.62	22.754
305.99	20.819
306.35	21.387
306.72	21.147
307.09	22.919
307.45	22.044
307.82	21.875
308.19	23.229
308.55	22.356
308.92	23.094
309.29	21.006
309.65	21.851
310.02	21.782
310.38	21.186
310.75	23.169
311.12	22.282
311.48	21.421
311.85	21.152
312.22	19.304
312.58	21.444
312.95	20.277
313.31	21.636
313.68	21.152
314.05	20.510
314.41	21.237
314.78	20.619
315.14	22.508
315.51	20.600
315.87	20.697
316.24	22.346
316.61	20.472
316.97	21.131
317.34	20.508
317.70	20.841
318.07	20.192
318.43	20.784
318.80	20.644
319.16	20.703
319.53	21.368
319.89	20.374
320.26	21.053
320.62	21.464
320.99	19.937
321.35	22.405
321.72	21.080
322.08	21.047
322.45	21.117
322.81	20.236
323.18	20.216
323.54	19.208
323.91	20.545
324.27	20.508
324.64	20.225
325.00	20.894
325.37	21.304
325.73	19.402
326.10	20.073
326.46	20.897
326.83	20.472
327.19	21.273
327.56	20.504
327.92	20.951
328.29	20.268
328.65	21.226
329.01	19.485
329.38	20.829
329.74	19.736
330.11	19.741
330.47	20.037
330.84	19.615
331.20	21.198
331.56	19.444
331.93	20.639
332.29	20.898
332.66	20.905
333.02	20.725
333.38	19.432
333.75	20.421
334.11	19.069
334.48	19.220
334.84	20.330
335.20	20.037
335.57	19.130
335.93	20.054
336.29	19.797
336.66	20.073
337.02	18.123
337.38	19.167
337.75	20.182
338.11	19.477
338.47	20.347
338.84	19.501
339.20	20.932
339.56	19.908
339.93	20.322
340.29	19.450
340.65	19.176
341.02	19.238
341.38	19.558
341.74	18.728
342.11	18.371
342.47	19.217
342.83	19.118
343.20	17.596
343.56	19.913
343.92	19.309
344.28	19.898
344.65	18.998
345.01	19.965
345.37	19.512
345.73	19.498
346.10	20.535
346.46	19.512
346.82	18.985
347.19	18.038
347.55	18.212
347.91	19.822
348.27	18.836
348.63	19.421
349.00	18.622
349.36	18.620
349.72	19.818
350.08	18.607
350.45	19.393
350.81	18.023
351.17	17.671
351.53	19.592
351.89	18.580
352.26	18.400
352.62	19.274
352.98	18.394
353.34	18.519
353.70	18.366
354.07	19.113
354.43	18.094
354.79	19.158
355.15	19.762
355.51	19.225
355.87	18.123
356.24	17.781
356.60	17.785
356.96	19.206
357.32	19.649
357.68	17.748
358.04	17.528
358.40	17.846
358.77	18.820
359.13	18.655
359.49	17.565
359.85	18.799
360.21	18.979
360.57	17.980
360.93	18.230
361.29	18.051
361.66	18.025
362.02	18.561
362.38	18.736
362.74	18.547
363.10	19.639
363.46	18.977
363.82	20.285
364.18	18.450
364.54	17.353
364.90	17.849
365.26	18.122
365.62	19.197
365.98	17.742
366.35	18.500
366.71	18.625
367.07	18.142
367.43	18.692
367.79	17.809
368.15	18.521
368.51	19.665
368.87	18.162
369.23	17.834
369.59	17.857
369.95	18.622
370.31	17.630
370.67	17.164
371.03	17.102
371.39	17.505
371.75	17.729
372.11	17.332
372.47	17.604
372.83	17.388
373.19	18.402
373.55	17.040
373.91	17.927
374.27	18.639
374.63	17.516
374.99	17.589
375.35	18.106
375.71	17.832
376.07	17.978
376.42	17.959
376.78	18.389
377.14	18.348
377.50	18.061
377.86	18.139
378.22	17.677
378.58	18.141
378.94	17.328
379.30	17.654
379.66	18.370
380.02	17.106
380.38	18.320
380.74	18.372
381.09	17.975
381.45	17.492
381.81	17.767
382.17	18.084
382.53	17.989
382.89	17.828
383.25	18.046
383.61	18.659
383.97	17.079
384.32	17.761
384.68	18.080
385.04	17.953
385.40	17.362
385.76	18.805
386.12	17.658
386.48	17.816
386.83	17.438
387.19	18.071
387.55	18.632
387.91	18.032
388.27	18.498
388.62	17.999
388.98	17.864
389.34	18.176
389.70	18.645
390.06	17.936
390.42	17.940
390.77	18.247
391.13	16.961
391.49	17.594
391.85	18.843
392.20	17.954
392.56	18.436
392.92	18.203
393.28	17.925
393.64	18.438
393.99	18.809
394.35	17.394
394.71	18.710
395.07	17.662
395.42	18.397
395.78	17.980
396.14	18.159
396.50	18.897
396.85	18.223
397.21	18.045
397.57	18.495
397.92	17.915
398.28	18.793
398.64	17.410
399.00	18.623
399.35	17.156
399.71	18.150
400.07	17.896
400.42	17.993
400.78	18.983
401.14	18.209
401.49	18.046
401.85	18.647
402.21	18.614
402.57	18.125
402.92	18.319
403.28	17.982
403.63	18.726
403.99	18.304
404.35	18.114
404.70	18.512
405.06	18.331
405.42	18.645
405.77	17.432
406.13	17.579
406.49	18.591
406.84	18.215
407.20	18.483
407.55	17.514
407.91	18.182
408.27	18.101
408.62	19.262
408.98	18.176
409.34	18.773
409.69	17.829
410.05	17.919
410.40	18.210
410.76	18.335
411.11	16.750
411.47	17.751
411.83	17.702
412.18	18.597
412.54	17.853
412.89	17.796
413.25	19.013
413.60	18.385
413.96	17.546
414.31	18.659
414.67	18.153
415.03	17.843
415.38	18.146
415.74	18.697
416.09	19.073
416.45	18.771
416.80	18.044
417.16	18.923
417.51	18.721
417.87	18.449
418.22	18.135
418.58	18.729
418.93	18.871
419.29	17.734
419.64	18.471
420.00	19.584
420.35	18.866
420.71	18.287
421.06	17.127
421.42	18.870
421.77	18.092
422.12	18.161
422.48	18.679
422.83	18.271
423.19	18.115
423.54	17.578
423.90	18.375
424.25	19.001
424.61	17.809
424.96	17.886
425.31	18.198
425.67	18.486
426.02	18.846
426.38	18.723
426.73	18.584
427.09	19.494
427.44	19.412
427.79	18.680
428.15	20.328
428.50	17.989
428.85	18.305
429.21	18.563
429.56	18.437
429.92	19.055
430.27	19.098
430.62	17.930
430.98	18.312
431.33	19.138
431.68	18.734
432.04	18.949
432.39	18.083
432.74	17.378
433.10	19.023
433.45	18.937
433.80	18.340
434.16	18.670
434.51	18.817
434.86	19.454
435.22	19.405
435.57	18.902
435.92	19.102
436.28	18.426
436.63	18.540
436.98	18.772
437.34	18.512
437.69	19.201
438.04	19.145
438.39	18.632
438.75	19.004
439.10	18.959
439.45	18.868
439.81	18.532
440.16	18.705
440.51	19.522
440.86	18.792
441.22	19.683
441.57	19.095
441.92	19.098
442.27	19.069
442.63	19.433
442.98	19.242
443.33	18.753
443.68	18.780
444.03	19.473
444.39	19.528
444.74	19.955
445.09	19.710
445.44	19.316
445.79	19.856
446.15	19.053
446.50	18.192
446.85	18.969
447.20	18.352
447.55	19.196
447.91	19.007
448.26	19.010
448.61	19.056
448.96	20.252
449.31	18.439
449.66	18.409
450.02	19.110
450.37	19.858
450.72	19.072
451.07	19.304
451.42	18.602
451.77	19.048
452.12	19.258
452.47	18.995
452.83	18.669
453.18	19.228
453.53	18.774
453.88	18.579
454.23	19.115
454.58	19.458
454.93	18.750
455.28	17.651
455.63	18.599
455.98	19.002
456.34	19.860
456.69	18.424
457.04	19.786
457.39	18.834
457.74	19.045
458.09	18.246
458.44	19.427
458.79	18.599
459.14	19.508
459.49	19.224
459.84	19.571
460.19	19.235
460.54	19.071
460.89	19.545
461.24	18.261
461.59	19.477
461.94	18.931
462.29	18.999
462.64	20.000
462.99	19.499
463.34	18.428
463.69	18.404
464.04	18.765
464.39	18.557
464.74	19.080
465.09	19.214
465.44	19.504
465.79	19.331
466.14	19.270
466.49	18.746
466.84	19.096
467.19	18.836
467.54	18.966
467.89	19.394
468.24	18.187
468.59	19.302
468.94	18.730
469.29	19.279
469.64	19.686
469.99	19.832
470.34	17.611
470.68	19.239
471.03	19.321
471.38	18.830
471.73	19.118
472.08	18.860
472.43	19.128
472.78	18.232
473.13	18.367
473.48	19.609
473.83	18.929
474.17	18.782
474.52	19.017
474.87	19.636
475.22	18.670
475.57	19.029
475.92	19.583
476.27	19.674
476.61	19.329
476.96	18.405
477.31	19.416
477.66	18.034
478.01	17.855
478.36	18.519
478.70	19.086
479.05	19.286
479.40	19.396
479.75	17.831
480.10	18.996
480.45	18.500
480.79	18.983
481.14	19.365
481.49	18.522
481.84	18.629
482.19	18.616
482.53	19.233
482.88	18.520
483.23	18.810
483.58	18.302
483.92	18.393
484.27	18.323
484.62	18.602
484.97	18.740
485.31	19.147
485.66	19.076
486.01	19.328
486.36	19.563
486.70	19.387
487.05	18.740
487.40	18.485
487.75	18.141
488.09	17.985
488.44	17.916
488.79	18.080
489.13	18.710
489.48	18.256
489.83	18.430
490.17	17.843
490.52	17.829
490.87	18.371
491.22	17.908
491.56	18.596
491.91	17.686
492.26	17.939
492.60	18.378
492.95	19.528
493.30	17.440
493.64	18.173
493.99	18.792
494.34	17.718
494.68	18.238
495.03	18.005
495.37	18.793
495.72	17.819
496.07	18.488
496.41	18.821
496.76	18.793
497.11	18.025
497.45	19.093
497.80	18.517
498.14	18.530
498.49	18.182
498.84	18.663
499.18	19.026
499.53	18.353
499.87	17.802
500.22	17.953
500.56	17.297
500.91	18.223
501.26	17.993
501.60	18.003
501.95	18.583
502.29	18.886
502.64	18.581
502.98	18.599
503.33	17.147
503.67	18.169
504.02	18.475
504.36	18.357
504.71	17.778
505.06	17.514
505.40	17.970
505.75	17.938
506.09	17.537
506.44	18.789
506.78	18.265
507.13	17.528
507.47	18.381
507.82	17.788
508.16	18.119
508.51	18.783
508.85	18.315
509.19	17.988
509.54	17.373
509.88	18.123
510.23	19.096
510.57	18.386
510.92	16.898
511.26	17.676
511.61	17.547
511.95	17.534
512.30	18.293
512.64	17.585
512.98	17.799
513.33	18.019
513.67	16.828
514.02	17.449
514.36	18.343
514.70	18.240
515.05	18.214
515.39	17.710
515.74	18.204
516.08	17.753
516.42	18.198
516.77	17.671
517.11	17.448
517.46	17.175
517.80	18.474
518.14	16.963
518.49	17.428
518.83	17.740
519.17	17.890
519.52	17.229
519.86	17.167
520.20	17.497
520.55	17.011
520.89	17.880
521.23	17.543
521.58	19.306
521.92	17.372
522.26	16.786
522.61	17.792
522.95	18.411
523.29	17.344
523.64	18.234
523.98	17.434
524.32	17.010
524.66	18.630
525.01	17.922
525.35	18.146
525.69	16.835
526.04	17.593
526.38	17.380
526.72	16.612
527.06	16.991
527.41	16.887
527.75	16.622
528.09	17.010
528.43	18.096
528.78	17.624
529.12	18.194
529.46	17.479
529.80	18.746
530.15	18.944
530.49	17.306
530.83	17.168
531.17	17.394
531.51	18.399
531.86	18.219
532.20	17.676
532.54	17.427
532.88	17.454
533.22	17.944
533.57	17.890
533.91	17.428
534.25	17.773
534.59	16.357
534.93	18.062
535.27	17.640
535.62	17.110
535.96	18.395
536.30	17.810
536.64	17.988
536.98	17.422
537.32	17.781
537.66	18.373
538.01	18.462
538.35	17.545
538.69	18.176
539.03	16.678
539.37	17.900
539.71	17.655
540.05	17.108
540.39	18.006
540.73	17.922
541.07	17.541
541.42	18.548
541.76	18.582
542.10	17.275
542.44	16.956
542.78	16.724
543.12	17.514
543.46	18.498
543.80	18.251
544.14	17.356
544.48	17.788
544.82	16.746
545.16	17.964
545.50	17.957
545.84	18.201
546.18	17.943
546.52	17.880
546.86	17.398
547.20	17.454
547.54	17.244
547.88	18.003
548.22	17.291
548.56	17.678
548.90	18.059
549.24	17.149
549.58	17.701
549.92	16.726
550.26	17.582
550.60	18.513
550.94	17.999
551.28	16.924
551.62	18.385
551.96	17.820
552.30	18.202
552.64	17.772
552.98	16.948
553.32	17.404
553.66	16.110
554.00	17.518
554.34	18.095
554.68	17.478
555.02	18.006
555.36	16.604
555.69	17.363
556.03	17.202
556.37	16.940
556.71	17.906
557.05	16.629
557.39	16.654
557.73	17.091
558.07	17.572
558.41	16.462
558.75	16.836
559.08	16.627
559.42	18.175
559.76	17.294
560.10	17.049
560.44	17.573
560.78	18.112
561.12	18.054
561.45	18.552
561.79	17.367
562.13	17.814
562.47	16.978
562.81	17.579
563.15	17.278
563.48	17.963
563.82	18.051
564.16	18.315
564.50	17.905
564.84	19.143
565.17	16.633
565.51	18.238
565.85	18.038
566.19	16.910
566.52	18.029
566.86	18.509
567.20	17.933
567.54	17.579
567.88	18.395
568.21	19.005
568.55	17.826
568.89	18.532
569.23	18.103
569.56	18.257
569.90	19.326
570.24	19.017
570.57	18.545
570.91	19.449
571.25	18.908
571.59	18.748
571.92	18.252
572.26	18.629
572.60	18.977
572.93	18.544
573.27	18.245
573.61	18.765
573.95	18.706
574.28	19.015
574.62	18.561
574.96	18.923
575.29	18.223
575.63	17.751
575.97	17.945
576.30	18.105
576.64	18.675
576.98	18.533
577.31	18.850
577.65	18.761
577.98	19.167
578.32	18.749
578.66	18.483
578.99	18.577
579.33	17.937
579.67	18.345
580.00	18.481
580.34	18.383
580.67	18.126
581.01	18.780
581.35	18.777
581.68	19.189
582.02	18.646
582.35	18.867
582.69	18.348
583.02	18.351
583.36	18.287
583.70	18.744
584.03	18.210
584.37	18.972
584.70	18.516
585.04	17.979
585.37	18.600
585.71	18.662
586.04	18.886
586.38	18.272
586.72	18.565
587.05	18.718
587.39	18.843
587.72	19.054
588.06	18.600
588.39	18.342
588.73	18.834
589.06	18.526
589.40	18.700
589.73	18.328
590.07	18.505
590.40	19.156
590.73	18.575
591.07	18.617
591.40	18.255
591.74	18.643
592.07	18.692
592.41	18.507
592.74	18.757
593.08	18.652
593.41	18.946
593.75	18.907
594.08	18.057
594.41	18.268
594.75	17.939
595.08	19.107
595.42	18.403
595.75	18.813
596.09	19.351
596.42	18.396
596.75	18.828
597.09	17.859
597.42	18.790
597.75	18.598
598.09	18.153
598.42	18.276
598.76	18.447
599.09	18.870
599.42	18.719
599.76	17.983
600.09	17.986
600.42	18.726
600.76	18.128
601.09	17.710
601.42	18.136
601.76	18.301
602.09	18.564
602.42	18.787
602.76	18.209
603.09	19.228
603.42	18.771
603.76	18.105
604.09	18.672
604.42	18.570
604.76	18.959
605.09	18.601
605.42	17.833
605.75	18.389
606.09	18.429
606.42	18.224
606.75	18.268
607.09	18.549
607.42	18.254
607.75	18.606
608.08	18.149
608.42	17.725
608.75	17.783
609.08	17.887
609.41	18.832
609.75	18.548
610.08	19.221
610.41	18.551
610.74	17.894
611.07	17.829
611.41	18.007
611.74	18.657
612.07	17.559
612.40	18.053
612.73	16.836
613.07	17.098
613.40	18.107
613.73	17.683
614.06	18.809
614.39	18.274
614.72	17.647
615.06	17.933
615.39	17.795
615.72	18.245
616.05	18.380
616.38	17.892
616.71	17.248
617.05	17.974
617.38	17.850
617.71	17.925
618.04	18.413
618.37	18.979
618.70	17.690
619.03	18.472
619.36	17.149
619.69	18.120
620.03	19.357
620.36	18.956
620.69	18.201
621.02	17.355
621.35	18.423
621.68	18.112
622.01	18.500
622.34	18.356
622.67	17.981
623.00	18.300
623.33	18.521
623.66	17.128
623.99	18.306
624.32	18.099
624.65	17.820
624.99	18.736
625.32	16.831
625.65	18.303
625.98	17.889
626.31	17.041
626.64	16.205
626.97	17.888
627.30	17.951
627.63	17.504
627.96	17.341
628.29	18.316
628.62	18.584
628.95	17.535
629.28	17.137
629.61	16.650
629.94	18.377
630.26	16.502
630.59	17.898
630.92	17.641
631.25	15.179
631.58	16.079
631.91	17.544
632.24	16.514
632.57	17.386
632.90	17.556
633.23	16.000
633.56	17.003
633.89	16.276
634.22	17.778
634.55	17.154
