SpectraSuite Data File
++++++++++++++++++++++++++++++++++++
Date: Fri May 15 20:00:28 PDT 2015
User: schluterlab
Dark Spectrum Present: Yes
Reference Spectrum Present: Yes
Number of Sampled Component Spectra: 1
Spectrometers: USB2E3373
Integration Time (usec): 3000 (USB2E3373)
Spectra Averaged: 3 (USB2E3373)
Boxcar Smoothing: 0 (USB2E3373)
Correct for Electrical Dark: No (USB2E3373)
Strobe/Lamp Enabled: No (USB2E3373)
Correct for Detector Non-linearity: No (USB2E3373)
Correct for Stray Light: No (USB2E3373)
Number of Pixels in Processed Spectrum: 2048
>>>>>Begin Processed Spectral Data<<<<<
178.53	0.000
178.91	0.000
179.29	137.500
179.67	50.000
180.04	-57.143
180.42	75.000
180.80	-500.000
181.18	-66.667
181.56	500.000
181.94	150.000
182.31	-0.000
182.69	200.000
183.07	-33.333
183.45	40.000
183.83	-66.667
184.20	36.364
184.58	77.778
184.96	-475.000
185.34	-466.667
185.72	-300.000
186.09	61.538
186.47	-300.000
186.85	-0.000
187.23	-11.111
187.61	-600.000
187.98	0.000
188.36	22.222
188.74	100.000
189.12	58.824
189.49	22.222
189.87	0.000
190.25	71.429
190.63	100.000
191.00	-33.333
191.38	15.789
191.76	450.000
192.14	75.000
192.51	-200.000
192.89	66.667
193.27	57.143
193.65	-16.667
194.02	90.909
194.40	70.000
194.78	25.000
195.15	50.000
195.53	-25.000
195.91	250.000
196.29	-125.000
196.66	15.385
197.04	-14.286
197.42	88.889
197.79	-266.667
198.17	-146.154
198.55	-100.000
198.92	-133.333
199.30	900.000
199.68	140.000
200.05	-66.667
200.43	0.000
200.81	-66.667
201.18	300.000
201.56	300.000
201.94	550.000
202.31	-33.333
202.69	-80.000
203.07	-150.000
203.44	1100.000
203.82	0.000
204.19	14.286
204.57	-233.333
204.95	-125.000
205.32	80.000
205.70	57.143
206.08	-75.000
206.45	311.111
206.83	71.429
207.20	-85.714
207.58	-400.000
207.96	0.000
208.33	-100.000
208.71	150.000
209.08	-16.667
209.46	-500.000
209.84	80.000
210.21	-300.000
210.59	85.714
210.96	83.333
211.34	375.000
211.71	40.000
212.09	-28.571
212.46	-900.000
212.84	0.000
213.22	170.000
213.59	250.000
213.97	53.846
214.34	109.091
214.72	-16.667
215.09	375.000
215.47	61.538
215.84	18.182
216.22	-66.667
216.59	12.500
216.97	200.000
217.34	0.000
217.72	40.000
218.09	50.000
218.47	87.500
218.84	-200.000
219.22	-33.333
219.59	240.000
219.97	200.000
220.34	100.000
220.72	42.857
221.09	125.000
221.47	400.000
221.84	-650.000
222.22	-400.000
222.59	136.364
222.97	66.667
223.34	-133.333
223.72	64.286
224.09	42.857
224.46	21.429
224.84	233.333
225.21	30.000
225.59	93.333
225.96	0.000
226.34	250.000
226.71	14.286
227.08	-133.333
227.46	125.000
227.83	-250.000
228.21	0.000
228.58	63.636
228.95	62.500
229.33	30.000
229.70	18.750
230.08	-37.500
230.45	-42.857
230.82	100.000
231.20	13.333
231.57	35.714
231.95	28.571
232.32	-90.000
232.69	-7.143
233.07	133.333
233.44	80.000
233.81	-30.000
234.19	111.111
234.56	-11.765
234.93	-0.000
235.31	100.000
235.68	20.000
236.05	46.154
236.43	-5.000
236.80	5.882
237.17	12.500
237.55	10.000
237.92	0.000
238.29	58.333
238.67	30.000
239.04	-2.941
239.41	-31.707
239.79	3.333
240.16	29.268
240.53	31.579
240.91	-8.696
241.28	22.222
241.65	25.000
242.02	32.877
242.40	26.667
242.77	20.339
243.14	16.667
243.51	32.500
243.89	29.885
244.26	17.241
244.63	21.429
245.00	18.557
245.38	23.711
245.75	11.236
246.12	21.552
246.49	15.702
246.87	22.115
247.24	15.966
247.61	23.684
247.98	19.512
248.36	15.000
248.73	23.026
249.10	17.532
249.47	20.886
249.84	14.379
250.22	25.294
250.59	19.608
250.96	19.718
251.33	17.442
251.70	25.294
252.08	22.843
252.45	24.752
252.82	19.095
253.19	17.051
253.56	15.888
253.94	22.072
254.31	24.783
254.68	31.140
255.05	20.079
255.42	22.271
255.79	20.463
256.16	20.233
256.54	23.507
256.91	22.433
257.28	20.074
257.65	17.228
258.02	20.567
258.39	19.192
258.76	22.344
259.14	22.924
259.51	23.625
259.88	21.649
260.25	17.647
260.62	21.181
260.99	17.288
261.36	22.603
261.73	21.519
262.10	21.581
262.47	20.245
262.85	21.003
263.22	19.692
263.59	23.053
263.96	23.913
264.33	19.091
264.70	20.833
265.07	17.262
265.44	20.397
265.81	22.316
266.18	19.945
266.55	18.509
266.92	22.539
267.29	18.799
267.66	20.716
268.03	21.990
268.40	19.321
268.77	23.262
269.14	19.664
269.51	21.337
269.88	18.454
270.25	19.898
270.62	20.976
270.99	18.159
271.36	18.826
271.73	19.953
272.10	20.681
272.47	19.858
272.84	19.307
273.21	19.490
273.58	21.205
273.95	20.137
274.32	19.400
274.69	18.552
275.06	22.321
275.43	21.542
275.80	20.530
276.17	17.931
276.54	17.131
276.91	19.956
277.28	20.524
277.65	18.595
278.02	20.000
278.39	19.037
278.76	18.239
279.13	14.523
279.50	20.588
279.87	17.927
280.23	17.204
280.60	19.298
280.97	20.000
281.34	17.885
281.71	18.686
282.08	16.973
282.45	20.157
282.82	18.340
283.19	18.956
283.56	19.846
283.92	18.027
284.29	17.308
284.66	16.667
285.03	19.843
285.40	17.391
285.77	17.750
286.14	18.231
286.51	19.557
286.87	17.002
287.24	18.232
287.61	17.813
287.98	17.018
288.35	16.118
288.72	18.914
289.08	15.625
289.45	18.629
289.82	19.231
290.19	17.918
290.56	16.981
290.93	16.330
291.29	16.487
291.66	19.213
292.03	15.152
292.40	15.161
292.77	16.108
293.13	13.149
293.50	12.898
293.87	14.962
294.24	16.538
294.60	15.201
294.97	16.071
295.34	13.650
295.71	15.797
296.08	15.396
296.44	13.229
296.81	15.556
297.18	13.478
297.55	17.209
297.91	14.795
298.28	15.831
298.65	13.433
299.02	11.860
299.38	11.081
299.75	15.034
300.12	12.958
300.48	13.570
300.85	13.308
301.22	11.948
301.59	14.211
301.95	13.797
302.32	13.619
302.69	12.687
303.05	12.376
303.42	13.823
303.79	14.019
304.15	14.456
304.52	11.891
304.89	13.099
305.25	13.559
305.62	11.902
305.99	13.450
306.35	12.486
306.72	12.036
307.09	13.113
307.45	13.318
307.82	13.657
308.19	13.124
308.55	12.214
308.92	13.943
309.29	12.626
309.65	14.532
310.02	12.211
310.38	12.843
310.75	13.770
311.12	13.455
311.48	14.210
311.85	13.298
312.22	12.236
312.58	13.376
312.95	13.234
313.31	12.526
313.68	11.518
314.05	13.878
314.41	13.711
314.78	13.711
315.14	14.388
315.51	14.079
315.87	13.217
316.24	14.762
316.61	14.370
316.97	15.179
317.34	14.063
317.70	15.392
318.07	15.096
318.43	16.176
318.80	15.720
319.16	15.820
319.53	15.575
319.89	16.240
320.26	17.105
320.62	17.452
320.99	16.910
321.35	17.163
321.72	18.484
322.08	18.026
322.45	17.563
322.81	18.959
323.18	16.192
323.54	16.409
323.91	17.332
324.27	17.676
324.64	18.352
325.00	20.438
325.37	19.651
325.73	19.946
326.10	20.254
326.46	20.179
326.83	20.822
327.19	20.139
327.56	20.938
327.92	21.831
328.29	20.804
328.65	20.943
329.01	21.691
329.38	21.935
329.74	21.246
330.11	22.892
330.47	21.150
330.84	22.500
331.20	24.049
331.56	23.519
331.93	22.740
332.29	22.915
332.66	23.620
333.02	23.048
333.38	23.831
333.75	23.810
334.11	23.277
334.48	22.937
334.84	23.077
335.20	24.062
335.57	22.393
335.93	23.668
336.29	24.033
336.66	22.434
337.02	22.119
337.38	22.778
337.75	23.545
338.11	22.723
338.47	24.179
338.84	23.105
339.20	22.212
339.56	23.119
339.93	23.993
340.29	22.477
340.65	22.760
341.02	23.050
341.38	22.655
341.74	22.703
342.11	21.924
342.47	23.488
342.83	23.356
343.20	22.648
343.56	23.565
343.92	23.118
344.28	23.484
344.65	23.489
345.01	22.299
345.37	23.549
345.73	24.100
346.10	22.951
346.46	22.456
346.82	23.568
347.19	22.195
347.55	22.640
347.91	23.220
348.27	22.474
348.63	22.828
349.00	22.067
349.36	22.195
349.72	22.637
350.08	22.951
350.45	23.863
350.81	21.844
351.17	22.883
351.53	23.918
351.89	21.800
352.26	22.000
352.62	22.742
352.98	21.767
353.34	21.900
353.70	22.896
354.07	22.581
354.43	22.338
354.79	22.461
355.15	23.175
355.51	22.389
355.87	23.220
356.24	22.023
356.60	22.635
356.96	23.095
357.32	23.482
357.68	22.674
358.04	23.344
358.40	21.865
358.77	22.967
359.13	23.539
359.49	22.342
359.85	22.777
360.21	21.930
360.57	23.565
360.93	22.844
361.29	22.054
361.66	22.335
362.02	23.485
362.38	23.610
362.74	22.937
363.10	24.078
363.46	22.980
363.82	23.817
364.18	22.288
364.54	22.941
364.90	22.007
365.26	22.562
365.62	23.504
365.98	23.460
366.35	24.181
366.71	23.799
367.07	23.875
367.43	23.940
367.79	22.544
368.15	23.403
368.51	23.525
368.87	23.259
369.23	23.466
369.59	23.397
369.95	23.607
370.31	25.145
370.67	24.254
371.03	24.571
371.39	23.632
371.75	24.689
372.11	23.039
372.47	23.151
372.83	24.556
373.19	25.250
373.55	24.116
373.91	23.686
374.27	24.167
374.63	23.403
374.99	24.113
375.35	24.791
375.71	24.685
376.07	24.368
376.42	23.878
376.78	24.832
377.14	24.983
377.50	24.900
377.86	25.435
378.22	24.888
378.58	24.231
378.94	25.142
379.30	24.891
379.66	26.019
380.02	25.628
380.38	24.467
380.74	25.314
381.09	26.748
381.45	25.321
381.81	26.589
382.17	25.317
382.53	26.109
382.89	26.051
383.25	26.011
383.61	26.341
383.97	25.143
384.32	25.829
384.68	27.616
385.04	26.654
385.40	27.318
385.76	27.987
386.12	28.008
386.48	27.969
386.83	27.774
387.19	27.534
387.55	28.168
387.91	28.973
388.27	27.656
388.62	27.690
388.98	28.300
389.34	28.232
389.70	29.024
390.06	27.124
390.42	28.174
390.77	28.450
391.13	27.932
391.49	28.137
391.85	29.370
392.20	29.190
392.56	29.307
392.92	28.949
393.28	28.892
393.64	28.529
393.99	30.094
394.35	27.894
394.71	29.885
395.07	28.347
395.42	28.962
395.78	29.837
396.14	28.373
396.50	29.486
396.85	29.556
397.21	28.947
397.57	29.467
397.92	29.898
398.28	29.770
398.64	28.916
399.00	30.587
399.35	29.345
399.71	30.213
400.07	29.323
400.42	29.437
400.78	29.822
401.14	29.825
401.49	29.780
401.85	28.641
402.21	29.699
402.57	29.125
402.92	28.858
403.28	29.261
403.63	30.454
403.99	29.911
404.35	30.981
404.70	29.048
405.06	29.083
405.42	30.019
405.77	29.750
406.13	29.336
406.49	29.781
406.84	28.790
407.20	30.223
407.55	28.847
407.91	29.813
408.27	29.573
408.62	29.600
408.98	29.821
409.34	30.483
409.69	29.070
410.05	29.126
410.40	29.074
410.76	30.097
411.11	28.688
411.47	30.178
411.83	29.755
412.18	29.344
412.54	30.275
412.89	29.064
413.25	30.024
413.60	29.379
413.96	29.141
414.31	29.512
414.67	29.314
415.03	29.427
415.38	29.373
415.74	29.837
416.09	30.307
416.45	30.587
416.80	27.693
417.16	30.249
417.51	29.847
417.87	29.400
418.22	30.311
418.58	29.967
418.93	29.843
419.29	28.873
419.64	29.229
420.00	30.542
420.35	29.612
420.71	31.409
421.06	30.141
421.42	29.868
421.77	29.422
422.12	29.796
422.48	29.724
422.83	29.466
423.19	30.361
423.54	29.277
423.90	29.800
424.25	29.908
424.61	29.315
424.96	29.849
425.31	32.062
425.67	30.106
426.02	30.506
426.38	30.557
426.73	30.508
427.09	31.013
427.44	29.706
427.79	30.289
428.15	30.886
428.50	29.497
428.85	29.177
429.21	30.900
429.56	30.889
429.92	30.457
430.27	30.376
430.62	30.005
430.98	30.520
431.33	31.230
431.68	29.618
432.04	30.352
432.39	30.234
432.74	30.427
433.10	30.230
433.45	30.884
433.80	30.122
434.16	30.305
434.51	30.000
434.86	31.185
435.22	31.296
435.57	30.942
435.92	30.778
436.28	30.471
436.63	30.576
436.98	30.070
437.34	30.974
437.69	31.187
438.04	30.484
438.39	30.116
438.75	31.026
439.10	30.390
439.45	31.041
439.81	30.092
440.16	31.651
440.51	31.164
440.86	32.024
441.22	31.165
441.57	31.071
441.92	31.217
442.27	31.486
442.63	31.156
442.98	30.959
443.33	30.495
443.68	31.353
444.03	31.942
444.39	30.546
444.74	31.717
445.09	31.904
445.44	32.536
445.79	32.233
446.15	30.286
446.50	30.616
446.85	31.615
447.20	31.752
447.55	31.696
447.91	31.585
448.26	31.417
448.61	31.836
448.96	31.555
449.31	31.561
449.66	31.533
450.02	31.147
450.37	31.595
450.72	31.214
451.07	32.025
451.42	30.649
451.77	31.766
452.12	31.160
452.47	31.037
452.83	31.743
453.18	31.120
453.53	31.985
453.88	31.269
454.23	31.653
454.58	32.179
454.93	32.281
455.28	30.349
455.63	31.556
455.98	31.870
456.34	32.375
456.69	32.402
457.04	33.711
457.39	30.680
457.74	31.983
458.09	31.077
458.44	30.895
458.79	31.709
459.14	32.151
459.49	31.343
459.84	31.698
460.19	32.524
460.54	31.846
460.89	32.727
461.24	32.795
461.59	32.304
461.94	30.881
462.29	32.569
462.64	32.890
462.99	31.957
463.34	30.320
463.69	31.403
464.04	31.840
464.39	32.080
464.74	32.331
465.09	33.188
465.44	32.833
465.79	31.406
466.14	32.896
466.49	32.490
466.84	32.183
467.19	31.852
467.54	31.354
467.89	32.154
468.24	32.299
468.59	32.063
468.94	31.873
469.29	32.393
469.64	32.057
469.99	33.357
470.34	31.536
470.68	33.706
471.03	32.413
471.38	32.097
471.73	31.793
472.08	32.429
472.43	32.483
472.78	31.597
473.13	32.517
473.48	32.313
473.83	32.192
474.17	32.513
474.52	32.227
474.87	32.545
475.22	32.581
475.57	31.282
475.92	33.077
476.27	32.538
476.61	32.118
476.96	31.679
477.31	32.774
477.66	32.978
478.01	32.510
478.36	32.081
478.70	32.409
479.05	32.802
479.40	32.803
479.75	31.700
480.10	32.463
480.45	32.950
480.79	32.880
481.14	33.760
481.49	31.724
481.84	32.577
482.19	32.226
482.53	33.094
482.88	32.792
483.23	32.294
483.58	31.604
483.92	31.994
484.27	32.315
484.62	32.138
484.97	32.131
485.31	32.659
485.66	31.811
486.01	32.332
486.36	31.948
486.70	31.748
487.05	32.008
487.40	31.774
487.75	32.141
488.09	31.366
488.44	31.637
488.79	31.939
489.13	32.973
489.48	32.193
489.83	32.108
490.17	31.820
490.52	32.564
490.87	32.300
491.22	32.521
491.56	32.590
491.91	31.501
492.26	32.912
492.60	32.582
492.95	33.251
493.30	32.975
493.64	33.301
493.99	32.319
494.34	31.990
494.68	32.905
495.03	31.776
495.37	32.483
495.72	32.206
496.07	33.122
496.41	32.972
496.76	33.303
497.11	32.138
497.45	32.792
497.80	33.552
498.14	32.986
498.49	32.961
498.84	32.485
499.18	32.279
499.53	33.135
499.87	33.074
500.22	33.136
500.56	33.333
500.91	32.430
501.26	32.921
501.60	32.661
501.95	33.333
502.29	32.978
502.64	32.625
502.98	33.202
503.33	32.613
503.67	32.578
504.02	33.724
504.36	33.003
504.71	32.424
505.06	33.115
505.40	32.487
505.75	33.814
506.09	32.742
506.44	33.368
506.78	33.112
507.13	33.144
507.47	31.854
507.82	33.494
508.16	32.594
508.51	32.949
508.85	33.543
509.19	32.517
509.54	32.922
509.88	32.470
510.23	33.728
510.57	33.565
510.92	32.356
511.26	33.715
511.61	33.443
511.95	31.945
512.30	33.204
512.64	32.832
512.98	32.847
513.33	34.135
513.67	32.916
514.02	34.668
514.36	34.457
514.70	34.324
515.05	33.960
515.39	33.176
515.74	34.311
516.08	34.011
516.42	33.746
516.77	33.587
517.11	34.896
517.46	32.436
517.80	33.850
518.14	33.313
518.49	33.173
518.83	33.840
519.17	33.111
519.52	33.570
519.86	32.533
520.20	32.868
520.55	33.771
520.89	34.065
521.23	33.376
521.58	34.511
521.92	34.808
522.26	34.288
522.61	33.312
522.95	33.642
523.29	33.545
523.64	34.244
523.98	34.478
524.32	32.732
524.66	33.547
525.01	33.506
525.35	33.701
525.69	34.141
526.04	33.069
526.38	33.917
526.72	34.140
527.06	33.787
527.41	34.037
527.75	32.440
528.09	33.555
528.43	34.976
528.78	33.861
529.12	33.419
529.46	34.243
529.80	33.566
530.15	35.116
530.49	34.007
530.83	33.584
531.17	33.378
531.51	33.995
531.86	33.243
532.20	34.516
532.54	33.492
532.88	34.908
533.22	33.602
533.57	33.879
533.91	33.551
534.25	34.701
534.59	33.291
534.93	32.599
535.27	33.312
535.62	33.312
535.96	34.312
536.30	34.960
536.64	34.873
536.98	33.240
537.32	35.704
537.66	33.731
538.01	35.245
538.35	34.743
538.69	34.221
539.03	33.493
539.37	33.917
539.71	33.197
540.05	34.352
540.39	33.518
540.73	34.031
541.07	35.014
541.42	34.005
541.76	34.274
542.10	33.723
542.44	33.287
542.78	33.173
543.12	32.967
543.46	34.353
543.80	33.727
544.14	32.577
544.48	33.511
544.82	33.835
545.16	34.699
545.50	33.378
545.84	34.207
546.18	33.404
546.52	33.814
546.86	32.854
547.20	34.335
547.54	33.216
547.88	34.171
548.22	33.333
548.56	32.916
548.90	33.962
549.24	32.231
549.58	33.357
549.92	32.023
550.26	33.333
550.60	33.457
550.94	34.055
551.28	34.158
551.62	34.692
551.96	34.361
552.30	33.553
552.64	32.511
552.98	32.560
553.32	33.951
553.66	34.107
554.00	34.599
554.34	32.275
554.68	33.260
555.02	33.854
555.36	33.657
555.69	34.066
556.03	33.262
556.37	33.950
556.71	32.996
557.05	34.004
557.39	33.234
557.73	33.733
558.07	34.087
558.41	33.844
558.75	33.515
559.08	33.885
559.42	33.651
559.76	34.107
560.10	32.875
560.44	33.805
560.78	33.566
561.12	33.639
561.45	33.802
561.79	33.473
562.13	33.641
562.47	32.734
562.81	34.366
563.15	33.286
563.48	35.078
563.82	33.288
564.16	32.521
564.50	33.311
564.84	34.070
565.17	33.736
565.51	34.495
565.85	34.294
566.19	33.687
566.52	33.847
566.86	33.869
567.20	33.562
567.54	33.759
567.88	33.450
568.21	34.050
568.55	32.391
568.89	34.548
569.23	33.317
569.56	33.056
569.90	33.455
570.24	32.862
570.57	32.582
570.91	32.903
571.25	33.015
571.59	32.077
571.92	31.970
572.26	32.367
572.60	32.465
572.93	31.754
573.27	33.041
573.61	32.995
573.95	32.632
574.28	31.939
574.62	32.393
574.96	32.710
575.29	32.181
575.63	31.822
575.97	32.421
576.30	31.993
576.64	31.258
576.98	32.484
577.31	32.612
577.65	32.500
577.98	32.925
578.32	32.263
578.66	32.022
578.99	32.241
579.33	32.001
579.67	31.870
580.00	32.380
580.34	32.313
580.67	31.405
581.01	32.445
581.35	32.709
581.68	32.238
582.02	32.336
582.35	32.163
582.69	32.353
583.02	31.361
583.36	32.174
583.70	31.828
584.03	32.249
584.37	32.891
584.70	32.445
585.04	31.658
585.37	32.138
585.71	31.992
586.04	32.148
586.38	31.528
586.72	32.453
587.05	32.756
587.39	32.234
587.72	32.641
588.06	32.217
588.39	31.928
588.73	32.418
589.06	32.453
589.40	32.354
589.73	32.567
590.07	32.666
590.40	33.050
590.73	32.743
591.07	31.510
591.40	32.458
591.74	32.579
592.07	33.117
592.41	33.216
592.74	32.537
593.08	32.448
593.41	33.147
593.75	32.385
594.08	32.406
594.41	32.569
594.75	33.244
595.08	32.312
595.42	32.462
595.75	32.407
596.09	31.939
596.42	32.410
596.75	32.416
597.09	32.802
597.42	32.294
597.75	33.074
598.09	32.005
598.42	32.356
598.76	32.647
599.09	32.171
599.42	31.565
599.76	32.129
600.09	32.127
600.42	32.866
600.76	31.835
601.09	32.443
601.42	31.532
601.76	31.997
602.09	32.467
602.42	32.435
602.76	31.876
603.09	33.015
603.42	33.696
603.76	32.460
604.09	31.956
604.42	32.318
604.76	32.844
605.09	32.541
605.42	32.957
605.75	32.531
606.09	31.762
606.42	32.319
606.75	32.554
607.09	32.571
607.42	31.812
607.75	33.348
608.08	31.132
608.42	32.024
608.75	32.867
609.08	32.985
609.41	32.843
609.75	32.056
610.08	31.752
610.41	31.836
610.74	32.082
611.07	32.455
611.41	32.901
611.74	32.249
612.07	32.013
612.40	32.604
612.73	32.768
613.07	31.890
613.40	32.330
613.73	32.904
614.06	32.053
614.39	33.559
614.72	32.045
615.06	32.626
615.39	31.332
615.72	31.970
616.05	32.235
616.38	31.966
616.71	32.110
617.05	32.366
617.38	32.370
617.71	32.642
618.04	33.778
618.37	33.985
618.70	32.673
619.03	33.819
619.36	32.200
619.69	33.586
620.03	35.208
620.36	33.906
620.69	31.977
621.02	32.187
621.35	33.859
621.68	33.588
622.01	33.667
622.34	32.163
622.67	33.675
623.00	32.542
623.33	32.622
623.66	32.536
623.99	32.602
624.32	32.700
624.65	32.180
624.99	33.634
625.32	31.766
625.65	32.600
625.98	32.957
626.31	33.167
626.64	34.315
626.97	33.595
627.30	33.100
627.63	32.669
627.96	32.615
628.29	32.655
628.62	31.760
628.95	32.966
629.28	32.863
629.61	32.502
629.94	33.333
630.26	33.103
630.59	34.235
630.92	32.103
631.25	33.128
631.58	34.251
631.91	32.675
632.24	33.486
632.57	35.000
632.90	33.689
633.23	34.000
633.56	34.131
633.89	33.046
634.22	35.185
