SpectraSuite Data File
++++++++++++++++++++++++++++++++++++
Date: Fri May 15 17:12:50 PDT 2015
User: schluterlab
Dark Spectrum Present: Yes
Reference Spectrum Present: Yes
Number of Sampled Component Spectra: 1
Spectrometers: USB2E3373
Integration Time (usec): 3000 (USB2E3373)
Spectra Averaged: 3 (USB2E3373)
Boxcar Smoothing: 0 (USB2E3373)
Correct for Electrical Dark: No (USB2E3373)
Strobe/Lamp Enabled: No (USB2E3373)
Correct for Detector Non-linearity: No (USB2E3373)
Correct for Stray Light: No (USB2E3373)
Number of Pixels in Processed Spectrum: 2048
>>>>>Begin Processed Spectral Data<<<<<
178.53	0.000
178.91	0.000
179.29	0.000
179.67	-300.000
180.04	-28.571
180.42	200.000
180.80	600.000
181.18	166.667
181.56	300.000
181.94	150.000
182.31	-700.000
182.69	40.000
183.07	-166.667
183.45	200.000
183.83	116.667
184.20	-18.182
184.58	88.889
184.96	-25.000
185.34	-33.333
185.72	-100.000
186.09	7.692
186.47	-300.000
186.85	-16.667
187.23	11.111
187.61	-1300.000
187.98	66.667
188.36	77.778
188.74	100.000
189.12	5.882
189.49	66.667
189.87	0.000
190.25	50.000
190.63	400.000
191.00	-66.667
191.38	47.368
191.76	550.000
192.14	-100.000
192.51	250.000
192.89	22.222
193.27	-128.571
193.65	-66.667
194.02	154.545
194.40	100.000
194.78	-75.000
195.15	50.000
195.53	-12.500
195.91	-0.000
196.29	50.000
196.66	92.308
197.04	14.286
197.42	-33.333
197.79	-533.333
198.17	38.462
198.55	1000.000
198.92	200.000
199.30	600.000
199.68	-40.000
200.05	0.000
200.43	0.000
200.81	100.000
201.18	100.000
201.56	500.000
201.94	-250.000
202.31	33.333
202.69	-180.000
203.07	100.000
203.44	400.000
203.82	0.000
204.19	114.286
204.57	-266.667
204.95	-37.500
205.32	120.000
205.70	100.000
206.08	200.000
206.45	244.444
206.83	100.000
207.20	100.000
207.58	-400.000
207.96	-66.667
208.33	-20.000
208.71	-50.000
209.08	-266.667
209.46	-700.000
209.84	-100.000
210.21	-200.000
210.59	85.714
210.96	150.000
211.34	-150.000
211.71	13.333
212.09	71.429
212.46	-1300.000
212.84	0.000
213.22	70.000
213.59	-100.000
213.97	76.923
214.34	72.727
214.72	-116.667
215.09	300.000
215.47	30.769
215.84	63.636
216.22	166.667
216.59	62.500
216.97	-50.000
217.34	250.000
217.72	100.000
218.09	37.500
218.47	112.500
218.84	-300.000
219.22	111.111
219.59	-80.000
219.97	100.000
220.34	-125.000
220.72	14.286
221.09	125.000
221.47	150.000
221.84	-400.000
222.22	-400.000
222.59	-27.273
222.97	25.000
223.34	166.667
223.72	0.000
224.09	38.095
224.46	14.286
224.84	300.000
225.21	0.000
225.59	46.667
225.96	300.000
226.34	175.000
226.71	85.714
227.08	33.333
227.46	0.000
227.83	0.000
228.21	211.111
228.58	54.545
228.95	-25.000
229.33	40.000
229.70	37.500
230.08	112.500
230.45	14.286
230.82	128.571
231.20	-33.333
231.57	71.429
231.95	-14.286
232.32	-70.000
232.69	107.143
233.07	33.333
233.44	20.000
233.81	-10.000
234.19	22.222
234.56	35.294
234.93	300.000
235.31	225.000
235.68	-180.000
236.05	-38.462
236.43	-20.000
236.80	52.941
237.17	21.875
237.55	40.000
237.92	14.815
238.29	8.333
238.67	30.000
239.04	-8.824
239.41	-9.756
239.79	-20.000
240.16	31.707
240.53	-23.684
240.91	8.696
241.28	-4.762
241.65	10.714
242.02	5.479
242.40	3.333
242.77	6.780
243.14	-7.576
243.51	15.000
243.89	17.241
244.26	9.195
244.63	4.762
245.00	19.588
245.38	4.124
245.75	-6.742
246.12	-7.759
246.49	9.091
246.87	9.615
247.24	5.042
247.61	-6.140
247.98	3.252
248.36	4.375
248.73	8.553
249.10	3.247
249.47	6.329
249.84	3.268
250.22	0.588
250.59	6.536
250.96	5.164
251.33	1.744
251.70	10.000
252.08	1.015
252.45	4.455
252.82	4.020
253.19	9.217
253.56	2.336
253.94	8.559
254.31	5.217
254.68	4.825
255.05	4.724
255.42	6.550
255.79	4.633
256.16	4.669
256.54	5.597
256.91	4.563
257.28	6.320
257.65	3.371
258.02	5.319
258.39	5.724
258.76	6.593
259.14	5.316
259.51	4.854
259.88	4.467
260.25	3.595
260.62	4.167
260.99	-2.034
261.36	0.342
261.73	4.114
262.10	3.040
262.47	4.294
262.85	4.389
263.22	2.462
263.59	5.919
263.96	6.522
264.33	4.848
264.70	2.679
265.07	3.274
265.44	5.099
265.81	3.955
266.18	2.732
266.55	7.198
266.92	6.218
267.29	5.744
267.66	3.836
268.03	6.021
268.40	4.439
268.77	8.289
269.14	6.954
269.51	6.170
269.88	1.746
270.25	2.551
270.62	2.927
270.99	1.535
271.36	2.934
271.73	5.869
272.10	5.353
272.47	5.201
272.84	3.960
273.21	5.568
273.58	4.819
273.95	5.034
274.32	3.233
274.69	4.299
275.06	5.357
275.43	4.535
275.80	4.415
276.17	4.138
276.54	3.854
276.91	3.947
277.28	2.402
277.65	6.818
278.02	4.043
278.39	3.939
278.76	4.822
279.13	3.527
279.50	3.992
279.87	4.752
280.23	1.505
280.60	5.848
280.97	5.859
281.34	5.577
281.71	5.133
282.08	4.090
282.45	4.501
282.82	3.089
283.19	4.062
283.56	5.780
283.92	3.036
284.29	3.846
284.66	3.682
285.03	4.912
285.40	5.104
285.77	2.460
286.14	5.054
286.51	5.351
286.87	4.388
287.24	6.630
287.61	3.527
287.98	5.965
288.35	2.600
288.72	5.954
289.08	3.993
289.45	4.394
289.82	3.846
290.19	2.389
290.56	2.744
290.93	3.367
291.29	5.701
291.66	4.567
292.03	1.754
292.40	4.194
292.77	2.711
293.13	1.461
293.50	1.366
293.87	4.275
294.24	2.937
294.60	3.726
294.97	4.613
295.34	3.067
295.71	2.981
296.08	2.840
296.44	1.707
296.81	3.750
297.18	4.493
297.55	5.149
297.91	5.342
298.28	4.485
298.65	4.206
299.02	3.639
299.38	1.231
299.75	2.483
300.12	1.571
300.48	2.635
300.85	3.929
301.22	2.987
301.59	2.895
301.95	3.165
302.32	3.372
302.69	3.980
303.05	3.218
303.42	2.491
303.79	4.089
304.15	3.465
304.52	2.735
304.89	2.456
305.25	1.453
305.62	2.567
305.99	2.573
306.35	3.006
306.72	1.800
307.09	3.421
307.45	3.330
307.82	2.315
308.19	3.949
308.55	3.708
308.92	3.050
309.29	1.788
309.65	2.799
310.02	3.410
310.38	1.866
310.75	3.169
311.12	2.368
311.48	2.439
311.85	3.246
312.22	3.376
312.58	2.335
312.95	1.708
313.31	2.692
313.68	2.723
314.05	2.449
314.41	2.680
314.78	2.887
315.14	3.905
315.51	2.899
315.87	3.176
316.24	4.044
316.61	4.134
316.97	2.679
317.34	2.539
317.70	3.250
318.07	3.558
318.43	2.647
318.80	2.273
319.16	1.562
319.53	3.609
319.89	3.150
320.26	2.935
320.62	3.210
320.99	1.357
321.35	4.111
321.72	4.050
322.08	3.223
322.45	3.046
322.81	2.750
323.18	3.533
323.54	2.992
323.91	2.532
324.27	3.613
324.64	2.622
325.00	3.741
325.37	4.683
325.73	2.085
326.10	2.816
326.46	4.933
326.83	3.675
327.19	4.010
327.56	4.605
327.92	4.049
328.29	4.821
328.65	4.528
329.01	4.963
329.38	5.991
329.74	5.099
330.11	5.375
330.47	5.937
330.84	5.577
331.20	7.795
331.56	7.037
331.93	7.489
332.29	8.158
332.66	6.697
333.02	8.271
333.38	7.333
333.75	9.982
334.11	9.042
334.48	10.426
334.84	10.348
335.20	10.887
335.57	11.151
335.93	13.008
336.29	13.168
336.66	11.898
337.02	13.011
337.38	12.315
337.75	14.273
338.11	15.329
338.47	15.328
338.84	14.695
339.20	14.260
339.56	16.147
339.93	17.278
340.29	16.239
340.65	17.115
341.02	16.489
341.38	17.965
341.74	16.696
342.11	17.764
342.47	17.794
342.83	17.647
343.20	17.596
343.56	18.261
343.92	19.398
344.28	18.190
344.65	18.480
345.01	18.755
345.37	18.839
345.73	19.582
346.10	19.327
346.46	20.185
346.82	20.540
347.19	19.368
347.55	20.635
347.91	21.036
348.27	19.725
348.63	21.039
349.00	19.442
349.36	20.532
349.72	21.725
350.08	21.557
350.45	21.309
350.81	20.515
351.17	20.603
351.53	22.204
351.89	22.130
352.26	20.880
352.62	23.226
352.98	21.124
353.34	21.981
353.70	22.654
354.07	21.774
354.43	22.898
354.79	22.956
355.15	23.413
355.51	22.627
355.87	23.706
356.24	21.697
356.60	22.393
356.96	23.095
357.32	22.764
357.68	22.987
358.04	23.102
358.40	23.232
358.77	23.764
359.13	22.978
359.49	23.498
359.85	23.401
360.21	23.764
360.57	23.718
360.93	23.676
361.29	22.810
361.66	24.687
362.02	25.000
362.38	24.296
362.74	23.997
363.10	25.583
363.46	25.352
363.82	26.296
364.18	24.280
364.54	25.147
364.90	24.301
365.26	25.255
365.62	25.182
365.98	26.100
366.35	25.710
366.71	26.534
367.07	26.343
367.43	25.521
367.79	25.512
368.15	27.136
368.51	26.803
368.87	24.910
369.23	25.054
369.59	25.875
369.95	26.760
370.31	26.517
370.67	27.836
371.03	26.288
371.39	27.425
371.75	27.766
372.11	26.106
372.47	26.997
372.83	27.040
373.19	27.033
373.55	27.004
373.91	27.142
374.27	27.569
374.63	28.930
374.99	27.163
375.35	28.273
375.71	28.042
376.07	29.284
376.42	28.095
376.78	28.926
377.14	29.587
377.50	29.482
377.86	29.116
378.22	29.292
378.58	29.231
378.94	28.733
379.30	29.819
379.66	29.342
380.02	29.614
380.38	28.241
380.74	28.905
381.09	30.552
381.45	30.398
381.81	29.920
382.17	30.266
382.53	29.232
382.89	30.446
383.25	30.927
383.61	30.122
383.97	30.540
384.32	30.769
384.68	30.836
385.04	29.841
385.40	30.118
385.76	31.447
386.12	31.113
386.48	31.418
386.83	29.677
387.19	30.952
387.55	31.368
387.91	30.685
388.27	30.403
388.62	31.278
388.98	30.632
389.34	31.418
389.70	32.132
390.06	30.396
390.42	31.282
390.77	32.243
391.13	30.454
391.49	31.759
391.85	32.034
392.20	30.948
392.56	32.359
392.92	30.887
393.28	31.368
393.64	31.291
393.99	32.226
394.35	31.626
394.71	31.992
395.07	30.987
395.42	30.905
395.78	32.117
396.14	31.652
396.50	32.530
396.85	32.003
397.21	31.704
397.57	31.599
397.92	31.756
398.28	32.644
398.64	31.687
399.00	32.393
399.35	31.546
399.71	31.304
400.07	32.346
400.42	31.028
400.78	31.904
401.14	31.337
401.49	31.924
401.85	31.079
402.21	32.410
402.57	32.688
402.92	31.117
403.28	31.454
403.63	31.904
403.99	32.207
404.35	31.355
404.70	30.893
405.06	30.259
405.42	31.075
405.77	30.157
406.13	30.151
406.49	31.202
406.84	30.990
407.20	32.751
407.55	31.037
407.91	30.816
408.27	30.529
408.62	32.431
408.98	30.992
409.34	31.537
409.69	30.749
410.05	30.850
410.40	30.123
410.76	29.916
411.11	31.063
411.47	31.887
411.83	30.508
412.18	30.116
412.54	30.275
412.89	29.557
413.25	30.566
413.60	31.429
413.96	30.491
414.31	31.098
414.67	30.789
415.03	31.824
415.38	30.287
415.74	31.596
416.09	31.221
416.45	32.343
416.80	31.461
417.16	32.597
417.51	31.845
417.87	31.160
418.22	31.412
418.58	31.371
418.93	31.850
419.29	31.242
419.64	31.886
420.00	33.690
420.35	31.701
420.71	32.928
421.06	33.088
421.42	32.752
421.77	33.410
422.12	32.747
422.48	32.972
422.83	32.657
423.19	32.731
423.54	33.627
423.90	33.510
424.25	34.730
424.61	34.333
424.96	33.333
425.31	34.373
425.67	34.800
426.02	35.748
426.38	36.443
426.73	36.259
427.09	36.013
427.44	37.000
427.79	36.064
428.15	36.104
428.50	35.857
428.85	35.319
429.21	36.163
429.56	37.089
429.92	35.953
430.27	36.642
430.62	36.174
430.98	35.775
431.33	37.171
431.68	37.101
432.04	37.563
432.39	36.965
432.74	37.583
433.10	38.793
433.45	38.053
433.80	38.189
434.16	37.562
434.51	38.763
434.86	38.908
435.22	39.372
435.57	39.863
435.92	39.701
436.28	39.237
436.63	39.532
436.98	39.455
437.34	40.230
437.69	40.608
438.04	40.285
438.39	39.951
438.75	41.530
439.10	41.992
439.45	42.301
439.81	40.917
440.16	41.924
440.51	42.448
440.86	43.021
441.22	42.025
441.57	41.887
441.92	43.442
442.27	43.736
442.63	43.362
442.98	42.504
443.33	42.794
443.68	42.493
444.03	43.616
444.39	42.892
444.74	43.200
445.09	43.987
445.44	44.217
445.79	44.043
446.15	44.273
446.50	43.261
446.85	44.208
447.20	43.900
447.55	44.531
447.91	43.880
448.26	44.792
448.61	44.041
448.96	46.013
449.31	44.798
449.66	44.774
450.02	45.066
450.37	45.347
450.72	45.132
451.07	44.684
451.42	45.256
451.77	44.063
452.12	44.677
452.47	45.138
452.83	47.291
453.18	46.679
453.53	47.282
453.88	46.084
454.23	46.773
454.58	46.474
454.93	46.972
455.28	45.143
455.63	46.249
455.98	45.761
456.34	46.935
456.69	46.760
457.04	48.708
457.39	47.995
457.74	47.340
458.09	46.263
458.44	46.109
458.79	46.835
459.14	47.368
459.49	47.701
459.84	46.588
460.19	47.269
460.54	47.616
460.89	47.841
461.24	46.273
461.59	48.812
461.94	47.547
462.29	48.372
462.64	49.635
462.99	48.138
463.34	47.983
463.69	47.748
464.04	48.850
464.39	47.362
464.74	47.730
465.09	48.659
465.44	47.201
465.79	46.485
466.14	47.206
466.49	48.591
466.84	48.364
467.19	47.747
467.54	48.723
467.89	48.958
468.24	49.027
468.59	49.905
468.94	48.444
469.29	49.180
469.64	48.462
469.99	49.404
470.34	47.645
470.68	50.708
471.03	50.248
471.38	50.499
471.73	51.120
472.08	49.322
472.43	49.933
472.78	49.349
473.13	49.116
473.48	49.642
473.83	49.191
474.17	49.223
474.52	48.756
474.87	49.818
475.22	49.725
475.57	49.802
475.92	49.314
476.27	50.233
476.61	49.942
476.96	49.972
477.31	49.919
477.66	49.270
478.01	49.972
478.36	49.237
478.70	51.604
479.05	50.989
479.40	49.974
479.75	48.853
480.10	49.565
480.45	50.000
480.79	50.000
481.14	50.205
481.49	50.296
481.84	49.662
482.19	49.252
482.53	49.928
482.88	48.974
483.23	49.040
483.58	49.953
483.92	49.613
484.27	48.314
484.62	49.485
484.97	48.507
485.31	48.085
485.66	45.997
486.01	46.238
486.36	44.967
486.70	45.550
487.05	46.817
487.40	46.923
487.75	47.775
488.09	47.806
488.44	48.074
488.79	49.309
489.13	50.040
489.48	50.278
489.83	49.731
490.17	49.258
490.52	49.561
490.87	49.375
491.22	50.621
491.56	50.095
491.91	49.283
492.26	50.656
492.60	51.296
492.95	50.516
493.30	50.513
493.64	51.130
493.99	50.483
494.34	50.049
494.68	51.048
495.03	50.316
495.37	50.785
495.72	51.186
496.07	50.780
496.41	49.811
496.76	50.392
497.11	49.884
497.45	49.881
497.80	51.312
498.14	50.720
498.49	50.482
498.84	50.499
499.18	52.058
499.53	51.042
499.87	51.167
500.22	50.247
500.56	51.286
500.91	50.954
501.26	50.272
501.60	50.959
501.95	50.170
502.29	50.702
502.64	51.496
502.98	51.850
503.33	50.672
503.67	50.602
504.02	51.808
504.36	51.559
504.71	51.263
505.06	50.780
505.40	50.863
505.75	51.546
506.09	51.546
506.44	51.951
506.78	51.990
507.13	51.603
507.47	51.384
507.82	51.229
508.16	52.562
508.51	52.099
508.85	51.544
509.19	52.262
509.54	52.601
509.88	51.834
510.23	52.609
510.57	52.592
510.92	51.279
511.26	52.373
511.61	53.080
511.95	52.274
512.30	51.996
512.64	53.200
512.98	53.004
513.33	52.714
513.67	53.553
514.02	54.348
514.36	55.486
514.70	55.711
515.05	54.054
515.39	54.368
515.74	55.210
516.08	54.752
516.42	55.006
516.77	54.184
517.11	55.371
517.46	55.416
517.80	53.993
518.14	54.256
518.49	52.584
518.83	54.617
519.17	54.336
519.52	54.766
519.86	52.881
520.20	55.589
520.55	55.159
520.89	55.772
521.23	56.175
521.58	55.521
521.92	55.192
522.26	56.344
522.61	55.584
522.95	58.808
523.29	54.130
523.64	55.909
523.98	56.254
524.32	55.670
524.66	55.826
525.01	55.779
525.35	55.995
525.69	55.623
526.04	55.357
526.38	56.744
526.72	54.415
527.06	55.383
527.41	55.673
527.75	55.630
528.09	54.817
528.43	57.259
528.78	55.644
529.12	54.774
529.46	54.841
529.80	55.225
530.15	56.568
530.49	56.296
530.83	57.729
531.17	55.339
531.51	57.661
531.86	55.676
532.20	56.159
532.54	56.978
532.88	55.989
533.22	55.309
533.57	57.077
533.91	55.548
534.25	56.315
534.59	55.228
534.93	53.744
535.27	53.236
535.62	54.958
535.96	55.121
536.30	54.551
536.64	56.582
536.98	54.774
537.32	56.828
537.66	55.961
538.01	56.923
538.35	56.033
538.69	54.128
539.03	53.862
539.37	55.316
539.71	55.487
540.05	55.329
540.39	56.302
540.73	55.927
541.07	56.354
541.42	54.704
541.76	55.609
542.10	56.022
542.44	56.498
542.78	54.783
543.12	55.838
543.46	55.424
543.80	56.003
544.14	56.008
544.48	54.763
544.82	55.981
545.16	56.284
545.50	55.474
545.84	55.595
546.18	57.730
546.52	56.525
546.86	56.650
547.20	55.436
547.54	55.124
547.88	54.755
548.22	54.635
548.56	54.551
548.90	55.930
549.24	53.719
549.58	55.430
549.92	55.683
550.26	56.777
550.60	56.654
550.94	58.925
551.28	56.878
551.62	58.231
551.96	57.368
552.30	56.360
552.64	56.417
552.98	58.017
553.32	56.419
553.66	56.967
554.00	57.664
554.34	57.533
554.68	55.236
555.02	57.440
555.36	58.489
555.69	55.018
556.03	55.746
556.37	55.943
556.71	55.740
557.05	56.898
557.39	56.506
557.73	57.121
558.07	57.994
558.41	57.810
558.75	57.443
559.08	58.629
559.42	58.254
559.76	58.127
560.10	58.028
560.44	56.217
560.78	55.944
561.12	55.571
561.45	57.414
561.79	57.773
562.13	57.062
562.47	56.835
562.81	57.709
563.15	55.360
563.48	56.648
563.82	57.241
564.16	57.660
564.50	55.405
564.84	56.627
565.17	56.740
565.51	57.719
565.85	57.064
566.19	56.963
566.52	56.099
566.86	56.812
567.20	55.729
567.54	57.543
567.88	55.829
568.21	55.034
568.55	54.348
568.89	54.209
569.23	52.191
569.56	51.313
569.90	52.456
570.24	50.875
570.57	51.345
570.91	51.028
571.25	50.082
571.59	49.393
571.92	48.504
572.26	48.611
572.60	49.147
572.93	49.106
573.27	48.652
573.61	49.493
573.95	49.017
574.28	48.358
574.62	48.411
574.96	47.619
575.29	48.385
575.63	46.800
575.97	48.035
576.30	48.215
576.64	47.258
576.98	48.597
577.31	48.341
577.65	48.394
577.98	47.506
578.32	47.237
578.66	46.701
578.99	47.754
579.33	47.664
579.67	47.641
580.00	48.405
580.34	48.234
580.67	47.676
581.01	47.959
581.35	48.040
581.68	47.333
582.02	47.110
582.35	46.778
582.69	48.013
583.02	47.639
583.36	47.930
583.70	48.962
584.03	49.791
584.37	50.085
584.70	49.176
585.04	48.161
585.37	48.771
585.71	48.852
586.04	49.117
586.38	48.626
586.72	49.469
587.05	49.827
587.39	49.734
587.72	49.973
588.06	49.654
588.39	49.843
588.73	49.664
589.06	51.598
589.40	51.262
589.73	52.428
590.07	52.644
590.40	52.322
590.73	53.007
591.07	53.181
591.40	53.918
591.74	54.072
592.07	54.360
592.41	53.180
592.74	52.011
593.08	50.332
593.41	50.906
593.75	50.540
594.08	50.051
594.41	51.492
594.75	51.679
595.08	51.873
595.42	51.711
595.75	52.122
596.09	52.776
596.42	53.162
596.75	54.440
597.09	53.485
597.42	52.665
597.75	54.650
598.09	52.150
598.42	52.978
598.76	52.166
599.09	52.003
599.42	51.042
599.76	51.618
600.09	51.056
600.42	51.933
600.76	51.263
601.09	51.756
601.42	51.900
601.76	52.680
602.09	52.682
602.42	53.791
602.76	53.608
603.09	53.654
603.42	53.930
603.76	52.258
604.09	52.531
604.42	54.272
604.76	54.161
605.09	54.342
605.42	53.363
605.75	54.072
606.09	53.036
606.42	52.502
606.75	53.550
607.09	53.319
607.42	53.389
607.75	53.819
608.08	52.920
608.42	54.545
608.75	55.036
609.08	55.107
609.41	54.213
609.75	54.083
610.08	55.417
610.41	54.251
610.74	55.095
611.07	56.589
611.41	56.513
611.74	56.930
612.07	55.139
612.40	56.510
612.73	57.345
613.07	56.805
613.40	56.291
613.73	55.120
614.06	56.093
614.39	55.499
614.72	57.535
615.06	57.430
615.39	55.240
615.72	54.844
616.05	56.872
616.38	54.986
616.71	57.554
617.05	58.555
617.38	58.265
617.71	58.994
618.04	58.921
618.37	58.764
618.70	60.000
619.03	60.278
619.36	60.781
619.69	61.107
620.03	61.724
620.36	60.587
620.69	58.958
621.02	61.162
621.35	60.664
621.68	64.031
622.01	64.250
622.34	62.410
622.67	62.776
623.00	61.792
623.33	61.280
623.66	59.611
623.99	61.952
624.32	62.586
624.65	61.278
624.99	62.829
625.32	60.879
625.65	63.236
625.98	63.739
626.31	62.594
626.64	65.251
626.97	65.707
627.30	65.061
627.63	65.078
627.96	64.870
628.29	66.975
628.62	66.470
628.95	66.132
629.28	69.556
629.61	66.899
629.94	66.862
630.26	67.194
630.59	69.199
630.92	68.000
631.25	66.359
631.58	68.722
631.91	67.654
632.24	69.266
632.57	70.455
632.90	70.107
633.23	68.941
633.56	71.033
633.89	69.790
634.22	71.235
634.55	73.443
634.88	69.604
635.20	71.538
635.53	74.267
635.86	73.732
636.19	71.539
636.52	73.214
636.85	69.231
637.18	70.818
637.51	70.692
637.83	71.748
638.16	75.171
638.49	70.981
638.82	72.368
639.15	73.677
