SpectraSuite Data File
++++++++++++++++++++++++++++++++++++
Date: Fri May 15 20:03:19 PDT 2015
User: schluterlab
Dark Spectrum Present: Yes
Reference Spectrum Present: Yes
Number of Sampled Component Spectra: 1
Spectrometers: USB2E3373
Integration Time (usec): 3000 (USB2E3373)
Spectra Averaged: 3 (USB2E3373)
Boxcar Smoothing: 0 (USB2E3373)
Correct for Electrical Dark: No (USB2E3373)
Strobe/Lamp Enabled: No (USB2E3373)
Correct for Detector Non-linearity: No (USB2E3373)
Correct for Stray Light: No (USB2E3373)
Number of Pixels in Processed Spectrum: 2048
>>>>>Begin Processed Spectral Data<<<<<
178.53	0.000
178.91	0.000
179.29	37.500
179.67	-200.000
180.04	-185.714
180.42	25.000
180.80	200.000
181.18	33.333
181.56	600.000
181.94	100.000
182.31	300.000
182.69	-100.000
183.07	-300.000
183.45	80.000
183.83	116.667
184.20	9.091
184.58	44.444
184.96	-300.000
185.34	300.000
185.72	-100.000
186.09	30.769
186.47	-200.000
186.85	66.667
187.23	22.222
187.61	-200.000
187.98	-233.333
188.36	66.667
188.74	-366.667
189.12	47.059
189.49	27.778
189.87	0.000
190.25	64.286
190.63	250.000
191.00	-200.000
191.38	31.579
191.76	500.000
192.14	175.000
192.51	-100.000
192.89	-211.111
193.27	-42.857
193.65	200.000
194.02	72.727
194.40	40.000
194.78	0.000
195.15	50.000
195.53	-62.500
195.91	225.000
196.29	25.000
196.66	69.231
197.04	114.286
197.42	55.556
197.79	-333.333
198.17	-7.692
198.55	500.000
198.92	-400.000
199.30	300.000
199.68	-120.000
200.05	33.333
200.43	0.000
200.81	-100.000
201.18	66.667
201.56	-100.000
201.94	-150.000
202.31	-66.667
202.69	-80.000
203.07	200.000
203.44	1100.000
203.82	0.000
204.19	7.143
204.57	-233.333
204.95	-12.500
205.32	-10.000
205.70	128.571
206.08	125.000
206.45	144.444
206.83	50.000
207.20	-14.286
207.58	500.000
207.96	-133.333
208.33	-90.000
208.71	-150.000
209.08	-200.000
209.46	-800.000
209.84	-20.000
210.21	-500.000
210.59	142.857
210.96	-83.333
211.34	250.000
211.71	46.667
212.09	-42.857
212.46	-900.000
212.84	0.000
213.22	60.000
213.59	600.000
213.97	69.231
214.34	-27.273
214.72	-33.333
215.09	300.000
215.47	61.538
215.84	18.182
216.22	66.667
216.59	0.000
216.97	300.000
217.34	25.000
217.72	-200.000
218.09	50.000
218.47	112.500
218.84	-1300.000
219.22	-155.556
219.59	-80.000
219.97	300.000
220.34	50.000
220.72	157.143
221.09	-50.000
221.47	500.000
221.84	-950.000
222.22	-600.000
222.59	54.545
222.97	16.667
223.34	-200.000
223.72	7.143
224.09	9.524
224.46	21.429
224.84	200.000
225.21	100.000
225.59	60.000
225.96	250.000
226.34	375.000
226.71	-14.286
227.08	-116.667
227.46	-50.000
227.83	-350.000
228.21	11.111
228.58	72.727
228.95	-25.000
229.33	-0.000
229.70	-6.250
230.08	-75.000
230.45	14.286
230.82	185.714
231.20	-40.000
231.57	71.429
231.95	14.286
232.32	-70.000
232.69	42.857
233.07	133.333
233.44	80.000
233.81	-20.000
234.19	-22.222
234.56	-5.882
234.93	150.000
235.31	250.000
235.68	-220.000
236.05	61.538
236.43	-30.000
236.80	-52.941
237.17	12.500
237.55	-5.000
237.92	-14.815
238.29	0.000
238.67	40.000
239.04	14.706
239.41	-2.439
239.79	-6.667
240.16	12.195
240.53	-15.789
240.91	-6.522
241.28	19.048
241.65	3.571
242.02	16.438
242.40	5.000
242.77	-5.085
243.14	-4.545
243.51	7.500
243.89	14.943
244.26	-3.448
244.63	8.333
245.00	10.309
245.38	11.340
245.75	-5.618
246.12	2.586
246.49	1.653
246.87	5.769
247.24	5.042
247.61	2.632
247.98	0.000
248.36	5.000
248.73	5.263
249.10	-0.649
249.47	0.000
249.84	5.229
250.22	0.588
250.59	2.614
250.96	5.164
251.33	1.744
251.70	-0.588
252.08	4.061
252.45	5.446
252.82	5.025
253.19	2.304
253.56	0.935
253.94	2.703
254.31	6.957
254.68	3.947
255.05	-1.575
255.42	1.747
255.79	-2.317
256.16	2.724
256.54	1.866
256.91	5.323
257.28	5.576
257.65	2.996
258.02	0.709
258.39	8.754
258.76	1.099
259.14	6.312
259.51	4.207
259.88	0.687
260.25	4.902
260.62	2.778
260.99	3.051
261.36	1.027
261.73	1.266
262.10	3.040
262.47	3.374
262.85	-0.627
263.22	1.846
263.59	1.246
263.96	5.280
264.33	2.727
264.70	3.571
265.07	1.786
265.44	5.382
265.81	3.955
266.18	4.372
266.55	4.884
266.92	3.627
267.29	4.700
267.66	4.092
268.03	2.356
268.40	2.872
268.77	4.813
269.14	4.556
269.51	3.342
269.88	1.496
270.25	1.531
270.62	1.707
270.99	-0.767
271.36	1.711
271.73	5.869
272.10	0.973
272.47	2.364
272.84	0.000
273.21	4.640
273.58	5.783
273.95	4.348
274.32	2.079
274.69	1.810
275.06	5.134
275.43	1.134
275.80	3.532
276.17	0.920
276.54	1.713
276.91	4.386
277.28	2.402
277.65	2.273
278.02	2.766
278.39	2.626
278.76	1.887
279.13	0.000
279.50	2.521
279.87	2.160
280.23	0.860
280.60	4.288
280.97	2.020
281.34	4.615
281.71	3.285
282.08	3.885
282.45	2.935
282.82	2.896
283.19	3.868
283.56	2.697
283.92	0.380
284.29	1.923
284.66	2.132
285.03	2.947
285.40	2.836
285.77	1.582
286.14	4.152
286.51	3.690
286.87	2.925
287.24	0.368
287.61	1.940
287.98	4.912
288.35	3.466
288.72	4.904
289.08	1.910
289.45	3.515
289.82	2.448
290.19	1.706
290.56	2.573
290.93	0.337
291.29	3.082
291.66	3.937
292.03	2.552
292.40	2.742
292.77	2.871
293.13	1.786
293.50	2.428
293.87	3.511
294.24	2.628
294.60	1.639
294.97	2.381
295.34	1.687
295.71	2.832
296.08	2.541
296.44	1.280
296.81	2.083
297.18	2.029
297.55	5.149
297.91	2.466
298.28	3.826
298.65	2.578
299.02	2.561
299.38	-1.778
299.75	0.276
300.12	1.047
300.48	2.767
300.85	0.253
301.22	1.558
301.59	1.053
301.95	2.658
302.32	4.669
302.69	2.488
303.05	2.475
303.42	2.117
303.79	3.037
304.15	3.106
304.52	0.951
304.89	1.520
305.25	1.695
305.62	2.100
305.99	1.170
306.35	1.734
306.72	1.687
307.09	1.824
307.45	3.330
307.82	1.157
308.19	1.974
308.55	2.399
308.92	1.961
309.29	1.899
309.65	1.722
310.02	0.990
310.38	2.525
310.75	1.749
311.12	2.799
311.48	1.166
311.85	1.990
312.22	2.426
312.58	1.274
312.95	0.854
313.31	0.828
313.68	2.408
314.05	1.531
314.41	1.959
314.78	1.959
315.14	3.597
315.51	3.313
315.87	2.459
316.24	3.539
316.61	3.346
316.97	3.770
317.34	2.539
317.70	3.059
318.07	2.596
318.43	2.941
318.80	3.125
319.16	3.516
319.53	4.084
319.89	3.839
320.26	4.049
320.62	4.814
320.99	2.818
321.35	4.522
321.72	4.984
322.08	4.532
322.45	5.888
322.81	5.697
323.18	4.416
323.54	4.923
323.91	5.161
324.27	6.055
324.64	6.742
325.00	5.931
325.37	6.795
325.73	4.805
326.10	7.539
326.46	7.713
326.83	7.874
327.19	7.759
327.56	7.646
327.92	8.275
328.29	7.054
328.65	6.792
329.01	9.007
329.38	8.479
329.74	8.593
330.11	9.268
330.47	8.998
330.84	8.462
331.20	9.125
331.56	9.259
331.93	10.685
332.29	9.166
332.66	11.131
333.02	9.015
333.38	9.258
333.75	9.890
334.11	9.490
334.48	10.879
334.84	11.081
335.20	11.070
335.57	10.789
335.93	11.382
336.29	11.971
336.66	10.990
337.02	10.688
337.38	11.204
337.75	11.364
338.11	12.534
338.47	11.770
338.84	12.292
339.20	11.700
339.56	11.651
339.93	11.012
340.29	12.202
340.65	12.814
341.02	11.968
341.38	11.416
341.74	11.131
342.11	10.399
342.47	11.032
342.83	11.765
343.20	11.760
343.56	12.000
343.92	11.160
344.28	12.383
344.65	11.054
345.01	10.977
345.37	11.270
345.73	12.385
346.10	12.511
346.46	12.195
346.82	12.193
347.19	11.139
347.55	11.779
347.91	12.864
348.27	12.530
348.63	11.925
349.00	12.059
349.36	11.638
349.72	13.267
350.08	12.541
350.45	12.610
350.81	11.711
351.17	11.238
351.53	12.327
351.89	12.552
352.26	10.720
352.62	13.387
352.98	11.968
353.34	12.399
353.70	12.379
354.07	12.419
354.43	12.410
354.79	12.717
355.15	13.413
355.51	13.766
355.87	11.812
356.24	11.827
356.60	11.399
356.96	13.016
357.32	13.738
357.68	12.588
358.04	11.955
358.40	12.862
358.77	13.716
359.13	12.810
359.49	12.173
359.85	12.559
360.21	12.440
360.57	13.466
360.93	13.464
361.29	12.915
361.66	13.558
362.02	13.485
362.38	13.404
362.74	12.869
363.10	13.469
363.46	13.566
363.82	13.974
364.18	13.948
364.54	13.309
364.90	13.763
365.26	13.100
365.62	14.234
365.98	14.370
366.35	15.076
366.71	14.191
367.07	14.151
367.43	14.091
367.79	14.558
368.15	12.635
368.51	14.275
368.87	14.214
369.23	14.007
369.59	14.140
369.95	15.469
370.31	14.306
370.67	14.254
371.03	13.592
371.39	14.369
371.75	15.018
372.11	14.907
372.47	15.902
372.83	16.182
373.19	15.621
373.55	15.162
373.91	14.327
374.27	15.946
374.63	15.937
374.99	15.603
375.35	16.156
375.71	16.294
376.07	15.730
376.42	15.170
376.78	16.510
377.14	15.708
377.50	17.198
377.86	16.533
378.22	16.592
378.58	16.282
378.94	16.068
379.30	16.095
379.66	16.677
380.02	16.370
380.38	16.251
380.74	17.115
381.09	18.221
381.45	16.514
381.81	17.397
382.17	17.449
382.53	18.176
382.89	17.765
383.25	17.610
383.61	18.171
383.97	17.079
384.32	17.949
384.68	18.266
385.04	17.953
385.40	17.237
385.76	19.560
386.12	18.887
386.48	18.455
386.83	17.755
387.19	18.498
387.55	18.695
387.91	19.010
388.27	19.109
388.62	19.132
388.98	17.864
389.34	19.425
389.70	19.267
390.06	18.376
390.42	19.171
390.77	19.032
391.13	19.042
391.49	19.146
391.85	18.454
392.20	18.581
392.56	19.326
392.92	19.495
393.28	19.399
393.64	19.339
393.99	19.749
394.35	18.216
394.71	19.349
395.07	18.919
395.42	18.822
395.78	19.349
396.14	20.113
396.50	19.087
396.85	20.090
397.21	19.048
397.57	19.060
397.92	19.892
398.28	18.851
398.64	19.458
399.00	20.147
399.35	19.018
399.71	18.955
400.07	18.924
400.42	19.278
400.78	19.841
401.14	18.935
401.49	19.476
401.85	19.378
402.21	20.301
402.57	19.812
402.92	18.193
403.28	18.860
403.63	18.789
403.99	18.941
404.35	19.738
404.70	18.750
405.06	19.565
405.42	19.453
405.77	18.129
406.13	18.452
406.49	18.236
406.84	19.743
407.20	19.326
407.55	18.609
407.91	19.051
408.27	18.738
408.62	19.262
408.98	19.840
409.34	19.083
409.69	19.057
410.05	18.411
410.40	18.889
410.76	19.481
411.11	19.125
411.47	19.132
411.83	18.267
412.18	18.597
412.54	19.351
412.89	18.165
413.25	19.555
413.60	18.509
413.96	18.344
414.31	19.573
414.67	18.987
415.03	19.308
415.38	18.342
415.74	19.609
416.09	20.052
416.45	19.986
416.80	18.638
417.16	19.959
417.51	19.720
417.87	19.035
418.22	19.430
418.58	20.268
418.93	20.313
419.29	18.054
419.64	19.378
420.00	20.025
420.35	20.000
420.71	19.745
421.06	19.337
421.42	20.733
421.77	20.173
422.12	20.204
422.48	20.141
422.83	20.708
423.19	20.711
423.54	19.929
423.90	20.436
424.25	20.608
424.61	21.420
424.96	21.196
425.31	22.010
425.67	20.775
426.02	22.438
426.38	22.167
426.73	21.550
427.09	21.519
427.44	22.882
427.79	21.921
428.15	22.573
428.50	21.442
428.85	21.929
429.21	22.467
429.56	22.803
429.92	23.729
430.27	23.008
430.62	22.269
430.98	22.081
431.33	23.291
431.68	22.972
432.04	23.141
432.39	23.503
432.74	22.550
433.10	24.770
433.45	23.656
433.80	23.506
434.16	23.490
434.51	24.677
434.86	24.739
435.22	25.182
435.57	24.017
435.92	24.611
436.28	23.435
436.63	25.100
436.98	24.334
437.34	24.198
437.69	25.283
438.04	24.046
438.39	24.801
438.75	23.740
439.10	25.580
439.45	26.293
439.81	24.771
440.16	26.010
440.51	25.970
440.86	26.103
441.22	25.679
441.57	25.497
441.92	26.705
442.27	26.663
442.63	26.499
442.98	26.192
443.33	24.875
443.68	26.101
444.03	26.677
444.39	26.168
444.74	26.589
445.09	27.339
445.44	26.496
445.79	27.282
446.15	26.046
446.50	25.957
446.85	27.311
447.20	26.538
447.55	27.009
447.91	26.734
448.26	26.864
448.61	26.310
448.96	27.481
449.31	27.399
449.66	26.771
450.02	26.070
450.37	27.386
450.72	27.262
451.07	26.962
451.42	27.278
451.77	27.667
452.12	26.196
452.47	26.916
452.83	27.680
453.18	26.565
453.53	27.307
453.88	27.869
454.23	27.289
454.58	27.519
454.93	28.415
455.28	27.556
455.63	28.456
455.98	28.743
456.34	28.736
456.69	27.128
457.04	28.670
457.39	27.643
457.74	28.295
458.09	27.075
458.44	27.384
458.79	27.787
459.14	28.375
459.49	28.299
459.84	27.975
460.19	28.034
460.54	29.034
460.89	29.205
461.24	27.888
461.59	28.563
461.94	28.302
462.29	28.347
462.64	29.568
462.99	27.894
463.34	28.929
463.69	27.606
464.04	28.632
464.39	28.745
464.74	28.466
465.09	29.944
465.44	28.621
465.79	27.834
466.14	29.818
466.49	29.212
466.84	28.138
467.19	29.662
467.54	28.927
467.89	29.059
468.24	29.258
468.59	29.397
468.94	28.889
469.29	28.852
469.64	29.528
469.99	29.783
470.34	28.532
470.68	30.947
471.03	30.573
471.38	29.529
471.73	30.042
472.08	29.783
472.43	29.463
472.78	29.541
473.13	30.068
473.48	30.423
473.83	28.892
474.17	30.181
474.52	29.419
474.87	29.758
475.22	29.713
475.57	29.757
475.92	29.457
476.27	30.268
476.61	29.977
476.96	29.838
477.31	30.882
477.66	30.000
478.01	30.825
478.36	30.065
478.70	30.941
479.05	30.549
479.40	30.843
479.75	30.292
480.10	30.466
480.45	29.450
480.79	30.866
481.14	30.789
481.49	30.049
481.84	30.454
482.19	30.122
482.53	29.784
482.88	30.788
483.23	30.518
483.58	30.849
483.92	30.348
484.27	29.672
484.62	29.897
484.97	29.851
485.31	29.046
485.66	28.479
486.01	28.619
486.36	28.543
486.70	28.829
487.05	29.060
487.40	28.800
487.75	29.324
488.09	29.017
488.44	29.642
488.79	29.436
489.13	30.649
489.48	30.227
489.83	30.673
490.17	30.472
490.52	30.716
490.87	31.236
491.22	30.277
491.56	30.361
491.91	30.115
492.26	31.794
492.60	31.238
492.95	31.235
493.30	29.800
493.64	31.680
493.99	31.643
494.34	30.971
494.68	30.762
495.03	29.976
495.37	30.324
495.72	31.348
496.07	31.756
496.41	30.613
496.76	30.401
497.11	30.368
497.45	32.172
497.80	32.190
498.14	31.098
498.49	31.133
498.84	31.387
499.18	31.727
499.53	32.440
499.87	30.788
500.22	31.454
500.56	31.669
500.91	31.426
501.26	32.130
501.60	30.989
501.95	31.781
502.29	31.961
502.64	32.191
502.98	32.412
503.33	31.028
503.67	31.470
504.02	32.014
504.36	32.410
504.71	31.566
505.06	31.505
505.40	32.234
505.75	32.423
506.09	32.235
506.44	32.700
506.78	31.888
507.13	32.368
507.47	32.689
507.82	32.158
508.16	32.224
508.51	33.683
508.85	32.444
509.19	32.837
509.54	32.493
509.88	32.632
510.23	33.029
510.57	32.924
510.92	32.356
511.26	33.333
511.61	33.828
511.95	34.192
512.30	33.869
512.64	33.500
512.98	33.520
513.33	34.247
513.67	33.428
514.02	34.668
514.36	34.229
514.70	35.781
515.05	35.194
515.39	35.242
515.74	34.790
516.08	34.130
516.42	35.807
516.77	34.465
517.11	34.718
517.46	35.248
517.80	35.518
518.14	35.273
518.49	35.697
518.83	36.330
519.17	34.991
519.52	35.110
519.86	34.514
520.20	35.905
520.55	35.772
520.89	35.571
521.23	36.605
521.58	36.278
521.92	36.218
522.26	36.304
522.61	36.169
522.95	37.748
523.29	35.769
523.64	35.769
523.98	36.941
524.32	36.211
524.66	36.876
525.01	36.948
525.35	37.006
525.69	36.162
526.04	37.500
526.38	36.446
526.72	36.560
527.06	36.057
527.41	36.609
527.75	36.327
528.09	36.811
528.43	38.082
528.78	37.426
529.12	37.161
529.46	36.387
529.80	36.542
530.15	37.228
530.49	36.027
530.83	37.415
531.17	37.945
531.51	38.577
531.86	37.390
532.20	37.509
532.54	37.100
532.88	36.756
533.22	37.097
533.57	37.090
533.91	36.097
534.25	36.849
534.59	37.075
534.93	35.997
535.27	35.914
535.62	35.839
535.96	37.443
536.30	36.939
536.64	36.458
536.98	36.794
537.32	37.553
537.66	38.429
538.01	37.622
538.35	37.725
538.69	38.083
539.03	35.885
539.37	37.079
539.71	36.742
540.05	37.475
540.39	37.950
540.73	36.750
541.07	36.948
541.42	37.030
541.76	37.646
542.10	37.164
542.44	37.040
542.78	35.926
543.12	36.126
543.46	36.439
543.80	36.502
544.14	35.381
544.48	36.442
544.82	36.979
545.16	37.158
545.50	36.849
545.84	37.748
546.18	38.298
546.52	37.491
546.86	37.168
547.20	37.697
547.54	35.336
547.88	38.043
548.22	37.278
548.56	37.137
548.90	37.534
549.24	37.397
549.58	38.011
549.92	36.741
550.26	38.315
550.60	37.695
550.94	39.656
551.28	38.485
551.62	37.846
551.96	38.872
552.30	38.670
552.64	37.377
552.98	37.623
553.32	38.017
553.66	37.518
554.00	38.540
554.34	39.069
554.68	37.979
555.02	37.798
555.36	37.173
555.69	36.484
556.03	38.330
556.37	36.157
556.71	38.628
557.05	37.733
557.39	37.249
557.73	37.931
558.07	38.914
558.41	38.821
558.75	37.802
559.08	39.243
559.42	38.571
559.76	40.352
560.10	39.067
560.44	38.719
560.78	38.042
561.12	39.563
561.45	38.580
561.79	38.796
562.13	37.899
562.47	38.489
562.81	38.401
563.15	38.223
563.48	37.907
563.82	38.984
564.16	38.162
564.50	36.959
564.84	37.349
565.17	37.425
565.51	39.139
565.85	38.340
566.19	37.533
566.52	38.271
566.86	38.560
567.20	37.547
567.54	37.044
567.88	38.137
568.21	38.462
568.55	37.446
568.89	36.807
569.23	36.399
569.56	35.420
569.90	36.175
570.24	34.574
570.57	35.455
570.91	36.006
571.25	34.758
571.59	34.195
571.92	33.333
572.26	33.394
572.60	34.264
572.93	34.045
573.27	34.075
573.61	34.189
573.95	34.134
574.28	33.157
574.62	32.545
574.96	33.184
575.29	32.786
575.63	32.495
575.97	33.424
576.30	32.893
576.64	33.139
576.98	33.076
577.31	32.662
577.65	33.257
577.98	32.946
578.32	32.388
578.66	32.517
578.99	32.569
579.33	32.626
579.67	32.299
580.00	33.342
580.34	33.234
580.67	32.591
581.01	32.877
581.35	32.644
581.68	32.887
582.02	33.144
582.35	32.999
582.69	32.704
583.02	32.835
583.36	32.837
583.70	33.671
584.03	34.001
584.37	34.105
584.70	34.203
585.04	32.850
585.37	33.759
585.71	33.695
586.04	34.317
586.38	33.396
586.72	34.720
587.05	34.171
587.39	34.610
587.72	34.828
588.06	34.293
588.39	34.121
588.73	34.554
589.06	35.356
589.40	34.808
589.73	35.889
590.07	36.103
590.40	35.681
590.73	37.026
591.07	36.302
591.40	36.866
591.74	36.290
592.07	37.662
592.41	36.661
592.74	35.842
593.08	35.697
593.41	35.222
593.75	35.263
594.08	34.535
594.41	34.898
594.75	35.954
595.08	36.549
595.42	35.370
595.75	35.561
596.09	36.239
596.42	36.585
596.75	36.634
597.09	36.492
597.42	36.314
597.75	37.288
598.09	35.989
598.42	36.462
598.76	36.165
599.09	35.697
599.42	35.771
599.76	35.854
600.09	35.520
600.42	35.557
600.76	35.401
601.09	35.382
601.42	35.723
601.76	35.848
602.09	36.386
602.42	37.068
602.76	35.611
603.09	36.877
603.42	37.960
603.76	36.694
604.09	36.087
604.42	35.998
604.76	37.517
605.09	37.020
605.42	36.569
605.75	36.165
606.09	35.924
606.42	36.906
606.75	37.143
607.09	36.527
607.42	35.888
607.75	35.968
608.08	36.388
608.42	37.186
608.75	37.301
609.08	37.718
609.41	37.107
609.75	37.349
610.08	36.945
610.41	36.232
610.74	37.250
611.07	37.674
611.41	37.519
611.74	37.793
612.07	36.296
612.40	38.567
612.73	37.966
613.07	37.008
613.40	37.856
613.73	37.605
614.06	38.008
614.39	38.748
614.72	37.535
615.06	38.715
615.39	36.954
615.72	36.652
616.05	38.380
616.38	36.923
616.71	39.511
617.05	38.542
617.38	38.592
617.71	38.994
618.04	38.540
618.37	39.912
618.70	38.746
619.03	39.097
619.36	37.482
619.69	40.940
620.03	41.052
620.36	39.199
620.69	38.615
621.02	39.526
621.35	41.328
621.68	40.731
622.01	39.333
622.34	40.623
622.67	39.905
623.00	38.974
623.33	38.796
623.66	39.491
623.99	39.410
624.32	40.000
624.65	39.398
624.99	39.654
625.32	39.500
625.65	40.377
625.98	40.371
626.31	39.485
626.64	40.381
626.97	41.536
627.30	40.630
627.63	41.768
627.96	41.959
628.29	40.981
628.62	40.708
628.95	42.184
629.28	42.641
629.61	41.874
629.94	41.935
630.26	41.897
630.59	43.080
630.92	43.179
631.25	41.744
631.58	41.410
631.91	42.325
632.24	43.807
632.57	42.273
632.90	41.756
633.23	43.059
633.56	43.703
633.89	43.773
634.22	45.062
634.55	45.235
634.88	43.678
635.20	42.692
635.53	45.067
635.86	43.953
636.19	46.054
636.52	44.260
636.85	43.176
637.18	42.390
637.51	43.648
637.83	44.547
638.16	47.340
638.49	44.142
638.82	45.395
