SpectraSuite Data File
++++++++++++++++++++++++++++++++++++
Date: Fri May 15 17:25:35 PDT 2015
User: schluterlab
Dark Spectrum Present: Yes
Reference Spectrum Present: Yes
Number of Sampled Component Spectra: 1
Spectrometers: USB2E3373
Integration Time (usec): 3000 (USB2E3373)
Spectra Averaged: 3 (USB2E3373)
Boxcar Smoothing: 0 (USB2E3373)
Correct for Electrical Dark: No (USB2E3373)
Strobe/Lamp Enabled: No (USB2E3373)
Correct for Detector Non-linearity: No (USB2E3373)
Correct for Stray Light: No (USB2E3373)
Number of Pixels in Processed Spectrum: 2048
>>>>>Begin Processed Spectral Data<<<<<
178.53	0.000
178.91	0.000
179.29	100.000
179.67	-450.000
180.04	-100.000
180.42	425.000
180.80	300.000
181.18	266.667
181.56	450.000
181.94	300.000
182.31	400.000
182.69	160.000
183.07	-366.667
183.45	-20.000
183.83	133.333
184.20	0.000
184.58	-33.333
184.96	-150.000
185.34	66.667
185.72	-600.000
186.09	84.615
186.47	100.000
186.85	-50.000
187.23	122.222
187.61	-600.000
187.98	-400.000
188.36	66.667
188.74	-100.000
189.12	35.294
189.49	-11.111
189.87	0.000
190.25	42.857
190.63	100.000
191.00	-166.667
191.38	15.789
191.76	0.000
192.14	-325.000
192.51	650.000
192.89	-33.333
193.27	-71.429
193.65	116.667
194.02	100.000
194.40	100.000
194.78	0.000
195.15	50.000
195.53	0.000
195.91	-50.000
196.29	-25.000
196.66	46.154
197.04	114.286
197.42	-22.222
197.79	-133.333
198.17	-115.385
198.55	-0.000
198.92	66.667
199.30	200.000
199.68	140.000
200.05	-233.333
200.43	0.000
200.81	266.667
201.18	-66.667
201.56	600.000
201.94	0.000
202.31	-400.000
202.69	-280.000
203.07	125.000
203.44	1200.000
203.82	0.000
204.19	92.857
204.57	-200.000
204.95	-12.500
205.32	0.000
205.70	185.714
206.08	75.000
206.45	200.000
206.83	64.286
207.20	-42.857
207.58	100.000
207.96	-100.000
208.33	-20.000
208.71	125.000
209.08	-150.000
209.46	-1700.000
209.84	20.000
210.21	-600.000
210.59	-14.286
210.96	100.000
211.34	25.000
211.71	53.333
212.09	-171.429
212.46	-1700.000
212.84	0.000
213.22	50.000
213.59	750.000
213.97	61.538
214.34	90.909
214.72	50.000
215.09	325.000
215.47	84.615
215.84	36.364
216.22	33.333
216.59	25.000
216.97	850.000
217.34	75.000
217.72	-60.000
218.09	87.500
218.47	125.000
218.84	200.000
219.22	33.333
219.59	160.000
219.97	200.000
220.34	125.000
220.72	-171.429
221.09	150.000
221.47	350.000
221.84	-200.000
222.22	-350.000
222.59	45.455
222.97	33.333
223.34	33.333
223.72	-21.429
224.09	-9.524
224.46	32.143
224.84	366.667
225.21	60.000
225.59	20.000
225.96	350.000
226.34	-0.000
226.71	-100.000
227.08	100.000
227.46	62.500
227.83	-200.000
228.21	-33.333
228.58	27.273
228.95	50.000
229.33	110.000
229.70	87.500
230.08	-37.500
230.45	-57.143
230.82	28.571
231.20	53.333
231.57	35.714
231.95	-42.857
232.32	-70.000
232.69	100.000
233.07	166.667
233.44	20.000
233.81	-90.000
234.19	55.556
234.56	23.529
234.93	-200.000
235.31	125.000
235.68	40.000
236.05	61.538
236.43	-30.000
236.80	47.059
237.17	56.250
237.55	50.000
237.92	25.926
238.29	16.667
238.67	33.333
239.04	44.118
239.41	14.634
239.79	36.667
240.16	80.488
240.53	13.158
240.91	15.217
241.28	25.397
241.65	48.214
242.02	35.616
242.40	41.667
242.77	57.627
243.14	34.848
243.51	33.750
243.89	48.276
244.26	34.483
244.63	39.286
245.00	40.206
245.38	44.330
245.75	34.831
246.12	31.897
246.49	33.884
246.87	42.308
247.24	44.538
247.61	34.211
247.98	31.707
248.36	33.125
248.73	50.000
249.10	38.312
249.47	34.810
249.84	35.948
250.22	34.706
250.59	36.601
250.96	37.089
251.33	37.209
251.70	39.412
252.08	35.025
252.45	38.119
252.82	44.724
253.19	38.249
253.56	40.654
253.94	34.234
254.31	42.174
254.68	41.667
255.05	37.795
255.42	36.245
255.79	37.452
256.16	38.132
256.54	36.567
256.91	39.924
257.28	33.086
257.65	37.828
258.02	33.688
258.39	36.364
258.76	41.758
259.14	39.203
259.51	36.893
259.88	36.426
260.25	35.948
260.62	39.583
260.99	34.915
261.36	33.562
261.73	34.494
262.10	38.602
262.47	39.264
262.85	37.931
263.22	39.385
263.59	38.006
263.96	37.578
264.33	40.303
264.70	38.095
265.07	33.631
265.44	39.093
265.81	35.876
266.18	39.891
266.55	35.733
266.92	39.637
267.29	38.381
267.66	35.038
268.03	39.005
268.40	36.031
268.77	39.305
269.14	38.849
269.51	41.388
269.88	36.658
270.25	34.439
270.62	35.610
270.99	36.061
271.36	38.631
271.73	36.620
272.10	36.983
272.47	37.589
272.84	34.653
273.21	37.355
273.58	37.590
273.95	36.384
274.32	33.487
274.69	34.389
275.06	35.938
275.43	36.508
275.80	36.203
276.17	35.402
276.54	34.261
276.91	37.281
277.28	36.026
277.65	36.983
278.02	37.447
278.39	37.199
278.76	36.478
279.13	31.328
279.50	40.126
279.87	36.933
280.23	33.978
280.60	34.503
280.97	35.758
281.34	34.615
281.71	37.577
282.08	34.765
282.45	37.182
282.82	35.714
283.19	35.203
283.56	36.802
283.92	34.725
284.29	32.500
284.66	31.783
285.03	34.185
285.40	33.081
285.77	31.459
286.14	32.130
286.51	34.502
286.87	33.638
287.24	34.622
287.61	32.099
287.98	34.211
288.35	34.142
288.72	32.574
289.08	31.076
289.45	33.216
289.82	33.916
290.19	29.522
290.56	30.360
290.93	30.640
291.29	27.427
291.66	30.079
292.03	30.941
292.40	30.323
292.77	29.825
293.13	27.597
293.50	27.769
293.87	28.244
294.24	29.675
294.60	27.422
294.97	29.167
295.34	27.607
295.71	27.720
296.08	27.653
296.44	26.316
296.81	26.944
297.18	27.681
297.55	28.862
297.91	26.438
298.28	26.913
298.65	24.559
299.02	25.337
299.38	24.487
299.75	25.379
300.12	24.607
300.48	25.692
300.85	25.349
301.22	26.234
301.59	24.605
301.95	25.190
302.32	27.497
302.69	24.129
303.05	24.629
303.42	25.405
303.79	25.117
304.15	24.612
304.52	23.187
304.89	24.795
305.25	23.366
305.62	23.221
305.99	22.807
306.35	25.087
306.72	22.722
307.09	24.401
307.45	26.521
307.82	24.306
308.19	26.132
308.55	24.755
308.92	25.163
309.29	24.022
309.65	23.789
310.02	22.552
310.38	24.040
310.75	24.153
311.12	24.220
311.48	24.390
311.85	25.236
312.22	23.945
312.58	24.628
312.95	24.333
313.31	25.466
313.68	26.178
314.05	24.796
314.41	25.876
314.78	24.536
315.14	25.180
315.51	25.466
315.87	24.693
316.24	25.986
316.61	26.378
316.97	26.786
317.34	25.977
317.70	25.621
318.07	25.577
318.43	27.451
318.80	26.989
319.16	29.492
319.53	28.395
319.89	29.134
320.26	29.656
320.62	29.890
320.99	27.453
321.35	27.852
321.72	30.218
322.08	29.104
322.45	30.152
322.81	30.255
323.18	29.539
323.54	30.309
323.91	29.309
324.27	30.859
324.64	32.210
325.00	33.029
325.37	34.711
325.73	32.185
326.10	34.332
326.46	34.978
326.83	34.383
327.19	34.525
327.56	34.752
327.92	35.387
328.29	35.089
328.65	36.792
329.01	36.949
329.38	37.788
329.74	37.016
330.11	38.276
330.47	36.920
330.84	37.404
331.20	41.065
331.56	37.130
331.93	38.904
332.29	39.047
332.66	38.281
333.02	38.383
333.38	38.588
333.75	39.286
334.11	37.959
334.48	39.257
334.84	38.919
335.20	39.799
335.57	39.710
335.93	39.928
336.29	40.424
336.66	40.872
337.02	40.242
337.38	39.537
337.75	40.364
338.11	41.028
338.47	41.058
338.84	39.556
339.20	42.139
339.56	41.651
339.93	41.003
340.29	40.642
340.65	40.143
341.02	40.957
341.38	40.708
341.74	40.283
342.11	39.515
342.47	41.192
342.83	41.003
343.20	41.376
343.56	40.696
343.92	41.187
344.28	39.368
344.65	41.623
345.01	40.709
345.37	40.706
345.73	41.590
346.10	43.054
346.46	40.706
346.82	40.262
347.19	39.069
347.55	40.017
347.91	41.262
348.27	40.663
348.63	41.227
349.00	40.853
349.36	41.480
349.72	41.376
350.08	40.410
350.45	40.463
350.81	40.864
351.17	41.694
351.53	41.551
351.89	39.967
352.26	40.480
352.62	41.210
352.98	39.277
353.34	40.097
353.70	40.777
354.07	40.081
354.43	40.673
354.79	41.371
355.15	41.905
355.51	41.851
355.87	41.828
356.24	40.538
356.60	40.744
356.96	42.460
357.32	41.693
357.68	40.579
358.04	40.388
358.40	40.595
358.77	41.308
359.13	41.313
359.49	39.908
359.85	41.966
360.21	41.786
360.57	40.704
360.93	41.225
361.29	41.541
361.66	41.850
362.02	42.652
362.38	42.270
362.74	41.938
363.10	42.664
363.46	41.883
363.82	42.374
364.18	41.697
364.54	41.103
364.90	42.867
365.26	41.994
365.62	43.285
365.98	42.155
366.35	43.409
366.71	42.572
367.07	43.324
367.43	41.840
367.79	42.049
368.15	44.293
368.51	43.263
368.87	42.857
369.23	43.394
369.59	43.513
369.95	44.721
370.31	43.569
370.67	45.000
371.03	43.839
371.39	43.180
371.75	43.150
372.11	43.509
372.47	44.970
372.83	44.216
373.19	43.652
373.55	42.310
373.91	44.996
374.27	45.571
374.63	44.580
374.99	44.397
375.35	44.777
375.71	46.573
376.07	44.593
376.42	45.102
376.78	45.772
377.14	45.904
377.50	47.145
377.86	45.382
378.22	45.182
378.58	46.410
378.94	45.117
379.30	45.852
379.66	46.332
380.02	45.861
380.38	45.344
380.74	46.379
381.09	46.503
381.45	45.810
381.81	46.391
382.17	46.510
382.53	46.346
382.89	47.709
383.25	47.604
383.61	48.171
383.97	47.302
384.32	47.967
384.68	48.731
385.04	46.630
385.40	48.164
385.76	48.805
386.12	47.930
386.48	48.531
386.83	48.256
387.19	48.230
387.55	48.808
387.91	48.289
388.27	47.863
388.62	50.409
388.98	48.864
389.34	48.282
389.70	49.347
390.06	46.507
390.42	48.834
390.77	48.921
391.13	48.424
391.49	49.159
391.85	49.383
392.20	48.588
392.56	49.269
392.92	49.618
393.28	48.703
393.64	48.829
393.99	50.031
394.35	49.589
394.71	49.489
395.07	47.769
395.42	48.755
395.78	49.967
396.14	48.108
396.50	50.539
396.85	49.581
397.21	49.687
397.57	50.157
397.92	48.892
398.28	50.402
398.64	48.855
399.00	49.887
399.35	49.718
399.71	49.052
400.07	50.121
400.42	48.898
400.78	49.051
401.14	48.457
401.49	50.208
401.85	49.238
402.21	49.759
402.57	49.625
402.92	48.118
403.28	51.692
403.63	51.576
403.99	50.319
404.35	51.156
404.70	49.048
405.06	47.944
405.42	49.472
405.77	49.157
406.13	50.757
406.49	50.148
406.84	50.856
407.20	49.187
407.55	49.324
407.91	50.468
408.27	50.096
408.62	49.662
408.98	50.216
409.34	49.071
409.69	49.483
410.05	49.384
410.40	49.753
410.76	49.879
411.11	51.313
411.47	49.967
411.83	49.529
412.18	50.386
412.54	48.939
412.89	48.276
413.25	51.264
413.60	50.311
413.96	48.712
414.31	49.573
414.67	49.711
415.03	49.334
415.38	48.760
415.74	49.577
416.09	50.490
416.45	49.899
416.80	50.297
417.16	50.967
417.51	49.500
417.87	49.935
418.22	51.813
418.58	50.368
418.93	50.721
419.29	49.360
419.64	51.523
420.00	51.448
420.35	50.030
420.71	51.580
421.06	50.522
421.42	50.962
421.77	50.520
422.12	51.135
422.48	51.056
422.83	50.522
423.19	50.959
423.54	51.852
423.90	51.708
424.25	51.320
424.61	52.509
424.96	51.103
425.31	52.686
425.67	52.700
426.02	52.827
426.38	53.601
426.73	52.785
427.09	53.734
427.44	52.412
427.79	50.854
428.15	52.731
428.50	52.271
428.85	52.027
429.21	52.688
429.56	53.100
429.92	52.953
430.27	51.028
430.62	52.378
430.98	52.389
431.33	52.524
431.68	52.486
432.04	53.102
432.39	53.280
432.74	52.375
433.10	53.391
433.45	53.405
433.80	54.150
434.16	53.296
434.51	53.387
434.86	54.181
435.22	54.178
435.57	54.460
435.92	54.311
436.28	52.296
436.63	54.193
436.98	52.433
437.34	54.325
437.69	54.741
438.04	53.105
438.39	53.268
438.75	54.766
439.10	54.329
439.45	54.778
439.81	54.985
440.16	55.523
440.51	55.403
440.86	56.073
441.22	54.355
441.57	55.629
441.92	55.352
442.27	55.211
442.63	54.764
442.98	56.117
443.33	54.146
443.68	54.960
444.03	55.291
444.39	54.550
444.74	55.128
445.09	55.679
445.44	56.353
445.79	56.524
446.15	55.617
446.50	55.740
446.85	55.898
447.20	55.474
447.55	55.469
447.91	55.386
448.26	54.696
448.61	55.383
448.96	55.881
449.31	54.798
449.66	55.749
450.02	55.847
450.37	57.084
450.72	55.670
451.07	56.646
451.42	54.931
451.77	55.756
452.12	55.562
452.47	55.763
452.83	56.125
453.18	54.459
453.53	56.384
453.88	55.981
454.23	56.730
454.58	56.360
454.93	56.959
455.28	54.222
455.63	56.975
455.98	57.246
456.34	55.811
456.69	56.861
457.04	58.349
457.39	56.136
457.74	56.046
458.09	55.209
458.44	56.466
458.79	56.078
459.14	57.037
459.49	56.418
459.84	56.176
460.19	55.340
460.54	57.518
460.89	57.159
461.24	56.273
461.59	56.354
461.94	56.226
462.29	57.358
462.64	58.206
462.99	57.075
463.34	56.815
463.69	56.885
464.04	57.082
464.39	57.186
464.74	55.951
465.09	56.956
465.44	57.819
465.79	55.272
466.14	56.613
466.49	56.642
466.84	56.990
467.19	57.196
467.54	57.152
467.89	56.096
468.24	56.813
468.59	57.841
468.94	56.889
469.29	57.443
469.64	57.006
469.99	58.655
470.34	57.338
470.68	58.091
471.03	57.113
471.38	59.272
471.73	58.613
472.08	56.988
472.43	59.128
472.78	57.368
473.13	57.551
473.48	56.547
473.83	57.410
474.17	58.484
474.52	56.733
474.87	57.455
475.22	58.206
475.57	57.425
475.92	58.146
476.27	56.985
476.61	58.102
476.96	55.438
477.31	57.436
477.66	57.191
478.01	57.889
478.36	56.318
478.70	58.347
479.05	56.978
479.40	56.810
479.75	56.517
480.10	58.269
480.45	56.800
480.79	57.754
481.14	59.068
481.49	57.143
481.84	58.253
482.19	57.343
482.53	57.698
482.88	56.993
483.23	56.958
483.58	56.745
483.92	57.841
484.27	56.746
484.62	56.925
484.97	56.758
485.31	56.395
485.66	54.756
486.01	55.294
486.36	54.365
486.70	54.523
487.05	55.082
487.40	54.550
487.75	55.352
488.09	55.562
488.44	55.983
488.79	56.743
489.13	57.412
489.48	57.247
489.83	57.354
490.17	57.348
490.52	57.229
490.87	56.178
491.22	57.927
491.56	57.068
491.91	56.358
492.26	59.212
492.60	57.390
492.95	58.780
493.30	57.548
493.64	58.055
493.99	58.116
494.34	58.155
494.68	57.810
495.03	58.345
495.37	57.458
495.72	58.556
496.07	58.341
496.41	57.689
496.76	58.452
497.11	56.963
497.45	58.425
497.80	59.435
498.14	57.675
498.49	58.304
498.84	58.034
499.18	58.785
499.53	58.085
499.87	58.123
500.22	58.259
500.56	59.153
500.91	58.635
501.26	58.181
501.60	58.583
501.95	58.855
502.29	58.450
502.64	58.687
502.98	59.447
503.33	57.253
503.67	58.892
504.02	60.020
504.36	58.832
504.71	59.141
505.06	57.927
505.40	57.817
505.75	59.742
506.09	58.388
506.44	59.651
506.78	59.592
507.13	59.772
507.47	58.747
507.82	58.387
508.16	59.007
508.51	59.182
508.85	60.178
509.19	58.755
509.54	59.571
509.88	59.331
510.23	60.086
510.57	59.914
510.92	58.049
511.26	59.738
511.61	61.221
511.95	59.068
512.30	61.197
512.64	58.264
512.98	59.293
513.33	61.164
513.67	59.920
514.02	61.670
514.36	61.429
514.70	60.781
515.05	61.575
515.39	61.216
515.74	62.036
516.08	61.447
516.42	61.720
516.77	62.493
517.11	62.136
517.46	61.460
517.80	62.277
518.14	61.666
518.49	60.697
518.83	61.847
519.17	61.674
519.52	61.042
519.86	62.065
520.20	63.062
520.55	62.164
520.89	62.233
521.23	63.775
521.58	62.461
521.92	62.692
522.26	62.069
522.61	62.532
522.95	65.099
523.29	60.801
523.64	64.422
523.98	63.383
524.32	62.887
524.66	63.444
525.01	63.961
525.35	63.059
525.69	64.579
526.04	63.095
526.38	65.175
526.72	63.048
527.06	63.165
527.41	62.731
527.75	63.539
528.09	63.654
528.43	64.889
528.78	63.366
529.12	63.935
529.46	61.274
529.80	62.508
530.15	63.498
530.49	63.165
530.83	64.774
531.17	63.533
531.51	64.227
531.86	63.086
532.20	63.744
532.54	63.445
532.88	64.066
533.22	63.374
533.57	62.713
533.91	63.055
534.25	65.104
534.59	63.502
534.93	61.674
535.27	61.548
535.62	61.504
535.96	64.057
536.30	63.720
536.64	64.094
536.98	64.390
537.32	64.438
537.66	63.043
538.01	63.357
538.35	64.494
538.69	62.650
539.03	61.996
539.37	64.065
539.71	63.258
540.05	63.612
540.39	64.543
540.73	62.343
541.07	63.467
541.42	62.903
541.76	63.799
542.10	64.418
542.44	63.238
542.78	62.147
543.12	63.736
543.46	63.491
543.80	62.734
544.14	62.750
544.48	62.891
544.82	64.662
545.16	63.456
545.50	63.351
545.84	64.873
546.18	64.752
546.52	62.797
546.86	64.055
547.20	64.521
547.54	62.898
547.88	64.198
548.22	62.064
548.56	61.609
548.90	64.623
549.24	63.499
549.58	63.752
549.92	63.331
550.26	64.908
550.60	65.130
550.94	63.480
551.28	65.456
551.62	65.385
551.96	65.414
552.30	64.254
552.64	62.835
552.98	63.854
553.32	64.194
553.66	63.498
554.00	64.599
554.34	65.805
554.68	63.569
555.02	64.211
555.36	66.193
555.69	64.908
556.03	64.525
556.37	64.413
556.71	65.415
557.05	65.250
557.39	65.130
557.73	64.693
558.07	65.686
558.41	65.850
558.75	66.095
559.08	65.485
559.42	66.111
559.76	67.334
560.10	65.826
560.44	66.270
560.78	65.385
561.12	64.528
561.45	65.144
561.79	65.896
562.13	65.366
562.47	65.036
562.81	66.210
563.15	63.540
563.48	66.054
563.82	65.065
564.16	65.390
564.50	63.446
564.84	64.525
565.17	65.258
565.51	65.915
565.85	66.392
566.19	65.119
566.52	65.818
566.86	65.360
567.20	64.134
567.54	64.538
567.88	65.319
568.21	63.971
568.55	62.663
568.89	64.117
569.23	63.505
569.56	61.690
569.90	62.444
570.24	60.439
570.57	62.182
570.91	60.788
571.25	60.572
571.59	59.670
571.92	58.459
572.26	60.477
572.60	59.938
572.93	59.241
573.27	59.248
573.61	59.547
573.95	59.121
574.28	59.190
574.62	59.039
574.96	58.439
575.29	57.723
575.63	57.450
575.97	59.122
576.30	59.516
576.64	58.781
576.98	59.279
577.31	59.228
577.65	58.876
577.98	58.749
578.32	58.269
578.66	57.232
578.99	58.306
579.33	57.807
579.67	58.113
580.00	58.684
580.34	58.632
580.67	58.061
581.01	58.958
581.35	58.312
581.68	58.079
582.02	57.882
582.35	57.586
582.69	58.259
583.02	58.235
583.36	58.789
583.70	59.553
584.03	60.495
584.37	59.994
584.70	59.093
585.04	58.523
585.37	58.550
585.71	58.973
586.04	59.304
586.38	59.216
586.72	60.230
587.05	59.908
587.39	61.280
587.72	60.853
588.06	59.895
588.39	61.037
588.73	60.714
589.06	61.122
589.40	60.422
589.73	61.446
590.07	62.462
590.40	62.152
590.73	62.932
591.07	62.553
591.40	61.443
591.74	62.805
592.07	62.709
592.41	62.986
592.74	61.489
593.08	60.112
593.41	60.000
593.75	59.993
594.08	60.831
594.41	59.971
594.75	60.840
595.08	61.483
595.42	61.207
595.75	61.585
596.09	62.432
596.42	62.174
596.75	63.321
597.09	61.777
597.42	61.969
597.75	62.483
598.09	61.249
598.42	61.372
598.76	62.420
599.09	61.018
599.42	60.136
599.76	61.776
600.09	60.860
600.42	61.183
600.76	60.141
601.09	60.267
601.42	60.791
601.76	61.215
602.09	61.964
602.42	62.258
602.76	61.927
603.09	61.628
603.42	63.838
603.76	62.339
604.09	61.806
604.42	62.394
604.76	62.884
605.09	62.249
605.42	62.302
605.75	62.434
606.09	62.803
606.42	61.176
606.75	62.727
607.09	61.758
607.42	62.206
607.75	62.478
608.08	60.961
608.42	60.987
608.75	62.024
609.08	63.976
609.41	63.452
609.75	63.861
610.08	64.154
610.41	61.836
610.74	63.189
611.07	64.548
611.41	63.467
611.74	64.552
612.07	63.009
612.40	63.512
612.73	64.802
613.07	63.555
613.40	63.731
613.73	63.906
614.06	64.663
614.39	64.411
614.72	64.146
615.06	63.520
615.39	62.882
615.72	62.433
616.05	64.525
616.38	62.963
616.71	64.098
617.05	64.917
617.38	64.676
617.71	65.409
618.04	65.333
618.37	66.267
618.70	66.073
619.03	66.597
619.36	66.498
619.69	67.248
620.03	68.809
620.36	67.454
620.69	68.094
621.02	66.514
621.35	67.884
621.68	70.493
622.01	69.333
622.34	68.156
622.67	68.612
623.00	67.611
623.33	66.387
623.66	67.988
623.99	67.247
624.32	67.300
624.65	67.218
624.99	68.021
625.32	66.338
625.65	68.185
625.98	68.332
626.31	68.412
626.64	71.317
626.97	69.459
627.30	69.790
627.63	69.411
627.96	70.171
628.29	71.600
628.62	71.485
628.95	71.743
629.28	72.782
629.61	71.486
629.94	71.750
630.26	70.158
630.59	74.714
630.92	70.667
631.25	69.026
631.58	72.137
631.91	72.697
632.24	72.936
632.57	74.659
632.90	73.665
633.23	73.294
633.56	74.811
633.89	75.462
