SpectraSuite Data File
++++++++++++++++++++++++++++++++++++
Date: Fri May 15 17:15:56 PDT 2015
User: schluterlab
Dark Spectrum Present: Yes
Reference Spectrum Present: Yes
Number of Sampled Component Spectra: 1
Spectrometers: USB2E3373
Integration Time (usec): 3000 (USB2E3373)
Spectra Averaged: 3 (USB2E3373)
Boxcar Smoothing: 0 (USB2E3373)
Correct for Electrical Dark: No (USB2E3373)
Strobe/Lamp Enabled: No (USB2E3373)
Correct for Detector Non-linearity: No (USB2E3373)
Correct for Stray Light: No (USB2E3373)
Number of Pixels in Processed Spectrum: 2048
>>>>>Begin Processed Spectral Data<<<<<
178.53	0.000
178.91	0.000
179.29	62.500
179.67	-50.000
180.04	-57.143
180.42	400.000
180.80	0.000
181.18	-66.667
181.56	-150.000
181.94	-450.000
182.31	-300.000
182.69	-40.000
183.07	200.000
183.45	60.000
183.83	-0.000
184.20	-45.455
184.58	100.000
184.96	-200.000
185.34	33.333
185.72	350.000
186.09	84.615
186.47	200.000
186.85	-16.667
187.23	55.556
187.61	100.000
187.98	100.000
188.36	77.778
188.74	-200.000
189.12	35.294
189.49	122.222
189.87	0.000
190.25	78.571
190.63	150.000
191.00	-33.333
191.38	36.842
191.76	50.000
192.14	-0.000
192.51	200.000
192.89	33.333
193.27	-185.714
193.65	16.667
194.02	109.091
194.40	10.000
194.78	-87.500
195.15	41.667
195.53	-87.500
195.91	-75.000
196.29	-100.000
196.66	84.615
197.04	28.571
197.42	77.778
197.79	-400.000
198.17	-115.385
198.55	800.000
198.92	-166.667
199.30	-400.000
199.68	-60.000
200.05	-33.333
200.43	0.000
200.81	166.667
201.18	466.667
201.56	100.000
201.94	750.000
202.31	-466.667
202.69	-140.000
203.07	-25.000
203.44	800.000
203.82	0.000
204.19	142.857
204.57	-166.667
204.95	-12.500
205.32	140.000
205.70	142.857
206.08	-25.000
206.45	122.222
206.83	57.143
207.20	14.286
207.58	-1200.000
207.96	66.667
208.33	-20.000
208.71	0.000
209.08	-66.667
209.46	200.000
209.84	80.000
210.21	300.000
210.59	128.571
210.96	-16.667
211.34	50.000
211.71	33.333
212.09	100.000
212.46	-400.000
212.84	0.000
213.22	60.000
213.59	250.000
213.97	123.077
214.34	45.455
214.72	50.000
215.09	150.000
215.47	61.538
215.84	45.455
216.22	0.000
216.59	12.500
216.97	400.000
217.34	275.000
217.72	60.000
218.09	112.500
218.47	162.500
218.84	600.000
219.22	-22.222
219.59	140.000
219.97	266.667
220.34	150.000
220.72	157.143
221.09	-225.000
221.47	350.000
221.84	-250.000
222.22	-350.000
222.59	145.455
222.97	158.333
223.34	-33.333
223.72	14.286
224.09	42.857
224.46	60.714
224.84	300.000
225.21	0.000
225.59	0.000
225.96	50.000
226.34	250.000
226.71	-71.429
227.08	116.667
227.46	0.000
227.83	-250.000
228.21	122.222
228.58	118.182
228.95	112.500
229.33	-30.000
229.70	81.250
230.08	25.000
230.45	-14.286
230.82	28.571
231.20	0.000
231.57	50.000
231.95	28.571
232.32	50.000
232.69	35.714
233.07	400.000
233.44	0.000
233.81	-50.000
234.19	44.444
234.56	47.059
234.93	50.000
235.31	50.000
235.68	-160.000
236.05	-53.846
236.43	-10.000
236.80	35.294
237.17	15.625
237.55	25.000
237.92	14.815
238.29	13.889
238.67	-3.333
239.04	2.941
239.41	7.317
239.79	-6.667
240.16	7.317
240.53	5.263
240.91	-6.522
241.28	14.286
241.65	19.643
242.02	26.027
242.40	0.000
242.77	6.780
243.14	3.030
243.51	-1.250
243.89	17.241
244.26	5.747
244.63	9.524
245.00	9.278
245.38	9.278
245.75	3.371
246.12	6.034
246.49	4.132
246.87	11.538
247.24	-3.361
247.61	12.281
247.98	6.504
248.36	3.125
248.73	12.500
249.10	-1.948
249.47	8.861
249.84	5.229
250.22	7.647
250.59	8.497
250.96	14.085
251.33	4.070
251.70	8.824
252.08	5.584
252.45	5.446
252.82	7.035
253.19	9.217
253.56	7.944
253.94	13.514
254.31	6.957
254.68	7.018
255.05	6.693
255.42	3.930
255.79	8.494
256.16	8.171
256.54	7.090
256.91	4.943
257.28	4.833
257.65	4.869
258.02	4.965
258.39	8.081
258.76	7.692
259.14	8.970
259.51	3.560
259.88	4.811
260.25	5.882
260.62	7.639
260.99	5.763
261.36	3.082
261.73	6.329
262.10	5.471
262.47	7.669
262.85	4.075
263.22	5.538
263.59	4.050
263.96	9.627
264.33	7.273
264.70	5.060
265.07	6.250
265.44	7.365
265.81	6.780
266.18	7.923
266.55	6.427
266.92	8.549
267.29	7.311
267.66	8.184
268.03	5.236
268.40	3.133
268.77	4.278
269.14	7.434
269.51	5.913
269.88	4.239
270.25	2.041
270.62	5.122
270.99	6.138
271.36	3.667
271.73	8.685
272.10	5.353
272.47	5.910
272.84	4.703
273.21	7.889
273.58	4.819
273.95	6.865
274.32	5.312
274.69	5.656
275.06	8.705
275.43	5.896
275.80	5.298
276.17	6.437
276.54	3.854
276.91	4.825
277.28	6.114
277.65	8.264
278.02	5.745
278.39	4.376
278.76	7.547
279.13	2.697
279.50	8.403
279.87	5.400
280.23	5.376
280.60	5.653
280.97	6.869
281.34	8.077
281.71	8.214
282.08	3.885
282.45	3.914
282.82	5.405
283.19	5.029
283.56	5.588
283.92	3.795
284.29	5.385
284.66	6.008
285.03	4.126
285.40	8.318
285.77	3.691
286.14	5.776
286.51	7.380
286.87	4.936
287.24	4.236
287.61	5.291
287.98	6.316
288.35	3.640
288.72	6.305
289.08	5.382
289.45	5.800
289.82	4.371
290.19	4.608
290.56	3.945
290.93	5.724
291.29	4.006
291.66	4.409
292.03	3.668
292.40	3.065
292.77	5.582
293.13	2.760
293.50	3.187
293.87	4.427
294.24	5.100
294.60	4.471
294.97	5.208
295.34	3.528
295.71	3.875
296.08	3.886
296.44	2.276
296.81	4.583
297.18	4.203
297.55	6.504
297.91	6.301
298.28	4.881
298.65	4.613
299.02	5.391
299.38	2.052
299.75	3.724
300.12	3.141
300.48	3.953
300.85	6.084
301.22	4.545
301.59	3.684
301.95	4.810
302.32	6.096
302.69	4.602
303.05	4.579
303.42	3.611
303.79	5.140
304.15	5.376
304.52	2.259
304.89	3.509
305.25	2.785
305.62	2.567
305.99	4.444
306.35	3.699
306.72	3.712
307.09	3.649
307.45	3.904
307.82	4.398
308.19	3.484
308.55	4.907
308.92	4.139
309.29	2.793
309.65	4.736
310.02	4.400
310.38	5.049
310.75	3.169
311.12	3.767
311.48	3.924
311.85	2.932
312.22	3.692
312.58	4.459
312.95	3.202
313.31	4.037
313.68	3.141
314.05	3.776
314.41	4.742
314.78	2.887
315.14	5.139
315.51	5.072
315.87	3.791
316.24	5.662
316.61	4.724
316.97	5.357
317.34	4.004
317.70	4.780
318.07	3.654
318.43	4.314
318.80	5.682
319.16	4.785
319.53	6.173
319.89	5.709
320.26	5.162
320.62	6.921
320.99	5.219
321.35	5.550
321.72	4.984
322.08	6.647
322.45	5.787
322.81	6.287
323.18	5.496
323.54	6.274
323.91	5.161
324.27	6.250
324.64	7.022
325.00	7.482
325.37	9.734
325.73	6.618
326.10	7.629
326.46	9.058
326.83	9.011
327.19	10.898
327.56	9.731
327.92	11.532
328.29	10.625
328.65	11.509
329.01	11.949
329.38	12.258
329.74	12.276
330.11	14.087
330.47	12.709
330.84	13.269
331.20	15.399
331.56	14.907
331.93	16.712
332.29	16.774
332.66	15.837
333.02	16.822
333.38	17.599
333.75	19.139
334.11	19.069
334.48	19.946
334.84	20.055
335.20	19.945
335.57	20.580
335.93	19.512
336.29	22.099
336.66	21.708
337.02	20.446
337.38	20.556
337.75	23.455
338.11	23.264
338.47	24.453
338.84	23.845
339.20	23.949
339.56	24.862
339.93	25.067
340.29	25.138
340.65	25.806
341.02	24.823
341.38	24.513
341.74	24.558
342.11	25.130
342.47	25.534
342.83	26.730
343.20	25.436
343.56	26.696
343.92	26.838
344.28	26.985
344.65	26.857
345.01	27.226
345.37	26.325
345.73	27.782
346.10	27.869
346.46	28.511
346.82	27.578
347.19	26.600
347.55	28.739
347.91	29.288
348.27	28.537
348.63	28.194
349.00	27.810
349.36	28.678
349.72	28.690
350.08	28.770
350.45	29.050
350.81	28.073
351.17	27.280
351.53	28.980
351.89	28.819
352.26	29.120
352.62	29.355
352.98	28.273
353.34	28.502
353.70	29.207
354.07	28.710
354.43	29.624
354.79	30.801
355.15	30.079
355.51	30.142
355.87	30.502
356.24	29.772
356.60	29.830
356.96	30.635
357.32	29.633
357.68	31.118
358.04	30.937
358.40	30.466
358.77	31.659
359.13	30.825
359.49	29.430
359.85	30.655
360.21	30.781
360.57	30.528
360.93	32.073
361.29	30.060
361.66	32.367
362.02	32.197
362.38	31.683
362.74	31.340
363.10	32.355
363.46	31.950
363.82	33.659
364.18	31.439
364.54	31.765
364.90	32.975
365.26	31.951
365.62	33.066
365.98	33.944
366.35	34.013
366.71	33.333
367.07	33.745
367.43	32.566
367.79	32.862
368.15	33.381
368.51	33.940
368.87	33.238
369.23	34.368
369.59	34.402
369.95	34.384
370.31	35.405
370.67	35.224
371.03	34.727
371.39	33.917
371.75	35.604
372.11	34.736
372.47	34.541
372.83	33.428
373.19	35.021
373.55	35.596
373.91	34.557
374.27	36.215
374.63	37.186
374.99	36.099
375.35	36.072
375.71	38.112
376.07	36.517
376.42	35.918
376.78	35.973
377.14	35.951
377.50	35.857
377.86	36.680
378.22	37.524
378.58	37.179
378.94	36.484
379.30	37.991
379.66	38.182
380.02	37.646
380.38	37.371
380.74	38.420
381.09	37.914
381.45	37.187
381.81	38.495
382.17	37.246
382.53	38.788
382.89	38.418
383.25	38.457
383.61	38.476
383.97	37.841
384.32	38.649
384.68	38.638
385.04	38.480
385.40	38.457
385.76	38.428
386.12	38.745
386.48	38.442
386.83	38.618
387.19	38.156
387.55	39.774
387.91	39.120
388.27	38.400
388.62	39.899
388.98	39.840
389.34	38.101
389.70	38.968
390.06	38.011
390.42	39.573
390.77	38.914
391.13	38.966
391.49	39.586
391.85	40.026
392.20	38.795
392.56	38.907
392.92	39.107
393.28	38.974
393.64	39.279
393.99	41.567
394.35	40.291
394.71	40.038
395.07	39.598
395.42	39.223
395.78	39.870
396.14	39.407
396.50	39.062
396.85	39.987
397.21	38.409
397.57	38.934
397.92	38.646
398.28	40.632
398.64	38.434
399.00	39.334
399.35	38.488
399.71	38.828
400.07	39.238
400.42	39.045
400.78	39.375
401.14	38.234
401.49	38.356
401.85	38.147
402.21	37.892
402.57	38.562
402.92	37.327
403.28	39.223
403.63	38.146
403.99	38.265
404.35	38.101
404.70	36.012
405.06	36.545
405.42	37.663
405.77	37.013
406.13	36.787
406.49	37.004
406.84	36.553
407.20	37.207
407.55	36.768
407.91	36.230
408.27	37.731
408.62	37.354
408.98	36.537
409.34	37.113
409.69	36.111
410.05	35.776
410.40	35.679
410.76	36.128
411.11	36.500
411.47	35.897
411.83	34.589
412.18	36.100
412.54	36.080
412.89	36.022
413.25	36.462
413.60	35.342
413.96	34.908
414.31	35.793
414.67	36.434
415.03	35.619
415.38	35.836
415.74	36.221
416.09	37.296
416.45	35.246
416.80	36.748
417.16	37.500
417.51	35.843
417.87	35.919
418.22	35.751
418.58	36.321
418.93	38.182
419.29	36.108
419.64	36.358
420.00	38.350
420.35	36.836
420.71	37.849
421.06	36.832
421.42	38.281
421.77	38.092
422.12	37.287
422.48	38.062
422.83	38.457
423.19	38.375
423.54	38.624
423.90	38.751
424.25	38.634
424.61	39.106
424.96	37.979
425.31	39.226
425.67	39.319
426.02	39.458
426.38	38.760
426.73	41.344
427.09	39.620
427.44	40.529
427.79	40.542
428.15	41.444
428.50	40.279
428.85	40.049
429.21	40.804
429.56	40.054
429.92	40.986
430.27	40.501
430.62	39.937
430.98	41.401
431.33	41.009
431.68	41.497
432.04	42.091
432.39	41.358
432.74	41.912
433.10	43.333
433.45	42.772
433.80	43.877
434.16	42.548
434.51	42.903
434.86	44.077
435.22	43.073
435.57	43.980
435.92	43.832
436.28	44.067
436.63	43.525
436.98	43.801
437.34	43.739
437.69	43.948
438.04	45.926
438.39	43.739
438.75	44.930
439.10	45.274
439.45	44.553
439.81	45.443
440.16	46.259
440.51	45.672
440.86	48.761
441.22	45.475
441.57	45.806
441.92	47.534
442.27	47.506
442.63	47.109
442.98	47.501
443.33	46.021
443.68	47.480
444.03	47.789
444.39	46.877
444.74	48.328
445.09	48.385
445.44	48.661
445.79	48.530
446.15	47.137
446.50	47.865
446.85	47.450
447.20	47.914
447.55	48.382
447.91	48.336
448.26	48.549
448.61	47.899
448.96	47.906
449.31	47.225
449.66	47.793
450.02	49.458
450.37	50.030
450.72	48.167
451.07	50.190
451.42	48.002
451.77	49.186
452.12	48.086
452.47	48.551
452.83	48.587
453.18	47.818
453.53	49.178
453.88	49.787
454.23	49.170
454.58	50.567
454.93	49.613
455.28	47.810
455.63	49.907
455.98	49.549
456.34	49.617
456.69	51.398
457.04	51.355
457.39	50.243
457.74	50.967
458.09	48.676
458.44	49.327
458.79	48.347
459.14	49.314
459.49	51.104
459.84	51.100
460.19	50.364
460.54	51.589
460.89	51.023
461.24	50.932
461.59	51.188
461.94	49.371
462.29	50.905
462.64	50.100
462.99	49.966
463.34	51.113
463.69	50.901
464.04	50.182
464.39	50.576
464.74	51.288
465.09	50.593
465.44	50.548
465.79	50.680
466.14	50.456
466.49	51.064
466.84	51.457
467.19	51.314
467.54	51.405
467.89	51.232
468.24	51.095
468.59	52.381
468.94	51.683
469.29	51.148
469.64	50.581
469.99	53.048
470.34	51.468
470.68	52.722
471.03	52.371
471.38	52.996
471.73	51.821
472.08	50.950
472.43	52.148
472.78	49.829
473.13	52.857
473.48	52.704
473.83	51.308
474.17	52.591
474.52	52.967
474.87	52.061
475.22	50.946
475.57	51.892
475.92	52.606
476.27	51.863
476.61	52.778
476.96	50.920
477.31	52.623
477.66	52.416
478.01	52.555
478.36	52.179
478.70	52.365
479.05	52.418
479.40	53.471
479.75	52.138
480.10	52.125
480.45	52.700
480.79	53.726
481.14	52.766
481.49	52.315
481.84	52.944
482.19	51.543
482.53	53.237
482.88	52.697
483.23	52.543
483.58	52.311
483.92	52.759
484.27	51.686
484.62	51.995
484.97	51.907
485.31	51.156
485.66	51.182
486.01	51.483
486.36	50.676
486.70	51.514
487.05	52.245
487.40	51.706
487.75	52.563
488.09	51.916
488.44	52.889
488.79	53.418
489.13	53.005
489.48	54.297
489.83	52.691
490.17	52.719
490.52	53.210
490.87	51.180
491.22	52.149
491.56	52.277
491.91	51.386
492.26	52.941
492.60	52.639
492.95	54.550
493.30	52.467
493.64	53.340
493.99	52.415
494.34	52.282
494.68	53.476
495.03	52.457
495.37	52.306
495.72	52.802
496.07	53.659
496.41	52.925
496.76	53.247
497.11	52.492
497.45	53.126
497.80	54.390
498.14	51.863
498.49	53.225
498.84	52.894
499.18	53.012
499.53	52.133
499.87	52.772
500.22	52.720
500.56	54.312
500.91	53.514
501.26	53.386
501.60	52.976
501.95	54.294
502.29	53.705
502.64	54.199
502.98	53.922
503.33	52.978
503.67	53.446
504.02	54.399
504.36	53.736
504.71	53.687
505.06	54.706
505.40	54.162
505.75	54.845
506.09	54.688
506.44	55.390
506.78	54.439
507.13	55.171
507.47	54.308
507.82	54.594
508.16	55.098
508.51	55.194
508.85	55.573
509.19	54.284
509.54	55.013
509.88	54.045
510.23	55.299
510.57	55.959
510.92	53.465
511.26	56.356
511.61	56.711
511.95	55.233
512.30	55.931
512.64	54.702
512.98	56.317
513.33	56.799
513.67	55.429
514.02	56.922
514.36	56.286
514.70	57.634
515.05	58.519
515.39	56.730
515.74	57.305
516.08	57.322
516.42	57.479
516.77	58.163
517.11	57.329
517.46	58.288
517.80	57.926
518.14	58.665
518.49	57.933
518.83	57.533
519.17	56.822
519.52	57.016
519.86	56.543
520.20	58.384
520.55	57.098
520.89	59.285
521.23	56.808
521.58	58.738
521.92	58.910
522.26	58.816
522.61	59.026
522.95	60.927
523.29	58.640
523.64	59.022
523.98	59.883
524.32	59.149
524.66	59.667
525.01	60.130
525.35	59.430
525.69	59.259
526.04	58.333
526.38	60.376
526.72	58.993
527.06	58.949
527.41	58.311
527.75	59.115
528.09	59.402
528.43	60.702
528.78	60.396
529.12	59.419
529.46	59.844
529.80	57.885
530.15	60.792
530.49	61.616
530.83	60.944
531.17	58.630
531.51	59.713
531.86	59.347
532.20	60.195
532.54	59.905
532.88	61.465
533.22	60.753
533.57	59.961
533.91	59.987
534.25	60.352
534.59	60.423
534.93	58.402
535.27	57.805
535.62	59.494
535.96	59.883
536.30	60.488
536.64	61.061
536.98	60.488
537.32	62.376
537.66	61.431
538.01	61.119
538.35	61.512
538.69	60.719
539.03	59.398
539.37	61.709
539.71	60.600
540.05	59.946
540.39	61.704
540.73	61.646
541.07	60.843
541.42	59.946
541.76	61.872
542.10	60.633
542.44	62.404
542.78	61.046
543.12	61.470
543.46	60.640
543.80	60.722
544.14	59.947
544.48	61.359
544.82	62.064
545.16	62.295
545.50	61.148
545.84	62.181
546.18	62.128
546.52	61.788
546.86	61.323
547.20	62.160
547.54	60.353
547.88	60.938
548.22	60.092
548.56	60.554
548.90	61.253
549.24	60.744
549.58	61.354
549.92	61.187
550.26	62.125
550.60	62.230
550.94	63.480
551.28	62.519
551.62	62.923
551.96	62.180
552.30	62.865
552.64	61.142
552.98	62.166
553.32	63.124
553.66	62.627
554.00	63.650
554.34	63.072
554.68	60.103
555.02	62.500
555.36	62.827
555.69	62.418
556.03	62.099
556.37	61.423
556.71	63.177
557.05	63.162
557.39	63.346
557.73	63.193
558.07	63.047
558.41	63.706
558.75	64.147
559.08	62.490
559.42	64.048
559.76	64.291
560.10	63.150
560.44	63.142
560.78	61.818
561.12	63.752
561.45	63.598
561.79	62.535
562.13	63.804
562.47	63.094
562.81	62.680
563.15	61.918
563.48	62.801
563.82	64.516
564.16	63.719
564.50	62.770
564.84	62.985
565.17	63.246
565.51	66.393
565.85	65.158
566.19	62.798
566.52	64.745
566.86	63.625
567.20	64.633
567.54	64.294
567.88	64.030
568.21	63.575
568.55	63.207
568.89	64.066
569.23	64.324
569.56	62.785
569.90	64.028
570.24	62.263
570.57	62.800
570.91	61.973
571.25	61.789
571.59	61.352
571.92	60.444
572.26	61.443
572.60	61.240
572.93	61.500
573.27	61.285
573.61	61.635
573.95	61.715
574.28	61.176
574.62	61.022
574.96	60.409
575.29	61.080
575.63	59.886
575.97	60.504
576.30	61.063
576.64	59.629
576.98	61.416
577.31	62.055
577.65	61.491
577.98	61.623
578.32	61.460
578.66	60.434
578.99	61.044
579.33	60.605
579.67	60.283
580.00	61.165
580.34	62.065
580.67	61.672
581.01	61.455
581.35	60.810
581.68	61.602
582.02	61.241
582.35	61.244
582.69	61.862
583.02	61.397
583.36	62.219
583.70	63.292
584.03	64.109
584.37	63.975
584.70	63.462
585.04	61.917
585.37	61.425
585.71	62.577
586.04	62.960
586.38	62.443
586.72	63.271
587.05	63.663
587.39	63.573
587.72	64.215
588.06	63.742
588.39	63.116
588.73	63.645
589.06	64.612
589.40	63.844
589.73	64.257
590.07	65.483
590.40	64.938
590.73	67.463
591.07	64.631
591.40	65.583
591.74	65.566
592.07	65.677
592.41	66.122
592.74	65.472
593.08	62.906
593.41	64.415
593.75	63.952
594.08	63.955
594.41	64.265
594.75	65.038
595.08	65.569
595.42	64.667
595.75	65.490
596.09	66.497
596.42	66.143
596.75	66.918
597.09	66.879
597.42	65.447
597.75	66.606
598.09	64.690
598.42	65.072
598.76	65.508
599.09	65.465
599.42	63.964
599.76	64.522
600.09	65.498
600.42	65.239
600.76	63.930
601.09	64.924
601.42	64.787
601.76	65.343
602.09	65.800
602.42	66.512
602.76	66.087
603.09	66.404
603.42	67.517
603.76	66.653
604.09	66.991
604.42	65.990
604.76	68.002
605.09	66.042
605.42	65.824
605.75	66.769
606.09	65.775
606.42	65.763
606.75	66.407
607.09	65.143
607.42	65.707
607.75	65.009
608.08	65.723
608.42	64.459
608.75	67.663
609.08	67.912
609.41	67.614
609.75	66.028
610.08	67.599
610.41	66.715
610.74	67.284
611.07	68.837
611.41	67.462
611.74	68.284
612.07	66.649
612.40	68.271
612.73	68.701
613.07	67.267
613.40	67.615
613.73	68.607
614.06	68.670
614.39	68.923
614.72	67.955
615.06	67.989
615.39	66.048
615.72	66.254
616.05	68.547
616.38	67.123
616.71	68.869
617.05	69.302
617.38	69.202
617.71	69.560
618.04	69.270
618.37	69.231
618.70	71.749
619.03	70.556
619.36	70.622
619.69	71.797
620.03	72.169
620.36	70.243
620.69	69.094
621.02	69.801
621.35	71.203
621.68	72.279
622.01	71.417
622.34	70.311
622.67	71.530
623.00	69.755
623.33	69.360
623.66	71.279
623.99	71.936
624.32	70.418
624.65	70.451
624.99	70.805
625.32	70.508
625.65	71.720
625.98	72.361
626.31	70.989
626.64	72.097
626.97	71.990
627.30	72.942
627.63	71.404
627.96	72.776
628.29	72.803
628.62	71.190
628.95	71.543
629.28	74.093
629.61	72.582
629.94	73.607
630.26	73.221
630.59	75.442
630.92	72.923
631.25	72.103
631.58	74.670
631.91	73.684
632.24	75.803
632.57	73.864
632.90	75.919
633.23	73.412
633.56	76.826
633.89	74.353
634.22	77.037
634.55	77.128
634.88	73.946
635.20	74.359
635.53	77.467
635.86	74.252
636.19	75.420
636.52	78.316
636.85	74.938
637.18	74.843
637.51	74.843
637.83	74.901
638.16	75.716
638.49	76.703
638.82	75.000
639.15	74.355
