SpectraSuite Data File
++++++++++++++++++++++++++++++++++++
Date: Fri May 15 17:27:59 PDT 2015
User: schluterlab
Dark Spectrum Present: Yes
Reference Spectrum Present: Yes
Number of Sampled Component Spectra: 1
Spectrometers: USB2E3373
Integration Time (usec): 3000 (USB2E3373)
Spectra Averaged: 3 (USB2E3373)
Boxcar Smoothing: 0 (USB2E3373)
Correct for Electrical Dark: No (USB2E3373)
Strobe/Lamp Enabled: No (USB2E3373)
Correct for Detector Non-linearity: No (USB2E3373)
Correct for Stray Light: No (USB2E3373)
Number of Pixels in Processed Spectrum: 2048
>>>>>Begin Processed Spectral Data<<<<<
178.53	0.000
178.91	0.000
179.29	100.000
179.67	100.000
180.04	-0.000
180.42	150.000
180.80	400.000
181.18	66.667
181.56	500.000
181.94	150.000
182.31	-400.000
182.69	-60.000
183.07	-133.333
183.45	-300.000
183.83	250.000
184.20	54.545
184.58	122.222
184.96	-350.000
185.34	-266.667
185.72	300.000
186.09	69.231
186.47	-200.000
186.85	66.667
187.23	66.667
187.61	500.000
187.98	0.000
188.36	0.000
188.74	-166.667
189.12	0.000
189.49	44.444
189.87	0.000
190.25	85.714
190.63	250.000
191.00	166.667
191.38	-15.789
191.76	-50.000
192.14	25.000
192.51	-100.000
192.89	-55.556
193.27	-100.000
193.65	100.000
194.02	109.091
194.40	20.000
194.78	-212.500
195.15	-8.333
195.53	37.500
195.91	400.000
196.29	-25.000
196.66	53.846
197.04	171.429
197.42	-22.222
197.79	-433.333
198.17	-107.692
198.55	1500.000
198.92	-400.000
199.30	400.000
199.68	-80.000
200.05	-466.667
200.43	0.000
200.81	66.667
201.18	-166.667
201.56	1000.000
201.94	-550.000
202.31	200.000
202.69	60.000
203.07	100.000
203.44	500.000
203.82	0.000
204.19	42.857
204.57	-66.667
204.95	87.500
205.32	10.000
205.70	-42.857
206.08	75.000
206.45	211.111
206.83	78.571
207.20	-157.143
207.58	-200.000
207.96	-500.000
208.33	-90.000
208.71	75.000
209.08	-50.000
209.46	-800.000
209.84	0.000
210.21	-800.000
210.59	0.000
210.96	83.333
211.34	-175.000
211.71	40.000
212.09	-100.000
212.46	-900.000
212.84	0.000
213.22	0.000
213.59	550.000
213.97	61.538
214.34	63.636
214.72	-16.667
215.09	400.000
215.47	69.231
215.84	-27.273
216.22	-33.333
216.59	-62.500
216.97	-150.000
217.34	25.000
217.72	-220.000
218.09	100.000
218.47	150.000
218.84	-400.000
219.22	-88.889
219.59	140.000
219.97	166.667
220.34	125.000
220.72	71.429
221.09	-175.000
221.47	-450.000
221.84	-750.000
222.22	-650.000
222.59	27.273
222.97	125.000
223.34	-233.333
223.72	-42.857
224.09	42.857
224.46	14.286
224.84	-66.667
225.21	80.000
225.59	53.333
225.96	150.000
226.34	250.000
226.71	-185.714
227.08	-66.667
227.46	37.500
227.83	-350.000
228.21	55.556
228.58	0.000
228.95	12.500
229.33	-20.000
229.70	31.250
230.08	-87.500
230.45	-85.714
230.82	28.571
231.20	20.000
231.57	50.000
231.95	42.857
232.32	-60.000
232.69	7.143
233.07	-166.667
233.44	-100.000
233.81	30.000
234.19	-33.333
234.56	-17.647
234.93	650.000
235.31	75.000
235.68	-40.000
236.05	-100.000
236.43	-50.000
236.80	29.412
237.17	9.375
237.55	20.000
237.92	18.519
238.29	5.556
238.67	3.333
239.04	26.471
239.41	-19.512
239.79	16.667
240.16	7.317
240.53	2.632
240.91	-6.522
241.28	7.937
241.65	25.000
242.02	17.808
242.40	10.000
242.77	0.000
243.14	15.152
243.51	13.750
243.89	22.989
244.26	20.690
244.63	10.714
245.00	3.093
245.38	14.433
245.75	-6.742
246.12	6.897
246.49	14.050
246.87	19.231
247.24	8.403
247.61	11.404
247.98	8.130
248.36	12.500
248.73	13.158
249.10	13.636
249.47	15.190
249.84	15.033
250.22	9.412
250.59	15.686
250.96	16.901
251.33	13.953
251.70	15.294
252.08	13.198
252.45	17.822
252.82	9.045
253.19	15.668
253.56	14.953
253.94	14.414
254.31	21.304
254.68	15.789
255.05	15.354
255.42	13.974
255.79	11.969
256.16	13.619
256.54	13.806
256.91	16.350
257.28	12.268
257.65	11.236
258.02	13.475
258.39	16.498
258.76	16.117
259.14	17.940
259.51	13.916
259.88	13.402
260.25	14.706
260.62	14.931
260.99	12.203
261.36	16.438
261.73	17.722
262.10	15.805
262.47	12.577
262.85	14.107
263.22	17.538
263.59	19.626
263.96	14.907
264.33	14.545
264.70	13.690
265.07	12.798
265.44	17.564
265.81	16.949
266.18	11.475
266.55	16.967
266.92	15.803
267.29	16.188
267.66	15.345
268.03	14.398
268.40	13.577
268.77	17.914
269.14	13.909
269.51	15.938
269.88	13.965
270.25	13.776
270.62	12.683
270.99	13.811
271.36	12.225
271.73	15.728
272.10	14.842
272.47	13.948
272.84	11.881
273.21	16.009
273.58	16.386
273.95	15.103
274.32	12.471
274.69	11.765
275.06	16.295
275.43	14.286
275.80	11.921
276.17	12.644
276.54	15.632
276.91	12.939
277.28	14.847
277.65	14.463
278.02	12.766
278.39	12.910
278.76	13.417
279.13	11.826
279.50	16.597
279.87	15.767
280.23	11.613
280.60	15.400
280.97	12.121
281.34	13.077
281.71	16.222
282.08	14.519
282.45	11.937
282.82	13.127
283.19	12.186
283.56	14.258
283.92	12.334
284.29	12.500
284.66	12.597
285.03	14.342
285.40	12.665
285.77	12.830
286.14	12.816
286.51	14.576
286.87	11.700
287.24	13.628
287.61	11.640
287.98	13.509
288.35	11.265
288.72	14.711
289.08	11.806
289.45	12.127
289.82	13.986
290.19	12.969
290.56	11.149
290.93	11.448
291.29	10.940
291.66	11.339
292.03	12.281
292.40	9.355
292.77	12.600
293.13	7.955
293.50	9.712
293.87	11.298
294.24	10.665
294.60	9.836
294.97	10.119
295.34	9.969
295.71	10.581
296.08	11.211
296.44	9.957
296.81	10.000
297.18	10.580
297.55	11.924
297.91	10.274
298.28	11.346
298.65	11.126
299.02	10.377
299.38	8.755
299.75	9.931
300.12	9.817
300.48	10.408
300.85	11.407
301.22	10.649
301.59	9.474
301.95	10.886
302.32	10.895
302.69	10.821
303.05	8.911
303.42	9.215
303.79	9.813
304.15	10.514
304.52	9.156
304.89	8.889
305.25	9.201
305.62	8.168
305.99	8.772
306.35	8.439
306.72	8.324
307.09	8.894
307.45	9.414
307.82	9.954
308.19	10.337
308.55	8.942
308.92	10.349
309.29	9.497
309.65	8.504
310.02	9.131
310.38	9.660
310.75	9.836
311.12	9.257
311.48	8.590
311.85	8.796
312.22	8.966
312.58	9.130
312.95	8.645
313.31	7.764
313.68	9.738
314.05	8.469
314.41	9.381
314.78	8.144
315.14	9.661
315.51	10.559
315.87	8.607
316.24	10.415
316.61	9.941
316.97	9.028
317.34	9.863
317.70	9.943
318.07	7.885
318.43	9.020
318.80	9.375
319.16	9.863
319.53	9.782
319.89	9.449
320.26	9.514
320.62	9.729
320.99	7.933
321.35	9.353
321.72	10.488
322.08	10.675
322.45	10.457
322.81	9.430
323.18	9.127
323.54	9.556
323.91	8.861
324.27	9.180
324.64	9.457
325.00	8.850
325.37	10.009
325.73	8.341
326.10	10.445
326.46	10.314
326.83	10.236
327.19	10.375
327.56	9.557
327.92	10.739
328.29	9.196
328.65	10.377
329.01	10.294
329.38	9.585
329.74	10.198
330.11	9.824
330.47	8.998
330.84	8.846
331.20	9.981
331.56	8.611
331.93	10.502
332.29	9.349
332.66	9.774
333.02	10.688
333.38	8.433
333.75	10.256
334.11	8.147
334.48	10.426
334.84	11.813
335.20	9.241
335.57	9.248
335.93	9.937
336.29	8.748
336.66	9.537
337.02	8.736
337.38	8.148
337.75	10.000
338.11	9.558
338.47	10.401
338.84	9.982
339.20	9.506
339.56	10.367
339.93	10.654
340.29	9.908
340.65	10.663
341.02	9.309
341.38	9.469
341.74	9.364
342.11	9.359
342.47	9.786
342.83	10.467
343.20	8.885
343.56	9.565
343.92	8.857
344.28	11.016
344.65	9.154
345.01	9.594
345.37	9.924
345.73	10.377
346.10	10.613
346.46	9.420
346.82	9.820
347.19	8.894
347.55	10.443
347.91	9.871
348.27	10.024
348.63	9.455
349.00	8.942
349.36	9.393
349.72	8.955
350.08	9.590
350.45	10.455
350.81	8.887
351.17	9.691
351.53	10.041
351.89	8.918
352.26	9.280
352.62	10.242
352.98	9.719
353.34	9.581
353.70	9.951
354.07	9.355
354.43	9.928
354.79	9.414
355.15	10.317
355.51	10.285
355.87	9.223
356.24	8.238
356.60	8.892
356.96	9.365
357.32	10.304
357.68	8.991
358.04	9.289
358.40	8.682
358.77	9.171
359.13	8.086
359.49	8.475
359.85	9.906
360.21	9.250
360.57	8.722
360.93	9.607
361.29	7.855
361.66	9.169
362.02	9.924
362.38	9.292
362.74	9.690
363.10	8.653
363.46	8.451
363.82	9.617
364.18	8.856
364.54	9.338
364.90	9.247
365.26	9.461
365.62	9.562
365.98	9.018
366.35	9.468
366.71	8.795
367.07	9.579
367.43	9.418
367.79	9.258
368.15	9.261
368.51	8.376
368.87	8.758
369.23	8.809
369.59	8.673
369.95	9.604
370.31	8.598
370.67	9.925
371.03	8.663
371.39	8.899
371.75	9.890
372.11	9.415
372.47	9.098
372.83	9.794
373.19	10.556
373.55	10.108
373.91	10.007
374.27	10.135
374.63	10.337
374.99	9.362
375.35	9.192
375.71	9.790
376.07	9.691
376.42	9.864
376.78	10.537
377.14	9.749
377.50	9.429
377.86	9.705
378.22	9.700
378.58	9.167
378.94	8.885
379.30	10.293
379.66	9.467
380.02	9.319
380.38	9.738
380.74	9.276
381.09	10.552
381.45	9.419
381.81	9.870
382.17	9.645
382.53	9.557
382.89	8.851
383.25	9.708
383.61	10.305
383.97	9.778
384.32	9.944
384.68	9.598
385.04	9.559
385.40	9.396
385.76	10.314
386.12	9.832
386.48	10.792
386.83	8.941
387.19	9.829
387.55	9.912
387.91	9.291
388.27	10.317
388.62	10.510
388.98	10.313
389.34	9.432
389.70	10.317
390.06	9.880
390.42	10.363
390.77	9.353
391.13	9.332
391.49	9.573
391.85	8.707
392.20	9.542
392.56	9.917
392.92	9.982
393.28	9.670
393.64	9.309
393.99	10.846
394.35	9.108
394.71	9.962
395.07	9.679
395.42	9.229
395.78	9.511
396.14	9.584
396.50	10.399
396.85	9.272
397.21	10.652
397.57	9.216
397.92	9.646
398.28	9.425
398.64	9.940
399.00	10.271
399.35	9.368
399.71	9.994
400.07	10.218
400.42	9.731
400.78	9.798
401.14	10.587
401.49	10.066
401.85	9.933
402.21	10.241
402.57	9.438
402.92	9.598
403.28	10.088
403.63	9.269
403.99	9.566
404.35	10.119
404.70	9.881
405.06	9.342
405.42	9.695
405.77	9.704
406.13	8.789
406.49	9.828
406.84	9.841
407.20	10.054
407.55	9.272
407.91	9.225
408.27	9.496
408.62	10.277
408.98	11.029
409.34	9.913
409.69	9.302
410.05	10.099
410.40	10.309
410.76	9.590
411.11	9.875
411.47	9.533
411.83	9.102
412.18	9.974
412.54	10.112
412.89	9.360
413.25	10.048
413.60	9.627
413.96	9.325
414.31	10.183
414.67	10.263
415.03	9.387
415.38	9.334
415.74	9.511
416.09	10.843
416.45	9.926
416.80	10.575
417.16	10.014
417.51	10.460
417.87	9.778
418.22	10.233
418.58	10.301
418.93	10.345
419.29	9.155
419.64	9.397
420.00	10.642
420.35	9.970
420.71	10.146
421.06	9.699
421.42	10.457
421.77	9.942
422.12	10.216
422.48	10.612
422.83	10.441
423.19	10.045
423.54	9.347
423.90	10.012
424.25	10.448
424.61	9.670
424.96	10.453
425.31	10.225
425.67	9.977
426.02	9.658
426.38	10.269
426.73	10.472
427.09	10.506
427.44	10.118
427.79	10.607
428.15	10.316
428.50	9.691
428.85	9.828
429.21	9.960
429.56	10.404
429.92	10.529
430.27	10.175
430.62	10.298
430.98	9.979
431.33	11.041
431.68	9.890
432.04	10.285
432.39	10.496
432.74	9.621
433.10	11.207
433.45	10.155
433.80	10.273
434.16	9.695
434.51	10.430
434.86	10.337
435.22	10.264
435.57	10.605
435.92	10.479
436.28	9.004
436.63	11.010
436.98	10.023
437.34	9.377
437.69	10.674
438.04	10.142
438.39	9.835
438.75	10.565
439.10	9.791
439.45	10.103
439.81	9.969
440.16	10.511
440.51	11.104
440.86	10.937
441.22	10.181
441.57	9.713
441.92	10.913
442.27	9.812
442.63	11.188
442.98	10.798
443.33	9.738
443.68	10.398
444.03	10.233
444.39	10.526
444.74	10.535
445.09	10.189
445.44	10.028
445.79	10.676
446.15	10.022
446.50	10.316
446.85	10.574
447.20	10.219
447.55	10.993
447.91	10.039
448.26	10.757
448.61	10.305
448.96	11.130
449.31	10.867
449.66	10.046
450.02	10.268
450.37	10.492
450.72	9.679
451.07	10.949
451.42	10.175
451.77	10.428
452.12	10.586
452.47	9.466
452.83	10.660
453.18	10.120
453.53	10.493
453.88	10.868
454.23	11.002
454.58	11.524
454.93	11.018
455.28	10.286
455.63	11.531
455.98	10.523
456.34	10.983
456.69	11.563
457.04	11.153
457.39	10.085
457.74	10.157
458.09	10.241
458.44	10.825
458.79	10.812
459.14	10.870
459.49	11.403
459.84	10.886
460.19	10.073
460.54	10.513
460.89	10.568
461.24	10.745
461.59	10.689
461.94	10.881
462.29	11.520
462.64	11.163
462.99	11.374
463.34	10.292
463.69	10.167
464.04	10.714
464.39	10.673
464.74	10.859
465.09	11.104
465.44	10.502
465.79	10.941
466.14	11.231
466.49	10.523
466.84	11.005
467.19	11.076
467.54	11.303
467.89	11.055
468.24	10.219
468.59	11.937
468.94	11.111
469.29	11.869
469.64	11.210
469.99	11.282
470.34	10.444
470.68	11.335
471.03	11.182
471.38	11.270
471.73	11.134
472.08	10.109
472.43	10.000
472.78	11.103
473.13	11.156
473.48	11.270
473.83	10.461
474.17	11.205
474.52	11.487
474.87	12.061
475.22	11.104
475.57	11.575
475.92	11.519
476.27	11.292
476.61	10.995
476.96	11.322
477.31	11.033
477.66	11.573
478.01	10.556
478.36	11.329
478.70	10.277
479.05	11.429
479.40	11.394
479.75	11.470
480.10	10.855
480.45	10.950
480.79	10.977
481.14	12.295
481.49	11.478
481.84	10.811
482.19	10.430
482.53	11.319
482.88	10.931
483.23	11.132
483.58	11.274
483.92	11.181
484.27	11.304
484.62	11.251
484.97	10.945
485.31	10.441
485.66	10.398
486.01	10.528
486.36	10.299
486.70	10.432
487.05	10.163
487.40	10.832
487.75	10.704
488.09	10.538
488.44	10.763
488.79	10.721
489.13	10.937
489.48	11.244
489.83	11.121
490.17	10.472
490.52	11.085
490.87	10.828
491.22	11.223
491.56	11.053
491.91	11.042
492.26	12.008
492.60	11.036
492.95	12.150
493.30	11.236
493.64	11.198
493.99	11.449
494.34	10.194
494.68	10.952
495.03	11.095
495.37	11.138
495.72	11.812
496.07	11.317
496.41	11.274
496.76	11.193
497.11	11.085
497.45	10.788
497.80	11.705
498.14	11.078
498.49	11.224
498.84	12.026
499.18	10.894
499.53	11.260
499.87	10.554
500.22	10.930
500.56	11.346
500.91	11.496
501.26	10.727
501.60	10.674
501.95	11.596
502.29	11.477
502.64	11.583
502.98	10.952
503.33	10.855
503.67	11.373
504.02	12.023
504.36	11.381
504.71	10.808
505.06	11.273
505.40	11.320
505.75	12.320
506.09	10.542
506.44	11.858
506.78	11.684
507.13	11.944
507.47	11.227
507.82	10.630
508.16	11.041
508.51	11.542
508.85	11.565
509.19	11.123
509.54	10.938
509.88	11.111
510.23	11.243
510.57	11.384
510.92	11.194
511.26	11.675
511.61	11.441
511.95	12.055
512.30	12.639
512.64	11.853
512.98	10.837
513.33	11.584
513.67	10.745
514.02	12.529
514.36	12.686
514.70	12.179
515.05	12.162
515.39	11.570
515.74	12.814
516.08	12.433
516.42	12.426
516.77	12.346
517.11	12.522
517.46	11.610
517.80	11.561
518.14	11.451
518.49	11.418
518.83	11.422
519.17	12.371
519.52	11.308
519.86	11.104
520.20	12.515
520.55	11.132
520.89	12.296
521.23	11.970
521.58	11.987
521.92	11.987
522.26	12.167
522.61	11.558
522.95	11.788
523.29	11.944
523.64	12.325
523.98	13.091
524.32	11.018
524.66	12.036
525.01	12.727
525.35	11.860
525.69	11.919
526.04	11.177
526.38	12.387
526.72	10.922
527.06	11.089
527.41	13.456
527.75	12.534
528.09	11.694
528.43	13.032
528.78	11.419
529.12	12.774
529.46	11.241
529.80	12.096
530.15	12.475
530.49	11.987
530.83	12.107
531.17	11.484
531.51	12.380
531.86	11.693
532.20	11.482
532.54	12.321
532.88	12.389
533.22	11.761
533.57	10.354
533.91	11.815
534.25	12.565
534.59	11.418
534.93	11.454
535.27	10.977
535.62	11.406
535.96	12.003
536.30	12.665
536.64	11.854
536.98	12.474
537.32	12.233
537.66	11.992
538.01	12.308
538.35	11.165
538.69	11.651
539.03	11.210
539.37	11.642
539.71	11.043
540.05	11.134
540.39	12.465
540.73	11.994
541.07	12.500
541.42	12.164
541.76	11.769
542.10	11.425
542.44	11.258
542.78	11.218
543.12	12.225
543.46	12.796
543.80	12.214
544.14	10.347
544.48	11.126
544.82	11.483
545.16	11.954
545.50	11.615
545.84	12.181
546.18	12.553
546.52	12.401
546.86	11.934
547.20	12.303
547.54	10.601
547.88	13.179
548.22	11.111
548.56	12.467
548.90	12.264
549.24	12.328
549.58	11.283
549.92	12.080
550.26	11.209
550.60	12.342
550.94	12.323
551.28	11.592
551.62	11.385
551.96	11.805
552.30	11.330
552.64	12.200
552.98	12.025
553.32	11.555
553.66	11.176
554.00	11.898
554.34	12.038
554.68	12.463
555.02	11.830
555.36	11.668
555.69	11.282
556.03	12.206
556.37	11.246
556.71	11.191
557.05	11.708
557.39	10.781
557.73	12.594
558.07	12.066
558.41	12.098
558.75	12.393
559.08	11.663
559.42	11.667
559.76	12.410
560.10	11.774
560.44	11.690
560.78	12.378
561.12	11.566
561.45	12.790
561.79	12.395
562.13	11.923
562.47	12.014
562.81	12.464
563.15	11.636
563.48	11.598
563.82	12.286
564.16	11.421
564.50	11.419
564.84	12.048
565.17	11.536
565.51	12.158
565.85	11.866
566.19	11.605
566.52	12.265
566.86	12.211
567.20	10.834
567.54	11.740
567.88	12.478
568.21	11.821
568.55	11.522
568.89	11.499
569.23	10.737
569.56	11.296
569.90	11.125
570.24	11.314
570.57	10.618
570.91	11.084
571.25	10.326
571.59	10.838
571.92	10.459
572.26	10.326
572.60	10.326
572.93	10.919
573.27	10.627
573.61	10.501
573.95	10.459
574.28	9.958
574.62	9.992
574.96	10.421
575.29	10.348
575.63	10.184
575.97	9.732
576.30	10.402
576.64	9.828
576.98	10.219
577.31	9.953
577.65	10.321
577.98	10.292
578.32	9.885
578.66	10.101
578.99	10.342
579.33	10.117
579.67	10.169
580.00	10.405
580.34	10.299
580.67	10.138
581.01	10.014
581.35	10.099
581.68	9.959
582.02	10.039
582.35	9.954
582.69	10.090
583.02	10.019
583.36	9.865
583.70	10.202
584.03	10.425
584.37	11.152
584.70	10.659
585.04	10.026
585.37	10.369
585.71	10.368
586.04	10.565
586.38	10.429
586.72	10.416
587.05	10.745
587.39	11.238
587.72	10.853
588.06	10.656
588.39	10.966
588.73	11.264
589.06	11.024
589.40	11.130
589.73	11.501
590.07	11.216
590.40	11.300
590.73	11.491
591.07	10.899
591.40	11.576
591.74	11.403
592.07	12.199
592.41	12.147
592.74	11.470
593.08	10.758
593.41	11.598
593.75	11.286
594.08	11.466
594.41	11.645
594.75	11.489
595.08	11.351
595.42	11.557
595.75	11.491
596.09	11.884
596.42	11.906
596.75	11.279
597.09	12.027
597.42	11.653
597.75	12.277
598.09	11.725
598.42	11.236
598.76	11.154
599.09	11.619
599.42	11.861
599.76	11.550
600.09	11.350
600.42	11.600
600.76	11.144
601.09	11.641
601.42	11.712
601.76	11.909
602.09	12.211
602.42	12.089
602.76	11.800
603.09	12.085
603.42	12.166
603.76	11.613
604.09	11.867
604.42	11.506
604.76	11.615
605.09	12.157
605.42	12.099
605.75	11.515
606.09	10.998
606.42	11.593
606.75	12.771
607.09	12.264
607.42	11.564
607.75	11.856
608.08	11.770
608.42	11.466
608.75	12.386
609.08	12.357
609.41	13.046
609.75	12.702
610.08	12.332
610.41	12.126
610.74	11.994
611.07	11.680
611.41	12.351
611.74	12.260
612.07	11.349
612.40	12.254
612.73	11.751
613.07	11.980
613.40	13.129
613.73	11.640
614.06	13.244
614.39	12.296
614.72	11.989
615.06	12.458
615.39	12.172
615.72	12.056
616.05	12.291
616.38	12.137
616.71	12.294
617.05	11.427
617.38	12.885
617.71	12.327
618.04	12.635
618.37	12.926
618.70	13.267
619.03	12.847
619.36	11.360
619.69	12.509
620.03	13.075
620.36	11.159
620.69	13.205
621.02	12.997
621.35	13.776
621.68	13.095
622.01	12.250
622.34	13.089
622.67	12.618
623.00	13.400
623.33	12.652
623.66	12.640
623.99	12.481
624.32	13.460
624.65	12.331
624.99	12.716
625.32	11.448
625.65	13.511
625.98	14.263
626.31	12.053
626.64	12.825
626.97	13.613
627.30	13.310
627.63	13.172
627.96	13.118
628.29	12.858
628.62	13.668
628.95	12.926
629.28	13.911
629.61	12.562
629.94	13.978
630.26	14.427
630.59	15.401
630.92	14.667
631.25	13.333
631.58	14.207
631.91	12.829
632.24	13.303
632.57	14.773
632.90	15.065
633.23	14.353
633.56	14.232
633.89	14.427
634.22	14.691
634.55	13.850
634.88	14.815
635.20	12.179
635.53	14.133
635.86	12.094
636.19	13.842
636.52	12.883
636.85	13.648
637.18	14.591
637.51	14.340
637.83	14.192
638.16	14.598
638.49	12.534
638.82	14.605
639.15	14.790
639.48	14.443
639.81	13.529
640.13	14.863
640.46	15.743
