SpectraSuite Data File
++++++++++++++++++++++++++++++++++++
Date: Fri May 15 17:32:06 PDT 2015
User: schluterlab
Dark Spectrum Present: Yes
Reference Spectrum Present: Yes
Number of Sampled Component Spectra: 1
Spectrometers: USB2E3373
Integration Time (usec): 3000 (USB2E3373)
Spectra Averaged: 3 (USB2E3373)
Boxcar Smoothing: 0 (USB2E3373)
Correct for Electrical Dark: No (USB2E3373)
Strobe/Lamp Enabled: No (USB2E3373)
Correct for Detector Non-linearity: No (USB2E3373)
Correct for Stray Light: No (USB2E3373)
Number of Pixels in Processed Spectrum: 2048
>>>>>Begin Processed Spectral Data<<<<<
178.53	0.000
178.91	0.000
179.29	37.500
179.67	-200.000
180.04	-57.143
180.42	200.000
180.80	-100.000
181.18	-66.667
181.56	300.000
181.94	200.000
182.31	-200.000
182.69	80.000
183.07	-100.000
183.45	-40.000
183.83	50.000
184.20	36.364
184.58	66.667
184.96	-150.000
185.34	-233.333
185.72	-400.000
186.09	23.077
186.47	-200.000
186.85	216.667
187.23	88.889
187.61	100.000
187.98	-166.667
188.36	88.889
188.74	33.333
189.12	94.118
189.49	5.556
189.87	0.000
190.25	71.429
190.63	650.000
191.00	33.333
191.38	5.263
191.76	300.000
192.14	75.000
192.51	100.000
192.89	-33.333
193.27	-14.286
193.65	-50.000
194.02	109.091
194.40	90.000
194.78	-87.500
195.15	8.333
195.53	37.500
195.91	225.000
196.29	125.000
196.66	92.308
197.04	57.143
197.42	122.222
197.79	-66.667
198.17	-30.769
198.55	1200.000
198.92	-433.333
199.30	1400.000
199.68	100.000
200.05	-166.667
200.43	0.000
200.81	300.000
201.18	166.667
201.56	600.000
201.94	-100.000
202.31	-100.000
202.69	-20.000
203.07	100.000
203.44	900.000
203.82	0.000
204.19	28.571
204.57	-333.333
204.95	-25.000
205.32	0.000
205.70	114.286
206.08	300.000
206.45	155.556
206.83	135.714
207.20	128.571
207.58	400.000
207.96	266.667
208.33	-90.000
208.71	75.000
209.08	0.000
209.46	100.000
209.84	-140.000
210.21	-100.000
210.59	57.143
210.96	183.333
211.34	75.000
211.71	100.000
212.09	-42.857
212.46	-200.000
212.84	0.000
213.22	10.000
213.59	400.000
213.97	38.462
214.34	27.273
214.72	33.333
215.09	550.000
215.47	30.769
215.84	63.636
216.22	-433.333
216.59	-25.000
216.97	600.000
217.34	275.000
217.72	-100.000
218.09	87.500
218.47	100.000
218.84	400.000
219.22	22.222
219.59	180.000
219.97	200.000
220.34	150.000
220.72	28.571
221.09	50.000
221.47	350.000
221.84	-400.000
222.22	-350.000
222.59	54.545
222.97	75.000
223.34	333.333
223.72	-21.429
224.09	57.143
224.46	42.857
224.84	166.667
225.21	-10.000
225.59	40.000
225.96	200.000
226.34	125.000
226.71	-14.286
227.08	316.667
227.46	-25.000
227.83	-100.000
228.21	133.333
228.58	-27.273
228.95	100.000
229.33	40.000
229.70	81.250
230.08	0.000
230.45	57.143
230.82	85.714
231.20	6.667
231.57	71.429
231.95	0.000
232.32	-30.000
232.69	50.000
233.07	100.000
233.44	60.000
233.81	-30.000
234.19	111.111
234.56	76.471
234.93	200.000
235.31	50.000
235.68	-80.000
236.05	-23.077
236.43	-15.000
236.80	76.471
237.17	37.500
237.55	55.000
237.92	18.519
238.29	47.222
238.67	63.333
239.04	29.412
239.41	7.317
239.79	73.333
240.16	31.707
240.53	44.737
240.91	26.087
241.28	46.032
241.65	60.714
242.02	38.356
242.40	46.667
242.77	55.932
243.14	48.485
243.51	46.250
243.89	51.724
244.26	45.977
244.63	44.048
245.00	44.330
245.38	53.608
245.75	49.438
246.12	44.828
246.49	47.934
246.87	55.769
247.24	48.739
247.61	42.982
247.98	56.911
248.36	42.500
248.73	53.947
249.10	43.506
249.47	48.101
249.84	47.059
250.22	47.059
250.59	56.863
250.96	46.479
251.33	45.349
251.70	54.118
252.08	47.716
252.45	45.545
252.82	55.276
253.19	48.848
253.56	40.654
253.94	50.450
254.31	54.348
254.68	52.632
255.05	46.063
255.42	55.895
255.79	47.876
256.16	46.304
256.54	47.015
256.91	47.529
257.28	48.327
257.65	45.318
258.02	44.326
258.39	46.128
258.76	48.718
259.14	53.488
259.51	46.602
259.88	53.265
260.25	49.020
260.62	51.042
260.99	46.780
261.36	46.575
261.73	45.570
262.10	49.544
262.47	46.933
262.85	49.216
263.22	45.538
263.59	47.664
263.96	53.106
264.33	50.303
264.70	50.298
265.07	47.321
265.44	53.824
265.81	48.588
266.18	45.902
266.55	43.445
266.92	49.482
267.29	48.303
267.66	50.384
268.03	47.120
268.40	45.431
268.77	49.733
269.14	47.962
269.51	46.272
269.88	48.379
270.25	44.133
270.62	46.341
270.99	48.593
271.36	48.166
271.73	44.366
272.10	46.715
272.47	48.227
272.84	49.010
273.21	48.492
273.58	46.024
273.95	43.936
274.32	45.266
274.69	42.986
275.06	43.750
275.43	45.805
275.80	46.358
276.17	45.517
276.54	43.469
276.91	48.684
277.28	44.323
277.65	42.975
278.02	42.979
278.39	45.295
278.76	46.122
279.13	39.834
279.50	45.168
279.87	44.060
280.23	41.290
280.60	44.055
280.97	45.859
281.34	41.538
281.71	45.175
282.08	42.945
282.45	44.814
282.82	44.208
283.19	45.068
283.56	45.472
283.92	43.074
284.29	43.654
284.66	42.054
285.03	42.829
285.40	41.399
285.77	40.070
286.14	42.238
286.51	44.465
286.87	39.488
287.24	41.252
287.61	42.504
287.98	42.982
288.35	40.555
288.72	42.207
289.08	40.972
289.45	39.719
289.82	39.685
290.19	38.396
290.56	39.280
290.93	39.394
291.29	35.131
291.66	38.898
292.03	34.928
292.40	39.194
292.77	36.045
293.13	34.253
293.50	35.357
293.87	35.725
294.24	35.085
294.60	35.618
294.97	35.268
295.34	34.509
295.71	33.830
296.08	33.333
296.44	33.286
296.81	34.306
297.18	31.594
297.55	34.146
297.91	33.699
298.28	32.718
298.65	34.193
299.02	34.097
299.38	29.138
299.75	33.241
300.12	32.068
300.48	31.489
300.85	32.319
301.22	31.948
301.59	30.789
301.95	31.392
302.32	32.685
302.69	31.095
303.05	30.817
303.42	29.639
303.79	30.374
304.15	31.063
304.52	27.943
304.89	28.889
305.25	28.571
305.62	28.471
305.99	28.538
306.35	27.861
306.72	27.222
307.09	29.761
307.45	29.506
307.82	29.167
308.19	29.733
308.55	29.117
308.92	29.412
309.29	27.933
309.65	29.064
310.02	28.933
310.38	28.760
310.75	28.743
311.12	28.202
311.48	27.466
311.85	27.958
312.22	28.270
312.58	28.025
312.95	27.108
313.31	28.364
313.68	27.016
314.05	28.776
314.41	29.588
314.78	28.454
315.14	29.599
315.51	29.400
315.87	28.586
316.24	31.244
316.61	29.528
316.97	30.357
317.34	30.273
317.70	28.872
318.07	28.558
318.43	29.118
318.80	29.545
319.16	31.152
319.53	30.294
319.89	31.201
320.26	31.377
320.62	31.996
320.99	31.420
321.35	31.141
321.72	32.710
322.08	32.024
322.45	32.183
322.81	32.515
323.18	31.403
323.54	32.915
323.91	33.982
324.27	36.035
324.64	35.393
325.00	35.584
325.37	36.639
325.73	34.995
326.10	36.966
326.46	37.220
326.83	38.583
327.19	38.099
327.56	36.577
327.92	40.317
328.29	40.357
328.65	40.849
329.01	40.901
329.38	41.659
329.74	40.982
330.11	41.242
330.47	41.651
330.84	42.019
331.20	45.247
331.56	42.593
331.93	44.292
332.29	44.546
332.66	43.620
333.02	44.517
333.38	44.455
333.75	46.978
334.11	44.673
334.48	44.968
334.84	44.872
335.20	45.197
335.57	46.328
335.93	45.799
336.29	46.777
336.66	46.866
337.02	45.167
337.38	44.537
337.75	46.273
338.11	46.168
338.47	46.715
338.84	47.412
339.20	46.252
339.56	46.697
339.93	46.285
340.29	46.789
340.65	48.387
341.02	46.986
341.38	45.664
341.74	45.583
342.11	46.014
342.47	46.352
342.83	46.540
343.20	45.819
343.56	46.783
343.92	46.944
344.28	47.822
344.65	45.941
345.01	45.808
345.37	45.332
345.73	46.611
346.10	46.592
346.46	45.753
346.82	46.154
347.19	44.805
347.55	46.449
347.91	46.036
348.27	45.109
348.63	46.934
349.00	45.693
349.36	47.548
349.72	47.347
350.08	46.393
350.45	46.608
350.81	45.266
351.17	45.765
351.53	47.184
351.89	45.912
352.26	46.960
352.62	47.500
352.98	45.542
353.34	43.639
353.70	46.117
354.07	45.887
354.43	47.558
354.79	46.986
355.15	47.143
355.51	45.728
355.87	47.168
356.24	45.269
356.60	46.241
356.96	48.413
357.32	45.527
357.68	47.068
358.04	46.850
358.40	46.141
358.77	48.325
359.13	46.998
359.49	44.838
359.85	47.114
360.21	47.847
360.57	45.448
360.93	45.840
361.29	45.846
361.66	47.100
362.02	47.576
362.38	47.220
362.74	49.054
363.10	47.103
363.46	47.961
363.82	48.685
364.18	46.863
364.54	47.279
364.90	47.814
365.26	48.326
365.62	48.759
365.98	48.534
366.35	48.434
366.71	48.780
367.07	48.186
367.43	47.735
367.79	48.410
368.15	48.169
368.51	47.633
368.87	48.959
369.23	49.097
369.59	48.761
369.95	49.120
370.31	48.121
370.67	48.358
371.03	46.975
371.39	47.848
371.75	47.985
372.11	47.290
372.47	49.260
372.83	49.326
373.19	48.146
373.55	48.303
373.91	49.388
374.27	49.681
374.63	48.887
374.99	48.014
375.35	50.139
375.71	50.629
376.07	50.000
376.42	50.408
376.78	51.141
377.14	49.831
377.50	50.398
377.86	51.740
378.22	49.777
378.58	51.410
378.94	49.968
379.30	51.154
379.66	52.163
380.02	50.644
380.38	50.456
380.74	50.928
381.09	51.166
381.45	51.254
381.81	51.696
382.17	51.142
382.53	51.156
382.89	52.919
383.25	52.894
383.61	52.378
383.97	52.762
384.32	52.220
384.68	53.189
385.04	52.512
385.40	52.831
385.76	53.836
386.12	53.299
386.48	52.682
386.83	52.949
387.19	53.175
387.55	53.827
387.91	54.584
388.27	53.541
388.62	53.430
388.98	53.161
389.34	53.654
389.70	54.319
390.06	53.178
390.42	54.016
390.77	53.957
391.13	54.414
391.49	54.463
391.85	55.621
392.20	54.237
392.56	55.054
392.92	54.668
393.28	55.483
393.64	55.015
393.99	56.364
394.35	55.534
394.71	55.556
395.07	53.614
395.42	53.795
395.78	55.049
396.14	55.864
396.50	54.661
396.85	55.763
397.21	55.576
397.57	53.292
397.92	54.763
398.28	55.920
398.64	55.301
399.00	55.474
399.35	54.740
399.71	54.049
400.07	56.348
400.42	53.550
400.78	55.175
401.14	54.809
401.49	55.807
401.85	54.662
402.21	55.361
402.57	55.188
402.92	54.329
403.28	56.391
403.63	56.747
403.99	55.612
404.35	55.840
404.70	54.940
405.06	55.582
405.42	55.438
405.77	55.200
406.13	55.646
406.49	54.766
406.84	55.746
407.20	56.412
407.55	54.733
407.91	55.949
408.27	54.748
408.62	55.508
408.98	55.699
409.34	56.877
409.69	55.233
410.05	55.357
410.40	56.111
410.76	56.695
411.11	55.062
411.47	55.687
411.83	55.556
412.18	56.950
412.54	55.868
412.89	53.818
413.25	55.957
413.60	54.224
413.96	55.399
414.31	55.671
414.67	55.741
415.03	55.193
415.38	54.896
415.74	56.612
416.09	57.348
416.45	56.111
416.80	55.519
417.16	56.354
417.51	57.428
417.87	55.346
418.22	57.707
418.58	57.391
418.93	57.743
419.29	56.274
419.64	56.319
420.00	57.997
420.35	57.433
420.71	57.047
421.06	57.029
421.42	58.233
421.77	56.936
422.12	57.094
422.48	57.066
422.83	55.800
423.19	57.449
423.54	57.025
423.90	56.066
424.25	56.946
424.61	58.384
424.96	57.143
425.31	58.637
425.67	58.920
426.02	58.539
426.38	60.050
426.73	59.201
427.09	60.063
427.44	58.647
427.79	59.753
428.15	57.221
428.50	59.297
428.85	58.415
429.21	59.423
429.56	59.137
429.92	59.065
430.27	58.997
430.62	59.383
430.98	60.244
431.33	59.779
431.68	59.393
432.04	59.698
432.39	59.099
432.74	60.253
433.10	60.172
433.45	59.020
433.80	60.766
434.16	59.612
434.51	59.892
434.86	59.988
435.22	60.572
435.57	61.510
435.92	60.659
436.28	58.855
436.63	60.924
436.98	59.618
437.34	60.496
437.69	62.016
438.04	60.798
438.39	59.010
438.75	61.931
439.10	60.045
439.45	60.682
439.81	60.734
440.16	61.639
440.51	61.134
440.86	62.054
441.22	61.199
441.57	61.755
441.92	62.277
442.27	62.694
442.63	61.670
442.98	62.206
443.33	62.270
443.68	61.485
444.03	62.245
444.39	61.682
444.74	62.598
445.09	61.693
445.44	62.108
445.79	63.693
446.15	61.839
446.50	62.063
446.85	63.018
447.20	61.731
447.55	62.500
447.91	61.760
448.26	63.062
448.61	63.443
448.96	63.970
449.31	63.064
449.66	63.473
450.02	63.776
450.37	63.485
450.72	62.257
451.07	61.899
451.42	61.985
451.77	62.447
452.12	62.380
452.47	61.429
452.83	63.486
453.18	62.302
453.53	63.274
453.88	63.752
454.23	61.770
454.58	62.783
454.93	63.209
455.28	60.190
455.63	62.616
455.98	63.079
456.34	60.920
456.69	62.897
457.04	63.390
457.39	61.725
457.74	62.213
458.09	61.742
458.44	61.498
458.79	62.521
459.14	61.957
459.49	63.045
459.84	62.719
460.19	62.500
460.54	62.653
460.89	62.159
461.24	62.671
461.59	62.945
461.94	61.447
462.29	62.485
462.64	62.193
462.99	62.559
463.34	62.796
463.69	60.360
464.04	61.743
464.39	60.946
464.74	62.270
465.09	62.321
465.44	62.204
465.79	62.415
466.14	61.973
466.49	61.645
466.84	61.570
467.19	62.891
467.54	61.750
467.89	62.034
468.24	61.375
468.59	62.032
468.94	62.032
469.29	62.098
469.64	60.287
469.99	62.228
470.34	62.253
470.68	62.118
471.03	61.642
471.38	62.126
471.73	60.224
472.08	60.312
472.43	60.872
472.78	61.206
473.13	61.565
473.48	60.977
473.83	59.776
474.17	61.917
474.52	61.646
474.87	61.212
475.22	60.281
475.57	60.870
475.92	61.821
476.27	61.350
476.61	62.211
476.96	59.677
477.31	60.627
477.66	59.607
478.01	60.977
478.36	59.586
478.70	61.773
479.05	62.088
479.40	60.254
479.75	60.010
480.10	59.908
480.45	61.750
480.79	61.078
481.14	61.834
481.49	60.493
481.84	61.631
482.19	60.103
482.53	60.911
482.88	59.189
483.23	59.981
483.58	59.670
483.92	59.293
484.27	58.842
484.62	60.332
484.97	60.158
485.31	60.621
485.66	63.004
486.01	63.936
486.36	63.712
486.70	63.532
487.05	62.721
487.40	61.711
487.75	61.268
488.09	60.136
488.44	59.147
488.79	59.768
489.13	59.415
489.48	58.829
489.83	58.744
490.17	58.517
490.52	59.030
490.87	57.751
491.22	58.883
491.56	58.634
491.91	58.126
492.26	58.678
492.60	58.685
492.95	59.715
493.30	57.987
493.64	59.774
493.99	59.469
494.34	58.883
494.68	58.286
495.03	57.908
495.37	59.176
495.72	58.203
496.07	58.732
496.41	58.915
496.76	59.051
497.11	59.152
497.45	58.950
497.80	58.476
498.14	57.675
498.49	58.761
498.84	57.385
499.18	57.882
499.53	59.127
499.87	56.858
500.22	57.567
500.56	58.649
500.91	58.936
501.26	58.033
501.60	57.649
501.95	57.836
502.29	57.869
502.64	57.867
502.98	58.707
503.33	57.925
503.67	56.819
504.02	58.309
504.36	57.942
504.71	57.576
505.06	57.574
505.40	57.513
505.75	57.990
506.09	57.375
506.44	57.752
506.78	58.265
507.13	58.221
507.47	56.762
507.82	56.998
508.16	57.633
508.51	56.925
508.85	57.666
509.19	57.105
509.54	57.748
509.88	56.095
510.23	58.150
510.57	57.670
510.92	56.130
511.26	56.628
511.61	56.271
511.95	56.986
512.30	55.876
512.64	55.760
512.98	56.878
513.33	55.960
513.67	57.362
514.02	57.094
514.36	57.429
514.70	58.100
515.05	58.343
515.39	55.431
515.74	57.126
516.08	56.545
516.42	57.420
516.77	56.349
517.11	58.220
517.46	57.391
517.80	57.032
518.14	56.093
518.49	55.649
518.83	55.225
519.17	55.913
519.52	56.187
519.86	56.062
520.20	56.136
520.55	54.284
520.89	54.705
521.23	55.415
521.58	55.268
521.92	55.256
522.26	54.652
522.61	55.065
522.95	56.623
523.29	55.591
523.64	55.972
523.98	55.800
524.32	54.510
524.66	56.210
525.01	55.195
525.35	55.541
525.69	56.431
526.04	54.630
526.38	55.966
526.72	54.676
527.06	55.447
527.41	54.947
527.75	54.491
528.09	56.146
528.43	56.448
528.78	55.512
529.12	55.677
529.46	55.945
529.80	54.275
530.15	55.974
530.49	55.758
530.83	54.651
531.17	54.936
531.51	55.198
531.86	54.249
532.20	54.489
532.54	54.595
532.88	56.674
533.22	55.444
533.57	54.587
533.91	56.136
534.25	57.747
534.59	56.062
534.93	54.563
535.27	55.266
535.62	55.217
535.96	54.990
536.30	55.673
536.64	54.997
536.98	54.495
537.32	56.117
537.66	55.820
538.01	54.895
538.35	55.548
538.69	55.593
539.03	54.204
539.37	55.720
539.71	55.078
540.05	55.465
540.39	57.133
540.73	54.254
541.07	55.594
541.42	56.116
541.76	56.228
542.10	56.710
542.44	55.525
542.78	53.889
543.12	55.426
543.46	54.659
543.80	56.003
544.14	53.471
544.48	54.497
544.82	56.459
545.16	56.079
545.50	54.873
545.84	56.232
546.18	55.603
546.52	54.722
546.86	55.068
547.20	55.722
547.54	53.286
547.88	55.571
548.22	55.358
548.56	55.013
548.90	55.660
549.24	54.683
549.58	53.879
549.92	54.325
550.26	54.286
550.60	54.944
550.94	53.249
551.28	54.096
551.62	54.615
551.96	54.511
552.30	54.020
552.64	54.020
552.98	54.430
553.32	54.422
553.66	54.644
554.00	55.547
554.34	54.874
554.68	53.466
555.02	55.655
555.36	54.899
555.69	54.212
556.03	54.532
556.37	55.658
556.71	55.018
557.05	55.705
557.39	52.565
557.73	52.849
558.07	53.922
558.41	55.360
558.75	54.482
559.08	55.162
559.42	55.873
559.76	55.564
560.10	54.740
560.44	53.909
560.78	55.524
561.12	55.219
561.45	55.727
561.79	54.832
562.13	54.507
562.47	55.324
562.81	54.323
563.15	55.571
563.48	54.950
563.82	56.760
564.16	55.780
564.50	53.919
564.84	55.154
565.17	54.460
565.51	56.489
565.85	56.104
566.19	54.841
566.52	55.965
566.86	57.712
567.20	57.223
567.54	57.786
567.88	58.992
568.21	58.937
568.55	58.152
568.89	59.292
569.23	59.461
569.56	59.720
569.90	61.226
570.24	59.993
570.57	60.836
570.91	60.753
571.25	60.638
571.59	59.857
571.92	59.911
572.26	59.571
572.60	59.101
572.93	59.052
573.27	59.467
573.61	60.292
573.95	60.896
574.28	60.461
574.62	60.132
574.96	60.434
575.29	59.389
575.63	58.564
575.97	58.878
576.30	59.713
576.64	58.728
576.98	60.849
577.31	60.752
577.65	61.101
577.98	62.109
578.32	60.855
578.66	60.305
578.99	59.827
579.33	59.331
579.67	58.668
580.00	60.025
580.34	59.826
580.67	60.040
581.01	60.014
581.35	60.573
581.68	61.208
582.02	62.140
582.35	61.263
582.69	61.492
583.02	60.372
583.36	60.445
583.70	60.462
584.03	60.578
584.37	60.644
584.70	60.907
585.04	59.689
585.37	59.877
585.71	61.121
586.04	60.439
586.38	60.096
586.72	61.004
587.05	61.641
587.39	61.001
587.72	62.001
588.06	60.919
588.39	60.296
588.73	60.379
589.06	60.796
589.40	59.765
589.73	60.497
590.07	59.517
590.40	60.449
590.73	61.532
591.07	60.390
591.40	60.463
591.74	59.412
592.07	59.647
592.41	60.777
592.74	60.773
593.08	59.588
593.41	61.450
593.75	59.895
594.08	60.213
594.41	60.517
594.75	60.305
595.08	59.478
595.42	59.956
595.75	60.571
596.09	60.633
596.42	59.818
596.75	60.258
597.09	59.954
597.42	59.621
597.75	60.742
598.09	59.303
598.42	59.296
598.76	59.888
599.09	59.936
599.42	60.174
599.76	59.255
600.09	59.201
600.42	60.008
600.76	60.290
601.09	60.573
601.42	58.794
601.76	59.111
602.09	61.510
602.42	60.152
602.76	59.465
603.09	60.382
603.42	62.249
603.76	61.411
604.09	60.267
604.42	60.575
604.76	61.682
605.09	59.598
605.42	59.052
605.75	59.676
606.09	59.830
606.42	59.383
606.75	59.827
607.09	59.824
607.42	60.479
607.75	60.080
608.08	58.221
608.42	58.383
608.75	60.386
609.08	59.193
609.41	58.629
609.75	59.022
610.08	59.661
610.41	58.744
610.74	60.312
611.07	60.155
611.41	59.159
611.74	60.128
612.07	58.940
612.40	59.026
612.73	58.305
613.07	58.211
613.40	59.354
613.73	59.821
614.06	58.598
614.39	59.504
614.72	58.599
615.06	60.000
615.39	57.969
615.72	57.858
616.05	59.553
616.38	57.208
616.71	58.838
617.05	60.284
617.38	58.517
617.71	59.874
618.04	59.429
618.37	59.962
618.70	59.340
619.03	58.611
619.36	57.598
619.69	56.937
620.03	59.021
620.36	58.226
620.69	57.459
621.02	58.333
621.35	58.506
621.68	58.418
622.01	57.917
622.34	57.941
622.67	57.571
623.00	55.972
623.33	59.070
623.66	57.666
623.99	57.337
624.32	59.240
624.65	58.346
624.99	59.895
625.32	56.331
625.65	56.402
625.98	59.388
626.31	56.525
626.64	57.712
626.97	56.981
627.30	57.093
627.63	55.979
627.96	58.940
628.29	58.279
628.62	55.752
628.95	56.012
629.28	56.552
629.61	57.129
629.94	57.869
630.26	55.830
630.59	57.024
630.92	56.718
631.25	54.974
631.58	55.507
631.91	55.482
632.24	57.454
632.57	55.795
632.90	52.906
633.23	53.647
633.56	57.935
633.89	55.610
634.22	55.926
