SpectraSuite Data File
++++++++++++++++++++++++++++++++++++
Date: Fri May 15 17:31:07 PDT 2015
User: schluterlab
Dark Spectrum Present: Yes
Reference Spectrum Present: Yes
Number of Sampled Component Spectra: 1
Spectrometers: USB2E3373
Integration Time (usec): 3000 (USB2E3373)
Spectra Averaged: 3 (USB2E3373)
Boxcar Smoothing: 0 (USB2E3373)
Correct for Electrical Dark: No (USB2E3373)
Strobe/Lamp Enabled: No (USB2E3373)
Correct for Detector Non-linearity: No (USB2E3373)
Correct for Stray Light: No (USB2E3373)
Number of Pixels in Processed Spectrum: 2048
>>>>>Begin Processed Spectral Data<<<<<
178.53	0.000
178.91	0.000
179.29	87.500
179.67	100.000
180.04	42.857
180.42	50.000
180.80	-100.000
181.18	233.333
181.56	300.000
181.94	50.000
182.31	100.000
182.69	80.000
183.07	66.667
183.45	40.000
183.83	83.333
184.20	0.000
184.58	22.222
184.96	-100.000
185.34	-100.000
185.72	150.000
186.09	-15.385
186.47	-100.000
186.85	116.667
187.23	122.222
187.61	-700.000
187.98	33.333
188.36	88.889
188.74	300.000
189.12	29.412
189.49	38.889
189.87	0.000
190.25	85.714
190.63	-50.000
191.00	-33.333
191.38	21.053
191.76	600.000
192.14	-50.000
192.51	600.000
192.89	-33.333
193.27	-171.429
193.65	116.667
194.02	109.091
194.40	60.000
194.78	12.500
195.15	58.333
195.53	-37.500
195.91	225.000
196.29	100.000
196.66	38.462
197.04	42.857
197.42	11.111
197.79	-166.667
198.17	-46.154
198.55	1200.000
198.92	33.333
199.30	300.000
199.68	60.000
200.05	-233.333
200.43	0.000
200.81	-33.333
201.18	233.333
201.56	800.000
201.94	-200.000
202.31	-500.000
202.69	-160.000
203.07	-50.000
203.44	1100.000
203.82	0.000
204.19	64.286
204.57	166.667
204.95	25.000
205.32	0.000
205.70	0.000
206.08	-50.000
206.45	200.000
206.83	57.143
207.20	-57.143
207.58	-500.000
207.96	-100.000
208.33	-10.000
208.71	250.000
209.08	-33.333
209.46	-300.000
209.84	100.000
210.21	-800.000
210.59	171.429
210.96	50.000
211.34	100.000
211.71	113.333
212.09	-142.857
212.46	-600.000
212.84	0.000
213.22	190.000
213.59	400.000
213.97	84.615
214.34	9.091
214.72	0.000
215.09	150.000
215.47	-15.385
215.84	18.182
216.22	-66.667
216.59	87.500
216.97	450.000
217.34	100.000
217.72	-60.000
218.09	100.000
218.47	-37.500
218.84	-500.000
219.22	66.667
219.59	80.000
219.97	233.333
220.34	75.000
220.72	-42.857
221.09	275.000
221.47	250.000
221.84	300.000
222.22	-700.000
222.59	72.727
222.97	83.333
223.34	-166.667
223.72	-57.143
224.09	47.619
224.46	32.143
224.84	-33.333
225.21	-80.000
225.59	-6.667
225.96	-150.000
226.34	250.000
226.71	14.286
227.08	66.667
227.46	87.500
227.83	50.000
228.21	88.889
228.58	27.273
228.95	-62.500
229.33	100.000
229.70	25.000
230.08	37.500
230.45	-71.429
230.82	-85.714
231.20	-13.333
231.57	64.286
231.95	100.000
232.32	-50.000
232.69	14.286
233.07	133.333
233.44	-60.000
233.81	-10.000
234.19	77.778
234.56	17.647
234.93	-200.000
235.31	125.000
235.68	-60.000
236.05	7.692
236.43	20.000
236.80	70.588
237.17	37.500
237.55	50.000
237.92	25.926
238.29	8.333
238.67	30.000
239.04	32.353
239.41	12.195
239.79	50.000
240.16	39.024
240.53	21.053
240.91	23.913
241.28	23.810
241.65	19.643
242.02	45.205
242.40	35.000
242.77	35.593
243.14	21.212
243.51	37.500
243.89	40.230
244.26	13.793
244.63	22.619
245.00	10.309
245.38	25.773
245.75	19.101
246.12	24.138
246.49	33.058
246.87	26.923
247.24	21.008
247.61	30.702
247.98	24.390
248.36	21.875
248.73	28.947
249.10	27.273
249.47	29.747
249.84	21.569
250.22	22.941
250.59	30.719
250.96	29.577
251.33	27.907
251.70	29.412
252.08	20.305
252.45	30.198
252.82	27.638
253.19	26.728
253.56	27.570
253.94	26.126
254.31	23.478
254.68	33.333
255.05	26.378
255.42	27.511
255.79	27.413
256.16	25.292
256.54	26.866
256.91	25.856
257.28	24.907
257.65	25.094
258.02	23.050
258.39	28.620
258.76	26.007
259.14	27.243
259.51	32.686
259.88	28.522
260.25	27.124
260.62	26.736
260.99	23.390
261.36	22.603
261.73	28.797
262.10	28.267
262.47	29.755
262.85	27.273
263.22	25.846
263.59	23.676
263.96	27.019
264.33	23.939
264.70	26.488
265.07	25.595
265.44	26.912
265.81	28.531
266.18	30.601
266.55	27.506
266.92	26.166
267.29	27.937
267.66	24.808
268.03	27.487
268.40	28.721
268.77	27.540
269.14	26.139
269.51	28.021
269.88	25.436
270.25	25.000
270.62	25.122
270.99	26.598
271.36	23.716
271.73	28.404
272.10	25.547
272.47	27.423
272.84	25.990
273.21	28.538
273.58	25.060
273.95	26.545
274.32	26.790
274.69	24.434
275.06	27.232
275.43	25.850
275.80	26.049
276.17	24.368
276.54	24.625
276.91	26.754
277.28	24.454
277.65	25.000
278.02	22.128
278.39	24.945
278.76	23.690
279.13	22.614
279.50	23.950
279.87	27.430
280.23	22.796
280.60	26.511
280.97	23.838
281.34	24.231
281.71	25.873
282.08	23.313
282.45	21.331
282.82	23.938
283.19	25.725
283.56	25.626
283.92	23.529
284.29	21.731
284.66	22.481
285.03	23.183
285.40	24.008
285.77	23.902
286.14	22.924
286.51	25.830
286.87	23.035
287.24	22.099
287.61	21.693
287.98	22.982
288.35	23.224
288.72	22.592
289.08	21.181
289.45	23.023
289.82	21.154
290.19	20.648
290.56	19.383
290.93	21.380
291.29	20.493
291.66	21.890
292.03	21.053
292.40	21.290
292.77	18.820
293.13	18.506
293.50	19.575
293.87	20.916
294.24	19.938
294.60	19.523
294.97	19.792
295.34	17.331
295.71	18.331
296.08	18.386
296.44	16.785
296.81	17.222
297.18	17.681
297.55	19.377
297.91	17.945
298.28	18.865
298.65	16.689
299.02	18.598
299.38	14.774
299.75	16.966
300.12	16.361
300.48	17.655
300.85	17.997
301.22	15.844
301.59	14.868
301.95	16.835
302.32	16.991
302.69	18.408
303.05	15.594
303.42	16.314
303.79	16.822
304.15	16.487
304.52	14.744
304.89	16.608
305.25	14.770
305.62	15.169
305.99	14.737
306.35	15.838
306.72	14.623
307.09	15.507
307.45	15.729
307.82	15.278
308.19	16.376
308.55	14.286
308.92	17.320
309.29	15.307
309.65	15.608
310.02	15.622
310.38	15.917
310.75	14.973
311.12	16.362
311.48	14.740
311.85	14.764
312.22	14.241
312.58	15.074
312.95	14.835
313.31	14.700
313.68	14.660
314.05	14.184
314.41	15.876
314.78	15.052
315.14	15.519
315.51	16.253
315.87	14.959
316.24	17.189
316.61	16.339
316.97	16.171
317.34	16.113
317.70	15.488
318.07	14.712
318.43	15.784
318.80	16.951
319.16	16.602
319.53	17.759
319.89	16.535
320.26	17.105
320.62	18.656
320.99	17.119
321.35	18.911
321.72	17.965
322.08	18.630
322.45	20.406
322.81	19.450
323.18	18.842
323.54	20.367
323.91	19.669
324.27	20.996
324.64	21.910
325.00	22.810
325.37	23.324
325.73	23.391
326.10	24.796
326.46	24.843
326.83	26.159
327.19	26.242
327.56	25.543
327.92	26.144
328.29	27.500
328.65	28.396
329.01	27.941
329.38	29.401
329.74	27.951
330.11	30.213
330.47	30.334
330.84	31.346
331.20	34.506
331.56	31.759
331.93	34.977
332.29	33.639
332.66	34.027
333.02	34.665
333.38	34.830
333.75	35.531
334.11	36.347
334.48	36.809
334.84	37.637
335.20	36.688
335.57	36.809
335.93	38.121
336.29	38.214
336.66	38.601
337.02	39.033
337.38	37.963
337.75	38.818
338.11	39.946
338.47	40.237
338.84	40.388
339.20	40.037
339.56	40.459
339.93	41.450
340.29	40.917
340.65	41.846
341.02	41.401
341.38	40.708
341.74	40.901
342.11	40.035
342.47	41.904
342.83	42.301
343.20	40.418
343.56	41.652
343.92	41.984
344.28	42.101
344.65	40.933
345.01	41.314
345.37	40.538
345.73	41.674
346.10	43.486
346.46	41.463
346.82	41.408
347.19	41.064
347.55	42.439
347.91	41.424
348.27	42.037
348.63	42.675
349.00	40.033
349.36	41.978
349.72	41.874
350.08	42.459
350.45	41.580
350.81	41.196
351.17	40.309
351.53	42.122
351.89	42.114
352.26	41.360
352.62	42.419
352.98	41.928
353.34	40.982
353.70	41.748
354.07	41.129
354.43	42.034
354.79	41.536
355.15	41.746
355.51	41.535
355.87	42.152
356.24	42.007
356.60	41.390
356.96	41.905
357.32	42.093
357.68	40.657
358.04	41.519
358.40	42.203
358.77	43.700
359.13	42.114
359.49	40.909
359.85	42.980
360.21	42.185
360.57	41.316
360.93	42.360
361.29	41.390
361.66	42.163
362.02	42.727
362.38	42.193
362.74	41.484
363.10	41.986
363.46	43.069
363.82	43.351
364.18	41.402
364.54	41.103
364.90	42.222
365.26	41.849
365.62	43.285
365.98	42.155
366.35	42.753
366.71	43.829
367.07	44.485
367.43	42.775
367.79	43.322
368.15	42.714
368.51	42.535
368.87	42.139
369.23	41.227
369.59	42.711
369.95	43.622
370.31	43.569
370.67	42.612
371.03	43.167
371.39	42.597
371.75	42.637
372.11	43.295
372.47	42.382
372.83	43.506
373.19	42.439
373.55	41.805
373.91	42.693
374.27	43.373
374.63	43.647
374.99	42.908
375.35	42.897
375.71	43.497
376.07	44.312
376.42	43.197
376.78	44.362
377.14	44.347
377.50	44.024
377.86	43.173
378.22	43.842
378.58	44.936
378.94	44.549
379.30	44.417
379.66	45.078
380.02	43.838
380.38	43.396
380.74	44.165
381.09	44.847
381.45	44.159
381.81	44.664
382.17	45.368
382.53	44.222
382.89	46.704
383.25	45.800
383.61	45.366
383.97	45.143
384.32	46.091
384.68	44.458
385.04	43.689
385.40	44.431
385.76	45.786
386.12	46.636
386.48	46.743
386.83	45.403
387.19	45.788
387.55	48.181
387.91	46.455
388.27	45.116
388.62	46.759
388.98	45.488
389.34	46.471
389.70	46.675
390.06	44.430
390.42	46.049
390.77	46.893
391.13	45.334
391.49	46.507
391.85	46.524
392.20	45.512
392.56	46.345
392.92	46.154
393.28	46.344
393.64	44.505
393.99	47.210
394.35	45.984
394.71	46.616
395.07	46.386
395.42	45.537
395.78	47.427
396.14	46.154
396.50	46.734
396.85	46.362
397.21	45.865
397.57	45.329
397.92	46.255
398.28	48.046
398.64	45.602
399.00	47.235
399.35	44.639
399.71	44.974
400.07	46.917
400.42	46.083
400.78	46.479
401.14	45.433
401.49	46.456
401.85	45.338
402.21	46.205
402.57	45.938
402.92	44.730
403.28	46.554
403.63	46.217
403.99	45.918
404.35	47.158
404.70	44.881
405.06	46.063
405.42	45.370
405.77	45.090
406.13	47.148
406.49	46.004
406.84	45.660
407.20	47.020
407.55	45.332
407.91	45.053
408.27	44.678
408.62	46.400
408.98	45.348
409.34	45.167
409.69	44.444
410.05	45.259
410.40	46.235
410.76	44.813
411.11	45.562
411.47	45.365
411.83	45.072
412.18	46.461
412.54	45.693
412.89	45.751
413.25	45.848
413.60	45.901
413.96	45.153
414.31	46.341
414.67	44.772
415.03	45.473
415.38	46.149
415.74	44.495
416.09	46.702
416.45	46.523
416.80	45.208
417.16	47.169
417.51	45.769
417.87	45.306
418.22	47.345
418.58	47.692
418.93	46.458
419.29	45.070
419.64	46.014
420.00	47.103
420.35	45.134
420.71	46.962
421.06	45.734
421.42	46.875
421.77	46.243
422.12	46.992
422.48	47.049
422.83	46.404
423.19	46.953
423.54	45.503
423.90	46.466
424.25	46.613
424.61	46.695
424.96	46.400
425.31	48.642
425.67	47.829
426.02	48.115
426.38	48.466
426.73	48.184
427.09	48.544
427.44	49.000
427.79	48.262
428.15	48.119
428.50	47.668
428.85	47.850
429.21	48.217
429.56	49.003
429.92	48.485
430.27	49.474
430.62	47.778
430.98	49.045
431.33	49.159
431.68	48.352
432.04	48.854
432.39	48.545
432.74	48.346
433.10	50.287
433.45	49.582
433.80	50.087
434.16	49.418
434.51	50.161
434.86	49.477
435.22	49.523
435.57	50.031
435.92	49.521
436.28	49.612
436.63	49.971
436.98	49.421
437.34	50.635
437.69	50.507
438.04	50.541
438.39	50.641
438.75	51.063
439.10	50.481
439.45	51.917
439.81	50.765
440.16	51.603
440.51	51.940
440.86	51.843
441.22	51.301
441.57	52.208
441.92	53.515
442.27	51.996
442.63	52.302
442.98	52.384
443.33	51.085
443.68	51.194
444.03	52.558
444.39	51.107
444.74	54.404
445.09	51.949
445.44	52.821
445.79	53.378
446.15	52.203
446.50	51.414
446.85	53.560
447.20	51.512
447.55	52.176
447.91	52.848
448.26	53.728
448.61	52.850
448.96	54.217
449.31	53.121
449.66	53.310
450.02	53.109
450.37	53.586
450.72	52.635
451.07	54.304
451.42	53.184
451.77	53.165
452.12	52.931
452.47	51.771
452.83	53.828
453.18	52.941
453.53	53.034
453.88	54.281
454.23	52.981
454.58	54.534
454.93	54.253
455.28	52.000
455.63	54.867
455.98	54.841
456.34	54.087
456.69	54.892
457.04	55.261
457.39	54.253
457.74	54.232
458.09	53.325
458.44	53.891
458.79	53.501
459.14	55.492
459.49	54.687
459.84	54.428
460.19	54.612
460.54	55.685
460.89	54.830
461.24	54.720
461.59	55.344
461.94	53.962
462.29	55.368
462.64	56.346
462.99	54.841
463.34	54.590
463.69	55.084
464.04	55.569
464.39	54.821
464.74	56.074
465.09	56.145
465.44	56.145
465.79	55.442
466.14	55.245
466.49	55.607
466.84	55.027
467.19	56.383
467.54	55.172
467.89	55.591
468.24	55.961
468.59	55.556
468.94	54.984
469.29	55.869
469.64	55.024
469.99	57.183
470.34	55.222
470.68	56.078
471.03	56.971
471.38	56.847
471.73	56.583
472.08	55.563
472.43	56.443
472.78	55.175
473.13	57.415
473.48	55.961
473.83	55.729
474.17	56.088
474.52	55.137
474.87	56.667
475.22	56.925
475.57	57.425
475.92	56.829
476.27	57.451
476.61	55.556
476.96	55.884
477.31	56.409
477.66	56.629
478.01	56.710
478.36	56.808
478.70	58.401
479.05	56.264
479.40	57.446
479.75	56.048
480.10	56.887
480.45	58.300
480.79	58.006
481.14	58.658
481.49	58.128
481.84	57.770
482.19	56.501
482.53	58.417
482.88	57.518
483.23	57.294
483.58	56.557
483.92	56.389
484.27	56.928
484.62	57.104
484.97	57.214
485.31	58.779
485.66	61.338
486.01	63.838
486.36	62.494
486.70	61.387
487.05	60.822
487.40	60.522
487.75	58.817
488.09	57.849
488.44	56.190
488.79	56.556
489.13	57.532
489.48	57.546
489.83	55.919
490.17	56.135
490.52	56.998
490.87	56.733
491.22	57.259
491.56	56.594
491.91	56.549
492.26	57.511
492.60	57.294
492.95	58.239
493.30	57.059
493.64	58.153
493.99	57.874
494.34	57.282
494.68	58.524
495.03	56.837
495.37	56.869
495.72	57.951
496.07	58.146
496.41	58.821
496.76	59.189
497.11	57.056
497.45	58.138
497.80	58.829
498.14	56.880
498.49	57.897
498.84	57.086
499.18	58.082
499.53	56.746
499.87	58.463
500.22	57.616
500.56	57.337
500.91	57.831
501.26	57.093
501.60	58.288
501.95	58.467
502.29	58.499
502.64	58.736
502.98	59.595
503.33	58.117
503.67	58.024
504.02	59.433
504.36	58.684
504.71	57.273
505.06	56.769
505.40	58.223
505.75	57.732
506.09	57.121
506.44	58.316
506.78	57.755
507.13	58.583
507.47	56.815
507.82	57.158
508.16	57.581
508.51	58.237
508.85	58.346
509.19	57.956
509.54	58.070
509.88	57.983
510.23	58.096
510.57	58.578
510.92	56.716
511.26	57.283
511.61	58.691
511.95	58.027
512.30	57.206
512.64	55.426
512.98	56.710
513.33	56.967
513.67	57.646
514.02	57.780
514.36	57.543
514.70	59.441
515.05	58.108
515.39	57.910
515.74	58.263
516.08	58.159
516.42	57.656
516.77	57.519
517.11	57.982
517.46	57.630
517.80	56.198
518.14	56.032
518.49	55.469
518.83	56.561
519.17	55.306
519.52	56.483
519.86	55.942
520.20	56.318
520.55	55.159
520.89	56.650
521.23	55.161
521.58	55.962
521.92	56.731
522.26	56.278
522.61	55.455
522.95	57.086
523.29	56.163
523.64	56.734
523.98	57.615
524.32	55.284
524.66	57.490
525.01	56.104
525.35	56.708
525.69	56.229
526.04	54.696
526.38	56.744
526.72	55.853
527.06	57.069
527.41	57.190
527.75	55.630
528.09	55.681
528.43	56.921
528.78	56.106
529.12	56.710
529.46	56.465
529.80	56.491
530.15	57.690
530.49	57.845
530.83	57.456
531.17	55.675
531.51	57.045
531.86	55.404
532.20	55.950
532.54	55.003
532.88	55.989
533.22	57.392
533.57	56.881
533.91	57.507
534.25	57.227
534.59	57.152
534.93	56.891
535.27	56.536
535.62	57.421
535.96	56.621
536.30	56.069
536.64	58.374
536.98	56.794
537.32	57.824
537.66	57.433
538.01	56.993
538.35	57.212
538.69	56.724
539.03	56.391
539.37	56.528
539.71	57.464
540.05	56.959
540.39	57.410
540.73	58.020
541.07	57.251
541.42	57.930
541.76	57.605
542.10	57.467
542.44	57.609
542.78	55.678
543.12	57.349
543.46	56.745
543.80	57.668
544.14	56.475
544.48	57.095
544.82	58.373
545.16	58.538
545.50	57.543
545.84	58.428
546.18	57.943
546.52	58.904
546.86	56.794
547.20	57.940
547.54	57.527
547.88	58.832
548.22	57.528
548.56	57.454
548.90	58.221
549.24	55.234
549.58	57.123
549.92	54.896
550.26	56.630
550.60	57.844
550.94	57.132
551.28	55.796
551.62	57.154
551.96	56.992
552.30	57.237
552.64	55.571
552.98	57.806
553.32	57.204
553.66	56.894
554.00	58.029
554.34	57.459
554.68	56.490
555.02	57.440
555.36	56.171
555.69	57.509
556.03	56.460
556.37	56.655
556.71	57.040
557.05	56.525
557.39	55.911
557.73	56.897
558.07	56.335
558.41	56.738
558.75	56.118
559.08	55.556
559.42	57.222
559.76	56.605
560.10	56.346
560.44	56.664
560.78	56.923
561.12	58.181
561.45	58.609
561.79	58.613
562.13	59.972
562.47	56.906
562.81	57.421
563.15	55.924
563.48	58.062
563.82	57.721
564.16	59.819
564.50	57.162
564.84	57.497
565.17	57.881
565.51	60.109
565.85	60.014
566.19	58.488
566.52	58.311
566.86	59.447
567.20	59.838
567.54	61.800
567.88	62.449
568.21	62.048
568.55	61.141
568.89	62.474
569.23	63.794
569.56	63.835
569.90	64.718
570.24	64.012
570.57	65.382
570.91	66.365
571.25	65.110
571.59	64.746
571.92	64.148
572.26	64.734
572.60	64.310
572.93	63.100
573.27	63.417
573.61	65.036
573.95	64.500
574.28	65.413
574.62	64.556
574.96	64.423
575.29	64.513
575.63	62.089
575.97	63.432
576.30	63.818
576.64	63.576
576.98	65.097
577.31	66.650
577.65	66.399
577.98	67.033
578.32	65.714
578.66	63.787
578.99	63.758
579.33	63.902
579.67	63.184
580.00	63.468
580.34	64.925
580.67	63.897
581.01	66.042
581.35	66.322
581.68	66.877
582.02	66.765
582.35	66.890
582.69	66.069
583.02	65.178
583.36	64.892
583.70	64.823
584.03	64.331
584.37	64.992
584.70	64.176
585.04	63.109
585.37	64.889
585.71	65.095
586.04	65.255
586.38	64.551
586.72	65.050
587.05	65.396
587.39	65.362
587.72	66.266
588.06	65.624
588.39	64.967
588.73	64.316
589.06	64.318
589.40	63.325
589.73	64.586
590.07	63.860
590.40	63.545
590.73	65.115
591.07	63.698
591.40	62.199
591.74	61.584
592.07	63.033
592.41	63.825
592.74	64.158
593.08	64.478
593.41	66.491
593.75	65.816
594.08	64.538
594.41	64.520
594.75	63.359
595.08	64.813
595.42	64.115
595.75	64.701
596.09	64.230
596.42	63.373
596.75	62.611
597.09	62.733
597.42	62.647
597.75	63.674
598.09	62.336
598.42	63.357
598.76	64.264
599.09	64.303
599.42	63.698
599.76	64.221
600.09	64.253
600.42	63.609
600.76	63.819
601.09	63.969
601.42	62.867
601.76	63.676
602.09	64.315
602.42	64.195
602.76	64.813
603.09	64.618
603.42	66.513
603.76	65.242
604.09	64.075
604.42	64.086
604.76	64.575
605.09	63.071
605.42	62.528
605.75	64.405
606.09	63.737
606.42	64.262
606.75	63.810
607.09	63.121
607.42	63.580
607.75	62.123
608.08	62.668
608.42	60.895
608.75	63.036
609.08	63.727
609.41	62.234
609.75	62.248
610.08	63.005
610.41	61.643
610.74	63.579
611.07	62.791
611.41	63.363
611.74	62.900
612.07	63.169
612.40	62.363
612.73	62.938
613.07	62.317
613.40	62.582
613.73	62.451
614.06	61.881
614.39	63.226
614.72	61.625
615.06	63.184
615.39	61.517
615.72	62.594
616.05	63.184
616.38	61.197
616.71	61.040
617.05	61.581
617.38	61.282
617.71	61.384
618.04	62.603
618.37	63.745
618.70	60.924
619.03	62.708
619.36	58.828
619.69	61.638
620.03	62.235
620.36	60.944
620.69	60.314
621.02	58.180
621.35	60.166
621.68	60.289
622.01	60.750
622.34	59.777
622.67	58.596
623.00	58.959
623.33	60.976
623.66	59.461
623.99	59.531
624.32	60.532
624.65	60.150
624.99	61.926
625.32	60.045
625.65	60.723
625.98	60.113
626.31	57.772
626.64	59.359
626.97	59.599
627.30	59.807
627.63	58.579
627.96	58.580
628.29	58.002
628.62	57.620
628.95	56.513
629.28	56.956
629.61	57.926
629.94	58.456
630.26	57.905
630.59	59.209
630.92	58.051
631.25	54.462
631.58	57.930
631.91	55.811
632.24	56.995
632.57	55.341
632.90	57.651
633.23	56.000
633.56	54.786
633.89	55.857
634.22	57.531
