SpectraSuite Data File
++++++++++++++++++++++++++++++++++++
Date: Fri May 15 17:24:03 PDT 2015
User: schluterlab
Dark Spectrum Present: Yes
Reference Spectrum Present: Yes
Number of Sampled Component Spectra: 1
Spectrometers: USB2E3373
Integration Time (usec): 3000 (USB2E3373)
Spectra Averaged: 3 (USB2E3373)
Boxcar Smoothing: 0 (USB2E3373)
Correct for Electrical Dark: No (USB2E3373)
Strobe/Lamp Enabled: No (USB2E3373)
Correct for Detector Non-linearity: No (USB2E3373)
Correct for Stray Light: No (USB2E3373)
Number of Pixels in Processed Spectrum: 2048
>>>>>Begin Processed Spectral Data<<<<<
178.53	0.000
178.91	0.000
179.29	87.500
179.67	250.000
180.04	85.714
180.42	200.000
180.80	-100.000
181.18	-200.000
181.56	300.000
181.94	100.000
182.31	-500.000
182.69	-40.000
183.07	133.333
183.45	-80.000
183.83	-66.667
184.20	27.273
184.58	22.222
184.96	-100.000
185.34	133.333
185.72	150.000
186.09	15.385
186.47	300.000
186.85	-50.000
187.23	55.556
187.61	-200.000
187.98	100.000
188.36	0.000
188.74	233.333
189.12	52.941
189.49	22.222
189.87	0.000
190.25	92.857
190.63	450.000
191.00	-133.333
191.38	21.053
191.76	250.000
192.14	75.000
192.51	250.000
192.89	-44.444
193.27	-71.429
193.65	283.333
194.02	72.727
194.40	100.000
194.78	-75.000
195.15	25.000
195.53	25.000
195.91	125.000
196.29	0.000
196.66	84.615
197.04	-57.143
197.42	55.556
197.79	-366.667
198.17	-30.769
198.55	300.000
198.92	-33.333
199.30	-400.000
199.68	-20.000
200.05	-266.667
200.43	0.000
200.81	-266.667
201.18	133.333
201.56	1000.000
201.94	-50.000
202.31	-33.333
202.69	-80.000
203.07	-125.000
203.44	-300.000
203.82	0.000
204.19	50.000
204.57	-300.000
204.95	75.000
205.32	100.000
205.70	57.143
206.08	-75.000
206.45	211.111
206.83	57.143
207.20	-42.857
207.58	400.000
207.96	133.333
208.33	-70.000
208.71	-25.000
209.08	-266.667
209.46	-200.000
209.84	60.000
210.21	-1000.000
210.59	100.000
210.96	116.667
211.34	100.000
211.71	73.333
212.09	0.000
212.46	-1300.000
212.84	0.000
213.22	90.000
213.59	300.000
213.97	123.077
214.34	127.273
214.72	33.333
215.09	325.000
215.47	61.538
215.84	9.091
216.22	-100.000
216.59	-12.500
216.97	400.000
217.34	75.000
217.72	-20.000
218.09	100.000
218.47	87.500
218.84	0.000
219.22	-44.444
219.59	40.000
219.97	33.333
220.34	175.000
220.72	14.286
221.09	-125.000
221.47	150.000
221.84	-300.000
222.22	-600.000
222.59	109.091
222.97	25.000
223.34	0.000
223.72	-14.286
224.09	28.571
224.46	35.714
224.84	200.000
225.21	30.000
225.59	40.000
225.96	150.000
226.34	225.000
226.71	-100.000
227.08	-66.667
227.46	12.500
227.83	-400.000
228.21	77.778
228.58	36.364
228.95	100.000
229.33	40.000
229.70	31.250
230.08	37.500
230.45	-71.429
230.82	14.286
231.20	26.667
231.57	100.000
231.95	-28.571
232.32	0.000
232.69	71.429
233.07	100.000
233.44	180.000
233.81	10.000
234.19	11.111
234.56	52.941
234.93	-50.000
235.31	250.000
235.68	-120.000
236.05	-7.692
236.43	30.000
236.80	-5.882
237.17	12.500
237.55	35.000
237.92	7.407
238.29	30.556
238.67	13.333
239.04	-2.941
239.41	-17.073
239.79	-33.333
240.16	31.707
240.53	2.632
240.91	6.522
241.28	11.111
241.65	12.500
242.02	5.479
242.40	20.000
242.77	6.780
243.14	7.576
243.51	15.000
243.89	18.391
244.26	8.046
244.63	11.905
245.00	10.309
245.38	18.557
245.75	-2.247
246.12	6.034
246.49	13.223
246.87	9.615
247.24	13.445
247.61	6.140
247.98	8.130
248.36	1.250
248.73	3.947
249.10	9.091
249.47	3.165
249.84	-1.307
250.22	5.882
250.59	4.575
250.96	11.737
251.33	-1.744
251.70	9.412
252.08	5.076
252.45	6.931
252.82	6.030
253.19	4.147
253.56	0.000
253.94	9.459
254.31	10.000
254.68	11.842
255.05	7.480
255.42	7.424
255.79	6.950
256.16	6.226
256.54	7.836
256.91	9.506
257.28	3.346
257.65	1.498
258.02	4.610
258.39	7.744
258.76	5.861
259.14	9.967
259.51	6.472
259.88	4.811
260.25	6.536
260.62	4.514
260.99	4.746
261.36	2.740
261.73	5.380
262.10	9.119
262.47	2.761
262.85	3.135
263.22	6.154
263.59	9.969
263.96	8.385
264.33	9.091
264.70	4.464
265.07	4.167
265.44	6.799
265.81	6.780
266.18	9.016
266.55	5.398
266.92	4.145
267.29	6.005
267.66	6.138
268.03	5.497
268.40	6.266
268.77	8.824
269.14	5.755
269.51	5.913
269.88	4.738
270.25	6.122
270.62	4.146
270.99	1.535
271.36	3.423
271.73	7.981
272.10	4.866
272.47	6.147
272.84	6.188
273.21	8.121
273.58	7.952
273.95	7.323
274.32	3.002
274.69	4.072
275.06	7.366
275.43	4.762
275.80	5.519
276.17	3.448
276.54	5.996
276.91	7.237
277.28	4.585
277.65	7.851
278.02	5.957
278.39	4.158
278.76	5.451
279.13	3.320
279.50	5.882
279.87	7.991
280.23	2.366
280.60	8.577
280.97	7.273
281.34	5.192
281.71	7.803
282.08	4.908
282.45	3.718
282.82	5.985
283.19	5.609
283.56	6.358
283.92	3.985
284.29	4.231
284.66	4.845
285.03	6.483
285.40	6.427
285.77	4.921
286.14	5.415
286.51	7.565
286.87	7.130
287.24	4.420
287.61	4.409
287.98	8.421
288.35	4.159
288.72	5.954
289.08	4.861
289.45	6.854
289.82	6.818
290.19	3.754
290.56	5.660
290.93	4.882
291.29	4.777
291.66	6.299
292.03	4.306
292.40	2.581
292.77	3.987
293.13	1.461
293.50	3.338
293.87	5.496
294.24	5.255
294.60	6.706
294.97	5.060
295.34	4.294
295.71	4.918
296.08	4.335
296.44	2.703
296.81	3.056
297.18	4.783
297.55	5.556
297.91	4.932
298.28	5.805
298.65	3.256
299.02	4.582
299.38	1.642
299.75	4.966
300.12	2.487
300.48	4.216
300.85	4.943
301.22	3.247
301.59	4.211
301.95	5.823
302.32	5.577
302.69	4.104
303.05	3.589
303.42	3.238
303.79	4.673
304.15	3.943
304.52	2.616
304.89	3.158
305.25	3.269
305.62	3.267
305.99	4.211
306.35	4.624
306.72	3.037
307.09	4.447
307.45	4.478
307.82	2.894
308.19	5.923
308.55	3.708
308.92	5.120
309.29	4.693
309.65	3.337
310.02	4.070
310.38	3.074
310.75	4.262
311.12	4.413
311.48	4.348
311.85	4.293
312.22	3.586
312.58	4.140
312.95	4.803
313.31	4.348
313.68	4.503
314.05	4.082
314.41	5.567
314.78	5.258
315.14	6.064
315.51	5.901
315.87	6.045
316.24	6.977
316.61	6.299
316.97	6.548
317.34	6.445
317.70	6.979
318.07	7.404
318.43	7.353
318.80	7.576
319.16	8.398
319.53	9.782
319.89	7.677
320.26	9.717
320.62	10.933
320.99	9.081
321.35	11.202
321.72	10.592
322.08	12.890
322.45	11.269
322.81	11.984
323.18	12.561
323.54	11.583
323.91	13.340
324.27	14.453
324.64	15.543
325.00	17.062
325.37	16.621
325.73	16.500
326.10	17.893
326.46	20.000
326.83	19.423
327.19	20.575
327.56	21.460
327.92	21.743
328.29	21.696
328.65	23.491
329.01	23.713
329.38	22.857
329.74	24.174
330.11	24.096
330.47	24.304
330.84	26.442
331.20	28.042
331.56	26.574
331.93	27.945
332.29	28.964
332.66	27.511
333.02	29.182
333.38	28.139
333.75	30.678
334.11	30.081
334.48	32.548
334.84	31.868
335.20	30.650
335.57	32.004
335.93	31.707
336.29	33.149
336.66	32.334
337.02	32.342
337.38	31.481
337.75	33.000
338.11	32.822
338.47	33.577
338.84	33.457
339.20	32.998
339.56	35.321
339.93	34.915
340.29	35.138
340.65	34.767
341.02	35.550
341.38	33.628
341.74	33.481
342.11	32.669
342.47	34.253
342.83	33.737
343.20	35.279
343.56	33.913
343.92	34.721
344.28	33.732
344.65	34.024
345.01	35.523
345.37	33.053
345.73	35.481
346.10	35.375
346.46	34.651
346.82	33.879
347.19	32.585
347.55	33.835
347.91	33.495
348.27	34.923
348.63	34.072
349.00	34.044
349.36	34.580
349.72	35.821
350.08	34.262
350.45	34.238
350.81	34.385
351.17	34.039
351.53	34.204
351.89	32.948
352.26	34.160
352.62	35.161
352.98	33.815
353.34	32.931
353.70	34.547
354.07	33.790
354.43	34.107
354.79	33.526
355.15	35.794
355.51	35.918
355.87	35.113
356.24	33.768
356.60	34.681
356.96	35.079
357.32	34.026
357.68	34.558
358.04	34.976
358.40	34.164
358.77	35.167
359.13	33.947
359.49	33.821
359.85	34.009
360.21	35.726
360.57	33.588
360.93	34.796
361.29	34.139
361.66	35.266
362.02	34.924
362.38	35.872
362.74	35.882
363.10	37.020
363.46	35.063
363.82	36.965
364.18	34.834
364.54	35.956
364.90	35.197
365.26	35.953
365.62	37.153
365.98	35.411
366.35	37.145
366.71	36.511
367.07	36.357
367.43	35.083
367.79	36.466
368.15	36.540
368.51	35.834
368.87	35.104
369.23	36.101
369.59	36.953
369.95	36.584
370.31	37.211
370.67	36.791
371.03	37.117
371.39	37.272
371.75	37.143
372.11	37.803
372.47	38.683
372.83	37.402
373.19	37.090
373.55	38.051
373.91	37.941
374.27	38.058
374.63	38.765
374.99	37.872
375.35	37.326
375.71	38.601
376.07	37.992
376.42	39.728
376.78	39.530
377.14	39.269
377.50	39.177
377.86	39.290
378.22	38.609
378.58	38.718
378.94	38.563
379.30	40.237
379.66	40.627
380.02	39.117
380.38	39.927
380.74	39.976
381.09	41.166
381.45	40.489
381.81	41.641
382.17	42.195
382.53	41.599
382.89	41.933
383.25	41.319
383.61	42.256
383.97	40.698
384.32	41.088
384.68	42.415
385.04	41.299
385.40	41.319
385.76	42.893
386.12	42.561
386.48	42.848
386.83	42.169
387.19	41.880
387.55	42.911
387.91	42.359
388.27	42.002
388.62	43.235
388.98	41.805
389.34	43.848
389.70	43.816
390.06	41.473
390.42	42.617
390.77	43.362
391.13	42.749
391.49	42.691
391.85	43.990
392.20	41.431
392.56	42.848
392.92	43.629
393.28	43.396
393.64	43.123
393.99	43.699
394.35	42.948
394.71	43.614
395.07	42.238
395.42	41.955
395.78	43.388
396.14	42.875
396.50	44.071
396.85	44.623
397.21	44.173
397.57	43.574
397.92	42.720
398.28	44.253
398.64	42.410
399.00	44.300
399.35	42.381
399.71	42.964
400.07	43.470
400.42	42.595
400.78	44.213
401.14	42.287
401.49	43.061
401.85	42.840
402.21	42.590
402.57	42.625
402.92	42.409
403.28	42.794
403.63	43.569
403.99	42.730
404.35	43.473
404.70	42.262
405.06	41.892
405.42	42.697
405.77	41.894
406.13	42.200
406.49	41.504
406.84	43.826
407.20	43.528
407.55	41.919
407.91	41.243
408.27	41.683
408.62	42.954
408.98	41.959
409.34	42.565
409.69	41.085
410.05	42.057
410.40	42.531
410.76	41.616
411.11	42.375
411.47	42.472
411.83	42.812
412.18	42.085
412.54	41.948
412.89	41.379
413.25	41.576
413.60	41.863
413.96	42.393
414.31	41.768
414.67	40.667
415.03	41.944
415.38	42.037
415.74	43.388
416.09	42.652
416.45	43.282
416.80	41.573
417.16	43.370
417.51	42.771
417.87	42.894
418.22	43.135
418.58	44.548
418.93	43.887
419.29	41.229
419.64	42.385
420.00	44.081
420.35	42.507
420.71	43.499
421.06	44.015
421.42	43.630
421.77	43.526
422.12	43.360
422.48	44.017
422.83	43.503
423.19	44.187
423.54	43.269
423.90	43.522
424.25	44.432
424.61	44.553
424.96	43.670
425.31	44.541
425.67	44.953
426.02	44.817
426.38	45.210
426.73	45.642
427.09	44.304
427.44	46.176
427.79	44.490
428.15	45.752
428.50	45.548
428.85	44.410
429.21	46.067
429.56	46.631
429.92	46.225
430.27	45.464
430.62	45.112
430.98	46.178
431.33	45.531
431.68	46.049
432.04	46.283
432.39	45.750
432.74	45.941
433.10	47.356
433.45	46.296
433.80	46.953
434.16	46.759
434.51	46.667
434.86	47.154
435.22	46.887
435.57	48.347
435.92	48.922
436.28	46.869
436.63	48.774
436.98	46.987
437.34	47.671
437.69	48.658
438.04	48.775
438.39	47.037
438.75	49.241
439.10	48.331
439.45	48.813
439.81	48.440
440.16	49.050
440.51	48.896
440.86	50.453
441.22	47.342
441.57	49.890
441.92	50.000
442.27	49.224
442.63	49.786
442.98	48.593
443.33	48.748
443.68	48.647
444.03	50.671
444.39	49.484
444.74	50.780
445.09	50.724
445.44	50.883
445.79	51.212
446.15	49.394
446.50	50.194
446.85	50.319
447.20	50.261
447.55	50.279
447.91	50.536
448.26	51.508
448.61	49.914
448.96	50.717
449.31	50.751
449.66	50.929
450.02	51.398
450.37	50.860
450.72	51.375
451.07	51.203
451.42	50.000
451.77	50.995
452.12	51.136
452.47	50.161
452.83	51.708
453.18	50.917
453.53	52.149
453.88	50.698
454.23	52.120
454.58	53.086
454.93	50.902
455.28	51.111
455.63	51.829
455.98	52.375
456.34	52.043
456.69	51.715
457.04	52.741
457.39	51.580
457.74	52.660
458.09	50.677
458.44	52.428
458.79	51.653
459.14	52.059
459.49	53.373
459.84	53.074
460.19	52.367
460.54	52.628
460.89	53.352
461.24	52.857
461.59	52.375
461.94	52.642
462.29	53.197
462.64	53.688
462.99	53.825
463.34	52.017
463.69	52.317
464.04	53.269
464.39	52.395
464.74	53.129
465.09	54.710
465.44	53.145
465.79	51.814
466.14	52.509
466.49	52.329
466.84	53.302
467.19	51.439
467.54	52.107
467.89	53.506
468.24	53.710
468.59	54.540
468.94	52.825
469.29	53.574
469.64	53.247
469.99	54.590
470.34	53.038
470.68	54.512
471.03	54.069
471.38	55.492
471.73	54.972
472.08	54.206
472.43	53.893
472.78	53.324
473.13	55.578
473.48	54.593
473.83	53.798
474.17	54.793
474.52	53.223
474.87	53.939
475.22	54.301
475.57	54.828
475.92	54.964
476.27	54.016
476.61	55.093
476.96	53.318
477.31	54.732
477.66	53.483
478.01	54.464
478.36	54.085
478.70	56.607
479.05	55.934
479.40	54.743
479.75	52.763
480.10	55.300
480.45	54.550
480.79	55.287
481.14	56.045
481.49	54.680
481.84	55.792
482.19	54.771
482.53	54.964
482.88	54.893
483.23	55.326
483.58	54.623
483.92	54.598
484.27	54.421
484.62	55.267
484.97	54.685
485.31	55.094
485.66	54.648
486.01	54.881
486.36	54.231
486.70	54.486
487.05	55.149
487.40	54.860
487.75	55.042
488.09	55.192
488.44	55.949
488.79	54.688
489.13	56.090
489.48	55.066
489.83	55.022
490.17	55.326
490.52	55.473
490.87	55.530
491.22	54.871
491.56	55.835
491.91	55.784
492.26	56.441
492.60	56.046
492.95	57.698
493.30	56.082
493.64	57.171
493.99	56.184
494.34	54.709
494.68	56.667
495.03	55.669
495.37	55.643
495.72	55.427
496.07	57.512
496.41	55.896
496.76	56.840
497.11	55.333
497.45	56.611
497.80	57.265
498.14	56.582
498.49	57.034
498.84	56.587
499.18	56.978
499.53	57.639
499.87	55.739
500.22	56.429
500.56	57.186
500.91	56.124
501.26	56.945
501.60	57.550
501.95	56.866
502.29	56.949
502.64	57.143
502.98	58.658
503.33	56.724
503.67	56.337
504.02	58.358
504.36	57.892
504.71	55.859
505.06	56.719
505.40	56.447
505.75	58.351
506.09	57.527
506.44	58.316
506.78	58.214
507.13	57.653
507.47	57.180
507.82	57.105
508.16	56.313
508.51	57.293
508.85	58.189
509.19	57.850
509.54	59.142
509.88	57.389
510.23	58.741
510.57	57.937
510.92	56.557
511.26	57.992
511.61	57.921
511.95	58.411
512.30	57.594
512.64	57.206
512.98	59.686
513.33	58.814
513.67	57.192
514.02	58.295
514.36	59.657
514.70	59.091
515.05	60.047
515.39	59.445
515.74	59.581
516.08	60.012
516.42	60.247
516.77	58.806
517.11	59.644
517.46	58.408
517.80	59.058
518.14	58.910
518.49	59.255
518.83	58.384
519.17	58.520
519.52	58.378
519.86	58.824
520.20	58.931
520.55	58.224
520.89	60.414
521.23	60.988
521.58	60.315
521.92	60.385
522.26	60.052
522.61	60.065
522.95	61.391
523.29	59.339
523.64	60.419
523.98	62.281
524.32	60.567
524.66	60.179
525.01	59.740
525.35	60.207
525.69	60.808
526.04	59.854
526.38	61.933
526.72	59.778
527.06	59.403
527.41	59.301
527.75	59.383
528.09	59.003
528.43	62.458
528.78	61.188
529.12	58.710
529.46	59.324
529.80	59.911
530.15	61.320
530.49	61.549
530.83	60.328
531.17	59.167
531.51	60.670
531.86	59.619
532.20	60.056
532.54	59.700
532.88	61.123
533.22	61.694
533.57	60.485
533.91	60.052
534.25	61.784
534.59	62.155
534.93	59.723
535.27	59.327
535.62	62.216
535.96	59.230
536.30	61.214
536.64	61.061
536.98	61.185
537.32	62.091
537.66	61.711
538.01	61.469
538.35	61.096
538.69	60.120
539.03	59.262
539.37	60.834
539.71	60.668
540.05	60.421
540.39	60.042
540.73	59.833
541.07	62.293
541.42	61.223
541.76	61.321
542.10	59.463
542.44	59.555
542.78	59.257
543.12	61.264
543.46	61.057
543.80	61.763
544.14	59.346
544.48	59.893
544.82	60.492
545.16	61.544
545.50	61.348
545.84	62.252
546.18	61.773
546.52	61.500
546.86	60.676
547.20	61.803
547.54	60.565
547.88	61.209
548.22	59.435
548.56	61.016
548.90	62.264
549.24	60.744
549.58	62.200
549.92	61.115
550.26	61.172
550.60	61.413
550.94	62.211
551.28	62.133
551.62	62.462
551.96	62.180
552.30	63.231
552.64	61.283
552.98	61.392
553.32	61.626
553.66	62.046
554.00	62.847
554.34	63.294
554.68	61.431
555.02	62.574
555.36	62.603
555.69	61.832
556.03	62.812
556.37	61.281
556.71	62.238
557.05	62.789
557.39	61.264
557.73	62.069
558.07	63.499
558.41	63.323
558.75	62.666
559.08	63.042
559.42	64.286
559.76	63.891
560.10	62.385
560.44	64.110
560.78	62.378
561.12	64.598
561.45	62.895
561.79	63.305
562.13	63.236
562.47	62.662
562.81	62.464
563.15	62.130
563.48	62.801
563.82	63.006
564.16	64.067
564.50	61.824
564.84	63.186
565.17	62.508
565.51	63.320
565.85	62.757
566.19	62.798
566.52	63.673
566.86	64.203
567.20	62.765
567.54	63.747
567.88	64.382
568.21	63.292
568.55	62.120
568.89	63.758
569.23	63.601
569.56	62.609
569.90	63.378
570.24	61.816
570.57	62.327
570.91	62.844
571.25	61.690
571.59	60.698
571.92	59.881
572.26	61.292
572.60	60.744
572.93	60.370
573.27	60.251
573.61	60.740
573.95	60.923
574.28	60.487
574.62	59.751
574.96	59.636
575.29	60.222
575.63	59.057
575.97	60.152
576.30	59.713
576.64	59.629
576.98	60.927
577.31	60.801
577.65	61.101
577.98	60.482
578.32	60.188
578.66	59.854
578.99	59.710
579.33	59.830
579.67	60.207
580.00	60.658
580.34	60.398
580.67	59.768
581.01	60.975
581.35	60.099
581.68	60.106
582.02	60.690
582.35	59.889
582.69	60.888
583.02	60.479
583.36	61.060
583.70	60.566
584.03	61.857
584.37	62.196
584.70	60.604
585.04	60.337
585.37	61.007
585.71	61.195
586.04	61.624
586.38	60.549
586.72	61.291
587.05	62.103
587.39	61.336
587.72	62.493
588.06	61.472
588.39	61.749
588.73	62.088
589.06	62.264
589.40	61.666
589.73	62.760
590.07	62.236
590.40	63.080
590.73	62.273
591.07	62.680
591.40	62.956
591.74	64.027
592.07	63.404
592.41	63.207
592.74	62.206
593.08	61.404
593.41	61.516
593.75	61.989
594.08	61.071
594.41	62.955
594.75	62.405
595.08	63.034
595.42	61.833
595.75	64.063
596.09	62.705
596.42	63.828
596.75	62.478
597.09	61.913
597.42	62.376
597.75	63.811
598.09	62.336
598.42	62.229
598.76	62.891
599.09	62.540
599.42	61.311
599.76	61.211
600.09	62.142
600.42	61.865
600.76	62.370
601.09	62.137
601.42	61.653
601.76	63.041
602.09	62.583
602.42	63.184
602.76	62.988
603.09	63.206
603.42	65.134
603.76	63.024
604.09	62.211
604.42	62.352
604.76	63.418
605.09	63.346
605.42	62.754
605.75	63.573
606.09	62.803
606.42	62.761
606.75	62.857
607.09	62.637
607.42	61.276
607.75	62.123
608.08	61.366
608.42	61.900
608.75	63.325
609.08	64.275
609.41	62.741
609.75	62.298
610.08	63.954
610.41	62.802
610.74	65.285
611.07	64.083
611.41	63.363
611.74	64.232
612.07	64.026
612.40	64.114
612.73	65.819
613.07	63.161
613.40	63.676
613.73	64.801
614.06	63.717
614.39	63.790
614.72	62.297
615.06	63.408
615.39	63.264
615.72	63.778
616.05	62.291
616.38	62.393
616.71	63.976
617.05	63.681
617.38	64.425
617.71	65.346
618.04	66.921
618.37	65.889
618.70	65.347
619.03	66.597
619.36	65.702
619.69	65.959
620.03	66.837
620.36	65.451
620.69	64.026
621.02	65.138
621.35	67.220
621.68	67.772
622.01	67.167
622.34	64.725
622.67	66.404
623.00	64.472
623.33	66.921
623.66	64.996
623.99	64.750
624.32	65.019
624.65	64.060
624.99	65.388
625.32	64.594
625.65	67.321
625.98	67.043
626.31	65.752
626.64	66.638
626.97	66.492
627.30	68.214
627.63	67.504
627.96	68.104
628.29	66.975
628.62	66.863
628.95	66.032
629.28	69.456
629.61	66.600
629.94	68.426
630.26	68.182
630.59	70.239
630.92	67.795
631.25	66.974
631.58	69.934
631.91	68.750
632.24	71.445
632.57	68.295
632.90	70.819
633.23	67.176
633.56	71.033
633.89	69.790
634.22	69.506
634.55	70.013
634.88	68.455
635.20	68.718
635.53	69.200
635.86	69.311
636.19	71.022
636.52	70.153
636.85	68.610
637.18	67.925
637.51	68.302
637.83	69.120
638.16	71.351
638.49	70.436
