SpectraSuite Data File
++++++++++++++++++++++++++++++++++++
Date: Fri May 15 17:05:07 PDT 2015
User: schluterlab
Dark Spectrum Present: Yes
Reference Spectrum Present: Yes
Number of Sampled Component Spectra: 1
Spectrometers: USB2E3373
Integration Time (usec): 3000 (USB2E3373)
Spectra Averaged: 3 (USB2E3373)
Boxcar Smoothing: 0 (USB2E3373)
Correct for Electrical Dark: No (USB2E3373)
Strobe/Lamp Enabled: No (USB2E3373)
Correct for Detector Non-linearity: No (USB2E3373)
Correct for Stray Light: No (USB2E3373)
Number of Pixels in Processed Spectrum: 2048
>>>>>Begin Processed Spectral Data<<<<<
178.53	0.000
178.91	0.000
179.29	100.000
179.67	0.000
180.04	-14.286
180.42	350.000
180.80	700.000
181.18	-133.333
181.56	-150.000
181.94	850.000
182.31	200.000
182.69	180.000
183.07	200.000
183.45	-40.000
183.83	66.667
184.20	100.000
184.58	66.667
184.96	-300.000
185.34	-266.667
185.72	50.000
186.09	-15.385
186.47	600.000
186.85	50.000
187.23	122.222
187.61	-900.000
187.98	-133.333
188.36	211.111
188.74	0.000
189.12	82.353
189.49	94.444
189.87	0.000
190.25	157.143
190.63	250.000
191.00	333.333
191.38	-5.263
191.76	500.000
192.14	50.000
192.51	450.000
192.89	-33.333
193.27	142.857
193.65	100.000
194.02	127.273
194.40	50.000
194.78	62.500
195.15	8.333
195.53	62.500
195.91	200.000
196.29	-150.000
196.66	30.769
197.04	85.714
197.42	22.222
197.79	0.000
198.17	-69.231
198.55	1000.000
198.92	-100.000
199.30	900.000
199.68	60.000
200.05	-300.000
200.43	0.000
200.81	300.000
201.18	200.000
201.56	-300.000
201.94	-200.000
202.31	-200.000
202.69	80.000
203.07	-175.000
203.44	0.000
203.82	0.000
204.19	57.143
204.57	-333.333
204.95	-25.000
205.32	110.000
205.70	142.857
206.08	175.000
206.45	211.111
206.83	85.714
207.20	-42.857
207.58	-600.000
207.96	500.000
208.33	-70.000
208.71	-150.000
209.08	-66.667
209.46	200.000
209.84	40.000
210.21	-900.000
210.59	328.571
210.96	283.333
211.34	25.000
211.71	80.000
212.09	0.000
212.46	-200.000
212.84	0.000
213.22	290.000
213.59	-200.000
213.97	100.000
214.34	118.182
214.72	83.333
215.09	275.000
215.47	76.923
215.84	-18.182
216.22	-133.333
216.59	50.000
216.97	500.000
217.34	125.000
217.72	60.000
218.09	87.500
218.47	137.500
218.84	500.000
219.22	22.222
219.59	20.000
219.97	200.000
220.34	-25.000
220.72	85.714
221.09	-100.000
221.47	650.000
221.84	-150.000
222.22	-200.000
222.59	127.273
222.97	125.000
223.34	0.000
223.72	21.429
224.09	14.286
224.46	57.143
224.84	200.000
225.21	80.000
225.59	80.000
225.96	700.000
226.34	-50.000
226.71	171.429
227.08	-100.000
227.46	87.500
227.83	-250.000
228.21	66.667
228.58	63.636
228.95	37.500
229.33	-0.000
229.70	-6.250
230.08	-62.500
230.45	0.000
230.82	185.714
231.20	53.333
231.57	92.857
231.95	128.571
232.32	20.000
232.69	28.571
233.07	300.000
233.44	-60.000
233.81	-10.000
234.19	144.444
234.56	47.059
234.93	-0.000
235.31	325.000
235.68	60.000
236.05	38.462
236.43	0.000
236.80	35.294
237.17	15.625
237.55	70.000
237.92	11.111
238.29	47.222
238.67	26.667
239.04	17.647
239.41	-12.195
239.79	-16.667
240.16	39.024
240.53	26.316
240.91	21.739
241.28	23.810
241.65	33.929
242.02	24.658
242.40	20.000
242.77	20.339
243.14	19.697
243.51	23.750
243.89	28.736
244.26	22.989
244.63	10.714
245.00	16.495
245.38	23.711
245.75	11.236
246.12	20.690
246.49	17.355
246.87	30.769
247.24	13.445
247.61	9.649
247.98	18.699
248.36	15.625
248.73	15.789
249.10	22.727
249.47	17.089
249.84	16.340
250.22	25.882
250.59	24.183
250.96	24.883
251.33	20.930
251.70	24.118
252.08	14.721
252.45	13.861
252.82	19.095
253.19	23.041
253.56	17.290
253.94	17.568
254.31	23.913
254.68	21.053
255.05	20.472
255.42	24.454
255.79	20.849
256.16	18.288
256.54	21.642
256.91	17.110
257.28	15.985
257.65	16.854
258.02	18.794
258.39	18.182
258.76	21.245
259.14	23.256
259.51	18.447
259.88	15.120
260.25	17.320
260.62	17.361
260.99	15.254
261.36	15.411
261.73	16.772
262.10	15.805
262.47	19.939
262.85	17.868
263.22	16.308
263.59	18.380
263.96	20.186
264.33	16.364
264.70	15.774
265.07	16.369
265.44	20.397
265.81	19.492
266.18	18.579
266.55	21.851
266.92	17.617
267.29	18.277
267.66	18.670
268.03	17.539
268.40	16.449
268.77	19.786
269.14	19.904
269.51	16.967
269.88	16.708
270.25	16.327
270.62	16.829
270.99	16.624
271.36	18.093
271.73	16.901
272.10	17.762
272.47	19.622
272.84	18.812
273.21	17.401
273.58	16.386
273.95	16.705
274.32	18.014
274.69	16.742
275.06	17.634
275.43	16.780
275.80	16.336
276.17	16.552
276.54	16.916
276.91	15.789
277.28	15.502
277.65	18.182
278.02	18.298
278.39	12.910
278.76	15.933
279.13	14.938
279.50	15.336
279.87	16.847
280.23	14.839
280.60	17.349
280.97	15.960
281.34	15.769
281.71	19.507
282.08	17.996
282.45	14.873
282.82	15.058
283.19	17.408
283.56	17.341
283.92	15.750
284.29	15.962
284.66	17.636
285.03	15.324
285.40	14.934
285.77	14.938
286.14	16.065
286.51	17.343
286.87	17.002
287.24	15.285
287.61	13.933
287.98	17.193
288.35	14.558
288.72	16.112
289.08	15.104
289.45	17.223
289.82	15.559
290.19	14.164
290.56	12.521
290.93	14.478
291.29	13.713
291.66	14.173
292.03	15.311
292.40	13.387
292.77	13.557
293.13	10.390
293.50	14.112
293.87	13.740
294.24	13.756
294.60	14.456
294.97	13.690
295.34	13.497
295.71	11.326
296.08	13.752
296.44	10.953
296.81	13.750
297.18	12.754
297.55	14.499
297.91	11.918
298.28	11.873
298.65	12.754
299.02	11.590
299.38	10.534
299.75	11.034
300.12	12.042
300.48	11.067
300.85	12.167
301.22	10.649
301.59	11.974
301.95	11.899
302.32	12.451
302.69	12.189
303.05	11.881
303.42	12.453
303.79	11.916
304.15	11.828
304.52	9.988
304.89	10.292
305.25	11.864
305.62	9.802
305.99	12.281
306.35	10.867
306.72	9.336
307.09	11.631
307.45	11.251
307.82	12.037
308.19	11.614
308.55	10.360
308.92	12.636
309.29	10.279
309.65	10.441
310.02	10.011
310.38	11.087
310.75	10.820
311.12	11.087
311.48	10.923
311.85	10.157
312.22	10.759
312.58	11.040
312.95	10.139
313.31	9.524
313.68	9.529
314.05	10.510
314.41	10.722
314.78	9.897
315.14	11.922
315.51	11.180
315.87	10.656
316.24	12.133
316.61	11.909
316.97	10.516
317.34	11.816
317.70	9.656
318.07	11.058
318.43	11.078
318.80	10.133
319.16	12.402
319.53	11.016
319.89	11.319
320.26	10.425
320.62	10.532
320.99	11.065
321.35	11.305
321.72	12.046
322.08	12.890
322.45	12.284
322.81	11.395
323.18	10.304
323.54	11.100
323.91	11.003
324.27	11.035
324.64	10.955
325.00	12.044
325.37	12.764
325.73	10.426
326.10	12.716
326.46	12.915
326.83	12.161
327.19	11.683
327.56	12.511
327.92	12.852
328.29	11.161
328.65	12.642
329.01	12.224
329.38	12.442
329.74	12.842
330.11	13.068
330.47	11.596
330.84	11.250
331.20	13.213
331.56	11.019
331.93	12.511
332.29	12.832
332.66	12.127
333.02	11.524
333.38	11.824
333.75	12.912
334.11	11.370
334.48	11.877
334.84	11.447
335.20	11.894
335.57	12.511
335.93	13.550
336.29	11.510
336.66	12.352
337.02	11.338
337.38	11.296
337.75	11.636
338.11	12.173
338.47	12.409
338.84	12.754
339.20	12.066
339.56	12.661
339.93	13.071
340.29	12.018
340.65	12.724
341.02	10.372
341.38	11.593
341.74	11.484
342.11	11.525
342.47	11.388
342.83	13.062
343.20	11.150
343.56	11.739
343.92	11.869
344.28	13.151
344.65	10.794
345.01	11.150
345.37	11.186
345.73	12.218
346.10	10.958
346.46	12.027
346.82	10.638
347.19	10.557
347.55	11.863
347.91	11.165
348.27	11.318
348.63	12.010
349.00	10.747
349.36	11.056
349.72	12.023
350.08	11.066
350.45	11.891
350.81	10.299
351.17	11.564
351.53	12.163
351.89	9.992
352.26	11.120
352.62	12.177
352.98	11.406
353.34	10.145
353.70	11.812
354.07	10.484
354.43	11.129
354.79	10.239
355.15	11.984
355.51	11.313
355.87	11.327
356.24	10.767
356.60	10.509
356.96	11.032
357.32	11.182
357.68	10.711
358.04	10.905
358.40	11.334
358.77	12.201
359.13	9.768
359.49	11.479
359.85	10.296
360.21	10.606
360.57	10.635
360.93	11.120
361.29	11.027
361.66	11.129
362.02	10.758
362.38	10.967
362.74	10.220
363.10	10.910
363.46	11.045
363.82	11.420
364.18	11.513
364.54	9.559
364.90	10.538
365.26	10.189
365.62	11.825
365.98	10.924
366.35	11.362
366.71	11.382
367.07	11.538
367.43	10.568
367.79	11.449
368.15	10.409
368.51	10.124
368.87	10.122
369.23	10.469
369.59	10.423
369.95	11.144
370.31	10.260
370.67	11.567
371.03	11.202
371.39	10.868
371.75	10.916
372.11	10.984
372.47	9.689
372.83	11.285
373.19	10.842
373.55	10.108
373.91	11.447
374.27	10.985
374.63	10.481
374.99	10.993
375.35	10.097
375.71	10.490
376.07	10.885
376.42	11.293
376.78	10.805
377.14	10.765
377.50	10.624
377.86	11.044
378.22	10.849
378.58	10.192
378.94	10.712
379.30	11.104
379.66	11.097
380.02	9.933
380.38	9.617
380.74	10.114
381.09	10.429
381.45	10.214
381.81	10.919
382.17	10.089
382.53	10.369
382.89	10.295
383.25	10.579
383.61	10.305
383.97	9.333
384.32	11.069
384.68	10.836
385.04	9.314
385.40	9.770
385.76	10.377
386.12	10.155
386.48	11.175
386.83	10.273
387.19	10.989
387.55	10.853
387.91	10.086
388.27	10.440
388.62	10.447
388.98	10.559
389.34	10.806
389.70	10.690
390.06	9.755
390.42	9.845
390.77	10.268
391.13	10.214
391.49	10.737
391.85	10.786
392.20	10.797
392.56	10.045
392.92	11.333
393.28	10.024
393.64	10.390
393.99	10.972
394.35	9.677
394.71	10.792
395.07	9.868
395.42	10.018
395.78	10.423
396.14	10.656
396.50	10.399
396.85	10.045
397.21	10.338
397.57	10.721
397.92	10.545
398.28	10.345
398.64	9.157
399.00	10.327
399.35	10.102
399.71	11.086
400.07	10.157
400.42	10.404
400.78	10.227
401.14	9.800
401.49	10.840
401.85	9.994
402.21	10.181
402.57	10.938
402.92	9.598
403.28	10.777
403.63	10.277
403.99	9.503
404.35	10.119
404.70	10.476
405.06	9.577
405.42	10.503
405.77	9.239
406.13	10.128
406.49	9.888
406.84	10.147
407.20	10.415
407.55	9.594
407.91	10.294
408.27	9.496
408.62	10.646
408.98	10.351
409.34	9.851
409.69	10.271
410.05	10.222
410.40	10.185
410.76	9.952
411.11	10.188
411.47	10.125
411.83	10.044
412.18	10.039
412.54	9.738
412.89	9.975
413.25	10.469
413.60	9.689
413.96	10.307
414.31	11.098
414.67	9.942
415.03	9.521
415.38	10.248
415.74	10.358
416.09	10.451
416.45	10.331
416.80	10.178
417.16	10.912
417.51	10.393
417.87	10.365
418.22	10.233
418.58	10.100
418.93	11.160
419.29	9.731
419.64	9.462
420.00	11.713
420.35	10.030
420.71	10.875
421.06	10.620
421.42	10.757
421.77	11.040
422.12	9.932
422.48	9.854
422.83	10.383
423.19	10.835
423.54	8.701
423.90	9.953
424.25	10.620
424.61	10.588
424.96	10.918
425.31	10.572
425.67	10.505
426.02	10.895
426.38	11.334
426.73	10.230
427.09	10.570
427.44	11.765
427.79	10.312
428.15	11.044
428.50	10.842
428.85	9.889
429.21	10.753
429.56	10.836
429.92	11.043
430.27	11.028
430.62	10.246
430.98	10.775
431.33	10.515
431.68	11.722
432.04	9.558
432.39	11.067
432.74	10.162
433.10	12.356
433.45	10.036
433.80	10.389
434.16	10.803
434.51	11.237
434.86	10.801
435.22	11.666
435.57	10.855
435.92	10.359
436.28	11.330
436.63	11.124
436.98	10.139
437.34	11.252
437.69	10.435
438.04	10.769
438.39	9.530
438.75	10.990
439.10	10.866
439.45	10.164
439.81	11.254
440.16	10.333
440.51	11.582
440.86	11.903
441.22	11.878
441.57	11.148
441.92	11.123
442.27	10.809
442.63	12.366
442.98	11.258
443.33	11.130
443.68	10.663
444.03	11.376
444.39	10.969
444.74	11.260
445.09	10.857
445.44	11.510
445.79	11.552
446.15	11.123
446.50	11.148
446.85	11.052
447.20	11.627
447.55	11.496
447.91	10.829
448.26	11.952
448.61	11.629
448.96	11.819
449.31	11.214
449.66	11.092
450.02	11.124
450.37	11.440
450.72	11.054
451.07	11.519
451.42	12.297
451.77	11.453
452.12	10.407
452.47	11.462
452.83	11.720
453.18	11.069
453.53	11.568
453.88	11.658
454.23	11.063
454.58	11.902
454.93	12.242
455.28	10.984
455.63	12.585
455.98	11.726
456.34	11.047
456.69	11.817
457.04	12.287
457.39	11.604
457.74	11.185
458.09	11.065
458.44	11.176
458.79	11.261
459.14	12.185
459.49	11.403
459.84	10.773
460.19	12.136
460.54	12.714
460.89	11.307
461.24	11.491
461.59	11.758
461.94	11.132
462.29	11.942
462.64	11.694
462.99	12.119
463.34	10.779
463.69	11.454
464.04	12.712
464.39	10.976
464.74	11.350
465.09	11.416
465.44	12.002
465.79	11.395
466.14	11.574
466.49	11.098
466.84	11.124
467.19	11.577
467.54	11.750
467.89	10.929
468.24	11.436
468.59	12.317
468.94	11.683
469.29	12.066
469.64	11.483
469.99	12.754
470.34	10.853
470.68	12.230
471.03	11.890
471.38	11.555
471.73	12.675
472.08	11.737
472.43	11.342
472.78	11.172
473.13	12.517
473.48	11.922
473.83	11.582
474.17	12.565
474.52	12.317
474.87	12.364
475.22	11.959
475.57	12.253
475.92	12.068
476.27	12.689
476.61	11.863
476.96	11.768
477.31	12.493
477.66	11.910
478.01	11.286
478.36	11.983
478.70	11.637
479.05	12.198
479.40	11.659
479.75	11.679
480.10	11.674
480.45	11.950
480.79	12.185
481.14	11.834
481.49	11.675
481.84	11.486
482.19	11.225
482.53	11.319
482.88	12.601
483.23	11.756
483.58	12.217
483.92	11.520
484.27	11.304
484.62	11.475
484.97	10.987
485.31	11.525
485.66	11.741
486.01	11.255
486.36	11.133
486.70	10.955
487.05	11.258
487.40	11.298
487.75	11.380
488.09	11.001
488.44	11.726
488.79	11.057
489.13	12.059
489.48	11.586
489.83	11.211
490.17	11.416
490.52	11.686
490.87	11.476
491.22	12.178
491.56	11.195
491.91	11.807
492.26	11.473
492.60	11.996
492.95	12.641
493.30	11.187
493.64	11.739
493.99	11.787
494.34	10.922
494.68	11.905
495.03	10.900
495.37	11.433
495.72	11.610
496.07	12.390
496.41	11.698
496.76	11.838
497.11	11.085
497.45	12.649
497.80	11.655
498.14	11.972
498.49	11.478
498.84	11.776
499.18	12.048
499.53	11.806
499.87	10.992
500.22	10.831
500.56	11.750
500.91	11.697
501.26	11.270
501.60	11.904
501.95	11.596
502.29	12.203
502.64	12.500
502.98	11.939
503.33	11.431
503.67	12.434
504.02	12.561
504.36	12.024
504.71	12.071
505.06	11.575
505.40	11.726
505.75	11.701
506.09	12.266
506.44	12.320
506.78	11.837
507.13	12.461
507.47	11.175
507.82	11.325
508.16	12.256
508.51	11.805
508.85	12.036
509.19	11.602
509.54	12.386
509.88	11.057
510.23	12.480
510.57	12.614
510.92	11.567
511.26	11.784
511.61	11.661
511.95	11.507
512.30	12.251
512.64	11.964
512.98	12.184
513.33	12.759
513.67	11.029
514.02	13.101
514.36	12.286
514.70	12.704
515.05	12.985
515.39	11.216
515.74	12.695
516.08	12.911
516.42	12.898
516.77	12.932
517.11	11.454
517.46	12.388
517.80	12.098
518.14	12.186
518.49	11.899
518.83	12.394
519.17	11.765
519.52	12.552
519.86	11.164
520.20	13.001
520.55	11.445
520.89	12.422
521.23	11.906
521.58	13.249
521.92	12.500
522.26	12.362
522.61	11.753
522.95	11.921
523.29	12.770
523.64	13.088
523.98	13.027
524.32	11.727
524.66	12.228
525.01	12.597
525.35	12.897
525.69	10.976
526.04	11.839
526.38	13.294
526.72	12.165
527.06	12.387
527.41	12.137
527.75	11.930
528.09	12.425
528.43	13.842
528.78	12.871
529.12	12.968
529.46	12.346
529.80	11.970
530.15	12.937
530.49	12.121
530.83	12.722
531.17	12.357
531.51	12.585
531.86	11.625
532.20	11.065
532.54	12.389
532.88	13.210
533.22	12.836
533.57	12.385
533.91	12.141
534.25	13.021
534.59	12.187
534.93	11.643
535.27	11.485
535.62	11.860
535.96	12.329
536.30	12.599
536.64	12.612
536.98	12.474
537.32	12.091
537.66	13.815
538.01	12.797
538.35	11.650
538.69	12.583
539.03	11.347
539.37	12.651
539.71	12.270
540.05	12.288
540.39	12.673
540.73	12.413
541.07	12.362
541.42	12.903
541.76	13.352
542.10	12.663
542.44	12.717
542.78	11.631
543.12	12.225
543.46	12.309
543.80	12.769
544.14	12.083
544.48	12.059
544.82	12.167
545.16	13.183
545.50	12.550
545.84	12.890
546.18	12.340
546.52	12.329
546.86	12.581
547.20	12.661
547.54	12.367
547.88	12.976
548.22	11.834
548.56	12.731
548.90	12.803
549.24	12.052
549.58	12.976
549.92	11.794
550.26	11.429
550.60	12.045
550.94	12.323
551.28	11.283
551.62	13.077
551.96	12.030
552.30	11.842
552.64	11.636
552.98	11.744
553.32	12.054
553.66	12.409
554.00	12.920
554.34	13.072
554.68	12.463
555.02	13.542
555.36	12.640
555.69	11.355
556.03	12.705
556.37	12.313
556.71	12.563
557.05	11.931
557.39	11.896
557.73	13.118
558.07	12.443
558.41	12.098
558.75	10.990
559.08	12.924
559.42	12.619
559.76	11.849
560.10	12.156
560.44	12.211
560.78	11.888
561.12	12.553
561.45	13.071
561.79	12.395
562.13	13.556
562.47	13.094
562.81	11.383
563.15	13.329
563.48	12.306
563.82	12.766
564.16	12.744
564.50	11.824
564.84	12.651
565.17	12.676
565.51	12.500
565.85	12.551
566.19	12.732
566.52	12.466
566.86	12.082
567.20	11.333
567.54	11.253
567.88	12.712
568.21	12.104
568.55	11.141
568.89	12.885
569.23	12.037
569.56	11.296
569.90	12.261
570.24	11.909
570.57	11.782
570.91	12.130
571.25	11.542
571.59	11.865
571.92	11.644
572.26	11.232
572.60	11.318
572.93	11.327
573.27	11.411
573.61	11.665
573.95	11.688
574.28	11.149
574.62	11.289
574.96	11.668
575.29	11.232
575.63	11.350
575.97	11.331
576.30	11.330
576.64	11.391
576.98	11.326
577.31	11.452
577.65	11.422
577.98	11.306
578.32	11.387
578.66	11.111
578.99	11.044
579.33	11.142
579.67	11.406
580.00	11.671
580.34	11.443
580.67	11.301
581.01	11.383
581.35	11.240
581.68	11.395
582.02	11.286
582.35	11.253
582.69	11.336
583.02	11.194
583.36	11.427
583.70	11.423
584.03	11.371
584.37	11.491
584.70	11.484
585.04	11.321
585.37	11.695
585.71	11.800
586.04	11.271
586.38	11.336
586.72	11.736
587.05	11.930
587.39	11.406
587.72	11.591
588.06	11.569
588.39	11.877
588.73	11.538
589.06	12.264
589.40	12.167
589.73	12.048
590.07	11.707
590.40	11.726
590.73	11.779
591.07	12.044
591.40	11.576
591.74	11.719
592.07	12.199
592.41	12.412
592.74	11.669
593.08	11.666
593.41	11.960
593.75	11.613
594.08	11.603
594.41	11.572
594.75	11.756
595.08	11.729
595.42	11.962
595.75	12.129
596.09	11.572
596.42	11.492
596.75	12.478
597.09	12.756
597.42	12.150
597.75	12.093
598.09	11.770
598.42	11.191
598.76	11.798
599.09	11.779
599.42	11.406
599.76	11.926
600.09	11.501
600.42	12.130
600.76	11.553
601.09	11.565
601.42	11.477
601.76	11.989
602.09	11.716
602.42	12.595
602.76	11.545
603.09	12.417
603.42	12.834
603.76	11.331
604.09	11.381
604.42	11.717
604.76	12.417
605.09	11.974
605.42	12.099
605.75	12.347
606.09	12.102
606.42	12.219
606.75	12.641
607.09	11.868
607.42	11.608
607.75	11.679
608.08	11.545
608.42	12.426
608.75	12.964
609.08	12.108
609.41	11.980
609.75	11.996
610.08	12.132
610.41	12.077
610.74	12.189
611.07	11.421
611.41	12.039
611.74	12.367
612.07	11.456
612.40	11.871
612.73	12.429
613.07	12.148
613.40	12.144
613.73	11.472
614.06	12.187
614.39	11.732
614.72	11.709
615.06	11.955
615.39	11.900
615.72	10.926
616.05	12.235
616.38	12.251
616.71	11.988
617.05	12.539
617.38	12.508
617.71	12.704
618.04	11.683
618.37	12.610
618.70	12.079
619.03	14.236
619.36	11.505
619.69	12.964
620.03	12.783
620.36	12.446
620.69	11.849
621.02	12.538
621.35	11.867
621.68	12.415
622.01	13.333
622.34	12.131
622.67	13.091
623.00	12.864
623.33	12.500
623.66	12.416
623.99	12.405
624.32	12.928
624.65	11.955
624.99	12.566
625.32	12.358
625.65	13.040
625.98	13.376
626.31	11.305
626.64	12.652
626.97	13.613
627.30	13.485
627.63	13.692
627.96	12.848
628.29	13.784
628.62	13.274
628.95	12.124
629.28	12.802
629.61	13.061
629.94	12.903
630.26	13.538
630.59	13.215
630.92	12.513
631.25	12.513
631.58	12.775
631.91	12.061
632.24	12.729
632.57	13.864
632.90	12.218
633.23	12.941
633.56	12.720
633.89	13.070
634.22	14.074
634.55	13.088
634.88	12.899
635.20	13.590
