SpectraSuite Data File
++++++++++++++++++++++++++++++++++++
Date: Fri May 15 17:25:18 PDT 2015
User: schluterlab
Dark Spectrum Present: Yes
Reference Spectrum Present: Yes
Number of Sampled Component Spectra: 1
Spectrometers: USB2E3373
Integration Time (usec): 3000 (USB2E3373)
Spectra Averaged: 3 (USB2E3373)
Boxcar Smoothing: 0 (USB2E3373)
Correct for Electrical Dark: No (USB2E3373)
Strobe/Lamp Enabled: No (USB2E3373)
Correct for Detector Non-linearity: No (USB2E3373)
Correct for Stray Light: No (USB2E3373)
Number of Pixels in Processed Spectrum: 2048
>>>>>Begin Processed Spectral Data<<<<<
178.53	0.000
178.91	0.000
179.29	112.500
179.67	-250.000
180.04	-14.286
180.42	-50.000
180.80	-100.000
181.18	-66.667
181.56	600.000
181.94	200.000
182.31	300.000
182.69	260.000
183.07	-100.000
183.45	0.000
183.83	200.000
184.20	9.091
184.58	11.111
184.96	-0.000
185.34	-166.667
185.72	-600.000
186.09	46.154
186.47	-300.000
186.85	16.667
187.23	111.111
187.61	-800.000
187.98	-66.667
188.36	77.778
188.74	-166.667
189.12	47.059
189.49	50.000
189.87	0.000
190.25	42.857
190.63	400.000
191.00	-33.333
191.38	-10.526
191.76	750.000
192.14	175.000
192.51	500.000
192.89	-66.667
193.27	-28.571
193.65	83.333
194.02	154.545
194.40	10.000
194.78	-150.000
195.15	-16.667
195.53	75.000
195.91	450.000
196.29	-100.000
196.66	115.385
197.04	42.857
197.42	-11.111
197.79	-366.667
198.17	-15.385
198.55	1300.000
198.92	-66.667
199.30	-700.000
199.68	-180.000
200.05	-233.333
200.43	0.000
200.81	366.667
201.18	66.667
201.56	700.000
201.94	-300.000
202.31	-300.000
202.69	-60.000
203.07	-175.000
203.44	100.000
203.82	0.000
204.19	42.857
204.57	-100.000
204.95	150.000
205.32	90.000
205.70	100.000
206.08	350.000
206.45	200.000
206.83	57.143
207.20	-57.143
207.58	100.000
207.96	-166.667
208.33	-50.000
208.71	-25.000
209.08	-83.333
209.46	-300.000
209.84	-100.000
210.21	-800.000
210.59	71.429
210.96	300.000
211.34	175.000
211.71	66.667
212.09	-14.286
212.46	-1500.000
212.84	0.000
213.22	140.000
213.59	350.000
213.97	53.846
214.34	-9.091
214.72	-166.667
215.09	275.000
215.47	-84.615
215.84	-18.182
216.22	-33.333
216.59	37.500
216.97	-200.000
217.34	-50.000
217.72	-80.000
218.09	87.500
218.47	162.500
218.84	-1100.000
219.22	-11.111
219.59	20.000
219.97	466.667
220.34	175.000
220.72	-85.714
221.09	-50.000
221.47	-200.000
221.84	-100.000
222.22	200.000
222.59	18.182
222.97	33.333
223.34	-666.667
223.72	64.286
224.09	42.857
224.46	7.143
224.84	66.667
225.21	-30.000
225.59	13.333
225.96	150.000
226.34	275.000
226.71	-71.429
227.08	-16.667
227.46	100.000
227.83	-850.000
228.21	100.000
228.58	127.273
228.95	12.500
229.33	-0.000
229.70	-6.250
230.08	12.500
230.45	-28.571
230.82	57.143
231.20	13.333
231.57	35.714
231.95	14.286
232.32	-100.000
232.69	57.143
233.07	66.667
233.44	-40.000
233.81	-100.000
234.19	133.333
234.56	23.529
234.93	150.000
235.31	-75.000
235.68	-240.000
236.05	15.385
236.43	-10.000
236.80	-5.882
237.17	3.125
237.55	15.000
237.92	0.000
238.29	5.556
238.67	20.000
239.04	14.706
239.41	-24.390
239.79	-23.333
240.16	12.195
240.53	-15.789
240.91	6.522
241.28	11.111
241.65	32.143
242.02	21.918
242.40	10.000
242.77	0.000
243.14	-3.030
243.51	-6.250
243.89	2.299
244.26	2.299
244.63	-1.190
245.00	2.062
245.38	3.093
245.75	1.124
246.12	6.034
246.49	13.223
246.87	5.769
247.24	-5.882
247.61	-4.386
247.98	4.065
248.36	3.750
248.73	1.974
249.10	1.299
249.47	8.861
249.84	-0.654
250.22	10.000
250.59	5.882
250.96	9.859
251.33	7.558
251.70	4.706
252.08	5.584
252.45	6.436
252.82	6.533
253.19	9.677
253.56	-0.467
253.94	2.252
254.31	5.217
254.68	7.895
255.05	7.087
255.42	4.367
255.79	6.950
256.16	8.560
256.54	8.582
256.91	5.323
257.28	3.717
257.65	6.367
258.02	3.191
258.39	5.051
258.76	5.861
259.14	7.641
259.51	8.414
259.88	1.718
260.25	6.209
260.62	7.292
260.99	3.051
261.36	-0.685
261.73	6.013
262.10	5.167
262.47	4.908
262.85	4.389
263.22	5.538
263.59	6.542
263.96	6.832
264.33	3.030
264.70	4.762
265.07	4.167
265.44	3.966
265.81	8.192
266.18	6.284
266.55	7.198
266.92	4.663
267.29	7.311
267.66	4.859
268.03	6.545
268.40	4.178
268.77	9.091
269.14	8.153
269.51	7.712
269.88	5.237
270.25	4.592
270.62	5.854
270.99	3.325
271.36	2.934
271.73	4.460
272.10	3.893
272.47	4.255
272.84	5.693
273.21	5.568
273.58	6.265
273.95	7.094
274.32	3.002
274.69	0.905
275.06	7.589
275.43	4.535
275.80	4.857
276.17	3.678
276.54	5.567
276.91	5.263
277.28	3.057
277.65	5.992
278.02	5.319
278.39	4.595
278.76	4.403
279.13	1.452
279.50	6.303
279.87	5.400
280.23	3.441
280.60	5.458
280.97	4.646
281.34	5.192
281.71	5.339
282.08	3.885
282.45	3.914
282.82	4.054
283.19	3.675
283.56	5.010
283.92	2.467
284.29	4.231
284.66	3.682
285.03	6.680
285.40	3.781
285.77	4.569
286.14	3.430
286.51	5.720
286.87	4.570
287.24	5.341
287.61	3.351
287.98	5.439
288.35	3.813
288.72	4.378
289.08	3.472
289.45	5.624
289.82	4.895
290.19	2.901
290.56	3.087
290.93	4.377
291.29	4.006
291.66	5.039
292.03	2.552
292.40	3.387
292.77	3.349
293.13	2.110
293.50	2.276
293.87	5.038
294.24	3.709
294.60	4.769
294.97	5.060
295.34	4.448
295.71	4.620
296.08	5.381
296.44	1.707
296.81	4.306
297.18	3.768
297.55	4.607
297.91	4.795
298.28	8.179
298.65	4.749
299.02	3.100
299.38	2.326
299.75	3.724
300.12	3.665
300.48	2.503
300.85	5.450
301.22	3.506
301.59	2.368
301.95	3.038
302.32	4.021
302.69	4.851
303.05	4.579
303.42	3.362
303.79	3.154
304.15	4.659
304.52	3.092
304.89	1.988
305.25	3.148
305.62	3.501
305.99	2.339
306.35	1.618
306.72	2.925
307.09	3.649
307.45	3.904
307.82	2.662
308.19	4.065
308.55	2.617
308.92	4.248
309.29	2.905
309.65	3.337
310.02	3.630
310.38	3.622
310.75	4.262
311.12	4.521
311.48	3.075
311.85	4.084
312.22	2.954
312.58	2.654
312.95	2.882
313.31	2.277
313.68	3.874
314.05	2.551
314.41	3.299
314.78	3.093
315.14	3.494
315.51	4.555
315.87	3.893
316.24	5.561
316.61	6.004
316.97	3.671
317.34	3.906
317.70	4.015
318.07	4.231
318.43	4.706
318.80	3.598
319.16	3.711
319.53	4.653
319.89	5.413
320.26	4.858
320.62	6.118
320.99	3.445
321.35	4.419
321.72	5.296
322.08	5.136
322.45	5.888
322.81	4.813
323.18	5.496
323.54	4.923
323.91	5.842
324.27	6.348
324.64	6.461
325.00	6.661
325.37	7.713
325.73	4.805
326.10	6.994
326.46	7.713
326.83	7.087
327.19	6.277
327.56	7.124
327.92	7.218
328.29	7.500
328.65	6.887
329.01	8.456
329.38	7.373
329.74	6.232
330.11	9.082
330.47	7.328
330.84	7.596
331.20	8.270
331.56	8.611
331.93	8.858
332.29	8.524
332.66	7.602
333.02	9.015
333.38	9.166
333.75	9.341
334.11	8.774
334.48	8.704
334.84	9.432
335.20	8.417
335.57	8.976
335.93	9.666
336.29	8.195
336.66	8.265
337.02	7.621
337.38	8.519
337.75	9.182
338.11	10.099
338.47	9.215
338.84	9.242
339.20	9.232
339.56	9.633
339.93	9.400
340.29	9.725
340.65	10.305
341.02	10.018
341.38	9.823
341.74	8.569
342.11	7.972
342.47	8.986
342.83	10.640
343.20	9.843
343.56	9.478
343.92	9.212
344.28	9.991
344.65	9.240
345.01	9.162
345.37	10.008
345.73	9.874
346.10	9.664
346.46	9.504
346.82	8.920
347.19	8.728
347.55	10.526
347.91	10.194
348.27	9.054
348.63	9.625
349.00	9.106
349.36	8.728
349.72	10.282
350.08	9.672
350.45	9.338
350.81	9.053
351.17	9.853
351.53	9.388
351.89	8.175
352.26	9.040
352.62	9.677
352.98	9.799
353.34	9.340
353.70	10.275
354.07	9.919
354.43	9.287
354.79	8.836
355.15	10.476
355.51	10.285
355.87	9.223
356.24	9.462
356.60	10.105
356.96	10.794
357.32	10.144
357.68	10.321
358.04	9.532
358.40	10.611
358.77	10.686
359.13	9.928
359.49	10.092
359.85	10.296
360.21	9.888
360.57	10.329
360.93	10.514
361.29	10.498
361.66	9.953
362.02	10.227
362.38	10.282
362.74	10.144
363.10	10.609
363.46	10.007
363.82	12.171
364.18	10.627
364.54	10.000
364.90	9.821
365.26	10.844
365.62	11.752
365.98	11.437
366.35	11.435
366.71	11.013
367.07	11.466
367.43	10.424
367.79	11.095
368.15	10.983
368.51	11.143
368.87	10.768
369.23	11.264
369.59	10.714
369.95	11.584
370.31	11.705
370.67	11.791
371.03	10.605
371.39	10.868
371.75	11.429
372.11	12.126
372.47	12.352
372.83	11.710
373.19	12.482
373.55	12.347
373.91	12.023
374.27	12.332
374.63	12.276
374.99	11.702
375.35	12.604
375.71	13.287
376.07	12.851
376.42	12.449
376.78	13.490
377.14	12.729
377.50	12.683
377.86	12.651
378.22	13.338
378.58	12.821
378.94	12.917
379.30	13.600
379.66	13.981
380.02	12.998
380.38	13.634
380.74	13.046
381.09	14.233
381.45	13.823
381.81	13.695
382.17	14.023
382.53	14.054
382.89	14.313
383.25	14.499
383.61	14.878
383.97	15.048
384.32	14.759
384.68	14.799
385.04	14.522
385.40	14.624
385.76	15.849
386.12	15.847
386.48	15.453
386.83	16.170
387.19	16.117
387.55	16.311
387.91	15.342
388.27	15.140
388.62	16.551
388.98	16.268
389.34	16.115
389.70	17.340
390.06	15.041
390.42	15.933
390.77	16.220
391.13	15.700
391.49	16.171
391.85	16.244
392.20	16.635
392.56	16.211
392.92	17.381
393.28	16.863
393.64	17.417
393.99	17.743
394.35	17.457
394.71	17.050
395.07	17.410
395.42	17.122
395.78	17.524
396.14	18.852
396.50	18.199
396.85	17.772
397.21	17.857
397.57	18.182
397.92	18.035
398.28	18.046
398.64	18.554
399.00	19.018
399.35	18.172
399.71	18.553
400.07	19.045
400.42	17.931
400.78	18.983
401.14	18.693
401.49	18.642
401.85	18.769
402.21	19.036
402.57	18.438
402.92	18.507
403.28	20.050
403.63	19.231
403.99	19.643
404.35	19.863
404.70	18.214
405.06	19.389
405.42	19.142
405.77	19.349
406.13	18.335
406.49	18.413
406.84	19.377
407.20	20.530
407.55	18.802
407.91	19.051
408.27	19.057
408.62	20.677
408.98	20.086
409.34	19.145
409.69	20.220
410.05	18.966
410.40	20.741
410.76	20.024
411.11	19.875
411.47	20.973
411.83	19.460
412.18	20.463
412.54	19.850
412.89	20.012
413.25	20.096
413.60	20.000
413.96	20.613
414.31	20.244
414.67	20.141
415.03	19.507
415.38	20.757
415.74	21.173
416.09	21.424
416.45	21.472
416.80	20.886
417.16	21.685
417.51	21.586
417.87	21.056
418.22	21.438
418.58	20.669
418.93	21.630
419.29	19.654
419.64	20.415
420.00	22.355
420.35	20.955
420.71	21.081
421.06	21.056
421.42	22.416
421.77	21.908
422.12	21.396
422.48	21.278
422.83	22.390
423.19	22.065
423.54	22.163
423.90	21.555
424.25	22.847
424.61	22.766
424.96	22.242
425.31	22.588
425.67	22.535
426.02	22.379
426.38	23.043
426.73	22.639
427.09	23.797
427.44	22.706
427.79	23.335
428.15	23.604
428.50	22.229
428.85	23.157
429.21	23.033
429.56	24.151
429.92	23.164
430.27	23.609
430.62	23.471
430.98	23.885
431.33	23.081
431.68	23.653
432.04	23.644
432.39	23.274
432.74	23.031
433.10	24.253
433.45	24.134
433.80	24.956
434.16	23.657
434.51	24.140
434.86	24.274
435.22	25.294
435.57	24.080
435.92	24.072
436.28	24.270
436.63	24.929
436.98	24.508
437.34	24.864
437.69	25.581
438.04	25.698
438.39	25.535
438.75	25.076
439.10	25.806
439.45	25.320
439.81	25.443
440.16	25.772
440.51	25.433
440.86	25.136
441.22	24.774
441.57	25.993
441.92	26.600
442.27	25.998
442.63	26.552
442.98	25.962
443.33	25.042
443.68	25.729
444.03	26.279
444.39	25.922
444.74	26.700
445.09	26.392
445.44	26.439
445.79	27.127
446.15	26.487
446.50	26.068
446.85	26.780
447.20	25.860
447.55	26.842
447.91	26.227
448.26	26.693
448.61	27.116
448.96	27.424
449.31	27.110
449.66	26.829
450.02	26.070
450.37	26.734
450.72	26.460
451.07	27.722
451.42	26.030
451.77	27.306
452.12	25.897
452.47	26.529
452.83	26.973
453.18	27.198
453.53	27.181
453.88	27.505
454.23	26.122
454.58	27.456
454.93	28.093
455.28	26.921
455.63	28.146
455.98	28.503
456.34	26.948
456.69	27.700
457.04	28.103
457.39	27.764
457.74	26.723
458.09	26.486
458.44	26.273
458.79	26.891
459.14	28.032
459.49	28.597
459.84	28.144
460.19	27.913
460.54	28.606
460.89	27.386
461.24	27.578
461.59	27.910
461.94	27.233
462.29	26.297
462.64	28.970
462.99	28.436
463.34	27.608
463.69	27.349
464.04	28.632
464.39	26.258
464.74	27.117
465.09	28.883
465.44	28.102
465.79	27.778
466.14	28.107
466.49	27.372
466.84	27.365
467.19	27.660
467.54	27.522
467.89	27.922
468.24	28.224
468.59	28.254
468.94	28.190
469.29	29.443
469.64	27.956
469.99	28.451
470.34	27.782
470.68	28.561
471.03	29.866
471.38	28.174
471.73	28.852
472.08	28.833
472.43	28.389
472.78	27.553
473.13	28.707
473.48	28.599
473.83	28.269
474.17	28.497
474.52	27.951
474.87	28.364
475.22	28.371
475.57	28.346
475.92	30.005
476.27	29.278
476.61	28.993
476.96	27.775
477.31	28.989
477.66	27.978
478.01	28.636
478.36	28.649
478.70	28.276
479.05	30.000
479.40	28.458
479.75	28.676
480.10	28.520
480.45	29.050
480.79	29.557
481.14	29.355
481.49	28.227
481.84	28.813
482.19	28.204
482.53	28.441
482.88	28.544
483.23	28.551
483.58	27.830
483.92	28.461
484.27	28.213
484.62	27.970
484.97	27.695
485.31	28.215
485.66	27.405
486.01	27.421
486.36	26.940
486.70	27.333
487.05	26.915
487.40	27.353
487.75	27.718
488.09	26.916
488.44	27.545
488.79	27.867
489.13	28.606
489.48	28.388
489.83	28.206
490.17	28.494
490.52	28.730
490.87	28.043
491.22	29.226
491.56	28.748
491.91	28.298
492.26	29.071
492.60	29.367
492.95	29.808
493.30	27.162
493.64	29.470
493.99	28.744
494.34	28.301
494.68	29.048
495.03	28.078
495.37	28.803
495.72	28.925
496.07	29.854
496.41	28.726
496.76	28.881
497.11	28.225
497.45	29.499
497.80	30.071
498.14	29.011
498.49	28.898
498.84	28.842
499.18	29.920
499.53	29.266
499.87	29.426
500.22	30.069
500.56	29.551
500.91	29.568
501.26	28.571
501.60	29.415
501.95	29.840
502.29	29.007
502.64	29.730
502.98	29.946
503.33	28.626
503.67	29.301
504.02	29.472
504.36	29.985
504.71	28.535
505.06	28.787
505.40	29.188
505.75	29.485
506.09	28.789
506.44	30.236
506.78	29.898
507.13	29.059
507.47	28.616
507.82	29.380
508.16	30.111
508.51	30.010
508.85	30.926
509.19	29.537
509.54	30.938
509.88	29.989
510.23	30.662
510.57	30.465
510.92	29.211
511.26	30.769
511.61	31.188
511.95	30.630
512.30	30.543
512.64	30.217
512.98	31.162
513.33	31.281
513.67	31.609
514.02	32.265
514.36	31.600
514.70	32.984
515.05	32.726
515.39	30.815
515.74	31.796
516.08	31.859
516.42	32.568
516.77	31.539
517.11	32.047
517.46	31.538
517.80	32.062
518.14	32.578
518.49	32.332
518.83	33.111
519.17	31.413
519.52	31.557
519.86	31.513
520.20	32.078
520.55	31.144
520.89	33.563
521.23	32.236
521.58	33.375
521.92	32.564
522.26	32.596
522.61	32.922
522.95	33.709
523.29	32.910
523.64	33.291
523.98	32.858
524.32	32.410
524.66	33.867
525.01	33.701
525.35	33.312
525.69	33.199
526.04	32.540
526.38	34.436
526.72	31.720
527.06	32.750
527.41	33.773
527.75	32.373
528.09	32.226
528.43	34.369
528.78	33.069
529.12	33.871
529.46	32.814
529.80	33.376
530.15	34.323
530.49	33.468
530.83	34.200
531.17	32.236
531.51	33.721
531.86	31.679
532.20	32.707
532.54	33.560
532.88	34.018
533.22	34.073
533.57	34.404
533.91	33.225
534.25	34.570
534.59	32.264
534.93	32.159
535.27	32.614
535.62	33.377
535.96	33.725
536.30	33.311
536.64	34.045
536.98	32.822
537.32	34.495
537.66	34.432
538.01	34.895
538.35	33.842
538.69	33.688
539.03	33.151
539.37	34.657
539.71	33.129
540.05	33.809
540.39	34.280
540.73	33.821
541.07	34.669
541.42	34.812
541.76	34.618
542.10	33.448
542.44	34.607
542.78	32.553
543.12	32.143
543.46	34.910
543.80	33.033
544.14	32.043
544.48	33.578
544.82	33.288
545.16	33.880
545.50	33.511
545.84	35.411
546.18	34.894
546.52	34.463
546.86	34.867
547.20	34.263
547.54	33.286
547.88	34.647
548.22	33.136
548.56	34.631
548.90	34.434
549.24	33.815
549.58	34.274
549.92	33.738
550.26	33.626
550.60	35.539
550.94	35.773
551.28	34.853
551.62	35.769
551.96	34.962
552.30	34.137
552.64	35.261
552.98	34.107
553.32	34.023
553.66	33.817
554.00	35.766
554.34	35.081
554.68	34.145
555.02	34.747
555.36	34.779
555.69	34.212
556.03	34.047
556.37	34.093
556.71	35.018
557.05	35.720
557.39	34.498
557.73	35.232
558.07	36.350
558.41	35.605
558.75	35.308
559.08	35.303
559.42	35.952
559.76	36.349
560.10	35.321
560.44	34.103
560.78	35.245
561.12	34.556
561.45	34.996
561.79	35.364
562.13	35.273
562.47	34.964
562.81	36.527
563.15	34.908
563.48	34.866
563.82	35.072
564.16	36.072
564.50	34.392
564.84	34.404
565.17	34.339
565.51	35.383
565.85	35.048
566.19	34.947
566.52	35.858
566.86	35.219
567.20	33.748
567.54	34.428
567.88	35.149
568.21	34.955
568.55	33.804
568.89	34.189
569.23	34.088
569.56	33.231
569.90	32.562
570.24	33.160
570.57	33.091
570.91	32.590
571.25	32.456
571.59	31.454
571.92	31.585
572.26	31.371
572.60	32.000
572.93	31.974
573.27	31.975
573.61	31.384
573.95	32.141
574.28	31.276
574.62	31.121
574.96	30.616
575.29	30.994
575.63	30.060
575.97	30.767
576.30	30.700
576.64	30.861
576.98	32.381
577.31	31.556
577.65	31.353
577.98	31.805
578.32	31.032
578.66	30.819
578.99	31.048
579.33	30.777
579.67	31.088
580.00	31.418
580.34	31.542
580.67	31.330
581.01	31.316
581.35	30.922
581.68	31.136
582.02	31.070
582.35	30.548
582.69	31.301
583.02	30.998
583.36	31.299
583.70	32.269
584.03	32.277
584.37	32.665
584.70	32.170
585.04	31.425
585.37	31.769
585.71	31.350
586.04	31.770
586.38	31.795
586.72	32.941
587.05	32.525
587.39	32.625
587.72	33.461
588.06	32.715
588.39	32.469
588.73	32.845
589.06	32.942
589.40	33.667
589.73	33.735
590.07	34.177
590.40	34.056
590.73	34.761
591.07	34.733
591.40	34.105
591.74	34.796
592.07	34.276
592.41	34.408
592.74	33.971
593.08	33.007
593.41	33.641
593.75	33.399
594.08	32.647
594.41	33.115
594.75	33.702
595.08	33.220
595.42	34.008
595.75	34.735
596.09	34.636
596.42	34.560
596.75	34.192
597.09	34.533
597.42	35.095
597.75	34.540
598.09	34.269
598.42	34.612
598.76	34.406
599.09	33.814
599.42	33.687
599.76	33.710
600.09	33.446
600.42	33.927
600.76	33.135
601.09	33.664
601.42	33.999
601.76	33.545
602.09	34.571
602.42	35.762
602.76	34.720
603.09	34.925
603.42	35.744
603.76	33.831
604.09	33.617
604.42	34.602
604.76	35.470
605.09	34.872
605.42	34.808
605.75	34.676
606.09	34.140
606.42	34.529
606.75	35.238
607.09	34.637
607.42	34.116
607.75	34.103
608.08	34.771
608.42	34.171
608.75	36.048
609.08	35.874
609.41	35.939
609.75	35.685
610.08	35.597
610.41	35.652
610.74	35.202
611.07	35.866
611.41	36.741
611.74	36.620
612.07	35.332
612.40	36.324
612.73	36.271
613.07	35.602
613.40	36.160
613.73	35.870
614.06	35.559
614.39	36.153
614.72	36.134
615.06	35.698
615.39	35.371
615.72	36.114
616.05	36.145
616.38	34.929
616.71	36.758
617.05	36.442
617.38	35.701
617.71	36.415
618.04	37.333
618.37	38.209
618.70	37.690
619.03	38.542
619.36	36.686
619.69	38.969
620.03	37.619
620.36	37.482
620.69	38.258
621.02	38.303
621.35	39.004
621.68	39.796
622.01	37.833
622.34	39.425
622.67	38.249
623.00	37.672
623.33	38.034
623.66	38.743
623.99	38.124
624.32	38.403
624.65	36.466
624.99	37.998
625.32	38.817
625.65	39.120
625.98	39.645
626.31	38.736
626.64	40.121
626.97	39.965
627.30	40.105
627.63	38.908
627.96	39.533
628.29	40.611
628.62	42.281
628.95	39.379
629.28	41.331
629.61	40.678
629.94	40.958
630.26	41.107
630.59	43.288
630.92	39.795
631.25	40.513
631.58	42.291
631.91	40.680
632.24	39.335
632.57	42.727
632.90	42.467
633.23	42.353
633.56	43.199
633.89	42.540
634.22	43.333
634.55	43.583
634.88	41.762
635.20	43.462
635.53	44.133
635.86	42.653
636.19	43.467
636.52	42.985
636.85	42.680
637.18	40.252
637.51	41.258
637.83	41.524
638.16	44.065
638.49	42.234
638.82	42.632
639.15	43.826
639.48	44.567
639.81	42.538
640.13	44.589
