SpectraSuite Data File
++++++++++++++++++++++++++++++++++++
Date: Fri May 15 17:33:11 PDT 2015
User: schluterlab
Dark Spectrum Present: Yes
Reference Spectrum Present: Yes
Number of Sampled Component Spectra: 1
Spectrometers: USB2E3373
Integration Time (usec): 3000 (USB2E3373)
Spectra Averaged: 3 (USB2E3373)
Boxcar Smoothing: 0 (USB2E3373)
Correct for Electrical Dark: No (USB2E3373)
Strobe/Lamp Enabled: No (USB2E3373)
Correct for Detector Non-linearity: No (USB2E3373)
Correct for Stray Light: No (USB2E3373)
Number of Pixels in Processed Spectrum: 2048
>>>>>Begin Processed Spectral Data<<<<<
178.53	0.000
178.91	0.000
179.29	50.000
179.67	-550.000
180.04	-85.714
180.42	200.000
180.80	-500.000
181.18	-166.667
181.56	250.000
181.94	100.000
182.31	-400.000
182.69	40.000
183.07	166.667
183.45	80.000
183.83	-83.333
184.20	81.818
184.58	55.556
184.96	-25.000
185.34	-66.667
185.72	-50.000
186.09	84.615
186.47	-100.000
186.85	166.667
187.23	122.222
187.61	-200.000
187.98	166.667
188.36	0.000
188.74	-166.667
189.12	0.000
189.49	55.556
189.87	0.000
190.25	42.857
190.63	600.000
191.00	0.000
191.38	10.526
191.76	-250.000
192.14	225.000
192.51	-300.000
192.89	33.333
193.27	-71.429
193.65	83.333
194.02	136.364
194.40	100.000
194.78	87.500
195.15	58.333
195.53	-37.500
195.91	275.000
196.29	-50.000
196.66	84.615
197.04	71.429
197.42	33.333
197.79	-300.000
198.17	-23.077
198.55	-300.000
198.92	-100.000
199.30	400.000
199.68	0.000
200.05	233.333
200.43	0.000
200.81	-133.333
201.18	-133.333
201.56	200.000
201.94	-250.000
202.31	-166.667
202.69	-100.000
203.07	-0.000
203.44	900.000
203.82	0.000
204.19	21.429
204.57	-566.667
204.95	-0.000
205.32	10.000
205.70	71.429
206.08	200.000
206.45	166.667
206.83	28.571
207.20	42.857
207.58	400.000
207.96	-200.000
208.33	-40.000
208.71	50.000
209.08	-16.667
209.46	100.000
209.84	0.000
210.21	-1400.000
210.59	-28.571
210.96	150.000
211.34	0.000
211.71	106.667
212.09	14.286
212.46	-400.000
212.84	0.000
213.22	100.000
213.59	600.000
213.97	115.385
214.34	127.273
214.72	-33.333
215.09	275.000
215.47	15.385
215.84	100.000
216.22	0.000
216.59	0.000
216.97	100.000
217.34	-250.000
217.72	180.000
218.09	50.000
218.47	87.500
218.84	1300.000
219.22	0.000
219.59	0.000
219.97	233.333
220.34	100.000
220.72	28.571
221.09	0.000
221.47	250.000
221.84	50.000
222.22	-550.000
222.59	-9.091
222.97	108.333
223.34	66.667
223.72	-21.429
224.09	0.000
224.46	50.000
224.84	333.333
225.21	30.000
225.59	66.667
225.96	100.000
226.34	200.000
226.71	-128.571
227.08	250.000
227.46	0.000
227.83	-200.000
228.21	166.667
228.58	-27.273
228.95	75.000
229.33	110.000
229.70	12.500
230.08	-12.500
230.45	-42.857
230.82	128.571
231.20	46.667
231.57	71.429
231.95	28.571
232.32	-70.000
232.69	-42.857
233.07	-133.333
233.44	-180.000
233.81	-20.000
234.19	22.222
234.56	17.647
234.93	50.000
235.31	50.000
235.68	-100.000
236.05	-53.846
236.43	-5.000
236.80	17.647
237.17	15.625
237.55	5.000
237.92	7.407
238.29	19.444
238.67	30.000
239.04	5.882
239.41	-24.390
239.79	-10.000
240.16	14.634
240.53	-21.053
240.91	-10.870
241.28	12.698
241.65	19.643
242.02	24.658
242.40	5.000
242.77	-5.085
243.14	-7.576
243.51	2.500
243.89	27.586
244.26	0.000
244.63	8.333
245.00	-4.124
245.38	13.402
245.75	2.247
246.12	0.862
246.49	5.785
246.87	14.423
247.24	-1.681
247.61	1.754
247.98	6.504
248.36	13.125
248.73	9.868
249.10	4.545
249.47	8.861
249.84	1.961
250.22	8.824
250.59	9.150
250.96	13.146
251.33	2.907
251.70	11.176
252.08	8.122
252.45	13.861
252.82	4.020
253.19	6.912
253.56	2.336
253.94	10.360
254.31	9.565
254.68	10.965
255.05	3.937
255.42	10.044
255.79	8.108
256.16	9.339
256.54	7.463
256.91	9.506
257.28	4.089
257.65	6.367
258.02	3.546
258.39	7.744
258.76	7.326
259.14	6.977
259.51	7.767
259.88	6.529
260.25	6.863
260.62	9.722
260.99	2.034
261.36	3.767
261.73	8.228
262.10	8.207
262.47	4.908
262.85	5.956
263.22	6.154
263.59	7.477
263.96	9.317
264.33	9.394
264.70	7.738
265.07	6.845
265.44	9.915
265.81	9.040
266.18	7.923
266.55	10.026
266.92	8.549
267.29	6.789
267.66	8.184
268.03	6.283
268.40	8.355
268.77	10.428
269.14	8.393
269.51	7.969
269.88	5.985
270.25	5.612
270.62	4.634
270.99	7.417
271.36	8.557
271.73	4.695
272.10	6.569
272.47	8.274
272.84	8.168
273.21	10.441
273.58	7.229
273.95	6.407
274.32	6.697
274.69	4.299
275.06	8.705
275.43	3.855
275.80	7.947
276.17	3.908
276.54	8.779
276.91	7.895
277.28	7.642
277.65	9.504
278.02	7.021
278.39	6.783
278.76	7.128
279.13	3.112
279.50	6.933
279.87	6.048
280.23	4.516
280.60	8.382
280.97	7.677
281.34	7.692
281.71	7.392
282.08	8.998
282.45	5.675
282.82	6.564
283.19	6.770
283.56	7.322
283.92	4.744
284.29	5.192
284.66	6.202
285.03	7.662
285.40	6.049
285.77	4.394
286.14	6.498
286.51	8.303
286.87	6.399
287.24	6.814
287.61	5.644
287.98	6.316
288.35	5.199
288.72	7.356
289.08	6.424
289.45	6.151
289.82	6.119
290.19	5.973
290.56	6.175
290.93	6.061
291.29	5.547
291.66	9.449
292.03	5.263
292.40	4.677
292.77	6.380
293.13	4.708
293.50	3.187
293.87	6.260
294.24	4.637
294.60	4.918
294.97	5.952
295.34	5.982
295.71	5.663
296.08	4.933
296.44	3.272
296.81	5.694
297.18	6.232
297.55	6.233
297.91	6.301
298.28	6.332
298.65	4.613
299.02	4.717
299.38	5.062
299.75	5.931
300.12	5.236
300.48	5.270
300.85	5.450
301.22	4.805
301.59	4.079
301.95	6.582
302.32	5.318
302.69	6.343
303.05	5.941
303.42	4.732
303.79	4.907
304.15	5.974
304.52	3.567
304.89	6.082
305.25	5.690
305.62	3.617
305.99	4.678
306.35	3.584
306.72	4.274
307.09	5.131
307.45	5.855
307.82	5.440
308.19	5.575
308.55	3.599
308.92	6.100
309.29	3.799
309.65	5.167
310.02	4.290
310.38	4.281
310.75	5.683
311.12	5.167
311.48	5.726
311.85	4.712
312.22	3.270
312.58	4.989
312.95	3.842
313.31	4.348
313.68	3.770
314.05	4.184
314.41	5.361
314.78	5.052
315.14	6.166
315.51	5.383
315.87	5.020
316.24	6.572
316.61	5.709
316.97	5.060
317.34	3.613
317.70	4.302
318.07	4.712
318.43	5.294
318.80	4.924
319.16	4.980
319.53	6.553
319.89	5.906
320.26	5.061
320.62	5.015
320.99	4.802
321.35	5.139
321.72	6.438
322.08	5.539
322.45	5.990
322.81	6.385
323.18	5.103
323.54	5.888
323.91	5.940
324.27	6.055
324.64	5.993
325.00	6.843
325.37	7.346
325.73	4.805
326.10	6.267
326.46	7.534
326.83	7.349
327.19	7.236
327.56	7.124
327.92	7.394
328.29	7.857
328.65	6.604
329.01	7.996
329.38	7.189
329.74	7.177
330.11	8.990
330.47	6.215
330.84	7.981
331.20	9.125
331.56	8.333
331.93	9.498
332.29	9.441
332.66	9.321
333.02	8.550
333.38	9.258
333.75	9.615
334.11	8.863
334.48	9.973
334.84	10.806
335.20	9.607
335.57	9.066
335.93	11.563
336.29	10.405
336.66	8.810
337.02	8.736
337.38	10.185
337.75	10.455
338.11	10.460
338.47	10.949
338.84	10.074
339.20	10.238
339.56	10.734
339.93	12.444
340.29	10.734
340.65	11.828
341.02	11.170
341.38	10.885
341.74	10.512
342.11	10.832
342.47	11.299
342.83	11.159
343.20	10.976
343.56	11.826
343.92	10.452
344.28	12.212
344.65	11.313
345.01	9.853
345.37	12.111
345.73	11.715
346.10	12.338
346.46	11.270
346.82	12.357
347.19	11.471
347.55	12.364
347.91	13.107
348.27	10.590
348.63	11.414
349.00	11.731
349.36	11.471
349.72	12.023
350.08	12.623
350.45	12.131
350.81	12.209
351.17	12.459
351.53	12.408
351.89	12.386
352.26	12.640
352.62	12.419
352.98	11.968
353.34	12.399
353.70	13.350
354.07	11.694
354.43	12.170
354.79	12.469
355.15	12.857
355.51	12.737
355.87	12.945
356.24	12.724
356.60	12.288
356.96	13.968
357.32	13.019
357.68	12.353
358.04	12.036
358.40	12.058
358.77	13.158
359.13	12.650
359.49	12.404
359.85	13.885
360.21	12.600
360.57	13.389
360.93	12.632
361.29	12.462
361.66	13.793
362.02	12.879
362.38	13.404
362.74	13.475
363.10	13.619
363.46	13.640
363.82	14.425
364.18	13.875
364.54	13.897
364.90	13.692
365.26	13.173
365.62	14.745
365.98	13.636
366.35	13.911
366.71	14.117
367.07	13.788
367.43	13.947
367.79	14.064
368.15	14.286
368.51	14.494
368.87	13.065
369.23	13.718
369.59	14.504
369.95	15.103
370.31	14.451
370.67	15.224
371.03	15.310
371.39	14.004
371.75	15.092
372.11	14.693
372.47	14.497
372.83	15.401
373.19	15.335
373.55	15.451
373.91	15.119
374.27	14.812
374.63	15.147
374.99	14.823
375.35	15.460
375.71	15.105
376.07	14.677
376.42	16.190
376.78	15.503
377.14	15.572
377.50	15.471
377.86	15.997
378.22	15.826
378.58	16.538
378.94	15.249
379.30	15.845
379.66	17.179
380.02	16.677
380.38	15.946
380.74	16.278
381.09	16.994
381.45	16.453
381.81	16.348
382.17	16.561
382.53	16.864
382.89	17.451
383.25	17.237
383.61	17.378
383.97	16.825
384.32	16.948
384.68	17.090
385.04	16.912
385.40	16.117
385.76	17.799
386.12	17.982
386.48	18.008
386.83	17.755
387.19	18.193
387.55	18.256
387.91	18.276
388.27	17.277
388.62	18.691
388.98	17.557
389.34	17.739
389.70	18.645
390.06	18.502
390.42	18.653
390.77	17.724
391.13	17.213
391.49	18.370
391.85	18.973
392.20	18.832
392.56	18.182
392.92	18.555
393.28	18.160
393.64	18.138
393.99	19.561
394.35	17.963
394.71	18.263
395.07	18.919
395.42	18.154
395.78	18.176
396.14	18.789
396.50	18.580
396.85	19.189
397.21	18.860
397.57	18.119
397.92	19.173
398.28	17.586
398.64	18.313
399.00	18.623
399.35	18.059
399.71	18.725
400.07	19.045
400.42	19.094
400.78	19.535
401.14	18.814
401.49	18.821
401.85	18.647
402.21	18.554
402.57	18.500
402.92	19.322
403.28	19.424
403.63	18.916
403.99	17.985
404.35	18.801
404.70	17.917
405.06	18.214
405.42	18.769
405.77	17.316
406.13	18.161
406.49	17.525
406.84	18.337
407.20	18.784
407.55	17.579
407.91	18.382
408.27	18.356
408.62	18.646
408.98	17.745
409.34	17.782
409.69	18.023
410.05	17.611
410.40	18.395
410.76	18.396
411.11	18.812
411.47	18.672
411.83	17.954
412.18	17.761
412.54	18.664
412.89	17.303
413.25	17.629
413.60	18.075
413.96	17.975
414.31	19.390
414.67	18.217
415.03	17.776
415.38	18.016
415.74	18.697
416.09	18.223
416.45	18.974
416.80	18.440
417.16	19.406
417.51	17.988
417.87	18.774
418.22	18.005
418.58	17.860
418.93	19.561
419.29	19.014
419.64	18.989
420.00	19.962
420.35	18.746
420.71	20.595
421.06	19.214
421.42	20.313
421.77	19.653
422.12	19.750
422.48	19.545
422.83	20.940
423.19	19.639
423.54	19.988
423.90	20.024
424.25	20.207
424.61	20.991
424.96	20.906
425.31	20.971
425.67	20.540
426.02	21.201
426.38	22.981
426.73	21.671
427.09	21.582
427.44	21.176
427.79	22.157
428.15	21.845
428.50	21.260
428.85	21.192
429.21	21.392
429.56	22.318
429.92	22.188
430.27	21.955
430.62	22.321
430.98	22.081
431.33	22.240
431.68	23.182
432.04	23.644
432.39	22.533
432.74	23.211
433.10	24.023
433.45	22.999
433.80	23.447
434.16	22.438
434.51	23.226
434.86	23.577
435.22	24.061
435.57	23.518
435.92	25.030
436.28	24.210
436.63	24.472
436.98	23.928
437.34	23.896
437.69	24.925
438.04	25.071
438.39	23.824
438.75	24.469
439.10	24.618
439.45	24.954
439.81	24.648
440.16	25.772
440.51	25.910
440.86	26.405
441.22	25.000
441.57	25.055
441.92	26.495
442.27	26.386
442.63	26.606
442.98	25.675
443.33	26.377
443.68	25.942
444.03	26.279
444.39	26.857
444.74	27.592
445.09	26.503
445.44	26.553
445.79	26.663
446.15	26.982
446.50	27.121
446.85	27.099
447.20	26.121
447.55	27.344
447.91	27.186
448.26	27.547
448.61	27.922
448.96	27.481
449.31	27.110
449.66	27.933
450.02	27.496
450.37	27.919
450.72	28.293
451.07	28.228
451.42	27.965
451.77	27.547
452.12	27.871
452.47	27.173
452.83	27.385
453.18	28.020
453.53	27.560
453.88	27.990
454.23	27.781
454.58	28.463
454.93	29.381
455.28	26.540
455.63	28.022
455.98	28.563
456.34	28.352
456.69	28.780
457.04	29.490
457.39	28.433
457.74	28.779
458.09	27.428
458.44	27.736
458.79	27.451
459.14	28.318
459.49	28.716
459.84	29.724
460.19	29.248
460.54	28.484
460.89	29.091
461.24	29.565
461.59	29.810
461.94	28.868
462.29	30.217
462.64	29.834
462.99	29.113
463.34	28.512
463.69	28.121
464.04	30.266
464.39	28.866
464.74	29.571
465.09	29.133
465.44	29.717
465.79	28.912
466.14	29.818
466.49	28.005
466.84	30.161
467.19	29.850
467.54	29.310
467.89	29.501
468.24	29.319
468.59	29.841
468.94	29.079
469.29	30.361
469.64	28.776
469.99	31.044
470.34	29.829
470.68	30.798
471.03	30.644
471.38	29.815
471.73	30.182
472.08	29.851
472.43	29.463
472.78	30.021
473.13	29.932
473.48	29.446
473.83	30.262
474.17	30.829
474.52	30.568
474.87	29.576
475.22	30.018
475.57	29.814
475.92	30.389
476.27	30.093
476.61	30.440
476.96	29.113
477.31	30.611
477.66	29.888
478.01	31.331
478.36	30.392
478.70	31.104
479.05	31.429
479.40	30.843
479.75	30.396
480.10	30.159
480.45	30.650
480.79	30.816
481.14	31.250
481.49	30.049
481.84	31.950
482.19	30.402
482.53	31.511
482.88	30.979
483.23	29.894
483.58	31.226
483.92	30.591
484.27	30.401
484.62	30.614
484.97	30.224
485.31	30.672
485.66	29.903
486.01	30.407
486.36	29.995
486.70	30.216
487.05	30.310
487.40	30.300
487.75	30.986
488.09	30.470
488.44	30.502
488.79	30.855
489.13	31.611
489.48	30.654
489.83	31.256
490.17	30.517
490.52	30.947
490.87	29.801
491.22	31.471
491.56	31.167
491.91	30.497
492.26	31.113
492.60	30.230
492.95	31.874
493.30	31.119
493.64	31.287
493.99	31.691
494.34	30.777
494.68	30.810
495.03	31.484
495.37	31.600
495.72	31.853
496.07	31.902
496.41	31.226
496.76	31.460
497.11	30.601
497.45	32.076
497.80	31.534
498.14	31.793
498.49	31.539
498.84	31.936
499.18	31.225
499.53	32.093
499.87	32.636
500.22	31.553
500.56	31.568
500.91	31.627
501.26	31.241
501.60	32.563
501.95	32.266
502.29	32.688
502.64	33.012
502.98	32.807
503.33	31.508
503.67	31.614
504.02	33.187
504.36	32.509
504.71	32.525
505.06	31.958
505.40	32.234
505.75	33.041
506.09	32.793
506.44	33.470
506.78	33.673
507.13	32.575
507.47	31.749
507.82	32.265
508.16	32.277
508.51	32.844
508.85	32.548
509.19	32.996
509.54	32.761
509.88	33.549
510.23	33.029
510.57	32.977
510.92	32.516
511.26	33.715
511.61	33.388
511.95	33.096
512.30	32.539
512.64	33.445
512.98	32.061
513.33	33.240
513.67	32.973
514.02	33.924
514.36	34.114
514.70	33.625
515.05	34.548
515.39	33.530
515.74	33.772
516.08	33.951
516.42	35.218
516.77	34.114
517.11	34.599
517.46	35.368
517.80	34.982
518.14	34.783
518.49	33.954
518.83	34.751
519.17	33.778
519.52	33.511
519.86	34.094
520.20	34.386
520.55	35.147
520.89	34.442
521.23	34.452
521.58	36.025
521.92	35.385
522.26	36.174
522.61	35.000
522.95	36.623
523.29	34.053
523.64	35.006
523.98	36.358
524.32	35.567
524.66	35.275
525.01	35.455
525.35	34.932
525.69	34.343
526.04	35.053
526.38	36.187
526.72	34.859
527.06	36.057
527.41	35.488
527.75	34.651
528.09	35.548
528.43	36.394
528.78	36.370
529.12	36.129
529.46	34.828
529.80	35.845
530.15	36.238
530.49	36.094
530.83	36.047
531.17	35.662
531.51	36.320
531.86	36.642
532.20	35.212
532.54	35.671
532.88	35.797
533.22	36.223
533.57	35.780
533.91	36.227
534.25	36.589
534.59	35.664
534.93	35.620
535.27	35.470
535.62	35.839
535.96	36.008
536.30	36.412
536.64	35.562
536.98	36.725
537.32	37.055
537.66	36.886
538.01	37.273
538.35	35.506
538.69	37.084
539.03	36.295
539.37	36.541
539.71	36.537
540.05	36.931
540.39	36.219
540.73	35.844
541.07	37.086
541.42	37.097
541.76	38.334
542.10	36.476
542.44	37.874
542.78	36.614
543.12	35.989
543.46	36.787
543.80	37.335
544.14	35.648
544.48	36.576
544.82	36.705
545.16	36.339
545.50	36.515
545.84	37.252
546.18	36.950
546.52	36.410
546.86	36.808
547.20	36.624
547.54	36.113
547.88	37.092
548.22	36.489
548.56	37.005
548.90	37.938
549.24	37.397
549.58	36.178
549.92	36.169
550.26	36.850
550.60	38.587
550.94	37.864
551.28	37.713
551.62	37.462
551.96	37.820
552.30	37.208
552.64	37.870
552.98	37.904
553.32	37.233
553.66	36.212
554.00	38.905
554.34	38.331
554.68	37.021
555.02	38.095
555.36	37.771
555.69	38.022
556.03	37.402
556.37	37.295
556.71	37.545
557.05	38.777
557.39	38.439
557.73	38.381
558.07	38.537
558.41	37.749
558.75	38.971
559.08	38.534
559.42	38.492
559.76	38.591
560.10	38.761
560.44	38.273
560.78	38.042
561.12	38.364
561.45	38.440
561.79	38.796
562.13	38.751
562.47	38.058
562.81	39.193
563.15	40.056
563.48	38.967
563.82	38.367
564.16	38.301
564.50	38.919
564.84	38.487
565.17	38.296
565.51	39.686
565.85	39.986
566.19	38.395
566.52	39.879
566.86	39.203
567.20	38.792
567.54	39.538
567.88	39.602
568.21	39.480
568.55	39.674
568.89	39.476
569.23	39.239
569.56	39.142
569.90	39.708
570.24	38.817
570.57	38.545
570.91	39.038
571.25	38.211
571.59	37.527
571.92	37.630
572.26	38.074
572.60	37.860
572.93	37.935
573.27	37.837
573.61	38.514
573.95	37.739
574.28	37.659
574.62	37.834
574.96	37.821
575.29	37.633
575.63	37.471
575.97	37.652
576.30	37.560
576.64	37.404
576.98	37.735
577.31	38.363
577.65	39.060
577.98	38.018
578.32	37.602
578.66	37.653
578.99	37.576
579.33	37.522
579.67	37.472
580.00	38.000
580.34	38.333
580.67	37.908
581.01	38.689
581.35	38.221
581.68	39.028
582.02	38.282
582.35	38.347
582.69	38.255
583.02	38.795
583.36	39.035
583.70	38.707
584.03	39.533
584.37	39.921
584.70	39.780
585.04	38.756
585.37	38.452
585.71	38.509
586.04	39.309
586.38	39.264
586.72	40.000
587.05	40.179
587.39	40.201
587.72	40.350
588.06	39.801
588.39	39.134
588.73	40.354
589.06	40.802
589.40	40.304
589.73	40.380
590.07	40.559
590.40	41.602
590.73	42.092
591.07	40.712
591.40	41.184
591.74	41.312
592.07	42.022
592.41	41.343
592.74	40.940
593.08	40.412
593.41	41.219
593.75	40.693
594.08	40.577
594.41	40.939
594.75	40.725
595.08	40.409
595.42	40.449
595.75	41.833
596.09	41.869
596.42	41.422
596.75	41.874
597.09	41.002
597.42	42.322
597.75	41.869
598.09	40.742
598.42	40.569
598.76	41.184
599.09	41.707
599.42	40.811
599.76	41.008
600.09	41.290
600.42	40.599
600.76	41.196
601.09	40.420
601.42	41.324
601.76	41.088
602.09	41.337
602.42	42.123
602.76	41.935
603.09	41.528
603.42	43.102
603.76	41.895
604.09	42.122
604.42	41.751
604.76	43.569
605.09	42.002
605.42	42.167
605.75	41.506
606.09	41.996
606.42	41.034
606.75	41.039
607.09	42.154
607.42	41.693
607.75	41.607
608.08	41.150
608.42	41.571
608.75	42.892
609.08	43.000
609.41	42.690
609.75	42.893
610.08	42.486
610.41	42.415
610.74	41.199
611.07	42.481
611.41	41.827
611.74	44.350
612.07	42.024
612.40	43.162
612.73	43.333
613.07	42.632
613.40	43.053
613.73	42.809
614.06	42.738
614.39	42.696
614.72	42.017
615.06	42.849
615.39	42.686
615.72	43.272
616.05	44.246
616.38	42.393
616.71	44.281
617.05	44.225
617.38	43.997
617.71	43.585
618.04	44.063
618.37	45.082
618.70	44.488
619.03	44.306
619.36	42.258
619.69	45.792
620.03	43.755
620.36	44.206
620.69	43.612
621.02	44.801
621.35	44.398
621.68	44.218
622.01	44.333
622.34	44.773
622.67	44.085
623.00	43.951
623.33	43.826
623.66	44.353
623.99	44.251
624.32	45.095
624.65	44.060
624.99	45.222
625.32	43.063
625.65	45.640
625.98	44.480
626.31	44.971
626.64	44.887
626.97	47.033
627.30	45.184
627.63	45.494
627.96	46.181
628.29	45.143
628.62	45.133
628.95	44.389
629.28	45.565
629.61	44.467
629.94	46.530
630.26	45.059
630.59	46.618
630.92	45.128
631.25	45.538
631.58	45.264
631.91	46.930
632.24	46.789
632.57	45.682
632.90	46.263
633.23	45.059
633.56	47.859
633.89	48.829
634.22	48.642
634.55	46.379
634.88	46.232
635.20	47.821
635.53	48.533
635.86	47.594
636.19	47.348
636.52	47.832
636.85	44.293
637.18	46.541
637.51	46.541
637.83	45.072
638.16	50.068
638.49	44.278
638.82	48.421
639.15	48.304
639.48	46.355
