SpectraSuite Data File
++++++++++++++++++++++++++++++++++++
Date: Fri May 15 17:20:34 PDT 2015
User: schluterlab
Dark Spectrum Present: Yes
Reference Spectrum Present: Yes
Number of Sampled Component Spectra: 1
Spectrometers: USB2E3373
Integration Time (usec): 3000 (USB2E3373)
Spectra Averaged: 3 (USB2E3373)
Boxcar Smoothing: 0 (USB2E3373)
Correct for Electrical Dark: No (USB2E3373)
Strobe/Lamp Enabled: No (USB2E3373)
Correct for Detector Non-linearity: No (USB2E3373)
Correct for Stray Light: No (USB2E3373)
Number of Pixels in Processed Spectrum: 2048
>>>>>Begin Processed Spectral Data<<<<<
178.53	0.000
178.91	0.000
179.29	150.000
179.67	-200.000
180.04	-85.714
180.42	275.000
180.80	-100.000
181.18	-66.667
181.56	650.000
181.94	300.000
182.31	-900.000
182.69	160.000
183.07	-166.667
183.45	-100.000
183.83	33.333
184.20	45.455
184.58	-33.333
184.96	-300.000
185.34	-433.333
185.72	-150.000
186.09	46.154
186.47	-1300.000
186.85	16.667
187.23	33.333
187.61	-800.000
187.98	-33.333
188.36	155.556
188.74	600.000
189.12	64.706
189.49	22.222
189.87	0.000
190.25	42.857
190.63	250.000
191.00	33.333
191.38	47.368
191.76	900.000
192.14	-275.000
192.51	200.000
192.89	77.778
193.27	-14.286
193.65	166.667
194.02	9.091
194.40	-20.000
194.78	-37.500
195.15	-25.000
195.53	12.500
195.91	-0.000
196.29	275.000
196.66	38.462
197.04	-57.143
197.42	-11.111
197.79	-333.333
198.17	-46.154
198.55	300.000
198.92	200.000
199.30	300.000
199.68	120.000
200.05	-100.000
200.43	0.000
200.81	200.000
201.18	33.333
201.56	300.000
201.94	200.000
202.31	-166.667
202.69	0.000
203.07	50.000
203.44	500.000
203.82	0.000
204.19	150.000
204.57	133.333
204.95	-50.000
205.32	60.000
205.70	157.143
206.08	-25.000
206.45	222.222
206.83	157.143
207.20	28.571
207.58	-300.000
207.96	-100.000
208.33	-30.000
208.71	75.000
209.08	-16.667
209.46	300.000
209.84	220.000
210.21	0.000
210.59	128.571
210.96	66.667
211.34	150.000
211.71	100.000
212.09	-28.571
212.46	-300.000
212.84	0.000
213.22	120.000
213.59	-250.000
213.97	76.923
214.34	90.909
214.72	-50.000
215.09	75.000
215.47	-46.154
215.84	45.455
216.22	-200.000
216.59	0.000
216.97	700.000
217.34	-25.000
217.72	80.000
218.09	87.500
218.47	62.500
218.84	-100.000
219.22	111.111
219.59	180.000
219.97	-33.333
220.34	-50.000
220.72	42.857
221.09	125.000
221.47	500.000
221.84	-250.000
222.22	-350.000
222.59	-18.182
222.97	50.000
223.34	100.000
223.72	100.000
224.09	23.810
224.46	14.286
224.84	333.333
225.21	180.000
225.59	113.333
225.96	150.000
226.34	175.000
226.71	42.857
227.08	-16.667
227.46	25.000
227.83	-350.000
228.21	77.778
228.58	45.455
228.95	-12.500
229.33	10.000
229.70	0.000
230.08	12.500
230.45	-14.286
230.82	157.143
231.20	73.333
231.57	50.000
231.95	57.143
232.32	-40.000
232.69	78.571
233.07	266.667
233.44	260.000
233.81	90.000
234.19	88.889
234.56	-5.882
234.93	400.000
235.31	-50.000
235.68	-220.000
236.05	7.692
236.43	0.000
236.80	29.412
237.17	28.125
237.55	-35.000
237.92	11.111
238.29	-2.778
238.67	26.667
239.04	0.000
239.41	-4.878
239.79	0.000
240.16	26.829
240.53	-15.789
240.91	-2.174
241.28	11.111
241.65	21.429
242.02	16.438
242.40	15.000
242.77	-3.390
243.14	7.576
243.51	10.000
243.89	11.494
244.26	3.448
244.63	13.095
245.00	4.124
245.38	8.247
245.75	-1.124
246.12	3.448
246.49	11.570
246.87	6.731
247.24	0.000
247.61	-2.632
247.98	-6.504
248.36	3.750
248.73	1.974
249.10	2.597
249.47	2.532
249.84	3.268
250.22	0.588
250.59	4.575
250.96	11.268
251.33	1.744
251.70	7.647
252.08	7.107
252.45	3.465
252.82	2.513
253.19	2.765
253.56	1.402
253.94	5.405
254.31	7.391
254.68	7.456
255.05	3.150
255.42	-2.183
255.79	4.633
256.16	5.837
256.54	6.343
256.91	1.901
257.28	1.487
257.65	1.124
258.02	3.546
258.39	5.051
258.76	3.297
259.14	5.980
259.51	6.796
259.88	2.405
260.25	0.980
260.62	3.472
260.99	-1.356
261.36	-1.712
261.73	0.316
262.10	1.824
262.47	2.454
262.85	1.881
263.22	0.615
263.59	2.492
263.96	-0.311
264.33	4.242
264.70	3.869
265.07	3.571
265.44	1.700
265.81	1.977
266.18	2.459
266.55	3.599
266.92	1.813
267.29	3.394
267.66	1.790
268.03	0.000
268.40	0.783
268.77	3.743
269.14	4.556
269.51	1.799
269.88	1.247
270.25	1.786
270.62	1.463
270.99	-0.767
271.36	1.956
271.73	1.643
272.10	1.946
272.47	3.546
272.84	0.743
273.21	2.320
273.58	3.133
273.95	4.348
274.32	0.924
274.69	-1.584
275.06	4.241
275.43	1.361
275.80	4.194
276.17	2.759
276.54	2.998
276.91	1.096
277.28	1.965
277.65	5.372
278.02	4.894
278.39	0.219
278.76	2.516
279.13	1.037
279.50	5.252
279.87	3.456
280.23	-0.430
280.60	5.848
280.97	2.626
281.34	1.154
281.71	5.339
282.08	2.249
282.45	3.523
282.82	2.510
283.19	2.708
283.56	3.661
283.92	0.380
284.29	0.962
284.66	1.163
285.03	3.143
285.40	0.567
285.77	1.582
286.14	1.444
286.51	5.166
286.87	2.742
287.24	2.394
287.61	1.587
287.98	4.912
288.35	3.120
288.72	4.904
289.08	1.562
289.45	3.515
289.82	3.671
290.19	1.536
290.56	2.058
290.93	2.189
291.29	3.236
291.66	4.252
292.03	2.233
292.40	3.065
292.77	1.595
293.13	1.948
293.50	0.607
293.87	3.053
294.24	3.555
294.60	5.216
294.97	5.060
295.34	2.301
295.71	3.130
296.08	2.990
296.44	1.138
296.81	3.611
297.18	3.623
297.55	4.336
297.91	3.973
298.28	5.409
298.65	4.749
299.02	3.504
299.38	1.368
299.75	3.586
300.12	4.450
300.48	4.611
300.85	5.196
301.22	3.506
301.59	2.895
301.95	6.835
302.32	4.799
302.69	3.234
303.05	2.847
303.42	3.736
303.79	3.738
304.15	5.137
304.52	3.448
304.89	3.275
305.25	4.600
305.62	3.501
305.99	5.146
306.35	3.468
306.72	2.925
307.09	4.333
307.45	5.052
307.82	4.282
308.19	4.646
308.55	4.471
308.92	5.338
309.29	3.352
309.65	3.229
310.02	4.180
310.38	3.622
310.75	5.137
311.12	4.090
311.48	5.408
311.85	5.131
312.22	3.586
312.58	3.928
312.95	3.202
313.31	3.830
313.68	3.874
314.05	4.592
314.41	4.742
314.78	5.155
315.14	5.447
315.51	4.969
315.87	4.816
316.24	5.966
316.61	5.020
316.97	4.762
317.34	4.980
317.70	4.780
318.07	4.231
318.43	5.196
318.80	4.451
319.16	5.273
319.53	7.217
319.89	5.020
320.26	4.150
320.62	6.419
320.99	3.862
321.35	5.139
321.72	7.061
322.08	6.042
322.45	6.091
322.81	6.876
323.18	6.379
323.54	6.853
323.91	6.037
324.27	8.301
324.64	7.491
325.00	8.577
325.37	9.550
325.73	8.613
326.10	9.537
326.46	10.045
326.83	9.449
327.19	11.247
327.56	10.947
327.92	11.796
328.29	11.161
328.65	11.887
329.01	11.857
329.38	11.797
329.74	12.559
330.11	12.882
330.47	13.173
330.84	14.327
331.20	15.779
331.56	14.722
331.93	15.799
332.29	16.132
332.66	17.104
333.02	15.149
333.38	16.224
333.75	16.941
334.11	17.278
334.48	18.586
334.84	17.216
335.20	17.475
335.57	16.591
335.93	17.525
336.29	18.508
336.66	17.075
337.02	18.123
337.38	17.500
337.75	18.182
338.11	18.936
338.47	17.974
338.84	19.131
339.20	17.916
339.56	19.174
339.93	17.010
340.29	18.624
340.65	18.638
341.02	18.617
341.38	18.142
341.74	18.640
342.11	16.464
342.47	18.594
342.83	18.080
343.20	17.770
343.56	17.565
343.92	17.626
344.28	18.190
344.65	17.789
345.01	17.459
345.37	17.157
345.73	18.828
346.10	18.119
346.46	18.082
346.82	18.085
347.19	16.958
347.55	17.794
347.91	17.799
348.27	17.300
348.63	16.780
349.00	16.571
349.36	17.290
349.72	17.745
350.08	17.131
350.45	16.121
350.81	16.362
351.17	16.694
351.53	16.735
351.89	16.185
352.26	18.000
352.62	17.742
352.98	17.269
353.34	16.586
353.70	17.799
354.07	16.532
354.43	17.694
354.79	17.589
355.15	17.619
355.51	17.642
355.87	16.586
356.24	17.374
356.60	17.623
356.96	17.857
357.32	16.534
357.68	17.123
358.04	16.478
358.40	17.765
358.77	17.624
359.13	17.054
359.49	17.180
359.85	17.863
360.21	16.746
360.57	17.138
360.93	17.625
361.29	16.616
361.66	16.928
362.02	17.273
362.38	17.136
362.74	17.562
363.10	17.081
363.46	17.346
363.82	18.557
364.18	17.343
364.54	16.765
364.90	17.491
365.26	17.031
365.62	17.956
365.98	17.449
366.35	18.281
366.71	16.925
367.07	17.925
367.43	17.613
367.79	17.456
368.15	17.803
368.51	17.771
368.87	17.516
369.23	17.473
369.59	17.638
369.95	17.962
370.31	18.642
370.67	17.090
371.03	17.924
371.39	17.433
371.75	17.802
372.11	17.618
372.47	18.269
372.83	18.027
373.19	18.117
373.55	16.895
373.91	17.279
374.27	17.860
374.63	18.737
374.99	18.298
375.35	17.897
375.71	18.112
376.07	18.399
376.42	18.163
376.78	18.121
377.14	17.536
377.50	18.526
377.86	18.942
378.22	19.081
378.58	18.462
378.94	18.210
379.30	18.278
379.66	18.621
380.02	18.578
380.38	18.077
380.74	18.492
381.09	19.325
381.45	17.309
381.81	18.630
382.17	18.591
382.53	18.551
382.89	18.958
383.25	19.228
383.61	18.476
383.97	18.921
384.32	18.512
384.68	18.266
385.04	18.321
385.40	18.793
385.76	19.874
386.12	19.470
386.48	20.179
386.83	19.658
387.19	19.475
387.55	20.075
387.91	19.621
388.27	18.987
388.62	18.880
388.98	18.969
389.34	20.175
389.70	19.888
390.06	19.132
390.42	19.106
390.77	19.032
391.13	18.600
391.49	19.405
391.85	19.298
392.20	18.142
392.56	19.008
392.92	19.495
393.28	19.988
393.64	18.739
393.99	19.248
394.35	18.659
394.71	19.221
395.07	19.233
395.42	19.065
395.78	19.349
396.14	18.537
396.50	19.023
396.85	19.253
397.21	18.233
397.57	18.370
397.92	18.754
398.28	19.368
398.64	17.590
399.00	18.510
399.35	17.381
399.71	18.036
400.07	18.440
400.42	18.237
400.78	18.861
401.14	18.149
401.49	18.463
401.85	17.307
402.21	18.193
402.57	18.438
402.92	17.252
403.28	18.296
403.63	18.159
403.99	18.240
404.35	17.989
404.70	16.726
405.06	17.333
405.42	17.216
405.77	16.502
406.13	16.822
406.49	17.466
406.84	16.748
407.20	17.640
407.55	16.677
407.91	16.110
408.27	16.890
408.62	17.292
408.98	16.759
409.34	17.658
409.69	16.021
410.05	16.441
410.40	16.605
410.76	17.551
411.11	17.188
411.47	16.437
411.83	15.945
412.18	15.959
412.54	17.041
412.89	16.687
413.25	17.088
413.60	15.280
413.96	16.871
414.31	16.829
414.67	16.742
415.03	16.445
415.38	16.449
415.74	17.459
416.09	17.113
416.45	17.286
416.80	16.193
417.16	16.851
417.51	16.855
417.87	16.428
418.22	16.969
418.58	17.057
418.93	17.179
419.29	16.517
419.64	16.721
420.00	17.695
420.35	17.552
420.71	17.558
421.06	16.145
421.42	17.909
421.77	17.341
422.12	16.459
422.48	17.217
422.83	17.633
423.19	18.002
423.54	17.519
423.90	16.961
424.25	17.107
424.61	17.931
424.96	18.293
425.31	18.371
425.67	17.254
426.02	18.905
426.38	18.159
426.73	18.644
427.09	19.177
427.44	19.353
427.79	18.798
428.15	19.175
428.50	18.353
428.85	17.690
429.21	19.581
429.56	18.760
429.92	18.798
430.27	18.496
430.62	18.662
430.98	18.524
431.33	19.348
431.68	19.152
432.04	18.614
432.39	18.768
432.74	18.280
433.10	20.115
433.45	19.534
433.80	19.095
434.16	18.726
434.51	18.925
434.86	19.570
435.22	19.125
435.57	19.526
435.92	19.521
436.28	20.155
436.63	20.479
436.98	19.930
437.34	19.117
437.69	20.334
438.04	19.943
438.39	19.304
438.75	19.976
439.10	19.638
439.45	19.903
439.81	20.550
440.16	19.537
440.51	19.821
440.86	20.665
441.22	19.344
441.57	20.143
441.92	20.094
442.27	20.621
442.63	20.182
442.98	20.448
443.33	20.200
443.68	20.053
444.03	21.361
444.39	19.725
444.74	21.293
445.09	20.880
445.44	20.855
445.79	21.145
446.15	20.154
446.50	19.689
446.85	19.979
447.20	20.282
447.55	21.429
447.91	20.699
448.26	20.660
448.61	21.416
448.96	20.425
449.31	20.231
449.66	21.138
450.02	20.308
450.37	20.273
450.72	20.447
451.07	20.570
451.42	20.162
451.77	20.374
452.12	20.036
452.47	19.704
452.83	20.612
453.18	21.063
453.53	20.796
453.88	20.765
454.23	20.221
454.58	21.474
454.93	22.101
455.28	19.810
455.63	20.769
455.98	21.347
456.34	19.987
456.69	21.665
457.04	21.613
457.39	21.810
457.74	20.798
458.09	19.835
458.44	20.304
458.79	20.728
459.14	20.824
459.49	21.910
459.84	20.699
460.19	20.813
460.54	21.638
460.89	21.420
461.24	20.994
461.59	21.021
461.94	20.377
462.29	21.653
462.64	22.791
462.99	20.718
463.34	20.932
463.69	21.171
464.04	21.065
464.39	20.619
464.74	20.920
465.09	21.522
465.44	21.350
465.79	20.578
466.14	21.494
466.49	21.219
466.84	21.059
467.19	20.776
467.54	20.754
467.89	20.783
468.24	20.620
468.59	21.460
468.94	21.143
469.29	21.770
469.64	21.531
469.99	21.654
470.34	20.956
470.68	23.117
471.03	22.293
471.38	20.970
471.73	22.129
472.08	20.828
472.43	21.477
472.78	20.699
473.13	21.565
473.48	22.150
473.83	21.108
474.17	21.632
474.52	21.251
474.87	22.667
475.22	20.927
475.57	21.400
475.92	21.668
476.27	21.944
476.61	20.891
476.96	21.640
477.31	22.661
477.66	21.124
478.01	21.112
478.36	21.732
478.70	21.642
479.05	22.198
479.40	22.205
479.75	20.751
480.10	21.147
480.45	21.800
480.79	22.356
481.14	22.439
481.49	21.084
481.84	21.429
482.19	21.375
482.53	21.727
482.88	21.623
483.23	21.833
483.58	21.651
483.92	21.297
484.27	21.787
484.62	21.739
484.97	20.771
485.31	21.351
485.66	21.118
486.01	21.017
486.36	20.497
486.70	20.486
487.05	20.415
487.40	20.502
487.75	21.239
488.09	21.044
488.44	21.080
488.79	21.330
489.13	22.316
489.48	22.403
489.83	21.300
490.17	20.315
490.52	20.878
490.87	21.240
491.22	21.777
491.56	22.154
491.91	21.511
492.26	21.488
492.60	22.361
492.95	22.528
493.30	21.983
493.64	22.151
493.99	21.981
494.34	21.262
494.68	21.619
495.03	22.287
495.37	22.130
495.72	22.211
496.07	22.537
496.41	21.274
496.76	22.018
497.11	21.379
497.45	21.909
497.80	22.351
498.14	22.752
498.49	21.940
498.84	21.457
499.18	22.440
499.53	21.825
499.87	21.498
500.22	22.354
500.56	22.945
500.91	22.339
501.26	22.096
501.60	22.036
501.95	21.931
502.29	22.373
502.64	22.201
502.98	22.052
503.33	20.893
503.67	21.880
504.02	23.118
504.36	22.118
504.71	22.323
505.06	22.798
505.40	21.827
505.75	22.526
506.09	23.011
506.44	23.255
506.78	22.755
507.13	23.268
507.47	21.671
507.82	22.115
508.16	22.029
508.51	22.560
508.85	23.705
509.19	22.512
509.54	22.145
509.88	22.006
510.23	22.916
510.57	23.036
510.92	21.802
511.26	22.968
511.61	22.992
511.95	23.726
512.30	22.949
512.64	23.539
512.98	22.796
513.33	24.790
513.67	23.252
514.02	24.142
514.36	24.343
514.70	24.942
515.05	23.267
515.39	23.908
515.74	23.353
516.08	24.567
516.42	24.558
516.77	24.459
517.11	24.095
517.46	24.835
517.80	24.732
518.14	24.311
518.49	23.858
518.83	24.423
519.17	22.862
519.52	23.505
519.86	23.349
520.20	24.362
520.55	24.140
520.89	24.090
521.23	24.446
521.58	25.174
521.92	24.551
522.26	25.179
522.61	25.260
522.95	25.894
523.29	25.985
523.64	25.604
523.98	25.535
524.32	25.451
524.66	26.761
525.01	24.740
525.35	25.729
525.69	26.061
526.04	25.198
526.38	25.486
526.72	25.311
527.06	25.940
527.41	26.451
527.75	24.464
528.09	25.847
528.43	27.009
528.78	26.007
529.12	24.968
529.46	26.186
529.80	25.522
530.15	26.667
530.49	25.791
530.83	27.018
531.17	26.864
531.51	27.086
531.86	26.105
532.20	25.748
532.54	27.297
532.88	26.899
533.22	27.218
533.57	25.950
533.91	25.979
534.25	27.214
534.59	26.106
534.93	26.117
535.27	25.952
535.62	26.053
535.96	26.223
536.30	25.594
536.64	27.292
536.98	25.923
537.32	27.169
537.66	26.367
538.01	27.413
538.35	26.006
538.69	26.298
539.03	26.316
539.37	26.178
539.71	26.449
540.05	26.205
540.39	27.078
540.73	25.662
541.07	26.865
541.42	27.285
541.76	27.392
542.10	26.703
542.44	26.477
542.78	26.290
543.12	26.854
543.46	26.704
543.80	26.301
544.14	26.101
544.48	27.049
544.82	26.931
545.16	27.322
545.50	26.235
545.84	27.125
546.18	26.596
546.52	27.397
546.86	26.887
547.20	28.684
547.54	27.491
547.88	27.106
548.22	26.693
548.56	27.111
548.90	27.561
549.24	26.928
549.58	26.939
549.92	26.590
550.26	27.766
550.60	27.063
550.94	27.558
551.28	27.357
551.62	27.231
551.96	27.594
552.30	27.047
552.64	26.375
552.98	27.145
553.32	27.889
553.66	26.633
554.00	27.664
554.34	27.917
554.68	27.065
555.02	27.232
555.36	27.749
555.69	26.227
556.03	26.053
556.37	26.192
556.71	27.509
557.05	26.473
557.39	25.428
557.73	27.736
558.07	27.677
558.41	27.489
558.75	27.981
559.08	27.502
559.42	27.063
559.76	27.622
560.10	27.523
560.44	26.210
560.78	26.923
561.12	27.010
561.45	27.126
561.79	26.961
562.13	27.963
562.47	26.475
562.81	26.513
563.15	25.882
563.48	28.076
563.82	27.248
564.16	27.577
564.50	26.419
564.84	26.908
565.17	27.230
565.51	27.664
565.85	26.543
566.19	27.122
566.52	27.681
566.86	27.763
567.20	27.148
567.54	26.399
567.88	26.772
568.21	26.697
568.55	25.761
568.89	26.181
569.23	25.903
569.56	25.044
569.90	25.782
570.24	24.860
570.57	25.055
570.91	25.200
571.25	24.531
571.59	24.073
571.92	23.437
572.26	24.094
572.60	24.806
572.93	24.380
573.27	24.639
573.61	24.314
573.95	24.140
574.28	24.179
574.62	24.027
574.96	24.084
575.29	23.448
575.63	23.296
575.97	23.041
576.30	24.037
576.64	23.709
576.98	23.964
577.31	23.618
577.65	23.601
577.98	23.605
578.32	23.629
578.66	22.824
578.99	23.257
579.33	23.258
579.67	23.568
580.00	22.987
580.34	23.756
580.67	23.046
581.01	23.607
581.35	23.407
581.68	23.440
582.02	23.270
582.35	23.398
582.69	23.374
583.02	23.286
583.36	23.586
583.70	23.884
584.03	23.992
584.37	24.901
584.70	23.764
585.04	23.290
585.37	23.710
585.71	23.155
586.04	22.920
586.38	23.313
586.72	24.362
587.05	24.061
587.39	23.987
587.72	24.440
588.06	24.024
588.39	23.896
588.73	24.115
589.06	24.494
589.40	24.404
589.73	24.352
590.07	24.509
590.40	24.652
590.73	25.041
591.07	24.597
591.40	25.022
591.74	24.932
592.07	25.464
592.41	25.044
592.74	24.213
593.08	23.716
593.41	24.613
593.75	24.043
594.08	23.584
594.41	24.491
594.75	25.000
595.08	24.669
595.42	24.255
595.75	24.822
596.09	24.433
596.42	24.184
596.75	24.556
597.09	24.282
597.42	24.842
597.75	25.011
598.09	25.215
598.42	24.368
598.76	24.539
599.09	24.720
599.42	24.024
599.76	24.191
600.09	23.756
600.42	23.427
600.76	24.108
601.09	24.084
601.42	23.815
601.76	24.176
602.09	24.010
602.42	24.431
602.76	24.533
603.09	24.709
603.42	25.251
603.76	23.710
604.09	23.896
604.42	23.773
604.76	24.967
605.09	24.817
605.42	25.282
605.75	24.606
606.09	23.439
606.42	24.229
606.75	24.805
607.09	24.659
607.42	23.881
607.75	24.201
608.08	23.450
608.42	24.303
608.75	24.145
609.08	25.112
609.41	25.330
609.75	23.891
610.08	24.114
610.41	23.382
610.74	23.793
611.07	24.548
611.41	24.286
611.74	25.640
612.07	24.251
612.40	25.164
612.73	25.198
613.07	24.128
613.40	25.055
613.73	24.342
614.06	24.318
614.39	25.324
614.72	23.978
615.06	25.196
615.39	24.072
615.72	23.843
616.05	24.581
616.38	24.330
616.71	24.159
617.05	24.954
617.38	25.456
617.71	24.654
618.04	24.317
618.37	26.923
618.70	25.413
619.03	25.694
619.36	25.036
619.69	25.019
620.03	26.735
620.36	25.393
620.69	25.910
621.02	26.376
621.35	27.303
621.68	25.595
622.01	25.583
622.34	25.778
622.67	26.656
623.00	26.034
623.33	24.771
623.66	25.355
623.99	26.475
624.32	25.247
624.65	25.639
624.99	25.884
625.32	24.261
625.65	26.394
625.98	25.705
626.31	25.520
626.64	27.210
626.97	28.534
627.30	25.306
627.63	26.603
627.96	26.864
628.29	25.994
628.62	26.254
628.95	27.154
629.28	27.016
629.61	26.022
629.94	28.641
630.26	25.494
630.59	27.055
630.92	26.667
631.25	26.462
631.58	27.863
631.91	25.329
632.24	26.835
632.57	27.386
632.90	28.114
633.23	26.941
633.56	27.834
633.89	27.004
634.22	29.383
634.55	28.463
634.88	28.736
635.20	26.923
635.53	26.933
635.86	27.828
636.19	29.237
636.52	27.934
636.85	26.799
637.18	26.667
637.51	27.170
637.83	27.464
638.16	28.240
638.49	26.703
638.82	28.158
