SpectraSuite Data File
++++++++++++++++++++++++++++++++++++
Date: Fri May 15 17:17:26 PDT 2015
User: schluterlab
Dark Spectrum Present: Yes
Reference Spectrum Present: Yes
Number of Sampled Component Spectra: 1
Spectrometers: USB2E3373
Integration Time (usec): 3000 (USB2E3373)
Spectra Averaged: 3 (USB2E3373)
Boxcar Smoothing: 0 (USB2E3373)
Correct for Electrical Dark: No (USB2E3373)
Strobe/Lamp Enabled: No (USB2E3373)
Correct for Detector Non-linearity: No (USB2E3373)
Correct for Stray Light: No (USB2E3373)
Number of Pixels in Processed Spectrum: 2048
>>>>>Begin Processed Spectral Data<<<<<
178.53	0.000
178.91	0.000
179.29	100.000
179.67	-250.000
180.04	-128.571
180.42	375.000
180.80	0.000
181.18	-366.667
181.56	150.000
181.94	100.000
182.31	500.000
182.69	220.000
183.07	-166.667
183.45	-60.000
183.83	116.667
184.20	72.727
184.58	33.333
184.96	-250.000
185.34	-533.333
185.72	150.000
186.09	53.846
186.47	-100.000
186.85	-116.667
187.23	-22.222
187.61	-800.000
187.98	266.667
188.36	66.667
188.74	166.667
189.12	76.471
189.49	38.889
189.87	0.000
190.25	121.429
190.63	300.000
191.00	366.667
191.38	57.895
191.76	300.000
192.14	-125.000
192.51	700.000
192.89	66.667
193.27	42.857
193.65	-16.667
194.02	90.909
194.40	60.000
194.78	37.500
195.15	91.667
195.53	100.000
195.91	50.000
196.29	-125.000
196.66	-0.000
197.04	100.000
197.42	22.222
197.79	-166.667
198.17	-38.462
198.55	1400.000
198.92	-100.000
199.30	600.000
199.68	20.000
200.05	-300.000
200.43	0.000
200.81	100.000
201.18	266.667
201.56	300.000
201.94	300.000
202.31	-33.333
202.69	0.000
203.07	-325.000
203.44	1000.000
203.82	0.000
204.19	57.143
204.57	-133.333
204.95	25.000
205.32	150.000
205.70	157.143
206.08	50.000
206.45	222.222
206.83	121.429
207.20	57.143
207.58	-300.000
207.96	266.667
208.33	50.000
208.71	100.000
209.08	50.000
209.46	500.000
209.84	120.000
210.21	-200.000
210.59	271.429
210.96	150.000
211.34	75.000
211.71	80.000
212.09	-14.286
212.46	-100.000
212.84	0.000
213.22	40.000
213.59	-100.000
213.97	130.769
214.34	100.000
214.72	16.667
215.09	100.000
215.47	46.154
215.84	9.091
216.22	-33.333
216.59	125.000
216.97	600.000
217.34	125.000
217.72	-20.000
218.09	137.500
218.47	-37.500
218.84	0.000
219.22	44.444
219.59	20.000
219.97	-66.667
220.34	-25.000
220.72	42.857
221.09	-50.000
221.47	250.000
221.84	-350.000
222.22	-400.000
222.59	72.727
222.97	100.000
223.34	133.333
223.72	57.143
224.09	33.333
224.46	28.571
224.84	166.667
225.21	190.000
225.59	93.333
225.96	600.000
226.34	125.000
226.71	57.143
227.08	66.667
227.46	50.000
227.83	-50.000
228.21	55.556
228.58	54.545
228.95	37.500
229.33	-0.000
229.70	68.750
230.08	50.000
230.45	85.714
230.82	85.714
231.20	46.667
231.57	121.429
231.95	128.571
232.32	60.000
232.69	57.143
233.07	466.667
233.44	120.000
233.81	80.000
234.19	22.222
234.56	29.412
234.93	50.000
235.31	375.000
235.68	-220.000
236.05	15.385
236.43	5.000
236.80	11.765
237.17	81.250
237.55	35.000
237.92	40.741
238.29	72.222
238.67	53.333
239.04	61.765
239.41	26.829
239.79	30.000
240.16	58.537
240.53	44.737
240.91	52.174
241.28	39.683
241.65	51.786
242.02	53.425
242.40	63.333
242.77	40.678
243.14	46.970
243.51	50.000
243.89	64.368
244.26	34.483
244.63	52.381
245.00	43.299
245.38	52.577
245.75	38.202
246.12	39.655
246.49	47.934
246.87	46.154
247.24	42.017
247.61	37.719
247.98	37.398
248.36	38.750
248.73	46.711
249.10	36.364
249.47	38.608
249.84	43.791
250.22	43.529
250.59	42.484
250.96	37.559
251.33	44.186
251.70	43.529
252.08	43.147
252.45	40.594
252.82	41.206
253.19	43.779
253.56	36.449
253.94	42.342
254.31	40.435
254.68	46.491
255.05	40.157
255.42	45.415
255.79	41.699
256.16	39.300
256.54	40.672
256.91	46.388
257.28	40.892
257.65	38.951
258.02	37.943
258.39	41.414
258.76	39.560
259.14	44.186
259.51	39.159
259.88	42.268
260.25	40.523
260.62	43.056
260.99	40.678
261.36	43.493
261.73	38.924
262.10	42.553
262.47	40.184
262.85	44.201
263.22	41.231
263.59	41.121
263.96	44.099
264.33	39.394
264.70	38.690
265.07	41.071
265.44	43.909
265.81	42.655
266.18	41.803
266.55	40.103
266.92	41.451
267.29	42.037
267.66	37.852
268.03	40.576
268.40	38.381
268.77	39.305
269.14	40.048
269.51	40.360
269.88	40.399
270.25	36.735
270.62	38.780
270.99	40.153
271.36	34.963
271.73	39.437
272.10	42.336
272.47	41.844
272.84	37.376
273.21	39.443
273.58	40.000
273.95	40.961
274.32	38.568
274.69	36.425
275.06	42.188
275.43	35.374
275.80	40.839
276.17	41.839
276.54	37.901
276.91	37.281
277.28	38.646
277.65	38.017
278.02	36.170
278.39	36.543
278.76	39.623
279.13	36.307
279.50	40.126
279.87	38.445
280.23	36.774
280.60	38.207
280.97	36.768
281.34	35.192
281.71	40.041
282.08	37.014
282.45	36.986
282.82	37.259
283.19	41.006
283.56	36.416
283.92	37.951
284.29	35.769
284.66	38.566
285.03	34.774
285.40	38.563
285.77	36.028
286.14	35.740
286.51	37.085
286.87	36.746
287.24	38.858
287.61	36.332
287.98	37.719
288.35	36.915
288.72	38.704
289.08	35.243
289.45	34.974
289.82	32.867
290.19	34.812
290.56	34.305
290.93	32.828
291.29	31.279
291.66	31.811
292.03	30.941
292.40	33.387
292.77	32.376
293.13	29.545
293.50	30.349
293.87	32.366
294.24	29.521
294.60	30.104
294.97	31.696
295.34	29.448
295.71	29.657
296.08	29.746
296.44	27.596
296.81	28.333
297.18	29.130
297.55	28.862
297.91	26.986
298.28	29.420
298.65	26.323
299.02	27.628
299.38	26.402
299.75	27.862
300.12	27.880
300.48	27.668
300.85	27.250
301.22	27.143
301.59	26.579
301.95	28.734
302.32	27.756
302.69	25.124
303.05	26.609
303.42	25.156
303.79	25.818
304.15	25.926
304.52	23.781
304.89	25.731
305.25	24.818
305.62	23.687
305.99	25.614
306.35	25.202
306.72	25.197
307.09	25.656
307.45	25.603
307.82	25.347
308.19	26.597
308.55	24.537
308.92	25.272
309.29	23.352
309.65	24.865
310.02	25.853
310.38	24.149
310.75	25.464
311.12	25.296
311.48	23.754
311.85	24.503
312.22	23.312
312.58	23.779
312.95	23.693
313.31	23.499
313.68	23.351
314.05	23.469
314.41	25.258
314.78	25.155
315.14	24.049
315.51	24.120
315.87	23.770
316.24	26.087
316.61	25.492
316.97	24.504
317.34	24.316
317.70	22.945
318.07	25.000
318.43	23.725
318.80	23.958
319.16	24.316
319.53	25.451
319.89	25.197
320.26	25.101
320.62	26.179
320.99	24.217
321.35	24.974
321.72	27.934
322.08	25.680
322.45	27.513
322.81	26.326
323.18	26.889
323.54	27.220
323.91	27.264
324.27	27.832
324.64	27.809
325.00	27.920
325.37	29.844
325.73	27.833
326.10	29.246
326.46	30.583
326.83	29.746
327.19	29.991
327.56	29.713
327.92	32.835
328.29	30.804
328.65	32.830
329.01	31.893
329.38	32.166
329.74	32.672
330.11	32.623
330.47	32.004
330.84	32.019
331.20	35.266
331.56	33.333
331.93	34.977
332.29	33.364
332.66	33.937
333.02	34.758
333.38	34.555
333.75	34.890
334.11	34.378
334.48	34.814
334.84	35.989
335.20	35.773
335.57	33.998
335.93	34.688
336.29	34.715
336.66	34.696
337.02	34.758
337.38	35.648
337.75	36.273
338.11	36.159
338.47	36.588
338.84	36.322
339.20	36.015
339.56	37.706
339.93	36.974
340.29	36.147
340.65	37.993
341.02	36.259
341.38	36.018
341.74	35.071
342.11	34.489
342.47	38.078
342.83	36.938
343.20	35.279
343.56	36.696
343.92	36.758
344.28	37.660
344.65	35.751
345.01	36.301
345.37	35.744
345.73	36.067
346.10	36.756
346.46	37.847
346.82	35.597
347.19	36.575
347.55	37.260
347.91	36.246
348.27	35.408
348.63	37.649
349.00	35.521
349.36	35.910
349.72	37.645
350.08	36.803
350.45	36.153
350.81	36.130
351.17	36.645
351.53	36.163
351.89	35.673
352.26	36.640
352.62	36.855
352.98	37.028
353.34	37.037
353.70	37.702
354.07	36.371
354.43	36.189
354.79	35.838
355.15	37.302
355.51	36.788
355.87	37.945
356.24	36.134
356.60	37.429
356.96	38.175
357.32	37.780
357.68	36.200
358.04	36.834
358.40	37.219
358.77	37.640
359.13	37.310
359.49	35.516
359.85	38.768
360.21	37.560
360.57	37.567
360.93	36.687
361.29	34.819
361.66	38.950
362.02	39.015
362.38	37.700
362.74	38.153
363.10	39.052
363.46	37.658
363.82	37.791
364.18	38.450
364.54	37.647
364.90	38.638
365.26	38.574
365.62	40.803
365.98	38.416
366.35	39.913
366.71	39.911
367.07	39.623
367.43	38.533
367.79	38.940
368.15	38.981
368.51	38.966
368.87	39.124
369.23	37.834
369.59	38.120
369.95	40.836
370.31	40.390
370.67	39.104
371.03	39.507
371.39	39.825
371.75	38.608
372.11	40.157
372.47	39.349
372.83	39.957
373.19	40.300
373.55	40.578
373.91	40.029
374.27	40.255
374.63	41.350
374.99	40.567
375.35	41.086
375.71	41.329
376.07	41.433
376.42	42.313
376.78	41.946
377.14	40.487
377.50	41.899
377.86	41.098
378.22	41.289
378.58	41.410
378.94	40.454
379.30	40.299
379.66	41.254
380.02	41.570
380.38	41.023
380.74	41.412
381.09	41.534
381.45	41.713
381.81	43.307
382.17	41.815
382.53	42.099
382.89	42.310
383.25	42.999
383.61	43.049
383.97	42.222
384.32	42.089
384.68	42.539
385.04	42.953
385.40	42.564
385.76	43.774
386.12	43.208
386.48	44.253
386.83	42.803
387.19	42.918
387.55	43.852
387.91	43.460
388.27	43.040
388.62	44.116
388.98	43.339
389.34	43.285
389.70	43.319
390.06	42.480
390.42	43.135
390.77	43.492
391.13	42.623
391.49	43.596
391.85	43.860
392.20	42.750
392.56	44.183
392.92	43.688
393.28	44.281
393.64	42.883
393.99	45.204
394.35	43.833
394.71	44.572
395.07	43.055
395.42	43.291
395.78	44.039
396.14	44.136
396.50	45.656
396.85	44.108
397.21	43.421
397.57	43.323
397.92	43.499
398.28	43.046
398.64	42.952
399.00	42.720
399.35	42.946
399.71	42.102
400.07	43.712
400.42	43.758
400.78	43.601
401.14	42.892
401.49	43.895
401.85	41.682
402.21	42.711
402.57	43.125
402.92	42.911
403.28	42.231
403.63	43.506
403.99	42.092
404.35	43.036
404.70	43.214
405.06	42.479
405.42	42.573
405.77	41.429
406.13	42.258
406.49	41.978
406.84	43.276
407.20	42.806
407.55	43.400
407.91	42.848
408.27	41.491
408.62	41.846
408.98	41.528
409.34	43.804
409.69	41.925
410.05	41.626
410.40	42.901
410.76	42.159
411.11	42.875
411.47	42.604
411.83	41.368
412.18	42.471
412.54	42.322
412.89	42.118
413.25	43.381
413.60	40.994
413.96	41.718
414.31	42.744
414.67	41.309
415.03	41.545
415.38	42.298
415.74	42.476
416.09	43.109
416.45	42.944
416.80	42.300
417.16	44.130
417.51	42.372
417.87	42.308
418.22	42.098
418.58	43.478
418.93	43.072
419.29	41.101
419.64	43.163
420.00	42.632
420.35	42.328
420.71	42.406
421.06	41.559
421.42	42.909
421.77	42.370
422.12	42.452
422.48	42.501
422.83	41.531
423.19	43.284
423.54	42.563
423.90	41.991
424.25	42.882
424.61	43.574
424.96	43.031
425.31	43.616
425.67	43.838
426.02	44.170
426.38	44.897
426.73	42.857
427.09	44.177
427.44	43.235
427.79	44.313
428.15	43.265
428.50	44.640
428.85	43.489
429.21	43.011
429.56	44.367
429.92	42.835
430.27	43.459
430.62	42.917
430.98	42.516
431.33	43.060
431.68	43.276
432.04	44.494
432.39	43.012
432.74	43.476
433.10	44.943
433.45	43.668
433.80	44.399
434.16	44.044
434.51	44.892
434.86	46.109
435.22	44.756
435.57	44.292
435.92	44.910
436.28	44.305
436.63	43.697
436.98	44.032
437.34	44.586
437.69	45.796
438.04	44.672
438.39	44.349
438.75	44.991
439.10	44.652
439.45	45.831
439.81	45.872
440.16	46.971
440.51	46.149
440.86	46.526
441.22	45.249
441.57	46.468
441.92	46.432
442.27	46.175
442.63	46.360
442.98	45.721
443.33	44.964
443.68	44.668
444.03	47.044
444.39	45.548
444.74	47.380
445.09	47.216
445.44	47.066
445.79	47.860
446.15	46.476
446.50	45.757
446.85	46.812
447.20	45.985
447.55	47.098
447.91	47.716
448.26	46.557
448.61	48.014
448.96	47.103
449.31	46.763
449.66	46.458
450.02	47.176
450.37	47.362
450.72	47.709
451.07	47.278
451.42	47.129
451.77	46.172
452.12	45.993
452.47	46.426
452.83	47.055
453.18	47.122
453.53	46.966
453.88	47.237
454.23	47.203
454.58	47.733
454.93	48.003
455.28	46.857
455.63	47.799
455.98	47.444
456.34	47.637
456.69	48.030
457.04	49.023
457.39	47.874
457.74	47.703
458.09	47.440
458.44	46.870
458.79	46.275
459.14	48.513
459.49	48.358
459.84	47.152
460.19	48.968
460.54	48.655
460.89	47.386
461.24	47.267
461.59	48.931
461.94	47.987
462.29	48.432
462.64	47.176
462.99	46.987
463.34	49.374
463.69	48.198
464.04	49.637
464.39	48.029
464.74	47.178
465.09	48.472
465.44	48.529
465.79	46.939
466.14	48.290
466.49	48.016
466.84	47.829
467.19	48.623
467.54	47.254
467.89	48.452
468.24	48.540
468.59	50.095
468.94	49.079
469.29	48.066
469.64	48.052
469.99	50.456
470.34	48.942
470.68	49.441
471.03	50.318
471.38	49.429
471.73	50.070
472.08	48.236
472.43	50.604
472.78	48.184
473.13	49.932
473.48	49.316
473.83	49.066
474.17	49.158
474.52	49.458
474.87	49.515
475.22	49.054
475.57	49.068
475.92	49.753
476.27	49.884
476.61	50.694
476.96	49.582
477.31	50.352
477.66	49.775
478.01	51.095
478.36	49.455
478.70	51.223
479.05	50.385
479.40	50.026
479.75	49.322
480.10	48.950
480.45	50.000
480.79	51.208
481.14	51.025
481.49	49.261
481.84	50.386
482.19	49.345
482.53	50.552
482.88	49.690
483.23	50.240
483.58	49.811
483.92	49.080
484.27	49.863
484.62	50.022
484.97	49.585
485.31	49.639
485.66	48.146
486.01	48.399
486.36	47.805
486.70	47.568
487.05	48.224
487.40	48.837
487.75	49.577
488.09	49.629
488.44	50.653
488.79	51.251
489.13	51.603
489.48	50.492
489.83	50.000
490.17	50.022
490.52	51.363
490.87	49.468
491.22	50.907
491.56	51.044
491.91	50.621
492.26	51.483
492.60	49.760
492.95	51.549
493.30	49.243
493.64	51.228
493.99	51.208
494.34	50.534
494.68	51.000
495.03	50.608
495.37	51.570
495.72	51.439
496.07	51.610
496.41	50.660
496.76	51.497
497.11	50.442
497.45	51.551
497.80	51.766
498.14	51.465
498.49	50.127
498.84	51.597
499.18	51.155
499.53	51.984
499.87	50.778
500.22	51.385
500.56	52.900
500.91	51.104
501.26	51.607
501.60	51.599
501.95	52.402
502.29	52.300
502.64	51.834
502.98	52.886
503.33	50.720
503.67	52.482
504.02	52.346
504.36	52.400
504.71	52.778
505.06	51.988
505.40	53.198
505.75	54.124
506.09	52.813
506.44	55.133
506.78	53.724
507.13	53.826
507.47	53.890
507.82	53.205
508.16	54.094
508.51	53.987
508.85	54.265
509.19	54.604
509.54	54.477
509.88	54.639
510.23	54.061
510.57	54.837
510.92	53.891
511.26	55.319
511.61	55.556
511.95	54.904
512.30	55.876
512.64	56.316
512.98	55.587
513.33	56.072
513.67	55.941
514.02	58.295
514.36	57.371
514.70	58.974
515.05	58.754
515.39	57.851
515.74	58.743
516.08	59.115
516.42	59.246
516.77	58.338
517.11	59.110
517.46	58.947
517.80	60.310
518.14	59.339
518.49	60.216
518.83	60.510
519.17	59.491
519.52	59.384
519.86	60.024
520.20	59.721
520.55	59.912
520.89	62.233
521.23	61.178
521.58	61.956
521.92	61.987
522.26	60.833
522.61	62.013
522.95	64.702
523.29	61.881
523.64	63.278
523.98	64.614
524.32	62.951
524.66	63.764
525.01	64.286
525.35	63.772
525.69	64.646
526.04	63.492
526.38	65.305
526.72	63.440
527.06	64.008
527.41	64.182
527.75	64.410
528.09	65.515
528.43	65.226
528.78	65.677
529.12	64.387
529.46	67.122
529.80	63.141
530.15	66.667
530.49	64.781
530.83	65.663
531.17	66.286
531.51	68.194
531.86	66.349
532.20	67.154
532.54	66.712
532.88	67.214
533.22	65.255
533.57	65.465
533.91	66.319
534.25	67.057
534.59	66.838
534.93	65.261
535.27	65.863
535.62	67.207
535.96	67.580
536.30	66.821
536.64	69.538
536.98	67.178
537.32	68.634
537.66	68.233
538.01	68.811
538.35	66.574
538.69	67.643
539.03	65.414
539.37	66.083
539.71	68.712
540.05	66.259
540.39	68.629
540.73	69.526
541.07	68.232
541.42	67.809
541.76	68.823
542.10	67.791
542.44	69.910
542.78	67.515
543.12	68.887
543.46	68.220
543.80	70.784
544.14	67.156
544.48	67.755
544.82	67.874
545.16	70.150
545.50	68.091
545.84	68.909
546.18	71.206
546.52	69.575
546.86	69.446
547.20	70.029
547.54	67.986
547.88	69.905
548.22	68.113
548.56	67.678
548.90	68.666
549.24	68.113
549.58	68.124
549.92	70.050
550.26	70.256
550.60	70.781
550.94	70.500
551.28	72.102
551.62	70.154
551.96	69.549
552.30	70.614
552.64	69.111
552.98	69.620
553.32	69.116
553.66	69.594
554.00	71.387
554.34	71.344
554.68	68.879
555.02	70.387
555.36	70.681
555.69	71.575
556.03	70.236
556.37	69.039
556.71	71.480
557.05	71.812
557.39	70.260
557.73	71.664
558.07	71.493
558.41	73.507
558.75	73.578
559.08	72.656
559.42	73.254
559.76	72.618
560.10	70.872
560.44	71.780
560.78	70.629
561.12	71.862
561.45	73.366
561.79	71.709
562.13	72.179
562.47	71.655
562.81	72.190
563.15	71.439
563.48	70.934
563.82	71.448
564.16	70.543
564.50	70.811
564.84	69.946
565.17	69.752
565.51	73.497
565.85	73.731
566.19	70.690
566.52	71.113
566.86	71.272
567.20	70.859
567.54	70.864
567.88	71.178
568.21	69.683
568.55	69.511
568.89	69.764
569.23	69.331
569.56	68.082
569.90	68.088
570.24	66.840
570.57	67.927
570.91	67.201
571.25	67.050
571.59	65.805
571.92	64.444
572.26	65.127
572.60	65.674
572.93	65.704
573.27	65.110
573.61	66.199
573.95	65.593
574.28	65.201
574.62	64.226
574.96	63.949
575.29	64.059
575.63	63.514
575.97	64.543
576.30	65.308
576.64	63.894
576.98	65.534
577.31	65.618
577.65	64.633
577.98	63.926
578.32	63.712
578.66	63.400
578.99	63.968
579.33	63.902
579.67	63.008
580.00	64.785
580.34	65.174
580.67	65.084
581.01	64.697
581.35	64.492
581.68	64.554
582.02	64.122
582.35	64.141
582.69	64.823
583.02	63.683
583.36	65.342
583.70	67.160
584.03	66.889
584.37	67.928
584.70	66.181
585.04	64.819
585.37	65.528
585.71	65.712
586.04	65.103
586.38	65.671
586.72	66.456
587.05	68.198
587.39	66.676
587.72	67.031
588.06	67.036
588.39	67.217
588.73	67.613
589.06	68.852
589.40	67.853
589.73	68.164
590.07	69.071
590.40	69.853
590.73	70.634
591.07	70.017
591.40	69.813
591.74	70.090
592.07	70.826
592.41	70.141
592.74	69.494
593.08	67.307
593.41	67.545
593.75	66.503
594.08	67.010
594.41	68.850
594.75	68.588
595.08	69.012
595.42	69.010
595.75	69.508
596.09	69.547
596.42	70.112
596.75	69.671
597.09	69.522
597.42	69.151
597.75	71.049
598.09	68.764
598.42	69.765
598.76	68.468
599.09	68.510
599.42	66.957
599.76	67.419
600.09	68.627
600.42	67.324
600.76	67.459
601.09	69.198
601.42	67.998
601.76	69.115
602.09	69.637
602.42	69.882
602.76	69.610
603.09	69.477
603.42	69.607
603.76	70.242
604.09	68.894
604.42	69.459
604.76	70.227
605.09	70.887
605.42	70.339
605.75	69.921
606.09	68.960
606.42	70.017
606.75	67.879
607.09	69.978
607.42	68.764
607.75	70.515
608.08	68.284
608.42	68.799
608.75	70.506
609.08	70.553
609.41	71.320
609.75	70.968
610.08	72.341
610.41	70.145
610.74	70.453
611.07	72.558
611.41	71.406
611.74	73.348
612.07	71.306
612.40	72.265
612.73	72.429
613.07	71.035
613.40	71.882
613.73	71.964
614.06	71.341
614.39	72.532
614.72	72.101
615.06	71.508
615.39	69.978
615.72	70.990
616.05	73.408
616.38	70.655
616.71	72.538
617.05	73.317
617.38	73.162
617.71	74.151
618.04	73.397
618.37	74.023
618.70	73.993
619.03	75.069
619.36	75.181
619.69	76.952
620.03	75.603
620.36	76.323
620.69	74.019
621.02	74.312
621.35	77.593
621.68	78.486
622.01	78.167
622.34	75.579
622.67	76.341
623.00	74.273
623.33	75.305
623.66	74.271
623.99	75.340
624.32	76.274
624.65	74.511
624.99	76.448
625.32	73.616
625.65	78.162
625.98	77.196
626.31	76.559
626.64	78.943
626.97	76.963
627.30	77.320
627.63	76.776
627.96	78.167
628.29	77.058
628.62	79.351
628.95	78.758
629.28	81.855
629.61	78.465
629.94	78.495
630.26	78.261
630.59	82.102
630.92	79.487
631.25	79.897
631.58	80.507
631.91	80.811
632.24	80.275
632.57	81.477
632.90	81.732
633.23	79.176
633.56	84.005
633.89	82.984
634.22	84.198
