SpectraSuite Data File
++++++++++++++++++++++++++++++++++++
Date: Fri May 15 17:15:49 PDT 2015
User: schluterlab
Dark Spectrum Present: Yes
Reference Spectrum Present: Yes
Number of Sampled Component Spectra: 1
Spectrometers: USB2E3373
Integration Time (usec): 3000 (USB2E3373)
Spectra Averaged: 3 (USB2E3373)
Boxcar Smoothing: 0 (USB2E3373)
Correct for Electrical Dark: No (USB2E3373)
Strobe/Lamp Enabled: No (USB2E3373)
Correct for Detector Non-linearity: No (USB2E3373)
Correct for Stray Light: No (USB2E3373)
Number of Pixels in Processed Spectrum: 2048
>>>>>Begin Processed Spectral Data<<<<<
178.53	0.000
178.91	0.000
179.29	200.000
179.67	-150.000
180.04	-71.429
180.42	275.000
180.80	-200.000
181.18	133.333
181.56	500.000
181.94	0.000
182.31	200.000
182.69	60.000
183.07	0.000
183.45	-60.000
183.83	50.000
184.20	18.182
184.58	88.889
184.96	-75.000
185.34	-133.333
185.72	200.000
186.09	-0.000
186.47	0.000
186.85	100.000
187.23	44.444
187.61	300.000
187.98	166.667
188.36	144.444
188.74	333.333
189.12	117.647
189.49	111.111
189.87	0.000
190.25	78.571
190.63	350.000
191.00	133.333
191.38	21.053
191.76	850.000
192.14	-275.000
192.51	700.000
192.89	144.444
193.27	14.286
193.65	100.000
194.02	9.091
194.40	90.000
194.78	37.500
195.15	25.000
195.53	25.000
195.91	-50.000
196.29	150.000
196.66	53.846
197.04	-57.143
197.42	-77.778
197.79	-133.333
198.17	-38.462
198.55	600.000
198.92	-33.333
199.30	200.000
199.68	40.000
200.05	66.667
200.43	0.000
200.81	300.000
201.18	133.333
201.56	-500.000
201.94	50.000
202.31	-166.667
202.69	0.000
203.07	-350.000
203.44	1000.000
203.82	0.000
204.19	57.143
204.57	-433.333
204.95	100.000
205.32	120.000
205.70	128.571
206.08	25.000
206.45	344.444
206.83	64.286
207.20	142.857
207.58	-100.000
207.96	0.000
208.33	10.000
208.71	75.000
209.08	116.667
209.46	0.000
209.84	-40.000
210.21	0.000
210.59	171.429
210.96	183.333
211.34	-250.000
211.71	93.333
212.09	-42.857
212.46	200.000
212.84	0.000
213.22	190.000
213.59	-300.000
213.97	30.769
214.34	81.818
214.72	16.667
215.09	225.000
215.47	46.154
215.84	27.273
216.22	33.333
216.59	125.000
216.97	450.000
217.34	175.000
217.72	-120.000
218.09	112.500
218.47	37.500
218.84	700.000
219.22	44.444
219.59	160.000
219.97	133.333
220.34	75.000
220.72	42.857
221.09	250.000
221.47	500.000
221.84	150.000
222.22	-450.000
222.59	36.364
222.97	41.667
223.34	33.333
223.72	-14.286
224.09	14.286
224.46	50.000
224.84	100.000
225.21	90.000
225.59	80.000
225.96	500.000
226.34	200.000
226.71	0.000
227.08	33.333
227.46	125.000
227.83	-550.000
228.21	55.556
228.58	90.909
228.95	100.000
229.33	30.000
229.70	112.500
230.08	-62.500
230.45	28.571
230.82	100.000
231.20	20.000
231.57	71.429
231.95	128.571
232.32	-50.000
232.69	121.429
233.07	100.000
233.44	200.000
233.81	60.000
234.19	111.111
234.56	94.118
234.93	-100.000
235.31	400.000
235.68	20.000
236.05	76.923
236.43	55.000
236.80	35.294
237.17	53.125
237.55	30.000
237.92	74.074
238.29	66.667
238.67	43.333
239.04	32.353
239.41	9.756
239.79	46.667
240.16	41.463
240.53	31.579
240.91	41.304
241.28	19.048
241.65	44.643
242.02	39.726
242.40	40.000
242.77	42.373
243.14	31.818
243.51	40.000
243.89	44.828
244.26	33.333
244.63	32.143
245.00	37.113
245.38	40.206
245.75	38.202
246.12	32.759
246.49	34.711
246.87	43.269
247.24	31.092
247.61	26.316
247.98	34.146
248.36	39.375
248.73	34.211
249.10	32.468
249.47	32.911
249.84	36.601
250.22	32.353
250.59	40.523
250.96	32.864
251.33	30.233
251.70	38.824
252.08	35.025
252.45	33.663
252.82	39.196
253.19	31.336
253.56	30.374
253.94	37.387
254.31	36.087
254.68	39.035
255.05	31.890
255.42	39.301
255.79	30.116
256.16	33.852
256.54	32.463
256.91	35.361
257.28	28.625
257.65	33.708
258.02	30.851
258.39	34.007
258.76	37.729
259.14	35.880
259.51	37.217
259.88	33.677
260.25	32.026
260.62	36.111
260.99	34.237
261.36	35.959
261.73	31.962
262.10	35.866
262.47	33.436
262.85	36.991
263.22	34.769
263.59	30.530
263.96	36.646
264.33	33.939
264.70	33.333
265.07	30.952
265.44	32.295
265.81	30.508
266.18	31.421
266.55	33.933
266.92	34.974
267.29	31.593
267.66	34.271
268.03	33.508
268.40	33.420
268.77	35.561
269.14	32.854
269.51	35.733
269.88	33.167
270.25	29.082
270.62	28.537
270.99	28.900
271.36	32.763
271.73	31.221
272.10	33.333
272.47	32.151
272.84	33.416
273.21	32.251
273.58	32.530
273.95	30.892
274.32	33.949
274.69	30.090
275.06	32.143
275.43	30.839
275.80	32.009
276.17	33.563
276.54	31.478
276.91	31.798
277.28	30.786
277.65	31.405
278.02	31.064
278.39	33.698
278.76	30.398
279.13	29.046
279.50	31.303
279.87	31.965
280.23	32.043
280.60	30.799
280.97	31.111
281.34	27.308
281.71	35.318
282.08	29.857
282.45	29.354
282.82	29.537
283.19	30.561
283.56	30.058
283.92	28.463
284.29	29.615
284.66	27.519
285.03	30.255
285.40	30.246
285.77	28.471
286.14	28.700
286.51	31.734
286.87	27.605
287.24	27.993
287.61	29.806
287.98	30.000
288.35	27.036
288.72	30.473
289.08	27.431
289.45	30.053
289.82	26.748
290.19	25.427
290.56	26.072
290.93	27.441
291.29	26.194
291.66	26.929
292.03	26.794
292.40	27.258
292.77	24.402
293.13	22.565
293.50	24.431
293.87	25.344
294.24	24.111
294.60	23.100
294.97	24.554
295.34	22.546
295.71	23.994
296.08	23.767
296.44	22.333
296.81	23.333
297.18	23.188
297.55	23.848
297.91	24.384
298.28	24.142
298.65	21.981
299.02	20.755
299.38	21.341
299.75	21.379
300.12	20.157
300.48	23.057
300.85	22.433
301.22	21.169
301.59	21.447
301.95	23.165
302.32	21.790
302.69	21.144
303.05	21.287
303.42	22.291
303.79	21.729
304.15	21.744
304.52	19.976
304.89	19.532
305.25	20.097
305.62	18.786
305.99	20.702
306.35	19.306
306.72	19.685
307.09	21.323
307.45	19.977
307.82	19.444
308.19	21.487
308.55	21.047
308.92	20.370
309.29	18.771
309.65	19.914
310.02	19.252
310.38	20.088
310.75	20.437
311.12	20.452
311.48	19.194
311.85	19.162
312.22	19.620
312.58	19.745
312.95	19.637
313.31	20.083
313.68	21.047
314.05	20.204
314.41	22.474
314.78	21.031
315.14	22.405
315.51	23.810
315.87	21.414
316.24	24.368
316.61	24.114
316.97	23.413
317.34	23.340
317.70	24.474
318.07	23.365
318.43	27.157
318.80	25.095
319.16	28.223
319.53	27.920
319.89	27.854
320.26	28.239
320.62	32.297
320.99	30.585
321.35	32.477
321.72	33.126
322.08	33.031
322.45	34.112
322.81	35.953
323.18	34.642
323.54	37.838
323.91	38.656
324.27	41.211
324.64	42.135
325.00	43.978
325.37	44.720
325.73	43.518
326.10	46.140
326.46	48.789
326.83	49.519
327.19	50.044
327.56	53.606
327.92	54.577
328.29	55.982
328.65	56.415
329.01	56.893
329.38	59.355
329.74	59.868
330.11	59.870
330.47	61.874
330.84	63.558
331.20	66.825
331.56	63.611
331.93	67.032
332.29	67.919
332.66	67.511
333.02	68.030
333.38	69.661
333.75	71.978
334.11	68.935
334.48	71.804
334.84	72.527
335.20	71.272
335.57	70.354
335.93	72.448
336.29	74.033
336.66	74.478
337.02	73.234
337.38	73.148
337.75	75.364
338.11	75.654
338.47	76.369
338.84	75.139
339.20	75.229
339.56	76.789
339.93	75.649
340.29	76.697
340.65	77.419
341.02	77.748
341.38	76.372
341.74	77.120
342.11	75.563
342.47	77.758
342.83	78.114
343.20	78.310
343.56	79.043
343.92	78.388
344.28	79.078
344.65	78.670
345.01	80.640
345.37	77.292
345.73	77.573
346.10	80.846
346.46	77.965
346.82	77.660
347.19	77.639
347.55	80.117
347.91	80.097
348.27	78.658
348.63	82.624
349.00	80.640
349.36	80.881
349.72	80.763
350.08	78.934
350.45	80.208
350.81	81.478
351.17	79.886
351.53	82.531
351.89	80.925
352.26	80.240
352.62	81.532
352.98	79.438
353.34	79.952
353.70	82.362
354.07	82.661
354.43	82.466
354.79	83.815
355.15	82.460
355.51	82.437
355.87	83.252
356.24	83.442
356.60	83.266
356.96	83.571
357.32	84.744
357.68	84.597
358.04	85.137
358.40	84.727
358.77	86.204
359.13	84.788
359.49	83.282
359.85	85.569
360.21	86.443
360.57	86.381
360.93	86.157
361.29	86.934
361.66	89.577
362.02	87.652
362.38	87.662
362.74	87.812
363.10	90.068
363.46	89.400
363.82	90.383
364.18	88.635
364.54	88.750
364.90	90.036
365.26	89.738
365.62	91.825
365.98	91.862
366.35	91.042
366.71	91.870
367.07	92.090
367.43	94.033
367.79	93.357
368.15	92.965
368.51	93.664
368.87	93.108
369.23	92.852
369.59	95.117
369.95	96.188
370.31	94.581
370.67	95.149
371.03	96.117
371.39	96.864
371.75	97.802
372.11	95.078
372.47	99.926
372.83	98.084
373.19	97.575
373.55	101.083
373.91	98.128
374.27	99.362
374.63	99.497
374.99	100.993
375.35	101.184
375.71	102.168
376.07	101.756
376.42	103.265
376.78	103.356
377.14	102.708
377.50	102.722
377.86	104.150
378.22	104.403
378.58	106.603
378.94	106.364
379.30	104.803
379.66	107.586
380.02	107.174
380.38	106.817
380.74	106.104
381.09	107.914
381.45	109.235
381.81	108.575
382.17	108.312
382.53	108.682
382.89	110.986
383.25	110.828
383.61	112.256
383.97	111.429
384.32	109.631
384.68	111.889
385.04	111.826
385.40	111.388
385.76	114.591
386.12	115.136
386.48	114.879
386.83	114.204
387.19	114.164
387.55	115.621
387.91	115.220
388.27	114.042
388.62	115.293
388.98	115.531
389.34	114.928
389.70	117.091
390.06	116.048
390.42	117.228
390.77	117.528
391.13	116.267
391.49	119.728
391.85	120.663
392.20	117.326
392.56	119.326
392.92	119.084
393.28	119.281
393.64	118.318
393.99	120.564
394.35	119.924
394.71	119.987
395.07	118.730
395.42	119.369
395.78	123.062
396.14	121.627
396.50	123.843
396.85	123.310
397.21	124.561
397.57	121.505
397.92	121.630
398.28	123.793
398.64	120.843
399.00	122.573
399.35	123.307
399.71	121.137
400.07	124.486
400.42	123.684
400.78	123.576
401.14	124.501
401.49	124.122
401.85	125.289
402.21	124.518
402.57	125.938
402.92	124.279
403.28	124.749
403.63	126.545
403.99	125.446
404.35	126.671
404.70	123.393
405.06	125.617
405.42	124.425
405.77	125.915
406.13	127.998
406.49	125.163
406.84	128.362
407.20	128.778
407.55	127.238
407.91	128.810
408.27	127.597
408.62	126.769
408.98	125.200
409.34	127.695
409.69	128.036
410.05	125.739
410.40	126.914
410.76	127.322
411.11	129.375
411.47	129.323
411.83	127.056
412.18	128.636
412.54	127.965
412.89	126.601
413.25	129.723
413.60	128.509
413.96	126.626
414.31	127.561
414.67	127.389
415.03	127.430
415.38	129.243
415.74	130.554
416.09	129.458
416.45	129.642
416.80	129.478
417.16	132.528
417.51	129.980
417.87	130.117
418.22	132.189
418.58	131.371
418.93	129.781
419.29	128.105
419.64	132.664
420.00	131.486
420.35	129.493
420.71	132.139
421.06	131.614
421.42	132.752
421.77	132.197
422.12	132.009
422.48	130.482
422.83	131.845
423.19	130.813
423.54	132.510
423.90	131.743
424.25	134.156
424.61	133.537
424.96	131.533
425.31	137.204
425.67	137.031
426.02	135.571
426.38	137.070
426.73	136.138
427.09	137.848
427.44	135.471
427.79	134.178
428.15	135.255
428.50	135.554
428.85	134.029
429.21	135.314
429.56	135.148
429.92	134.412
430.27	132.180
430.62	133.821
430.98	136.146
431.33	134.017
431.68	135.322
432.04	136.892
432.39	135.368
432.74	134.937
433.10	137.299
433.45	136.619
433.80	138.363
434.16	137.452
434.51	135.054
434.86	137.631
435.22	136.960
435.57	138.054
435.92	136.527
436.28	137.448
436.63	136.052
436.98	136.790
437.34	138.657
437.69	139.296
438.04	136.923
438.39	136.591
438.75	141.530
439.10	138.144
439.45	140.170
439.81	139.511
440.16	142.221
440.51	139.224
440.86	141.752
441.22	136.369
441.57	141.280
441.92	138.825
442.27	139.634
442.63	139.240
442.98	137.565
443.33	136.338
443.68	139.523
444.03	138.400
444.39	138.711
444.74	141.416
445.09	139.198
445.44	140.228
445.79	141.155
446.15	137.004
446.50	136.328
446.85	138.735
447.20	138.947
447.55	138.002
447.91	139.086
448.26	139.784
448.61	138.803
448.96	140.562
449.31	140.173
449.66	138.850
450.02	137.878
450.37	140.249
450.72	137.915
451.07	138.228
451.42	137.765
451.77	139.180
452.12	136.483
452.47	137.218
452.83	138.634
453.18	138.014
453.53	140.329
453.88	139.587
454.23	138.660
454.58	139.798
454.93	138.080
455.28	135.302
455.63	138.252
455.98	136.921
456.34	138.570
456.69	138.247
457.04	139.509
457.39	137.242
457.74	138.815
458.09	135.668
458.44	137.800
458.79	135.742
459.14	139.073
459.49	136.657
459.84	139.143
460.19	137.318
460.54	136.491
460.89	137.443
461.24	136.335
461.59	135.154
461.94	135.157
462.29	137.214
462.64	136.611
462.99	136.561
463.34	136.996
463.69	134.813
464.04	137.167
464.39	134.688
464.74	134.785
465.09	134.311
465.44	136.065
465.79	132.313
466.14	133.352
466.49	134.503
466.84	134.087
467.19	134.293
467.54	131.992
467.89	135.629
468.24	135.888
468.59	134.857
468.94	133.714
469.29	134.820
469.64	132.809
469.99	137.912
470.34	134.676
470.68	138.106
471.03	135.740
471.38	134.165
471.73	135.504
472.08	133.175
472.43	136.040
472.78	133.653
473.13	134.694
473.48	134.202
473.83	130.448
474.17	135.233
474.52	133.504
474.87	134.182
475.22	135.570
475.57	132.863
475.92	133.077
476.27	132.654
476.61	133.970
476.96	128.779
477.31	131.747
477.66	130.506
478.01	134.250
478.36	130.447
478.70	134.149
479.05	131.978
479.40	131.691
479.75	129.771
480.10	130.517
480.45	131.800
480.79	134.189
481.14	132.736
481.49	129.458
481.84	131.950
482.19	130.496
482.53	131.511
482.88	130.119
483.23	129.750
483.58	130.660
483.92	131.946
484.27	129.581
484.62	128.956
484.97	129.395
485.31	126.337
485.66	124.476
486.01	122.275
486.36	120.497
486.70	120.847
487.05	122.582
487.40	122.802
487.75	124.676
488.09	124.073
488.44	126.169
488.79	128.166
489.13	130.529
489.48	130.611
489.83	128.744
490.17	128.809
490.52	130.485
490.87	127.950
491.22	129.274
491.56	130.787
491.91	128.442
492.26	130.919
492.60	128.839
492.95	131.431
493.30	128.627
493.64	132.024
493.99	130.483
494.34	130.194
494.68	130.429
495.03	129.148
495.37	129.392
495.72	132.660
496.07	130.537
496.41	128.585
496.76	129.618
497.11	129.110
497.45	128.067
497.80	130.121
498.14	130.104
498.49	130.269
498.84	128.293
499.18	130.673
499.53	128.671
499.87	128.016
500.22	129.080
500.56	130.509
500.91	127.359
501.26	128.670
501.60	130.152
501.95	127.754
502.29	129.346
502.64	129.730
502.98	128.515
503.33	128.434
503.67	127.518
504.02	128.055
504.36	130.430
504.71	127.121
505.06	128.686
505.40	127.970
505.75	131.082
506.09	128.332
506.44	128.439
506.78	129.082
507.13	129.938
507.47	128.094
507.82	128.526
508.16	129.002
508.51	129.696
508.85	130.194
509.19	129.537
509.54	129.437
509.88	128.533
510.23	131.630
510.57	129.503
510.92	127.239
511.26	130.333
511.61	131.298
511.95	130.027
512.30	130.488
512.64	129.716
512.98	130.488
513.33	127.756
513.67	130.415
514.02	131.293
514.36	131.486
514.70	132.517
515.05	132.256
515.39	131.464
515.74	134.671
516.08	133.473
516.42	132.686
516.77	132.709
517.11	134.362
517.46	132.615
517.80	130.810
518.14	132.762
518.49	130.769
518.83	133.232
519.17	131.898
519.52	129.544
519.86	131.873
520.20	133.171
520.55	133.521
520.89	132.622
521.23	133.882
521.58	133.817
521.92	132.564
522.26	132.466
522.61	134.935
522.95	136.026
523.29	131.321
523.64	132.719
523.98	135.839
524.32	132.732
524.66	133.675
525.01	134.156
525.35	132.728
525.69	137.374
526.04	134.259
526.38	132.101
526.72	131.589
527.06	133.722
527.41	134.828
527.75	133.713
528.09	133.289
528.43	135.517
528.78	134.521
529.12	132.194
529.46	133.268
529.80	129.006
530.15	134.257
530.49	136.162
530.83	135.705
531.17	132.505
531.51	133.447
531.86	132.631
532.20	135.073
532.54	132.267
532.88	133.539
533.22	133.535
533.57	132.700
533.91	129.373
534.25	131.250
534.59	131.238
534.93	129.578
535.27	130.647
535.62	130.979
535.96	132.094
536.30	130.607
536.64	133.563
536.98	132.613
537.32	135.491
537.66	133.590
538.01	133.566
538.35	133.703
538.69	131.425
539.03	130.827
539.37	130.619
539.71	132.106
540.05	129.939
540.39	134.695
540.73	132.775
541.07	134.876
541.42	128.696
541.76	133.861
542.10	132.485
542.44	132.801
542.78	130.902
543.12	132.005
543.46	130.807
543.80	133.518
544.14	129.172
544.48	131.113
544.82	132.809
545.16	133.743
545.50	131.242
545.84	134.065
546.18	131.915
546.52	130.714
546.86	132.351
547.20	132.618
547.54	132.438
547.88	131.929
548.22	129.586
548.56	130.211
548.90	133.288
549.24	130.096
549.58	131.735
549.92	130.236
550.26	131.868
550.60	133.383
550.94	135.101
551.28	134.699
551.62	135.154
551.96	133.459
552.30	135.234
552.64	131.312
552.98	132.208
553.32	133.024
553.66	132.148
554.00	136.642
554.34	135.229
554.68	132.891
555.02	136.607
555.36	133.957
555.69	133.773
556.03	130.193
556.37	131.246
556.71	133.646
557.05	135.720
557.39	133.011
557.73	136.357
558.07	135.445
558.41	137.060
558.75	135.074
559.08	135.461
559.42	137.698
559.76	139.151
560.10	134.786
560.44	134.326
560.78	133.916
561.12	134.344
561.45	135.067
561.79	134.034
562.13	136.693
562.47	135.468
562.81	133.501
563.15	132.228
563.48	134.936
563.82	133.562
564.16	135.237
564.50	132.635
564.84	133.400
565.17	132.998
565.51	137.363
565.85	134.842
566.19	131.698
566.52	134.316
566.86	134.062
567.20	131.382
567.54	134.063
567.88	133.509
568.21	132.127
568.55	130.000
568.89	129.671
569.23	130.958
569.56	128.065
569.90	128.177
570.24	123.707
570.57	125.782
570.91	124.329
571.25	122.493
571.59	121.021
571.92	119.526
572.26	121.558
572.60	120.651
572.93	119.580
573.27	120.909
573.61	121.420
573.95	121.655
574.28	119.783
574.62	118.688
574.96	118.025
575.29	118.476
575.63	116.092
575.97	119.002
576.30	119.455
576.64	118.358
576.98	119.923
577.31	119.735
577.65	119.908
577.98	118.343
578.32	116.184
578.66	115.818
578.99	115.863
579.33	117.337
579.67	116.276
580.00	117.873
580.34	118.483
580.67	118.299
581.01	119.068
581.35	117.528
581.68	117.556
582.02	116.627
582.35	117.642
582.69	116.323
583.02	117.176
583.36	118.500
583.70	120.353
584.03	122.491
584.37	123.235
584.70	120.934
585.04	118.420
585.37	119.582
585.71	120.316
586.04	120.348
586.38	120.139
586.72	121.291
587.05	122.877
587.39	122.812
587.72	124.139
588.06	122.142
588.39	122.159
588.73	123.230
589.06	124.690
589.40	123.712
589.73	124.206
590.07	126.473
590.40	126.625
590.73	129.736
591.07	127.778
591.40	127.783
591.74	127.692
592.07	128.989
592.41	128.269
592.74	124.532
593.08	124.345
593.41	124.481
593.75	123.847
594.08	123.584
594.41	123.799
594.75	124.962
595.08	125.388
595.42	126.721
595.75	127.375
596.09	127.991
596.42	126.623
596.75	128.242
597.09	128.064
597.42	129.088
597.75	129.959
598.09	127.976
598.42	125.903
598.76	127.284
599.09	127.163
599.42	123.001
599.76	125.169
600.09	124.774
600.42	123.237
600.76	123.774
601.09	125.916
601.42	124.246
601.76	125.526
602.09	128.259
602.42	128.138
602.76	128.735
603.09	127.782
603.42	130.351
603.76	127.137
604.09	128.109
604.42	127.876
604.76	130.174
605.09	129.022
605.42	128.713
605.75	127.320
606.09	128.068
606.42	126.355
606.75	127.100
607.09	127.253
607.42	127.514
607.75	129.307
608.08	126.325
608.42	125.948
608.75	130.265
609.08	131.988
609.41	132.589
609.75	131.401
610.08	130.754
610.41	129.420
610.74	130.765
611.07	133.282
611.41	131.915
611.74	133.689
612.07	131.424
612.40	133.206
612.73	133.785
613.07	132.846
613.40	130.689
613.73	134.191
614.06	132.666
614.39	131.923
614.72	131.373
615.06	133.687
615.39	131.223
615.72	130.248
616.05	131.844
616.38	130.028
616.71	134.067
617.05	135.825
617.38	134.695
617.71	136.981
618.04	135.746
618.37	135.876
618.70	138.218
619.03	140.417
