SpectraSuite Data File
++++++++++++++++++++++++++++++++++++
Date: Fri May 15 20:08:22 PDT 2015
User: schluterlab
Dark Spectrum Present: Yes
Reference Spectrum Present: Yes
Number of Sampled Component Spectra: 1
Spectrometers: USB2E3373
Integration Time (usec): 3000 (USB2E3373)
Spectra Averaged: 3 (USB2E3373)
Boxcar Smoothing: 0 (USB2E3373)
Correct for Electrical Dark: No (USB2E3373)
Strobe/Lamp Enabled: No (USB2E3373)
Correct for Detector Non-linearity: No (USB2E3373)
Correct for Stray Light: No (USB2E3373)
Number of Pixels in Processed Spectrum: 2048
>>>>>Begin Processed Spectral Data<<<<<
178.53	0.000
178.91	0.000
179.29	112.500
179.67	-550.000
180.04	-57.143
180.42	275.000
180.80	-800.000
181.18	-100.000
181.56	400.000
181.94	100.000
182.31	-100.000
182.69	40.000
183.07	-66.667
183.45	-40.000
183.83	133.333
184.20	-18.182
184.58	133.333
184.96	-150.000
185.34	100.000
185.72	-450.000
186.09	46.154
186.47	-1000.000
186.85	50.000
187.23	144.444
187.61	-1200.000
187.98	-133.333
188.36	88.889
188.74	-133.333
189.12	47.059
189.49	11.111
189.87	0.000
190.25	42.857
190.63	350.000
191.00	0.000
191.38	0.000
191.76	200.000
192.14	150.000
192.51	200.000
192.89	11.111
193.27	-57.143
193.65	250.000
194.02	145.455
194.40	50.000
194.78	-175.000
195.15	-8.333
195.53	-137.500
195.91	250.000
196.29	-125.000
196.66	53.846
197.04	71.429
197.42	-122.222
197.79	-666.667
198.17	-84.615
198.55	1700.000
198.92	33.333
199.30	-1200.000
199.68	-140.000
200.05	-66.667
200.43	0.000
200.81	-133.333
201.18	166.667
201.56	1000.000
201.94	150.000
202.31	-133.333
202.69	-160.000
203.07	200.000
203.44	-100.000
203.82	0.000
204.19	71.429
204.57	-466.667
204.95	50.000
205.32	50.000
205.70	-100.000
206.08	-125.000
206.45	144.444
206.83	64.286
207.20	-128.571
207.58	-400.000
207.96	-433.333
208.33	-140.000
208.71	-400.000
209.08	-200.000
209.46	-800.000
209.84	-80.000
210.21	-400.000
210.59	142.857
210.96	-100.000
211.34	-25.000
211.71	46.667
212.09	-171.429
212.46	-1300.000
212.84	0.000
213.22	90.000
213.59	150.000
213.97	53.846
214.34	-90.909
214.72	66.667
215.09	200.000
215.47	7.692
215.84	-54.545
216.22	-66.667
216.59	0.000
216.97	300.000
217.34	75.000
217.72	0.000
218.09	75.000
218.47	87.500
218.84	-1400.000
219.22	44.444
219.59	-160.000
219.97	600.000
220.34	300.000
220.72	142.857
221.09	-200.000
221.47	-100.000
221.84	-250.000
222.22	-1100.000
222.59	54.545
222.97	33.333
223.34	-100.000
223.72	-21.429
224.09	4.762
224.46	0.000
224.84	366.667
225.21	-40.000
225.59	-6.667
225.96	150.000
226.34	275.000
226.71	-200.000
227.08	-133.333
227.46	-75.000
227.83	-850.000
228.21	77.778
228.58	100.000
228.95	-25.000
229.33	150.000
229.70	6.250
230.08	-125.000
230.45	-42.857
230.82	0.000
231.20	-40.000
231.57	57.143
231.95	85.714
232.32	-40.000
232.69	0.000
233.07	-133.333
233.44	-160.000
233.81	-60.000
234.19	-77.778
234.56	-41.176
234.93	400.000
235.31	-25.000
235.68	-180.000
236.05	-69.231
236.43	-50.000
236.80	-47.059
237.17	3.125
237.55	40.000
237.92	0.000
238.29	22.222
238.67	16.667
239.04	0.000
239.41	-29.268
239.79	-23.333
240.16	4.878
240.53	0.000
240.91	-8.696
241.28	3.175
241.65	14.286
242.02	27.397
242.40	18.333
242.77	13.559
243.14	-6.061
243.51	-1.250
243.89	10.345
244.26	-1.149
244.63	4.762
245.00	1.031
245.38	11.340
245.75	-3.371
246.12	7.759
246.49	15.702
246.87	22.115
247.24	4.202
247.61	0.000
247.98	8.130
248.36	2.500
248.73	5.263
249.10	6.494
249.47	8.861
249.84	3.922
250.22	8.235
250.59	8.497
250.96	17.371
251.33	4.651
251.70	10.000
252.08	8.629
252.45	6.436
252.82	6.533
253.19	8.756
253.56	3.271
253.94	7.658
254.31	10.870
254.68	6.579
255.05	9.055
255.42	12.227
255.79	11.969
256.16	7.004
256.54	11.194
256.91	9.125
257.28	9.294
257.65	12.360
258.02	7.092
258.39	11.785
258.76	10.256
259.14	12.957
259.51	7.120
259.88	5.842
260.25	8.497
260.62	7.639
260.99	8.475
261.36	4.452
261.73	7.595
262.10	10.334
262.47	8.896
262.85	5.016
263.22	9.538
263.59	14.330
263.96	9.627
264.33	6.667
264.70	11.012
265.07	8.631
265.44	9.065
265.81	5.932
266.18	7.923
266.55	11.825
266.92	9.326
267.29	10.705
267.66	6.138
268.03	10.209
268.40	8.094
268.77	9.626
269.14	8.873
269.51	12.339
269.88	10.973
270.25	7.143
270.62	6.829
270.99	8.440
271.36	9.535
271.73	10.094
272.10	11.192
272.47	8.747
272.84	7.673
273.21	11.137
273.58	9.880
273.95	9.153
274.32	8.314
274.69	7.919
275.06	8.482
275.43	5.442
275.80	7.726
276.17	8.046
276.54	10.921
276.91	9.430
277.28	6.987
277.65	11.777
278.02	8.511
278.39	8.315
278.76	9.015
279.13	8.506
279.50	6.723
279.87	10.151
280.23	6.452
280.60	11.306
280.97	9.495
281.34	7.885
281.71	11.088
282.08	7.975
282.45	8.023
282.82	8.494
283.19	9.478
283.56	9.441
283.92	8.349
284.29	4.231
284.66	6.395
285.03	8.055
285.40	8.129
285.77	9.315
286.14	7.581
286.51	9.594
286.87	8.958
287.24	7.919
287.61	7.231
287.98	8.596
288.35	6.759
288.72	10.683
289.08	7.292
289.45	8.260
289.82	9.266
290.19	8.020
290.56	7.204
290.93	7.576
291.29	5.393
291.66	9.921
292.03	8.134
292.40	7.581
292.77	6.061
293.13	5.357
293.50	5.008
293.87	6.260
294.24	7.264
294.60	8.346
294.97	7.887
295.34	5.061
295.71	6.408
296.08	7.324
296.44	4.979
296.81	6.944
297.18	5.507
297.55	7.588
297.91	6.438
298.28	8.047
298.65	7.463
299.02	6.469
299.38	4.514
299.75	7.862
300.12	5.497
300.48	6.061
300.85	7.605
301.22	5.325
301.59	5.395
301.95	8.228
302.32	6.874
302.69	6.095
303.05	6.559
303.42	6.974
303.79	6.075
304.15	5.735
304.52	5.470
304.89	5.848
305.25	6.416
305.62	4.784
305.99	5.029
306.35	5.549
306.72	5.737
307.09	6.385
307.45	6.315
307.82	5.556
308.19	5.691
308.55	6.979
308.92	6.318
309.29	4.693
309.65	5.059
310.02	6.381
310.38	5.818
310.75	5.246
311.12	6.028
311.48	5.514
311.85	5.969
312.22	4.219
312.58	5.626
312.95	5.229
313.31	4.762
313.68	5.236
314.05	4.592
314.41	6.495
314.78	4.021
315.14	5.242
315.51	6.418
315.87	4.816
316.24	7.482
316.61	5.610
316.97	6.052
317.34	5.566
317.70	5.258
318.07	6.154
318.43	5.196
318.80	6.061
319.16	5.273
319.53	6.553
319.89	4.823
320.26	5.567
320.62	6.419
320.99	3.653
321.35	5.755
321.72	7.165
322.08	5.539
322.45	6.294
322.81	6.582
323.18	5.594
323.54	6.274
323.91	5.550
324.27	5.957
324.64	5.618
325.00	6.661
325.37	6.520
325.73	5.349
326.10	6.085
326.46	6.906
326.83	5.599
327.19	6.277
327.56	7.211
327.92	5.722
328.29	5.268
328.65	6.226
329.01	6.801
329.38	7.189
329.74	5.571
330.11	5.931
330.47	6.122
330.84	6.154
331.20	7.034
331.56	6.389
331.93	6.941
332.29	7.241
332.66	6.606
333.02	6.784
333.38	6.416
333.75	6.777
334.11	6.983
334.48	7.253
334.84	7.418
335.20	5.855
335.57	6.074
335.93	6.956
336.29	7.090
336.66	6.903
337.02	5.948
337.38	5.278
337.75	6.818
338.11	7.214
338.47	6.752
338.84	6.562
339.20	6.581
339.56	6.514
339.93	6.625
340.29	6.514
340.65	6.183
341.02	7.092
341.38	6.372
341.74	6.007
342.11	6.153
342.47	6.050
342.83	6.315
343.20	6.446
343.56	6.000
343.92	7.086
344.28	6.149
344.65	5.959
345.01	5.099
345.37	6.056
345.73	6.444
346.10	6.816
346.46	6.812
346.82	6.137
347.19	6.234
347.55	6.266
347.91	6.796
348.27	7.357
348.63	6.303
349.00	6.563
349.36	6.068
349.72	6.633
350.08	6.393
350.45	7.342
350.81	5.980
351.17	5.863
351.53	6.286
351.89	5.285
352.26	6.000
352.62	6.613
352.98	6.506
353.34	5.797
353.70	6.472
354.07	6.452
354.43	5.524
354.79	4.542
355.15	7.302
355.51	6.646
355.87	6.149
356.24	5.057
356.60	6.386
356.96	6.825
357.32	6.230
357.68	6.333
358.04	5.654
358.40	6.029
358.77	6.459
359.13	5.765
359.49	6.394
359.85	6.630
360.21	5.981
360.57	5.509
360.93	6.657
361.29	4.985
361.66	6.975
362.02	7.121
362.38	6.245
362.74	5.299
363.10	6.922
363.46	5.337
363.82	7.288
364.18	6.052
364.54	5.441
364.90	6.308
365.26	6.114
365.62	6.642
365.98	6.158
366.35	6.555
366.71	6.504
367.07	6.386
367.43	5.895
367.79	6.148
368.15	6.102
368.51	5.681
368.87	5.958
369.23	5.632
369.59	5.394
369.95	5.865
370.31	6.214
370.67	6.343
371.03	5.601
371.39	5.908
371.75	6.300
372.11	5.849
372.47	5.917
372.83	5.820
373.19	7.204
373.55	5.560
373.91	5.760
374.27	6.733
374.63	6.174
374.99	6.099
375.35	6.616
375.71	5.804
376.07	6.180
376.42	6.122
376.78	6.510
377.14	6.093
377.50	6.308
377.86	6.827
378.22	6.509
378.58	5.705
378.94	6.427
379.30	6.550
379.66	6.708
380.02	6.193
380.38	5.782
380.74	5.925
381.09	6.810
381.45	5.749
381.81	6.663
382.17	6.853
382.53	6.433
382.89	6.277
383.25	6.658
383.61	6.280
383.97	6.095
384.32	5.253
384.68	7.245
385.04	5.944
385.40	6.161
385.76	7.107
386.12	6.986
386.48	7.088
386.83	5.707
387.19	6.349
387.55	7.465
387.91	6.663
388.27	6.044
388.62	7.048
388.98	6.384
389.34	6.933
389.70	7.085
390.06	6.671
390.42	6.088
390.77	6.540
391.13	6.620
391.49	6.468
391.85	6.628
392.20	6.968
392.56	6.421
392.92	7.340
393.28	7.488
393.64	7.147
393.99	7.524
394.35	6.199
394.71	6.705
395.07	6.725
395.42	6.982
395.78	6.515
396.14	7.440
396.50	7.292
396.85	6.439
397.21	7.143
397.57	7.524
397.92	6.771
398.28	7.126
398.64	5.783
399.00	7.054
399.35	6.546
399.71	7.582
400.07	7.255
400.42	6.977
400.78	6.981
401.14	6.836
401.49	6.552
401.85	7.191
402.21	6.687
402.57	7.000
402.92	5.897
403.28	7.268
403.63	7.314
403.99	6.760
404.35	7.245
404.70	6.845
405.06	6.345
405.42	7.334
405.77	6.798
406.13	6.170
406.49	7.578
406.84	7.213
407.20	7.044
407.55	6.825
407.91	5.949
408.27	6.692
408.62	8.246
408.98	7.517
409.34	7.683
409.69	6.331
410.05	7.389
410.40	7.346
410.76	7.780
411.11	7.000
411.47	7.890
411.83	6.654
412.18	7.143
412.54	7.553
412.89	6.281
413.25	7.100
413.60	7.453
413.96	6.933
414.31	7.500
414.67	7.377
415.03	7.190
415.38	7.115
415.74	7.883
416.09	7.446
416.45	7.225
416.80	7.138
417.16	7.390
417.51	7.528
417.87	7.497
418.22	7.513
418.58	7.492
418.93	7.649
419.29	6.978
419.64	7.712
420.00	7.746
420.35	7.284
420.71	7.959
421.06	8.165
421.42	7.632
421.77	7.861
422.12	7.208
422.48	7.417
422.83	7.251
423.19	7.675
423.54	7.055
423.90	7.420
424.25	7.118
424.61	7.834
424.96	7.724
425.31	8.030
425.67	8.216
426.02	8.304
426.38	7.389
426.73	7.446
427.09	7.595
427.44	8.588
427.79	7.484
428.15	8.010
428.50	8.116
428.85	7.310
429.21	7.810
429.56	7.547
429.92	8.218
430.27	8.471
430.62	7.318
430.98	7.643
431.33	8.254
431.68	8.582
432.04	7.490
432.39	7.872
432.74	7.276
433.10	8.391
433.45	8.005
433.80	7.661
434.16	7.535
434.51	7.903
434.86	7.782
435.22	7.684
435.57	7.486
435.92	8.144
436.28	8.050
436.63	8.043
436.98	7.358
437.34	7.260
437.69	7.990
438.04	7.977
438.39	7.575
438.75	8.379
439.10	7.810
439.45	8.095
439.81	7.401
440.16	8.017
440.51	8.776
440.86	8.701
441.22	9.106
441.57	8.278
441.92	8.919
442.27	8.259
442.63	8.672
442.98	8.443
443.33	8.292
443.68	8.064
444.03	8.346
444.39	8.362
444.74	8.473
445.09	8.408
445.44	7.749
445.79	9.696
446.15	8.590
446.50	7.377
446.85	9.086
447.20	8.342
447.55	8.594
447.91	8.178
448.26	8.253
448.61	9.039
448.96	8.721
449.31	7.977
449.66	8.537
450.02	8.157
450.37	8.892
450.72	8.190
451.07	9.304
451.42	8.864
451.77	8.981
452.12	8.792
452.47	8.242
452.83	9.305
453.18	9.108
453.53	9.102
453.88	9.350
454.23	8.482
454.58	9.068
454.93	9.278
455.28	8.444
455.63	9.361
455.98	9.501
456.34	8.557
456.69	9.022
457.04	9.704
457.39	8.505
457.74	8.222
458.09	8.652
458.44	8.953
458.79	8.683
459.14	9.554
459.49	9.194
459.84	9.419
460.19	8.010
460.54	9.719
460.89	8.977
461.24	9.441
461.59	9.620
461.94	8.365
462.29	10.314
462.64	9.169
462.99	9.343
463.34	8.345
463.69	8.623
464.04	8.959
464.39	8.914
464.74	9.693
465.09	9.046
465.44	9.810
465.79	8.673
466.14	9.692
466.49	8.971
466.84	9.221
467.19	9.449
467.54	9.387
467.89	9.413
468.24	9.307
468.59	8.762
468.94	8.762
469.29	10.492
469.64	9.228
469.99	9.320
470.34	9.147
470.68	10.664
471.03	9.908
471.38	9.629
471.73	9.594
472.08	9.227
472.43	8.725
472.78	8.910
473.13	8.844
473.48	9.055
473.83	9.465
474.17	10.233
474.52	9.892
474.87	10.061
475.22	8.969
475.57	8.583
475.92	9.874
476.27	9.080
476.61	8.854
476.96	9.314
477.31	9.627
477.66	9.719
478.01	8.815
478.36	9.314
478.70	9.897
479.05	9.451
479.40	9.804
479.75	9.385
480.10	9.933
480.45	9.250
480.79	9.013
481.14	10.143
481.49	9.310
481.84	9.604
482.19	9.729
482.53	9.448
482.88	10.119
483.23	9.069
483.58	9.623
483.92	8.761
484.27	9.389
484.62	9.413
484.97	8.582
485.31	9.212
485.66	9.027
486.01	9.409
486.36	9.614
486.70	9.622
487.05	9.761
487.40	9.747
487.75	9.549
488.09	8.962
488.44	9.319
488.79	9.563
489.13	9.655
489.48	9.619
489.83	9.417
490.17	9.348
490.52	9.515
490.87	9.209
491.22	9.456
491.56	9.156
491.91	9.560
492.26	9.042
492.60	9.549
492.95	9.739
493.30	9.086
493.64	9.479
493.99	9.517
494.34	8.883
494.68	9.095
495.03	9.100
495.37	9.568
495.72	9.591
496.07	9.854
496.41	9.623
496.76	9.673
497.11	9.688
497.45	9.833
497.80	9.788
498.14	9.439
498.49	10.005
498.84	9.531
499.18	9.639
499.53	9.821
499.87	8.609
500.22	9.496
500.56	9.934
500.91	9.036
501.26	9.343
501.60	9.346
501.95	9.558
502.29	9.637
502.64	9.701
502.98	9.669
503.33	9.222
503.67	9.976
504.02	10.068
504.36	10.638
504.71	9.596
505.06	9.160
505.40	9.949
505.75	9.845
506.09	10.035
506.44	10.113
506.78	10.357
507.13	9.411
507.47	9.974
507.82	8.921
508.16	9.350
508.51	9.182
508.85	9.367
509.19	8.994
509.54	10.241
509.88	9.277
510.23	9.629
510.57	9.514
510.92	8.902
511.26	9.384
511.61	9.461
511.95	9.425
512.30	9.756
512.64	10.239
512.98	9.826
513.33	10.129
513.67	9.551
514.02	10.240
514.36	9.943
514.70	9.907
515.05	9.988
515.39	10.272
515.74	9.940
516.08	9.743
516.42	10.895
516.77	10.298
517.11	9.436
517.46	10.054
517.80	9.774
518.14	9.737
518.49	9.856
518.83	9.842
519.17	9.945
519.52	9.710
519.86	9.484
520.20	9.903
520.55	9.881
520.89	10.728
521.23	9.436
521.58	10.473
521.92	10.064
522.26	10.150
522.61	9.610
522.95	10.728
523.29	10.292
523.64	10.356
523.98	10.369
524.32	8.956
524.66	9.987
525.01	9.221
525.35	10.175
525.69	9.226
526.04	9.854
526.38	10.246
526.72	9.287
527.06	9.857
527.41	10.290
527.75	9.853
528.09	9.834
528.43	10.466
528.78	9.505
529.12	10.581
529.46	10.006
529.80	10.703
530.15	10.495
530.49	8.822
530.83	9.850
531.17	9.469
531.51	10.739
531.86	9.381
532.20	8.768
532.54	10.824
532.88	9.514
533.22	9.745
533.57	9.961
533.91	9.922
534.25	10.482
534.59	9.622
534.93	9.692
535.27	9.518
535.62	9.462
535.96	9.850
536.30	10.422
536.64	9.993
536.98	9.408
537.32	9.744
537.66	10.449
538.01	10.769
538.35	9.085
538.69	10.320
539.03	9.706
539.37	10.094
539.71	10.429
540.05	10.591
540.39	11.357
540.73	10.460
541.07	10.014
541.42	10.417
541.76	11.081
542.10	10.117
542.44	9.937
542.78	9.842
543.12	10.302
543.46	10.014
543.80	9.368
544.14	9.680
544.48	10.660
544.82	9.433
545.16	10.792
545.50	10.681
545.84	11.261
546.18	10.426
546.52	9.877
546.86	9.921
547.20	9.514
547.54	9.117
547.88	10.190
548.22	9.665
548.56	10.026
548.90	10.445
549.24	9.711
549.58	10.437
549.92	9.721
550.26	10.110
550.60	9.814
550.94	10.829
551.28	9.428
551.62	10.615
551.96	10.677
552.30	10.088
552.64	10.155
552.98	10.267
553.32	10.057
553.66	9.289
554.00	10.365
554.34	9.749
554.68	11.652
555.02	10.268
555.36	9.349
555.69	8.938
556.03	9.993
556.37	9.751
556.71	10.108
557.05	9.620
557.39	9.740
557.73	9.970
558.07	10.181
558.41	10.260
558.75	10.522
559.08	10.008
559.42	10.000
559.76	10.008
560.10	9.480
560.44	8.861
560.78	10.559
561.12	10.578
561.45	10.401
561.79	9.874
562.13	9.794
562.47	10.576
562.81	10.375
563.15	10.931
563.48	9.618
563.82	11.050
564.16	10.515
564.50	9.459
564.84	11.044
565.17	9.725
565.51	10.861
565.85	10.494
566.19	10.080
566.52	9.786
566.86	10.411
567.20	9.776
567.54	10.280
567.88	9.959
568.21	10.011
568.55	10.163
568.89	10.318
569.23	10.063
569.56	10.070
569.90	10.272
570.24	10.272
570.57	10.036
570.91	11.014
571.25	9.964
571.59	10.028
571.92	9.837
572.26	9.873
572.60	10.326
572.93	10.386
573.27	9.969
573.61	10.084
573.95	10.076
574.28	10.037
574.62	9.840
574.96	10.222
575.29	10.323
575.63	9.925
575.97	9.948
576.30	9.896
576.64	9.536
576.98	9.961
577.31	10.224
577.65	10.711
577.98	10.101
578.32	9.844
578.66	10.080
578.99	9.967
579.33	10.142
579.67	9.992
580.00	10.380
580.34	10.050
580.67	10.138
581.01	10.279
581.35	10.271
581.68	9.959
582.02	9.892
582.35	10.306
582.69	10.460
583.02	10.126
583.36	10.362
583.70	10.384
584.03	10.259
584.37	10.587
584.70	10.440
585.04	9.534
585.37	10.197
585.71	9.849
586.04	10.161
586.38	9.896
586.72	10.301
587.05	10.745
587.39	10.623
587.72	10.771
588.06	10.185
588.39	10.225
588.73	10.317
589.06	10.274
589.40	10.439
589.73	10.624
590.07	10.461
590.40	10.952
590.73	10.626
591.07	9.924
591.40	10.508
591.74	10.452
592.07	10.622
592.41	10.866
592.74	10.434
593.08	10.409
593.41	10.445
593.75	10.402
594.08	10.058
594.41	10.917
594.75	10.534
595.08	10.291
595.42	10.490
595.75	10.627
596.09	10.164
596.42	10.294
596.75	10.746
597.09	10.251
597.42	10.750
597.75	10.261
598.09	10.502
598.42	10.289
598.76	10.039
599.09	10.697
599.42	9.966
599.76	10.497
600.09	9.917
600.42	10.121
600.76	9.621
601.09	10.191
601.42	10.537
601.76	10.520
602.09	10.809
602.42	10.910
602.76	10.229
603.09	10.922
603.42	10.786
603.76	9.597
604.09	10.652
604.42	11.125
604.76	10.770
605.09	10.558
605.42	10.113
605.75	10.158
606.09	9.682
606.42	10.175
606.75	10.693
607.09	10.549
607.42	10.545
607.75	9.813
608.08	9.569
608.42	10.142
608.75	10.458
609.08	9.965
609.41	10.660
609.75	10.181
610.08	9.785
610.41	10.048
610.74	9.800
611.07	10.543
611.41	9.652
611.74	10.288
612.07	10.011
612.40	10.284
612.73	10.056
613.07	10.349
613.40	10.613
613.73	10.185
614.06	10.351
614.39	10.547
614.72	9.916
615.06	10.391
615.39	10.262
615.72	10.226
616.05	10.335
616.38	9.231
616.71	11.254
617.05	10.686
617.38	10.308
617.71	10.629
618.04	10.476
618.37	11.412
618.70	11.089
619.03	10.694
619.36	8.973
619.69	10.614
620.03	11.541
620.36	9.585
620.69	10.849
621.02	10.550
621.35	10.871
621.68	9.864
622.01	10.083
622.34	10.375
622.67	11.278
623.00	10.643
623.33	10.366
623.66	9.798
623.99	9.758
624.32	10.342
624.65	8.947
624.99	10.384
625.32	8.795
625.65	12.019
625.98	10.475
626.31	9.393
626.64	12.045
626.97	11.344
627.30	10.771
627.63	9.532
627.96	9.793
628.29	9.713
628.62	11.701
628.95	10.922
629.28	10.988
629.61	10.169
629.94	10.655
630.26	10.870
630.59	10.406
630.92	9.641
631.25	10.154
631.58	10.573
631.91	9.978
632.24	11.124
632.57	11.250
632.90	9.253
633.23	11.529
633.56	9.446
633.89	9.001
634.22	10.123
634.55	8.895
634.88	11.750
635.20	8.974
635.53	8.000
635.86	8.843
636.19	10.091
636.52	9.821
636.85	9.677
637.18	9.057
637.51	10.189
637.83	11.564
638.16	10.368
638.49	10.490
638.82	11.184
639.15	10.448
639.48	11.554
639.81	10.600
640.13	9.091
640.46	10.058
640.79	8.837
641.12	10.340
641.45	9.459
641.77	10.074
642.10	10.427
642.43	10.129
642.76	10.066
643.09	10.178
643.41	8.414
643.74	10.049
644.07	12.479
644.40	8.784
644.73	9.982
645.05	11.074
645.38	10.229
645.71	8.511
646.04	11.849
646.36	9.574
646.69	10.971
647.02	12.098
647.35	9.328
647.67	11.335
648.00	12.127
648.33	11.604
648.66	9.322
648.98	6.700
649.31	7.769
649.64	9.419
649.96	8.266
650.29	10.221
650.62	12.308
650.94	8.889
651.27	8.007
651.60	10.811
651.92	10.140
