SpectraSuite Data File
++++++++++++++++++++++++++++++++++++
Date: Fri May 15 20:03:38 PDT 2015
User: schluterlab
Dark Spectrum Present: Yes
Reference Spectrum Present: Yes
Number of Sampled Component Spectra: 1
Spectrometers: USB2E3373
Integration Time (usec): 3000 (USB2E3373)
Spectra Averaged: 3 (USB2E3373)
Boxcar Smoothing: 0 (USB2E3373)
Correct for Electrical Dark: No (USB2E3373)
Strobe/Lamp Enabled: No (USB2E3373)
Correct for Detector Non-linearity: No (USB2E3373)
Correct for Stray Light: No (USB2E3373)
Number of Pixels in Processed Spectrum: 2048
>>>>>Begin Processed Spectral Data<<<<<
178.53	0.000
178.91	0.000
179.29	37.500
179.67	-250.000
180.04	14.286
180.42	375.000
180.80	-900.000
181.18	166.667
181.56	800.000
181.94	300.000
182.31	200.000
182.69	-160.000
183.07	-266.667
183.45	-20.000
183.83	83.333
184.20	54.545
184.58	122.222
184.96	-100.000
185.34	-133.333
185.72	-500.000
186.09	92.308
186.47	-600.000
186.85	116.667
187.23	211.111
187.61	-500.000
187.98	0.000
188.36	11.111
188.74	-200.000
189.12	70.588
189.49	94.444
189.87	0.000
190.25	92.857
190.63	-100.000
191.00	-266.667
191.38	57.895
191.76	-150.000
192.14	-0.000
192.51	550.000
192.89	11.111
193.27	-57.143
193.65	150.000
194.02	100.000
194.40	80.000
194.78	-25.000
195.15	8.333
195.53	-50.000
195.91	500.000
196.29	-50.000
196.66	46.154
197.04	42.857
197.42	55.556
197.79	-66.667
198.17	-84.615
198.55	1300.000
198.92	-266.667
199.30	700.000
199.68	120.000
200.05	100.000
200.43	0.000
200.81	0.000
201.18	-66.667
201.56	-300.000
201.94	100.000
202.31	-66.667
202.69	140.000
203.07	200.000
203.44	600.000
203.82	0.000
204.19	14.286
204.57	-200.000
204.95	75.000
205.32	50.000
205.70	-57.143
206.08	250.000
206.45	222.222
206.83	50.000
207.20	-114.286
207.58	-800.000
207.96	-233.333
208.33	-30.000
208.71	-250.000
209.08	-66.667
209.46	-2000.000
209.84	80.000
210.21	-500.000
210.59	-14.286
210.96	83.333
211.34	0.000
211.71	126.667
212.09	0.000
212.46	-200.000
212.84	0.000
213.22	50.000
213.59	650.000
213.97	53.846
214.34	-45.455
214.72	-50.000
215.09	350.000
215.47	0.000
215.84	-18.182
216.22	-200.000
216.59	-87.500
216.97	400.000
217.34	-100.000
217.72	-40.000
218.09	87.500
218.47	-12.500
218.84	-900.000
219.22	77.778
219.59	-60.000
219.97	433.333
220.34	175.000
220.72	57.143
221.09	50.000
221.47	100.000
221.84	-250.000
222.22	-850.000
222.59	63.636
222.97	150.000
223.34	-133.333
223.72	14.286
224.09	42.857
224.46	32.143
224.84	233.333
225.21	30.000
225.59	53.333
225.96	400.000
226.34	125.000
226.71	100.000
227.08	100.000
227.46	-62.500
227.83	-550.000
228.21	22.222
228.58	54.545
228.95	0.000
229.33	20.000
229.70	18.750
230.08	-12.500
230.45	-57.143
230.82	100.000
231.20	40.000
231.57	100.000
231.95	-57.143
232.32	-40.000
232.69	35.714
233.07	-300.000
233.44	0.000
233.81	-20.000
234.19	144.444
234.56	5.882
234.93	-450.000
235.31	300.000
235.68	-100.000
236.05	61.538
236.43	10.000
236.80	29.412
237.17	37.500
237.55	15.000
237.92	14.815
238.29	38.889
238.67	40.000
239.04	14.706
239.41	2.439
239.79	26.667
240.16	43.902
240.53	26.316
240.91	45.652
241.28	26.984
241.65	39.286
242.02	43.836
242.40	46.667
242.77	32.203
243.14	33.333
243.51	37.500
243.89	44.828
244.26	35.632
244.63	30.952
245.00	40.206
245.38	44.330
245.75	42.697
246.12	35.345
246.49	38.017
246.87	35.577
247.24	36.134
247.61	37.719
247.98	27.642
248.36	41.875
248.73	39.474
249.10	35.714
249.47	37.975
249.84	44.444
250.22	38.824
250.59	38.562
250.96	38.498
251.33	38.953
251.70	41.176
252.08	44.670
252.45	38.119
252.82	36.181
253.19	35.945
253.56	39.252
253.94	39.189
254.31	38.696
254.68	42.544
255.05	35.039
255.42	34.498
255.79	36.680
256.16	39.689
256.54	38.806
256.91	44.106
257.28	40.520
257.65	35.955
258.02	31.560
258.39	38.384
258.76	39.927
259.14	42.857
259.51	37.864
259.88	38.144
260.25	39.869
260.62	39.236
260.99	39.661
261.36	35.274
261.73	36.076
262.10	38.906
262.47	40.798
262.85	38.871
263.22	36.923
263.59	37.695
263.96	40.373
264.33	39.697
264.70	39.881
265.07	37.500
265.44	37.677
265.81	39.831
266.18	38.525
266.55	37.275
266.92	40.155
267.29	38.903
267.66	37.852
268.03	38.743
268.40	37.598
268.77	42.513
269.14	39.089
269.51	37.018
269.88	36.908
270.25	34.694
270.62	36.585
270.99	38.619
271.36	35.941
271.73	37.324
272.10	37.956
272.47	39.007
272.84	40.347
273.21	38.979
273.58	34.458
273.95	38.215
274.32	36.028
274.69	33.258
275.06	38.393
275.43	31.519
275.80	37.748
276.17	36.552
276.54	36.403
276.91	37.061
277.28	37.991
277.65	39.050
278.02	37.872
278.39	36.324
278.76	34.382
279.13	34.025
279.50	35.714
279.87	33.261
280.23	36.989
280.60	34.113
280.97	36.768
281.34	33.077
281.71	36.961
282.08	35.174
282.45	34.638
282.82	34.749
283.19	33.075
283.56	33.526
283.92	34.915
284.29	32.308
284.66	33.527
285.03	31.434
285.40	33.648
285.77	34.095
286.14	35.018
286.51	37.085
286.87	31.810
287.24	32.597
287.61	32.099
287.98	34.737
288.35	30.503
288.72	32.750
289.08	32.465
289.45	31.810
289.82	33.741
290.19	29.181
290.56	30.360
290.93	28.620
291.29	30.046
291.66	28.976
292.03	30.781
292.40	30.161
292.77	29.984
293.13	25.974
293.50	28.376
293.87	29.008
294.24	27.975
294.60	27.124
294.97	27.083
295.34	28.067
295.71	27.869
296.08	27.055
296.44	25.320
296.81	27.778
297.18	27.391
297.55	29.133
297.91	25.890
298.28	26.385
298.65	25.509
299.02	25.741
299.38	24.077
299.75	25.241
300.12	25.524
300.48	26.482
300.85	25.095
301.22	24.416
301.59	23.553
301.95	27.342
302.32	26.200
302.69	24.378
303.05	23.515
303.42	24.658
303.79	25.935
304.15	25.209
304.52	22.473
304.89	23.275
305.25	24.576
305.62	23.221
305.99	23.626
306.35	24.509
306.72	25.422
307.09	23.603
307.45	24.684
307.82	22.917
308.19	25.203
308.55	23.882
308.92	24.292
309.29	24.693
309.65	23.143
310.02	23.762
310.38	24.040
310.75	23.716
311.12	24.543
311.48	22.587
311.85	23.455
312.22	22.996
312.58	24.628
312.95	22.946
313.31	23.188
313.68	24.188
314.05	23.980
314.41	23.711
314.78	23.814
315.14	25.797
315.51	24.948
315.87	24.385
316.24	26.289
316.61	24.902
316.97	24.504
317.34	24.414
317.70	25.526
318.07	23.654
318.43	26.765
318.80	24.242
319.16	26.465
319.53	26.781
319.89	26.772
320.26	25.506
320.62	27.783
320.99	24.948
321.35	25.694
321.72	26.895
322.08	28.399
322.45	28.629
322.81	28.585
323.18	27.576
323.54	28.185
323.91	28.919
324.27	28.320
324.64	29.307
325.00	29.745
325.37	32.966
325.73	30.734
326.10	31.971
326.46	31.839
326.83	32.808
327.19	32.781
327.56	33.189
327.92	33.451
328.29	32.589
328.65	34.151
329.01	32.904
329.38	33.733
329.74	34.561
330.11	33.642
330.47	34.416
330.84	35.000
331.20	36.502
331.56	34.815
331.93	36.164
332.29	37.122
332.66	36.561
333.02	36.338
333.38	35.289
333.75	36.813
334.11	34.467
334.48	37.443
334.84	35.623
335.20	36.688
335.57	36.718
335.93	36.676
336.29	37.569
336.66	36.331
337.02	36.338
337.38	36.389
337.75	38.364
338.11	37.872
338.47	37.865
338.84	37.800
339.20	36.654
339.56	36.606
339.93	36.705
340.29	38.349
340.65	38.082
341.02	38.121
341.38	36.991
341.74	36.926
342.11	36.049
342.47	38.078
342.83	37.024
343.20	37.805
343.56	39.130
343.92	37.998
344.28	37.916
344.65	37.133
345.01	38.375
345.37	35.660
345.73	38.159
346.10	38.568
346.46	37.847
346.82	36.579
347.19	36.908
347.55	37.343
347.91	37.217
348.27	37.106
348.63	38.245
349.00	36.505
349.36	38.155
349.72	38.889
350.08	37.541
350.45	37.590
350.81	37.126
351.17	36.319
351.53	37.469
351.89	37.325
352.26	36.400
352.62	37.984
352.98	36.707
353.34	37.359
353.70	39.078
354.07	37.581
354.43	37.550
354.79	38.976
355.15	38.889
355.51	37.421
355.87	37.621
356.24	37.031
356.60	37.510
356.96	37.937
357.32	38.498
357.68	37.920
358.04	37.884
358.40	38.023
358.77	38.836
359.13	39.151
359.49	38.290
359.85	39.080
360.21	40.750
360.57	39.250
360.93	38.729
361.29	38.142
361.66	40.361
362.02	38.712
362.38	40.061
362.74	38.759
363.10	39.654
363.46	40.252
363.82	41.022
364.18	39.262
364.54	40.956
364.90	40.430
365.26	39.738
365.62	40.803
365.98	40.249
366.35	40.859
366.71	41.537
367.07	40.784
367.43	40.690
367.79	40.141
368.15	40.991
368.51	42.316
368.87	41.350
369.23	41.300
369.59	42.347
369.95	42.449
370.31	43.136
370.67	42.015
371.03	41.897
371.39	42.378
371.75	41.465
372.11	42.439
372.47	43.195
372.83	42.725
373.19	43.509
373.55	42.816
373.91	42.117
374.27	44.082
374.63	45.585
374.99	43.972
375.35	45.125
375.71	45.524
376.07	45.365
376.42	44.422
376.78	46.644
377.14	45.836
377.50	44.688
377.86	46.319
378.22	45.692
378.58	46.923
378.94	45.873
379.30	46.538
379.66	47.524
380.02	47.639
380.38	46.439
380.74	47.935
381.09	48.589
381.45	49.052
381.81	48.674
382.17	48.731
382.53	48.907
382.89	49.843
383.25	50.280
383.61	49.817
383.97	50.540
384.32	49.281
384.68	50.588
385.04	50.368
385.40	51.089
385.76	52.830
386.12	51.682
386.48	51.916
386.83	51.554
387.19	53.236
387.55	53.074
387.91	54.034
388.27	51.770
388.62	53.241
388.98	53.039
389.34	54.216
389.70	55.003
390.06	53.996
390.42	53.497
390.77	55.396
391.13	55.233
391.49	56.016
391.85	56.140
392.20	56.121
392.56	55.118
392.92	54.375
393.28	55.425
393.64	55.135
393.99	56.552
394.35	57.875
394.71	55.236
395.07	54.305
395.42	56.102
395.78	57.459
396.14	57.125
396.50	56.246
396.85	57.373
397.21	57.331
397.57	57.618
397.92	57.160
398.28	57.701
398.64	56.807
399.00	57.957
399.35	56.659
399.71	57.611
400.07	58.585
400.42	56.732
400.78	57.746
401.14	58.802
401.49	58.904
401.85	58.379
402.21	57.349
402.57	59.688
402.92	57.716
403.28	59.211
403.63	58.512
403.99	58.992
404.35	60.025
404.70	57.560
405.06	58.226
405.42	59.043
405.77	59.210
406.13	59.488
406.49	58.141
406.84	59.535
407.20	60.084
407.55	58.339
407.91	58.623
408.27	58.317
408.62	59.077
408.98	59.581
409.34	59.851
409.69	59.238
410.05	58.805
410.40	59.753
410.76	60.676
411.11	59.875
411.47	60.552
411.83	59.385
412.18	60.875
412.54	59.426
412.89	59.791
413.25	60.590
413.60	61.242
413.96	59.387
414.31	60.183
414.67	60.103
415.03	59.587
415.38	58.877
415.74	61.564
416.09	61.724
416.45	60.365
416.80	59.154
417.16	60.497
417.51	61.959
417.87	59.322
418.22	61.723
418.58	60.936
418.93	61.818
419.29	59.411
419.64	61.374
420.00	62.154
420.35	61.552
420.71	62.151
421.06	61.694
421.42	60.938
421.77	62.254
422.12	61.691
422.48	62.155
422.83	62.529
423.19	62.472
423.54	60.435
423.90	61.837
424.25	62.170
424.61	62.913
424.96	62.195
425.31	62.912
425.67	64.085
426.02	64.547
426.38	65.185
426.73	63.015
427.09	65.253
427.44	64.118
427.79	64.467
428.15	62.682
428.50	64.385
428.85	63.882
429.21	62.932
429.56	64.690
429.92	62.609
430.27	62.807
430.62	63.304
430.98	64.172
431.33	63.670
431.68	63.789
432.04	64.897
432.39	64.119
432.74	62.598
433.10	65.517
433.45	63.919
433.80	64.945
434.16	64.321
434.51	65.000
434.86	65.157
435.22	64.442
435.57	65.003
435.92	64.850
436.28	63.387
436.63	65.031
436.98	64.426
437.34	64.670
437.69	66.488
438.04	66.211
438.39	64.142
438.75	66.363
439.10	64.063
439.45	67.012
439.81	64.281
440.16	66.508
440.51	65.731
440.86	67.130
441.22	64.876
441.57	66.170
441.92	67.104
442.27	67.627
442.63	66.756
442.98	66.226
443.33	65.776
443.68	65.729
444.03	65.623
444.39	66.158
444.74	68.060
445.09	66.648
445.44	68.376
445.79	68.128
446.15	65.639
446.50	66.001
446.85	67.163
447.20	65.746
447.55	67.355
447.91	67.005
448.26	66.534
448.61	66.091
448.96	66.380
449.31	67.341
449.66	66.318
450.02	66.857
450.37	67.101
450.72	65.693
451.07	67.722
451.42	67.104
451.77	67.089
452.12	67.045
452.47	68.126
452.83	66.667
453.18	68.374
453.53	66.877
453.88	68.306
454.23	67.302
454.58	67.884
454.93	68.492
455.28	66.413
455.63	68.444
455.98	67.889
456.34	67.816
456.69	67.726
457.04	67.045
457.39	67.861
457.74	68.077
458.09	65.921
458.44	67.291
458.79	66.275
459.14	67.220
459.49	68.060
459.84	67.005
460.19	67.658
460.54	67.848
460.89	68.011
461.24	66.708
461.59	66.746
461.94	65.660
462.29	67.491
462.64	68.173
462.99	66.825
463.34	67.455
463.69	67.181
464.04	67.736
464.39	66.828
464.74	66.442
465.09	67.935
465.44	68.494
465.79	65.760
466.14	66.534
466.49	66.417
466.84	66.270
467.19	68.085
467.54	67.688
467.89	67.025
468.24	66.727
468.59	67.746
468.94	67.302
469.29	66.951
469.64	65.960
469.99	67.694
470.34	66.280
470.68	67.711
471.03	66.950
471.38	68.117
471.73	68.768
472.08	67.503
472.43	67.181
472.78	67.718
473.13	67.347
473.48	68.274
473.83	66.002
474.17	68.264
474.52	68.283
474.87	67.273
475.22	68.029
475.57	67.476
475.92	67.416
476.27	67.870
476.61	69.444
476.96	67.094
477.31	67.063
477.66	67.809
478.01	68.501
478.36	66.612
478.70	69.331
479.05	67.198
479.40	68.839
479.75	66.058
480.10	66.923
480.45	67.600
480.79	69.033
481.14	68.443
481.49	68.768
481.84	68.774
482.19	68.007
482.53	68.825
482.88	66.396
483.23	66.411
483.58	66.840
483.92	68.296
484.27	67.046
484.62	66.876
484.97	67.703
485.31	68.064
485.66	68.673
486.01	69.829
486.36	69.654
486.70	69.532
487.05	69.801
487.40	68.847
487.75	68.113
488.09	67.645
488.44	66.747
488.79	66.306
489.13	68.429
489.48	66.823
489.83	66.906
490.17	66.517
490.52	66.467
490.87	67.145
491.22	67.479
491.56	66.698
491.91	66.061
492.26	68.303
492.60	67.274
492.95	68.323
493.30	66.439
493.64	68.517
493.99	66.860
494.34	66.893
494.68	67.190
495.03	66.618
495.37	66.634
495.72	67.188
496.07	68.293
496.41	67.217
496.76	68.310
497.11	66.418
497.45	67.303
497.80	68.618
498.14	68.306
498.49	66.734
498.84	66.168
499.18	67.420
499.53	67.510
499.87	67.704
500.22	66.766
500.56	68.633
500.91	67.671
501.26	66.337
501.60	67.585
501.95	67.977
502.29	67.167
502.64	68.147
502.98	69.808
503.33	67.579
503.67	67.325
504.02	69.062
504.36	68.382
504.71	66.970
505.06	67.136
505.40	68.223
505.75	68.660
506.09	67.917
506.44	70.791
506.78	69.235
507.13	68.666
507.47	66.684
507.82	68.376
508.16	68.991
508.51	68.835
508.85	69.178
509.19	67.908
509.54	68.686
509.88	67.907
510.23	68.962
510.57	69.802
510.92	68.177
511.26	68.849
511.61	70.517
511.95	69.973
512.30	69.290
512.64	68.114
512.98	70.017
513.33	69.166
513.67	69.358
514.02	70.652
514.36	69.429
514.70	71.562
515.05	70.799
515.39	70.484
515.74	71.018
516.08	69.516
516.42	71.084
516.77	70.392
517.11	72.404
517.46	71.873
517.80	70.739
518.14	70.545
518.49	68.870
518.83	71.507
519.17	69.254
519.52	69.213
519.86	70.888
520.20	71.264
520.55	69.981
520.89	70.514
521.23	69.538
521.58	69.842
521.92	70.449
522.26	70.592
522.61	70.714
522.95	72.980
523.29	69.886
523.64	70.902
523.98	72.262
524.32	70.361
524.66	71.831
525.01	72.078
525.35	70.447
525.69	70.976
526.04	70.767
526.38	72.244
526.72	70.765
527.06	71.077
527.41	71.636
527.75	71.448
528.09	71.163
528.43	73.261
528.78	72.409
529.12	70.452
529.46	71.670
529.80	71.184
530.15	71.947
530.49	71.515
530.83	72.367
531.17	70.987
531.51	71.888
531.86	72.196
532.20	70.216
532.54	71.273
532.88	71.253
533.22	73.118
533.57	72.870
533.91	72.454
534.25	72.656
534.59	72.611
534.93	71.177
535.27	70.558
535.62	72.003
535.96	71.429
536.30	71.108
536.64	71.950
536.98	71.429
537.32	72.119
537.66	72.651
538.01	73.077
538.35	72.122
538.69	71.571
539.03	71.087
539.37	71.534
539.71	71.575
540.05	71.962
540.39	72.576
540.73	72.106
541.07	71.823
541.42	71.237
541.76	72.953
542.10	72.953
542.44	72.828
542.78	70.957
543.12	73.420
543.46	71.697
543.80	73.213
544.14	70.694
544.48	71.819
544.82	73.753
545.16	74.180
545.50	71.495
545.84	73.796
546.18	72.979
546.52	72.386
546.86	72.178
547.20	72.890
547.54	71.590
547.88	73.030
548.22	71.466
548.56	71.768
548.90	72.844
549.24	70.386
549.58	72.496
549.92	72.909
550.26	72.015
550.60	71.747
550.94	73.488
551.28	72.875
551.62	72.538
551.96	72.256
552.30	72.807
552.64	71.721
552.98	71.660
553.32	72.040
553.66	72.061
554.00	74.088
554.34	73.412
554.68	70.870
555.02	71.949
555.36	73.298
555.69	72.894
556.03	71.949
556.37	71.957
556.71	72.274
557.05	73.229
557.39	69.740
557.73	71.064
558.07	73.152
558.41	73.890
558.75	71.941
559.08	73.759
559.42	71.429
559.76	73.659
560.10	71.789
560.44	72.003
560.78	71.049
561.12	72.990
561.45	75.334
561.79	73.039
562.13	72.960
562.47	72.662
562.81	73.775
563.15	72.144
563.48	72.277
563.82	72.752
564.16	73.747
564.50	73.311
564.84	71.486
565.17	72.099
565.51	74.727
565.85	73.114
566.19	73.674
566.52	73.324
566.86	72.686
567.20	73.848
567.54	75.182
567.88	75.630
568.21	75.000
568.55	75.217
568.89	74.949
569.23	74.194
569.56	75.482
569.90	75.721
570.24	74.507
570.57	76.255
570.91	76.368
571.25	75.830
571.59	75.584
571.92	74.726
572.26	75.876
572.60	74.574
572.93	74.019
573.27	73.918
573.61	74.881
573.95	75.423
574.28	75.079
574.62	74.218
574.96	74.944
575.29	74.811
575.63	72.299
575.97	73.435
576.30	74.248
576.64	73.325
576.98	74.903
577.31	75.989
577.65	75.917
577.98	75.486
578.32	74.891
578.66	74.167
578.99	74.193
579.33	74.344
579.67	73.152
580.00	74.380
580.34	74.701
580.67	74.308
581.01	74.760
581.35	75.474
581.68	75.418
582.02	76.051
582.35	75.655
582.69	76.198
583.02	74.664
583.36	74.852
583.70	75.545
584.03	75.035
584.37	76.200
584.70	74.890
585.04	74.508
585.37	74.029
585.71	75.784
586.04	75.466
586.38	75.113
586.72	75.466
587.05	75.534
587.39	75.985
587.72	76.873
588.06	75.616
588.39	75.449
588.73	75.702
589.06	75.864
589.40	74.698
589.73	74.808
590.07	75.793
590.40	74.768
590.73	76.483
591.07	74.173
591.40	74.933
591.74	74.706
592.07	74.814
592.41	76.369
592.74	75.269
593.08	74.083
593.41	76.540
593.75	75.401
594.08	75.592
594.41	75.255
594.75	74.046
595.08	75.180
595.42	75.819
595.75	75.854
596.09	75.020
596.42	75.155
596.75	75.266
597.09	75.399
597.42	74.706
597.75	75.813
598.09	73.699
598.42	73.827
598.76	74.517
599.09	74.559
599.42	73.778
599.76	75.658
600.09	74.472
600.42	74.943
600.76	74.183
601.09	74.847
601.42	74.775
601.76	74.117
602.09	74.299
602.42	75.906
602.76	75.637
603.09	75.664
603.42	77.467
603.76	75.121
604.09	75.456
604.42	75.761
604.76	75.389
605.09	75.823
605.42	75.666
605.75	75.000
606.09	75.414
606.42	74.520
606.75	74.545
607.09	73.890
607.42	73.726
607.75	74.467
608.08	73.720
608.42	73.184
608.75	75.663
609.08	76.432
609.41	74.670
609.75	74.546
610.08	75.836
610.41	75.314
610.74	75.378
611.07	74.987
611.41	75.195
611.74	75.320
612.07	74.036
612.40	75.492
612.73	76.158
613.07	75.084
613.40	73.632
613.73	74.986
614.06	74.290
614.39	74.958
614.72	73.950
615.06	75.419
615.39	74.017
615.72	72.713
616.05	76.201
616.38	73.732
616.71	74.251
617.05	73.996
617.38	72.722
617.71	74.528
618.04	75.111
618.37	76.103
618.70	76.238
619.03	73.750
619.36	73.372
619.69	75.512
620.03	76.260
620.36	75.179
620.69	73.662
621.02	72.783
621.35	74.274
621.68	75.255
622.01	74.667
622.34	73.583
622.67	75.079
623.00	74.043
623.33	75.229
623.66	72.401
623.99	73.374
624.32	74.677
624.65	73.910
624.99	74.116
625.32	72.934
625.65	74.784
625.98	74.940
626.31	72.652
626.64	74.610
626.97	74.258
627.30	74.256
627.63	72.097
627.96	75.022
628.29	73.173
628.62	72.566
628.95	72.445
629.28	75.605
629.61	72.283
629.94	73.998
630.26	73.320
630.59	74.610
630.92	75.179
631.25	72.923
631.58	73.678
631.91	74.123
632.24	73.509
632.57	73.750
632.90	72.598
633.23	72.706
633.56	73.929
633.89	71.763
