SpectraSuite Data File
++++++++++++++++++++++++++++++++++++
Date: Fri May 15 17:12:53 PDT 2015
User: schluterlab
Dark Spectrum Present: Yes
Reference Spectrum Present: Yes
Number of Sampled Component Spectra: 1
Spectrometers: USB2E3373
Integration Time (usec): 3000 (USB2E3373)
Spectra Averaged: 3 (USB2E3373)
Boxcar Smoothing: 0 (USB2E3373)
Correct for Electrical Dark: No (USB2E3373)
Strobe/Lamp Enabled: No (USB2E3373)
Correct for Detector Non-linearity: No (USB2E3373)
Correct for Stray Light: No (USB2E3373)
Number of Pixels in Processed Spectrum: 2048
>>>>>Begin Processed Spectral Data<<<<<
178.53	0.000
178.91	0.000
179.29	200.000
179.67	-100.000
180.04	-185.714
180.42	225.000
180.80	400.000
181.18	166.667
181.56	250.000
181.94	350.000
182.31	-400.000
182.69	0.000
183.07	-233.333
183.45	40.000
183.83	-50.000
184.20	-27.273
184.58	122.222
184.96	-150.000
185.34	-200.000
185.72	-350.000
186.09	53.846
186.47	800.000
186.85	-16.667
187.23	77.778
187.61	-100.000
187.98	133.333
188.36	44.444
188.74	133.333
189.12	5.882
189.49	16.667
189.87	0.000
190.25	71.429
190.63	250.000
191.00	-33.333
191.38	-21.053
191.76	400.000
192.14	-175.000
192.51	-100.000
192.89	22.222
193.27	142.857
193.65	83.333
194.02	109.091
194.40	-10.000
194.78	-37.500
195.15	8.333
195.53	-150.000
195.91	50.000
196.29	125.000
196.66	61.538
197.04	28.571
197.42	11.111
197.79	-300.000
198.17	-61.538
198.55	1100.000
198.92	-100.000
199.30	400.000
199.68	40.000
200.05	-166.667
200.43	0.000
200.81	133.333
201.18	66.667
201.56	800.000
201.94	700.000
202.31	-200.000
202.69	-100.000
203.07	-75.000
203.44	600.000
203.82	0.000
204.19	64.286
204.57	-166.667
204.95	150.000
205.32	40.000
205.70	-42.857
206.08	125.000
206.45	255.556
206.83	71.429
207.20	-42.857
207.58	-900.000
207.96	-100.000
208.33	90.000
208.71	325.000
209.08	0.000
209.46	300.000
209.84	-100.000
210.21	-400.000
210.59	71.429
210.96	-33.333
211.34	175.000
211.71	13.333
212.09	0.000
212.46	-900.000
212.84	0.000
213.22	150.000
213.59	150.000
213.97	169.231
214.34	90.909
214.72	150.000
215.09	-75.000
215.47	38.462
215.84	27.273
216.22	-66.667
216.59	100.000
216.97	200.000
217.34	50.000
217.72	60.000
218.09	-87.500
218.47	62.500
218.84	-700.000
219.22	55.556
219.59	-40.000
219.97	266.667
220.34	225.000
220.72	42.857
221.09	300.000
221.47	50.000
221.84	100.000
222.22	250.000
222.59	72.727
222.97	58.333
223.34	33.333
223.72	7.143
224.09	28.571
224.46	21.429
224.84	266.667
225.21	130.000
225.59	-6.667
225.96	-150.000
226.34	350.000
226.71	14.286
227.08	-83.333
227.46	37.500
227.83	-250.000
228.21	11.111
228.58	63.636
228.95	-37.500
229.33	70.000
229.70	37.500
230.08	-62.500
230.45	-14.286
230.82	228.571
231.20	40.000
231.57	64.286
231.95	85.714
232.32	-120.000
232.69	14.286
233.07	200.000
233.44	0.000
233.81	70.000
234.19	22.222
234.56	11.765
234.93	150.000
235.31	275.000
235.68	0.000
236.05	7.692
236.43	30.000
236.80	41.176
237.17	0.000
237.55	50.000
237.92	22.222
238.29	19.444
238.67	-20.000
239.04	35.294
239.41	-2.439
239.79	-6.667
240.16	19.512
240.53	2.632
240.91	2.174
241.28	6.349
241.65	32.143
242.02	21.918
242.40	23.333
242.77	27.119
243.14	7.576
243.51	16.250
243.89	26.437
244.26	6.897
244.63	16.667
245.00	12.371
245.38	13.402
245.75	1.124
246.12	11.207
246.49	18.182
246.87	11.538
247.24	11.765
247.61	1.754
247.98	10.569
248.36	4.375
248.73	14.474
249.10	7.143
249.47	12.025
249.84	8.497
250.22	12.353
250.59	12.418
250.96	17.371
251.33	10.465
251.70	16.471
252.08	13.198
252.45	11.881
252.82	10.553
253.19	7.834
253.56	6.075
253.94	9.009
254.31	12.609
254.68	15.351
255.05	15.748
255.42	6.114
255.79	11.583
256.16	7.782
256.54	11.194
256.91	9.886
257.28	8.550
257.65	7.865
258.02	7.801
258.39	9.764
258.76	12.088
259.14	8.970
259.51	12.621
259.88	6.873
260.25	11.111
260.62	13.194
260.99	7.458
261.36	8.562
261.73	6.646
262.10	13.982
262.47	11.350
262.85	8.464
263.22	9.538
263.59	9.657
263.96	9.006
264.33	10.303
264.70	7.143
265.07	7.440
265.44	11.331
265.81	9.605
266.18	7.104
266.55	10.026
266.92	11.140
267.29	9.399
267.66	11.509
268.03	11.257
268.40	9.399
268.77	13.369
269.14	9.353
269.51	10.026
269.88	8.479
270.25	6.888
270.62	10.244
270.99	9.463
271.36	7.579
271.73	8.920
272.10	7.543
272.47	8.511
272.84	10.149
273.21	11.369
273.58	8.434
273.95	10.984
274.32	9.700
274.69	6.109
275.06	15.179
275.43	7.483
275.80	9.713
276.17	8.966
276.54	9.422
276.91	9.649
277.28	10.262
277.65	10.950
278.02	11.277
278.39	8.534
278.76	9.015
279.13	7.054
279.50	9.454
279.87	10.151
280.23	7.312
280.60	10.526
280.97	9.495
281.34	10.385
281.71	10.678
282.08	11.043
282.45	6.262
282.82	7.336
283.19	10.058
283.56	10.597
283.92	7.211
284.29	9.423
284.66	8.140
285.03	9.037
285.40	8.696
285.77	9.315
286.14	9.206
286.51	9.410
286.87	8.227
287.24	9.392
287.61	8.995
287.98	8.947
288.35	8.146
288.72	8.932
289.08	6.597
289.45	8.963
289.82	8.741
290.19	8.362
290.56	5.832
290.93	9.764
291.29	6.471
291.66	9.134
292.03	7.974
292.40	8.710
292.77	6.220
293.13	4.708
293.50	6.525
293.87	8.550
294.24	8.346
294.60	6.557
294.97	8.333
295.34	5.521
295.71	6.408
296.08	8.221
296.44	5.405
296.81	6.528
297.18	7.971
297.55	9.350
297.91	6.849
298.28	8.179
298.65	8.141
299.02	6.469
299.38	4.514
299.75	6.897
300.12	5.759
300.48	4.743
300.85	7.098
301.22	7.013
301.59	5.526
301.95	7.595
302.32	7.912
302.69	6.343
303.05	6.683
303.42	6.227
303.79	7.126
304.15	6.452
304.52	5.351
304.89	6.082
305.25	6.053
305.62	5.018
305.99	6.082
306.35	5.549
306.72	5.624
307.09	6.385
307.45	6.200
307.82	6.250
308.19	7.317
308.55	5.453
308.92	6.972
309.29	4.246
309.65	4.629
310.02	6.491
310.38	5.708
310.75	7.541
311.12	5.920
311.48	6.045
311.85	6.702
312.22	4.958
312.58	6.582
312.95	4.696
313.31	4.969
313.68	5.445
314.05	6.122
314.41	6.907
314.78	6.289
315.14	6.475
315.51	6.522
315.87	6.557
316.24	7.381
316.61	6.594
316.97	6.944
317.34	6.055
317.70	6.119
318.07	5.577
318.43	5.980
318.80	5.682
319.16	6.738
319.53	6.458
319.89	6.890
320.26	6.377
320.62	6.219
320.99	5.010
321.35	6.166
321.72	6.646
322.08	6.546
322.45	6.497
322.81	6.287
323.18	5.201
323.54	5.792
323.91	5.258
324.27	5.273
324.64	6.742
325.00	7.117
325.37	7.346
325.73	6.437
326.10	6.176
326.46	7.085
326.83	7.349
327.19	7.062
327.56	7.646
327.92	8.363
328.29	7.768
328.65	8.019
329.01	7.904
329.38	8.387
329.74	8.593
330.11	9.175
330.47	8.442
330.84	9.038
331.20	10.932
331.56	10.185
331.93	10.685
332.29	11.641
332.66	12.036
333.02	11.152
333.38	11.824
333.75	13.462
334.11	12.802
334.48	14.325
334.84	15.568
335.20	15.188
335.57	15.050
335.93	15.899
336.29	17.127
336.66	15.985
337.02	17.472
337.38	17.130
337.75	18.818
338.11	19.026
338.47	19.799
338.84	19.963
339.20	20.201
339.56	19.358
339.93	21.665
340.29	22.202
340.65	21.774
341.02	23.316
341.38	21.947
341.74	21.908
342.11	20.537
342.47	22.153
342.83	24.221
343.20	22.822
343.56	23.130
343.92	23.826
344.28	25.278
344.65	24.525
345.01	24.114
345.37	24.390
345.73	25.188
346.10	27.006
346.46	25.484
346.82	26.759
347.19	24.771
347.55	25.063
347.91	26.456
348.27	25.627
348.63	27.002
349.00	26.251
349.36	26.683
349.72	27.446
350.08	26.803
350.45	27.614
350.81	25.914
351.17	28.420
351.53	28.163
351.89	26.590
352.26	27.920
352.62	28.145
352.98	28.032
353.34	28.019
353.70	28.236
354.07	28.145
354.43	27.782
354.79	29.232
355.15	29.444
355.51	28.481
355.87	28.803
356.24	27.896
356.60	28.052
356.96	29.286
357.32	30.272
357.68	28.225
358.04	30.048
358.40	28.617
358.77	29.825
359.13	29.063
359.49	30.508
359.85	30.577
360.21	30.781
360.57	29.533
360.93	30.257
361.29	29.230
361.66	30.408
362.02	31.667
362.38	30.617
362.74	30.129
363.10	30.926
363.46	30.912
363.82	32.231
364.18	31.734
364.54	30.735
364.90	30.968
365.26	31.150
365.62	32.701
365.98	32.111
366.35	32.702
366.71	32.890
367.07	32.729
367.43	31.776
367.79	32.367
368.15	31.945
368.51	32.848
368.87	31.515
369.23	32.274
369.59	33.965
369.95	33.211
370.31	33.237
370.67	32.612
371.03	33.159
371.39	34.500
371.75	34.359
372.11	34.593
372.47	33.876
372.83	35.131
373.19	33.381
373.55	34.079
373.91	34.485
374.27	35.082
374.63	34.961
374.99	36.241
375.35	35.446
375.71	34.545
376.07	35.393
376.42	34.830
376.78	35.906
377.14	35.884
377.50	36.985
377.86	36.278
378.22	36.439
378.58	35.449
378.94	36.736
379.30	36.057
379.66	37.555
380.02	37.094
380.38	37.005
380.74	37.163
381.09	37.853
381.45	37.554
381.81	37.138
382.17	38.198
382.53	37.726
382.89	37.414
383.25	38.208
383.61	39.268
383.97	38.413
384.32	37.398
384.68	38.700
385.04	37.684
385.40	39.203
385.76	39.748
386.12	38.680
386.48	40.485
386.83	38.681
387.19	39.866
387.55	40.025
387.91	39.364
388.27	38.889
388.62	40.717
388.98	39.963
389.34	39.975
389.70	41.330
390.06	39.144
390.42	40.220
390.77	39.830
391.13	41.299
391.49	40.750
391.85	41.520
392.20	41.368
392.56	40.114
392.92	41.515
393.28	41.804
393.64	40.721
393.99	41.755
394.35	40.607
394.71	42.146
395.07	41.420
395.42	40.862
395.78	40.912
396.14	40.731
396.50	41.661
396.85	40.889
397.21	40.977
397.57	41.129
397.92	41.522
398.28	40.345
398.64	40.542
399.00	40.688
399.35	40.576
399.71	40.666
400.07	42.382
400.42	42.289
400.78	41.396
401.14	41.319
401.49	41.751
401.85	41.743
402.21	41.807
402.57	40.688
402.92	40.715
403.28	41.541
403.63	40.921
403.99	41.263
404.35	40.849
404.70	40.298
405.06	39.894
405.42	41.268
405.77	39.338
406.13	41.094
406.49	40.261
406.84	41.198
407.20	41.361
407.55	39.730
407.91	39.973
408.27	40.982
408.62	41.231
408.98	40.789
409.34	41.512
409.69	39.793
410.05	40.086
410.40	41.173
410.76	41.616
411.11	40.625
411.47	41.815
411.83	42.059
412.18	41.120
412.54	40.512
412.89	40.148
413.25	40.132
413.60	40.559
413.96	40.368
414.31	40.793
414.67	42.078
415.03	40.679
415.38	41.971
415.74	41.498
416.09	42.521
416.45	41.796
416.80	42.168
417.16	42.956
417.51	43.304
417.87	41.917
418.22	43.782
418.58	43.278
418.93	43.636
419.29	42.061
419.64	43.163
420.00	44.836
420.35	43.164
420.71	45.930
421.06	44.629
421.42	45.012
421.77	45.780
422.12	45.062
422.48	45.533
422.83	45.418
423.19	44.808
423.54	44.680
423.90	45.760
424.25	45.982
424.61	45.961
424.96	46.574
425.31	47.545
425.67	47.887
426.02	47.350
426.38	48.591
426.73	48.305
427.09	48.418
427.44	48.706
427.79	48.144
428.15	49.090
428.50	49.849
428.85	47.973
429.21	49.632
429.56	49.973
429.92	49.204
430.27	48.471
430.62	49.033
430.98	48.673
431.33	50.263
431.68	50.340
432.04	51.761
432.39	49.857
432.74	50.511
433.10	52.241
433.45	52.151
433.80	52.583
434.16	51.579
434.51	52.581
434.86	53.426
435.22	52.552
435.57	54.211
435.92	55.150
436.28	53.190
436.63	54.421
436.98	54.114
437.34	54.386
437.69	54.681
438.04	55.556
438.39	53.940
438.75	57.438
439.10	56.480
439.45	56.482
439.81	56.453
440.16	58.848
440.51	57.254
440.86	59.094
441.22	56.391
441.57	58.113
441.92	58.290
442.27	58.869
442.63	57.976
442.98	59.506
443.33	57.373
443.68	57.931
444.03	58.917
444.39	58.780
444.74	60.145
445.09	59.577
445.44	58.063
445.79	60.186
446.15	58.976
446.50	59.623
446.85	60.096
447.20	58.446
447.55	60.547
447.91	61.083
448.26	61.355
448.61	61.658
448.96	61.790
449.31	62.197
449.66	61.731
450.02	61.609
450.37	61.529
450.72	61.283
451.07	63.228
451.42	62.110
451.77	61.483
452.12	62.201
452.47	63.876
452.83	62.485
453.18	63.504
453.53	62.263
453.88	62.963
454.23	63.614
454.58	63.287
454.93	64.884
455.28	62.667
455.63	64.352
455.98	63.800
456.34	63.985
456.69	63.024
457.04	64.650
457.39	63.366
457.74	64.087
458.09	62.036
458.44	65.769
458.79	64.482
459.14	64.474
459.49	64.537
459.84	63.565
460.19	64.563
460.54	64.853
460.89	64.716
461.24	64.845
461.59	65.321
461.94	64.403
462.29	65.682
462.64	66.047
462.99	65.606
463.34	64.117
463.69	65.058
464.04	66.465
464.39	65.858
464.74	64.479
465.09	66.625
465.44	65.147
465.79	64.512
466.14	66.249
466.49	65.440
466.84	65.437
467.19	65.895
467.54	65.326
467.89	66.519
468.24	66.241
468.59	66.222
468.94	65.206
469.29	67.410
469.64	66.029
469.99	68.325
470.34	68.259
470.68	70.172
471.03	67.941
471.38	68.545
471.73	67.857
472.08	65.943
472.43	68.926
472.78	67.512
473.13	67.687
473.48	68.143
473.83	66.812
474.17	67.552
474.52	66.879
474.87	68.000
475.22	67.968
475.57	65.443
475.92	68.184
476.27	66.531
476.61	69.039
476.96	65.811
477.31	67.388
477.66	67.135
478.01	68.782
478.36	66.885
478.70	68.135
479.05	68.516
479.40	67.727
479.75	67.935
480.10	66.820
480.45	69.050
480.79	69.637
481.14	69.570
481.49	67.488
481.84	67.954
482.19	65.949
482.53	68.058
482.88	66.730
483.23	67.226
483.58	66.557
483.92	67.909
484.27	66.910
484.62	67.324
484.97	66.211
485.31	65.173
485.66	63.434
486.01	62.561
486.36	61.910
486.70	61.784
487.05	63.458
487.40	64.374
487.75	65.099
488.09	64.555
488.44	65.990
488.79	66.978
489.13	68.069
489.48	67.165
489.83	67.354
490.17	68.090
490.52	66.513
490.87	66.636
491.22	68.099
491.56	68.501
491.91	68.308
492.26	69.130
492.60	67.131
492.95	69.208
493.30	68.588
493.64	69.450
493.99	67.295
494.34	67.961
494.68	68.381
495.03	67.786
495.37	68.302
495.72	68.753
496.07	68.537
496.41	68.443
496.76	67.757
497.11	66.511
497.45	67.876
497.80	70.383
498.14	68.604
498.49	69.172
498.84	68.014
499.18	70.482
499.53	69.246
499.87	68.142
500.22	68.595
500.56	70.701
500.91	68.223
501.26	67.177
501.60	68.765
501.95	68.025
502.29	68.281
502.64	68.147
502.98	69.610
503.33	69.116
503.67	67.277
504.02	68.377
504.36	69.817
504.71	68.081
505.06	68.948
505.40	69.645
505.75	70.412
506.09	68.322
506.44	70.791
506.78	70.510
507.13	68.925
507.47	68.251
507.82	69.338
508.16	69.202
508.51	70.252
508.85	71.324
509.19	71.102
509.54	70.027
509.88	69.849
510.23	71.114
510.57	70.444
510.92	69.136
511.26	70.922
511.61	70.682
511.95	70.411
512.30	71.064
512.64	69.783
512.98	69.961
513.33	71.852
513.67	70.551
514.02	72.540
514.36	73.200
514.70	73.485
515.05	73.090
515.39	72.550
515.74	73.593
516.08	72.684
516.42	73.675
516.77	72.030
517.11	73.947
517.46	73.668
517.80	72.884
518.14	71.892
518.49	72.957
518.83	74.362
519.17	71.922
519.52	72.291
519.86	72.449
520.20	73.026
520.55	73.108
520.89	73.902
521.23	73.464
521.58	73.502
521.92	74.231
522.26	74.366
522.61	73.571
522.95	76.424
523.29	72.808
523.64	74.778
523.98	75.243
524.32	74.227
524.66	75.160
525.01	74.675
525.35	73.040
525.69	74.141
526.04	74.471
526.38	74.319
526.72	73.708
527.06	73.606
527.41	71.834
527.75	72.922
528.09	73.422
528.43	75.084
528.78	74.455
529.12	74.323
529.46	74.724
529.80	72.704
530.15	72.805
530.49	74.680
530.83	75.376
531.17	74.480
531.51	75.239
531.86	73.555
532.20	74.948
532.54	75.017
532.88	76.318
533.22	73.992
533.57	73.657
533.91	73.238
534.25	74.609
534.59	73.445
534.93	72.310
535.27	72.398
535.62	71.614
535.96	73.646
536.30	74.868
536.64	75.396
536.98	74.146
537.32	76.743
537.66	74.755
538.01	75.874
538.35	73.578
538.69	73.702
539.03	72.112
539.37	73.890
539.71	73.211
540.05	72.777
540.39	73.892
540.73	74.965
541.07	74.448
541.42	72.648
541.76	75.155
542.10	74.398
542.44	75.469
542.78	72.127
543.12	73.970
543.46	74.548
543.80	73.282
544.14	71.162
544.48	74.017
544.82	73.821
545.16	74.317
545.50	74.232
545.84	75.212
546.18	73.546
546.52	76.063
546.86	75.126
547.20	74.964
547.54	72.367
547.88	74.524
548.22	72.124
548.56	71.966
548.90	73.046
549.24	72.590
549.58	73.836
549.92	73.124
550.26	74.432
550.60	76.134
550.94	76.251
551.28	76.662
551.62	77.615
551.96	75.489
552.30	74.927
552.64	73.695
552.98	73.277
553.32	74.536
553.66	73.657
554.00	77.372
554.34	74.668
554.68	74.558
555.02	75.595
555.36	75.168
555.69	74.139
556.03	74.590
556.37	74.591
556.71	74.874
557.05	75.764
557.39	73.606
557.73	76.312
558.07	76.546
558.41	77.871
558.75	78.020
559.08	76.044
559.42	76.984
559.76	77.582
560.10	75.765
560.44	76.396
560.78	73.916
561.12	76.023
561.45	75.896
561.79	76.471
562.13	75.160
562.47	75.468
562.81	75.072
563.15	73.766
563.48	75.177
563.82	74.949
564.16	74.721
564.50	74.324
564.84	75.435
565.17	74.715
565.51	75.956
565.85	76.132
566.19	73.475
566.52	75.804
566.86	74.486
567.20	74.097
567.54	74.270
567.88	75.278
568.21	73.812
568.55	71.902
568.89	71.612
569.23	71.834
569.56	70.665
569.90	70.361
570.24	67.622
570.57	68.618
570.91	68.560
571.25	67.215
571.59	66.428
571.92	65.511
572.26	66.093
572.60	66.450
572.93	66.771
573.27	65.831
573.61	66.587
573.95	65.647
574.28	65.360
574.62	65.141
574.96	64.174
575.29	64.791
575.63	63.669
575.97	65.031
576.30	65.589
576.64	64.265
576.98	66.152
577.31	65.028
577.65	64.702
577.98	64.222
578.32	63.754
578.66	63.164
578.99	64.085
579.33	64.352
579.67	64.269
580.00	65.266
580.34	64.900
580.67	64.738
581.01	65.178
581.35	64.040
581.68	64.141
582.02	63.681
582.35	63.157
582.69	64.141
583.02	63.939
583.36	65.507
583.70	66.251
584.03	67.278
584.37	67.758
584.70	66.291
585.04	64.404
585.37	65.012
585.71	64.725
586.04	65.229
586.38	65.404
586.72	66.083
587.05	66.984
587.39	66.704
587.72	67.824
588.06	66.427
588.39	66.676
588.73	68.101
589.06	67.841
589.40	68.648
589.73	68.529
590.07	70.053
590.40	70.240
590.73	71.787
591.07	70.399
591.40	71.638
591.74	71.810
592.07	71.289
592.41	70.981
592.74	68.459
593.08	67.447
593.41	67.249
593.75	67.746
594.08	67.010
594.41	68.523
594.75	69.466
595.08	69.429
595.42	68.936
595.75	70.259
596.09	70.055
596.42	71.021
596.75	72.247
597.09	70.524
597.42	70.099
597.75	71.324
598.09	69.986
598.42	69.585
598.76	70.270
599.09	68.670
599.42	68.776
599.76	69.451
600.09	68.891
600.42	68.006
600.76	68.091
601.09	68.435
601.42	69.683
601.76	69.631
602.09	70.916
602.42	71.230
602.76	71.392
603.09	70.473
603.42	70.360
603.76	70.202
604.09	69.745
604.42	70.135
604.76	71.518
605.09	72.258
605.42	70.609
605.75	70.578
606.09	69.384
606.42	69.475
606.75	69.610
607.09	71.033
607.42	70.536
607.75	70.249
608.08	69.946
608.42	70.900
608.75	72.819
609.08	73.094
609.41	73.198
609.75	73.841
610.08	73.689
610.41	71.304
610.74	72.647
611.07	73.592
611.41	74.312
611.74	74.893
612.07	72.698
612.40	74.125
612.73	75.424
613.07	75.084
613.40	74.891
613.73	74.370
614.06	74.124
614.39	74.619
614.72	73.221
615.06	74.078
615.39	72.325
615.72	72.928
616.05	73.520
616.38	72.934
616.71	76.024
617.05	76.961
617.38	76.744
617.71	76.667
618.04	77.905
618.37	77.995
618.70	78.944
619.03	77.986
619.36	77.931
619.69	80.364
620.03	80.497
620.36	79.185
620.69	78.444
621.02	78.899
621.35	82.324
621.68	85.374
622.01	81.833
622.34	81.963
622.67	80.205
623.00	78.254
623.33	80.945
623.66	79.955
623.99	78.366
624.32	80.076
624.65	79.248
624.99	80.587
625.32	79.454
625.65	82.090
625.98	83.078
626.31	83.209
626.64	84.662
626.97	84.119
627.30	83.275
627.63	83.276
627.96	83.468
628.29	85.199
628.62	85.447
628.95	86.774
629.28	88.710
629.61	85.743
629.94	85.337
630.26	83.597
630.59	89.594
630.92	86.051
631.25	86.667
631.58	89.758
631.91	88.706
632.24	90.711
632.57	89.205
632.90	91.815
633.23	90.353
633.56	94.332
633.89	92.972
634.22	91.728
634.55	93.139
634.88	94.381
635.20	92.564
635.53	96.800
635.86	93.108
636.19	92.755
636.52	92.219
636.85	90.571
637.18	91.069
637.51	92.830
637.83	92.247
638.16	95.498
638.49	92.234
