SpectraSuite Data File
++++++++++++++++++++++++++++++++++++
Date: Fri May 15 17:26:35 PDT 2015
User: schluterlab
Dark Spectrum Present: Yes
Reference Spectrum Present: Yes
Number of Sampled Component Spectra: 1
Spectrometers: USB2E3373
Integration Time (usec): 3000 (USB2E3373)
Spectra Averaged: 3 (USB2E3373)
Boxcar Smoothing: 0 (USB2E3373)
Correct for Electrical Dark: No (USB2E3373)
Strobe/Lamp Enabled: No (USB2E3373)
Correct for Detector Non-linearity: No (USB2E3373)
Correct for Stray Light: No (USB2E3373)
Number of Pixels in Processed Spectrum: 2048
>>>>>Begin Processed Spectral Data<<<<<
178.53	0.000
178.91	0.000
179.29	75.000
179.67	-750.000
180.04	28.571
180.42	25.000
180.80	100.000
181.18	33.333
181.56	350.000
181.94	50.000
182.31	600.000
182.69	-180.000
183.07	-100.000
183.45	-120.000
183.83	133.333
184.20	54.545
184.58	177.778
184.96	-375.000
185.34	33.333
185.72	-250.000
186.09	-7.692
186.47	-700.000
186.85	66.667
187.23	66.667
187.61	-200.000
187.98	-266.667
188.36	22.222
188.74	-266.667
189.12	-11.765
189.49	16.667
189.87	0.000
190.25	135.714
190.63	100.000
191.00	-66.667
191.38	0.000
191.76	150.000
192.14	-75.000
192.51	500.000
192.89	-77.778
193.27	-200.000
193.65	66.667
194.02	172.727
194.40	30.000
194.78	-50.000
195.15	25.000
195.53	37.500
195.91	300.000
196.29	150.000
196.66	76.923
197.04	200.000
197.42	22.222
197.79	-166.667
198.17	0.000
198.55	1000.000
198.92	-133.333
199.30	200.000
199.68	-80.000
200.05	-233.333
200.43	0.000
200.81	33.333
201.18	-300.000
201.56	1200.000
201.94	100.000
202.31	33.333
202.69	-80.000
203.07	275.000
203.44	300.000
203.82	0.000
204.19	92.857
204.57	-266.667
204.95	250.000
205.32	-70.000
205.70	71.429
206.08	-50.000
206.45	177.778
206.83	114.286
207.20	-14.286
207.58	-400.000
207.96	0.000
208.33	-130.000
208.71	50.000
209.08	-66.667
209.46	-200.000
209.84	-200.000
210.21	500.000
210.59	-71.429
210.96	-83.333
211.34	175.000
211.71	73.333
212.09	-14.286
212.46	-600.000
212.84	0.000
213.22	70.000
213.59	500.000
213.97	0.000
214.34	36.364
214.72	33.333
215.09	225.000
215.47	23.077
215.84	-27.273
216.22	-366.667
216.59	-12.500
216.97	0.000
217.34	125.000
217.72	-140.000
218.09	62.500
218.47	150.000
218.84	200.000
219.22	-77.778
219.59	60.000
219.97	-100.000
220.34	150.000
220.72	-14.286
221.09	-400.000
221.47	100.000
221.84	-500.000
222.22	-500.000
222.59	63.636
222.97	25.000
223.34	-266.667
223.72	0.000
224.09	23.810
224.46	10.714
224.84	133.333
225.21	0.000
225.59	113.333
225.96	-150.000
226.34	150.000
226.71	-57.143
227.08	-100.000
227.46	75.000
227.83	-50.000
228.21	-33.333
228.58	45.455
228.95	25.000
229.33	30.000
229.70	43.750
230.08	-12.500
230.45	-28.571
230.82	85.714
231.20	-6.667
231.57	114.286
231.95	128.571
232.32	-60.000
232.69	78.571
233.07	66.667
233.44	60.000
233.81	-70.000
234.19	88.889
234.56	0.000
234.93	100.000
235.31	175.000
235.68	-160.000
236.05	23.077
236.43	55.000
236.80	17.647
237.17	34.375
237.55	45.000
237.92	88.889
238.29	63.889
238.67	43.333
239.04	55.882
239.41	12.195
239.79	96.667
240.16	60.976
240.53	18.421
240.91	50.000
241.28	55.556
241.65	76.786
242.02	67.123
242.40	80.000
242.77	84.746
243.14	48.485
243.51	63.750
243.89	63.218
244.26	56.322
244.63	60.714
245.00	69.072
245.38	72.165
245.75	65.169
246.12	55.172
246.49	61.983
246.87	63.462
247.24	57.143
247.61	65.789
247.98	58.537
248.36	55.000
248.73	67.763
249.10	66.234
249.47	65.823
249.84	69.281
250.22	65.882
250.59	67.974
250.96	66.667
251.33	64.535
251.70	72.941
252.08	59.898
252.45	64.356
252.82	67.839
253.19	65.438
253.56	65.888
253.94	69.369
254.31	66.522
254.68	68.860
255.05	64.961
255.42	67.686
255.79	66.023
256.16	64.981
256.54	65.672
256.91	64.259
257.28	64.684
257.65	61.798
258.02	63.830
258.39	63.636
258.76	66.667
259.14	69.103
259.51	66.019
259.88	71.134
260.25	64.052
260.62	67.361
260.99	70.847
261.36	66.781
261.73	68.038
262.10	65.046
262.47	65.337
262.85	65.204
263.22	66.462
263.59	67.601
263.96	68.634
264.33	67.879
264.70	66.667
265.07	70.536
265.44	72.238
265.81	69.209
266.18	67.213
266.55	67.095
266.92	66.839
267.29	67.102
267.66	65.473
268.03	67.277
268.40	66.057
268.77	70.856
269.14	64.029
269.51	64.524
269.88	63.092
270.25	66.071
270.62	62.927
270.99	68.798
271.36	64.303
271.73	65.023
272.10	65.937
272.47	64.066
272.84	64.851
273.21	65.197
273.58	66.024
273.95	66.133
274.32	62.818
274.69	62.443
275.06	66.741
275.43	65.079
275.80	64.459
276.17	64.368
276.54	62.955
276.91	67.325
277.28	67.031
277.65	64.463
278.02	61.489
278.39	65.864
278.76	63.941
279.13	62.656
279.50	63.866
279.87	60.259
280.23	61.935
280.60	63.353
280.97	64.444
281.34	60.577
281.71	66.735
282.08	61.554
282.45	61.252
282.82	61.776
283.19	63.056
283.56	61.657
283.92	60.721
284.29	60.000
284.66	61.434
285.03	63.261
285.40	61.626
285.77	58.875
286.14	57.942
286.51	61.624
286.87	58.867
287.24	61.694
287.61	60.494
287.98	58.070
288.35	56.326
288.72	60.595
289.08	57.812
289.45	57.469
289.82	56.993
290.19	57.509
290.56	56.775
290.93	56.397
291.29	53.313
291.66	53.386
292.03	53.907
292.40	51.935
292.77	50.239
293.13	52.435
293.50	50.531
293.87	52.214
294.24	51.159
294.60	50.522
294.97	48.958
295.34	50.767
295.71	49.329
296.08	47.683
296.44	46.942
296.81	49.583
297.18	48.116
297.55	46.477
297.91	47.945
298.28	47.230
298.65	45.726
299.02	45.148
299.38	44.460
299.75	45.931
300.12	44.764
300.48	44.796
300.85	45.501
301.22	44.286
301.59	44.211
301.95	44.684
302.32	45.136
302.69	44.279
303.05	43.936
303.42	41.843
303.79	42.874
304.15	45.281
304.52	42.331
304.89	41.287
305.25	42.373
305.62	41.307
305.99	43.158
306.35	43.006
306.72	41.395
307.09	41.961
307.45	41.906
307.82	40.509
308.19	43.322
308.55	41.767
308.92	43.246
309.29	41.899
309.65	39.612
310.02	40.154
310.38	41.712
310.75	42.514
311.12	42.088
311.48	39.343
311.85	41.257
312.22	39.768
312.58	41.295
312.95	40.875
313.31	40.890
313.68	40.000
314.05	39.592
314.41	39.691
314.78	40.619
315.14	40.082
315.51	40.683
315.87	40.984
316.24	40.950
316.61	39.665
316.97	39.782
317.34	38.770
317.70	39.771
318.07	38.750
318.43	40.588
318.80	38.068
319.16	39.355
319.53	39.601
319.89	39.469
320.26	39.676
320.62	39.819
320.99	37.787
321.35	39.568
321.72	39.875
322.08	39.174
322.45	38.173
322.81	38.900
323.18	39.156
323.54	37.548
323.91	37.780
324.27	39.355
324.64	39.139
325.00	38.412
325.37	38.935
325.73	36.990
326.10	38.874
326.46	38.834
326.83	38.845
327.19	38.710
327.56	38.315
327.92	38.468
328.29	37.768
328.65	36.604
329.01	38.971
329.38	37.327
329.74	37.205
330.11	37.813
330.47	35.529
330.84	38.365
331.20	38.308
331.56	36.667
331.93	36.895
332.29	37.214
332.66	35.837
333.02	36.617
333.38	36.114
333.75	38.645
334.11	34.288
334.48	36.718
334.84	36.722
335.20	36.962
335.57	35.993
335.93	37.218
336.29	35.451
336.66	35.876
337.02	35.967
337.38	35.741
337.75	37.000
338.11	35.437
338.47	37.135
338.84	35.952
339.20	36.106
339.56	37.064
339.93	36.437
340.29	37.156
340.65	36.111
341.02	36.170
341.38	35.929
341.74	35.777
342.11	34.835
342.47	35.676
342.83	36.159
343.20	34.321
343.56	36.435
343.92	36.404
344.28	35.440
344.65	34.629
345.01	36.128
345.37	34.315
345.73	36.904
346.10	34.858
346.46	35.240
346.82	33.061
347.19	34.248
347.55	35.923
347.91	35.680
348.27	33.387
348.63	35.009
349.00	35.193
349.36	35.245
349.72	34.909
350.08	34.344
350.45	32.801
350.81	33.887
351.17	33.632
351.53	35.918
351.89	33.939
352.26	33.440
352.62	34.113
352.98	33.173
353.34	33.897
353.70	35.356
354.07	33.387
354.43	33.867
354.79	34.187
355.15	33.651
355.51	33.940
355.87	33.091
356.24	32.953
356.60	33.306
356.96	34.127
357.32	32.987
357.68	33.620
358.04	32.876
358.40	33.360
358.77	33.573
359.13	34.908
359.49	31.125
359.85	33.385
360.21	33.254
360.57	33.129
360.93	33.359
361.29	33.459
361.66	34.404
362.02	32.955
362.38	34.196
362.74	33.232
363.10	33.484
363.46	32.617
363.82	33.509
364.18	31.882
364.54	32.647
364.90	32.186
365.26	33.552
365.62	34.161
365.98	31.818
366.35	33.795
366.71	33.333
367.07	33.890
367.43	33.789
367.79	32.509
368.15	32.520
368.51	33.430
368.87	32.663
369.23	32.347
369.59	33.601
369.95	33.944
370.31	32.081
370.67	33.060
371.03	32.263
371.39	32.385
371.75	31.868
372.11	32.668
372.47	33.432
372.83	33.002
373.19	31.812
373.55	31.336
373.91	31.102
374.27	32.743
374.63	32.304
374.99	32.553
375.35	31.267
375.71	32.448
376.07	32.725
376.42	31.905
376.78	32.685
377.14	31.415
377.50	30.611
377.86	32.329
378.22	32.674
378.58	32.436
378.94	31.254
379.30	31.753
379.66	32.853
380.02	31.453
380.38	32.441
380.74	31.299
381.09	32.270
381.45	33.028
381.81	32.202
382.17	31.980
382.53	32.292
382.89	31.262
383.25	32.732
383.61	32.195
383.97	32.635
384.32	31.019
384.68	31.641
385.04	31.189
385.40	30.741
385.76	32.453
386.12	32.471
386.48	32.567
386.83	31.959
387.19	31.746
387.55	31.870
387.91	30.807
388.27	30.952
388.62	32.096
388.98	31.246
389.34	32.542
389.70	32.256
390.06	31.278
390.42	30.311
390.77	31.328
391.13	31.400
391.49	31.953
391.85	31.644
392.20	31.952
392.56	32.549
392.92	31.239
393.28	31.840
393.64	31.772
393.99	32.539
394.35	31.499
394.71	33.397
395.07	32.370
395.42	31.330
395.78	31.661
396.14	32.346
396.50	31.706
396.85	32.582
397.21	31.328
397.57	30.345
397.92	31.396
398.28	31.609
398.64	30.843
399.00	32.167
399.35	30.474
399.71	31.706
400.07	32.225
400.42	31.579
400.78	32.027
401.14	32.184
401.49	32.043
401.85	32.054
402.21	31.928
402.57	32.250
402.92	31.368
403.28	31.391
403.63	31.904
403.99	32.207
404.35	32.979
404.70	31.548
405.06	31.199
405.42	32.567
405.77	30.970
406.13	30.559
406.49	31.498
406.84	31.846
407.20	31.607
407.55	31.487
407.91	30.682
408.27	31.485
408.62	32.554
408.98	31.608
409.34	31.351
409.69	31.202
410.05	31.773
410.40	31.049
410.76	32.027
411.11	32.250
411.47	31.953
411.83	31.262
412.18	32.947
412.54	31.336
412.89	31.527
413.25	31.167
413.60	31.429
413.96	30.613
414.31	31.402
414.67	30.340
415.03	32.024
415.38	31.070
415.74	32.248
416.09	31.940
416.45	31.465
416.80	31.527
417.16	32.113
417.51	32.445
417.87	30.443
418.22	32.319
418.58	32.241
418.93	32.226
419.29	30.346
419.64	31.497
420.00	32.872
420.35	31.284
420.71	32.139
421.06	32.719
421.42	32.332
421.77	31.618
422.12	30.931
422.48	31.294
422.83	31.961
423.19	31.095
423.54	30.159
423.90	30.860
424.25	31.343
424.61	31.151
424.96	31.359
425.31	32.005
425.67	31.279
426.02	32.214
426.38	31.371
426.73	31.295
427.09	31.456
427.44	32.353
427.79	32.233
428.15	31.371
428.50	32.465
428.85	31.020
429.21	31.522
429.56	32.291
429.92	30.971
430.27	31.228
430.62	31.835
430.98	30.786
431.33	31.546
431.68	31.345
432.04	31.805
432.39	30.576
432.74	31.088
433.10	31.667
433.45	31.541
433.80	30.876
434.16	30.194
434.51	31.505
434.86	31.823
435.22	30.791
435.57	32.314
435.92	31.677
436.28	31.306
436.63	31.489
436.98	31.170
437.34	30.853
437.69	32.200
438.04	32.194
438.39	31.704
438.75	31.451
439.10	31.409
439.45	32.258
439.81	31.070
440.16	31.473
440.51	31.761
440.86	32.749
441.22	31.561
441.57	30.905
441.92	32.949
442.27	32.539
442.63	32.066
442.98	31.993
443.33	31.608
443.68	31.300
444.03	32.538
444.39	30.939
444.74	33.110
445.09	32.238
445.44	30.997
445.79	33.007
446.15	30.947
446.50	31.392
446.85	31.084
447.20	31.335
447.55	31.920
447.91	30.626
448.26	31.360
448.61	32.412
448.96	31.899
449.31	31.561
449.66	31.940
450.02	31.204
450.37	31.713
450.72	30.813
451.07	31.266
451.42	30.836
451.77	32.731
452.12	31.160
452.47	31.423
452.83	31.567
453.18	31.056
453.53	30.721
453.88	31.876
454.23	31.776
454.58	31.801
454.93	31.379
455.28	31.175
455.63	31.494
455.98	32.231
456.34	32.056
456.69	31.830
457.04	32.262
457.39	31.774
457.74	30.593
458.09	31.018
458.44	30.895
458.79	31.092
459.14	31.350
459.49	32.418
459.84	31.416
460.19	31.978
460.54	32.213
460.89	32.159
461.24	31.553
461.59	32.067
461.94	31.069
462.29	30.881
462.64	32.691
462.99	32.227
463.34	30.320
463.69	30.309
464.04	31.235
464.39	31.170
464.74	31.656
465.09	31.129
465.44	31.275
465.79	31.746
466.14	31.243
466.49	31.512
466.84	32.778
467.19	31.164
467.54	31.098
467.89	31.586
468.24	31.569
468.59	31.937
468.94	31.492
469.29	32.459
469.64	30.622
469.99	32.446
470.34	29.761
470.68	31.096
471.03	31.706
471.38	31.526
471.73	31.162
472.08	30.054
472.43	31.275
472.78	31.117
473.13	31.156
473.48	30.945
473.83	30.884
474.17	32.124
474.52	31.461
474.87	32.000
475.22	30.140
475.57	30.322
475.92	31.322
476.27	32.014
476.61	31.655
476.96	30.340
477.31	31.368
477.66	31.348
478.01	30.320
478.36	31.209
478.70	31.539
479.05	32.582
479.40	32.061
479.75	31.283
480.10	31.490
480.45	32.050
480.79	31.823
481.14	32.275
481.49	31.182
481.84	31.274
482.19	30.636
482.53	31.847
482.88	31.408
483.23	31.286
483.58	31.462
483.92	30.058
484.27	29.854
484.62	30.973
484.97	30.348
485.31	30.600
485.66	30.575
486.01	31.507
486.36	31.430
486.70	31.730
487.05	31.405
487.40	31.075
487.75	31.211
488.09	30.346
488.44	29.642
488.79	30.743
489.13	30.609
489.48	30.141
489.83	31.031
490.17	30.337
490.52	31.547
490.87	30.865
491.22	31.089
491.56	30.123
491.91	30.736
492.26	31.065
492.60	31.142
492.95	31.481
493.30	30.826
493.64	31.827
493.99	31.256
494.34	30.583
494.68	31.143
495.03	29.976
495.37	31.060
495.72	30.338
496.07	31.415
496.41	30.802
496.76	31.598
497.11	30.508
497.45	30.549
497.80	31.181
498.14	30.502
498.49	31.031
498.84	30.788
499.18	30.924
499.53	30.754
499.87	29.961
500.22	30.465
500.56	31.770
500.91	30.271
501.26	30.203
501.60	30.448
501.95	31.344
502.29	30.266
502.64	31.322
502.98	32.166
503.33	29.779
503.67	30.120
504.02	31.427
504.36	31.470
504.71	29.798
505.06	30.498
505.40	31.472
505.75	31.237
506.09	30.461
506.44	31.314
506.78	31.224
507.13	32.058
507.47	30.235
507.82	30.395
508.16	31.220
508.51	31.165
508.85	30.455
509.19	30.655
509.54	30.777
509.88	30.636
510.23	30.823
510.57	32.175
510.92	30.277
511.26	30.496
511.61	30.363
511.95	30.247
512.30	29.545
512.64	30.662
512.98	30.095
513.33	31.058
513.67	30.699
514.02	30.378
514.36	31.543
514.70	31.643
515.05	31.140
515.39	30.224
515.74	30.958
516.08	30.783
516.42	31.861
516.77	31.480
517.11	30.682
517.46	30.999
517.80	30.453
518.14	29.884
518.49	30.529
518.83	30.923
519.17	29.654
519.52	30.847
519.86	30.492
520.20	31.045
520.55	30.832
520.89	31.430
521.23	31.919
521.58	31.356
521.92	30.897
522.26	30.254
522.61	30.195
522.95	31.854
523.29	31.067
523.64	30.241
523.98	31.692
524.32	30.863
524.66	31.050
525.01	30.649
525.35	31.756
525.69	30.168
526.04	30.093
526.38	32.166
526.72	30.412
527.06	29.702
527.41	30.277
527.75	30.496
528.09	30.432
528.43	31.465
528.78	31.023
529.12	31.484
529.46	31.969
529.80	30.462
530.15	31.617
530.49	31.111
530.83	31.464
531.17	29.214
531.51	31.669
531.86	29.776
532.20	30.480
532.54	31.178
532.88	30.732
533.22	30.712
533.57	29.817
533.91	31.723
534.25	31.510
534.59	30.340
534.93	30.208
535.27	30.774
535.62	31.756
535.96	31.963
536.30	31.728
536.64	31.496
536.98	31.777
537.32	31.081
537.66	32.188
538.01	31.469
538.35	31.068
538.69	31.292
539.03	30.280
539.37	32.840
539.71	31.357
540.05	31.229
540.39	30.332
540.73	31.381
541.07	31.492
541.42	32.191
541.76	32.209
542.10	30.970
542.44	31.063
542.78	29.938
543.12	30.907
543.46	31.919
543.80	30.049
544.14	30.040
544.48	31.779
544.82	30.895
545.16	32.309
545.50	32.176
545.84	30.737
546.18	31.206
546.52	31.651
546.86	30.625
547.20	31.044
547.54	30.813
547.88	32.133
548.22	29.980
548.56	30.211
548.90	30.997
549.24	30.579
549.58	31.523
549.92	29.235
550.26	30.623
550.60	31.375
550.94	32.338
551.28	31.066
551.62	30.615
551.96	30.602
552.30	30.263
552.64	29.337
552.98	30.380
553.32	30.599
553.66	30.116
554.00	31.095
554.34	30.576
554.68	30.752
555.02	31.101
555.36	30.217
555.69	30.256
556.03	31.406
556.37	30.107
556.71	31.264
557.05	30.500
557.39	30.112
557.73	30.810
558.07	31.523
558.41	31.240
558.75	29.618
559.08	29.236
559.42	30.952
559.76	31.145
560.10	30.810
560.44	30.007
560.78	29.860
561.12	31.453
561.45	32.256
561.79	31.303
562.13	32.292
562.47	30.576
562.81	30.331
563.15	30.606
563.48	31.117
563.82	31.160
564.16	31.825
564.50	30.811
564.84	30.924
565.17	30.449
565.51	31.489
565.85	32.442
566.19	31.830
566.52	32.105
566.86	32.262
567.20	30.946
567.54	31.448
567.88	32.220
568.21	32.014
568.55	31.467
568.89	31.314
569.23	31.536
569.56	31.699
569.90	31.506
570.24	31.113
570.57	31.636
570.91	32.276
571.25	30.944
571.59	31.579
571.92	31.052
572.26	30.888
572.60	31.225
572.93	30.970
573.27	30.502
573.61	31.354
573.95	31.649
574.28	31.356
574.62	31.223
574.96	31.090
575.29	31.424
575.63	30.241
575.97	30.903
576.30	30.475
576.64	30.808
576.98	31.480
577.31	31.973
577.65	31.445
577.98	31.636
578.32	31.366
578.66	30.668
578.99	30.721
579.33	30.227
579.67	31.340
580.00	31.139
580.34	31.219
580.67	31.479
581.01	30.716
581.35	31.223
581.68	31.411
582.02	31.235
582.35	31.495
582.69	31.028
583.02	30.912
583.36	31.015
583.70	30.633
584.03	31.582
584.37	31.903
584.70	31.456
585.04	30.207
585.37	31.155
585.71	31.029
586.04	31.014
586.38	30.915
586.72	31.105
587.05	31.514
587.39	31.507
587.72	31.575
588.06	30.805
588.39	30.590
588.73	31.074
589.06	31.311
589.40	31.628
589.73	31.617
590.07	31.873
590.40	31.269
590.73	32.084
591.07	31.595
591.40	30.810
591.74	31.493
592.07	31.633
592.41	31.670
592.74	31.223
593.08	30.073
593.41	31.631
593.75	31.011
594.08	31.033
594.41	30.713
594.75	30.305
595.08	31.669
595.42	31.542
595.75	31.243
596.09	30.571
596.42	31.666
596.75	31.039
597.09	30.342
597.42	30.578
597.75	31.058
598.09	30.512
598.42	30.912
598.76	30.202
599.09	30.929
599.42	30.352
599.76	30.587
600.09	30.505
600.42	30.591
600.76	30.869
601.09	30.573
601.42	30.082
601.76	30.488
602.09	30.569
602.42	31.719
602.76	31.324
603.09	31.395
603.42	31.773
603.76	30.484
604.09	30.498
604.42	31.430
604.76	31.331
605.09	31.947
605.42	31.512
605.75	31.261
606.09	31.295
606.42	30.901
606.75	31.255
607.09	31.165
607.42	30.306
607.75	30.906
608.08	29.560
608.42	29.100
608.75	31.325
609.08	31.739
609.41	31.117
609.75	29.839
610.08	31.053
610.41	29.903
610.74	30.912
611.07	30.594
611.41	30.618
611.74	31.450
612.07	29.390
612.40	31.291
612.73	31.412
613.07	30.090
613.40	31.893
613.73	30.386
614.06	30.607
614.39	31.077
614.72	30.028
615.06	30.670
615.39	29.749
615.72	29.763
616.05	30.223
616.38	29.801
616.71	31.988
617.05	30.883
617.38	30.861
617.71	31.321
618.04	31.492
618.37	31.400
618.70	31.287
619.03	30.694
619.36	29.740
619.69	31.691
620.03	31.994
620.36	31.187
620.69	30.835
621.02	30.657
621.35	31.452
621.68	30.867
622.01	31.000
622.34	30.247
622.67	30.599
623.00	30.475
623.33	30.259
623.66	29.993
623.99	31.694
624.32	30.722
624.65	30.000
624.99	31.151
625.32	30.629
625.65	31.658
625.98	31.104
626.31	30.923
626.64	31.802
626.97	30.716
627.30	30.385
627.63	29.983
627.96	31.267
628.29	31.175
628.62	31.957
628.95	28.257
629.28	32.661
629.61	29.113
629.94	30.596
630.26	30.040
630.59	32.154
630.92	30.667
631.25	29.026
631.58	31.498
631.91	29.605
632.24	28.784
632.57	31.705
632.90	30.368
633.23	31.529
633.56	30.856
633.89	31.196
