SpectraSuite Data File
++++++++++++++++++++++++++++++++++++
Date: Fri May 15 17:23:52 PDT 2015
User: schluterlab
Dark Spectrum Present: Yes
Reference Spectrum Present: Yes
Number of Sampled Component Spectra: 1
Spectrometers: USB2E3373
Integration Time (usec): 3000 (USB2E3373)
Spectra Averaged: 3 (USB2E3373)
Boxcar Smoothing: 0 (USB2E3373)
Correct for Electrical Dark: No (USB2E3373)
Strobe/Lamp Enabled: No (USB2E3373)
Correct for Detector Non-linearity: No (USB2E3373)
Correct for Stray Light: No (USB2E3373)
Number of Pixels in Processed Spectrum: 2048
>>>>>Begin Processed Spectral Data<<<<<
178.53	0.000
178.91	0.000
179.29	0.000
179.67	-600.000
180.04	28.571
180.42	0.000
180.80	-100.000
181.18	-33.333
181.56	250.000
181.94	550.000
182.31	-100.000
182.69	-60.000
183.07	466.667
183.45	0.000
183.83	-16.667
184.20	9.091
184.58	100.000
184.96	-25.000
185.34	-433.333
185.72	200.000
186.09	38.462
186.47	-700.000
186.85	33.333
187.23	122.222
187.61	-200.000
187.98	0.000
188.36	77.778
188.74	-266.667
189.12	94.118
189.49	66.667
189.87	0.000
190.25	21.429
190.63	200.000
191.00	0.000
191.38	15.789
191.76	300.000
192.14	-100.000
192.51	250.000
192.89	22.222
193.27	42.857
193.65	116.667
194.02	136.364
194.40	30.000
194.78	-75.000
195.15	58.333
195.53	-87.500
195.91	225.000
196.29	-250.000
196.66	123.077
197.04	57.143
197.42	55.556
197.79	-366.667
198.17	7.692
198.55	500.000
198.92	100.000
199.30	900.000
199.68	20.000
200.05	33.333
200.43	0.000
200.81	33.333
201.18	100.000
201.56	-0.000
201.94	-400.000
202.31	-266.667
202.69	-280.000
203.07	75.000
203.44	500.000
203.82	0.000
204.19	135.714
204.57	-266.667
204.95	100.000
205.32	100.000
205.70	28.571
206.08	225.000
206.45	155.556
206.83	114.286
207.20	-85.714
207.58	-600.000
207.96	-133.333
208.33	-80.000
208.71	25.000
209.08	-50.000
209.46	0.000
209.84	0.000
210.21	-300.000
210.59	100.000
210.96	0.000
211.34	225.000
211.71	33.333
212.09	-28.571
212.46	-900.000
212.84	0.000
213.22	90.000
213.59	-150.000
213.97	46.154
214.34	100.000
214.72	133.333
215.09	300.000
215.47	15.385
215.84	27.273
216.22	100.000
216.59	150.000
216.97	250.000
217.34	150.000
217.72	60.000
218.09	62.500
218.47	37.500
218.84	300.000
219.22	-55.556
219.59	100.000
219.97	333.333
220.34	-75.000
220.72	14.286
221.09	125.000
221.47	600.000
221.84	-50.000
222.22	-300.000
222.59	90.909
222.97	50.000
223.34	-66.667
223.72	14.286
224.09	57.143
224.46	35.714
224.84	200.000
225.21	160.000
225.59	100.000
225.96	350.000
226.34	50.000
226.71	-42.857
227.08	-33.333
227.46	37.500
227.83	-150.000
228.21	44.444
228.58	118.182
228.95	37.500
229.33	150.000
229.70	12.500
230.08	-62.500
230.45	-71.429
230.82	28.571
231.20	-60.000
231.57	42.857
231.95	57.143
232.32	-40.000
232.69	21.429
233.07	0.000
233.44	0.000
233.81	-60.000
234.19	55.556
234.56	-29.412
234.93	350.000
235.31	100.000
235.68	-160.000
236.05	-38.462
236.43	20.000
236.80	23.529
237.17	34.375
237.55	10.000
237.92	-11.111
238.29	-8.333
238.67	13.333
239.04	11.765
239.41	-9.756
239.79	-3.333
240.16	43.902
240.53	-2.632
240.91	-13.043
241.28	-3.175
241.65	12.500
242.02	12.329
242.40	-3.333
242.77	1.695
243.14	7.576
243.51	-7.500
243.89	18.391
244.26	2.299
244.63	-10.714
245.00	0.000
245.38	6.186
245.75	-10.112
246.12	-0.862
246.49	10.744
246.87	11.538
247.24	1.681
247.61	-7.018
247.98	4.065
248.36	1.250
248.73	5.263
249.10	-1.948
249.47	-0.633
249.84	1.307
250.22	3.529
250.59	-1.961
250.96	14.554
251.33	-2.326
251.70	-2.353
252.08	0.000
252.45	-0.990
252.82	0.503
253.19	7.834
253.56	-0.935
253.94	6.306
254.31	4.348
254.68	0.000
255.05	1.181
255.42	-1.747
255.79	3.475
256.16	3.113
256.54	4.104
256.91	3.422
257.28	2.230
257.65	-1.498
258.02	-0.709
258.39	6.397
258.76	2.564
259.14	4.651
259.51	1.618
259.88	-0.344
260.25	-0.980
260.62	2.431
260.99	-0.678
261.36	-0.685
261.73	0.316
262.10	-0.608
262.47	-0.613
262.85	0.313
263.22	1.538
263.59	0.312
263.96	0.932
264.33	0.606
264.70	-0.298
265.07	1.190
265.44	2.550
265.81	0.000
266.18	2.732
266.55	3.342
266.92	2.591
267.29	1.567
267.66	3.325
268.03	1.832
268.40	0.783
268.77	6.150
269.14	2.398
269.51	1.542
269.88	0.249
270.25	-0.765
270.62	1.951
270.99	-2.302
271.36	0.000
271.73	2.582
272.10	1.217
272.47	0.000
272.84	1.238
273.21	4.640
273.58	2.892
273.95	0.229
274.32	-1.848
274.69	0.000
275.06	1.116
275.43	0.227
275.80	0.000
276.17	-0.460
276.54	1.499
276.91	0.439
277.28	0.218
277.65	0.620
278.02	2.979
278.39	0.219
278.76	0.629
279.13	-1.867
279.50	2.101
279.87	3.024
280.23	-1.075
280.60	5.068
280.97	0.606
281.34	-1.346
281.71	3.696
282.08	2.045
282.45	0.000
282.82	-0.386
283.19	0.000
283.56	0.578
283.92	-0.949
284.29	0.192
284.66	-0.581
285.03	0.589
285.40	-0.189
285.77	0.000
286.14	0.722
286.51	2.583
286.87	0.914
287.24	-0.368
287.61	-0.882
287.98	2.807
288.35	1.386
288.72	1.226
289.08	0.521
289.45	1.757
289.82	2.448
290.19	-0.853
290.56	0.515
290.93	0.673
291.29	1.541
291.66	0.472
292.03	0.638
292.40	0.000
292.77	1.595
293.13	-1.136
293.50	-0.759
293.87	2.290
294.24	0.618
294.60	1.788
294.97	1.786
295.34	0.767
295.71	1.043
296.08	2.093
296.44	-0.427
296.81	2.778
297.18	1.159
297.55	1.084
297.91	1.781
298.28	3.430
298.65	0.543
299.02	0.135
299.38	-0.547
299.75	1.241
300.12	-0.131
300.48	-0.264
300.85	2.028
301.22	1.948
301.59	-0.263
301.95	1.266
302.32	1.297
302.69	0.124
303.05	0.371
303.42	2.117
303.79	2.687
304.15	0.836
304.52	1.546
304.89	0.702
305.25	-0.242
305.62	0.933
305.99	0.234
306.35	-0.231
306.72	-0.337
307.09	0.570
307.45	-0.344
307.82	0.926
308.19	3.252
308.55	1.636
308.92	1.198
309.29	0.000
309.65	0.431
310.02	0.330
310.38	0.220
310.75	0.874
311.12	0.753
311.48	0.954
311.85	1.047
312.22	1.055
312.58	0.849
312.95	0.534
313.31	0.207
313.68	1.361
314.05	0.408
314.41	1.340
314.78	0.412
315.14	2.364
315.51	1.967
315.87	1.230
316.24	3.236
316.61	2.067
316.97	2.183
317.34	1.660
317.70	1.625
318.07	1.827
318.43	1.667
318.80	1.610
319.16	2.344
319.53	5.033
319.89	3.839
320.26	4.049
320.62	4.012
320.99	3.132
321.35	4.419
321.72	3.011
322.08	4.935
322.45	4.670
322.81	4.617
323.18	3.533
323.54	5.116
323.91	5.745
324.27	6.250
324.64	7.116
325.00	7.755
325.37	7.530
325.73	7.253
326.10	7.539
326.46	8.072
326.83	8.749
327.19	8.544
327.56	8.862
327.92	8.539
328.29	8.571
328.65	9.811
329.01	9.835
329.38	9.124
329.74	10.104
330.11	11.585
330.47	10.204
330.84	10.192
331.20	12.072
331.56	10.926
331.93	10.776
332.29	13.291
332.66	12.760
333.02	12.175
333.38	12.191
333.75	12.821
334.11	11.728
334.48	12.511
334.84	14.011
335.20	14.364
335.57	12.421
335.93	11.924
336.29	13.536
336.66	12.625
337.02	11.338
337.38	12.407
337.75	13.000
338.11	12.985
338.47	13.139
338.84	13.956
339.20	12.888
339.56	13.486
339.93	13.966
340.29	15.413
340.65	13.978
341.02	14.007
341.38	14.336
341.74	14.753
342.11	13.258
342.47	13.345
342.83	14.014
343.20	12.892
343.56	13.217
343.92	14.260
344.28	15.030
344.65	13.299
345.01	13.829
345.37	14.634
345.73	13.808
346.10	15.272
346.46	14.382
346.82	13.011
347.19	12.718
347.55	13.116
347.91	13.997
348.27	13.905
348.63	15.503
349.00	13.290
349.36	14.547
349.72	15.008
350.08	14.262
350.45	14.525
350.81	13.787
351.17	13.599
351.53	14.694
351.89	13.047
352.26	13.760
352.62	14.919
352.98	13.333
353.34	13.446
353.70	14.482
354.07	14.919
354.43	14.492
354.79	14.121
355.15	15.238
355.51	13.924
355.87	14.887
356.24	13.866
356.60	13.743
356.96	15.079
357.32	14.058
357.68	13.917
358.04	15.347
358.40	13.746
358.77	14.274
359.13	14.732
359.49	13.328
359.85	14.509
360.21	15.152
360.57	14.231
360.93	15.129
361.29	13.822
361.66	14.812
362.02	14.318
362.38	14.623
362.74	14.307
363.10	15.726
363.46	14.752
363.82	16.228
364.18	14.834
364.54	14.338
364.90	14.480
365.26	13.610
365.62	15.912
365.98	15.469
366.35	16.023
366.71	15.004
367.07	14.949
367.43	15.385
367.79	16.184
368.15	15.219
368.51	16.169
368.87	15.291
369.23	16.101
369.59	15.087
369.95	15.469
370.31	15.968
370.67	15.672
371.03	14.787
371.39	15.463
371.75	15.311
372.11	15.549
372.47	15.828
372.83	16.891
373.19	16.120
373.55	14.874
373.91	15.767
374.27	16.159
374.63	16.726
374.99	15.248
375.35	16.226
375.71	16.923
376.07	15.590
376.42	16.871
376.78	16.577
377.14	17.265
377.50	16.268
377.86	17.470
378.22	17.167
378.58	16.218
378.94	16.257
379.30	17.031
379.66	16.364
380.02	17.351
380.38	16.738
380.74	17.235
381.09	17.546
381.45	17.431
381.81	16.965
382.17	16.751
382.53	16.989
382.89	17.137
383.25	18.233
383.61	18.293
383.97	16.825
384.32	18.074
384.68	17.399
385.04	18.199
385.40	17.673
385.76	19.371
386.12	19.922
386.48	18.199
386.83	18.199
387.19	18.681
387.55	18.758
387.91	18.643
388.27	18.437
388.62	18.502
388.98	18.355
389.34	18.738
389.70	18.459
390.06	18.565
390.42	18.977
390.77	18.901
391.13	18.726
391.49	18.823
391.85	19.298
392.20	18.393
392.56	19.898
392.92	19.612
393.28	20.165
393.64	18.559
393.99	19.875
394.35	18.596
394.71	19.796
395.07	19.485
395.42	19.429
395.78	19.349
396.14	19.987
396.50	19.594
396.85	19.382
397.21	18.985
397.57	19.060
397.92	19.892
398.28	19.195
398.64	18.614
399.00	19.695
399.35	19.357
399.71	19.012
400.07	19.166
400.42	18.666
400.78	19.718
401.14	19.238
401.49	20.250
401.85	19.135
402.21	20.000
402.57	19.375
402.92	18.193
403.28	19.799
403.63	19.861
403.99	18.814
404.35	19.363
404.70	18.929
405.06	18.684
405.42	19.267
405.77	18.361
406.13	18.161
406.49	19.124
406.84	19.193
407.20	20.108
407.55	18.416
407.91	18.850
408.27	18.292
408.62	20.431
408.98	19.470
409.34	20.136
409.69	17.894
410.05	18.781
410.40	19.444
410.76	19.119
411.11	18.688
411.47	19.132
411.83	18.581
412.18	18.662
412.54	19.351
412.89	18.781
413.25	19.495
413.60	19.441
413.96	19.387
414.31	19.512
414.67	18.987
415.03	18.842
415.38	18.407
415.74	19.544
416.09	18.942
416.45	19.244
416.80	19.828
417.16	19.890
417.51	20.053
417.87	19.492
418.22	20.078
418.58	19.465
418.93	20.564
419.29	18.694
419.64	20.091
420.00	21.033
420.35	20.179
420.71	20.413
421.06	19.767
421.42	21.274
421.77	20.578
422.12	20.431
422.48	20.087
422.83	20.592
423.19	21.106
423.54	20.459
423.90	19.611
424.25	21.125
424.61	22.521
424.96	21.487
425.31	21.433
425.67	21.890
426.02	20.730
426.38	22.167
426.73	21.429
427.09	22.468
427.44	22.176
427.79	22.157
428.15	22.269
428.50	22.047
428.85	21.622
429.21	22.411
429.56	22.480
429.92	22.650
430.27	22.556
430.62	22.112
430.98	22.611
431.33	22.660
431.68	22.606
432.04	22.471
432.39	22.932
432.74	22.971
433.10	24.023
433.45	23.059
433.80	23.738
434.16	23.102
434.51	23.226
434.86	24.448
435.22	24.117
435.57	24.329
435.92	23.772
436.28	24.031
436.63	25.157
436.98	24.392
437.34	23.533
437.69	25.283
438.04	24.615
438.39	24.252
438.75	24.347
439.10	24.561
439.45	24.833
439.81	23.976
440.16	26.010
440.51	25.433
440.86	26.405
441.22	25.283
441.57	25.331
441.92	26.390
442.27	26.053
442.63	25.428
442.98	26.192
443.33	25.042
443.68	26.207
444.03	25.633
444.39	26.217
444.74	26.644
445.09	26.281
445.44	26.895
445.79	27.024
446.15	26.211
446.50	26.012
446.85	27.418
447.20	26.538
447.55	26.897
447.91	26.734
448.26	26.921
448.61	26.310
448.96	27.080
449.31	27.168
449.66	26.481
450.02	26.868
450.37	27.623
450.72	26.518
451.07	27.089
451.42	26.654
451.77	27.426
452.12	27.273
452.47	26.529
452.83	27.680
453.18	27.451
453.53	27.750
453.88	27.930
454.23	26.798
454.58	28.715
454.93	27.384
455.28	26.794
455.63	27.898
455.98	27.901
456.34	27.522
456.69	28.463
457.04	28.607
457.39	27.947
457.74	27.267
458.09	27.487
458.44	27.911
458.79	27.059
459.14	28.776
459.49	28.239
459.84	28.821
460.19	27.063
460.54	28.545
460.89	28.239
461.24	28.944
461.59	28.147
461.94	27.484
462.29	28.227
462.64	28.704
462.99	28.097
463.34	28.790
463.69	28.121
464.04	29.237
464.39	28.260
464.74	29.877
465.09	29.133
465.44	29.256
465.79	28.288
466.14	29.418
466.49	28.637
466.84	29.506
467.19	29.975
467.54	28.544
467.89	29.627
468.24	29.319
468.59	29.333
468.94	29.143
469.29	29.180
469.64	30.622
469.99	30.343
470.34	28.942
470.68	29.530
471.03	29.724
471.38	29.815
471.73	30.742
472.08	29.715
472.43	30.067
472.78	28.513
473.13	30.952
473.48	30.879
473.83	29.514
474.17	30.181
474.52	30.377
474.87	30.121
475.22	29.896
475.57	29.531
475.92	30.828
476.27	30.326
476.61	30.961
476.96	29.504
477.31	30.882
477.66	29.607
478.01	31.162
478.36	30.937
478.70	30.832
479.05	31.374
479.40	30.525
479.75	30.292
480.10	29.339
480.45	31.050
480.79	31.420
481.14	30.635
481.49	30.542
481.84	30.261
482.19	30.075
482.53	30.743
482.88	31.265
483.23	30.182
483.58	30.755
483.92	31.123
484.27	30.128
484.62	30.928
484.97	30.638
485.31	30.238
485.66	30.763
486.01	30.544
486.36	29.912
486.70	29.946
487.05	29.663
487.40	29.705
487.75	29.887
488.09	29.883
488.44	29.161
488.79	29.959
489.13	30.769
489.48	30.440
489.83	30.179
490.17	30.742
490.52	31.085
490.87	30.773
491.22	31.184
491.56	31.309
491.91	31.023
492.26	31.065
492.60	31.334
492.95	32.268
493.30	31.363
493.64	32.318
493.99	31.836
494.34	31.748
494.68	31.476
495.03	31.630
495.37	31.747
495.72	33.064
496.07	32.439
496.41	31.698
496.76	32.520
497.11	31.393
497.45	31.551
497.80	31.837
498.14	31.843
498.49	31.691
498.84	31.936
499.18	32.229
499.53	32.292
499.87	31.955
500.22	31.701
500.56	32.375
500.91	32.480
501.26	31.933
501.60	32.514
501.95	31.538
502.29	32.736
502.64	32.867
502.98	33.794
503.33	31.556
503.67	32.145
504.02	33.284
504.36	32.806
504.71	33.434
505.06	32.763
505.40	32.589
505.75	33.608
506.09	34.060
506.44	34.856
506.78	33.571
507.13	33.454
507.47	32.115
507.82	33.173
508.16	33.069
508.51	33.526
508.85	33.909
509.19	34.114
509.54	34.477
509.88	33.765
510.23	34.804
510.57	33.993
510.92	33.689
511.26	34.643
511.61	34.818
511.95	34.849
512.30	34.313
512.64	34.836
512.98	34.812
513.33	34.639
513.67	34.281
514.02	36.384
514.36	35.486
514.70	35.315
515.05	36.545
515.39	35.478
515.74	37.066
516.08	35.266
516.42	37.102
516.77	36.513
517.11	36.795
517.46	36.445
517.80	34.982
518.14	35.824
518.49	36.238
518.83	36.209
519.17	35.476
519.52	36.234
519.86	35.414
520.20	36.513
520.55	36.273
520.89	36.261
521.23	36.352
521.58	37.350
521.92	36.282
522.26	36.370
522.61	37.468
522.95	37.417
523.29	36.976
523.64	37.738
523.98	36.747
524.32	36.920
524.66	38.156
525.01	37.273
525.35	36.293
525.69	37.306
526.04	35.780
526.38	38.262
526.72	36.102
527.06	37.613
527.41	38.193
527.75	36.662
528.09	37.741
528.43	39.095
528.78	37.492
529.12	37.161
529.46	37.622
529.80	36.669
530.15	37.822
530.49	36.768
530.83	38.030
531.17	37.609
531.51	38.851
531.86	36.982
532.20	36.952
532.54	38.802
532.88	37.645
533.22	39.046
533.57	37.418
533.91	38.055
534.25	39.323
534.59	37.909
534.93	37.256
535.27	37.817
535.62	38.108
535.96	37.443
536.30	37.863
536.64	38.181
536.98	36.655
537.32	39.474
537.66	38.990
538.01	39.161
538.35	37.864
538.69	38.016
539.03	37.047
539.37	37.550
539.71	37.219
540.05	38.086
540.39	38.227
540.73	39.888
541.07	39.296
541.42	37.903
541.76	39.023
542.10	38.747
542.44	37.665
542.78	37.577
543.12	37.981
543.46	39.430
543.80	38.446
544.14	36.449
544.48	37.442
544.82	37.936
545.16	39.003
545.50	37.917
545.84	39.164
546.18	38.865
546.52	40.159
546.86	38.749
547.20	39.270
547.54	37.314
547.88	38.927
548.22	37.475
548.56	37.665
548.90	38.679
549.24	37.741
549.58	38.787
549.92	37.598
550.26	38.901
550.60	39.257
550.94	38.686
551.28	39.258
551.62	39.231
551.96	39.098
552.30	38.596
552.64	38.152
552.98	38.115
553.32	38.374
553.66	38.462
554.00	40.365
554.34	39.365
554.68	39.823
555.02	40.030
555.36	40.165
555.69	38.242
556.03	38.758
556.37	38.932
556.71	39.928
557.05	38.926
557.39	38.662
557.73	39.505
558.07	40.875
558.41	40.658
558.75	39.439
559.08	41.056
559.42	40.635
559.76	39.712
560.10	39.526
560.44	37.826
560.78	40.350
561.12	39.633
561.45	40.408
561.79	39.356
562.13	40.454
562.47	39.784
562.81	39.481
563.15	39.774
563.48	40.806
563.82	39.945
564.16	40.181
564.50	38.446
564.84	39.558
565.17	40.241
565.51	40.915
565.85	40.192
566.19	39.721
566.52	40.684
566.86	39.203
567.20	39.103
567.54	40.146
567.88	41.066
568.21	40.045
568.55	39.076
568.89	39.014
569.23	38.854
569.56	39.011
569.90	38.936
570.24	37.849
570.57	38.000
570.91	38.097
571.25	36.797
571.59	37.185
571.92	35.911
572.26	36.775
572.60	36.000
572.93	35.770
573.27	35.549
573.61	36.247
573.95	36.974
574.28	35.779
574.62	35.749
574.96	36.101
575.29	36.295
575.63	35.320
575.97	34.833
576.30	35.985
576.64	35.417
576.98	36.036
577.31	36.495
577.65	36.537
577.98	36.348
578.32	35.620
578.66	35.397
578.99	35.190
579.33	35.823
579.67	35.276
580.00	35.418
580.34	35.448
580.67	34.990
581.01	35.807
581.35	35.680
581.68	35.800
582.02	35.915
582.35	35.432
582.69	36.190
583.02	35.655
583.36	35.841
583.70	36.734
584.03	36.169
584.37	36.674
584.70	36.401
585.04	36.321
585.37	36.388
585.71	35.818
586.04	36.183
586.38	36.303
586.72	36.758
587.05	37.146
587.39	37.378
587.72	37.671
588.06	36.812
588.39	37.596
588.73	36.844
589.06	37.965
589.40	37.297
589.73	38.226
590.07	38.331
590.40	37.539
590.73	38.797
591.07	37.871
591.40	38.424
591.74	38.009
592.07	39.471
592.41	39.708
592.74	38.988
593.08	37.932
593.41	38.517
593.75	37.749
594.08	37.762
594.41	37.773
594.75	37.824
595.08	38.782
595.42	38.388
595.75	39.054
596.09	38.937
596.42	38.528
596.75	37.922
597.09	39.134
597.42	39.612
597.75	38.708
598.09	38.162
598.42	38.403
598.76	39.082
599.09	38.261
599.42	38.499
599.76	37.923
600.09	38.424
600.42	38.362
600.76	37.259
601.09	38.282
601.42	38.230
601.76	37.991
602.09	37.500
602.42	39.890
602.76	38.837
603.09	39.120
603.42	39.674
603.76	39.113
604.09	38.477
604.42	39.552
604.76	39.519
605.09	38.620
605.42	39.233
605.75	39.273
606.09	39.575
606.42	37.990
606.75	39.307
607.09	39.473
607.42	39.123
607.75	38.321
608.08	38.455
608.42	38.465
608.75	39.614
609.08	39.213
609.41	40.102
609.75	39.264
610.08	40.439
610.41	39.758
610.74	40.029
611.07	39.948
611.41	39.699
611.74	40.405
612.07	39.775
612.40	40.481
612.73	39.944
613.07	38.639
613.40	39.551
613.73	39.843
614.06	39.566
614.39	40.835
614.72	39.608
615.06	40.168
615.39	39.520
615.72	39.612
616.05	40.503
616.38	39.031
616.71	39.694
617.05	42.372
617.38	39.975
617.71	40.943
618.04	41.270
618.37	41.362
618.70	42.640
619.03	42.153
619.36	40.232
619.69	41.698
620.03	43.024
620.36	42.275
620.69	40.400
621.02	41.514
621.35	41.992
621.68	43.537
622.01	43.167
622.34	42.378
622.67	41.877
623.00	41.271
623.33	41.845
623.66	42.857
623.99	42.057
624.32	42.510
624.65	40.752
624.99	42.137
625.32	42.381
625.65	43.284
625.98	41.821
626.31	42.062
626.64	43.847
626.97	44.066
627.30	43.170
627.63	41.681
627.96	44.025
628.29	44.218
628.62	44.444
628.95	43.687
629.28	43.750
629.61	44.666
629.94	44.477
630.26	43.874
630.59	46.098
630.92	44.410
631.25	43.897
631.58	45.374
631.91	44.298
632.24	46.101
632.57	45.341
632.90	46.026
633.23	44.824
633.56	46.474
633.89	45.623
634.22	46.790
634.55	47.141
634.88	44.955
635.20	46.026
635.53	47.200
635.86	47.074
636.19	47.089
636.52	48.087
636.85	45.533
637.18	45.912
637.51	45.912
637.83	46.912
638.16	48.568
638.49	45.232
