SpectraSuite Data File
++++++++++++++++++++++++++++++++++++
Date: Fri May 15 17:14:05 PDT 2015
User: schluterlab
Dark Spectrum Present: Yes
Reference Spectrum Present: Yes
Number of Sampled Component Spectra: 1
Spectrometers: USB2E3373
Integration Time (usec): 3000 (USB2E3373)
Spectra Averaged: 3 (USB2E3373)
Boxcar Smoothing: 0 (USB2E3373)
Correct for Electrical Dark: No (USB2E3373)
Strobe/Lamp Enabled: No (USB2E3373)
Correct for Detector Non-linearity: No (USB2E3373)
Correct for Stray Light: No (USB2E3373)
Number of Pixels in Processed Spectrum: 2048
>>>>>Begin Processed Spectral Data<<<<<
178.53	0.000
178.91	0.000
179.29	87.500
179.67	-100.000
180.04	-57.143
180.42	100.000
180.80	-1000.000
181.18	66.667
181.56	500.000
181.94	0.000
182.31	900.000
182.69	60.000
183.07	166.667
183.45	-40.000
183.83	166.667
184.20	81.818
184.58	22.222
184.96	-200.000
185.34	-33.333
185.72	-100.000
186.09	46.154
186.47	-300.000
186.85	-16.667
187.23	-11.111
187.61	200.000
187.98	0.000
188.36	55.556
188.74	100.000
189.12	58.824
189.49	72.222
189.87	0.000
190.25	0.000
190.63	-100.000
191.00	333.333
191.38	0.000
191.76	400.000
192.14	-150.000
192.51	1000.000
192.89	11.111
193.27	28.571
193.65	50.000
194.02	90.909
194.40	40.000
194.78	-25.000
195.15	33.333
195.53	50.000
195.91	225.000
196.29	-75.000
196.66	115.385
197.04	85.714
197.42	100.000
197.79	-433.333
198.17	-130.769
198.55	1500.000
198.92	133.333
199.30	700.000
199.68	-80.000
200.05	-266.667
200.43	0.000
200.81	366.667
201.18	100.000
201.56	400.000
201.94	-400.000
202.31	-300.000
202.69	-100.000
203.07	-25.000
203.44	500.000
203.82	0.000
204.19	78.571
204.57	-333.333
204.95	37.500
205.32	0.000
205.70	185.714
206.08	300.000
206.45	144.444
206.83	50.000
207.20	-28.571
207.58	500.000
207.96	133.333
208.33	30.000
208.71	125.000
209.08	-150.000
209.46	100.000
209.84	60.000
210.21	-800.000
210.59	100.000
210.96	133.333
211.34	25.000
211.71	13.333
212.09	-85.714
212.46	-1600.000
212.84	0.000
213.22	110.000
213.59	350.000
213.97	7.692
214.34	63.636
214.72	50.000
215.09	350.000
215.47	7.692
215.84	-63.636
216.22	-300.000
216.59	-50.000
216.97	600.000
217.34	225.000
217.72	120.000
218.09	137.500
218.47	12.500
218.84	1100.000
219.22	-44.444
219.59	140.000
219.97	133.333
220.34	100.000
220.72	28.571
221.09	-100.000
221.47	250.000
221.84	-100.000
222.22	-550.000
222.59	54.545
222.97	125.000
223.34	-100.000
223.72	14.286
224.09	28.571
224.46	32.143
224.84	133.333
225.21	40.000
225.59	60.000
225.96	-50.000
226.34	100.000
226.71	-57.143
227.08	16.667
227.46	75.000
227.83	100.000
228.21	11.111
228.58	18.182
228.95	12.500
229.33	10.000
229.70	37.500
230.08	50.000
230.45	-85.714
230.82	42.857
231.20	86.667
231.57	35.714
231.95	57.143
232.32	-10.000
232.69	92.857
233.07	233.333
233.44	-100.000
233.81	-70.000
234.19	55.556
234.56	-11.765
234.93	-300.000
235.31	150.000
235.68	-100.000
236.05	-30.769
236.43	-25.000
236.80	41.176
237.17	50.000
237.55	-5.000
237.92	0.000
238.29	19.444
238.67	46.667
239.04	41.176
239.41	-4.878
239.79	0.000
240.16	9.756
240.53	-10.526
240.91	19.565
241.28	17.460
241.65	21.429
242.02	32.877
242.40	31.667
242.77	22.034
243.14	6.061
243.51	18.750
243.89	21.839
244.26	12.644
244.63	14.286
245.00	13.402
245.38	24.742
245.75	1.124
246.12	10.345
246.49	23.967
246.87	27.885
247.24	15.126
247.61	12.281
247.98	13.821
248.36	11.875
248.73	20.395
249.10	13.636
249.47	17.089
249.84	15.033
250.22	12.941
250.59	14.379
250.96	17.840
251.33	12.209
251.70	16.471
252.08	13.706
252.45	21.287
252.82	8.040
253.19	21.659
253.56	11.215
253.94	18.018
254.31	20.000
254.68	18.421
255.05	16.142
255.42	14.847
255.79	13.514
256.16	15.564
256.54	18.657
256.91	12.928
257.28	15.242
257.65	16.854
258.02	11.702
258.39	19.865
258.76	14.286
259.14	13.953
259.51	17.152
259.88	12.371
260.25	11.765
260.62	18.403
260.99	15.932
261.36	12.671
261.73	14.241
262.10	13.678
262.47	13.497
262.85	10.972
263.22	16.000
263.59	14.953
263.96	18.323
264.33	13.636
264.70	11.310
265.07	14.583
265.44	20.113
265.81	18.079
266.18	15.574
266.55	17.995
266.92	17.876
267.29	16.449
267.66	14.578
268.03	16.492
268.40	14.883
268.77	18.717
269.14	14.149
269.51	16.452
269.88	13.466
270.25	12.755
270.62	13.171
270.99	13.043
271.36	14.425
271.73	11.972
272.10	9.732
272.47	13.475
272.84	14.109
273.21	15.777
273.58	14.940
273.95	13.501
274.32	14.319
274.69	13.348
275.06	13.616
275.43	13.605
275.80	17.219
276.17	12.874
276.54	15.203
276.91	14.912
277.28	13.974
277.65	16.529
278.02	15.532
278.39	15.536
278.76	13.417
279.13	12.863
279.50	16.176
279.87	14.471
280.23	12.688
280.60	14.815
280.97	16.162
281.34	13.654
281.71	14.579
282.08	15.133
282.45	12.720
282.82	12.934
283.19	11.992
283.56	15.414
283.92	12.334
284.29	14.615
284.66	12.984
285.03	13.949
285.40	13.043
285.77	13.357
286.14	13.538
286.51	14.945
286.87	11.883
287.24	11.050
287.61	11.993
287.98	13.158
288.35	12.652
288.72	13.835
289.08	13.368
289.45	13.005
289.82	12.587
290.19	14.505
290.56	12.521
290.93	12.290
291.29	10.632
291.66	12.126
292.03	10.686
292.40	12.903
292.77	9.091
293.13	10.714
293.50	12.747
293.87	11.145
294.24	10.355
294.60	10.730
294.97	13.095
295.34	11.656
295.71	10.432
296.08	11.659
296.44	10.242
296.81	11.389
297.18	8.986
297.55	12.602
297.91	10.274
298.28	11.214
298.65	11.940
299.02	9.838
299.38	6.840
299.75	10.897
300.12	9.555
300.48	10.013
300.85	11.407
301.22	9.481
301.59	9.211
301.95	10.000
302.32	10.376
302.69	10.075
303.05	10.025
303.42	10.461
303.79	10.631
304.15	11.470
304.52	8.323
304.89	9.942
305.25	10.412
305.62	7.935
305.99	8.655
306.35	10.173
306.72	9.336
307.09	9.806
307.45	10.218
307.82	10.301
308.19	9.640
308.55	10.033
308.92	11.220
309.29	9.721
309.65	9.365
310.02	10.891
310.38	9.879
310.75	8.962
311.12	10.764
311.48	9.014
311.85	9.634
312.22	9.177
312.58	9.766
312.95	9.178
313.31	10.352
313.68	10.471
314.05	8.980
314.41	9.381
314.78	11.134
315.14	9.764
315.51	10.248
315.87	9.836
316.24	11.325
316.61	11.122
316.97	11.111
317.34	10.937
317.70	10.612
318.07	10.385
318.43	11.569
318.80	11.932
319.16	12.109
319.53	11.681
319.89	12.008
320.26	10.830
320.62	11.434
320.99	10.856
321.35	12.436
321.72	12.773
322.08	12.387
322.45	12.183
322.81	13.360
323.18	11.286
323.54	12.259
323.91	12.853
324.27	12.988
324.64	13.577
325.00	14.234
325.37	16.162
325.73	13.237
326.10	14.986
326.46	14.978
326.83	14.786
327.19	14.908
327.56	14.422
327.92	14.789
328.29	15.000
328.65	16.132
329.01	16.452
329.38	15.300
329.74	14.731
330.11	16.126
330.47	15.399
330.84	16.154
331.20	17.395
331.56	15.648
331.93	17.169
332.29	16.499
332.66	16.652
333.02	15.985
333.38	14.940
333.75	17.766
334.11	16.652
334.48	17.860
334.84	16.941
335.20	17.200
335.57	17.044
335.93	16.621
336.29	17.219
336.66	16.530
337.02	16.450
337.38	16.944
337.75	17.727
338.11	16.862
338.47	18.704
338.84	16.451
339.20	17.459
339.56	18.073
339.93	18.353
340.29	17.064
340.65	18.638
341.02	16.667
341.38	16.814
341.74	16.166
342.11	16.551
342.47	16.815
342.83	17.820
343.20	16.202
343.56	18.174
343.92	18.335
344.28	18.104
344.65	17.012
345.01	16.681
345.37	16.905
345.73	18.996
346.10	18.550
346.46	17.241
346.82	17.021
347.19	16.791
347.55	16.959
347.91	18.123
348.27	17.462
348.63	17.376
349.00	17.145
349.36	17.623
349.72	17.993
350.08	17.623
350.45	17.318
350.81	16.611
351.17	17.182
351.53	17.878
351.89	17.176
352.26	17.600
352.62	17.742
352.98	17.108
353.34	17.713
353.70	17.557
354.07	17.419
354.43	17.774
354.79	16.846
355.15	18.968
355.51	19.066
355.87	17.557
356.24	18.352
356.60	17.947
356.96	18.175
357.32	17.812
357.68	16.497
358.04	18.174
358.40	17.605
358.77	18.581
359.13	17.694
359.49	18.182
359.85	18.175
360.21	18.022
360.57	18.133
360.93	18.684
361.29	17.069
361.66	18.103
362.02	18.409
362.38	19.269
362.74	17.790
363.10	18.435
363.46	17.791
363.82	19.684
364.18	19.041
364.54	18.235
364.90	18.136
365.26	18.705
365.62	18.978
365.98	17.522
366.35	19.301
366.71	18.847
367.07	19.594
367.43	18.045
367.79	18.587
368.15	18.880
368.51	19.228
368.87	17.875
369.23	18.484
369.59	18.294
369.95	18.768
370.31	18.425
370.67	18.806
371.03	18.596
371.39	18.381
371.75	19.560
372.11	19.544
372.47	19.601
372.83	19.021
373.19	19.330
373.55	18.412
373.91	19.150
374.27	19.986
374.63	19.957
374.99	19.220
375.35	19.359
375.71	19.720
376.07	19.803
376.42	19.728
376.78	19.732
377.14	18.619
377.50	19.057
377.86	19.946
378.22	20.230
378.58	20.513
378.94	19.282
379.30	20.586
379.66	19.937
380.02	19.375
380.38	19.111
380.74	19.928
381.09	20.245
381.45	19.939
381.81	20.173
382.17	20.812
382.53	20.050
382.89	20.339
383.25	20.784
383.61	20.976
383.97	19.683
384.32	20.013
384.68	20.681
385.04	19.975
385.40	19.913
385.76	20.629
386.12	20.893
386.48	21.137
386.83	20.165
387.19	21.429
387.55	21.832
387.91	21.333
388.27	21.673
388.62	21.145
388.98	20.196
389.34	20.987
389.70	20.945
390.06	21.712
390.42	21.438
390.77	21.060
391.13	20.618
391.49	21.475
391.85	21.248
392.20	21.343
392.56	20.470
392.92	21.315
393.28	21.167
393.64	20.901
393.99	22.257
394.35	21.695
394.71	21.775
395.07	21.056
395.42	21.919
395.78	21.173
396.14	21.753
396.50	21.623
396.85	22.086
397.21	21.053
397.57	21.755
397.92	21.330
398.28	21.839
398.64	20.663
399.00	21.783
399.35	21.332
399.71	21.539
400.07	21.463
400.42	22.093
400.78	21.310
401.14	21.779
401.49	22.454
401.85	21.268
402.21	22.349
402.57	22.875
402.92	20.954
403.28	22.306
403.63	21.564
403.99	21.429
404.35	21.799
404.70	21.488
405.06	21.798
405.42	20.945
405.77	21.499
406.13	21.944
406.49	21.610
406.84	21.944
407.20	21.312
407.55	21.378
407.91	22.126
408.27	21.415
408.62	21.846
408.98	22.674
409.34	21.623
409.69	23.385
410.05	22.106
410.40	21.296
410.76	21.894
411.11	21.375
411.47	22.091
411.83	21.469
412.18	21.750
412.54	21.536
412.89	21.367
413.25	21.420
413.60	22.112
413.96	21.779
414.31	21.280
414.67	21.296
415.03	21.571
415.38	21.410
415.74	22.280
416.09	21.881
416.45	22.080
416.80	22.274
417.16	23.343
417.51	22.385
417.87	22.360
418.22	22.474
418.58	22.007
418.93	23.197
419.29	22.087
419.64	22.683
420.00	23.804
420.35	23.164
420.71	22.904
421.06	22.161
421.42	22.957
421.77	22.832
422.12	22.701
422.48	22.794
422.83	22.448
423.19	22.912
423.54	22.340
423.90	22.438
424.25	23.077
424.61	23.868
424.96	22.938
425.31	23.628
425.67	22.887
426.02	23.734
426.38	23.669
426.73	24.031
427.09	25.063
427.44	23.529
427.79	23.689
428.15	23.726
428.50	23.622
428.85	24.324
429.21	24.392
429.56	24.151
429.92	24.551
430.27	23.659
430.62	23.628
430.98	24.045
431.33	24.501
431.68	23.653
432.04	24.427
432.39	24.244
432.74	23.752
433.10	25.517
433.45	23.955
433.80	25.131
434.16	23.989
434.51	24.247
434.86	25.377
435.22	25.407
435.57	25.889
435.92	26.287
436.28	25.224
436.63	24.872
436.98	25.087
437.34	25.045
437.69	25.462
438.04	26.268
438.39	26.206
438.75	25.562
439.10	25.127
439.45	25.441
439.81	25.138
440.16	26.069
440.51	26.149
440.86	26.767
441.22	26.244
441.57	26.269
441.92	26.600
442.27	25.388
442.63	27.034
442.98	26.364
443.33	26.099
443.68	26.790
444.03	26.329
444.39	26.709
444.74	26.867
445.09	26.893
445.44	26.154
445.79	26.766
446.15	26.817
446.50	26.012
446.85	27.630
447.20	26.903
447.55	27.121
447.91	27.580
448.26	28.401
448.61	26.943
448.96	27.653
449.31	27.052
449.66	27.526
450.02	26.811
450.37	27.090
450.72	27.549
451.07	28.228
451.42	27.528
451.77	27.848
452.12	27.273
452.47	27.817
452.83	27.974
453.18	27.451
453.53	27.939
453.88	27.383
454.23	27.351
454.58	28.023
454.93	30.026
455.28	27.619
455.63	28.766
455.98	28.623
456.34	28.289
456.69	29.161
457.04	27.977
457.39	27.764
457.74	27.811
458.09	27.192
458.44	27.794
458.79	27.003
459.14	27.574
459.49	28.776
459.84	27.975
460.19	29.126
460.54	28.484
460.89	29.375
461.24	29.006
461.59	29.097
461.94	28.302
462.29	28.589
462.64	30.100
462.99	29.316
463.34	27.955
463.69	28.443
464.04	29.479
464.39	28.381
464.74	29.202
465.09	29.195
465.44	28.794
465.79	28.798
466.14	28.848
466.49	28.235
466.84	28.733
467.19	29.349
467.54	29.183
467.89	28.869
468.24	30.170
468.59	30.159
468.94	29.778
469.29	30.623
469.64	31.852
469.99	31.605
470.34	29.283
470.68	30.500
471.03	31.210
471.38	30.385
471.73	31.723
472.08	30.326
472.43	30.671
472.78	29.952
473.13	30.476
473.48	28.925
473.83	28.954
474.17	30.440
474.52	29.419
474.87	29.273
475.22	30.262
475.57	30.378
475.92	30.389
476.27	30.792
476.61	30.729
476.96	29.782
477.31	31.585
477.66	29.551
478.01	30.545
478.36	29.956
478.70	31.267
479.05	31.264
479.40	30.790
479.75	29.771
480.10	30.568
480.45	30.400
480.79	30.665
481.14	30.789
481.49	30.296
481.84	30.647
482.19	30.309
482.53	30.024
482.88	30.597
483.23	30.854
483.58	30.566
483.92	30.397
484.27	30.583
484.62	29.762
484.97	30.100
485.31	29.697
485.66	28.318
486.01	27.991
486.36	27.107
486.70	27.820
487.05	28.055
487.40	29.162
487.75	29.042
488.09	28.461
488.44	30.055
488.79	30.669
489.13	31.250
489.48	30.312
489.83	31.345
490.17	31.281
490.52	31.270
490.87	31.236
491.22	31.614
491.56	31.689
491.91	30.545
492.26	31.648
492.60	31.046
492.95	32.415
493.30	31.510
493.64	32.024
493.99	32.077
494.34	31.748
494.68	31.714
495.03	31.290
495.37	32.188
495.72	31.550
496.07	32.341
496.41	31.368
496.76	32.427
497.11	30.927
497.45	32.124
497.80	32.543
498.14	32.240
498.49	32.910
498.84	32.585
499.18	32.631
499.53	31.994
499.87	31.372
500.22	32.295
500.56	32.526
500.91	32.430
501.26	32.081
501.60	32.169
501.95	33.236
502.29	32.833
502.64	31.950
502.98	33.300
503.33	31.412
503.67	32.193
504.02	33.187
504.36	33.548
504.71	32.222
505.06	32.914
505.40	32.792
505.75	32.474
506.09	32.489
506.44	33.008
506.78	33.112
507.13	33.247
507.47	32.846
507.82	33.280
508.16	33.281
508.51	33.631
508.85	33.490
509.19	34.007
509.54	33.298
509.88	32.902
510.23	33.728
510.57	34.206
510.92	32.623
511.26	33.824
511.61	34.213
511.95	33.808
512.30	33.758
512.64	33.723
512.98	33.970
513.33	34.695
513.67	34.565
514.02	34.668
514.36	35.429
514.70	34.615
515.05	33.901
515.39	34.888
515.74	35.210
516.08	34.608
516.42	35.925
516.77	36.805
517.11	35.786
517.46	36.146
517.80	35.578
518.14	36.375
518.49	36.058
518.83	36.209
519.17	34.930
519.52	34.577
519.86	35.174
520.20	36.330
520.55	34.834
520.89	35.947
521.23	36.859
521.58	37.098
521.92	36.859
522.26	36.304
522.61	36.039
522.95	37.219
523.29	35.769
523.64	36.213
523.98	36.423
524.32	35.760
524.66	36.428
525.01	37.273
525.35	36.552
525.69	36.700
526.04	36.905
526.38	37.808
526.72	35.906
527.06	37.095
527.41	36.148
527.75	36.930
528.09	36.744
528.43	37.745
528.78	35.908
529.12	36.581
529.46	35.997
529.80	35.845
530.15	36.634
530.49	37.508
530.83	37.278
531.17	35.930
531.51	37.415
531.86	36.370
532.20	36.465
532.54	36.828
532.88	36.824
533.22	36.828
533.57	36.435
533.91	36.162
534.25	37.305
534.59	35.471
534.93	35.368
535.27	34.962
535.62	36.163
535.96	36.204
536.30	36.544
536.64	37.147
536.98	35.958
537.32	37.838
537.66	37.798
538.01	37.343
538.35	36.963
538.69	36.818
539.03	36.159
539.37	37.887
539.71	35.310
540.05	36.456
540.39	37.673
540.73	36.192
541.07	38.052
541.42	37.231
541.76	37.164
542.10	37.853
542.44	36.345
542.78	34.893
543.12	36.264
543.46	36.300
543.80	37.058
544.14	35.047
544.48	36.442
544.82	37.799
545.16	37.090
545.50	36.782
545.84	37.465
546.18	38.227
546.52	37.563
546.86	37.455
547.20	36.695
547.54	36.820
547.88	36.889
548.22	35.832
548.56	36.807
548.90	36.927
549.24	36.570
549.58	36.601
549.92	36.383
550.26	37.509
550.60	38.141
550.94	37.864
551.28	37.867
551.62	39.923
551.96	37.068
552.30	37.719
552.64	36.107
552.98	35.935
553.32	36.305
553.66	37.083
554.00	39.051
554.34	38.700
554.68	38.053
555.02	38.021
555.36	37.996
555.69	37.070
556.03	37.473
556.37	36.940
556.71	37.978
557.05	37.435
557.39	37.175
557.73	38.456
558.07	38.914
558.41	38.208
558.75	37.880
559.08	38.377
559.42	38.333
559.76	38.671
560.10	38.379
560.44	37.975
560.78	37.622
561.12	38.011
561.45	37.105
561.79	36.905
562.13	38.325
562.47	38.058
562.81	36.671
563.15	39.281
563.48	37.199
563.82	38.710
564.16	38.092
564.50	37.162
564.84	37.216
565.17	36.821
565.51	39.276
565.85	37.791
566.19	37.931
566.52	38.070
566.86	37.018
567.20	36.488
567.54	36.740
567.88	37.141
568.21	36.538
568.55	35.761
568.89	35.575
569.23	35.628
569.56	34.501
569.90	33.821
570.24	33.457
570.57	34.036
570.91	33.322
571.25	32.424
571.59	32.108
571.92	31.615
572.26	31.793
572.60	31.566
572.93	32.664
573.27	32.414
573.61	32.130
573.95	31.513
574.28	30.906
574.62	30.613
574.96	30.117
575.29	30.893
575.63	30.060
575.97	30.794
576.30	30.897
576.64	30.834
576.98	31.274
577.31	30.990
577.65	30.252
577.98	30.431
578.32	30.198
578.66	29.744
578.99	30.182
579.33	30.277
579.67	30.053
580.00	31.392
580.34	30.846
580.67	30.391
581.01	31.028
581.35	29.974
581.68	30.211
582.02	29.749
582.35	29.638
582.69	30.327
583.02	30.229
583.36	30.163
583.70	31.101
584.03	31.860
584.37	32.213
584.70	31.703
585.04	30.699
585.37	31.057
585.71	31.103
586.04	30.635
586.38	31.208
586.72	31.535
587.05	32.005
587.39	31.703
587.72	31.629
588.06	32.051
588.39	31.786
588.73	32.784
589.06	32.616
589.40	32.700
589.73	33.297
590.07	33.799
590.40	33.746
590.73	34.267
591.07	34.775
591.40	35.129
591.74	35.339
592.07	35.019
592.41	34.541
592.74	33.771
593.08	31.715
593.41	33.048
593.75	32.777
594.08	32.990
594.41	32.678
594.75	33.359
595.08	33.787
595.42	33.714
595.75	34.172
596.09	34.128
596.42	34.394
596.75	34.813
597.09	34.989
597.42	33.740
597.75	35.227
598.09	34.088
598.42	33.800
598.76	34.964
599.09	33.534
599.42	32.588
599.76	32.844
600.09	33.522
600.42	32.714
600.76	33.210
601.09	33.053
601.42	32.354
601.76	33.227
602.09	34.117
602.42	34.920
602.76	35.017
603.09	34.842
603.42	35.075
603.76	33.911
604.09	33.981
604.42	33.883
604.76	35.470
605.09	34.963
605.42	35.395
605.75	34.895
606.09	34.352
606.42	34.028
606.75	34.286
607.09	34.593
607.42	34.160
607.75	34.147
608.08	34.097
608.42	33.668
608.75	34.843
609.08	35.426
609.41	35.127
609.75	35.030
610.08	35.597
610.41	35.314
610.74	35.202
611.07	36.382
611.41	35.703
611.74	36.141
612.07	36.135
612.40	36.543
612.73	36.102
613.07	35.208
613.40	37.746
613.73	36.486
614.06	36.895
614.39	36.943
614.72	36.527
615.06	35.475
615.39	36.190
615.72	35.684
616.05	36.145
616.38	35.442
616.71	35.963
617.05	37.060
617.38	38.341
617.71	38.113
618.04	36.444
618.37	38.714
618.70	38.416
619.03	39.583
619.36	39.074
619.69	39.651
620.03	39.299
620.36	39.270
620.69	38.330
621.02	38.685
621.35	40.332
621.68	41.497
622.01	40.500
622.34	40.303
622.67	39.984
623.00	38.897
623.33	39.634
623.66	38.369
623.99	39.259
624.32	39.316
624.65	38.120
624.99	39.804
625.32	39.500
625.65	41.555
625.98	41.821
626.31	40.233
626.64	41.248
626.97	41.972
627.30	42.907
627.63	41.248
627.96	42.408
628.29	42.553
628.62	44.739
628.95	43.888
629.28	46.371
629.61	44.167
629.94	44.868
630.26	44.664
630.59	47.034
630.92	44.615
631.25	44.205
631.58	45.595
631.91	45.395
632.24	46.101
632.57	46.023
632.90	45.314
633.23	45.765
633.56	46.725
633.89	46.239
634.22	47.531
634.55	47.141
634.88	48.404
