SpectraSuite Data File
++++++++++++++++++++++++++++++++++++
Date: Fri May 15 20:06:57 PDT 2015
User: schluterlab
Dark Spectrum Present: Yes
Reference Spectrum Present: Yes
Number of Sampled Component Spectra: 1
Spectrometers: USB2E3373
Integration Time (usec): 3000 (USB2E3373)
Spectra Averaged: 3 (USB2E3373)
Boxcar Smoothing: 0 (USB2E3373)
Correct for Electrical Dark: No (USB2E3373)
Strobe/Lamp Enabled: No (USB2E3373)
Correct for Detector Non-linearity: No (USB2E3373)
Correct for Stray Light: No (USB2E3373)
Number of Pixels in Processed Spectrum: 2048
>>>>>Begin Processed Spectral Data<<<<<
178.53	0.000
178.91	0.000
179.29	100.000
179.67	-150.000
180.04	200.000
180.42	-25.000
180.80	200.000
181.18	233.333
181.56	-150.000
181.94	100.000
182.31	500.000
182.69	40.000
183.07	-300.000
183.45	60.000
183.83	-0.000
184.20	-18.182
184.58	144.444
184.96	150.000
185.34	-66.667
185.72	-50.000
186.09	38.462
186.47	-900.000
186.85	16.667
187.23	88.889
187.61	-1000.000
187.98	-100.000
188.36	-88.889
188.74	-333.333
189.12	23.529
189.49	66.667
189.87	0.000
190.25	28.571
190.63	50.000
191.00	-100.000
191.38	-36.842
191.76	-300.000
192.14	250.000
192.51	-150.000
192.89	-44.444
193.27	-100.000
193.65	100.000
194.02	90.909
194.40	10.000
194.78	-125.000
195.15	25.000
195.53	-87.500
195.91	375.000
196.29	100.000
196.66	169.231
197.04	57.143
197.42	-44.444
197.79	-200.000
198.17	-169.231
198.55	1300.000
198.92	-200.000
199.30	-1200.000
199.68	-120.000
200.05	-300.000
200.43	0.000
200.81	266.667
201.18	-66.667
201.56	1100.000
201.94	200.000
202.31	-0.000
202.69	-180.000
203.07	150.000
203.44	700.000
203.82	0.000
204.19	64.286
204.57	-333.333
204.95	225.000
205.32	80.000
205.70	-14.286
206.08	0.000
206.45	88.889
206.83	50.000
207.20	-128.571
207.58	600.000
207.96	-33.333
208.33	20.000
208.71	-300.000
209.08	-100.000
209.46	-700.000
209.84	-80.000
210.21	-200.000
210.59	100.000
210.96	-116.667
211.34	50.000
211.71	-13.333
212.09	-28.571
212.46	-1600.000
212.84	0.000
213.22	140.000
213.59	150.000
213.97	76.923
214.34	-36.364
214.72	83.333
215.09	350.000
215.47	-46.154
215.84	45.455
216.22	-333.333
216.59	-25.000
216.97	500.000
217.34	-175.000
217.72	-80.000
218.09	0.000
218.47	162.500
218.84	-600.000
219.22	-44.444
219.59	-40.000
219.97	133.333
220.34	475.000
220.72	-14.286
221.09	-325.000
221.47	-100.000
221.84	-100.000
222.22	-600.000
222.59	-18.182
222.97	25.000
223.34	233.333
223.72	0.000
224.09	9.524
224.46	17.857
224.84	333.333
225.21	10.000
225.59	13.333
225.96	-100.000
226.34	350.000
226.71	-142.857
227.08	-33.333
227.46	-50.000
227.83	-700.000
228.21	-44.444
228.58	54.545
228.95	-12.500
229.33	120.000
229.70	75.000
230.08	-112.500
230.45	-85.714
230.82	57.143
231.20	-26.667
231.57	50.000
231.95	-57.143
232.32	-20.000
232.69	-71.429
233.07	300.000
233.44	-80.000
233.81	-80.000
234.19	11.111
234.56	23.529
234.93	450.000
235.31	50.000
235.68	-120.000
236.05	-15.385
236.43	-30.000
236.80	-17.647
237.17	18.750
237.55	25.000
237.92	3.704
238.29	8.333
238.67	40.000
239.04	-14.706
239.41	-4.878
239.79	26.667
240.16	41.463
240.53	28.947
240.91	6.522
241.28	34.921
241.65	25.000
242.02	30.137
242.40	36.667
242.77	50.847
243.14	22.727
243.51	25.000
243.89	36.782
244.26	39.080
244.63	29.762
245.00	22.680
245.38	32.990
245.75	22.472
246.12	27.586
246.49	32.231
246.87	35.577
247.24	32.773
247.61	21.930
247.98	32.520
248.36	30.625
248.73	30.921
249.10	35.065
249.47	22.152
249.84	30.065
250.22	28.824
250.59	39.869
250.96	32.394
251.33	29.651
251.70	34.118
252.08	30.964
252.45	31.683
252.82	28.643
253.19	30.876
253.56	29.907
253.94	36.937
254.31	35.652
254.68	32.018
255.05	31.102
255.42	31.004
255.79	29.730
256.16	32.296
256.54	34.328
256.91	30.798
257.28	28.625
257.65	29.213
258.02	33.333
258.39	29.630
258.76	35.897
259.14	32.558
259.51	31.068
259.88	31.959
260.25	33.987
260.62	38.542
260.99	33.220
261.36	30.822
261.73	33.544
262.10	34.043
262.47	32.822
262.85	30.408
263.22	31.385
263.59	33.022
263.96	30.745
264.33	32.727
264.70	34.524
265.07	30.655
265.44	33.711
265.81	33.051
266.18	34.426
266.55	32.648
266.92	35.233
267.29	33.159
267.66	31.202
268.03	32.199
268.40	32.637
268.77	36.898
269.14	31.894
269.51	32.134
269.88	31.421
270.25	28.061
270.62	30.244
270.99	31.202
271.36	28.117
271.73	34.038
272.10	32.117
272.47	35.697
272.84	33.416
273.21	32.947
273.58	32.048
273.95	32.037
274.32	31.640
274.69	30.317
275.06	33.036
275.43	29.932
275.80	31.788
276.17	31.494
276.54	29.550
276.91	33.333
277.28	31.223
277.65	32.438
278.02	30.000
278.39	31.072
278.76	30.608
279.13	28.631
279.50	31.513
279.87	31.102
280.23	29.247
280.60	31.384
280.97	30.707
281.34	26.346
281.71	31.211
282.08	29.039
282.45	29.941
282.82	29.923
283.19	29.400
283.56	27.168
283.92	29.412
284.29	30.192
284.66	27.132
285.03	30.845
285.40	29.679
285.77	26.889
286.14	29.783
286.51	30.443
286.87	29.250
287.24	29.834
287.61	27.513
287.98	30.526
288.35	29.116
288.72	27.320
289.08	28.646
289.45	26.538
289.82	26.399
290.19	25.085
290.56	26.758
290.93	27.104
291.29	25.116
291.66	25.039
292.03	25.837
292.40	24.355
292.77	23.445
293.13	24.675
293.50	24.886
293.87	25.191
294.24	26.275
294.60	24.441
294.97	24.405
295.34	23.620
295.71	24.292
296.08	24.066
296.44	22.333
296.81	24.583
297.18	23.478
297.55	23.713
297.91	23.836
298.28	22.823
298.65	24.559
299.02	22.642
299.38	20.520
299.75	21.241
300.12	21.859
300.48	22.661
300.85	20.659
301.22	22.078
301.59	21.842
301.95	22.025
302.32	22.698
302.69	21.269
303.05	22.772
303.42	20.797
303.79	22.664
304.15	22.700
304.52	20.571
304.89	19.298
305.25	20.218
305.62	20.420
305.99	20.351
306.35	21.734
306.72	17.885
307.09	20.753
307.45	20.666
307.82	21.065
308.19	20.209
308.55	19.629
308.92	20.261
309.29	19.330
309.65	19.160
310.02	19.912
310.38	21.076
310.75	20.109
311.12	18.945
311.48	19.512
311.85	19.686
312.22	20.359
312.58	19.002
312.95	18.570
313.31	19.462
313.68	19.058
314.05	18.469
314.41	20.515
314.78	18.454
315.14	19.013
315.51	18.841
315.87	19.877
316.24	19.312
316.61	19.488
316.97	20.337
317.34	19.922
317.70	19.216
318.07	18.750
318.43	18.431
318.80	17.614
319.16	20.117
319.53	18.993
319.89	18.602
320.26	19.231
320.62	19.659
320.99	17.537
321.35	19.013
321.72	19.730
322.08	18.832
322.45	18.477
322.81	18.271
323.18	18.351
323.54	17.375
323.91	18.598
324.27	19.336
324.64	19.007
325.00	19.161
325.37	20.110
325.73	17.498
326.10	19.619
326.46	18.744
326.83	18.548
327.19	19.442
327.56	18.766
327.92	18.310
328.29	18.571
328.65	19.340
329.01	19.577
329.38	18.341
329.74	18.602
330.11	17.980
330.47	18.831
330.84	17.212
331.20	19.867
331.56	17.870
331.93	17.991
332.29	19.248
332.66	19.005
333.02	17.937
333.38	17.782
333.75	18.315
334.11	17.905
334.48	18.586
334.84	18.590
335.20	17.292
335.57	17.407
335.93	18.157
336.29	17.403
336.66	17.802
337.02	17.565
337.38	17.130
337.75	17.273
338.11	18.395
338.47	18.066
338.84	18.022
339.20	16.545
339.56	17.339
339.93	18.263
340.29	18.165
340.65	18.728
341.02	17.465
341.38	17.611
341.74	16.431
342.11	15.598
342.47	18.327
342.83	17.647
343.20	18.293
343.56	17.826
343.92	17.006
344.28	17.933
344.65	16.839
345.01	17.113
345.37	17.578
345.73	16.402
346.10	17.515
346.46	17.494
346.82	17.349
347.19	16.791
347.55	17.293
347.91	18.366
348.27	16.815
348.63	17.291
349.00	16.571
349.36	16.708
349.72	17.413
350.08	17.869
350.45	17.478
350.81	16.196
351.17	15.961
351.53	17.551
351.89	15.194
352.26	17.040
352.62	16.774
352.98	17.028
353.34	17.150
353.70	17.476
354.07	15.645
354.43	16.733
354.79	16.102
355.15	16.587
355.51	17.563
355.87	18.285
356.24	15.661
356.60	16.572
356.96	17.302
357.32	16.853
357.68	16.575
358.04	15.913
358.40	16.559
358.77	17.464
359.13	16.573
359.49	16.410
359.85	16.927
360.21	16.746
360.57	16.144
360.93	16.566
361.29	15.559
361.66	16.144
362.02	15.985
362.38	15.765
362.74	16.427
363.10	16.855
363.46	16.234
363.82	16.829
364.18	16.605
364.54	16.397
364.90	16.272
365.26	16.739
365.62	17.591
365.98	16.716
366.35	17.116
366.71	16.556
367.07	16.183
367.43	16.175
367.79	16.254
368.15	15.578
368.51	16.752
368.87	16.009
369.23	15.957
369.59	16.691
369.95	16.789
370.31	16.835
370.67	15.522
371.03	15.907
371.39	14.734
371.75	16.044
372.11	16.833
372.47	16.568
372.83	16.111
373.19	16.690
373.55	15.596
373.91	16.559
374.27	16.230
374.63	16.296
374.99	15.106
375.35	15.320
375.71	15.944
376.07	16.011
376.42	16.531
376.78	16.376
377.14	16.249
377.50	15.671
377.86	15.797
378.22	16.465
378.58	16.026
378.94	15.816
379.30	16.843
379.66	17.053
380.02	15.880
380.38	15.946
380.74	15.320
381.09	16.748
381.45	15.902
381.81	16.718
382.17	16.371
382.53	16.552
382.89	16.886
383.25	16.428
383.61	16.524
383.97	15.937
384.32	16.573
384.68	16.904
385.04	15.686
385.40	15.681
385.76	16.352
386.12	17.270
386.48	16.475
386.83	16.867
387.19	16.850
387.55	16.750
387.91	15.709
388.27	15.751
388.62	16.677
388.98	16.083
389.34	17.302
389.70	16.718
390.06	16.174
390.42	15.997
390.77	16.743
391.13	16.267
391.49	16.818
391.85	16.504
392.20	16.259
392.56	17.038
392.92	17.205
393.28	16.215
393.64	16.336
393.99	16.991
394.35	16.256
394.71	17.561
395.07	16.468
395.42	16.576
395.78	16.482
396.14	17.087
396.50	16.994
396.85	16.484
397.21	17.356
397.57	16.803
397.92	16.717
398.28	16.724
398.64	15.602
399.00	17.212
399.35	15.971
399.71	16.312
400.07	17.352
400.42	17.075
400.78	17.024
401.14	17.483
401.49	17.213
401.85	17.002
402.21	16.867
402.57	16.938
402.92	16.750
403.28	17.920
403.63	16.583
403.99	16.964
404.35	17.114
404.70	15.357
405.06	16.921
405.42	16.656
405.77	16.444
406.13	16.764
406.49	16.874
406.84	15.954
407.20	17.219
407.55	16.484
407.91	16.644
408.27	16.890
408.62	17.477
408.98	16.759
409.34	17.658
409.69	16.085
410.05	16.872
410.40	16.790
410.76	16.828
411.11	16.813
411.47	17.554
411.83	16.698
412.18	16.667
412.54	17.228
412.89	16.133
413.25	17.148
413.60	16.894
413.96	16.196
414.31	16.890
414.67	16.549
415.03	16.844
415.38	16.841
415.74	17.850
416.09	17.505
416.45	16.948
416.80	16.391
417.16	16.989
417.51	17.189
417.87	17.080
418.22	17.034
418.58	17.124
418.93	17.241
419.29	16.325
419.64	17.174
420.00	17.884
420.35	17.851
420.71	17.375
421.06	16.943
421.42	17.488
421.77	16.821
422.12	16.742
422.48	17.434
422.83	16.937
423.19	16.366
423.54	16.343
423.90	15.960
424.25	17.336
424.61	17.136
424.96	17.886
425.31	17.793
425.67	17.195
426.02	18.080
426.38	17.282
426.73	17.676
427.09	17.785
427.44	18.000
427.79	17.325
428.15	17.900
428.50	17.444
428.85	16.523
429.21	17.374
429.56	17.574
429.92	17.257
430.27	16.942
430.62	16.884
430.98	17.304
431.33	17.981
431.68	17.216
432.04	17.105
432.39	17.171
432.74	17.198
433.10	18.563
433.45	17.981
433.80	17.295
434.16	16.288
434.51	17.312
434.86	17.480
435.22	18.116
435.57	17.530
435.92	16.587
436.28	17.591
436.63	17.684
436.98	16.918
437.34	17.423
437.69	18.128
438.04	17.607
438.39	17.166
438.75	17.304
439.10	17.431
439.45	18.381
439.81	17.982
440.16	17.221
440.51	18.507
440.86	18.308
441.22	17.930
441.57	16.722
441.92	18.048
442.27	18.625
442.63	19.165
442.98	17.346
443.33	18.086
443.68	16.764
444.03	18.679
444.39	17.757
444.74	19.064
445.09	18.263
445.44	18.234
445.79	19.030
446.15	17.896
446.50	17.637
446.85	18.650
447.20	18.040
447.55	18.750
447.91	18.161
448.26	18.896
448.61	18.250
448.96	18.474
449.31	17.225
449.66	18.060
450.02	18.711
450.37	19.087
450.72	18.099
451.07	19.051
451.42	17.978
451.77	18.626
452.12	18.959
452.47	18.802
452.83	17.903
453.18	17.584
453.53	18.268
453.88	18.579
454.23	18.992
454.58	19.962
454.93	18.363
455.28	17.714
455.63	19.281
455.98	18.761
456.34	18.008
456.69	18.424
457.04	18.841
457.39	18.894
457.74	18.742
458.09	17.834
458.44	18.841
458.79	18.039
459.14	19.050
459.49	19.284
459.84	19.177
460.19	18.689
460.54	18.643
460.89	18.636
461.24	19.130
461.59	19.240
461.94	18.239
462.29	19.602
462.64	18.937
462.99	18.687
463.34	18.359
463.69	18.597
464.04	19.007
464.39	18.921
464.74	19.080
465.09	18.653
465.44	18.811
465.79	18.651
466.14	18.643
466.49	18.344
466.84	19.036
467.19	19.337
467.54	18.838
467.89	19.141
468.24	18.856
468.59	19.492
468.94	19.048
469.29	19.279
469.64	20.027
469.99	19.832
470.34	18.908
470.68	19.612
471.03	20.241
471.38	20.185
471.73	19.678
472.08	18.657
472.43	18.121
472.78	18.437
473.13	19.116
473.48	19.544
473.83	19.552
474.17	19.365
474.52	19.528
474.87	18.364
475.22	18.670
475.57	18.803
475.92	18.870
476.27	20.198
476.61	19.329
476.96	18.907
477.31	19.578
477.66	19.157
478.01	19.147
478.36	19.063
478.70	19.304
479.05	18.846
479.40	19.555
479.75	19.447
480.10	18.843
480.45	19.300
480.79	19.084
481.14	19.775
481.49	19.015
481.84	18.726
482.19	18.709
482.53	18.993
482.88	18.902
483.23	18.570
483.58	19.057
483.92	19.216
484.27	18.505
484.62	19.319
484.97	18.532
485.31	18.027
485.66	18.109
486.01	18.621
486.36	18.311
486.70	18.324
487.05	18.606
487.40	18.563
487.75	18.789
488.09	18.696
488.44	19.223
488.79	18.715
489.13	19.030
489.48	19.196
489.83	19.372
490.17	19.191
490.52	19.076
490.87	19.435
491.22	19.102
491.56	18.643
491.91	19.216
492.26	19.203
492.60	19.434
492.95	18.692
493.30	19.052
493.64	19.204
493.99	20.097
494.34	19.078
494.68	19.429
495.03	19.075
495.37	18.891
495.72	18.526
496.07	19.366
496.41	19.340
496.76	18.931
497.11	19.003
497.45	19.332
497.80	19.929
498.14	19.374
498.49	19.198
498.84	18.812
499.18	20.080
499.53	19.792
499.87	18.969
500.22	19.486
500.56	19.264
500.91	18.926
501.26	18.735
501.60	18.741
501.95	19.602
502.29	18.886
502.64	19.739
502.98	19.931
503.33	18.780
503.67	19.277
504.02	19.941
504.36	19.792
504.71	18.788
505.06	18.973
505.40	19.137
505.75	18.763
506.09	19.007
506.44	19.405
506.78	19.031
507.13	19.442
507.47	18.329
507.82	20.085
508.16	19.070
508.51	18.730
508.85	19.519
509.19	18.627
509.54	18.981
509.88	19.148
510.23	19.688
510.57	19.936
510.92	18.817
511.26	19.749
511.61	19.967
511.95	20.110
512.30	19.956
512.64	20.200
512.98	19.090
513.33	19.082
513.67	18.704
514.02	20.080
514.36	20.629
514.70	20.688
515.05	20.564
515.39	20.248
515.74	20.240
516.08	19.366
516.42	19.729
516.77	20.246
517.11	19.881
517.46	19.749
517.80	19.607
518.14	19.657
518.49	19.291
518.83	20.413
519.17	18.981
519.52	19.005
519.86	19.688
520.20	20.474
520.55	19.262
520.89	19.824
521.23	19.759
521.58	20.505
521.92	20.000
522.26	20.104
522.61	20.909
522.95	21.126
523.29	20.076
523.64	19.886
523.98	19.702
524.32	19.588
524.66	20.423
525.01	20.065
525.35	20.156
525.69	19.798
526.04	19.048
526.38	21.141
526.72	19.555
527.06	20.428
527.41	20.449
527.75	19.638
528.09	20.066
528.43	20.932
528.78	19.868
529.12	19.613
529.46	19.818
529.80	20.139
530.15	20.066
530.49	20.202
530.83	19.836
531.17	19.946
531.51	20.109
531.86	19.511
532.20	19.485
532.54	20.762
532.88	20.465
533.22	20.363
533.57	20.118
533.91	19.974
534.25	20.508
534.59	20.269
534.93	19.824
535.27	18.718
535.62	19.961
535.96	20.352
536.30	20.119
536.64	20.124
536.98	20.000
537.32	20.768
537.66	20.898
538.01	20.559
538.35	19.764
538.69	19.973
539.03	19.275
539.37	20.458
539.71	19.700
540.05	19.891
540.39	19.321
540.73	21.199
541.07	20.856
541.42	21.573
541.76	20.303
542.10	20.303
542.44	19.805
542.78	18.720
543.12	19.231
543.46	20.306
543.80	21.027
544.14	18.959
544.48	18.787
544.82	20.096
545.16	19.672
545.50	20.694
545.84	19.618
546.18	20.851
546.52	20.404
546.86	19.626
547.20	20.529
547.54	19.081
547.88	20.924
548.22	19.001
548.56	19.789
548.90	20.013
549.24	20.041
549.58	19.817
549.92	18.656
550.26	19.927
550.60	20.446
550.94	19.193
551.28	19.552
551.62	20.077
551.96	19.925
552.30	19.298
552.64	19.676
552.98	19.480
553.32	18.973
553.66	19.158
554.00	20.511
554.34	19.424
554.68	20.649
555.02	20.387
555.36	18.773
555.69	18.681
556.03	19.201
556.37	18.648
556.71	19.061
557.05	20.134
557.39	18.959
557.73	19.115
558.07	20.890
558.41	19.449
558.75	19.797
559.08	19.622
559.42	19.365
559.76	20.817
560.10	19.113
560.44	19.657
560.78	19.790
561.12	19.394
561.45	19.255
561.79	19.818
562.13	20.369
562.47	19.137
562.81	19.669
563.15	20.663
563.48	19.448
563.82	19.973
564.16	19.220
564.50	18.919
564.84	19.946
565.17	19.115
565.51	20.082
565.85	19.753
566.19	20.424
566.52	19.906
566.86	20.694
567.20	19.054
567.54	19.647
567.88	19.274
568.21	19.740
568.55	19.130
568.89	19.456
569.23	19.210
569.56	18.827
569.90	18.595
570.24	18.459
570.57	18.873
570.91	19.066
571.25	18.415
571.59	18.094
571.92	18.370
572.26	17.995
572.60	17.705
572.93	18.419
573.27	18.213
573.61	18.109
573.95	18.405
574.28	18.300
574.62	17.976
574.96	17.976
575.29	17.744
575.63	17.621
575.97	18.189
576.30	17.655
576.64	17.272
576.98	18.069
577.31	18.481
577.65	18.165
577.98	18.216
578.32	18.311
578.66	17.838
578.99	17.782
579.33	17.737
579.67	17.865
580.00	18.278
580.34	18.060
580.67	17.804
581.01	18.588
581.35	17.959
581.68	17.989
582.02	17.655
582.35	17.902
582.69	17.861
583.02	17.753
583.36	18.287
583.70	18.821
584.03	18.404
584.37	18.577
584.70	18.242
585.04	18.161
585.37	17.985
585.71	18.292
586.04	18.457
586.38	17.791
586.72	17.991
587.05	18.573
587.39	18.563
587.72	18.589
588.06	17.797
588.39	18.228
588.73	18.529
589.06	18.558
589.40	18.493
589.73	18.620
590.07	19.033
590.40	19.079
590.73	19.193
591.07	18.617
591.40	18.255
591.74	18.914
592.07	19.109
592.41	18.905
592.74	18.001
593.08	17.534
593.41	18.089
593.75	18.907
594.08	17.611
594.41	18.341
594.75	17.901
595.08	18.804
595.42	18.808
595.75	18.363
596.09	18.491
596.42	18.355
596.75	19.050
597.09	18.861
597.42	18.519
597.75	18.507
598.09	18.017
598.42	18.412
598.76	18.576
599.09	18.950
599.42	18.302
599.76	17.908
600.09	18.552
600.42	18.840
600.76	18.202
601.09	17.939
601.42	18.958
601.76	18.420
602.09	18.193
602.42	18.997
602.76	18.761
603.09	18.771
603.42	18.645
603.76	17.621
604.09	17.861
604.42	18.655
604.76	19.181
605.09	19.241
605.42	18.916
605.75	18.564
606.09	18.641
606.42	18.307
606.75	18.312
607.09	18.769
607.42	18.742
607.75	18.606
608.08	17.969
608.42	18.639
608.75	18.795
609.08	19.482
609.41	18.426
609.75	18.952
610.08	18.372
610.41	18.599
610.74	18.771
611.07	18.140
611.41	18.422
611.74	18.923
612.07	17.934
612.40	18.654
612.73	19.153
613.07	18.391
613.40	19.201
613.73	18.523
614.06	19.087
614.39	18.613
614.72	18.768
615.06	18.883
615.39	18.559
615.72	18.030
616.05	18.380
616.38	17.778
616.71	17.798
617.05	19.827
617.38	18.982
617.71	18.553
618.04	18.603
618.37	19.357
618.70	18.746
619.03	19.375
619.36	18.307
619.69	19.484
620.03	20.015
620.36	19.742
620.69	18.772
621.02	19.878
621.35	20.415
621.68	19.898
622.01	19.667
622.34	18.595
622.67	18.454
623.00	19.449
623.33	19.665
623.66	18.699
623.99	18.684
624.32	19.163
624.65	18.722
624.99	19.564
625.32	18.120
625.65	20.660
625.98	20.709
626.31	18.869
626.64	19.844
626.97	20.419
627.30	20.140
627.63	18.804
627.96	21.114
628.29	19.426
628.62	19.764
628.95	18.737
629.28	20.464
629.61	19.541
629.94	19.941
630.26	19.466
630.59	19.979
630.92	20.615
631.25	19.282
631.58	20.705
631.91	18.202
632.24	19.839
632.57	20.795
632.90	19.929
633.23	20.235
