SpectraSuite Data File
++++++++++++++++++++++++++++++++++++
Date: Fri May 15 17:19:12 PDT 2015
User: schluterlab
Dark Spectrum Present: Yes
Reference Spectrum Present: Yes
Number of Sampled Component Spectra: 1
Spectrometers: USB2E3373
Integration Time (usec): 3000 (USB2E3373)
Spectra Averaged: 3 (USB2E3373)
Boxcar Smoothing: 0 (USB2E3373)
Correct for Electrical Dark: No (USB2E3373)
Strobe/Lamp Enabled: No (USB2E3373)
Correct for Detector Non-linearity: No (USB2E3373)
Correct for Stray Light: No (USB2E3373)
Number of Pixels in Processed Spectrum: 2048
>>>>>Begin Processed Spectral Data<<<<<
178.53	0.000
178.91	0.000
179.29	162.500
179.67	150.000
180.04	-142.857
180.42	125.000
180.80	0.000
181.18	-66.667
181.56	550.000
181.94	100.000
182.31	200.000
182.69	160.000
183.07	266.667
183.45	120.000
183.83	-100.000
184.20	72.727
184.58	144.444
184.96	-125.000
185.34	-266.667
185.72	0.000
186.09	-46.154
186.47	0.000
186.85	16.667
187.23	22.222
187.61	-0.000
187.98	66.667
188.36	33.333
188.74	33.333
189.12	47.059
189.49	55.556
189.87	0.000
190.25	121.429
190.63	350.000
191.00	0.000
191.38	73.684
191.76	550.000
192.14	-100.000
192.51	600.000
192.89	44.444
193.27	28.571
193.65	-33.333
194.02	63.636
194.40	100.000
194.78	-137.500
195.15	-16.667
195.53	100.000
195.91	-25.000
196.29	100.000
196.66	23.077
197.04	-28.571
197.42	55.556
197.79	-66.667
198.17	-46.154
198.55	900.000
198.92	-166.667
199.30	1000.000
199.68	100.000
200.05	-100.000
200.43	0.000
200.81	100.000
201.18	200.000
201.56	300.000
201.94	-100.000
202.31	33.333
202.69	-40.000
203.07	275.000
203.44	1700.000
203.82	0.000
204.19	92.857
204.57	-200.000
204.95	12.500
205.32	-30.000
205.70	128.571
206.08	275.000
206.45	177.778
206.83	7.143
207.20	171.429
207.58	-100.000
207.96	266.667
208.33	-20.000
208.71	300.000
209.08	-66.667
209.46	0.000
209.84	260.000
210.21	100.000
210.59	114.286
210.96	50.000
211.34	175.000
211.71	86.667
212.09	-114.286
212.46	-500.000
212.84	0.000
213.22	180.000
213.59	-600.000
213.97	76.923
214.34	100.000
214.72	150.000
215.09	100.000
215.47	23.077
215.84	45.455
216.22	200.000
216.59	150.000
216.97	300.000
217.34	175.000
217.72	-180.000
218.09	12.500
218.47	75.000
218.84	800.000
219.22	0.000
219.59	220.000
219.97	-100.000
220.34	25.000
220.72	114.286
221.09	150.000
221.47	600.000
221.84	-100.000
222.22	-250.000
222.59	109.091
222.97	116.667
223.34	233.333
223.72	92.857
224.09	14.286
224.46	32.143
224.84	333.333
225.21	-40.000
225.59	120.000
225.96	-50.000
226.34	25.000
226.71	57.143
227.08	-83.333
227.46	150.000
227.83	-150.000
228.21	77.778
228.58	36.364
228.95	150.000
229.33	-30.000
229.70	100.000
230.08	37.500
230.45	-14.286
230.82	214.286
231.20	66.667
231.57	71.429
231.95	-57.143
232.32	20.000
232.69	64.286
233.07	300.000
233.44	60.000
233.81	-20.000
234.19	122.222
234.56	76.471
234.93	-200.000
235.31	100.000
235.68	-80.000
236.05	-38.462
236.43	-10.000
236.80	100.000
237.17	28.125
237.55	35.000
237.92	44.444
238.29	47.222
238.67	56.667
239.04	52.941
239.41	24.390
239.79	66.667
240.16	56.098
240.53	36.842
240.91	32.609
241.28	55.556
241.65	46.429
242.02	43.836
242.40	55.000
242.77	37.288
243.14	50.000
243.51	32.500
243.89	50.575
244.26	43.678
244.63	35.714
245.00	34.021
245.38	40.206
245.75	34.831
246.12	40.517
246.49	47.107
246.87	46.154
247.24	36.975
247.61	21.930
247.98	43.902
248.36	31.250
248.73	31.579
249.10	38.312
249.47	39.873
249.84	33.333
250.22	40.000
250.59	37.908
250.96	34.742
251.33	28.488
251.70	38.235
252.08	36.041
252.45	37.129
252.82	37.186
253.19	40.092
253.56	38.318
253.94	41.441
254.31	37.826
254.68	40.789
255.05	37.008
255.42	36.681
255.79	45.174
256.16	39.689
256.54	42.164
256.91	36.882
257.28	35.688
257.65	37.828
258.02	33.688
258.39	36.364
258.76	39.194
259.14	34.219
259.51	41.100
259.88	34.708
260.25	38.235
260.62	37.500
260.99	35.593
261.36	35.274
261.73	38.608
262.10	36.778
262.47	37.117
262.85	35.737
263.22	37.538
263.59	35.826
263.96	42.236
264.33	39.394
264.70	35.417
265.07	36.905
265.44	39.093
265.81	36.723
266.18	39.891
266.55	38.817
266.92	37.047
267.29	39.164
267.66	35.038
268.03	36.649
268.40	37.076
268.77	41.176
269.14	35.731
269.51	37.532
269.88	35.411
270.25	32.653
270.62	35.366
270.99	32.992
271.36	36.186
271.73	38.732
272.10	37.226
272.47	36.879
272.84	36.386
273.21	37.123
273.58	38.554
273.95	37.757
274.32	34.411
274.69	32.127
275.06	37.054
275.43	34.014
275.80	36.424
276.17	37.241
276.54	34.690
276.91	38.377
277.28	34.279
277.65	36.983
278.02	36.596
278.39	34.354
278.76	35.010
279.13	33.402
279.50	36.555
279.87	35.205
280.23	35.054
280.60	33.333
280.97	36.768
281.34	33.846
281.71	36.961
282.08	34.765
282.45	34.247
282.82	32.625
283.19	35.397
283.56	34.104
283.92	34.915
284.29	33.077
284.66	31.202
285.03	33.399
285.40	31.380
285.77	32.337
286.14	33.213
286.51	34.871
286.87	34.004
287.24	32.044
287.61	31.746
287.98	32.281
288.35	32.756
288.72	32.049
289.08	31.944
289.45	31.986
289.82	32.692
290.19	31.229
290.56	30.017
290.93	33.333
291.29	29.584
291.66	31.181
292.03	30.463
292.40	28.387
292.77	28.868
293.13	27.760
293.50	27.466
293.87	29.160
294.24	28.284
294.60	28.465
294.97	26.488
295.34	28.374
295.71	26.528
296.08	28.700
296.44	25.178
296.81	25.139
297.18	27.681
297.55	26.694
297.91	25.205
298.28	26.781
298.65	24.966
299.02	26.415
299.38	24.761
299.75	26.345
300.12	25.262
300.48	24.111
300.85	24.335
301.22	25.584
301.59	24.474
301.95	24.557
302.32	26.200
302.69	24.502
303.05	24.134
303.42	23.786
303.79	25.350
304.15	23.895
304.52	22.592
304.89	22.456
305.25	22.881
305.62	22.170
305.99	24.211
306.35	22.890
306.72	23.060
307.09	23.717
307.45	22.618
307.82	23.264
308.19	22.997
308.55	24.537
308.92	23.856
309.29	23.799
309.65	23.466
310.02	22.222
310.38	23.271
310.75	24.044
311.12	22.605
311.48	23.118
311.85	22.618
312.22	21.835
312.58	23.142
312.95	22.412
313.31	22.567
313.68	22.304
314.05	22.959
314.41	23.299
314.78	24.227
315.14	23.741
315.51	23.602
315.87	23.258
316.24	23.559
316.61	24.213
316.97	24.206
317.34	22.852
317.70	22.562
318.07	22.885
318.43	24.608
318.80	23.390
319.16	24.707
319.53	25.831
319.89	24.213
320.26	25.709
320.62	25.878
320.99	25.574
321.35	24.872
321.72	27.518
322.08	26.586
322.45	26.396
322.81	25.933
323.18	26.006
323.54	26.544
323.91	27.556
324.27	27.930
324.64	28.184
325.00	28.285
325.37	29.385
325.73	28.196
326.10	29.428
326.46	28.789
326.83	31.584
327.19	29.730
327.56	31.364
327.92	31.338
328.29	31.071
328.65	30.377
329.01	31.801
329.38	31.244
329.74	32.200
330.11	32.345
330.47	31.262
330.84	32.981
331.20	36.312
331.56	31.574
331.93	34.064
332.29	33.731
332.66	34.480
333.02	34.480
333.38	34.647
333.75	35.623
334.11	33.303
334.48	36.355
334.84	34.524
335.20	34.950
335.57	35.177
335.93	35.592
336.29	35.635
336.66	34.423
337.02	34.851
337.38	35.741
337.75	35.818
338.11	36.249
338.47	35.766
338.84	35.952
339.20	36.746
339.56	36.147
339.93	35.900
340.29	35.872
340.65	36.828
341.02	35.550
341.38	34.425
341.74	35.777
342.11	34.229
342.47	36.477
342.83	36.419
343.20	36.498
343.56	36.261
343.92	36.050
344.28	36.294
344.65	35.060
345.01	35.696
345.37	35.492
345.73	35.816
346.10	35.979
346.46	35.744
346.82	35.352
347.19	35.993
347.55	36.424
347.91	36.246
348.27	35.893
348.63	36.371
349.00	35.931
349.36	36.160
349.72	35.738
350.08	36.311
350.45	35.754
350.81	35.133
351.17	34.935
351.53	35.429
351.89	35.921
352.26	34.560
352.62	36.371
352.98	35.743
353.34	35.266
353.70	36.165
354.07	35.806
354.43	35.388
354.79	36.416
355.15	35.397
355.51	36.234
355.87	35.761
356.24	34.910
356.60	36.055
356.96	36.111
357.32	35.783
357.68	36.357
358.04	36.511
358.40	36.576
358.77	37.321
359.13	35.228
359.49	36.441
359.85	36.037
360.21	36.364
360.57	34.277
360.93	35.779
361.29	34.215
361.66	37.226
362.02	37.197
362.38	37.471
362.74	37.017
363.10	36.117
363.46	36.768
363.82	38.317
364.18	36.458
364.54	34.485
364.90	37.419
365.26	36.608
365.62	37.007
365.98	36.510
366.35	37.363
366.71	36.955
367.07	38.171
367.43	36.952
367.79	37.739
368.15	36.324
368.51	37.582
368.87	37.114
369.23	36.101
369.59	36.953
369.95	37.243
370.31	37.934
370.67	37.537
371.03	36.669
371.39	37.126
371.75	38.095
372.11	37.233
372.47	38.166
372.83	37.615
373.19	37.660
373.55	36.968
373.91	38.445
374.27	38.909
374.63	38.119
374.99	36.596
375.35	38.928
375.71	39.510
376.07	38.834
376.42	38.912
376.78	39.262
377.14	38.389
377.50	38.778
377.86	38.755
378.22	39.056
378.58	39.231
378.94	38.437
379.30	39.114
379.66	40.815
380.02	39.608
380.38	39.684
380.74	39.497
381.09	39.632
381.45	39.878
381.81	40.592
382.17	40.609
382.53	40.412
382.89	40.301
383.25	40.884
383.61	40.732
383.97	39.429
384.32	40.713
384.68	41.362
385.04	41.850
385.40	41.257
385.76	41.572
386.12	42.367
386.48	43.359
386.83	43.310
387.19	41.636
387.55	40.903
387.91	42.054
388.27	42.063
388.62	41.850
388.98	42.848
389.34	41.849
389.70	43.319
390.06	41.032
390.42	41.516
390.77	42.511
391.13	41.929
391.49	43.273
391.85	42.495
392.20	42.498
392.56	42.784
392.92	42.983
393.28	41.981
393.64	42.883
393.99	43.511
394.35	43.011
394.71	43.614
395.07	43.369
395.42	43.594
395.78	43.518
396.14	43.190
396.50	42.613
396.85	43.657
397.21	42.168
397.57	42.821
397.92	43.499
398.28	44.368
398.64	42.831
399.00	43.623
399.35	41.704
399.71	43.653
400.07	42.745
400.42	43.084
400.78	43.723
401.14	42.529
401.49	43.776
401.85	43.266
402.21	42.831
402.57	43.812
402.92	42.848
403.28	44.612
403.63	44.136
403.99	43.367
404.35	45.034
404.70	42.917
405.06	42.714
405.42	43.381
405.77	43.289
406.13	43.714
406.49	43.162
406.84	42.543
407.20	44.371
407.55	43.593
407.91	43.984
408.27	44.423
408.62	43.569
408.98	43.253
409.34	43.432
409.69	43.023
410.05	43.288
410.40	43.148
410.76	44.572
411.11	43.562
411.47	44.379
411.83	42.750
412.18	44.530
412.54	44.944
412.89	42.796
413.25	44.344
413.60	43.416
413.96	43.252
414.31	43.902
414.67	43.682
415.03	43.475
415.38	42.689
415.74	44.495
416.09	44.089
416.45	44.429
416.80	43.093
417.16	45.994
417.51	44.570
417.87	45.893
418.22	44.689
418.58	44.415
418.93	45.266
419.29	43.790
419.64	44.394
420.00	45.907
420.35	45.791
420.71	44.957
421.06	45.856
421.42	45.012
421.77	45.029
422.12	45.573
422.48	44.180
422.83	45.476
423.19	44.752
423.54	44.797
423.90	44.700
424.25	45.178
424.61	46.389
424.96	44.425
425.31	46.736
425.67	45.951
426.02	46.820
426.38	46.212
426.73	46.186
427.09	47.532
427.44	46.765
427.79	46.199
428.15	45.995
428.50	47.426
428.85	46.744
429.21	47.651
429.56	47.601
429.92	46.893
430.27	45.514
430.62	45.792
430.98	45.966
431.33	47.739
431.68	47.724
432.04	47.345
432.39	47.119
432.74	46.963
433.10	47.529
433.45	47.849
433.80	47.533
434.16	46.925
434.51	47.527
434.86	47.387
435.22	48.233
435.57	48.409
435.92	48.683
436.28	47.406
436.63	48.831
436.98	47.277
437.34	47.671
437.69	49.612
438.04	48.490
438.39	48.137
438.75	49.241
439.10	47.934
439.45	49.848
439.81	48.991
440.16	50.475
440.51	48.955
440.86	50.937
441.22	48.586
441.57	50.166
441.92	50.052
442.27	49.778
442.63	50.321
442.98	49.684
443.33	48.637
443.68	51.247
444.03	48.882
444.39	49.484
444.74	51.505
445.09	50.167
445.44	49.972
445.79	50.851
446.15	50.441
446.50	50.139
446.85	51.169
447.20	49.844
447.55	51.786
447.91	50.423
448.26	50.199
448.61	50.547
448.96	52.381
449.31	51.908
449.66	50.987
450.02	50.599
450.37	51.571
450.72	50.401
451.07	51.139
451.42	51.061
451.77	51.356
452.12	51.077
452.47	51.062
452.83	51.590
453.18	50.917
453.53	52.592
453.88	51.852
454.23	51.444
454.58	52.771
454.93	50.773
455.28	50.794
455.63	52.325
455.98	52.676
456.34	51.916
456.69	52.668
457.04	53.623
457.39	51.337
457.74	52.539
458.09	52.266
458.44	51.551
458.79	51.485
459.14	52.002
459.49	52.776
459.84	52.848
460.19	52.731
460.54	54.279
460.89	52.273
461.24	52.857
461.59	53.088
461.94	51.572
462.29	53.136
462.64	53.887
462.99	52.539
463.34	52.225
463.69	52.252
464.04	53.450
464.39	53.244
464.74	52.945
465.09	52.838
465.44	53.145
465.79	52.041
466.14	52.794
466.49	51.926
466.84	53.123
467.19	54.005
467.54	53.448
467.89	54.643
468.24	53.710
468.59	53.778
468.94	53.397
469.29	52.525
469.64	53.794
469.99	55.011
470.34	54.130
470.68	55.630
471.03	54.352
471.38	53.923
471.73	55.112
472.08	54.545
472.43	54.765
472.78	54.215
473.13	54.762
473.48	54.007
473.83	53.985
474.17	55.052
474.52	54.563
474.87	55.091
475.22	54.667
475.57	54.715
475.92	53.922
476.27	54.540
476.61	55.729
476.96	53.374
477.31	54.354
477.66	55.337
478.01	54.632
478.36	55.174
478.70	55.846
479.05	55.000
479.40	54.372
479.75	53.806
480.10	53.968
480.45	55.400
480.79	55.488
481.14	56.455
481.49	54.236
481.84	55.792
482.19	54.210
482.53	55.779
482.88	54.272
483.23	54.559
483.58	54.245
483.92	55.857
484.27	55.014
484.62	55.715
484.97	54.768
485.31	54.263
485.66	52.982
486.01	52.603
486.36	52.746
486.70	52.757
487.05	53.563
487.40	53.619
487.75	54.366
488.09	54.852
488.44	54.539
488.79	54.987
489.13	56.490
489.48	56.434
489.83	55.695
490.17	55.326
490.52	55.797
490.87	54.558
491.22	56.160
491.56	56.831
491.91	55.688
492.26	57.268
492.60	56.238
492.95	56.911
493.30	55.740
493.64	58.202
493.99	56.812
494.34	56.311
494.68	56.571
495.03	56.448
495.37	56.575
495.72	57.446
496.07	58.000
496.41	56.368
496.76	56.748
497.11	55.007
497.45	57.041
497.80	57.871
498.14	57.079
498.49	57.390
498.84	56.587
499.18	57.882
499.53	57.143
499.87	57.004
500.22	56.924
500.56	57.741
500.91	56.928
501.26	57.242
501.60	57.944
501.95	57.351
502.29	57.579
502.64	56.902
502.98	58.017
503.33	57.253
503.67	57.639
504.02	57.674
504.36	58.090
504.71	58.333
505.06	57.121
505.40	57.107
505.75	58.454
506.09	58.135
506.44	59.189
506.78	58.724
507.13	58.428
507.47	57.911
507.82	58.494
508.16	58.426
508.51	58.185
508.85	58.713
509.19	59.340
509.54	60.483
509.88	59.493
510.23	59.118
510.57	58.846
510.92	57.409
511.26	59.193
511.61	60.176
511.95	59.342
512.30	59.479
512.64	59.098
512.98	60.247
513.33	59.709
513.67	60.205
514.02	59.668
514.36	61.200
514.70	61.014
515.05	61.575
515.39	60.213
515.74	61.317
516.08	61.267
516.42	61.896
516.77	60.503
517.11	61.484
517.46	61.700
517.80	61.144
518.14	60.992
518.49	60.637
518.83	61.908
519.17	59.794
519.52	60.154
519.86	61.044
520.20	61.361
520.55	61.664
520.89	61.731
521.23	61.875
521.58	62.524
521.92	61.859
522.26	61.288
522.61	62.208
522.95	64.768
523.29	60.928
523.64	61.690
523.98	62.800
524.32	62.371
524.66	62.740
525.01	62.208
525.35	62.216
525.69	62.155
526.04	61.905
526.38	63.619
526.72	62.394
527.06	62.192
527.41	62.005
527.75	62.735
528.09	62.126
528.43	64.754
528.78	63.630
529.12	61.677
529.46	62.833
529.80	62.381
530.15	62.970
530.49	64.242
530.83	65.390
531.17	62.257
531.51	64.159
531.86	63.222
532.20	63.535
532.54	64.602
532.88	63.587
533.22	63.374
533.57	61.796
533.91	62.598
534.25	63.411
534.59	62.861
534.93	61.800
535.27	61.041
535.62	62.735
535.96	63.209
536.30	63.391
536.64	63.818
536.98	63.972
537.32	64.580
537.66	64.656
538.01	63.776
538.35	63.037
538.69	61.185
539.03	62.884
539.37	64.266
539.71	62.713
540.05	63.883
540.39	62.812
540.73	64.156
541.07	62.845
541.42	63.172
541.76	64.006
542.10	63.524
542.44	63.169
542.78	62.629
543.12	62.981
543.46	62.309
543.80	64.122
544.14	60.814
544.48	63.158
544.82	63.705
545.16	63.251
545.50	62.016
545.84	63.385
546.18	64.255
546.52	62.149
546.86	63.048
547.20	64.235
547.54	62.686
547.88	63.383
548.22	62.064
548.56	63.654
548.90	63.073
549.24	62.672
549.58	62.623
549.92	62.545
550.26	62.125
550.60	64.907
550.94	64.675
551.28	64.838
551.62	65.692
551.96	64.211
552.30	65.278
552.64	64.598
552.98	63.150
553.32	64.408
553.66	62.046
554.00	63.504
554.34	64.993
554.68	64.086
555.02	65.402
555.36	64.547
555.69	65.201
556.03	63.812
556.37	61.851
556.71	64.332
557.05	65.175
557.39	63.494
557.73	64.243
558.07	64.781
558.41	65.391
558.75	65.939
559.08	63.672
559.42	65.873
559.76	65.572
560.10	64.679
560.44	64.036
560.78	63.776
561.12	64.810
561.45	66.128
561.79	63.165
562.13	64.656
562.47	65.468
562.81	63.689
563.15	64.669
563.48	64.215
563.82	64.516
564.16	65.599
564.50	64.392
564.84	64.592
565.17	63.716
565.51	67.077
565.85	64.540
566.19	64.456
566.52	64.209
566.86	64.139
567.20	62.765
567.54	64.781
567.88	65.788
568.21	62.670
568.55	62.717
568.89	62.474
569.23	63.409
569.56	61.778
569.90	63.094
570.24	60.402
570.57	60.982
570.91	60.788
571.25	59.783
571.59	60.012
571.92	58.252
572.26	59.511
572.60	59.566
572.93	59.115
573.27	59.185
573.61	58.920
573.95	59.312
574.28	58.819
574.62	58.047
574.96	58.664
575.29	58.329
575.63	57.709
575.97	58.580
576.30	58.954
576.64	57.907
576.98	59.125
577.31	59.720
577.65	59.106
577.98	58.749
578.32	58.686
578.66	58.221
578.99	58.025
579.33	57.957
579.67	57.078
580.00	58.962
580.34	58.955
580.67	58.729
581.01	58.453
581.35	58.204
581.68	57.863
582.02	58.616
582.35	58.050
582.69	58.278
583.02	58.043
583.36	58.623
583.70	60.099
584.03	60.272
584.37	61.039
584.70	59.808
585.04	58.290
585.37	58.993
585.71	58.850
586.04	58.674
586.38	58.469
586.72	59.340
587.05	59.705
587.39	60.581
587.72	60.798
588.06	59.590
588.39	60.125
588.73	60.256
589.06	60.502
589.40	60.007
589.73	61.044
590.07	61.971
590.40	61.455
590.73	62.562
591.07	61.408
591.40	62.244
591.74	62.805
592.07	61.781
592.41	61.970
592.74	60.016
593.08	59.658
593.41	60.297
593.75	59.241
594.08	60.419
594.41	60.335
594.75	60.687
595.08	60.575
595.42	60.250
595.75	62.035
596.09	61.415
596.42	61.513
596.75	62.522
597.09	61.822
597.42	61.472
597.75	62.162
598.09	60.389
598.42	60.830
598.76	60.403
599.09	60.296
599.42	59.000
599.76	60.647
600.09	60.709
600.42	59.856
600.76	60.030
601.09	59.885
601.42	59.538
601.76	61.532
602.09	60.767
602.42	61.837
602.76	61.587
603.09	61.669
603.42	62.584
603.76	61.290
604.09	60.672
604.42	62.606
604.76	62.394
605.09	62.249
605.42	61.625
605.75	60.902
606.09	60.637
606.42	60.259
606.75	61.515
607.09	61.758
607.42	60.567
607.75	60.790
608.08	60.243
608.42	59.799
608.75	62.651
609.08	62.083
609.41	63.046
609.75	61.391
610.08	62.656
610.41	61.353
610.74	62.165
611.07	62.326
611.41	61.650
611.74	62.900
612.07	61.777
612.40	63.457
612.73	64.237
613.07	62.711
613.40	62.035
613.73	62.059
614.06	61.380
614.39	62.606
614.72	61.569
615.06	62.570
615.39	61.681
615.72	61.518
616.05	62.067
616.38	60.228
616.71	62.752
617.05	62.631
617.38	63.419
617.71	63.459
618.04	64.254
618.37	65.574
618.70	64.884
619.03	64.306
619.36	64.472
619.69	65.807
620.03	66.837
620.36	65.451
620.69	64.168
621.02	64.526
621.35	68.216
621.68	68.707
622.01	65.167
622.34	65.523
622.67	65.694
623.00	64.242
623.33	66.311
623.66	64.323
623.99	63.616
624.32	65.551
624.65	65.113
624.99	65.463
625.32	64.139
625.65	68.185
625.98	64.948
626.31	66.584
626.64	67.851
626.97	65.969
627.30	68.564
627.63	67.158
627.96	66.577
628.29	66.512
628.62	68.437
628.95	68.537
629.28	70.665
629.61	67.797
629.94	69.110
630.26	66.304
630.59	69.407
630.92	69.846
631.25	66.872
631.58	71.145
631.91	69.189
632.24	70.986
632.57	69.091
632.90	68.921
633.23	67.529
633.56	70.151
633.89	71.147
