SpectraSuite Data File
++++++++++++++++++++++++++++++++++++
Date: Fri May 15 17:24:14 PDT 2015
User: schluterlab
Dark Spectrum Present: Yes
Reference Spectrum Present: Yes
Number of Sampled Component Spectra: 1
Spectrometers: USB2E3373
Integration Time (usec): 3000 (USB2E3373)
Spectra Averaged: 3 (USB2E3373)
Boxcar Smoothing: 0 (USB2E3373)
Correct for Electrical Dark: No (USB2E3373)
Strobe/Lamp Enabled: No (USB2E3373)
Correct for Detector Non-linearity: No (USB2E3373)
Correct for Stray Light: No (USB2E3373)
Number of Pixels in Processed Spectrum: 2048
>>>>>Begin Processed Spectral Data<<<<<
178.53	0.000
178.91	0.000
179.29	137.500
179.67	350.000
180.04	-128.571
180.42	400.000
180.80	-600.000
181.18	133.333
181.56	100.000
181.94	600.000
182.31	-400.000
182.69	100.000
183.07	-100.000
183.45	60.000
183.83	133.333
184.20	54.545
184.58	66.667
184.96	-125.000
185.34	33.333
185.72	-150.000
186.09	-7.692
186.47	-700.000
186.85	116.667
187.23	22.222
187.61	-100.000
187.98	200.000
188.36	155.556
188.74	33.333
189.12	23.529
189.49	61.111
189.87	0.000
190.25	107.143
190.63	250.000
191.00	333.333
191.38	10.526
191.76	300.000
192.14	-100.000
192.51	450.000
192.89	-33.333
193.27	-85.714
193.65	-50.000
194.02	90.909
194.40	130.000
194.78	-75.000
195.15	-8.333
195.53	-125.000
195.91	175.000
196.29	50.000
196.66	30.769
197.04	57.143
197.42	55.556
197.79	-200.000
198.17	-69.231
198.55	400.000
198.92	33.333
199.30	-200.000
199.68	-60.000
200.05	-133.333
200.43	0.000
200.81	33.333
201.18	-66.667
201.56	700.000
201.94	150.000
202.31	-300.000
202.69	-80.000
203.07	-50.000
203.44	1300.000
203.82	0.000
204.19	85.714
204.57	-200.000
204.95	-0.000
205.32	100.000
205.70	157.143
206.08	25.000
206.45	133.333
206.83	114.286
207.20	71.429
207.58	100.000
207.96	0.000
208.33	-70.000
208.71	25.000
209.08	150.000
209.46	-400.000
209.84	-80.000
210.21	300.000
210.59	114.286
210.96	-66.667
211.34	25.000
211.71	40.000
212.09	14.286
212.46	-200.000
212.84	0.000
213.22	190.000
213.59	400.000
213.97	146.154
214.34	81.818
214.72	-66.667
215.09	225.000
215.47	-46.154
215.84	54.545
216.22	366.667
216.59	75.000
216.97	250.000
217.34	150.000
217.72	-360.000
218.09	62.500
218.47	125.000
218.84	-700.000
219.22	55.556
219.59	60.000
219.97	-0.000
220.34	125.000
220.72	157.143
221.09	125.000
221.47	100.000
221.84	-650.000
222.22	-550.000
222.59	72.727
222.97	91.667
223.34	0.000
223.72	-35.714
224.09	14.286
224.46	39.286
224.84	-33.333
225.21	50.000
225.59	73.333
225.96	50.000
226.34	150.000
226.71	71.429
227.08	-66.667
227.46	100.000
227.83	-500.000
228.21	111.111
228.58	118.182
228.95	-12.500
229.33	-20.000
229.70	25.000
230.08	-75.000
230.45	57.143
230.82	42.857
231.20	-6.667
231.57	57.143
231.95	28.571
232.32	-20.000
232.69	107.143
233.07	266.667
233.44	140.000
233.81	-20.000
234.19	55.556
234.56	-41.176
234.93	-100.000
235.31	125.000
235.68	-120.000
236.05	61.538
236.43	25.000
236.80	58.824
237.17	40.625
237.55	65.000
237.92	22.222
238.29	11.111
238.67	76.667
239.04	41.176
239.41	-9.756
239.79	50.000
240.16	63.415
240.53	5.263
240.91	26.087
241.28	14.286
241.65	17.857
242.02	30.137
242.40	45.000
242.77	35.593
243.14	36.364
243.51	32.500
243.89	33.333
244.26	21.839
244.63	23.810
245.00	31.959
245.38	39.175
245.75	20.225
246.12	24.138
246.49	28.926
246.87	25.962
247.24	26.891
247.61	21.053
247.98	32.520
248.36	26.875
248.73	33.553
249.10	25.974
249.47	33.544
249.84	23.529
250.22	24.118
250.59	32.680
250.96	27.700
251.33	26.744
251.70	35.294
252.08	29.442
252.45	27.723
252.82	31.658
253.19	33.641
253.56	27.103
253.94	27.027
254.31	32.609
254.68	36.404
255.05	27.953
255.42	30.131
255.79	30.502
256.16	29.183
256.54	28.731
256.91	29.278
257.28	28.996
257.65	28.090
258.02	27.305
258.39	35.354
258.76	31.868
259.14	29.900
259.51	30.421
259.88	29.553
260.25	28.758
260.62	32.292
260.99	26.102
261.36	27.740
261.73	28.481
262.10	29.787
262.47	27.301
262.85	29.467
263.22	29.846
263.59	28.349
263.96	31.056
264.33	30.909
264.70	30.952
265.07	28.274
265.44	27.195
265.81	31.356
266.18	28.415
266.55	29.049
266.92	28.497
267.29	31.593
267.66	29.412
268.03	28.534
268.40	27.937
268.77	31.551
269.14	28.297
269.51	32.648
269.88	31.920
270.25	25.000
270.62	30.488
270.99	27.621
271.36	26.650
271.73	28.404
272.10	26.521
272.47	30.733
272.84	26.733
273.21	29.234
273.58	29.157
273.95	30.664
274.32	31.178
274.69	24.887
275.06	27.902
275.43	28.571
275.80	29.581
276.17	31.494
276.54	28.480
276.91	27.632
277.28	25.546
277.65	28.099
278.02	27.660
278.39	28.009
278.76	27.883
279.13	26.556
279.50	27.731
279.87	28.726
280.23	28.172
280.60	27.096
280.97	28.485
281.34	26.538
281.71	29.158
282.08	26.585
282.45	26.810
282.82	26.834
283.19	29.207
283.56	26.782
283.92	25.806
284.29	25.192
284.66	25.969
285.03	26.523
285.40	25.898
285.77	27.065
286.14	26.715
286.51	27.860
286.87	23.400
287.24	25.967
287.61	25.573
287.98	26.491
288.35	24.783
288.72	26.970
289.08	25.521
289.45	28.295
289.82	26.049
290.19	24.403
290.56	25.557
290.93	25.421
291.29	23.267
291.66	23.937
292.03	24.242
292.40	22.742
292.77	22.648
293.13	20.292
293.50	22.762
293.87	24.733
294.24	21.793
294.60	22.653
294.97	21.280
295.34	21.779
295.71	22.504
296.08	18.984
296.44	18.777
296.81	21.111
297.18	20.725
297.55	21.816
297.91	22.055
298.28	22.427
298.65	18.996
299.02	19.272
299.38	18.878
299.75	19.586
300.12	18.717
300.48	19.895
300.85	21.293
301.22	20.000
301.59	20.395
301.95	20.253
302.32	20.363
302.69	20.149
303.05	20.050
303.42	19.303
303.79	19.509
304.15	18.877
304.52	17.836
304.89	18.363
305.25	19.613
305.62	18.786
305.99	18.480
306.35	19.075
306.72	18.335
307.09	17.788
307.45	19.403
307.82	18.287
308.19	17.422
308.55	19.411
308.92	20.588
309.29	18.436
309.65	19.160
310.02	17.932
310.38	18.332
310.75	18.251
311.12	19.160
311.48	18.770
311.85	18.953
312.22	17.722
312.58	19.214
312.95	16.862
313.31	17.909
313.68	17.382
314.05	18.367
314.41	18.969
314.78	19.072
315.14	20.247
315.51	19.565
315.87	18.135
316.24	20.829
316.61	21.063
316.97	18.056
317.34	19.238
317.70	19.025
318.07	18.365
318.43	20.196
318.80	19.792
319.16	20.703
319.53	21.273
319.89	20.669
320.26	21.255
320.62	22.367
320.99	21.190
321.35	21.480
321.72	23.053
322.08	22.961
322.45	21.624
322.81	23.379
323.18	23.749
323.54	23.649
323.91	23.856
324.27	24.512
324.64	25.000
325.00	24.635
325.37	27.916
325.73	25.748
326.10	26.975
326.46	27.534
326.83	27.822
327.19	28.160
327.56	28.410
327.92	29.842
328.29	30.179
328.65	31.698
329.01	30.699
329.38	31.889
329.74	31.161
330.11	31.974
330.47	31.169
330.84	32.885
331.20	35.266
331.56	32.778
331.93	34.247
332.29	35.105
332.66	34.480
333.02	34.480
333.38	34.647
333.75	35.165
334.11	33.572
334.48	36.355
334.84	36.264
335.20	36.048
335.57	35.721
335.93	34.779
336.29	35.543
336.66	35.422
337.02	35.967
337.38	37.222
337.75	36.909
338.11	36.880
338.47	36.131
338.84	36.229
339.20	37.020
339.56	36.881
339.93	37.064
340.29	37.523
340.65	37.903
341.02	37.677
341.38	36.991
341.74	36.661
342.11	35.095
342.47	38.078
342.83	38.408
343.20	36.063
343.56	38.609
343.92	37.998
344.28	38.087
344.65	36.874
345.01	37.338
345.37	37.258
345.73	37.071
346.10	38.136
346.46	36.754
346.82	36.334
347.19	36.160
347.55	38.179
347.91	37.621
348.27	37.348
348.63	37.394
349.00	37.900
349.36	37.656
349.72	38.143
350.08	37.623
350.45	37.031
350.81	37.209
351.17	37.052
351.53	38.204
351.89	36.912
352.26	36.400
352.62	38.468
352.98	37.108
353.34	36.473
353.70	38.107
354.07	37.661
354.43	38.351
354.79	38.811
355.15	37.381
355.51	38.133
355.87	39.401
356.24	37.684
356.60	37.995
356.96	37.698
357.32	39.696
357.68	37.998
358.04	38.207
358.40	38.023
358.77	38.756
359.13	38.351
359.49	38.213
359.85	38.846
360.21	39.553
360.57	39.250
360.93	38.729
361.29	38.293
361.66	40.674
362.02	39.924
362.38	39.147
362.74	41.408
363.10	40.030
363.46	40.326
363.82	39.594
364.18	40.886
364.54	38.603
364.90	40.072
365.26	40.757
365.62	41.095
365.98	41.056
366.35	42.462
366.71	40.798
367.07	41.509
367.43	38.821
367.79	41.060
368.15	40.632
368.51	41.515
368.87	41.924
369.23	40.217
369.59	41.327
369.95	42.082
370.31	41.618
370.67	41.567
371.03	41.299
371.39	42.378
371.75	42.051
372.11	43.581
372.47	44.009
372.83	43.222
373.19	43.224
373.55	42.310
373.91	43.557
374.27	44.224
374.63	44.078
374.99	43.404
375.35	44.290
375.71	44.336
376.07	45.787
376.42	44.830
376.78	44.497
377.14	44.008
377.50	46.813
377.86	46.252
378.22	47.224
378.58	46.090
378.94	44.802
379.30	45.976
379.66	48.464
380.02	47.210
380.38	46.257
380.74	47.337
381.09	46.933
381.45	47.339
381.81	47.933
382.17	48.287
382.53	47.470
382.89	49.090
383.25	48.724
383.61	48.659
383.97	49.206
384.32	47.842
384.68	49.845
385.04	49.081
385.40	48.351
385.76	51.132
386.12	51.100
386.48	50.894
386.83	50.983
387.19	50.366
387.55	51.882
387.91	51.284
388.27	50.000
388.62	52.360
388.98	51.258
389.34	51.405
389.70	51.958
390.06	49.969
390.42	51.813
390.77	52.714
391.13	52.270
391.49	52.458
391.85	53.476
392.20	51.915
392.56	52.257
392.92	53.494
393.28	52.182
393.64	53.453
393.99	54.608
394.35	52.815
394.71	53.193
395.07	52.608
395.42	52.155
395.78	54.072
396.14	53.468
396.50	52.315
396.85	53.703
397.21	53.885
397.57	53.730
397.92	54.164
398.28	54.483
398.64	54.217
399.00	54.176
399.35	53.160
399.71	52.671
400.07	55.804
400.42	53.366
400.78	55.481
401.14	54.688
401.49	53.306
401.85	53.199
402.21	53.614
402.57	52.938
402.92	54.015
403.28	54.699
403.63	54.792
403.99	54.528
404.35	55.590
404.70	53.393
405.06	54.465
405.42	54.382
405.77	54.271
406.13	55.413
406.49	54.529
406.84	54.401
407.20	54.666
407.55	55.634
407.91	54.078
408.27	55.131
408.62	55.138
408.98	55.083
409.34	55.019
409.69	54.910
410.05	53.756
410.40	55.185
410.76	55.187
411.11	55.125
411.47	54.898
411.83	53.547
412.18	55.084
412.54	53.870
412.89	53.079
413.25	54.452
413.60	55.528
413.96	54.049
414.31	54.573
414.67	53.111
415.03	54.794
415.38	53.525
415.74	54.397
416.09	54.735
416.45	54.288
416.80	54.263
417.16	56.561
417.51	54.897
417.87	54.694
418.22	55.829
418.58	55.786
418.93	55.361
419.29	53.585
419.64	55.476
420.00	56.927
420.35	55.761
420.71	55.407
421.06	55.494
421.42	56.370
421.77	55.318
422.12	55.051
422.48	55.874
422.83	56.729
423.19	56.377
423.54	56.555
423.90	56.478
424.25	56.659
424.61	56.916
424.96	56.446
425.31	57.308
425.67	57.336
426.02	58.304
426.38	58.046
426.73	58.777
427.09	57.722
427.44	57.941
427.79	58.279
428.15	57.646
428.50	57.299
428.85	57.617
429.21	58.121
429.56	58.976
429.92	57.935
430.27	57.243
430.62	56.769
430.98	58.015
431.33	58.780
431.68	57.091
432.04	58.636
432.39	57.673
432.74	57.847
433.10	58.621
433.45	60.096
433.80	59.025
434.16	59.058
434.51	59.570
434.86	60.453
435.22	59.002
435.57	59.825
435.92	59.760
436.28	59.153
436.63	59.042
436.98	59.270
437.34	59.286
437.69	60.584
438.04	60.399
438.39	58.033
438.75	61.384
439.10	59.762
439.45	60.864
439.81	59.694
440.16	60.926
440.51	60.299
440.86	61.148
441.22	59.502
441.57	61.093
441.92	60.965
442.27	61.530
442.63	61.724
442.98	61.689
443.33	60.323
443.68	60.106
444.03	61.451
444.39	61.240
444.74	63.155
445.09	62.528
445.44	60.798
445.79	62.713
446.15	61.454
446.50	61.120
446.85	62.168
447.20	61.210
447.55	60.770
447.91	62.042
448.26	61.127
448.61	62.349
448.96	62.823
449.31	62.486
449.66	61.034
450.02	62.350
450.37	62.656
450.72	61.684
451.07	62.215
451.42	61.673
451.77	62.146
452.12	61.005
452.47	61.108
452.83	61.896
453.18	62.555
453.53	62.705
453.88	61.384
454.23	62.077
454.58	63.476
454.93	61.985
455.28	61.270
455.63	61.996
455.98	63.199
456.34	62.261
456.69	62.834
457.04	63.390
457.39	61.968
457.74	60.701
458.09	61.507
458.44	61.732
458.79	61.008
459.14	62.414
459.49	63.403
459.84	61.365
460.19	62.985
460.54	62.653
460.89	63.352
461.24	63.540
461.59	62.530
461.94	61.635
462.29	62.063
462.64	62.525
462.99	62.898
463.34	61.057
463.69	61.454
464.04	61.622
464.39	62.220
464.74	60.982
465.09	62.882
465.44	62.839
465.79	61.054
466.14	62.258
466.49	61.702
466.84	61.749
467.19	61.827
467.54	61.622
467.89	63.108
468.24	61.740
468.59	63.746
468.94	62.349
469.29	61.180
469.64	61.449
469.99	63.350
470.34	61.024
470.68	63.013
471.03	62.774
471.38	61.198
471.73	61.275
472.08	60.448
472.43	61.409
472.78	61.480
473.13	62.245
473.48	62.541
473.83	60.834
474.17	61.658
474.52	61.583
474.87	61.636
475.22	62.599
475.57	61.773
475.92	61.711
476.27	61.350
476.61	62.789
476.96	59.844
477.31	62.088
477.66	60.562
478.01	62.718
478.36	61.710
478.70	61.990
479.05	62.747
479.40	61.420
479.75	60.584
480.10	60.573
480.45	60.700
480.79	62.135
481.14	62.500
481.49	60.936
481.84	62.114
482.19	60.337
482.53	61.871
482.88	61.623
483.23	61.468
483.58	60.425
483.92	61.859
484.27	61.030
484.62	61.183
484.97	60.862
485.31	61.669
485.66	60.720
486.01	62.247
486.36	61.526
486.70	61.838
487.05	61.246
487.40	61.556
487.75	61.155
488.09	60.229
488.44	61.279
488.79	60.329
489.13	61.859
489.48	61.052
489.83	60.538
490.17	60.045
490.52	60.231
490.87	60.342
491.22	60.458
491.56	60.436
491.91	60.086
492.26	61.254
492.60	59.405
492.95	62.273
493.30	59.941
493.64	61.640
493.99	60.580
494.34	60.825
494.68	60.524
495.03	60.438
495.37	61.138
495.72	61.333
496.07	61.415
496.41	60.991
496.76	60.709
497.11	60.177
497.45	60.430
497.80	61.857
498.14	59.911
498.49	61.554
498.84	59.930
499.18	60.994
499.53	61.806
499.87	60.311
500.22	61.424
500.56	60.968
500.91	60.442
501.26	59.911
501.60	60.846
501.95	60.359
502.29	61.259
502.64	60.183
502.98	62.654
503.33	61.239
503.67	60.723
504.02	61.779
504.36	60.811
504.71	60.253
505.06	60.594
505.40	61.168
505.75	60.979
506.09	60.314
506.44	61.550
506.78	61.122
507.13	61.892
507.47	60.731
507.82	61.111
508.16	60.169
508.51	60.441
508.85	61.015
509.19	60.724
509.54	61.340
509.88	62.028
510.23	62.023
510.57	61.304
510.92	59.222
511.26	60.666
511.61	61.991
511.95	59.890
512.30	59.701
512.64	60.768
512.98	61.370
513.33	61.388
513.67	60.318
514.02	61.728
514.36	61.886
514.70	62.762
515.05	62.808
515.39	62.043
515.74	62.395
516.08	62.224
516.42	63.192
516.77	61.498
517.11	62.196
517.46	61.640
517.80	61.383
518.14	61.972
518.49	60.457
518.83	61.665
519.17	60.946
519.52	59.976
519.86	61.044
520.20	61.543
520.55	61.851
520.89	61.418
521.23	63.015
521.58	61.514
521.92	62.179
522.26	61.548
522.61	61.299
522.95	63.576
523.29	61.817
523.64	61.309
523.98	62.735
524.32	61.276
524.66	62.356
525.01	61.623
525.35	61.244
525.69	62.155
526.04	61.177
526.38	62.451
526.72	60.105
527.06	60.830
527.41	62.071
527.75	61.126
528.09	61.329
528.43	64.146
528.78	61.518
529.12	61.548
529.46	60.884
529.80	60.988
530.15	62.970
530.49	62.424
530.83	62.585
531.17	61.182
531.51	62.244
531.86	60.911
532.20	60.543
532.54	60.517
532.88	62.697
533.22	61.694
533.57	61.075
533.91	61.749
534.25	62.044
534.59	61.706
534.93	61.548
535.27	61.104
535.62	61.568
535.96	62.361
536.30	62.071
536.64	63.956
536.98	62.787
537.32	63.087
537.66	61.501
538.01	62.517
538.35	62.205
538.69	61.252
539.03	61.107
539.37	62.921
539.71	61.827
540.05	62.458
540.39	62.465
540.73	62.343
541.07	61.809
541.42	60.551
541.76	62.629
542.10	62.147
542.44	62.752
542.78	61.253
543.12	61.538
543.46	61.335
543.80	62.318
544.14	59.746
544.48	62.225
544.82	62.269
545.16	62.432
545.50	60.614
545.84	60.907
546.18	63.475
546.52	63.230
546.86	62.545
547.20	63.090
547.54	62.332
547.88	62.160
548.22	61.473
548.56	60.818
548.90	62.668
549.24	60.606
549.58	62.412
549.92	60.257
550.26	62.418
550.60	63.346
550.94	62.808
551.28	62.519
551.62	63.769
551.96	63.459
552.30	62.719
552.64	61.636
552.98	62.658
553.32	61.912
553.66	63.135
554.00	62.920
554.34	63.589
554.68	62.168
555.02	62.649
555.36	61.257
555.69	62.637
556.03	62.455
556.37	62.989
556.71	61.227
557.05	62.714
557.39	62.305
557.73	63.268
558.07	61.840
558.41	62.557
558.75	61.886
559.08	62.175
559.42	63.333
559.76	62.610
560.10	62.462
560.44	62.249
560.78	62.028
561.12	64.245
561.45	64.371
561.79	63.936
562.13	62.598
562.47	63.094
562.81	63.040
563.15	62.623
563.48	63.225
563.82	63.143
564.16	63.022
564.50	61.419
564.84	62.249
565.17	61.569
565.51	64.413
565.85	64.198
566.19	63.859
566.52	63.606
566.86	62.596
567.20	62.827
567.54	62.835
567.88	65.905
568.21	64.706
568.55	63.533
568.89	65.144
569.23	64.901
569.56	64.054
569.90	65.043
570.24	63.454
570.57	65.236
570.91	65.667
571.25	63.630
571.59	62.722
571.92	63.052
572.26	63.979
572.60	63.318
572.93	63.037
573.27	62.476
573.61	63.604
573.95	63.654
574.28	63.771
574.62	63.590
574.96	63.176
575.29	63.099
575.63	62.477
575.97	62.456
576.30	62.328
576.64	62.728
576.98	64.479
577.31	63.431
577.65	64.243
577.98	64.117
578.32	63.691
578.66	62.519
578.99	63.898
579.33	62.378
579.67	62.251
580.00	63.342
580.34	63.781
580.67	64.144
581.01	64.073
581.35	63.760
581.68	63.393
582.02	65.058
582.35	63.547
582.69	64.005
583.02	63.640
583.36	64.396
583.70	64.304
584.03	64.693
584.37	64.709
584.70	64.231
585.04	63.472
585.37	63.857
585.71	64.577
586.04	64.044
586.38	63.804
586.72	64.935
587.05	64.645
587.39	64.803
587.72	66.484
588.06	64.960
588.39	64.341
588.73	65.476
589.06	64.710
589.40	64.639
589.73	64.987
590.07	66.465
590.40	64.938
590.73	65.815
591.07	65.734
591.40	66.741
591.74	64.842
592.07	65.863
592.41	66.166
592.74	65.751
593.08	63.640
593.41	65.535
593.75	64.966
594.08	63.852
594.41	65.320
594.75	65.649
595.08	64.548
595.42	65.550
595.75	64.852
596.09	65.285
596.42	65.523
596.75	65.453
597.09	65.877
597.42	64.860
597.75	66.148
598.09	64.011
598.42	64.440
598.76	64.050
599.09	65.144
599.42	63.698
599.76	63.807
600.09	65.460
600.42	65.049
600.76	64.376
601.09	64.885
601.42	64.630
601.76	63.041
602.09	65.305
602.42	65.628
602.76	65.365
603.09	66.030
603.42	67.266
603.76	65.524
604.09	65.654
604.42	65.651
604.76	66.934
605.09	65.037
605.42	65.147
605.75	65.105
606.09	65.605
606.42	65.054
606.75	64.632
607.09	65.934
607.42	64.377
607.75	64.343
608.08	64.690
608.42	64.185
608.75	66.024
609.08	65.969
609.41	65.330
609.75	65.524
610.08	64.603
610.41	63.478
610.74	65.724
611.07	66.563
611.41	66.632
611.74	66.311
612.07	65.953
612.40	66.302
612.73	66.723
613.07	66.817
613.40	64.989
613.73	66.368
614.06	64.608
614.39	66.667
614.72	65.994
615.06	65.419
615.39	64.410
615.72	65.016
616.05	65.307
616.38	64.672
616.71	65.872
617.05	66.399
617.38	65.242
617.71	66.226
618.04	67.683
618.37	67.150
618.70	66.997
619.03	65.556
619.36	65.774
619.69	68.688
620.03	67.495
620.36	66.595
620.69	67.024
621.02	64.908
621.35	66.473
621.68	66.837
622.01	67.083
622.34	65.842
622.67	66.877
623.00	66.156
623.33	66.616
623.66	66.343
623.99	66.415
624.32	67.833
624.65	67.744
624.99	66.667
625.32	65.807
625.65	67.243
625.98	67.446
626.31	65.586
626.64	67.591
626.97	67.801
627.30	67.776
627.63	67.591
627.96	68.913
628.29	67.068
628.62	66.863
628.95	66.333
629.28	68.347
629.61	68.295
629.94	69.599
630.26	66.601
630.59	68.887
630.92	67.897
631.25	65.538
631.58	69.383
631.91	68.092
632.24	68.119
632.57	68.295
632.90	66.311
633.23	66.706
633.56	70.655
633.89	67.818
