SpectraSuite Data File
++++++++++++++++++++++++++++++++++++
Date: Fri May 15 20:13:16 PDT 2015
User: schluterlab
Dark Spectrum Present: Yes
Reference Spectrum Present: Yes
Number of Sampled Component Spectra: 1
Spectrometers: USB2E3373
Integration Time (usec): 3000 (USB2E3373)
Spectra Averaged: 3 (USB2E3373)
Boxcar Smoothing: 0 (USB2E3373)
Correct for Electrical Dark: No (USB2E3373)
Strobe/Lamp Enabled: No (USB2E3373)
Correct for Detector Non-linearity: No (USB2E3373)
Correct for Stray Light: No (USB2E3373)
Number of Pixels in Processed Spectrum: 2048
>>>>>Begin Processed Spectral Data<<<<<
178.53	0.000
178.91	0.000
179.29	12.500
179.67	-50.000
180.04	-71.429
180.42	25.000
180.80	700.000
181.18	-66.667
181.56	250.000
181.94	0.000
182.31	-1000.000
182.69	20.000
183.07	33.333
183.45	0.000
183.83	-66.667
184.20	9.091
184.58	-0.000
184.96	-250.000
185.34	-233.333
185.72	-300.000
186.09	84.615
186.47	-1000.000
186.85	50.000
187.23	122.222
187.61	-400.000
187.98	-200.000
188.36	55.556
188.74	0.000
189.12	29.412
189.49	0.000
189.87	0.000
190.25	42.857
190.63	500.000
191.00	-166.667
191.38	36.842
191.76	750.000
192.14	-0.000
192.51	400.000
192.89	-33.333
193.27	14.286
193.65	-16.667
194.02	190.909
194.40	90.000
194.78	-50.000
195.15	66.667
195.53	-87.500
195.91	-0.000
196.29	275.000
196.66	61.538
197.04	42.857
197.42	-33.333
197.79	-300.000
198.17	0.000
198.55	800.000
198.92	300.000
199.30	1200.000
199.68	20.000
200.05	133.333
200.43	0.000
200.81	200.000
201.18	-133.333
201.56	800.000
201.94	-150.000
202.31	-100.000
202.69	-180.000
203.07	-0.000
203.44	500.000
203.82	0.000
204.19	42.857
204.57	-366.667
204.95	87.500
205.32	40.000
205.70	-57.143
206.08	75.000
206.45	166.667
206.83	114.286
207.20	28.571
207.58	800.000
207.96	-66.667
208.33	-60.000
208.71	-125.000
209.08	-83.333
209.46	500.000
209.84	100.000
210.21	-200.000
210.59	71.429
210.96	-16.667
211.34	150.000
211.71	73.333
212.09	-114.286
212.46	-1400.000
212.84	0.000
213.22	-40.000
213.59	150.000
213.97	30.769
214.34	63.636
214.72	-50.000
215.09	225.000
215.47	-7.692
215.84	27.273
216.22	-233.333
216.59	-12.500
216.97	0.000
217.34	100.000
217.72	-80.000
218.09	237.500
218.47	50.000
218.84	-500.000
219.22	-11.111
219.59	-20.000
219.97	300.000
220.34	100.000
220.72	42.857
221.09	-250.000
221.47	-200.000
221.84	-100.000
222.22	-900.000
222.59	72.727
222.97	-8.333
223.34	-233.333
223.72	0.000
224.09	4.762
224.46	32.143
224.84	166.667
225.21	30.000
225.59	26.667
225.96	-450.000
226.34	225.000
226.71	-42.857
227.08	-16.667
227.46	-62.500
227.83	-600.000
228.21	133.333
228.58	0.000
228.95	37.500
229.33	20.000
229.70	112.500
230.08	0.000
230.45	-42.857
230.82	71.429
231.20	-93.333
231.57	42.857
231.95	-28.571
232.32	-50.000
232.69	7.143
233.07	-133.333
233.44	60.000
233.81	-40.000
234.19	77.778
234.56	-23.529
234.93	200.000
235.31	25.000
235.68	-100.000
236.05	-84.615
236.43	-20.000
236.80	35.294
237.17	37.500
237.55	25.000
237.92	-14.815
238.29	0.000
238.67	10.000
239.04	2.941
239.41	19.512
239.79	3.333
240.16	7.317
240.53	-10.526
240.91	-13.043
241.28	14.286
241.65	-16.071
242.02	10.959
242.40	0.000
242.77	0.000
243.14	10.606
243.51	10.000
243.89	17.241
244.26	4.598
244.63	8.333
245.00	-6.186
245.38	9.278
245.75	-3.371
246.12	3.448
246.49	5.785
246.87	5.769
247.24	4.202
247.61	-12.281
247.98	0.813
248.36	5.000
248.73	1.316
249.10	1.948
249.47	0.633
249.84	0.654
250.22	2.353
250.59	1.307
250.96	7.512
251.33	-5.233
251.70	3.529
252.08	2.538
252.45	-3.465
252.82	6.030
253.19	2.304
253.56	-1.869
253.94	4.955
254.31	4.348
254.68	3.070
255.05	-0.394
255.42	2.183
255.79	2.317
256.16	2.335
256.54	5.224
256.91	-0.760
257.28	3.717
257.65	-1.124
258.02	-0.709
258.39	3.030
258.76	4.396
259.14	4.319
259.51	0.971
259.88	3.093
260.25	2.288
260.62	2.431
260.99	1.017
261.36	0.000
261.73	1.899
262.10	3.647
262.47	-0.307
262.85	0.000
263.22	0.308
263.59	2.181
263.96	7.453
264.33	3.939
264.70	0.893
265.07	1.488
265.44	2.266
265.81	2.825
266.18	2.186
266.55	3.599
266.92	6.218
267.29	2.611
267.66	2.046
268.03	1.571
268.40	0.522
268.77	2.941
269.14	5.036
269.51	4.113
269.88	2.743
270.25	-0.765
270.62	2.927
270.99	0.767
271.36	1.467
271.73	4.225
272.10	2.676
272.47	3.546
272.84	2.228
273.21	3.480
273.58	2.892
273.95	2.746
274.32	1.155
274.69	0.679
275.06	2.232
275.43	1.587
275.80	3.532
276.17	0.690
276.54	4.711
276.91	1.974
277.28	0.655
277.65	2.273
278.02	3.404
278.39	0.219
278.76	1.887
279.13	-2.282
279.50	1.050
279.87	1.944
280.23	1.075
280.60	5.653
280.97	1.616
281.34	2.308
281.71	3.696
282.08	-0.818
282.45	2.544
282.82	1.931
283.19	2.128
283.56	2.119
283.92	-0.190
284.29	3.077
284.66	2.713
285.03	-0.786
285.40	1.890
285.77	0.176
286.14	2.527
286.51	2.214
286.87	0.731
287.24	2.394
287.61	1.587
287.98	4.035
288.35	1.213
288.72	2.102
289.08	1.389
289.45	2.988
289.82	2.622
290.19	2.730
290.56	2.058
290.93	1.178
291.29	2.619
291.66	2.520
292.03	1.754
292.40	0.806
292.77	2.552
293.13	-0.162
293.50	2.883
293.87	2.443
294.24	1.082
294.60	2.385
294.97	2.827
295.34	1.687
295.71	1.639
296.08	1.794
296.44	0.000
296.81	0.972
297.18	2.609
297.55	2.304
297.91	2.192
298.28	3.694
298.65	1.764
299.02	0.674
299.38	-0.547
299.75	0.552
300.12	0.785
300.48	0.659
300.85	0.253
301.22	0.130
301.59	1.579
301.95	2.532
302.32	2.335
302.69	0.995
303.05	1.980
303.42	2.242
303.79	2.220
304.15	3.584
304.52	-0.119
304.89	1.404
305.25	0.363
305.62	0.933
305.99	1.520
306.35	1.272
306.72	1.687
307.09	1.140
307.45	1.607
307.82	0.810
308.19	1.045
308.55	2.508
308.92	2.941
309.29	0.447
309.65	1.615
310.02	2.970
310.38	2.305
310.75	3.934
311.12	1.722
311.48	2.439
311.85	2.094
312.22	1.899
312.58	1.911
312.95	1.708
313.31	0.828
313.68	1.675
314.05	2.755
314.41	2.680
314.78	2.784
315.14	3.905
315.51	4.244
315.87	2.664
316.24	5.157
316.61	4.134
316.97	5.556
317.34	3.027
317.70	4.589
318.07	4.135
318.43	4.314
318.80	5.587
319.16	4.980
319.53	6.838
319.89	5.020
320.26	7.692
320.62	6.620
320.99	6.889
321.35	7.400
321.72	8.307
322.08	8.056
322.45	9.036
322.81	8.841
323.18	9.519
323.54	9.363
323.91	10.321
324.27	10.742
324.64	11.517
325.00	14.051
325.37	13.223
325.73	14.053
326.10	14.260
326.46	15.605
326.83	17.498
327.19	17.786
327.56	18.332
327.92	19.718
328.29	19.107
328.65	20.094
329.01	22.243
329.38	22.765
329.74	23.607
330.11	25.023
330.47	24.490
330.84	26.058
331.20	28.422
331.56	26.481
331.93	28.858
332.29	29.331
332.66	28.869
333.02	28.903
333.38	30.981
333.75	31.136
334.11	29.812
334.48	33.364
334.84	33.608
335.20	32.662
335.57	32.004
335.93	33.966
336.29	33.610
336.66	33.969
337.02	34.480
337.38	34.815
337.75	35.636
338.11	35.528
338.47	35.858
338.84	36.044
339.20	37.112
339.56	36.147
339.93	36.258
340.29	37.064
340.65	37.276
341.02	35.816
341.38	37.168
341.74	35.777
342.11	34.662
342.47	37.278
342.83	38.322
343.20	37.718
343.56	37.478
343.92	37.112
344.28	38.258
344.65	37.306
345.01	37.424
345.37	37.511
345.73	38.243
346.10	38.827
346.46	38.015
346.82	38.380
347.19	38.238
347.55	38.012
347.91	38.350
348.27	37.753
348.63	39.438
349.00	38.228
349.36	38.155
349.72	38.972
350.08	38.279
350.45	38.148
350.81	38.372
351.17	38.029
351.53	38.531
351.89	37.325
352.26	37.840
352.62	39.032
352.98	38.635
353.34	37.037
353.70	39.806
354.07	39.113
354.43	38.431
354.79	39.141
355.15	38.810
355.51	39.794
355.87	40.291
356.24	39.886
356.60	38.965
356.96	41.667
357.32	40.415
357.68	38.780
358.04	39.661
358.40	38.746
358.77	39.075
359.13	38.110
359.49	38.983
359.85	40.406
360.21	40.032
360.57	38.715
360.93	40.998
361.29	39.048
361.66	40.596
362.02	40.379
362.38	41.965
362.74	40.273
363.10	42.062
363.46	40.697
363.82	40.872
364.18	41.033
364.54	39.779
364.90	40.502
365.26	41.194
365.62	41.971
365.98	41.276
366.35	41.588
366.71	42.794
367.07	42.090
367.43	42.128
367.79	41.201
368.15	41.996
368.51	42.243
368.87	41.565
369.23	42.310
369.59	43.513
369.95	42.669
370.31	42.486
370.67	42.836
371.03	42.420
371.39	43.034
371.75	43.004
372.11	42.154
372.47	43.417
372.83	43.648
373.19	42.011
373.55	43.249
373.91	42.621
374.27	44.366
374.63	44.795
374.99	43.972
375.35	44.777
375.71	44.406
376.07	43.961
376.42	45.170
376.78	45.570
377.14	44.888
377.50	44.754
377.86	45.181
378.22	45.373
378.58	44.167
378.94	45.999
379.30	45.352
379.66	47.712
380.02	45.923
380.38	45.040
380.74	45.961
381.09	47.730
381.45	45.076
381.81	46.144
382.17	45.876
382.53	46.846
382.89	47.269
383.25	48.164
383.61	47.866
383.97	47.873
384.32	47.655
384.68	47.554
385.04	46.814
385.40	47.542
385.76	48.994
386.12	48.965
386.48	48.787
386.83	49.715
387.19	48.596
387.55	49.373
387.91	48.533
388.27	47.863
388.62	49.591
388.98	49.540
389.34	48.844
389.70	50.155
390.06	48.584
390.42	48.964
390.77	49.052
391.13	49.117
391.49	49.483
391.85	50.227
392.20	49.215
392.56	49.142
392.92	49.383
393.28	49.646
393.64	49.069
393.99	51.661
394.35	51.297
394.71	51.788
395.07	48.523
395.42	48.937
395.78	49.577
396.14	50.883
396.50	50.032
396.85	50.032
397.21	50.125
397.57	50.784
397.92	50.809
398.28	51.724
398.64	48.795
399.00	50.113
399.35	50.056
399.71	49.282
400.07	50.060
400.42	49.327
400.78	50.827
401.14	49.909
401.49	50.506
401.85	50.152
402.21	49.639
402.57	50.625
402.92	48.620
403.28	50.188
403.63	49.622
403.99	50.128
404.35	51.343
404.70	48.631
405.06	49.354
405.42	49.472
405.77	49.332
406.13	49.825
406.49	49.142
406.84	50.183
407.20	49.368
407.55	49.646
407.91	49.933
408.27	49.904
408.62	48.369
408.98	49.353
409.34	51.239
409.69	48.837
410.05	48.091
410.40	49.815
410.76	50.000
411.11	49.812
411.47	49.704
411.83	48.776
412.18	50.901
412.54	48.814
412.89	48.030
413.25	48.977
413.60	48.758
413.96	48.344
414.31	49.268
414.67	49.647
415.03	49.201
415.38	49.413
415.74	50.228
416.09	49.118
416.45	49.291
416.80	49.504
417.16	50.691
417.51	50.300
417.87	48.892
418.22	50.324
418.58	50.635
418.93	50.031
419.29	49.360
419.64	49.255
420.00	51.826
420.35	48.657
420.71	50.608
421.06	49.601
421.42	50.661
421.77	50.347
422.12	49.659
422.48	49.648
422.83	49.188
423.19	50.621
423.54	49.677
423.90	49.706
424.25	49.885
424.61	50.000
424.96	49.884
425.31	51.646
425.67	50.293
426.02	51.001
426.38	51.472
426.73	50.424
427.09	51.329
427.44	50.353
427.79	51.031
428.15	50.667
428.50	50.757
428.85	49.877
429.21	50.821
429.56	52.237
429.92	51.156
430.27	50.977
430.62	50.863
430.98	51.380
431.33	50.736
431.68	50.549
432.04	51.984
432.39	50.485
432.74	50.451
433.10	50.460
433.45	50.836
433.80	52.118
434.16	50.471
434.51	50.645
434.86	51.742
435.22	51.430
435.57	52.963
435.92	52.335
436.28	51.699
436.63	52.082
436.98	51.333
437.34	51.724
437.69	51.282
438.04	51.168
438.39	51.863
438.75	53.188
439.10	51.669
439.45	52.343
439.81	51.254
440.16	53.207
440.51	51.821
440.86	53.958
441.22	51.867
441.57	54.084
441.92	52.256
442.27	52.716
442.63	53.051
442.98	52.326
443.33	51.475
443.68	52.149
444.03	52.707
444.39	51.549
444.74	52.954
445.09	53.118
445.44	53.276
445.79	53.223
446.15	52.037
446.50	51.803
446.85	52.763
447.20	51.668
447.55	52.065
447.91	52.623
448.26	52.590
448.61	52.562
448.96	53.701
449.31	52.254
449.66	52.962
450.02	52.653
450.37	51.689
450.72	50.916
451.07	54.620
451.42	51.935
451.77	53.044
452.12	52.213
452.47	52.930
452.83	52.002
453.18	51.044
453.53	52.465
453.88	53.309
454.23	50.768
454.58	53.338
454.93	52.513
455.28	51.365
455.63	53.503
455.98	51.293
456.34	52.618
456.69	53.558
457.04	54.505
457.39	51.823
457.74	52.116
458.09	50.912
458.44	53.130
458.79	52.045
459.14	52.689
459.49	52.299
459.84	52.341
460.19	52.002
460.54	52.567
460.89	52.955
461.24	52.733
461.59	52.257
461.94	51.950
462.29	52.292
462.64	52.625
462.99	52.607
463.34	51.599
463.69	52.960
464.04	51.877
464.39	52.335
464.74	52.945
465.09	52.527
465.44	52.568
465.79	50.227
466.14	52.908
466.49	52.041
466.84	51.160
467.19	51.815
467.54	50.255
467.89	50.663
468.24	53.041
468.59	51.873
468.94	51.873
469.29	51.082
469.64	51.880
469.99	52.558
470.34	50.580
470.68	52.349
471.03	50.672
471.38	52.068
471.73	51.611
472.08	51.357
472.43	53.289
472.78	52.022
473.13	52.313
473.48	52.899
473.83	51.370
474.17	52.008
474.52	51.691
474.87	52.121
475.22	51.068
475.57	52.005
475.92	51.673
476.27	50.524
476.61	52.257
476.96	50.195
477.31	50.892
477.66	51.348
478.01	52.330
478.36	51.253
478.70	52.202
479.05	52.582
479.40	51.510
479.75	51.095
480.10	51.818
480.45	51.850
480.79	52.518
481.14	52.152
481.49	51.232
481.84	51.496
482.19	51.123
482.53	52.566
482.88	50.644
483.23	51.727
483.58	51.368
483.92	51.646
484.27	50.137
484.62	51.053
484.97	50.332
485.31	50.867
485.66	51.128
486.01	51.915
486.36	51.844
486.70	51.712
487.05	51.351
487.40	51.008
487.75	49.915
488.09	50.309
488.44	50.241
488.79	49.720
489.13	50.561
489.48	50.150
489.83	50.224
490.17	49.169
490.52	50.069
490.87	49.144
491.22	50.430
491.56	50.522
491.91	49.426
492.26	51.337
492.60	50.768
492.95	51.353
493.30	49.780
493.64	50.688
493.99	50.242
494.34	49.563
494.68	50.143
495.03	50.268
495.37	49.902
495.72	50.631
496.07	49.805
496.41	50.000
496.76	50.207
497.11	49.837
497.45	49.881
497.80	50.000
498.14	49.925
498.49	50.330
498.84	49.601
499.18	50.602
499.53	50.099
499.87	49.708
500.22	50.198
500.56	50.832
500.91	50.351
501.26	48.789
501.60	50.221
501.95	49.830
502.29	50.266
502.64	49.421
502.98	49.877
503.33	48.223
503.67	48.723
504.02	49.120
504.36	50.371
504.71	49.596
505.06	48.767
505.40	48.731
505.75	49.948
506.09	49.366
506.44	50.411
506.78	49.592
507.13	49.741
507.47	48.930
507.82	49.786
508.16	48.442
508.51	49.475
508.85	49.922
509.19	49.761
509.54	49.008
509.88	49.407
510.23	49.597
510.57	48.904
510.92	48.188
511.26	49.700
511.61	50.330
511.95	48.712
512.30	48.337
512.64	47.802
512.98	49.747
513.33	49.524
513.67	48.721
514.02	50.000
514.36	50.800
514.70	49.534
515.05	49.471
515.39	49.587
515.74	49.641
516.08	49.372
516.42	49.352
516.77	48.391
517.11	48.961
517.46	48.594
517.80	49.225
518.14	49.357
518.49	47.356
518.83	49.271
519.17	48.696
519.52	48.076
519.86	48.139
520.20	47.874
520.55	47.092
520.89	48.432
521.23	48.005
521.58	49.022
521.92	49.103
522.26	47.625
522.61	48.377
522.95	49.801
523.29	48.412
523.64	49.238
523.98	48.931
524.32	48.067
524.66	48.528
525.01	50.000
525.35	47.764
525.69	48.620
526.04	47.354
526.38	48.444
526.72	46.959
527.06	47.406
527.41	48.681
527.75	47.319
528.09	47.309
528.43	49.021
528.78	47.591
529.12	48.000
529.46	47.823
529.80	47.625
530.15	49.109
530.49	48.956
530.83	48.495
531.17	47.884
531.51	49.179
531.86	47.655
532.20	47.042
532.54	46.903
532.88	48.323
533.22	47.312
533.57	49.148
533.91	47.781
534.25	49.674
534.59	46.953
534.93	46.885
535.27	46.764
535.62	47.440
535.96	47.489
536.30	48.351
536.64	48.863
536.98	46.132
537.32	49.004
537.66	49.299
538.01	48.042
538.35	46.949
538.69	47.403
539.03	46.138
539.37	48.452
539.71	46.762
540.05	46.775
540.39	47.853
540.73	47.838
541.07	47.445
541.42	47.984
541.76	48.933
542.10	46.043
542.44	48.089
542.78	45.836
543.12	46.635
543.46	48.122
543.80	48.508
544.14	46.061
544.48	47.502
544.82	48.120
545.16	48.770
545.50	47.463
545.84	47.663
546.18	45.816
546.52	46.864
546.86	46.585
547.20	46.781
547.54	47.138
547.88	47.215
548.22	47.009
548.56	47.230
548.90	48.248
549.24	46.832
549.58	46.121
549.92	46.104
550.26	47.326
550.60	46.766
550.94	47.199
551.28	46.986
551.62	47.846
551.96	46.241
552.30	47.222
552.64	46.756
552.98	45.710
553.32	47.218
553.66	46.880
554.00	48.394
554.34	47.046
554.68	46.534
555.02	46.801
555.36	47.494
555.69	45.421
556.03	46.824
556.37	46.548
556.71	47.437
557.05	46.234
557.39	45.725
557.73	46.777
558.07	46.682
558.41	46.708
558.75	46.220
559.08	46.493
559.42	45.952
559.76	46.998
560.10	45.872
560.44	45.644
560.78	46.573
561.12	47.532
561.45	47.224
561.79	46.639
562.13	47.977
562.47	46.475
562.81	47.334
563.15	45.416
563.48	46.605
563.82	46.259
564.16	47.214
564.50	46.622
564.84	46.319
565.17	46.144
565.51	48.566
565.85	48.148
566.19	46.552
566.52	47.654
566.86	47.751
567.20	47.073
567.54	48.297
567.88	47.862
568.21	47.172
568.55	47.391
568.89	47.074
569.23	48.050
569.56	47.242
569.90	48.112
570.24	45.962
570.57	47.600
570.91	48.205
571.25	46.103
571.59	46.932
571.92	45.037
572.26	45.622
572.60	46.202
572.93	45.278
573.27	45.486
573.61	46.659
573.95	46.204
574.28	46.133
574.62	46.021
574.96	45.450
575.29	45.356
575.63	44.960
575.97	45.541
576.30	45.150
576.64	44.609
576.98	45.611
577.31	46.129
577.65	46.284
577.98	46.260
578.32	45.902
578.66	45.132
578.99	44.923
579.33	44.941
579.67	44.941
580.00	45.494
580.34	45.025
580.67	45.326
581.01	45.149
581.35	45.564
581.68	46.192
582.02	45.183
582.35	45.125
582.69	45.228
583.02	45.418
583.36	45.848
583.70	45.872
584.03	45.983
584.37	46.781
584.70	45.467
585.04	44.974
585.37	45.381
585.71	45.643
586.04	45.159
586.38	45.879
586.72	45.882
587.05	46.129
587.39	45.569
587.72	46.911
588.06	46.526
588.39	45.058
588.73	45.971
589.06	45.010
589.40	44.763
589.73	45.674
590.07	45.204
590.40	45.124
590.73	46.087
591.07	46.183
591.40	45.948
591.74	46.244
592.07	46.892
592.41	46.113
592.74	45.241
593.08	45.372
593.41	46.161
593.75	44.096
594.08	45.211
594.41	45.269
594.75	45.420
595.08	44.646
595.42	45.491
595.75	46.113
596.09	44.605
596.42	45.349
596.75	44.982
597.09	45.467
597.42	45.077
597.75	45.625
598.09	44.952
598.42	44.630
598.76	45.217
599.09	45.353
599.42	43.767
599.76	44.695
600.09	45.023
600.42	45.034
600.76	44.577
601.09	44.389
601.42	44.575
601.76	44.343
602.09	45.751
602.42	45.409
602.76	44.525
603.09	44.684
603.42	46.865
603.76	45.645
604.09	44.593
604.42	45.854
604.76	45.527
605.09	45.430
605.42	45.463
605.75	45.228
606.09	44.883
606.42	44.996
606.75	45.022
607.09	45.978
607.42	44.395
607.75	45.249
608.08	43.576
608.42	44.632
608.75	45.446
609.08	45.790
609.41	45.025
609.75	44.808
610.08	43.784
610.41	44.638
610.74	44.661
611.07	45.013
611.41	45.044
611.74	45.682
612.07	45.557
612.40	45.186
612.73	45.537
613.07	44.882
613.40	45.241
613.73	43.928
614.06	45.075
614.39	44.726
614.72	43.978
615.06	44.078
615.39	43.996
615.72	44.349
616.05	44.078
616.38	44.444
616.71	45.015
617.05	45.769
617.38	45.003
617.71	45.849
618.04	45.460
618.37	46.217
618.70	45.413
619.03	44.792
619.36	44.573
619.69	45.716
620.03	47.115
620.36	45.565
620.69	44.611
621.02	43.884
621.35	46.224
621.68	46.173
622.01	45.667
622.34	45.730
622.67	45.505
623.00	45.406
623.33	44.893
623.66	44.577
623.99	44.327
624.32	45.399
624.65	43.759
624.99	44.996
625.32	43.290
625.65	44.540
625.98	45.931
626.31	43.641
626.64	45.667
626.97	46.335
627.30	45.447
627.63	44.627
627.96	45.822
628.29	45.421
628.62	46.214
628.95	44.689
629.28	44.456
629.61	44.965
629.94	45.552
630.26	44.368
630.59	46.410
630.92	46.667
631.25	42.256
631.58	45.925
631.91	45.504
632.24	45.528
632.57	45.341
632.90	45.433
633.23	44.941
633.56	46.348
633.89	44.760
634.22	46.049
634.55	47.522
634.88	46.105
635.20	45.641
635.53	47.600
635.86	45.124
636.19	47.089
636.52	44.515
636.85	46.030
637.18	46.289
637.51	44.528
637.83	45.335
638.16	45.293
638.49	44.005
