SpectraSuite Data File
++++++++++++++++++++++++++++++++++++
Date: Fri May 15 17:29:30 PDT 2015
User: schluterlab
Dark Spectrum Present: Yes
Reference Spectrum Present: Yes
Number of Sampled Component Spectra: 1
Spectrometers: USB2E3373
Integration Time (usec): 3000 (USB2E3373)
Spectra Averaged: 3 (USB2E3373)
Boxcar Smoothing: 0 (USB2E3373)
Correct for Electrical Dark: No (USB2E3373)
Strobe/Lamp Enabled: No (USB2E3373)
Correct for Detector Non-linearity: No (USB2E3373)
Correct for Stray Light: No (USB2E3373)
Number of Pixels in Processed Spectrum: 2048
>>>>>Begin Processed Spectral Data<<<<<
178.53	0.000
178.91	0.000
179.29	25.000
179.67	-150.000
180.04	-71.429
180.42	75.000
180.80	600.000
181.18	-200.000
181.56	200.000
181.94	0.000
182.31	600.000
182.69	40.000
183.07	-200.000
183.45	-40.000
183.83	-0.000
184.20	27.273
184.58	144.444
184.96	-75.000
185.34	-200.000
185.72	200.000
186.09	53.846
186.47	-600.000
186.85	300.000
187.23	122.222
187.61	-0.000
187.98	-300.000
188.36	66.667
188.74	66.667
189.12	58.824
189.49	11.111
189.87	0.000
190.25	121.429
190.63	150.000
191.00	100.000
191.38	63.158
191.76	350.000
192.14	-125.000
192.51	250.000
192.89	22.222
193.27	-28.571
193.65	133.333
194.02	190.909
194.40	-10.000
194.78	-125.000
195.15	0.000
195.53	-37.500
195.91	250.000
196.29	-75.000
196.66	84.615
197.04	85.714
197.42	55.556
197.79	-400.000
198.17	-100.000
198.55	700.000
198.92	-66.667
199.30	200.000
199.68	40.000
200.05	-233.333
200.43	0.000
200.81	166.667
201.18	233.333
201.56	600.000
201.94	200.000
202.31	-466.667
202.69	-140.000
203.07	125.000
203.44	1100.000
203.82	0.000
204.19	114.286
204.57	-400.000
204.95	-87.500
205.32	10.000
205.70	0.000
206.08	-25.000
206.45	133.333
206.83	42.857
207.20	-57.143
207.58	300.000
207.96	-200.000
208.33	-40.000
208.71	175.000
209.08	-150.000
209.46	-400.000
209.84	80.000
210.21	-1800.000
210.59	228.571
210.96	83.333
211.34	0.000
211.71	53.333
212.09	-85.714
212.46	-400.000
212.84	0.000
213.22	30.000
213.59	50.000
213.97	38.462
214.34	72.727
214.72	116.667
215.09	350.000
215.47	-23.077
215.84	54.545
216.22	-100.000
216.59	-25.000
216.97	-50.000
217.34	-50.000
217.72	-60.000
218.09	37.500
218.47	162.500
218.84	-800.000
219.22	-44.444
219.59	-20.000
219.97	233.333
220.34	250.000
220.72	114.286
221.09	100.000
221.47	50.000
221.84	-400.000
222.22	-800.000
222.59	27.273
222.97	33.333
223.34	-200.000
223.72	42.857
224.09	-4.762
224.46	-14.286
224.84	333.333
225.21	-20.000
225.59	6.667
225.96	-100.000
226.34	275.000
226.71	-57.143
227.08	-66.667
227.46	75.000
227.83	-400.000
228.21	33.333
228.58	-18.182
228.95	-62.500
229.33	70.000
229.70	0.000
230.08	-87.500
230.45	0.000
230.82	228.571
231.20	26.667
231.57	85.714
231.95	28.571
232.32	-30.000
232.69	35.714
233.07	-66.667
233.44	100.000
233.81	-20.000
234.19	33.333
234.56	-23.529
234.93	-50.000
235.31	50.000
235.68	-180.000
236.05	-53.846
236.43	-30.000
236.80	70.588
237.17	12.500
237.55	-15.000
237.92	-51.852
238.29	38.889
238.67	-13.333
239.04	-8.824
239.41	-24.390
239.79	-10.000
240.16	9.756
240.53	-5.263
240.91	-15.217
241.28	6.349
241.65	7.143
242.02	9.589
242.40	15.000
242.77	-6.780
243.14	1.515
243.51	-5.000
243.89	21.839
244.26	3.448
244.63	-1.190
245.00	-8.247
245.38	6.186
245.75	-7.865
246.12	-2.586
246.49	2.479
246.87	5.769
247.24	-8.403
247.61	-7.895
247.98	-7.317
248.36	-1.250
248.73	-5.921
249.10	-1.948
249.47	-1.899
249.84	-3.922
250.22	-2.353
250.59	-0.654
250.96	6.573
251.33	-8.140
251.70	-1.176
252.08	1.015
252.45	0.990
252.82	1.005
253.19	2.765
253.56	-7.009
253.94	-0.901
254.31	-2.174
254.68	3.947
255.05	-0.394
255.42	1.747
255.79	1.158
256.16	1.167
256.54	2.985
256.91	0.760
257.28	2.602
257.65	-0.749
258.02	0.355
258.39	6.397
258.76	-0.366
259.14	0.664
259.51	-0.971
259.88	-0.687
260.25	-0.980
260.62	1.736
260.99	-2.712
261.36	-0.685
261.73	-1.266
262.10	0.608
262.47	-1.840
262.85	-4.702
263.22	-4.615
263.59	-0.935
263.96	2.795
264.33	-0.606
264.70	-2.083
265.07	-2.381
265.44	0.283
265.81	1.130
266.18	-1.913
266.55	1.799
266.92	1.036
267.29	1.567
267.66	-0.512
268.03	0.785
268.40	-1.305
268.77	0.000
269.14	0.000
269.51	3.085
269.88	-0.499
270.25	-2.296
270.62	-1.707
270.99	-2.558
271.36	-1.467
271.73	0.704
272.10	1.946
272.47	-0.946
272.84	-0.495
273.21	-0.928
273.58	-1.446
273.95	0.915
274.32	-3.926
274.69	-2.489
275.06	0.000
275.43	1.814
275.80	-1.325
276.17	-0.920
276.54	2.141
276.91	-0.439
277.28	-2.402
277.65	-0.826
278.02	1.702
278.39	-1.094
278.76	0.000
279.13	-3.320
279.50	0.630
279.87	1.728
280.23	-1.075
280.60	2.144
280.97	1.212
281.34	0.385
281.71	1.232
282.08	-3.067
282.45	-1.566
282.82	-2.124
283.19	-1.161
283.56	3.083
283.92	-3.226
284.29	-2.115
284.66	-0.969
285.03	-0.982
285.40	-0.378
285.77	-1.406
286.14	0.903
286.51	1.292
286.87	-1.097
287.24	-0.184
287.61	-1.235
287.98	1.579
288.35	-0.347
288.72	1.751
289.08	1.042
289.45	1.406
289.82	0.000
290.19	0.512
290.56	-0.686
290.93	-1.010
291.29	-0.462
291.66	2.677
292.03	-0.478
292.40	0.161
292.77	-1.276
293.13	-2.435
293.50	-1.669
293.87	-0.305
294.24	0.000
294.60	0.298
294.97	0.149
295.34	-1.534
295.71	-0.596
296.08	-0.897
296.44	-1.849
296.81	-0.972
297.18	-0.435
297.55	2.304
297.91	0.274
298.28	0.660
298.65	-0.271
299.02	-1.213
299.38	-1.505
299.75	0.000
300.12	-1.178
300.48	-0.132
300.85	-0.127
301.22	-0.130
301.59	0.000
301.95	-0.886
302.32	-0.649
302.69	-0.373
303.05	-0.495
303.42	0.249
303.79	0.467
304.15	1.075
304.52	-0.595
304.89	-1.053
305.25	0.242
305.62	-0.817
305.99	0.000
306.35	-1.040
306.72	-1.237
307.09	-1.596
307.45	0.000
307.82	-1.157
308.19	0.697
308.55	-1.091
308.92	0.980
309.29	-1.117
309.65	0.431
310.02	-0.550
310.38	0.659
310.75	0.219
311.12	-0.753
311.48	-0.318
311.85	0.000
312.22	0.422
312.58	-0.318
312.95	-1.067
313.31	-0.621
313.68	-0.419
314.05	-0.306
314.41	-0.515
314.78	-0.825
315.14	0.514
315.51	-0.414
315.87	-1.230
316.24	0.910
316.61	0.689
316.97	0.496
317.34	0.586
317.70	-0.382
318.07	0.481
318.43	0.784
318.80	1.326
319.16	-0.293
319.53	0.855
319.89	0.000
320.26	-0.405
320.62	1.003
320.99	-1.148
321.35	0.308
321.72	0.623
322.08	-0.302
322.45	0.305
322.81	0.098
323.18	-0.589
323.54	0.000
323.91	-0.389
324.27	0.293
324.64	-0.187
325.00	0.456
325.37	1.469
325.73	-0.725
326.10	0.363
326.46	0.538
326.83	1.050
327.19	0.872
327.56	1.216
327.92	0.704
328.29	0.982
328.65	0.189
329.01	0.184
329.38	0.737
329.74	0.000
330.11	1.112
330.47	0.093
330.84	0.096
331.20	1.236
331.56	0.833
331.93	0.913
332.29	1.283
332.66	0.362
333.02	0.093
333.38	0.550
333.75	1.007
334.11	0.985
334.48	0.816
334.84	1.099
335.20	0.823
335.57	-0.363
335.93	1.084
336.29	1.565
336.66	0.272
337.02	-0.372
337.38	-1.111
337.75	1.273
338.11	1.082
338.47	1.551
338.84	0.924
339.20	1.005
339.56	1.284
339.93	1.701
340.29	1.193
340.65	1.971
341.02	0.975
341.38	0.708
341.74	-0.088
342.11	0.520
342.47	-0.178
342.83	0.433
343.20	-0.087
343.56	0.783
343.92	0.266
344.28	1.196
344.65	1.382
345.01	0.086
345.37	1.262
345.73	1.757
346.10	1.122
346.46	1.177
346.82	1.227
347.19	-0.249
347.55	1.671
347.91	0.485
348.27	0.970
348.63	1.022
349.00	0.082
349.36	0.665
349.72	1.575
350.08	1.721
350.45	1.197
350.81	0.498
351.17	1.303
351.53	1.878
351.89	0.165
352.26	1.200
352.62	0.806
352.98	1.205
353.34	1.047
353.70	1.456
354.07	0.565
354.43	1.361
354.79	0.826
355.15	1.667
355.51	1.661
355.87	1.294
356.24	0.000
356.60	0.889
356.96	1.825
357.32	0.799
357.68	1.016
358.04	0.727
358.40	0.482
358.77	0.399
359.13	-0.080
359.49	0.924
359.85	0.858
360.21	0.399
360.57	1.683
360.93	1.513
361.29	0.755
361.66	1.567
362.02	0.455
362.38	0.685
362.74	0.454
363.10	1.505
363.46	0.371
363.82	2.329
364.18	1.402
364.54	0.882
364.90	1.004
365.26	0.801
365.62	1.752
365.98	1.246
366.35	1.384
366.71	1.626
367.07	1.451
367.43	0.791
367.79	1.413
368.15	1.077
368.51	1.092
368.87	0.072
369.23	0.650
369.59	0.729
369.95	0.880
370.31	1.228
370.67	0.149
371.03	0.896
371.39	1.532
371.75	0.586
372.11	1.569
372.47	0.518
372.83	0.994
373.19	2.211
373.55	0.361
373.91	1.800
374.27	1.347
374.63	1.938
374.99	0.780
375.35	1.393
375.71	1.538
376.07	1.685
376.42	1.224
376.78	1.275
377.14	1.422
377.50	1.129
377.86	1.740
378.22	1.340
378.58	1.474
378.94	1.260
379.30	1.310
379.66	2.508
380.02	1.165
380.38	0.670
380.74	1.317
381.09	1.534
381.45	1.162
381.81	1.604
382.17	1.650
382.53	1.936
382.89	1.569
383.25	1.618
383.61	1.890
383.97	0.127
384.32	1.376
384.68	1.238
385.04	0.735
385.40	0.871
385.76	1.761
386.12	1.617
386.48	1.852
386.83	1.649
387.19	1.587
387.55	1.568
387.91	1.711
388.27	1.404
388.62	2.014
388.98	1.412
389.34	1.749
389.70	2.300
390.06	1.699
390.42	1.554
390.77	0.850
391.13	1.261
391.49	2.199
391.85	1.365
392.20	2.134
392.56	1.462
392.92	1.938
393.28	1.887
393.64	1.502
393.99	2.821
394.35	0.822
394.71	2.107
395.07	2.263
395.42	1.761
395.78	1.238
396.14	2.144
396.50	2.156
396.85	1.996
397.21	1.754
397.57	2.571
397.92	1.977
398.28	1.494
398.64	1.506
399.00	2.652
399.35	1.298
399.71	2.355
400.07	2.660
400.42	2.203
400.78	2.143
401.14	2.601
401.49	1.846
401.85	1.706
402.21	2.410
402.57	1.687
402.92	1.694
403.28	3.008
403.63	1.955
403.99	2.105
404.35	2.374
404.70	2.262
405.06	2.056
405.42	2.362
405.77	1.685
406.13	1.688
406.49	1.599
406.84	2.078
407.20	1.927
407.55	1.674
407.91	1.537
408.27	1.721
408.62	2.154
408.98	2.033
409.34	2.416
409.69	1.486
410.05	2.032
410.40	1.667
410.76	2.654
411.11	2.187
411.47	2.761
411.83	1.381
412.18	2.124
412.54	2.310
412.89	1.663
413.25	3.008
413.60	2.050
413.96	2.270
414.31	3.049
414.67	1.796
415.03	1.931
415.38	2.480
415.74	2.606
416.09	2.613
416.45	2.566
416.80	2.313
417.16	2.417
417.51	2.798
417.87	1.760
418.22	2.137
418.58	1.806
418.93	2.633
419.29	1.601
419.64	2.463
420.00	2.771
420.35	2.149
420.71	3.463
421.06	2.394
421.42	2.524
421.77	1.908
422.12	2.213
422.48	2.436
422.83	1.856
423.19	2.314
423.54	1.587
423.90	2.709
424.25	2.239
424.61	2.203
424.96	2.846
425.31	2.773
425.67	1.995
426.02	3.004
426.38	1.941
426.73	2.482
427.09	3.165
427.44	2.824
427.79	2.711
428.15	3.459
428.50	2.180
428.85	2.580
429.21	3.282
429.56	2.642
429.92	3.184
430.27	3.258
430.62	2.509
430.98	2.176
431.33	3.260
431.68	2.878
432.04	2.404
432.39	2.339
432.74	2.586
433.10	3.161
433.45	2.210
433.80	2.612
434.16	1.219
434.51	2.688
434.86	2.613
435.22	2.580
435.57	2.682
435.92	2.874
436.28	2.504
436.63	3.195
436.98	2.144
437.34	1.512
437.69	2.803
438.04	2.906
438.39	2.199
438.75	2.064
439.10	3.113
439.45	2.495
439.81	2.508
440.16	2.494
440.51	3.045
440.86	3.444
441.22	2.885
441.57	2.649
441.92	3.463
442.27	3.104
442.63	3.533
442.98	2.987
443.33	2.727
443.68	2.865
444.03	3.577
444.39	2.755
444.74	3.233
445.09	3.007
445.44	2.963
445.79	3.868
446.15	2.919
446.50	2.718
446.85	2.869
447.20	2.815
447.55	4.408
447.91	2.876
448.26	3.130
448.61	3.397
448.96	3.213
449.31	2.428
449.66	3.252
450.02	3.594
450.37	2.193
450.72	2.520
451.07	3.544
451.42	2.934
451.77	2.712
452.12	2.452
452.47	2.447
452.83	2.356
453.18	2.973
453.53	2.718
453.88	3.279
454.23	3.811
454.58	3.338
454.93	3.222
455.28	2.159
455.63	3.286
455.98	3.307
456.34	3.448
456.69	2.478
457.04	2.773
457.39	3.645
457.74	2.842
458.09	3.414
458.44	2.224
458.79	2.353
459.14	3.890
459.49	3.343
459.84	3.440
460.19	3.155
460.54	2.200
460.89	3.864
461.24	3.106
461.59	3.563
461.94	2.453
462.29	3.619
462.64	3.455
462.99	3.588
463.34	2.573
463.69	2.638
464.04	3.632
464.39	2.850
464.74	3.006
465.09	3.493
465.44	3.347
465.79	3.571
466.14	3.136
466.49	2.473
466.84	3.688
467.19	3.817
467.54	3.576
467.89	3.159
468.24	3.102
468.59	3.492
468.94	3.429
469.29	3.213
469.64	3.759
469.99	3.644
470.34	2.662
470.68	2.535
471.03	3.255
471.38	3.424
471.73	3.221
472.08	2.442
472.43	2.483
472.78	3.084
473.13	3.197
473.48	3.453
473.83	3.487
474.17	3.433
474.52	3.957
474.87	3.091
475.22	2.990
475.57	3.219
475.92	3.182
476.27	3.900
476.61	3.183
476.96	3.123
477.31	3.624
477.66	3.427
478.01	2.864
478.36	3.322
478.70	2.991
479.05	3.516
479.40	3.445
479.75	3.545
480.10	3.687
480.45	3.550
480.79	2.870
481.14	3.279
481.49	2.709
481.84	2.847
482.19	3.134
482.53	3.549
482.88	3.532
483.23	3.119
483.58	3.821
483.92	3.388
484.27	2.780
484.62	3.003
484.97	3.151
485.31	3.360
485.66	3.009
486.01	3.457
486.36	3.422
486.70	3.279
487.05	3.328
487.40	2.947
487.75	2.986
488.09	3.059
488.44	3.026
488.79	3.175
489.13	3.285
489.48	2.736
489.83	3.408
490.17	2.787
490.52	3.279
490.87	3.100
491.22	3.104
491.56	2.704
491.91	3.059
492.26	2.965
492.60	3.311
492.95	3.542
493.30	3.078
493.64	2.456
493.99	3.430
494.34	2.524
494.68	3.190
495.03	2.190
495.37	2.601
495.72	3.483
496.07	2.927
496.41	3.113
496.76	2.856
497.11	2.795
497.45	3.198
497.80	3.179
498.14	3.428
498.49	2.590
498.84	3.194
499.18	3.213
499.53	3.224
499.87	2.821
500.22	3.116
500.56	2.471
500.91	3.062
501.26	2.472
501.60	2.459
501.95	3.396
502.29	3.148
502.64	3.571
502.98	2.565
503.33	2.978
503.67	3.229
504.02	3.128
504.36	4.057
504.71	2.879
505.06	3.171
505.40	2.995
505.75	3.144
506.09	3.092
506.44	2.977
506.78	3.163
507.13	3.102
507.47	2.663
507.82	2.457
508.16	3.011
508.51	2.991
508.85	3.192
509.19	2.395
509.54	3.003
509.88	2.913
510.23	3.066
510.57	3.260
510.92	2.186
511.26	2.782
511.61	3.245
511.95	3.397
512.30	2.993
512.64	3.005
512.98	2.639
513.33	3.414
513.67	2.558
514.02	3.947
514.36	3.657
514.70	3.380
515.05	3.290
515.39	3.011
515.74	3.234
516.08	2.809
516.42	4.240
516.77	3.452
517.11	2.789
517.46	3.351
517.80	2.920
518.14	2.694
518.49	3.365
518.83	3.341
519.17	2.183
519.52	3.079
519.86	2.581
520.20	3.584
520.55	1.689
520.89	3.576
521.23	3.167
521.58	4.038
521.92	3.205
522.26	3.774
522.61	3.182
522.95	3.576
523.29	3.431
523.64	3.367
523.98	3.694
524.32	2.191
524.66	3.777
525.01	3.377
525.35	3.305
525.69	2.357
526.04	2.646
526.38	3.696
526.72	2.681
527.06	3.372
527.41	3.166
527.75	3.217
528.09	3.056
528.43	4.051
528.78	3.102
529.12	3.806
529.46	2.794
529.80	4.053
530.15	4.224
530.49	3.098
530.83	3.146
531.17	3.022
531.51	3.146
531.86	3.127
532.20	2.784
532.54	2.655
532.88	3.491
533.22	3.293
533.57	3.342
533.91	1.958
534.25	4.167
534.59	3.528
534.93	2.203
535.27	2.348
535.62	2.981
535.96	3.392
536.30	3.694
536.64	2.963
536.98	3.206
537.32	4.125
537.66	3.226
538.01	4.056
538.35	2.982
538.69	3.462
539.03	3.349
539.37	4.038
539.71	3.136
540.05	3.123
540.39	3.878
540.73	2.650
541.07	2.970
541.42	4.503
541.76	3.579
542.10	2.684
542.44	3.405
542.78	2.546
543.12	3.159
543.46	3.199
543.80	2.984
544.14	2.603
544.48	3.731
544.82	3.896
545.16	3.757
545.50	4.606
545.84	3.470
546.18	4.681
546.52	3.749
546.86	3.307
547.20	3.720
547.54	3.675
547.88	3.193
548.22	3.090
548.56	3.298
548.90	3.032
549.24	3.030
549.58	3.385
549.92	2.716
550.26	2.784
550.60	2.751
550.94	3.958
551.28	3.168
551.62	3.846
551.96	3.835
552.30	3.216
552.64	3.315
552.98	3.376
553.32	3.424
553.66	3.120
554.00	3.066
554.34	4.062
554.68	3.319
555.02	3.274
555.36	2.767
555.69	2.784
556.03	3.141
556.37	2.491
556.71	3.466
557.05	3.579
557.39	3.197
557.73	2.999
558.07	3.620
558.41	2.910
558.75	2.806
559.08	1.970
559.42	2.460
559.76	3.443
560.10	1.988
560.44	2.978
560.78	3.916
561.12	2.750
561.45	3.865
561.79	3.501
562.13	2.910
562.47	2.878
562.81	3.530
563.15	3.667
563.48	3.112
563.82	3.089
564.16	2.786
564.50	2.635
564.84	4.083
565.17	3.286
565.51	3.552
565.85	3.292
566.19	2.918
566.52	2.882
566.86	3.985
567.20	3.362
567.54	2.920
567.88	3.339
568.21	3.450
568.55	2.989
568.89	3.696
569.23	3.659
569.56	2.933
569.90	3.532
570.24	3.573
570.57	3.200
570.91	3.974
571.25	3.288
571.59	3.550
571.92	3.467
572.26	3.019
572.60	3.597
572.93	3.859
573.27	3.762
573.61	3.341
573.95	3.714
574.28	3.178
574.62	3.509
574.96	3.266
575.29	3.281
575.63	3.161
575.97	3.443
576.30	3.205
576.64	3.205
576.98	3.578
577.31	3.170
577.65	3.601
577.98	3.593
578.32	3.587
578.66	3.568
578.99	3.510
579.33	3.347
579.67	3.608
580.00	3.595
580.34	3.507
580.67	3.239
581.01	3.410
581.35	3.661
581.68	3.602
582.02	3.432
582.35	3.510
582.69	3.564
583.02	3.397
583.36	3.288
583.70	3.583
584.03	3.253
584.37	3.811
584.70	3.462
585.04	3.161
585.37	3.857
585.71	3.382
586.04	3.555
586.38	3.254
586.72	3.443
587.05	3.755
587.39	3.634
587.72	4.155
588.06	3.570
588.39	3.275
588.73	3.663
589.06	3.783
589.40	3.457
589.73	4.491
590.07	4.116
590.40	3.638
590.73	3.954
591.07	3.605
591.40	3.473
591.74	3.846
592.07	4.406
592.41	4.284
592.74	4.102
593.08	3.633
593.41	3.789
593.75	3.664
594.08	3.364
594.41	3.712
594.75	3.359
595.08	3.519
595.42	3.644
595.75	2.854
596.09	3.636
596.42	3.845
596.75	3.508
597.09	3.645
597.42	3.704
597.75	3.802
598.09	3.486
598.42	3.520
598.76	2.917
599.09	3.766
599.42	3.979
599.76	3.386
600.09	3.431
600.42	3.867
600.76	3.343
601.09	3.168
601.42	3.604
601.76	3.692
602.09	3.300
602.42	3.749
602.76	3.480
603.09	4.028
603.42	3.470
603.76	3.548
604.09	3.281
604.42	3.638
604.76	3.827
605.09	3.473
605.42	3.612
605.75	3.722
606.09	3.992
606.42	3.795
606.75	3.420
607.09	3.648
607.42	2.880
607.75	3.330
608.08	3.684
608.42	3.563
608.75	3.855
609.08	3.139
609.41	2.944
609.75	3.377
610.08	3.595
610.41	3.527
610.74	3.559
611.07	2.946
611.41	3.529
611.74	4.104
612.07	3.480
612.40	3.775
612.73	2.768
613.07	3.768
613.40	4.705
613.73	2.462
614.06	4.118
614.39	3.666
614.72	3.754
615.06	3.408
615.39	3.821
615.72	3.283
616.05	3.464
616.38	2.849
616.71	3.364
617.05	3.830
617.38	4.148
617.71	3.333
618.04	3.937
618.37	4.603
618.70	3.432
619.03	4.167
619.36	3.763
619.69	3.487
620.03	4.383
620.36	3.362
620.69	3.569
621.02	3.670
621.35	3.651
621.68	4.082
622.01	3.000
622.34	4.150
622.67	4.101
623.00	3.752
623.33	3.201
623.66	3.441
623.99	4.085
624.32	4.563
624.65	2.707
624.99	4.364
625.32	2.957
625.65	4.085
625.98	4.029
626.31	2.993
626.64	4.073
626.97	4.014
627.30	3.590
627.63	4.506
627.96	3.684
628.29	3.608
628.62	4.621
628.95	3.808
629.28	3.125
629.61	3.190
629.94	4.301
630.26	2.964
630.59	4.579
630.92	4.821
631.25	4.718
631.58	3.634
631.91	2.632
632.24	3.211
632.57	3.523
632.90	1.898
633.23	3.294
633.56	1.385
633.89	3.083
634.22	3.951
634.55	1.906
634.88	3.959
635.20	2.821
635.53	2.400
635.86	2.601
636.19	5.175
636.52	1.913
636.85	2.730
637.18	2.013
637.51	4.025
637.83	3.811
638.16	3.956
638.49	2.861
638.82	4.737
639.15	3.799
639.48	3.576
639.81	2.650
640.13	2.020
640.46	1.895
640.79	3.093
641.12	2.216
641.45	2.703
641.77	4.444
642.10	3.949
642.43	2.733
642.76	2.805
643.09	4.685
643.41	4.369
643.74	3.130
644.07	3.612
644.40	4.054
644.73	4.729
645.05	4.866
645.38	4.056
645.71	3.191
646.04	2.873
646.36	3.014
646.69	5.935
647.02	4.537
647.35	2.612
647.67	4.205
648.00	6.157
648.33	6.655
648.66	2.712
648.98	0.000
649.31	1.983
649.64	2.355
649.96	1.945
650.29	0.681
650.62	4.615
650.94	2.222
651.27	1.304
651.60	2.523
651.92	4.196
652.25	2.842
652.58	4.000
652.90	4.460
653.23	4.202
653.56	1.861
653.88	3.265
654.21	0.175
654.54	2.547
654.86	1.528
655.19	2.047
655.52	3.560
655.84	3.741
656.17	4.249
656.49	5.628
656.82	6.022
