SpectraSuite Data File
++++++++++++++++++++++++++++++++++++
Date: Fri May 15 20:17:24 PDT 2015
User: schluterlab
Dark Spectrum Present: Yes
Reference Spectrum Present: Yes
Number of Sampled Component Spectra: 1
Spectrometers: USB2E3373
Integration Time (usec): 3000 (USB2E3373)
Spectra Averaged: 3 (USB2E3373)
Boxcar Smoothing: 0 (USB2E3373)
Correct for Electrical Dark: No (USB2E3373)
Strobe/Lamp Enabled: No (USB2E3373)
Correct for Detector Non-linearity: No (USB2E3373)
Correct for Stray Light: No (USB2E3373)
Number of Pixels in Processed Spectrum: 2048
>>>>>Begin Processed Spectral Data<<<<<
178.53	0.000
178.91	0.000
179.29	0.000
179.67	-400.000
180.04	100.000
180.42	125.000
180.80	-400.000
181.18	33.333
181.56	-0.000
181.94	150.000
182.31	800.000
182.69	-160.000
183.07	-600.000
183.45	-100.000
183.83	50.000
184.20	-27.273
184.58	77.778
184.96	-150.000
185.34	66.667
185.72	-300.000
186.09	7.692
186.47	-300.000
186.85	116.667
187.23	88.889
187.61	200.000
187.98	-33.333
188.36	33.333
188.74	-100.000
189.12	29.412
189.49	11.111
189.87	0.000
190.25	-7.143
190.63	-200.000
191.00	-233.333
191.38	-26.316
191.76	150.000
192.14	50.000
192.51	300.000
192.89	44.444
193.27	114.286
193.65	366.667
194.02	136.364
194.40	110.000
194.78	-37.500
195.15	16.667
195.53	-162.500
195.91	175.000
196.29	-225.000
196.66	130.769
197.04	200.000
197.42	-111.111
197.79	-166.667
198.17	-53.846
198.55	1700.000
198.92	-133.333
199.30	-500.000
199.68	-260.000
200.05	166.667
200.43	0.000
200.81	0.000
201.18	-100.000
201.56	1200.000
201.94	-300.000
202.31	-0.000
202.69	-220.000
203.07	200.000
203.44	500.000
203.82	0.000
204.19	28.571
204.57	-300.000
204.95	100.000
205.32	-10.000
205.70	28.571
206.08	-100.000
206.45	244.444
206.83	128.571
207.20	-85.714
207.58	100.000
207.96	-300.000
208.33	-130.000
208.71	-150.000
209.08	-283.333
209.46	-400.000
209.84	20.000
210.21	-800.000
210.59	42.857
210.96	33.333
211.34	50.000
211.71	20.000
212.09	-128.571
212.46	-1800.000
212.84	0.000
213.22	0.000
213.59	400.000
213.97	100.000
214.34	0.000
214.72	16.667
215.09	350.000
215.47	-30.769
215.84	-36.364
216.22	-233.333
216.59	137.500
216.97	-100.000
217.34	25.000
217.72	-160.000
218.09	-75.000
218.47	50.000
218.84	-400.000
219.22	66.667
219.59	-40.000
219.97	233.333
220.34	250.000
220.72	-157.143
221.09	-200.000
221.47	-300.000
221.84	-700.000
222.22	-850.000
222.59	81.818
222.97	-33.333
223.34	-66.667
223.72	7.143
224.09	23.810
224.46	3.571
224.84	300.000
225.21	0.000
225.59	66.667
225.96	-250.000
226.34	125.000
226.71	-171.429
227.08	-16.667
227.46	-100.000
227.83	-600.000
228.21	-33.333
228.58	-72.727
228.95	-87.500
229.33	70.000
229.70	25.000
230.08	0.000
230.45	-128.571
230.82	0.000
231.20	-53.333
231.57	50.000
231.95	-42.857
232.32	-60.000
232.69	35.714
233.07	-200.000
233.44	-140.000
233.81	-20.000
234.19	-122.222
234.56	-23.529
234.93	200.000
235.31	-150.000
235.68	-140.000
236.05	-30.769
236.43	-45.000
236.80	-23.529
237.17	15.625
237.55	10.000
237.92	3.704
238.29	8.333
238.67	23.333
239.04	-20.588
239.41	-24.390
239.79	-23.333
240.16	-7.317
240.53	-5.263
240.91	-13.043
241.28	4.762
241.65	-3.571
242.02	13.699
242.40	10.000
242.77	3.390
243.14	-3.030
243.51	1.250
243.89	0.000
244.26	-4.598
244.63	9.524
245.00	6.186
245.38	-4.124
245.75	1.124
246.12	-6.034
246.49	0.826
246.87	-1.923
247.24	-0.840
247.61	-2.632
247.98	-14.634
248.36	5.625
248.73	3.947
249.10	3.896
249.47	5.063
249.84	-0.654
250.22	0.000
250.59	5.229
250.96	8.451
251.33	-1.744
251.70	8.235
252.08	2.030
252.45	4.455
252.82	1.508
253.19	0.922
253.56	1.869
253.94	6.757
254.31	6.522
254.68	8.772
255.05	0.000
255.42	8.734
255.79	3.861
256.16	3.113
256.54	9.328
256.91	3.042
257.28	1.859
257.65	2.996
258.02	1.418
258.39	6.734
258.76	8.059
259.14	4.319
259.51	1.942
259.88	2.062
260.25	3.268
260.62	4.167
260.99	3.051
261.36	2.740
261.73	3.481
262.10	2.432
262.47	0.000
262.85	3.135
263.22	1.538
263.59	4.984
263.96	8.696
264.33	3.636
264.70	3.571
265.07	3.869
265.44	5.099
265.81	3.672
266.18	4.918
266.55	7.969
266.92	5.699
267.29	6.266
267.66	5.371
268.03	2.356
268.40	3.394
268.77	5.080
269.14	5.755
269.51	5.398
269.88	4.988
270.25	1.020
270.62	3.902
270.99	3.325
271.36	2.445
271.73	5.399
272.10	3.163
272.47	6.147
272.84	5.198
273.21	6.032
273.58	5.060
273.95	4.805
274.32	4.157
274.69	4.072
275.06	7.143
275.43	4.762
275.80	5.740
276.17	2.529
276.54	5.139
276.91	4.386
277.28	4.585
277.65	5.785
278.02	4.468
278.39	4.158
278.76	5.241
279.13	-0.207
279.50	5.042
279.87	4.536
280.23	2.151
280.60	5.848
280.97	4.848
281.34	2.692
281.71	6.366
282.08	2.658
282.45	4.110
282.82	3.861
283.19	3.288
283.56	2.890
283.92	1.898
284.29	4.038
284.66	2.326
285.03	2.554
285.40	3.781
285.77	4.569
286.14	3.971
286.51	6.273
286.87	2.925
287.24	3.131
287.61	2.293
287.98	6.316
288.35	2.600
288.72	3.678
289.08	2.604
289.45	2.812
289.82	5.070
290.19	2.901
290.56	2.401
290.93	2.862
291.29	2.311
291.66	4.724
292.03	4.306
292.40	2.581
292.77	3.349
293.13	2.435
293.50	2.428
293.87	3.206
294.24	2.937
294.60	2.832
294.97	4.315
295.34	1.840
295.71	2.534
296.08	4.185
296.44	2.134
296.81	3.056
297.18	3.913
297.55	4.743
297.91	4.110
298.28	4.881
298.65	3.935
299.02	3.774
299.38	1.368
299.75	3.310
300.12	3.010
300.48	3.294
300.85	3.422
301.22	3.896
301.59	3.289
301.95	4.304
302.32	3.761
302.69	3.358
303.05	2.351
303.42	2.740
303.79	3.972
304.15	3.823
304.52	2.735
304.89	2.807
305.25	2.542
305.62	3.034
305.99	3.626
306.35	2.659
306.72	2.137
307.09	2.509
307.45	3.674
307.82	2.662
308.19	3.020
308.55	3.599
308.92	4.139
309.29	3.017
309.65	2.799
310.02	2.860
310.38	4.281
310.75	3.825
311.12	4.090
311.48	3.606
311.85	4.503
312.22	2.532
312.58	3.609
312.95	4.269
313.31	3.106
313.68	3.246
314.05	4.286
314.41	4.536
314.78	4.639
315.14	5.344
315.51	5.383
315.87	3.893
316.24	6.067
316.61	4.823
316.97	5.754
317.34	5.469
317.70	5.067
318.07	5.288
318.43	6.176
318.80	6.250
319.16	5.859
319.53	7.977
319.89	6.496
320.26	7.692
320.62	8.325
320.99	6.681
321.35	8.222
321.72	9.346
322.08	9.265
322.45	9.340
322.81	9.823
323.18	10.402
323.54	10.907
323.91	10.321
324.27	13.086
324.64	13.296
325.00	13.686
325.37	15.886
325.73	14.143
326.10	14.896
326.46	15.785
326.83	16.885
327.19	17.001
327.56	17.029
327.92	18.398
328.29	18.214
328.65	20.000
329.01	19.118
329.38	21.382
329.74	19.830
330.11	20.853
330.47	22.542
330.84	21.058
331.20	24.905
331.56	23.889
331.93	23.836
332.29	24.840
332.66	23.982
333.02	23.606
333.38	24.106
333.75	25.458
334.11	24.888
334.48	24.207
334.84	27.015
335.20	26.898
335.57	24.751
335.93	25.745
336.29	26.888
336.66	25.795
337.02	24.257
337.38	26.111
337.75	26.909
338.11	27.412
338.47	27.190
338.84	26.617
339.20	27.148
339.56	28.716
339.93	28.111
340.29	27.615
340.65	28.763
341.02	27.748
341.38	27.168
341.74	27.032
342.11	26.343
342.47	27.313
342.83	28.114
343.20	27.003
343.56	28.696
343.92	27.724
344.28	26.900
344.65	25.993
345.01	26.793
345.37	27.754
345.73	28.368
346.10	28.645
346.46	28.007
346.82	28.069
347.19	27.930
347.55	27.151
347.91	29.126
348.27	27.243
348.63	27.683
349.00	27.728
349.36	28.346
349.72	29.022
350.08	28.115
350.45	27.215
350.81	27.907
351.17	28.664
351.53	27.347
351.89	26.507
352.26	27.440
352.62	28.871
352.98	28.193
353.34	26.973
353.70	28.964
354.07	28.387
354.43	28.663
354.79	28.984
355.15	29.127
355.51	28.323
355.87	28.398
356.24	27.325
356.60	28.860
356.96	29.286
357.32	28.994
357.68	27.834
358.04	28.514
358.40	28.698
358.77	28.868
359.13	28.343
359.49	28.505
359.85	29.095
360.21	27.990
360.57	28.921
360.93	29.425
361.29	27.568
361.66	29.702
362.02	29.091
362.38	29.094
362.74	28.539
363.10	30.023
363.46	30.467
363.82	29.226
364.18	29.520
364.54	29.559
364.90	30.179
365.26	30.058
365.62	30.730
365.98	31.012
366.35	31.464
366.71	31.486
367.07	31.060
367.43	30.482
367.79	31.025
368.15	30.581
368.51	31.464
368.87	29.864
369.23	30.469
369.59	31.195
369.95	32.111
370.31	30.997
370.67	32.090
371.03	30.919
371.39	31.218
371.75	31.795
372.11	31.526
372.47	32.322
372.83	32.576
373.19	33.024
373.55	32.202
373.91	32.109
374.27	32.814
374.63	32.448
374.99	33.191
375.35	32.939
375.71	33.986
376.07	33.708
376.42	33.197
376.78	34.295
377.14	34.529
377.50	35.193
377.86	34.203
378.22	34.844
378.58	35.256
378.94	35.161
379.30	35.184
379.66	36.426
380.02	35.193
380.38	36.214
380.74	36.266
381.09	37.117
381.45	36.758
381.81	36.212
382.17	36.041
382.53	35.603
382.89	38.293
383.25	38.332
383.61	37.500
383.97	37.143
384.32	36.961
384.68	38.700
385.04	37.194
385.40	37.523
385.76	39.371
386.12	39.133
386.48	39.591
386.83	39.442
387.19	39.560
387.55	39.272
387.91	39.731
388.27	38.156
388.62	40.151
388.98	39.963
389.34	39.288
389.70	40.398
390.06	38.955
390.42	40.026
390.77	39.765
391.13	39.344
391.49	40.103
391.85	40.676
392.20	40.301
392.56	40.814
392.92	40.106
393.28	41.215
393.64	40.000
393.99	42.320
394.35	39.975
394.71	41.060
395.07	40.226
395.42	40.923
395.78	41.173
396.14	40.984
396.50	41.027
396.85	42.176
397.21	41.604
397.57	41.191
397.92	42.540
398.28	41.264
398.64	40.964
399.00	41.817
399.35	41.479
399.71	41.758
400.07	41.294
400.42	41.432
400.78	41.641
401.14	40.774
401.49	41.334
401.85	41.316
402.21	41.145
402.57	41.438
402.92	39.962
403.28	40.476
403.63	40.353
403.99	41.135
404.35	42.536
404.70	40.119
405.06	40.599
405.42	41.392
405.77	40.616
406.13	40.687
406.49	40.379
406.84	42.115
407.20	41.902
407.55	40.953
407.91	40.642
408.27	41.109
408.62	42.215
408.98	40.665
409.34	41.884
409.69	41.602
410.05	40.579
410.40	40.741
410.76	40.772
411.11	41.125
411.47	41.683
411.83	41.180
412.18	41.184
412.54	40.387
412.89	40.825
413.25	41.516
413.60	41.491
413.96	40.675
414.31	39.634
414.67	40.218
415.03	41.079
415.38	40.405
415.74	41.303
416.09	42.587
416.45	40.918
416.80	42.102
417.16	42.472
417.51	41.106
417.87	40.939
418.22	41.839
418.58	41.204
418.93	42.069
419.29	40.653
419.64	41.672
420.00	42.254
420.35	42.328
420.71	42.345
421.06	41.314
421.42	42.067
421.77	42.486
422.12	42.963
422.48	41.960
422.83	41.879
423.19	42.889
423.54	41.329
423.90	41.048
424.25	42.997
424.61	42.166
424.96	41.928
425.31	42.865
425.67	43.310
426.02	43.581
426.38	42.768
426.73	43.947
427.09	43.861
427.44	43.588
427.79	42.958
428.15	42.961
428.50	43.913
428.85	43.366
429.21	43.520
429.56	43.019
429.92	42.938
430.27	43.258
430.62	44.171
430.98	43.312
431.33	43.323
431.68	43.276
432.04	44.326
432.39	43.183
432.74	43.115
433.10	43.908
433.45	44.265
433.80	44.167
434.16	43.213
434.51	44.839
434.86	45.006
435.22	45.261
435.57	44.791
435.92	44.910
436.28	42.993
436.63	43.982
436.98	43.048
437.34	44.586
437.69	45.379
438.04	44.615
438.39	44.411
438.75	45.659
439.10	44.765
439.45	45.831
439.81	44.709
440.16	46.081
440.51	45.851
440.86	47.009
441.22	45.136
441.57	45.254
441.92	47.114
442.27	46.619
442.63	47.163
442.98	45.778
443.33	46.689
443.68	45.729
444.03	45.753
444.39	46.139
444.74	45.206
445.09	45.991
445.44	46.154
445.79	47.911
446.15	45.870
446.50	45.591
446.85	46.759
447.20	45.673
447.55	46.540
447.91	45.798
448.26	46.500
448.61	45.769
448.96	47.504
449.31	46.301
449.66	45.412
450.02	46.720
450.37	47.125
450.72	47.251
451.07	47.405
451.42	46.879
451.77	46.896
452.12	47.249
452.47	45.589
452.83	47.762
453.18	45.794
453.53	46.587
453.88	47.845
454.23	46.220
454.58	47.481
454.93	47.809
455.28	46.476
455.63	47.179
455.98	47.865
456.34	47.446
456.69	48.348
457.04	47.322
457.39	47.448
457.74	46.614
458.09	46.557
458.44	46.343
458.79	46.443
459.14	46.968
459.49	48.000
459.84	46.870
460.19	46.481
460.54	49.205
460.89	47.273
461.24	47.267
461.59	47.090
461.94	46.855
462.29	47.889
462.64	48.505
462.99	47.732
463.34	47.149
463.69	47.876
464.04	48.426
464.39	47.241
464.74	46.994
465.09	49.033
465.44	48.355
465.79	45.635
466.14	46.921
466.49	47.499
466.84	47.591
467.19	48.373
467.54	47.510
467.89	47.821
468.24	48.114
468.59	49.460
468.94	47.492
469.29	48.590
469.64	49.624
469.99	48.984
470.34	46.962
470.68	49.292
471.03	49.540
471.38	48.645
471.73	48.249
472.08	47.015
472.43	48.591
472.78	46.813
473.13	49.184
473.48	47.752
473.83	47.447
474.17	48.122
474.52	47.735
474.87	48.970
475.22	48.200
475.57	49.125
475.92	48.711
476.27	48.778
476.61	48.900
476.96	47.462
477.31	49.324
477.66	48.146
478.01	48.737
478.36	47.985
478.70	48.450
479.05	48.626
479.40	49.232
479.75	48.279
480.10	47.568
480.45	48.450
480.79	48.187
481.14	48.719
481.49	47.783
481.84	48.407
482.19	48.831
482.53	48.489
482.88	48.449
483.23	48.560
483.58	48.019
483.92	47.822
484.27	47.311
484.62	48.543
484.97	48.010
485.31	47.507
485.66	47.018
486.01	47.044
486.36	47.505
486.70	48.036
487.05	48.425
487.40	47.751
487.75	47.437
488.09	46.848
488.44	46.871
488.79	47.777
489.13	47.957
489.48	47.969
489.83	47.220
490.17	47.640
490.52	48.868
490.87	47.571
491.22	48.424
491.56	49.004
491.91	47.084
492.26	48.955
492.60	47.985
492.95	49.041
493.30	48.412
493.64	49.460
493.99	47.923
494.34	48.641
494.68	48.143
495.03	48.418
495.37	48.528
495.72	48.713
496.07	49.463
496.41	48.726
496.76	49.056
497.11	47.182
497.45	49.069
497.80	48.991
498.14	47.690
498.49	48.197
498.84	47.854
499.18	48.143
499.53	48.611
499.87	48.444
500.22	49.357
500.56	49.117
500.91	49.297
501.26	48.443
501.60	48.992
501.95	48.811
502.29	48.668
502.64	49.759
502.98	49.235
503.33	47.550
503.67	48.482
504.02	49.169
504.36	48.738
504.71	48.586
505.06	48.515
505.40	49.848
505.75	49.175
506.09	47.745
506.44	50.000
506.78	49.133
507.13	48.656
507.47	48.460
507.82	49.626
508.16	48.019
508.51	48.321
508.85	49.241
509.19	48.270
509.54	49.491
509.88	49.191
510.23	49.005
510.57	49.332
510.92	48.134
511.26	49.645
511.61	48.405
511.95	48.877
512.30	50.222
512.64	49.471
512.98	48.737
513.33	49.245
513.67	49.744
514.02	52.059
514.36	50.971
514.70	50.641
515.05	50.470
515.39	49.646
515.74	50.359
516.08	50.568
516.42	50.412
516.77	50.790
517.11	50.267
517.46	50.868
517.80	49.702
518.14	49.479
518.49	50.120
518.83	50.851
519.17	49.848
519.52	49.556
519.86	50.360
520.20	50.851
520.55	49.656
520.89	51.443
521.23	49.715
521.58	51.420
521.92	51.795
522.26	51.854
522.61	52.338
522.95	51.589
523.29	49.936
523.64	50.889
523.98	51.264
524.32	51.611
524.66	51.536
525.01	52.338
525.35	51.264
525.69	50.236
526.04	52.116
526.38	52.205
526.72	49.902
527.06	49.935
527.41	51.253
527.75	51.743
528.09	50.100
528.43	53.140
528.78	50.957
529.12	52.258
529.46	50.292
529.80	49.652
530.15	52.475
530.49	51.313
530.83	52.052
531.17	50.638
531.51	52.257
531.86	51.326
532.20	51.983
532.54	50.919
532.88	51.129
533.22	51.277
533.57	51.048
533.91	50.261
534.25	52.344
534.59	49.775
534.93	48.962
535.27	50.508
535.62	50.551
535.96	51.402
536.30	51.055
536.64	51.551
536.98	50.523
537.32	51.351
537.66	51.823
538.01	51.818
538.35	50.347
538.69	51.531
539.03	50.239
539.37	51.615
539.71	51.670
540.05	50.849
540.39	51.939
540.73	51.255
541.07	53.108
541.42	51.546
541.76	51.686
542.10	51.480
542.44	52.120
542.78	50.379
543.12	51.099
543.46	50.904
543.80	53.158
544.14	50.067
544.48	49.967
544.82	50.854
545.16	51.025
545.50	51.135
545.84	52.479
546.18	50.922
546.52	51.911
546.86	51.114
547.20	50.644
547.54	51.237
547.88	51.155
548.22	50.427
548.56	50.462
548.90	51.550
549.24	50.482
549.58	51.410
549.92	50.036
550.26	51.282
550.60	53.011
550.94	52.054
551.28	51.005
551.62	51.923
551.96	50.602
552.30	51.096
552.64	50.141
552.98	50.141
553.32	49.929
553.66	50.581
554.00	52.263
554.34	51.551
554.68	49.926
555.02	51.488
555.36	51.832
555.69	50.330
556.03	51.106
556.37	50.890
556.71	52.347
557.05	51.305
557.39	50.781
557.73	51.724
558.07	51.282
558.41	51.761
558.75	51.364
559.08	51.694
559.42	51.270
559.76	52.122
560.10	51.300
560.44	49.963
560.78	51.049
561.12	51.199
561.45	51.862
561.79	51.050
562.13	51.952
562.47	50.719
562.81	51.153
563.15	50.846
563.48	52.192
563.82	51.544
564.16	51.880
564.50	49.730
564.84	50.803
565.17	49.765
565.51	52.801
565.85	52.881
566.19	50.862
566.52	51.877
566.86	50.707
567.20	50.125
567.54	51.582
567.88	51.904
568.21	50.848
568.55	50.761
568.89	50.924
569.23	51.276
569.56	49.781
569.90	49.817
570.24	48.828
570.57	50.291
570.91	49.669
571.25	49.490
571.59	48.739
571.92	47.496
572.26	47.524
572.60	48.000
572.93	47.725
573.27	48.558
573.61	48.389
573.95	48.252
574.28	47.881
574.62	47.496
574.96	47.420
575.29	47.855
575.63	46.748
575.97	48.062
576.30	48.018
576.64	47.576
576.98	47.902
577.31	48.734
577.65	48.188
577.98	48.183
578.32	47.758
578.66	46.809
578.99	46.912
579.33	46.965
579.67	47.666
580.00	46.582
580.34	47.438
580.67	46.711
581.01	47.358
581.35	47.136
581.68	47.550
582.02	47.734
582.35	47.484
582.69	47.916
583.02	47.362
583.36	47.622
583.70	48.728
584.03	48.596
584.37	48.730
584.70	47.637
585.04	47.513
585.37	47.740
585.71	48.358
586.04	47.756
586.38	47.666
586.72	48.666
587.05	48.469
587.39	49.091
587.72	48.496
588.06	47.938
588.39	48.391
588.73	48.016
589.06	49.870
589.40	48.324
589.73	48.667
590.07	49.207
590.40	49.303
590.73	49.259
591.07	49.406
591.40	49.599
591.74	49.140
592.07	49.768
592.41	50.618
592.74	48.307
593.08	47.712
593.41	48.731
593.75	48.250
594.08	47.923
594.41	48.508
594.75	48.092
595.08	48.581
595.42	48.841
595.75	49.831
596.09	49.335
596.42	48.987
596.75	49.778
597.09	50.159
597.42	48.555
597.75	49.977
598.09	49.072
598.42	48.736
598.76	49.206
599.09	48.958
599.42	47.632
599.76	48.232
600.09	47.926
600.42	48.105
600.76	48.031
601.09	48.664
601.42	48.570
601.76	48.789
602.09	48.680
602.42	50.337
602.76	49.363
603.09	48.713
603.42	51.547
603.76	48.468
604.09	49.089
604.42	49.746
604.76	49.755
605.09	48.903
605.42	49.074
605.75	48.643
606.09	48.535
606.42	48.040
606.75	48.182
607.09	48.044
607.42	48.383
607.75	48.179
608.08	48.023
608.42	48.424
608.75	49.783
609.08	49.128
609.41	49.848
609.75	49.748
610.08	48.877
610.41	48.551
610.74	49.537
611.07	50.233
611.41	49.715
611.74	50.959
612.07	49.946
612.40	50.000
612.73	50.339
613.07	49.663
613.40	50.274
613.73	49.636
614.06	49.249
614.39	48.787
614.72	49.524
615.06	49.665
615.39	49.072
615.72	47.955
616.05	50.112
616.38	48.148
616.71	51.682
617.05	49.969
617.38	49.403
617.71	49.874
618.04	51.048
618.37	51.135
618.70	50.297
619.03	51.875
619.36	50.217
619.69	53.374
620.03	51.351
620.36	50.358
620.69	50.321
621.02	51.300
621.35	52.116
621.68	49.660
622.01	52.083
622.34	51.317
622.67	51.183
623.00	52.067
623.33	52.591
623.66	51.683
623.99	49.395
624.32	51.103
624.65	50.827
624.99	51.016
625.32	50.644
625.65	51.767
625.98	50.927
626.31	49.875
626.64	52.166
626.97	51.658
627.30	50.963
627.63	51.040
627.96	50.584
628.29	52.174
628.62	51.524
628.95	51.202
629.28	53.024
629.61	52.044
629.94	51.613
630.26	50.395
630.59	51.821
630.92	51.282
631.25	51.692
631.58	53.855
631.91	50.877
632.24	53.670
632.57	54.773
632.90	52.195
633.23	53.412
633.56	53.652
633.89	52.158
634.22	53.827
634.55	52.351
634.88	52.363
635.20	53.718
635.53	54.933
635.86	52.276
636.19	51.746
636.52	52.168
636.85	51.117
637.18	53.333
637.51	52.579
637.83	52.300
