SpectraSuite Data File
++++++++++++++++++++++++++++++++++++
Date: Fri May 15 20:09:55 PDT 2015
User: schluterlab
Dark Spectrum Present: Yes
Reference Spectrum Present: Yes
Number of Sampled Component Spectra: 1
Spectrometers: USB2E3373
Integration Time (usec): 3000 (USB2E3373)
Spectra Averaged: 3 (USB2E3373)
Boxcar Smoothing: 0 (USB2E3373)
Correct for Electrical Dark: No (USB2E3373)
Strobe/Lamp Enabled: No (USB2E3373)
Correct for Detector Non-linearity: No (USB2E3373)
Correct for Stray Light: No (USB2E3373)
Number of Pixels in Processed Spectrum: 2048
>>>>>Begin Processed Spectral Data<<<<<
178.53	0.000
178.91	0.000
179.29	125.000
179.67	50.000
180.04	-28.571
180.42	75.000
180.80	500.000
181.18	233.333
181.56	-300.000
181.94	100.000
182.31	300.000
182.69	-60.000
183.07	166.667
183.45	-80.000
183.83	-16.667
184.20	63.636
184.58	33.333
184.96	-100.000
185.34	-233.333
185.72	-50.000
186.09	23.077
186.47	-600.000
186.85	-0.000
187.23	88.889
187.61	-400.000
187.98	0.000
188.36	-11.111
188.74	66.667
189.12	41.176
189.49	44.444
189.87	0.000
190.25	71.429
190.63	-50.000
191.00	133.333
191.38	-5.263
191.76	650.000
192.14	-175.000
192.51	400.000
192.89	-88.889
193.27	-71.429
193.65	16.667
194.02	127.273
194.40	20.000
194.78	-87.500
195.15	33.333
195.53	-100.000
195.91	150.000
196.29	50.000
196.66	69.231
197.04	28.571
197.42	-44.444
197.79	-300.000
198.17	-130.769
198.55	1800.000
198.92	-100.000
199.30	300.000
199.68	-20.000
200.05	-233.333
200.43	0.000
200.81	233.333
201.18	0.000
201.56	400.000
201.94	-100.000
202.31	-33.333
202.69	-180.000
203.07	25.000
203.44	1300.000
203.82	0.000
204.19	107.143
204.57	-533.333
204.95	150.000
205.32	140.000
205.70	42.857
206.08	-175.000
206.45	255.556
206.83	85.714
207.20	-57.143
207.58	-600.000
207.96	-200.000
208.33	-80.000
208.71	-175.000
209.08	-33.333
209.46	600.000
209.84	-80.000
210.21	-300.000
210.59	42.857
210.96	-83.333
211.34	-250.000
211.71	-33.333
212.09	-214.286
212.46	-600.000
212.84	0.000
213.22	80.000
213.59	800.000
213.97	53.846
214.34	36.364
214.72	83.333
215.09	-25.000
215.47	30.769
215.84	36.364
216.22	-133.333
216.59	12.500
216.97	650.000
217.34	50.000
217.72	-40.000
218.09	25.000
218.47	112.500
218.84	-500.000
219.22	-11.111
219.59	-40.000
219.97	200.000
220.34	300.000
220.72	42.857
221.09	0.000
221.47	250.000
221.84	-500.000
222.22	-350.000
222.59	63.636
222.97	58.333
223.34	-300.000
223.72	-28.571
224.09	-28.571
224.46	35.714
224.84	100.000
225.21	30.000
225.59	13.333
225.96	-150.000
226.34	150.000
226.71	71.429
227.08	-66.667
227.46	100.000
227.83	400.000
228.21	11.111
228.58	90.909
228.95	-112.500
229.33	110.000
229.70	37.500
230.08	-62.500
230.45	-85.714
230.82	185.714
231.20	-20.000
231.57	42.857
231.95	-42.857
232.32	-20.000
232.69	-21.429
233.07	-433.333
233.44	-60.000
233.81	-60.000
234.19	77.778
234.56	-52.941
234.93	50.000
235.31	-200.000
235.68	-180.000
236.05	-38.462
236.43	-50.000
236.80	-23.529
237.17	9.375
237.55	-35.000
237.92	-7.407
238.29	16.667
238.67	50.000
239.04	-14.706
239.41	-14.634
239.79	-50.000
240.16	-2.439
240.53	-26.316
240.91	4.348
241.28	25.397
241.65	10.714
242.02	17.808
242.40	10.000
242.77	-1.695
243.14	-18.182
243.51	-3.750
243.89	-5.747
244.26	0.000
244.63	-9.524
245.00	11.340
245.38	-2.062
245.75	-12.360
246.12	-0.862
246.49	7.438
246.87	2.885
247.24	-5.042
247.61	-7.895
247.98	-8.130
248.36	0.625
248.73	-3.947
249.10	-1.948
249.47	-3.165
249.84	-1.961
250.22	0.588
250.59	1.307
250.96	5.634
251.33	-5.814
251.70	-2.941
252.08	3.046
252.45	-0.495
252.82	-3.015
253.19	-3.226
253.56	3.738
253.94	4.054
254.31	-1.304
254.68	3.509
255.05	-1.181
255.42	2.620
255.79	2.317
256.16	2.724
256.54	0.373
256.91	-1.141
257.28	-0.372
257.65	-3.371
258.02	-1.064
258.39	1.684
258.76	1.832
259.14	5.980
259.51	1.294
259.88	1.031
260.25	2.614
260.62	1.736
260.99	-5.085
261.36	-2.740
261.73	-2.215
262.10	0.304
262.47	-1.227
262.85	-2.508
263.22	0.923
263.59	-0.312
263.96	1.863
264.33	0.909
264.70	-0.893
265.07	-4.464
265.44	0.567
265.81	2.260
266.18	0.820
266.55	1.542
266.92	0.000
267.29	2.350
267.66	0.000
268.03	1.832
268.40	-1.044
268.77	2.941
269.14	-0.240
269.51	0.514
269.88	0.000
270.25	-2.551
270.62	-0.976
270.99	-3.836
271.36	-0.244
271.73	1.643
272.10	-0.973
272.47	-0.473
272.84	0.495
273.21	0.696
273.58	0.000
273.95	1.144
274.32	-1.386
274.69	0.905
275.06	-0.223
275.43	-0.907
275.80	2.208
276.17	-2.759
276.54	0.000
276.91	-1.316
277.28	0.437
277.65	1.860
278.02	0.000
278.39	0.656
278.76	1.258
279.13	-1.867
279.50	2.101
279.87	2.592
280.23	-2.796
280.60	0.975
280.97	0.808
281.34	-0.769
281.71	2.875
282.08	1.840
282.45	-1.174
282.82	-0.965
283.19	0.387
283.56	0.000
283.92	-1.708
284.29	-0.769
284.66	-0.194
285.03	0.000
285.40	0.567
285.77	-0.527
286.14	-0.903
286.51	0.923
286.87	0.000
287.24	-2.026
287.61	-1.764
287.98	0.526
288.35	0.173
288.72	2.452
289.08	-1.042
289.45	0.176
289.82	0.175
290.19	-2.218
290.56	1.029
290.93	0.842
291.29	-0.308
291.66	1.732
292.03	0.159
292.40	-0.484
292.77	0.319
293.13	-0.325
293.50	-0.303
293.87	0.305
294.24	-0.309
294.60	0.745
294.97	1.339
295.34	-1.687
295.71	-0.298
296.08	-1.345
296.44	-1.565
296.81	0.833
297.18	0.145
297.55	1.220
297.91	0.685
298.28	2.902
298.65	0.136
299.02	-0.539
299.38	-0.547
299.75	0.138
300.12	-0.131
300.48	-0.791
300.85	-0.127
301.22	0.130
301.59	-0.526
301.95	0.886
302.32	1.556
302.69	0.746
303.05	-1.114
303.42	0.498
303.79	0.467
304.15	1.195
304.52	-1.189
304.89	0.234
305.25	-0.847
305.62	0.117
305.99	0.117
306.35	-1.618
306.72	-1.350
307.09	1.140
307.45	0.804
307.82	-0.231
308.19	-0.232
308.55	0.109
308.92	1.416
309.29	-0.670
309.65	-0.861
310.02	-0.110
310.38	0.110
310.75	0.000
311.12	0.215
311.48	0.636
311.85	0.105
312.22	-0.422
312.58	0.743
312.95	-0.640
313.31	-0.207
313.68	-1.257
314.05	-0.102
314.41	-0.412
314.78	0.412
315.14	0.411
315.51	0.414
315.87	-0.717
316.24	1.112
316.61	0.098
316.97	0.595
317.34	0.391
317.70	0.191
318.07	-0.192
318.43	0.392
318.80	0.284
319.16	-1.074
319.53	0.475
319.89	0.295
320.26	-0.202
320.62	0.702
320.99	-0.731
321.35	-0.308
321.72	0.312
322.08	0.604
322.45	-0.609
322.81	0.295
323.18	-0.883
323.54	-0.483
323.91	-0.389
324.27	-1.074
324.64	-0.936
325.00	0.365
325.37	1.194
325.73	-0.091
326.10	0.182
326.46	1.345
326.83	0.525
327.19	0.610
327.56	-0.087
327.92	0.616
328.29	0.089
328.65	-0.283
329.01	0.092
329.38	0.553
329.74	-1.133
330.11	-0.463
330.47	-0.835
330.84	-0.385
331.20	0.665
331.56	-0.648
331.93	0.183
332.29	0.733
332.66	-0.271
333.02	-0.372
333.38	-0.550
333.75	0.366
334.11	0.179
334.48	0.272
334.84	0.366
335.20	0.091
335.57	-1.360
335.93	-0.090
336.29	0.921
336.66	-0.363
337.02	-0.558
337.38	-0.926
337.75	-0.182
338.11	-0.451
338.47	0.730
338.84	0.739
339.20	-0.183
339.56	0.183
339.93	0.716
340.29	0.826
340.65	0.000
341.02	-0.443
341.38	0.088
341.74	-1.060
342.11	-0.087
342.47	-0.356
342.83	0.952
343.20	-1.045
343.56	-0.261
343.92	0.266
344.28	0.512
344.65	-0.604
345.01	-1.037
345.37	-0.252
345.73	1.339
346.10	0.431
346.46	1.009
346.82	0.327
347.19	-0.416
347.55	0.418
347.91	-0.081
348.27	0.243
348.63	0.170
349.00	-0.738
349.36	0.249
349.72	0.415
350.08	0.082
350.45	1.117
350.81	-0.997
351.17	-0.489
351.53	0.653
351.89	-0.165
352.26	-0.320
352.62	0.403
352.98	0.321
353.34	0.644
353.70	1.052
354.07	0.403
354.43	0.560
354.79	-0.413
355.15	1.667
355.51	0.949
355.87	0.000
356.24	-0.816
356.60	0.162
356.96	0.794
357.32	0.479
357.68	0.235
358.04	-0.969
358.40	0.322
358.77	0.080
359.13	-0.320
359.49	-0.924
359.85	0.858
360.21	0.558
360.57	0.459
360.93	-0.303
361.29	-0.680
361.66	-0.157
362.02	0.606
362.38	0.990
362.74	-0.303
363.10	0.150
363.46	0.519
363.82	0.301
364.18	1.107
364.54	0.294
364.90	0.000
365.26	0.073
365.62	0.584
365.98	0.440
366.35	0.801
366.71	0.074
367.07	0.871
367.43	-0.431
367.79	0.212
368.15	-0.359
368.51	-0.073
368.87	-0.287
369.23	0.361
369.59	0.146
369.95	1.320
370.31	0.072
370.67	-0.075
371.03	-0.523
371.39	0.365
371.75	0.366
372.11	0.571
372.47	-0.074
372.83	0.071
373.19	1.070
373.55	-0.144
373.91	-0.216
374.27	0.000
374.63	0.933
374.99	-0.142
375.35	0.000
375.71	0.350
376.07	-0.351
376.42	0.680
376.78	0.201
377.14	-0.339
377.50	-0.266
377.86	0.067
378.22	-0.511
378.58	-0.128
378.94	-0.252
379.30	0.187
379.66	0.502
380.02	-0.429
380.38	-0.548
380.74	-0.180
381.09	0.736
381.45	0.183
381.81	-0.062
382.17	-0.190
382.53	0.062
382.89	0.063
383.25	0.000
383.61	0.183
383.97	-0.381
384.32	-0.438
384.68	-0.062
385.04	-0.061
385.40	-0.124
385.76	0.566
386.12	-0.323
386.48	0.000
386.83	-0.571
387.19	0.488
387.55	-0.063
387.91	-0.244
388.27	-0.061
388.62	-0.189
388.98	0.000
389.34	0.187
389.70	0.746
390.06	0.000
390.42	0.000
390.77	-0.719
391.13	0.063
391.49	-0.129
391.85	-0.585
392.20	0.251
392.56	0.191
392.92	0.176
393.28	0.236
393.64	-0.661
393.99	0.627
394.35	-0.696
394.71	0.511
395.07	0.189
395.42	-0.304
395.78	0.000
396.14	0.063
396.50	-0.444
396.85	0.129
397.21	0.251
397.57	0.502
397.92	0.419
398.28	0.402
398.64	-0.120
399.00	0.508
399.35	-0.564
399.71	0.402
400.07	0.363
400.42	-0.122
400.78	0.919
401.14	-0.121
401.49	0.417
401.85	0.183
402.21	-0.060
402.57	-0.125
402.92	-0.063
403.28	0.000
403.63	-0.189
403.99	-0.383
404.35	0.687
404.70	0.417
405.06	0.059
405.42	-0.311
405.77	-0.872
406.13	-0.582
406.49	0.414
406.84	0.122
407.20	0.542
407.55	-0.901
407.91	-0.134
408.27	0.000
408.62	1.169
408.98	0.185
409.34	0.372
409.69	0.000
410.05	-0.246
410.40	-0.123
410.76	0.181
411.11	0.562
411.47	-0.066
411.83	-0.628
412.18	-0.450
412.54	-0.250
412.89	-0.369
413.25	0.421
413.60	-0.124
413.96	-0.061
414.31	0.793
414.67	-0.513
415.03	-0.599
415.38	0.261
415.74	0.847
416.09	0.327
416.45	0.068
416.80	0.397
417.16	-0.069
417.51	0.466
417.87	-0.130
418.22	-0.453
418.58	-0.067
418.93	0.690
419.29	0.064
419.64	-0.324
420.00	0.945
420.35	0.537
420.71	0.790
421.06	-0.184
421.42	0.361
421.77	-0.173
422.12	0.227
422.48	0.487
422.83	0.058
423.19	0.000
423.54	-0.412
423.90	-0.236
424.25	-0.115
424.61	0.734
424.96	0.697
425.31	0.116
425.67	0.763
426.02	0.589
426.38	-0.376
426.73	0.182
427.09	0.190
427.44	0.706
427.79	0.530
428.15	1.092
428.50	-0.666
428.85	-0.737
429.21	-0.113
429.56	0.593
429.92	0.616
430.27	0.351
430.62	-0.523
430.98	-0.425
431.33	0.421
431.68	0.052
432.04	0.168
432.39	0.057
432.74	0.241
433.10	0.460
433.45	-0.657
433.80	0.232
434.16	-0.665
434.51	0.323
434.86	-0.174
435.22	-0.112
435.57	0.312
435.92	0.060
436.28	0.179
436.63	0.228
436.98	-0.232
437.34	-0.665
437.69	0.060
438.04	0.285
438.39	-0.428
438.75	-0.061
439.10	0.000
439.45	0.000
439.81	-0.428
440.16	-0.475
440.51	0.179
440.86	-0.181
441.22	-0.339
441.57	-0.552
441.92	0.577
442.27	-0.333
442.63	0.482
442.98	0.287
443.33	-0.056
443.68	0.106
444.03	0.994
444.39	0.443
444.74	-0.167
445.09	0.111
445.44	0.399
445.79	0.309
446.15	0.110
446.50	-0.444
446.85	-0.531
447.20	-0.156
447.55	1.004
447.91	0.564
448.26	0.683
448.61	0.403
448.96	0.000
449.31	0.231
449.66	-0.232
450.02	0.627
450.37	-0.474
450.72	-0.401
451.07	-0.190
451.42	-0.125
451.77	0.241
452.12	-0.718
452.47	-0.515
452.83	-0.589
453.18	0.127
453.53	-0.126
453.88	0.364
454.23	0.307
454.58	0.252
454.93	0.773
455.28	-0.762
455.63	0.186
455.98	0.361
456.34	-0.447
456.69	-0.254
457.04	0.315
457.39	-0.365
457.74	0.000
458.09	-0.177
458.44	-0.468
458.79	-0.280
459.14	0.286
459.49	0.537
459.84	0.451
460.19	0.303
460.54	0.306
460.89	0.284
461.24	-0.124
461.59	0.356
461.94	-0.440
462.29	1.086
462.64	-0.399
462.99	0.068
463.34	-0.626
463.69	-0.450
464.04	0.303
464.39	0.000
464.74	0.491
465.09	0.561
465.44	0.635
465.79	0.170
466.14	0.684
466.49	0.230
466.84	0.714
467.19	0.313
467.54	0.383
467.89	-0.063
468.24	0.304
468.59	1.079
468.94	0.000
469.29	0.918
469.64	0.684
469.99	0.420
470.34	-0.819
470.68	-0.298
471.03	0.212
471.38	0.071
471.73	0.210
472.08	0.678
472.43	-0.671
472.78	-0.685
473.13	0.476
473.48	0.717
473.83	0.125
474.17	0.389
474.52	0.638
474.87	0.182
475.22	0.122
475.57	-0.395
475.92	-0.165
476.27	0.582
476.61	0.058
476.96	-0.223
477.31	0.703
477.66	0.000
478.01	-0.730
478.36	-0.327
478.70	0.489
479.05	0.714
479.40	0.477
479.75	0.209
480.10	0.410
480.45	0.400
480.79	0.856
481.14	0.102
481.49	0.000
481.84	-0.048
482.19	0.281
482.53	-0.336
482.88	0.430
483.23	0.240
483.58	-0.047
483.92	0.097
484.27	0.137
484.62	0.359
484.97	-0.166
485.31	0.289
485.66	0.242
486.01	0.432
486.36	0.150
486.70	0.468
487.05	0.223
487.40	0.595
487.75	0.225
488.09	0.093
488.44	0.138
488.79	0.187
489.13	0.441
489.48	0.214
489.83	-0.179
490.17	-0.315
490.52	-0.185
490.87	0.231
491.22	0.143
491.56	0.332
491.91	-0.096
492.26	-0.340
492.60	0.432
492.95	0.787
493.30	0.098
493.64	0.246
493.99	0.386
494.34	-0.194
494.68	0.333
495.03	-0.146
495.37	-0.049
495.72	-0.050
496.07	0.488
496.41	0.142
496.76	0.092
497.11	-0.605
497.45	0.621
497.80	0.101
498.14	0.248
498.49	-0.152
498.84	0.250
499.18	0.100
499.53	0.298
499.87	-0.049
500.22	-0.445
500.56	0.202
500.91	0.251
501.26	0.148
501.60	-0.049
501.95	0.388
502.29	-0.145
502.64	0.241
502.98	-0.296
503.33	-0.336
503.67	0.386
504.02	0.489
504.36	0.396
504.71	0.404
505.06	-0.101
505.40	-0.051
505.75	-0.361
506.09	0.405
506.44	0.821
506.78	0.714
507.13	0.620
507.47	-0.522
507.82	-1.015
508.16	-0.423
508.51	0.105
508.85	0.209
509.19	-0.479
509.54	-0.054
509.88	-0.324
510.23	-0.269
510.57	0.000
510.92	-0.959
511.26	-0.491
511.61	-0.165
511.95	-0.329
512.30	0.443
512.64	0.556
512.98	-0.337
513.33	0.280
513.67	-0.227
514.02	0.686
514.36	1.257
514.70	0.583
515.05	0.411
515.39	-0.295
515.74	1.138
516.08	0.478
516.42	0.766
516.77	0.585
517.11	-0.415
517.46	-0.239
517.80	0.894
518.14	0.245
518.49	0.300
518.83	-0.182
519.17	-0.243
519.52	-0.710
519.86	-0.180
520.20	0.182
520.55	-0.375
520.89	0.314
521.23	0.000
521.58	0.442
521.92	0.192
522.26	0.455
522.61	-0.325
522.95	-0.265
523.29	0.635
523.64	0.445
523.98	0.713
524.32	-0.451
524.66	0.768
525.01	0.325
525.35	0.972
525.69	-0.875
526.04	-0.066
526.38	0.584
526.72	0.000
527.06	-0.065
527.41	0.726
527.75	-0.536
528.09	0.199
528.43	0.810
528.78	-0.462
529.12	0.516
529.46	-0.455
529.80	0.190
530.15	0.924
530.49	0.202
530.83	-0.205
531.17	0.134
531.51	0.410
531.86	0.272
532.20	-0.696
532.54	0.068
532.88	0.411
533.22	-0.134
533.57	0.721
533.91	-0.392
534.25	0.195
534.59	-0.128
534.93	0.000
535.27	0.317
535.62	0.324
535.96	0.587
536.30	0.989
536.64	0.000
536.98	-0.488
537.32	0.071
537.66	0.631
538.01	0.559
538.35	-0.416
538.69	0.666
539.03	0.478
539.37	-0.067
539.71	0.136
540.05	0.747
540.39	0.416
540.73	1.116
541.07	0.000
541.42	1.613
541.76	0.826
542.10	0.206
542.44	0.208
542.78	0.275
543.12	-0.206
543.46	0.904
543.80	0.208
544.14	0.134
544.48	0.799
544.82	-0.273
545.16	0.068
545.50	1.469
545.84	0.850
546.18	0.567
546.52	0.433
546.86	0.359
547.20	0.143
547.54	0.919
547.88	1.223
548.22	-0.066
548.56	0.660
548.90	0.741
549.24	0.551
549.58	0.705
549.92	-0.715
550.26	0.220
550.60	0.372
550.94	0.523
551.28	-0.696
551.62	0.538
551.96	0.075
552.30	0.804
552.64	-0.987
552.98	0.352
553.32	0.713
553.66	-0.363
554.00	0.219
554.34	0.812
554.68	-0.369
555.02	0.893
555.36	-0.673
555.69	-0.440
556.03	-0.571
556.37	-0.925
556.71	-0.072
557.05	0.000
557.39	-0.446
557.73	-0.225
558.07	0.452
558.41	0.000
558.75	0.156
559.08	0.315
559.42	-0.952
559.76	-0.801
560.10	-0.306
560.44	0.149
560.78	0.280
561.12	0.212
561.45	0.211
561.79	0.000
562.13	0.426
562.47	-0.432
562.81	0.360
563.15	0.282
563.48	-0.141
563.82	-0.137
564.16	0.209
564.50	-0.608
564.84	0.602
565.17	0.134
565.51	0.615
565.85	-0.617
566.19	0.265
566.52	-0.469
566.86	0.964
567.20	-0.809
567.54	0.061
567.88	-0.234
568.21	-0.113
568.55	-0.217
568.89	-0.205
569.23	-0.048
569.56	0.613
569.90	-0.081
570.24	0.447
570.57	-0.109
570.91	0.523
571.25	0.132
571.59	0.436
571.92	0.178
572.26	0.000
572.60	0.248
572.93	0.345
573.27	0.094
573.61	0.268
573.95	0.519
574.28	0.026
574.62	0.229
574.96	0.274
575.29	0.252
575.63	0.285
575.97	0.108
576.30	0.084
576.64	-0.026
576.98	0.386
577.31	0.270
577.65	0.275
577.98	0.423
578.32	0.229
578.66	0.064
578.99	0.257
579.33	0.200
579.67	0.631
580.00	0.177
580.34	0.174
580.67	0.124
581.01	0.120
581.35	0.388
581.68	0.354
582.02	0.037
582.35	0.093
582.69	0.136
583.02	0.192
583.36	0.237
583.70	0.312
584.03	0.083
584.37	0.508
584.70	0.385
585.04	0.000
585.37	0.246
585.71	0.099
586.04	0.177
586.38	-0.107
586.72	0.430
587.05	0.116
587.39	0.447
587.72	0.137
588.06	0.194
588.39	0.142
588.73	0.092
589.06	0.163
589.40	-0.035
589.73	0.803
590.07	0.113
590.40	0.232
590.73	0.329
591.07	0.127
591.40	0.534
591.74	0.814
592.07	0.557
592.41	0.398
592.74	0.438
593.08	-0.035
593.41	0.395
593.75	0.033
594.08	-0.069
594.41	0.364
594.75	0.191
595.08	0.227
595.42	-0.184
595.75	0.150
596.09	0.195
596.42	-0.248
596.75	0.311
597.09	0.228
597.42	0.271
597.75	-0.092
598.09	0.181
598.42	-0.090
598.76	-0.043
599.09	0.160
599.42	0.189
599.76	0.301
600.09	-0.113
600.42	0.644
600.76	-0.149
601.09	0.153
601.42	-0.078
601.76	-0.119
602.09	0.000
602.42	0.337
602.76	0.297
603.09	0.332
603.42	0.251
603.76	-0.282
604.09	-0.081
604.42	0.127
604.76	0.668
605.09	0.046
605.42	0.000
605.75	0.088
606.09	0.127
606.42	0.459
606.75	0.216
607.09	0.967
607.42	0.133
607.75	-0.266
608.08	0.180
608.42	0.914
608.75	0.386
609.08	0.000
609.41	0.558
609.75	0.554
610.08	0.200
610.41	-0.048
610.74	0.146
611.07	-0.362
611.41	0.519
611.74	0.640
612.07	-0.107
612.40	0.109
612.73	0.113
613.07	0.112
613.40	0.930
613.73	0.112
614.06	0.278
614.39	0.169
614.72	0.000
615.06	0.168
615.39	0.109
615.72	0.484
616.05	0.503
616.38	-0.285
616.71	-0.306
617.05	0.494
617.38	-0.063
617.71	0.503
618.04	0.444
618.37	0.631
618.70	0.198
619.03	0.347
619.36	-0.362
619.69	-0.152
620.03	0.584
620.36	0.501
620.69	0.143
621.02	0.153
621.35	0.249
621.68	0.085
622.01	0.083
622.34	-0.319
622.67	0.946
623.00	0.459
623.33	0.000
623.66	-0.748
623.99	0.076
624.32	0.076
624.65	-0.752
624.99	0.000
625.32	-0.607
625.65	0.864
625.98	0.645
626.31	-0.416
626.64	0.693
626.97	0.436
627.30	0.963
627.63	0.520
627.96	0.539
628.29	0.093
628.62	0.393
628.95	0.501
629.28	-0.101
629.61	-0.897
629.94	0.684
630.26	0.494
630.59	0.624
630.92	0.410
631.25	0.410
631.58	-0.661
631.91	-1.535
632.24	-1.032
632.57	1.136
632.90	0.000
633.23	0.235
633.56	-0.630
633.89	-0.247
634.22	-0.247
634.55	-1.398
634.88	-0.511
635.20	-1.795
635.53	-1.067
635.86	-1.040
636.19	0.388
636.52	0.128
636.85	-0.993
637.18	0.252
637.51	0.252
637.83	0.131
638.16	0.819
638.49	0.136
638.82	1.447
639.15	0.814
639.48	0.963
639.81	1.116
640.13	-1.443
640.46	-0.146
640.79	-1.473
641.12	0.148
641.45	-1.351
641.77	1.333
642.10	0.632
642.43	-0.482
642.76	0.000
643.09	1.777
643.41	-0.971
643.74	-0.165
644.07	0.493
644.40	1.351
644.73	0.000
645.05	-0.168
645.38	0.353
645.71	-2.482
646.04	-2.154
646.36	-0.177
646.69	2.698
647.02	0.567
647.35	-1.119
647.67	0.914
648.00	1.306
648.33	0.683
648.66	-2.203
648.98	-1.340
649.31	-2.479
649.64	-2.041
