SpectraSuite Data File
++++++++++++++++++++++++++++++++++++
Date: Fri May 15 17:29:58 PDT 2015
User: schluterlab
Dark Spectrum Present: Yes
Reference Spectrum Present: Yes
Number of Sampled Component Spectra: 1
Spectrometers: USB2E3373
Integration Time (usec): 3000 (USB2E3373)
Spectra Averaged: 3 (USB2E3373)
Boxcar Smoothing: 0 (USB2E3373)
Correct for Electrical Dark: No (USB2E3373)
Strobe/Lamp Enabled: No (USB2E3373)
Correct for Detector Non-linearity: No (USB2E3373)
Correct for Stray Light: No (USB2E3373)
Number of Pixels in Processed Spectrum: 2048
>>>>>Begin Processed Spectral Data<<<<<
178.53	0.000
178.91	0.000
179.29	-25.000
179.67	-250.000
180.04	-128.571
180.42	475.000
180.80	700.000
181.18	-0.000
181.56	650.000
181.94	200.000
182.31	-200.000
182.69	20.000
183.07	-233.333
183.45	-120.000
183.83	166.667
184.20	-9.091
184.58	77.778
184.96	-75.000
185.34	-0.000
185.72	-50.000
186.09	92.308
186.47	-700.000
186.85	116.667
187.23	88.889
187.61	-500.000
187.98	-100.000
188.36	44.444
188.74	-266.667
189.12	23.529
189.49	77.778
189.87	0.000
190.25	71.429
190.63	100.000
191.00	-266.667
191.38	-26.316
191.76	300.000
192.14	-150.000
192.51	250.000
192.89	22.222
193.27	-71.429
193.65	66.667
194.02	100.000
194.40	110.000
194.78	-87.500
195.15	41.667
195.53	50.000
195.91	175.000
196.29	-50.000
196.66	-15.385
197.04	57.143
197.42	-33.333
197.79	-366.667
198.17	-107.692
198.55	500.000
198.92	-266.667
199.30	-300.000
199.68	60.000
200.05	-300.000
200.43	0.000
200.81	133.333
201.18	266.667
201.56	-0.000
201.94	-50.000
202.31	33.333
202.69	-320.000
203.07	150.000
203.44	400.000
203.82	0.000
204.19	85.714
204.57	-433.333
204.95	112.500
205.32	0.000
205.70	57.143
206.08	75.000
206.45	244.444
206.83	78.571
207.20	-28.571
207.58	100.000
207.96	200.000
208.33	0.000
208.71	-75.000
209.08	-166.667
209.46	-1100.000
209.84	-100.000
210.21	-800.000
210.59	28.571
210.96	-50.000
211.34	100.000
211.71	20.000
212.09	-57.143
212.46	-600.000
212.84	0.000
213.22	130.000
213.59	400.000
213.97	146.154
214.34	54.545
214.72	16.667
215.09	225.000
215.47	23.077
215.84	-27.273
216.22	-100.000
216.59	100.000
216.97	300.000
217.34	-25.000
217.72	-140.000
218.09	137.500
218.47	62.500
218.84	-1100.000
219.22	0.000
219.59	-20.000
219.97	-33.333
220.34	125.000
220.72	128.571
221.09	-125.000
221.47	50.000
221.84	-100.000
222.22	-650.000
222.59	118.182
222.97	83.333
223.34	333.333
223.72	35.714
224.09	-4.762
224.46	7.143
224.84	433.333
225.21	90.000
225.59	100.000
225.96	150.000
226.34	175.000
226.71	42.857
227.08	50.000
227.46	0.000
227.83	0.000
228.21	100.000
228.58	81.818
228.95	75.000
229.33	120.000
229.70	0.000
230.08	-50.000
230.45	57.143
230.82	57.143
231.20	26.667
231.57	92.857
231.95	185.714
232.32	-60.000
232.69	35.714
233.07	333.333
233.44	20.000
233.81	80.000
234.19	33.333
234.56	17.647
234.93	-150.000
235.31	125.000
235.68	-100.000
236.05	7.692
236.43	-5.000
236.80	64.706
237.17	65.625
237.55	60.000
237.92	29.630
238.29	25.000
238.67	46.667
239.04	17.647
239.41	-9.756
239.79	16.667
240.16	56.098
240.53	23.684
240.91	41.304
241.28	41.270
241.65	57.143
242.02	50.685
242.40	45.000
242.77	32.203
243.14	28.788
243.51	48.750
243.89	56.322
244.26	28.736
244.63	38.095
245.00	43.299
245.38	40.206
245.75	39.326
246.12	37.931
246.49	49.587
246.87	46.154
247.24	42.857
247.61	42.105
247.98	42.276
248.36	36.875
248.73	41.447
249.10	43.506
249.47	41.772
249.84	45.098
250.22	40.000
250.59	41.176
250.96	36.150
251.33	36.047
251.70	41.176
252.08	41.624
252.45	41.089
252.82	37.186
253.19	44.240
253.56	39.720
253.94	40.090
254.31	42.609
254.68	46.930
255.05	38.189
255.42	43.231
255.79	40.154
256.16	41.245
256.54	39.552
256.91	40.304
257.28	43.123
257.65	35.955
258.02	39.007
258.39	37.037
258.76	42.491
259.14	41.528
259.51	39.159
259.88	40.206
260.25	40.523
260.62	42.361
260.99	37.288
261.36	39.726
261.73	39.557
262.10	43.465
262.47	42.331
262.85	36.050
263.22	41.231
263.59	40.810
263.96	41.925
264.33	41.818
264.70	42.262
265.07	38.393
265.44	42.210
265.81	40.678
266.18	40.437
266.55	37.275
266.92	39.637
267.29	39.687
267.66	41.944
268.03	40.314
268.40	41.253
268.77	41.711
269.14	37.650
269.51	38.303
269.88	39.651
270.25	37.755
270.62	36.585
270.99	35.038
271.36	38.631
271.73	39.202
272.10	41.363
272.47	39.480
272.84	39.109
273.21	37.587
273.58	38.554
273.95	39.359
274.32	37.413
274.69	38.688
275.06	40.402
275.43	38.322
275.80	35.541
276.17	37.471
276.54	34.475
276.91	39.693
277.28	35.153
277.65	35.950
278.02	37.021
278.39	36.105
278.76	37.736
279.13	31.743
279.50	37.605
279.87	35.421
280.23	36.344
280.60	35.088
280.97	37.172
281.34	34.423
281.71	38.193
282.08	33.538
282.45	37.182
282.82	36.100
283.19	35.977
283.56	36.994
283.92	35.104
284.29	35.192
284.66	34.496
285.03	33.988
285.40	35.350
285.77	33.568
286.14	34.657
286.51	38.561
286.87	33.638
287.24	36.096
287.61	34.568
287.98	35.263
288.35	34.489
288.72	33.625
289.08	31.944
289.45	32.865
289.82	31.643
290.19	33.788
290.56	34.305
290.93	30.640
291.29	28.505
291.66	34.646
292.03	30.463
292.40	30.000
292.77	29.027
293.13	27.435
293.50	28.225
293.87	30.992
294.24	30.448
294.60	28.167
294.97	29.315
295.34	27.914
295.71	29.210
296.08	26.906
296.44	24.609
296.81	26.250
297.18	28.116
297.55	26.152
297.91	26.712
298.28	27.177
298.65	25.645
299.02	26.954
299.38	24.213
299.75	26.069
300.12	25.785
300.48	25.428
300.85	24.968
301.22	26.883
301.59	25.000
301.95	25.063
302.32	26.329
302.69	24.129
303.05	24.010
303.42	24.658
303.79	24.416
304.15	24.492
304.52	23.543
304.89	23.626
305.25	25.182
305.62	22.987
305.99	23.275
306.35	23.237
306.72	23.397
307.09	22.349
307.45	23.536
307.82	23.727
308.19	23.345
308.55	22.246
308.92	24.837
309.29	23.128
309.65	21.636
310.02	23.542
310.38	23.710
310.75	25.574
311.12	22.067
311.48	21.845
311.85	23.979
312.22	22.785
312.58	22.081
312.95	21.558
313.31	21.843
313.68	22.827
314.05	22.857
314.41	25.052
314.78	23.402
315.14	23.638
315.51	24.120
315.87	23.668
316.24	24.065
316.61	24.409
316.97	23.810
317.34	23.730
317.70	24.665
318.07	24.615
318.43	24.706
318.80	24.621
319.16	25.098
319.53	26.781
319.89	26.280
320.26	25.709
320.62	26.078
320.99	26.200
321.35	25.797
321.72	25.441
322.08	24.572
322.45	26.396
322.81	26.817
323.18	25.613
323.54	27.124
323.91	27.459
324.27	27.637
324.64	29.775
325.00	29.380
325.37	31.313
325.73	28.830
326.10	29.791
326.46	29.776
326.83	30.709
327.19	30.602
327.56	32.059
327.92	31.866
328.29	32.143
328.65	32.830
329.01	33.272
329.38	32.811
329.74	32.106
330.11	35.496
330.47	33.395
330.84	34.327
331.20	36.217
331.56	33.981
331.93	36.530
332.29	35.564
332.66	36.018
333.02	34.108
333.38	33.731
333.75	36.996
334.11	35.004
334.48	36.083
334.84	36.081
335.20	35.773
335.57	35.902
335.93	36.134
336.29	37.017
336.66	36.240
337.02	35.409
337.38	34.815
337.75	37.364
338.11	36.790
338.47	37.135
338.84	37.985
339.20	36.746
339.56	36.697
339.93	37.153
340.29	37.431
340.65	35.932
341.02	36.791
341.38	35.664
341.74	35.954
342.11	36.222
342.47	36.744
342.83	35.900
343.20	35.714
343.56	37.739
343.92	36.315
344.28	38.429
344.65	37.133
345.01	36.906
345.37	35.240
345.73	36.820
346.10	38.913
346.46	37.511
346.82	36.170
347.19	37.074
347.55	36.675
347.91	37.540
348.27	37.268
348.63	37.053
349.00	37.244
349.36	37.490
349.72	38.308
350.08	37.131
350.45	38.228
350.81	37.542
351.17	37.134
351.53	38.449
351.89	36.746
352.26	36.960
352.62	37.581
352.98	37.108
353.34	35.185
353.70	37.540
354.07	37.177
354.43	37.390
354.79	37.407
355.15	37.937
355.51	38.370
355.87	37.298
356.24	37.113
356.60	36.863
356.96	38.016
357.32	37.380
357.68	36.278
358.04	37.399
358.40	36.736
358.77	37.400
359.13	37.550
359.49	36.672
359.85	37.676
360.21	39.394
360.57	37.567
360.93	37.897
361.29	38.293
361.66	39.107
362.02	38.485
362.38	38.233
362.74	37.472
363.10	39.127
363.46	37.954
363.82	39.594
364.18	38.229
364.54	39.412
364.90	39.355
365.26	37.773
365.62	40.803
365.98	39.150
366.35	39.913
366.71	40.724
367.07	39.768
367.43	39.540
367.79	39.223
368.15	38.765
368.51	39.403
368.87	39.196
369.23	40.722
369.59	40.816
369.95	40.396
370.31	39.090
370.67	41.045
371.03	39.731
371.39	40.190
371.75	40.000
372.11	40.585
372.47	40.533
372.83	40.312
373.19	40.942
373.55	39.422
373.91	40.821
374.27	40.609
374.63	41.350
374.99	41.844
375.35	42.201
375.71	42.797
376.07	42.135
376.42	42.721
376.78	43.356
377.14	41.638
377.50	43.426
377.86	43.240
378.22	42.055
378.58	44.487
378.94	44.171
379.30	43.543
379.66	44.263
380.02	43.164
380.38	43.518
380.74	43.627
381.09	45.706
381.45	44.771
381.81	44.664
382.17	44.289
382.53	44.597
382.89	44.821
383.25	46.920
383.61	45.793
383.97	45.460
384.32	45.904
384.68	45.944
385.04	44.730
385.40	45.986
385.76	46.918
386.12	47.025
386.48	45.147
386.83	45.593
387.19	46.032
387.55	46.738
387.91	46.149
388.27	47.497
388.62	46.948
388.98	46.470
389.34	46.221
389.70	47.234
390.06	47.451
390.42	47.215
390.77	47.220
391.13	46.280
391.49	47.736
391.85	48.018
392.20	47.772
392.56	48.188
392.92	48.679
393.28	47.406
393.64	48.228
393.99	48.150
394.35	48.324
394.71	47.829
395.07	48.649
395.42	48.087
395.78	47.948
396.14	48.613
396.50	48.637
396.85	48.809
397.21	47.744
397.57	47.649
397.92	48.053
398.28	49.425
398.64	47.771
399.00	48.420
399.35	47.460
399.71	48.708
400.07	48.972
400.42	47.246
400.78	49.357
401.14	48.820
401.49	48.719
401.85	48.263
402.21	48.193
402.57	48.375
402.92	48.181
403.28	48.622
403.63	48.361
403.99	48.214
404.35	49.032
404.70	47.976
405.06	48.472
405.42	48.291
405.77	47.356
406.13	47.963
406.49	47.898
406.84	49.022
407.20	48.766
407.55	47.972
407.91	46.591
408.27	48.757
408.62	49.046
408.98	47.135
409.34	47.646
409.69	47.610
410.05	49.261
410.40	48.333
410.76	47.407
411.11	47.750
411.47	47.732
411.83	47.583
412.18	49.292
412.54	47.191
412.89	45.998
413.25	48.135
413.60	47.516
413.96	47.055
414.31	48.293
414.67	45.991
415.03	47.004
415.38	46.475
415.74	48.404
416.09	48.334
416.45	47.873
416.80	46.530
417.16	49.240
417.51	47.235
417.87	47.653
418.22	48.834
418.58	48.094
418.93	47.085
419.29	46.351
419.64	48.088
420.00	49.244
420.35	47.821
420.71	48.663
421.06	47.268
421.42	48.197
421.77	47.919
422.12	50.170
422.48	49.486
422.83	47.796
423.19	49.266
423.54	47.972
423.90	48.174
424.25	49.656
424.61	48.042
424.96	49.013
425.31	48.931
425.67	49.002
426.02	48.999
426.38	49.405
426.73	50.363
427.09	48.734
427.44	49.353
427.79	49.028
428.15	47.998
428.50	49.849
428.85	49.509
429.21	49.519
429.56	49.380
429.92	50.026
430.27	48.170
430.62	48.772
430.98	49.628
431.33	49.264
431.68	48.352
432.04	49.245
432.39	48.146
432.74	47.986
433.10	49.253
433.45	48.148
433.80	50.087
434.16	49.197
434.51	49.570
434.86	48.722
435.22	49.243
435.57	49.532
435.92	49.820
436.28	50.030
436.63	49.857
436.98	49.015
437.34	49.183
437.69	49.434
438.04	49.573
438.39	48.992
438.75	49.362
439.10	49.576
439.45	50.030
439.81	49.113
440.16	51.485
440.51	49.731
440.86	51.420
441.22	49.434
441.57	50.110
441.92	52.099
442.27	50.942
442.63	51.071
442.98	50.775
443.33	48.915
443.68	49.443
444.03	50.323
444.39	50.123
444.74	50.948
445.09	51.782
445.44	50.883
445.79	50.903
446.15	49.504
446.50	48.974
446.85	51.063
447.20	49.583
447.55	51.116
447.91	49.915
448.26	50.256
448.61	50.720
448.96	50.488
449.31	50.231
449.66	49.477
450.02	50.029
450.37	50.267
450.72	51.031
451.07	48.354
451.42	48.252
451.77	49.910
452.12	49.940
452.47	49.968
452.83	48.999
453.18	49.715
453.53	50.000
453.88	48.998
454.23	49.355
454.58	49.181
454.93	50.515
455.28	47.937
455.63	49.597
455.98	50.271
456.34	50.128
456.69	48.856
457.04	49.212
457.39	49.149
457.74	48.912
458.09	48.911
458.44	50.205
458.79	48.627
459.14	50.400
459.49	49.134
459.84	49.069
460.19	49.333
460.54	49.817
460.89	48.920
461.24	48.882
461.59	48.694
461.94	49.119
462.29	48.794
462.64	48.173
462.99	48.747
463.34	48.679
463.69	46.782
464.04	48.426
464.39	47.968
464.74	48.712
465.09	48.659
465.44	49.221
465.79	49.376
466.14	49.544
466.49	48.591
466.84	48.840
467.19	47.872
467.54	47.765
467.89	48.010
468.24	46.594
468.59	48.317
468.94	46.984
469.29	48.590
469.64	47.642
469.99	48.353
470.34	46.962
470.68	48.024
471.03	47.700
471.38	47.432
471.73	46.569
472.08	46.811
472.43	46.309
472.78	46.333
473.13	47.007
473.48	46.710
473.83	45.205
474.17	47.345
474.52	46.586
474.87	46.727
475.22	48.688
475.57	48.447
475.92	48.491
476.27	47.322
476.61	48.553
476.96	46.682
477.31	47.485
477.66	46.180
478.01	46.940
478.36	46.405
478.70	47.363
479.05	48.022
479.40	47.165
479.75	45.151
480.10	47.158
480.45	47.250
480.79	47.382
481.14	47.797
481.49	47.537
481.84	47.635
482.19	46.118
482.53	47.818
482.88	45.823
483.23	46.305
483.58	45.849
483.92	45.983
484.27	45.898
484.62	46.033
484.97	46.808
485.31	47.327
485.66	50.081
486.01	51.974
486.36	51.060
486.70	50.054
487.05	48.760
487.40	47.337
487.75	46.507
488.09	45.272
488.44	45.323
488.79	44.677
489.13	44.712
489.48	44.292
489.83	44.798
490.17	45.079
490.52	44.758
490.87	44.563
491.22	44.413
491.56	44.639
491.91	44.025
492.26	44.920
492.60	44.482
492.95	45.007
493.30	44.651
493.64	44.794
493.99	44.734
494.34	44.757
494.68	44.238
495.03	44.915
495.37	43.670
495.72	45.331
496.07	45.073
496.41	45.094
496.76	44.864
497.11	44.714
497.45	44.153
497.80	44.753
498.14	43.567
498.49	43.728
498.84	43.513
499.18	43.926
499.53	43.948
499.87	44.358
500.22	44.510
500.56	44.881
500.91	43.373
501.26	43.994
501.60	44.220
501.95	45.318
502.29	45.375
502.64	44.257
502.98	44.055
503.33	43.276
503.67	44.048
504.02	44.624
504.36	44.087
504.71	43.232
505.06	44.389
505.40	43.858
505.75	43.454
506.09	43.082
506.44	43.583
506.78	44.031
507.13	44.261
507.47	42.507
507.82	43.697
508.16	43.265
508.51	44.544
508.85	43.904
509.19	42.789
509.54	43.056
509.88	42.179
510.23	42.227
510.57	44.361
510.92	41.418
511.26	43.426
511.61	42.904
511.95	42.685
512.30	42.406
512.64	42.905
512.98	41.494
513.33	43.145
513.67	43.491
514.02	42.963
514.36	43.143
514.70	42.716
515.05	42.538
515.39	42.916
515.74	43.473
516.08	43.036
516.42	43.286
516.77	43.651
517.11	42.374
517.46	43.327
517.80	42.491
518.14	41.947
518.49	41.526
518.83	42.102
519.17	41.298
519.52	42.688
519.86	42.617
520.20	40.826
520.55	41.463
520.89	42.284
521.23	41.165
521.58	42.208
521.92	41.731
522.26	41.965
522.61	41.753
522.95	43.179
523.29	40.851
523.64	40.978
523.98	42.191
524.32	41.237
524.66	43.406
525.01	42.078
525.35	42.191
525.69	41.549
526.04	41.071
526.38	41.958
526.72	41.727
527.06	41.180
527.41	41.359
527.75	42.493
528.09	40.598
528.43	42.134
528.78	41.782
529.12	41.548
529.46	42.365
529.80	41.799
530.15	42.310
530.49	41.684
530.83	41.997
531.17	42.377
531.51	41.450
531.86	42.352
532.20	41.754
532.54	40.708
532.88	42.094
533.22	42.137
533.57	41.612
533.91	41.188
534.25	43.750
534.59	41.629
534.93	41.787
535.27	42.195
535.62	42.579
535.96	42.140
536.30	41.557
536.64	42.591
536.98	40.627
537.32	42.603
537.66	42.567
538.01	41.888
538.35	41.331
538.69	42.943
539.03	40.465
539.37	41.857
539.71	43.149
540.05	41.684
540.39	40.859
540.73	42.259
541.07	42.749
541.42	41.465
541.76	41.776
542.10	42.464
542.44	41.974
542.78	40.399
543.12	42.239
543.46	42.768
543.80	42.054
544.14	41.455
544.48	41.572
544.82	42.037
545.16	43.033
545.50	41.255
545.84	43.555
546.18	42.908
546.52	41.024
546.86	42.344
547.20	43.276
547.54	40.848
547.88	42.527
548.22	42.012
548.56	42.348
548.90	43.261
549.24	42.355
549.58	42.031
549.92	41.458
550.26	40.952
550.60	41.636
550.94	42.569
551.28	41.267
551.62	42.154
551.96	41.955
552.30	42.471
552.64	42.102
552.98	41.210
553.32	41.940
553.66	41.364
554.00	42.482
554.34	41.728
554.68	41.077
555.02	42.857
555.36	42.034
555.69	41.026
556.03	42.327
556.37	43.060
556.71	42.094
557.05	42.655
557.39	40.967
557.73	42.204
558.07	42.459
558.41	40.965
558.75	42.401
559.08	41.450
559.42	40.476
559.76	41.633
560.10	41.208
560.44	40.655
560.78	43.706
561.12	43.230
561.45	43.500
561.79	43.277
562.13	43.222
562.47	42.086
562.81	42.579
563.15	41.890
563.48	43.140
563.82	43.308
564.16	43.872
564.50	42.027
564.84	43.106
565.17	43.125
565.51	44.672
565.85	44.376
566.19	43.369
566.52	44.638
566.86	45.373
567.20	44.396
567.54	45.985
567.88	46.514
568.21	45.814
568.55	46.304
568.89	47.177
569.23	47.520
569.56	47.942
569.90	50.142
570.24	48.567
570.57	49.055
570.91	49.564
571.25	48.734
571.59	49.050
571.92	47.941
572.26	48.551
572.60	48.155
572.93	47.443
573.27	47.837
573.61	49.135
573.95	48.689
574.28	48.994
574.62	48.945
574.96	49.265
575.29	48.132
575.63	47.422
575.97	47.465
576.30	47.849
576.64	48.530
576.98	49.369
577.31	49.545
577.65	50.138
577.98	50.676
578.32	50.448
578.66	49.108
578.99	48.807
579.33	47.764
579.67	47.161
580.00	48.633
580.34	49.030
580.67	48.467
581.01	49.256
581.35	50.022
581.68	50.797
582.02	51.643
582.35	50.789
582.69	50.195
583.02	49.541
583.36	48.711
583.70	49.091
584.03	48.513
584.37	49.209
584.70	47.830
585.04	47.642
585.37	49.877
585.71	50.185
586.04	48.865
586.38	48.626
586.72	49.498
587.05	50.000
587.39	50.014
587.72	50.601
588.06	49.571
588.39	49.302
588.73	49.206
589.06	48.532
589.40	48.496
589.73	49.069
590.07	49.245
590.40	48.297
590.73	48.435
591.07	47.922
591.40	47.818
591.74	48.507
592.07	48.098
592.41	48.322
592.74	48.984
593.08	48.865
593.41	50.708
593.75	49.984
594.08	49.846
594.41	48.617
594.75	48.779
595.08	49.830
595.42	49.393
595.75	49.756
596.09	49.101
596.42	48.905
596.75	47.735
597.09	47.426
597.42	47.922
597.75	49.061
598.09	47.306
598.42	46.796
598.76	48.863
599.09	50.080
599.42	49.337
599.76	49.737
600.09	50.000
600.42	49.242
600.76	48.960
601.09	48.702
601.42	48.492
601.76	48.670
602.09	48.680
602.42	50.674
602.76	49.363
603.09	49.917
603.42	51.087
603.76	49.153
604.09	48.076
604.42	49.492
604.76	48.598
605.09	48.537
605.42	48.533
605.75	49.869
606.09	49.342
606.42	49.541
606.75	49.134
607.09	48.527
607.42	47.895
607.75	48.623
608.08	47.305
608.42	47.602
608.75	49.542
609.08	48.929
609.41	48.376
609.75	47.883
610.08	48.827
610.41	48.213
610.74	48.757
611.07	49.302
611.41	47.794
611.74	48.934
612.07	48.715
612.40	48.906
612.73	48.531
613.07	48.088
613.40	47.484
613.73	48.181
614.06	48.024
614.39	49.464
614.72	48.179
615.06	47.821
615.39	47.271
615.72	48.278
616.05	47.430
616.38	47.066
616.71	47.034
617.05	47.498
617.38	47.832
617.71	48.868
618.04	49.460
618.37	48.424
618.70	47.723
619.03	47.639
619.36	45.803
619.69	47.915
620.03	47.261
620.36	47.210
620.69	47.395
621.02	46.865
621.35	46.639
621.68	46.684
622.01	46.167
622.34	46.608
622.67	46.609
623.00	46.784
623.33	48.018
623.66	46.597
623.99	46.142
624.32	48.213
624.65	48.195
624.99	48.683
625.32	46.550
625.65	46.583
625.98	46.656
626.31	44.888
626.64	46.794
626.97	47.295
627.30	45.271
627.63	47.314
627.96	46.271
628.29	45.236
628.62	44.936
628.95	44.589
629.28	44.355
629.61	44.865
629.94	45.064
630.26	45.257
630.59	46.514
630.92	44.205
631.25	43.077
631.58	44.824
631.91	43.640
632.24	42.775
632.57	44.659
632.90	43.535
633.23	42.941
633.56	44.207
633.89	43.280
