SpectraSuite Data File
++++++++++++++++++++++++++++++++++++
Date: Fri May 15 17:33:09 PDT 2015
User: schluterlab
Dark Spectrum Present: Yes
Reference Spectrum Present: Yes
Number of Sampled Component Spectra: 1
Spectrometers: USB2E3373
Integration Time (usec): 3000 (USB2E3373)
Spectra Averaged: 3 (USB2E3373)
Boxcar Smoothing: 0 (USB2E3373)
Correct for Electrical Dark: No (USB2E3373)
Strobe/Lamp Enabled: No (USB2E3373)
Correct for Detector Non-linearity: No (USB2E3373)
Correct for Stray Light: No (USB2E3373)
Number of Pixels in Processed Spectrum: 2048
>>>>>Begin Processed Spectral Data<<<<<
178.53	0.000
178.91	0.000
179.29	75.000
179.67	-100.000
180.04	-114.286
180.42	50.000
180.80	200.000
181.18	-100.000
181.56	-100.000
181.94	200.000
182.31	-900.000
182.69	60.000
183.07	-266.667
183.45	-100.000
183.83	-16.667
184.20	54.545
184.58	122.222
184.96	-150.000
185.34	-166.667
185.72	-100.000
186.09	76.923
186.47	-500.000
186.85	66.667
187.23	100.000
187.61	400.000
187.98	33.333
188.36	66.667
188.74	-100.000
189.12	17.647
189.49	61.111
189.87	0.000
190.25	50.000
190.63	400.000
191.00	-66.667
191.38	84.211
191.76	50.000
192.14	-150.000
192.51	350.000
192.89	-33.333
193.27	0.000
193.65	66.667
194.02	45.455
194.40	-60.000
194.78	62.500
195.15	-16.667
195.53	100.000
195.91	150.000
196.29	-125.000
196.66	38.462
197.04	57.143
197.42	11.111
197.79	-200.000
198.17	-84.615
198.55	1400.000
198.92	-66.667
199.30	200.000
199.68	-60.000
200.05	-66.667
200.43	0.000
200.81	200.000
201.18	-33.333
201.56	500.000
201.94	-400.000
202.31	-166.667
202.69	-160.000
203.07	150.000
203.44	1700.000
203.82	0.000
204.19	42.857
204.57	-300.000
204.95	62.500
205.32	80.000
205.70	0.000
206.08	25.000
206.45	222.222
206.83	92.857
207.20	57.143
207.58	-400.000
207.96	0.000
208.33	-50.000
208.71	0.000
209.08	50.000
209.46	-800.000
209.84	-80.000
210.21	-700.000
210.59	200.000
210.96	16.667
211.34	75.000
211.71	-6.667
212.09	57.143
212.46	-500.000
212.84	0.000
213.22	110.000
213.59	450.000
213.97	38.462
214.34	0.000
214.72	83.333
215.09	150.000
215.47	0.000
215.84	-18.182
216.22	-233.333
216.59	-125.000
216.97	250.000
217.34	125.000
217.72	-40.000
218.09	25.000
218.47	162.500
218.84	400.000
219.22	22.222
219.59	-20.000
219.97	100.000
220.34	-25.000
220.72	157.143
221.09	175.000
221.47	400.000
221.84	-300.000
222.22	-750.000
222.59	90.909
222.97	108.333
223.34	-100.000
223.72	14.286
224.09	33.333
224.46	14.286
224.84	333.333
225.21	-10.000
225.59	33.333
225.96	0.000
226.34	275.000
226.71	-128.571
227.08	-116.667
227.46	25.000
227.83	0.000
228.21	22.222
228.58	136.364
228.95	-12.500
229.33	60.000
229.70	18.750
230.08	-25.000
230.45	-142.857
230.82	71.429
231.20	-20.000
231.57	7.143
231.95	-28.571
232.32	-60.000
232.69	100.000
233.07	100.000
233.44	80.000
233.81	-60.000
234.19	22.222
234.56	0.000
234.93	50.000
235.31	-25.000
235.68	-300.000
236.05	15.385
236.43	-75.000
236.80	-11.765
237.17	21.875
237.55	10.000
237.92	-18.519
238.29	0.000
238.67	46.667
239.04	29.412
239.41	-12.195
239.79	20.000
240.16	0.000
240.53	-10.526
240.91	-10.870
241.28	7.937
241.65	28.571
242.02	16.438
242.40	16.667
242.77	10.169
243.14	4.545
243.51	-3.750
243.89	18.391
244.26	5.747
244.63	8.333
245.00	8.247
245.38	15.464
245.75	4.494
246.12	12.069
246.49	14.050
246.87	7.692
247.24	8.403
247.61	7.018
247.98	12.195
248.36	6.875
248.73	4.605
249.10	5.195
249.47	16.456
249.84	6.536
250.22	12.941
250.59	3.922
250.96	15.962
251.33	9.884
251.70	7.059
252.08	3.553
252.45	11.386
252.82	11.558
253.19	11.521
253.56	6.075
253.94	13.063
254.31	10.000
254.68	7.456
255.05	8.661
255.42	8.734
255.79	13.127
256.16	11.673
256.54	11.194
256.91	7.605
257.28	8.178
257.65	7.116
258.02	10.284
258.39	10.774
258.76	9.890
259.14	11.960
259.51	13.269
259.88	9.966
260.25	7.190
260.62	10.069
260.99	5.763
261.36	10.274
261.73	5.063
262.10	8.207
262.47	8.896
262.85	5.956
263.22	10.462
263.59	8.723
263.96	10.248
264.33	11.818
264.70	10.417
265.07	8.631
265.44	8.782
265.81	7.627
266.18	7.104
266.55	11.825
266.92	9.067
267.29	11.488
267.66	10.230
268.03	9.162
268.40	7.833
268.77	9.893
269.14	8.153
269.51	10.283
269.88	8.728
270.25	9.184
270.62	6.098
270.99	8.184
271.36	9.046
271.73	8.920
272.10	9.732
272.47	9.929
272.84	8.416
273.21	9.513
273.58	10.602
273.95	10.297
274.32	9.007
274.69	9.502
275.06	10.714
275.43	10.884
275.80	10.596
276.17	9.655
276.54	7.709
276.91	9.649
277.28	6.987
277.65	10.124
278.02	7.872
278.39	7.659
278.76	9.434
279.13	6.639
279.50	9.454
279.87	10.151
280.23	7.527
280.60	8.967
280.97	8.687
281.34	8.654
281.71	8.624
282.08	5.930
282.45	7.241
282.82	9.266
283.19	8.704
283.56	10.212
283.92	8.539
284.29	8.846
284.66	8.527
285.03	12.181
285.40	8.885
285.77	6.678
286.14	7.942
286.51	9.041
286.87	10.238
287.24	9.208
287.61	7.937
287.98	8.421
288.35	6.759
288.72	11.909
289.08	7.118
289.45	9.315
289.82	9.091
290.19	7.509
290.56	5.660
290.93	8.249
291.29	7.550
291.66	9.449
292.03	7.974
292.40	8.065
292.77	8.612
293.13	5.682
293.50	5.615
293.87	7.939
294.24	8.037
294.60	7.303
294.97	7.292
295.34	6.442
295.71	6.706
296.08	5.979
296.44	4.836
296.81	6.528
297.18	8.551
297.55	9.485
297.91	7.671
298.28	7.124
298.65	7.598
299.02	8.221
299.38	4.925
299.75	5.931
300.12	6.021
300.48	6.851
300.85	6.337
301.22	6.494
301.59	5.526
301.95	7.468
302.32	6.744
302.69	6.343
303.05	6.064
303.42	6.849
303.79	6.893
304.15	7.527
304.52	6.064
304.89	6.199
305.25	6.659
305.62	5.834
305.99	6.550
306.35	6.936
306.72	5.174
307.09	6.727
307.45	7.348
307.82	5.671
308.19	5.807
308.55	5.780
308.92	6.972
309.29	5.810
309.65	6.243
310.02	6.051
310.38	6.147
310.75	6.448
311.12	5.597
311.48	5.302
311.85	6.597
312.22	6.857
312.58	6.476
312.95	5.656
313.31	7.143
313.68	4.503
314.05	6.224
314.41	6.186
314.78	5.670
315.14	6.578
315.51	7.557
315.87	5.328
316.24	7.381
316.61	7.283
316.97	5.952
317.34	5.469
317.70	6.214
318.07	7.308
318.43	7.549
318.80	5.966
319.16	6.641
319.53	7.217
319.89	6.496
320.26	7.794
320.62	6.018
320.99	4.697
321.35	6.475
321.72	7.061
322.08	6.647
322.45	6.701
322.81	6.778
323.18	6.281
323.54	6.274
323.91	6.329
324.27	7.715
324.64	7.491
325.00	7.938
325.37	8.081
325.73	7.525
326.10	8.538
326.46	8.161
326.83	8.836
327.19	8.370
327.56	8.341
327.92	9.243
328.29	7.857
328.65	8.679
329.01	8.915
329.38	9.217
329.74	9.821
330.11	9.082
330.47	9.833
330.84	9.423
331.20	12.072
331.56	10.463
331.93	11.050
332.29	11.641
332.66	11.403
333.02	11.059
333.38	11.091
333.75	12.179
334.11	11.549
334.48	13.146
334.84	11.264
335.20	12.717
335.57	12.693
335.93	14.002
336.29	12.431
336.66	12.352
337.02	12.454
337.38	12.500
337.75	12.909
338.11	14.337
338.47	14.234
338.84	13.309
339.20	12.980
339.56	14.404
339.93	15.130
340.29	13.853
340.65	15.233
341.02	13.830
341.38	13.097
341.74	13.693
342.11	13.778
342.47	14.591
342.83	15.657
343.20	14.373
343.56	14.783
343.92	14.792
344.28	14.859
344.65	15.112
345.01	14.607
345.37	14.634
345.73	15.816
346.10	15.186
346.46	14.634
346.82	15.303
347.19	15.212
347.55	15.622
347.91	16.100
348.27	15.926
348.63	16.865
349.00	14.766
349.36	15.628
349.72	16.584
350.08	16.721
350.45	16.042
350.81	15.781
351.17	14.577
351.53	15.592
351.89	15.690
352.26	16.080
352.62	16.935
352.98	14.378
353.34	16.184
353.70	17.071
354.07	17.097
354.43	16.173
354.79	16.350
355.15	17.381
355.51	16.377
355.87	16.748
356.24	15.987
356.60	15.036
356.96	17.619
357.32	16.773
357.68	16.185
358.04	16.882
358.40	16.720
358.77	16.587
359.13	16.733
359.49	16.256
359.85	16.225
360.21	16.587
360.57	16.603
360.93	17.247
361.29	16.465
361.66	17.947
362.02	18.485
362.38	17.593
362.74	17.638
363.10	17.532
363.46	18.384
363.82	18.332
364.18	17.343
364.54	17.794
364.90	18.208
365.26	18.049
365.62	18.905
365.98	17.815
366.35	18.937
366.71	18.773
367.07	19.376
367.43	18.404
367.79	19.364
368.15	19.239
368.51	19.592
368.87	17.875
369.23	18.700
369.59	19.534
369.95	18.768
370.31	19.003
370.67	19.104
371.03	19.343
371.39	18.891
371.75	19.194
372.11	19.686
372.47	20.192
372.83	21.150
373.19	20.970
373.55	20.217
373.91	20.086
374.27	20.411
374.63	20.890
374.99	21.348
375.35	19.638
375.71	21.049
376.07	20.365
376.42	20.544
376.78	21.409
377.14	21.598
377.50	21.182
377.86	20.817
378.22	21.634
378.58	22.244
378.94	20.983
379.30	21.772
379.66	21.881
380.02	22.502
380.38	21.302
380.74	21.604
381.09	22.270
381.45	21.468
381.81	21.777
382.17	22.779
382.53	22.236
382.89	22.599
383.25	23.584
383.61	22.500
383.97	22.730
384.32	22.764
384.68	22.786
385.04	23.162
385.40	23.584
385.76	23.899
386.12	23.933
386.48	24.266
386.83	22.701
387.19	23.810
387.55	24.718
387.91	23.778
388.27	23.871
388.62	24.229
388.98	23.941
389.34	23.735
389.70	25.606
390.06	23.537
390.42	24.352
390.77	24.133
391.13	24.338
391.49	25.226
391.85	24.951
392.20	24.796
392.56	24.539
392.92	25.073
393.28	24.292
393.64	24.324
393.99	25.893
394.35	23.846
394.71	25.734
395.07	24.324
395.42	24.044
395.78	23.974
396.14	24.401
396.50	25.555
396.85	23.696
397.21	25.063
397.57	25.141
397.92	24.805
398.28	25.345
398.64	24.217
399.00	24.605
399.35	23.758
399.71	24.928
400.07	24.728
400.42	25.031
400.78	24.679
401.14	24.682
401.49	24.836
401.85	24.314
402.21	25.602
402.57	25.562
402.92	23.588
403.28	25.063
403.63	24.716
403.99	24.617
404.35	25.297
404.70	24.048
405.06	23.796
405.42	24.736
405.77	23.765
406.13	24.389
406.49	23.683
406.84	24.083
407.20	24.503
407.55	23.632
407.91	23.864
408.27	23.901
408.62	24.677
408.98	23.845
409.34	24.473
409.69	23.643
410.05	23.399
410.40	24.321
410.76	24.487
411.11	24.000
411.47	24.260
411.83	24.168
412.18	23.938
412.54	24.095
412.89	23.153
413.25	24.368
413.60	24.037
413.96	24.908
414.31	24.085
414.67	23.926
415.03	24.168
415.38	24.347
415.74	24.886
416.09	25.604
416.45	24.781
416.80	24.851
417.16	24.655
417.51	25.983
417.87	24.381
418.22	24.870
418.58	25.552
418.93	25.768
419.29	24.712
419.64	25.988
420.00	27.582
420.35	25.612
420.71	26.124
421.06	26.028
421.42	26.382
421.77	26.474
422.12	26.107
422.48	25.717
422.83	26.392
423.19	27.370
423.54	25.926
423.90	26.737
424.25	26.808
424.61	26.989
424.96	26.945
425.31	28.076
425.67	27.465
426.02	28.269
426.38	27.990
426.73	28.511
427.09	29.241
427.44	28.529
427.79	28.167
428.15	28.459
428.50	28.892
428.85	28.010
429.21	29.145
429.56	29.488
429.92	28.916
430.27	27.820
430.62	28.698
430.98	28.981
431.33	29.075
431.68	28.938
432.04	29.625
432.39	29.207
432.74	29.345
433.10	30.747
433.45	30.406
433.80	30.354
434.16	30.139
434.51	30.108
434.86	30.894
435.22	32.025
435.57	30.381
435.92	31.617
436.28	30.710
436.63	31.318
436.98	31.692
437.34	31.518
437.69	31.902
438.04	31.453
438.39	31.582
438.75	33.333
439.10	33.050
439.45	32.806
439.81	32.599
440.16	33.195
440.51	32.896
440.86	34.924
441.22	32.296
441.57	33.664
441.92	33.841
442.27	33.869
442.63	33.779
442.98	33.774
443.33	33.333
443.68	33.103
444.03	34.029
444.39	33.694
444.74	35.173
445.09	34.744
445.44	34.245
445.79	35.121
446.15	34.251
446.50	34.498
446.85	34.910
447.20	34.619
447.55	35.770
447.91	34.518
448.26	35.970
448.61	35.003
448.96	35.341
449.31	35.723
449.66	35.308
450.02	34.969
450.37	36.515
450.72	35.510
451.07	37.278
451.42	35.081
451.77	36.287
452.12	34.868
452.47	35.287
452.83	36.101
453.18	36.243
453.53	36.979
453.88	36.430
454.23	36.755
454.58	37.783
454.93	36.662
455.28	36.000
455.63	36.764
455.98	36.801
456.34	37.676
456.69	36.658
457.04	38.059
457.39	36.877
457.74	36.699
458.09	36.610
458.44	36.981
458.79	36.527
459.14	37.471
459.49	37.970
459.84	37.563
460.19	36.954
460.54	37.775
460.89	37.614
461.24	37.764
461.59	37.352
461.94	36.604
462.29	37.756
462.64	38.605
462.99	36.899
463.34	37.065
463.69	36.873
464.04	37.288
464.39	37.841
464.74	37.362
465.09	38.303
465.44	37.853
465.79	37.585
466.14	38.198
466.49	37.378
466.84	38.311
467.19	38.486
467.54	37.739
467.89	37.081
468.24	37.835
468.59	38.730
468.94	38.095
469.29	38.623
469.64	38.209
469.99	40.364
470.34	38.157
470.68	39.597
471.03	39.774
471.38	39.729
471.73	39.146
472.08	39.349
472.43	38.859
472.78	38.108
473.13	39.728
473.48	39.283
473.83	39.601
474.17	39.637
474.52	39.119
474.87	39.939
475.22	38.926
475.57	39.356
475.92	39.440
476.27	40.221
476.61	39.120
476.96	38.316
477.31	40.725
477.66	39.101
478.01	39.753
478.36	38.943
478.70	39.913
479.05	40.440
479.40	39.534
479.75	39.051
480.10	38.966
480.45	39.450
480.79	40.433
481.14	41.035
481.49	39.163
481.84	39.431
482.19	39.804
482.53	40.432
482.88	39.189
483.23	39.683
483.58	39.198
483.92	40.271
484.27	39.471
484.62	39.265
484.97	39.303
485.31	39.632
485.66	37.775
486.01	38.244
486.36	37.907
486.70	38.414
487.05	38.329
487.40	37.927
487.75	38.930
488.09	38.443
488.44	39.133
488.79	40.120
489.13	40.345
489.48	39.932
489.83	39.507
490.17	39.910
490.52	40.092
490.87	40.213
491.22	40.640
491.56	40.228
491.91	40.392
492.26	41.760
492.60	40.211
492.95	41.859
493.30	39.814
493.64	41.847
493.99	41.014
494.34	40.728
494.68	41.143
495.03	40.243
495.37	41.168
495.72	41.343
496.07	40.585
496.41	40.991
496.76	41.087
497.11	40.661
497.45	41.337
497.80	41.372
498.14	41.182
498.49	40.884
498.84	41.417
499.18	42.319
499.53	41.915
499.87	40.516
500.22	41.147
500.56	42.158
500.91	41.365
501.26	41.819
501.60	41.515
501.95	40.902
502.29	41.985
502.64	41.651
502.98	42.526
503.33	41.210
503.67	42.169
504.02	42.082
504.36	41.514
504.71	41.768
505.06	41.520
505.40	42.335
505.75	43.041
506.09	41.054
506.44	43.326
506.78	43.010
507.13	41.986
507.47	42.768
507.82	42.361
508.16	42.261
508.51	43.494
508.85	42.177
509.19	43.002
509.54	42.681
509.88	42.557
510.23	42.550
510.57	43.132
510.92	43.070
511.26	43.372
511.61	44.059
511.95	43.726
512.30	42.239
512.64	43.072
512.98	42.729
513.33	43.816
513.67	43.377
514.02	44.622
514.36	44.514
514.70	45.163
515.05	44.771
515.39	44.392
515.74	45.210
516.08	44.411
516.42	45.230
516.77	44.295
517.11	44.629
517.46	45.422
517.80	44.458
518.14	45.438
518.49	43.089
518.83	45.747
519.17	44.209
519.52	43.872
519.86	45.138
520.20	45.018
520.55	45.028
520.89	46.550
521.23	45.725
521.58	46.309
521.92	45.897
522.26	46.129
522.61	47.597
522.95	47.417
523.29	45.934
523.64	45.044
523.98	46.662
524.32	46.005
524.66	46.479
525.01	46.494
525.35	46.662
525.69	45.051
526.04	45.569
526.38	47.665
526.72	46.174
527.06	45.655
527.41	45.976
527.75	46.649
528.09	46.379
528.43	47.198
528.78	46.667
529.12	47.871
529.46	46.264
529.80	46.675
530.15	47.525
530.49	47.003
530.83	48.222
531.17	47.213
531.51	47.538
531.86	46.975
532.20	47.390
532.54	48.604
532.88	47.775
533.22	46.438
533.57	46.723
533.91	46.540
534.25	47.917
534.59	45.606
534.93	46.004
535.27	45.114
535.62	46.338
535.96	48.858
536.30	47.823
536.64	47.002
536.98	47.038
537.32	48.293
537.66	48.387
538.01	48.042
538.35	46.463
538.69	47.670
539.03	47.779
539.37	46.231
539.71	47.376
540.05	46.368
540.39	47.853
540.73	47.420
541.07	47.376
541.42	46.976
541.76	48.933
542.10	48.245
542.44	47.741
542.78	45.354
543.12	49.245
543.46	48.470
543.80	49.618
544.14	46.395
544.48	47.968
544.82	48.667
545.16	48.839
545.50	46.462
545.84	49.575
546.18	48.156
546.52	48.738
546.86	49.029
547.20	49.142
547.54	46.926
547.88	47.486
548.22	46.877
548.56	47.691
548.90	48.046
549.24	48.140
549.58	48.025
549.92	47.677
550.26	47.766
550.60	49.591
550.94	48.394
551.28	48.532
551.62	49.385
551.96	49.173
552.30	48.465
552.64	48.166
552.98	47.890
553.32	48.217
553.66	49.202
554.00	49.562
554.34	49.261
554.68	47.788
555.02	50.149
555.36	48.467
555.69	48.864
556.03	48.822
556.37	48.683
556.71	48.953
557.05	50.261
557.39	49.517
557.73	50.225
558.07	50.905
558.41	50.153
558.75	51.286
559.08	50.906
559.42	50.873
559.76	50.120
560.10	49.006
560.44	50.112
560.78	49.860
561.12	49.506
561.45	49.895
561.79	49.160
562.13	51.100
562.47	49.568
562.81	50.072
563.15	50.000
563.48	50.778
563.82	49.760
564.16	50.696
564.50	50.541
564.84	49.665
565.17	49.027
565.51	51.434
565.85	50.412
566.19	50.133
566.52	50.737
566.86	51.542
567.20	50.311
567.54	49.939
567.88	50.322
568.21	50.226
568.55	49.891
568.89	50.205
569.23	49.976
569.56	48.380
569.90	49.574
570.24	47.451
570.57	48.545
570.91	47.543
571.25	47.123
571.59	46.247
571.92	46.044
572.26	46.467
572.60	47.008
572.93	46.533
573.27	46.050
573.61	46.390
573.95	46.068
574.28	46.637
574.62	46.148
574.96	45.625
575.29	45.785
575.63	44.856
575.97	45.758
576.30	46.134
576.64	45.987
576.98	47.053
577.31	46.228
577.65	45.803
577.98	46.767
578.32	46.194
578.66	45.798
578.99	45.414
579.33	45.841
579.67	45.445
580.00	46.051
580.34	46.045
580.67	46.167
581.01	46.950
581.35	45.801
581.68	46.546
582.02	45.990
582.35	46.332
582.69	46.182
583.02	46.699
583.36	46.581
583.70	46.781
584.03	48.596
584.37	47.995
584.70	47.225
585.04	47.098
585.37	46.830
585.71	46.951
586.04	47.201
586.38	47.186
586.72	48.121
587.05	48.382
587.39	47.694
587.72	48.032
588.06	47.910
588.39	47.764
588.73	48.382
589.06	49.282
589.40	48.877
589.73	49.471
590.07	49.358
590.40	49.226
590.73	50.824
591.07	50.212
591.40	50.178
591.74	49.638
592.07	50.742
592.41	50.133
592.74	49.303
593.08	48.131
593.41	48.764
593.75	48.871
594.08	47.923
594.41	48.908
594.75	50.115
595.08	49.527
595.42	50.276
595.75	50.958
596.09	50.704
596.42	50.434
596.75	50.977
597.09	50.615
597.42	50.542
597.75	51.764
598.09	50.249
598.42	50.316
598.76	49.635
599.09	49.760
599.42	49.072
599.76	49.699
600.09	49.774
600.42	49.128
600.76	48.848
601.09	49.122
601.42	50.529
601.76	49.464
602.09	50.578
602.42	50.758
602.76	50.552
603.09	50.457
603.42	51.923
603.76	50.645
604.09	50.790
604.42	50.296
604.76	51.046
605.09	51.463
605.42	50.339
605.75	50.350
606.09	50.064
606.42	49.917
606.75	49.221
607.09	51.253
607.42	50.111
607.75	50.533
608.08	50.764
608.42	50.480
608.75	51.133
609.08	51.669
609.41	51.726
609.75	51.815
610.08	51.623
610.41	51.401
610.74	51.731
611.07	53.075
611.41	52.984
611.74	53.518
612.07	52.463
612.40	52.516
612.73	53.164
613.07	53.150
613.40	52.626
613.73	52.658
614.06	52.365
614.39	53.130
614.72	51.933
615.06	52.402
615.39	51.692
615.72	51.615
616.05	52.402
616.38	51.624
616.71	53.028
617.05	53.922
617.38	53.174
617.71	53.962
618.04	54.222
618.37	54.414
618.70	55.842
619.03	56.319
619.36	54.848
619.69	56.482
620.03	56.172
620.36	54.864
620.69	54.818
621.02	54.893
621.35	56.349
621.68	57.313
622.01	57.583
622.34	56.903
622.67	55.126
623.00	56.202
623.33	56.860
623.66	55.348
623.99	54.539
624.32	54.829
624.65	54.887
624.99	55.831
625.32	55.724
625.65	56.559
625.98	57.293
626.31	55.943
626.64	57.886
626.97	56.806
627.30	59.982
627.63	57.626
627.96	57.053
628.29	56.614
628.62	57.424
628.95	58.216
629.28	60.383
629.61	59.621
629.94	59.140
630.26	59.684
630.59	58.585
630.92	58.872
631.25	56.718
631.58	60.242
631.91	60.088
632.24	61.124
632.57	61.477
632.90	61.447
633.23	60.471
633.56	62.469
633.89	62.022
634.22	63.951
634.55	61.881
634.88	61.303
635.20	60.769
635.53	64.800
635.86	61.118
636.19	61.449
636.52	61.990
636.85	62.407
637.18	60.881
637.51	60.881
637.83	59.921
638.16	65.484
638.49	61.308
