SpectraSuite Data File
++++++++++++++++++++++++++++++++++++
Date: Fri May 15 20:07:05 PDT 2015
User: schluterlab
Dark Spectrum Present: Yes
Reference Spectrum Present: Yes
Number of Sampled Component Spectra: 1
Spectrometers: USB2E3373
Integration Time (usec): 3000 (USB2E3373)
Spectra Averaged: 3 (USB2E3373)
Boxcar Smoothing: 0 (USB2E3373)
Correct for Electrical Dark: No (USB2E3373)
Strobe/Lamp Enabled: No (USB2E3373)
Correct for Detector Non-linearity: No (USB2E3373)
Correct for Stray Light: No (USB2E3373)
Number of Pixels in Processed Spectrum: 2048
>>>>>Begin Processed Spectral Data<<<<<
178.53	0.000
178.91	0.000
179.29	137.500
179.67	-250.000
180.04	-28.571
180.42	400.000
180.80	300.000
181.18	100.000
181.56	150.000
181.94	-250.000
182.31	100.000
182.69	-60.000
183.07	-33.333
183.45	-40.000
183.83	250.000
184.20	27.273
184.58	66.667
184.96	-225.000
185.34	-133.333
185.72	-100.000
186.09	53.846
186.47	-300.000
186.85	50.000
187.23	133.333
187.61	700.000
187.98	66.667
188.36	88.889
188.74	-166.667
189.12	64.706
189.49	5.556
189.87	0.000
190.25	50.000
190.63	-200.000
191.00	-66.667
191.38	-5.263
191.76	950.000
192.14	50.000
192.51	200.000
192.89	55.556
193.27	-14.286
193.65	100.000
194.02	127.273
194.40	100.000
194.78	-37.500
195.15	-16.667
195.53	-12.500
195.91	275.000
196.29	-75.000
196.66	100.000
197.04	28.571
197.42	-77.778
197.79	-533.333
198.17	-53.846
198.55	1900.000
198.92	-300.000
199.30	100.000
199.68	-120.000
200.05	-300.000
200.43	0.000
200.81	-33.333
201.18	0.000
201.56	1600.000
201.94	-250.000
202.31	200.000
202.69	-120.000
203.07	250.000
203.44	1400.000
203.82	0.000
204.19	42.857
204.57	-666.667
204.95	25.000
205.32	20.000
205.70	0.000
206.08	-75.000
206.45	133.333
206.83	50.000
207.20	-71.429
207.58	1100.000
207.96	-200.000
208.33	-80.000
208.71	50.000
209.08	-50.000
209.46	0.000
209.84	-120.000
210.21	-800.000
210.59	142.857
210.96	83.333
211.34	150.000
211.71	33.333
212.09	-71.429
212.46	-1200.000
212.84	0.000
213.22	130.000
213.59	600.000
213.97	38.462
214.34	-18.182
214.72	-83.333
215.09	375.000
215.47	15.385
215.84	18.182
216.22	33.333
216.59	0.000
216.97	350.000
217.34	-200.000
217.72	-160.000
218.09	62.500
218.47	62.500
218.84	-1300.000
219.22	-66.667
219.59	-300.000
219.97	733.333
220.34	125.000
220.72	14.286
221.09	-75.000
221.47	-450.000
221.84	-400.000
222.22	-850.000
222.59	27.273
222.97	-8.333
223.34	-366.667
223.72	57.143
224.09	38.095
224.46	25.000
224.84	466.667
225.21	70.000
225.59	-6.667
225.96	-250.000
226.34	425.000
226.71	-71.429
227.08	-216.667
227.46	-37.500
227.83	-600.000
228.21	-11.111
228.58	-9.091
228.95	-100.000
229.33	80.000
229.70	56.250
230.08	-125.000
230.45	-71.429
230.82	85.714
231.20	-6.667
231.57	114.286
231.95	0.000
232.32	-100.000
232.69	28.571
233.07	66.667
233.44	-80.000
233.81	-60.000
234.19	-11.111
234.56	41.176
234.93	300.000
235.31	0.000
235.68	-260.000
236.05	-30.769
236.43	-85.000
236.80	-58.824
237.17	18.750
237.55	-15.000
237.92	7.407
238.29	-22.222
238.67	13.333
239.04	14.706
239.41	-31.707
239.79	-6.667
240.16	14.634
240.53	0.000
240.91	-2.174
241.28	14.286
241.65	21.429
242.02	23.288
242.40	18.333
242.77	-1.695
243.14	4.545
243.51	7.500
243.89	22.989
244.26	10.345
244.63	2.381
245.00	11.340
245.38	12.371
245.75	3.371
246.12	6.897
246.49	14.876
246.87	13.462
247.24	10.084
247.61	2.632
247.98	14.634
248.36	10.000
248.73	9.868
249.10	4.545
249.47	12.025
249.84	13.072
250.22	11.765
250.59	12.418
250.96	15.962
251.33	5.233
251.70	17.059
252.08	6.599
252.45	11.881
252.82	7.035
253.19	12.903
253.56	7.009
253.94	11.261
254.31	14.783
254.68	14.035
255.05	8.661
255.42	12.664
255.79	11.969
256.16	12.451
256.54	13.806
256.91	11.787
257.28	11.152
257.65	11.985
258.02	8.156
258.39	14.141
258.76	13.919
259.14	12.957
259.51	14.563
259.88	9.622
260.25	11.111
260.62	11.458
260.99	10.847
261.36	6.849
261.73	9.810
262.10	6.991
262.47	9.202
262.85	9.718
263.22	12.000
263.59	15.888
263.96	13.354
264.33	10.909
264.70	11.607
265.07	8.631
265.44	13.314
265.81	12.147
266.18	11.202
266.55	14.910
266.92	13.472
267.29	13.577
267.66	10.486
268.03	13.613
268.40	13.838
268.77	14.439
269.14	11.271
269.51	11.825
269.88	8.728
270.25	13.010
270.62	9.512
270.99	9.463
271.36	11.736
271.73	11.737
272.10	12.895
272.47	12.057
272.84	12.129
273.21	14.849
273.58	11.084
273.95	10.984
274.32	10.855
274.69	8.824
275.06	13.616
275.43	10.658
275.80	12.362
276.17	11.494
276.54	10.921
276.91	13.596
277.28	10.917
277.65	11.983
278.02	11.064
278.39	10.066
278.76	10.482
279.13	8.299
279.50	10.294
279.87	11.879
280.23	10.108
280.60	13.255
280.97	10.909
281.34	9.808
281.71	13.552
282.08	9.611
282.45	9.589
282.82	12.548
283.19	11.992
283.56	12.524
283.92	9.298
284.29	12.115
284.66	9.884
285.03	10.806
285.40	10.019
285.77	8.787
286.14	11.191
286.51	11.993
286.87	8.410
287.24	9.208
287.61	10.406
287.98	10.000
288.35	10.225
288.72	10.683
289.08	10.590
289.45	9.666
289.82	9.790
290.19	9.215
290.56	10.120
290.93	10.606
291.29	9.553
291.66	10.551
292.03	10.048
292.40	9.355
292.77	8.931
293.13	7.468
293.50	7.891
293.87	10.840
294.24	9.274
294.60	10.134
294.97	8.780
295.34	8.589
295.71	8.048
296.08	7.922
296.44	6.117
296.81	8.194
297.18	10.435
297.55	8.943
297.91	8.356
298.28	9.631
298.65	8.005
299.02	8.221
299.38	6.977
299.75	9.103
300.12	8.246
300.48	7.510
300.85	8.238
301.22	8.182
301.59	7.500
301.95	8.734
302.32	8.560
302.69	8.333
303.05	6.683
303.42	8.593
303.79	8.995
304.15	9.916
304.52	6.421
304.89	6.433
305.25	7.748
305.62	7.701
305.99	8.070
306.35	7.977
306.72	6.749
307.09	6.613
307.45	6.774
307.82	7.755
308.19	7.317
308.55	8.070
308.92	10.131
309.29	7.151
309.65	8.181
310.02	7.701
310.38	7.794
310.75	8.743
311.12	6.781
311.48	7.635
311.85	7.225
312.22	8.122
312.58	8.705
312.95	7.150
313.31	7.453
313.68	6.387
314.05	7.653
314.41	8.660
314.78	7.835
315.14	10.175
315.51	8.696
315.87	8.402
316.24	8.291
316.61	8.563
316.97	9.722
317.34	8.203
317.70	7.361
318.07	8.558
318.43	9.118
318.80	9.280
319.16	9.277
319.53	9.687
319.89	7.972
320.26	9.413
320.62	9.930
320.99	7.933
321.35	9.558
321.72	9.657
322.08	10.070
322.45	10.761
322.81	10.904
323.18	9.715
323.54	9.749
323.91	9.348
324.27	9.082
324.64	10.206
325.00	11.131
325.37	12.121
325.73	11.333
326.10	11.172
326.46	12.108
326.83	11.724
327.19	11.595
327.56	12.424
327.92	12.588
328.29	11.964
328.65	12.358
329.01	12.592
329.38	13.456
329.74	11.331
330.11	13.994
330.47	12.616
330.84	13.654
331.20	15.209
331.56	13.796
331.93	13.516
332.29	14.207
332.66	13.394
333.02	14.684
333.38	13.291
333.75	14.560
334.11	13.876
334.48	15.231
334.84	14.377
335.20	14.364
335.57	14.506
335.93	15.086
336.29	15.470
336.66	14.532
337.02	13.941
337.38	13.611
337.75	15.545
338.11	15.329
338.47	15.420
338.84	14.048
339.20	15.539
339.56	13.945
339.93	14.682
340.29	15.780
340.65	14.695
341.02	14.894
341.38	16.283
341.74	13.781
342.11	13.865
342.47	15.658
342.83	14.446
343.20	14.983
343.56	15.130
343.92	14.526
344.28	17.165
344.65	15.630
345.01	15.990
345.37	15.223
345.73	16.318
346.10	16.825
346.46	15.559
346.82	15.466
347.19	15.129
347.55	16.291
347.91	15.615
348.27	15.198
348.63	16.014
349.00	16.079
349.36	15.628
349.72	16.998
350.08	16.148
350.45	15.323
350.81	15.365
351.17	15.309
351.53	16.408
351.89	15.690
352.26	15.120
352.62	15.645
352.98	15.663
353.34	16.103
353.70	16.586
354.07	16.048
354.43	15.773
354.79	15.277
355.15	17.778
355.51	16.535
355.87	16.343
356.24	14.845
356.60	16.087
356.96	17.063
357.32	16.294
357.68	16.341
358.04	15.509
358.40	16.238
358.77	17.544
359.13	15.132
359.49	15.871
359.85	16.615
360.21	16.826
360.57	16.220
360.93	17.171
361.29	15.559
361.66	16.536
362.02	16.212
362.38	17.746
362.74	16.805
363.10	17.381
363.46	16.012
363.82	18.482
364.18	16.458
364.54	17.353
364.90	16.918
365.26	17.322
365.62	17.810
365.98	17.962
366.35	19.009
366.71	17.295
367.07	17.925
367.43	17.110
367.79	16.466
368.15	18.880
368.51	18.718
368.87	17.803
369.23	17.978
369.59	17.201
369.95	18.475
370.31	18.353
370.67	17.239
371.03	18.148
371.39	17.870
371.75	18.168
372.11	18.474
372.47	18.491
372.83	18.737
373.19	18.973
373.55	18.051
373.91	19.510
374.27	19.348
374.63	18.737
374.99	18.652
375.35	18.175
375.71	20.070
376.07	18.961
376.42	18.231
376.78	18.859
377.14	20.311
377.50	19.522
377.86	20.214
378.22	18.953
378.58	19.679
378.94	19.786
379.30	20.337
379.66	19.624
380.02	19.375
380.38	19.294
380.74	19.988
381.09	20.736
381.45	19.388
381.81	20.666
382.17	20.114
382.53	19.800
382.89	19.711
383.25	20.100
383.61	20.915
383.97	19.746
384.32	20.200
384.68	20.929
385.04	20.159
385.40	20.411
385.76	21.635
386.12	20.699
386.48	21.648
386.83	20.926
387.19	20.940
387.55	22.208
387.91	21.883
388.27	20.574
388.62	21.838
388.98	21.608
389.34	21.861
389.70	22.188
390.06	20.894
390.42	21.826
390.77	21.714
391.13	22.068
391.49	22.445
391.85	22.417
392.20	22.536
392.56	22.060
392.92	22.490
393.28	22.583
393.64	21.922
393.99	22.696
394.35	21.252
394.71	23.627
395.07	22.502
395.42	21.615
395.78	22.671
396.14	21.942
396.50	23.082
396.85	22.344
397.21	22.556
397.57	22.821
397.92	22.588
398.28	22.356
398.64	22.169
399.00	22.630
399.35	22.348
399.71	23.033
400.07	23.035
400.42	22.521
400.78	23.821
401.14	23.533
401.49	23.645
401.85	22.121
402.21	22.410
402.57	23.312
402.92	22.585
403.28	23.308
403.63	22.446
403.99	23.023
404.35	23.985
404.70	22.262
405.06	22.620
405.42	23.058
405.77	22.777
406.13	22.817
406.49	22.202
406.84	23.655
407.20	23.119
407.55	23.052
407.91	22.660
408.27	23.837
408.62	24.677
408.98	23.167
409.34	23.110
409.69	23.062
410.05	22.906
410.40	24.012
410.76	23.462
411.11	22.937
411.47	23.734
411.83	23.101
412.18	23.359
412.54	22.409
412.89	23.030
413.25	23.646
413.60	23.665
413.96	22.883
414.31	23.598
414.67	23.220
415.03	23.569
415.38	22.258
415.74	24.169
416.09	24.233
416.45	23.903
416.80	24.389
417.16	24.102
417.51	24.450
417.87	23.664
418.22	23.510
418.58	23.612
418.93	24.514
419.29	22.855
419.64	23.526
420.00	25.315
420.35	24.179
420.71	23.998
421.06	23.327
421.42	23.738
421.77	23.353
422.12	23.893
422.48	24.201
422.83	24.710
423.19	24.210
423.54	23.692
423.90	23.439
424.25	25.144
424.61	24.725
424.96	24.506
425.31	25.014
425.67	25.293
426.02	24.441
426.38	25.485
426.73	25.424
427.09	25.759
427.44	24.765
427.79	24.632
428.15	25.303
428.50	24.652
428.85	24.570
429.21	24.788
429.56	25.337
429.92	25.629
430.27	24.712
430.62	23.523
430.98	24.204
431.33	25.131
431.68	23.967
432.04	25.321
432.39	24.758
432.74	24.775
433.10	25.862
433.45	25.090
433.80	25.015
434.16	23.934
434.51	24.677
434.86	24.623
435.22	25.014
435.57	25.016
435.92	25.868
436.28	24.747
436.63	24.415
436.98	24.739
437.34	25.348
437.69	26.178
438.04	25.128
438.39	25.229
438.75	25.076
439.10	24.618
439.45	25.806
439.81	24.893
440.16	26.128
440.51	26.985
440.86	25.801
441.22	24.661
441.57	25.552
441.92	25.918
442.27	25.998
442.63	26.124
442.98	25.732
443.33	25.431
443.68	25.146
444.03	26.130
444.39	25.824
444.74	26.143
445.09	25.612
445.44	26.211
445.79	26.457
446.15	26.211
446.50	25.568
446.85	26.567
447.20	25.965
447.55	27.009
447.91	25.324
448.26	26.010
448.61	25.619
448.96	25.990
449.31	26.012
449.66	26.597
450.02	26.127
450.37	26.556
450.72	25.830
451.07	26.962
451.42	26.592
451.77	25.618
452.12	25.658
452.47	25.757
452.83	26.207
453.18	25.237
453.53	26.865
453.88	26.290
454.23	26.490
454.58	25.882
454.93	25.838
455.28	24.889
455.63	26.720
455.98	26.037
456.34	25.926
456.69	26.747
457.04	26.465
457.39	26.488
457.74	25.333
458.09	25.250
458.44	25.395
458.79	24.874
459.14	26.831
459.49	26.627
459.84	26.960
460.19	25.850
460.54	27.567
460.89	26.989
461.24	27.143
461.59	26.841
461.94	26.038
462.29	27.201
462.64	27.641
462.99	27.488
463.34	25.800
463.69	26.255
464.04	27.361
464.39	26.622
464.74	26.135
465.09	26.263
465.44	26.255
465.79	25.567
466.14	26.739
466.49	26.337
466.84	27.008
467.19	27.034
467.54	26.820
467.89	26.153
468.24	26.399
468.59	27.746
468.94	26.857
469.29	27.016
469.64	26.931
469.99	27.680
470.34	27.167
470.68	27.964
471.03	27.884
471.38	27.461
471.73	27.381
472.08	26.934
472.43	27.114
472.78	27.005
473.13	27.007
473.48	26.710
473.83	26.775
474.17	27.396
474.52	27.058
474.87	27.091
475.22	27.639
475.57	27.273
475.92	26.714
476.27	27.823
476.61	27.778
476.96	26.548
477.31	27.745
477.66	26.798
478.01	26.390
478.36	26.144
478.70	27.461
479.05	27.802
479.40	27.133
479.75	25.860
480.10	25.960
480.45	26.550
480.79	27.895
481.14	27.818
481.49	26.207
481.84	28.234
482.19	27.081
482.53	27.002
482.88	27.637
483.23	27.591
483.58	26.274
483.92	26.960
484.27	26.572
484.62	27.028
484.97	26.866
485.31	26.192
485.66	25.013
486.01	24.101
486.36	24.069
486.70	24.793
487.05	25.597
487.40	26.163
487.75	26.085
488.09	26.452
488.44	27.132
488.79	27.867
489.13	28.566
489.48	27.448
489.83	27.623
490.17	27.371
490.52	27.760
490.87	27.348
491.22	27.937
491.56	27.751
491.91	28.633
492.26	26.689
492.60	27.879
492.95	28.578
493.30	26.771
493.64	28.291
493.99	27.923
494.34	27.524
494.68	28.238
495.03	27.494
495.37	27.821
495.72	28.319
496.07	27.902
496.41	27.877
496.76	27.821
497.11	28.039
497.45	29.117
497.80	29.062
498.14	28.117
498.49	26.917
498.84	28.493
499.18	28.514
499.53	27.728
499.87	27.432
500.22	27.893
500.56	27.988
500.91	27.460
501.26	26.891
501.60	28.185
501.95	28.724
502.29	28.184
502.64	28.523
502.98	29.107
503.33	27.426
503.67	27.566
504.02	28.152
504.36	29.144
504.71	27.677
505.06	28.837
505.40	27.817
505.75	29.227
506.09	28.586
506.44	29.363
506.78	28.520
507.13	28.697
507.47	28.512
507.82	28.205
508.16	28.843
508.51	29.381
508.85	29.880
509.19	28.579
509.54	29.651
509.88	29.288
510.23	29.155
510.57	29.236
510.92	28.518
511.26	29.078
511.61	29.868
511.95	30.575
512.30	28.991
512.64	29.494
512.98	29.422
513.33	30.274
513.67	29.051
514.02	30.320
514.36	30.800
514.70	30.594
515.05	30.200
515.39	30.638
515.74	30.599
516.08	30.604
516.42	31.625
516.77	30.486
517.11	30.801
517.46	29.743
517.80	31.466
518.14	30.496
518.49	29.507
518.83	31.106
519.17	30.261
519.52	30.787
519.86	30.312
520.20	30.802
520.55	30.206
520.89	31.430
521.23	31.476
521.58	32.240
521.92	31.474
522.26	31.230
522.61	32.273
522.95	32.318
523.29	31.004
523.64	31.512
523.98	31.756
524.32	30.928
524.66	32.522
525.01	31.364
525.35	32.145
525.69	31.044
526.04	31.283
526.38	33.268
526.72	31.720
527.06	31.258
527.41	31.794
527.75	31.166
528.09	30.565
528.43	33.356
528.78	31.353
529.12	31.806
529.46	30.799
529.80	31.412
530.15	33.531
530.49	31.650
530.83	33.105
531.17	32.304
531.51	31.532
531.86	31.951
532.20	32.220
532.54	31.995
532.88	32.786
533.22	32.997
533.57	31.651
533.91	31.789
534.25	31.836
534.59	30.981
534.93	30.711
535.27	31.155
535.62	31.043
535.96	31.050
536.30	32.454
536.64	32.047
536.98	32.822
537.32	32.859
537.66	34.292
538.01	32.308
538.35	31.553
538.69	31.625
539.03	31.442
539.37	32.100
539.71	32.038
540.05	31.500
540.39	32.133
540.73	33.124
541.07	31.906
541.42	32.460
541.76	33.310
542.10	32.829
542.44	32.592
542.78	29.869
543.12	31.387
543.46	32.615
543.80	31.922
544.14	31.308
544.48	32.645
544.82	33.288
545.16	33.333
545.50	32.510
545.84	32.578
546.18	32.695
546.52	32.949
546.86	33.285
547.20	33.906
547.54	30.742
547.88	32.473
548.22	31.361
548.56	30.673
548.90	32.884
549.24	31.887
549.58	32.793
549.92	31.737
550.26	32.527
550.60	33.086
550.94	33.532
551.28	34.235
551.62	33.846
551.96	33.308
552.30	33.041
552.64	32.158
552.98	33.474
553.32	32.668
553.66	33.091
554.00	33.504
554.34	33.013
554.68	32.375
555.02	33.854
555.36	33.358
555.69	33.553
556.03	32.405
556.37	31.744
556.71	33.357
557.05	34.303
557.39	32.639
557.73	34.333
558.07	34.314
558.41	34.686
558.75	33.203
559.08	34.200
559.42	35.556
559.76	33.227
560.10	34.021
560.44	33.358
560.78	33.217
561.12	33.075
561.45	33.240
561.79	33.824
562.13	33.712
562.47	33.094
562.81	33.357
563.15	33.286
563.48	33.451
563.82	33.150
564.16	32.939
564.50	32.568
564.84	32.865
565.17	32.327
565.51	34.085
565.85	33.608
566.19	31.897
566.52	32.306
566.86	33.033
567.20	32.130
567.54	31.813
567.88	33.040
568.21	32.353
568.55	30.761
568.89	31.314
569.23	31.054
569.56	29.991
569.90	30.410
570.24	28.880
570.57	29.200
570.91	29.313
571.25	28.412
571.59	28.216
571.92	27.911
572.26	27.989
572.60	28.589
572.93	28.961
573.27	27.994
573.61	28.789
573.95	28.345
574.28	27.622
574.62	27.282
574.96	27.375
575.29	27.713
575.63	27.313
575.97	27.785
576.30	28.451
576.64	27.815
576.98	28.005
577.31	27.378
577.65	27.729
577.98	27.092
578.32	27.362
578.66	27.144
578.99	27.562
579.33	27.504
579.67	27.429
580.00	28.000
580.34	28.010
580.67	27.498
581.01	27.233
581.35	27.218
581.68	27.101
582.02	26.904
582.35	26.741
582.69	27.191
583.02	27.644
583.36	27.845
583.70	28.167
584.03	28.969
584.37	29.701
584.70	28.764
585.04	27.746
585.37	27.617
585.71	27.722
586.04	27.358
586.38	27.661
586.72	28.207
587.05	28.307
587.39	27.845
587.72	28.486
588.06	28.813
588.39	28.596
588.73	29.090
589.06	29.778
589.40	29.347
589.73	30.047
590.07	30.287
590.40	30.302
590.73	30.313
591.07	30.958
591.40	30.276
591.74	30.226
592.07	30.519
592.41	30.875
592.74	29.869
593.08	28.222
593.41	28.501
593.75	28.623
594.08	28.321
594.41	29.949
594.75	28.779
595.08	29.171
595.42	29.481
595.75	29.178
596.09	30.063
596.42	30.839
596.75	31.483
597.09	30.478
597.42	30.623
597.75	30.967
598.09	30.149
598.42	30.641
598.76	29.816
599.09	30.248
599.42	28.685
599.76	29.044
600.09	28.997
600.42	28.923
600.76	28.343
601.09	29.389
601.42	29.495
601.76	29.536
602.09	30.569
602.42	30.666
602.76	30.178
603.09	30.606
603.42	30.978
603.76	29.798
604.09	29.769
604.42	30.753
604.76	31.197
605.09	31.124
605.42	30.745
605.75	30.166
606.09	30.021
606.42	29.983
606.75	29.784
607.09	31.165
607.42	30.084
607.75	29.618
608.08	30.413
608.42	30.745
608.75	31.325
609.08	31.589
609.41	32.183
609.75	31.603
610.08	31.453
610.41	30.870
610.74	30.570
611.07	30.853
611.41	32.122
611.74	32.569
612.07	30.996
612.40	32.057
612.73	32.712
613.07	31.834
613.40	32.495
613.73	32.513
614.06	32.610
614.39	32.092
614.72	32.157
615.06	32.123
615.39	31.059
615.72	31.109
616.05	32.793
616.38	31.738
616.71	32.294
617.05	33.292
617.38	32.370
617.71	33.208
618.04	34.159
618.37	33.607
618.70	33.663
619.03	34.653
619.36	33.502
619.69	35.027
620.03	35.573
620.36	33.977
620.69	34.832
621.02	34.862
621.35	36.432
621.68	37.245
622.01	36.583
622.34	36.153
622.67	33.675
623.00	34.763
623.33	35.137
623.66	34.630
623.99	34.418
624.32	35.437
624.65	33.459
624.99	34.688
625.32	34.420
625.65	35.192
625.98	35.052
626.31	35.328
626.64	37.435
626.97	37.173
627.30	37.040
627.63	36.395
627.96	35.939
628.29	37.280
628.62	38.840
628.95	38.878
629.28	39.718
629.61	37.288
629.94	37.634
630.26	38.834
630.59	40.166
630.92	37.538
631.25	38.564
631.58	39.207
631.91	39.035
632.24	38.188
632.57	39.773
632.90	39.383
633.23	39.059
633.56	40.428
633.89	39.704
634.22	42.346
634.55	41.042
634.88	41.635
635.20	40.256
635.53	40.667
635.86	39.922
636.19	41.397
