SpectraSuite Data File
++++++++++++++++++++++++++++++++++++
Date: Fri May 15 17:15:46 PDT 2015
User: schluterlab
Dark Spectrum Present: Yes
Reference Spectrum Present: Yes
Number of Sampled Component Spectra: 1
Spectrometers: USB2E3373
Integration Time (usec): 3000 (USB2E3373)
Spectra Averaged: 3 (USB2E3373)
Boxcar Smoothing: 0 (USB2E3373)
Correct for Electrical Dark: No (USB2E3373)
Strobe/Lamp Enabled: No (USB2E3373)
Correct for Detector Non-linearity: No (USB2E3373)
Correct for Stray Light: No (USB2E3373)
Number of Pixels in Processed Spectrum: 2048
>>>>>Begin Processed Spectral Data<<<<<
178.53	0.000
178.91	0.000
179.29	125.000
179.67	-250.000
180.04	-85.714
180.42	150.000
180.80	-400.000
181.18	-33.333
181.56	-0.000
181.94	600.000
182.31	-200.000
182.69	160.000
183.07	500.000
183.45	-60.000
183.83	83.333
184.20	90.909
184.58	-0.000
184.96	-200.000
185.34	-133.333
185.72	-50.000
186.09	-30.769
186.47	-600.000
186.85	83.333
187.23	-0.000
187.61	-1400.000
187.98	166.667
188.36	133.333
188.74	0.000
189.12	-11.765
189.49	55.556
189.87	0.000
190.25	128.571
190.63	350.000
191.00	-200.000
191.38	21.053
191.76	850.000
192.14	-75.000
192.51	300.000
192.89	44.444
193.27	100.000
193.65	116.667
194.02	45.455
194.40	60.000
194.78	-37.500
195.15	-8.333
195.53	12.500
195.91	100.000
196.29	50.000
196.66	-7.692
197.04	-14.286
197.42	44.444
197.79	-433.333
198.17	-53.846
198.55	-200.000
198.92	-200.000
199.30	100.000
199.68	80.000
200.05	0.000
200.43	0.000
200.81	133.333
201.18	166.667
201.56	400.000
201.94	-200.000
202.31	-266.667
202.69	-40.000
203.07	-75.000
203.44	1700.000
203.82	0.000
204.19	114.286
204.57	-333.333
204.95	-12.500
205.32	10.000
205.70	57.143
206.08	25.000
206.45	266.667
206.83	35.714
207.20	57.143
207.58	-100.000
207.96	66.667
208.33	20.000
208.71	150.000
209.08	-266.667
209.46	900.000
209.84	0.000
210.21	-200.000
210.59	71.429
210.96	233.333
211.34	0.000
211.71	33.333
212.09	-14.286
212.46	-900.000
212.84	0.000
213.22	150.000
213.59	100.000
213.97	53.846
214.34	81.818
214.72	116.667
215.09	125.000
215.47	38.462
215.84	-72.727
216.22	100.000
216.59	62.500
216.97	-150.000
217.34	50.000
217.72	-120.000
218.09	162.500
218.47	112.500
218.84	700.000
219.22	33.333
219.59	0.000
219.97	133.333
220.34	175.000
220.72	100.000
221.09	-50.000
221.47	450.000
221.84	150.000
222.22	-550.000
222.59	27.273
222.97	100.000
223.34	300.000
223.72	42.857
224.09	23.810
224.46	14.286
224.84	166.667
225.21	-30.000
225.59	73.333
225.96	350.000
226.34	75.000
226.71	-14.286
227.08	150.000
227.46	-12.500
227.83	-200.000
228.21	88.889
228.58	72.727
228.95	75.000
229.33	20.000
229.70	118.750
230.08	-25.000
230.45	-85.714
230.82	114.286
231.20	6.667
231.57	21.429
231.95	128.571
232.32	-30.000
232.69	85.714
233.07	-33.333
233.44	0.000
233.81	-40.000
234.19	-44.444
234.56	-23.529
234.93	100.000
235.31	150.000
235.68	-80.000
236.05	-53.846
236.43	-5.000
236.80	29.412
237.17	25.000
237.55	20.000
237.92	0.000
238.29	5.556
238.67	33.333
239.04	5.882
239.41	-48.780
239.79	-23.333
240.16	12.195
240.53	-21.053
240.91	-13.043
241.28	6.349
241.65	12.500
242.02	10.959
242.40	8.333
242.77	3.390
243.14	-1.515
243.51	1.250
243.89	19.540
244.26	2.299
244.63	3.571
245.00	13.402
245.38	-1.031
245.75	-2.247
246.12	1.724
246.49	9.091
246.87	0.962
247.24	-2.521
247.61	-4.386
247.98	0.000
248.36	1.250
248.73	3.947
249.10	5.195
249.47	2.532
249.84	3.922
250.22	1.176
250.59	-2.614
250.96	10.329
251.33	-1.744
251.70	7.647
252.08	-2.030
252.45	0.495
252.82	3.015
253.19	3.687
253.56	-3.271
253.94	3.604
254.31	2.609
254.68	6.140
255.05	-0.787
255.42	1.310
255.79	2.703
256.16	5.058
256.54	1.866
256.91	-1.141
257.28	4.089
257.65	2.247
258.02	-3.191
258.39	4.040
258.76	2.930
259.14	4.651
259.51	4.531
259.88	3.436
260.25	5.229
260.62	2.431
260.99	1.356
261.36	-1.370
261.73	-1.899
262.10	2.432
262.47	0.613
262.85	0.000
263.22	4.000
263.59	2.181
263.96	3.727
264.33	1.818
264.70	-2.083
265.07	-1.488
265.44	3.683
265.81	2.260
266.18	2.186
266.55	3.599
266.92	3.109
267.29	2.089
267.66	0.000
268.03	1.571
268.40	3.916
268.77	4.545
269.14	2.398
269.51	3.856
269.88	1.995
270.25	1.276
270.62	3.171
270.99	0.512
271.36	-1.711
271.73	5.399
272.10	0.730
272.47	2.364
272.84	1.485
273.21	1.856
273.58	1.928
273.95	2.059
274.32	1.617
274.69	2.489
275.06	2.009
275.43	-0.454
275.80	3.974
276.17	0.920
276.54	0.857
276.91	3.289
277.28	-0.873
277.65	1.860
278.02	1.277
278.39	-1.094
278.76	1.468
279.13	-2.075
279.50	2.101
279.87	3.672
280.23	-0.645
280.60	4.678
280.97	1.212
281.34	2.115
281.71	3.080
282.08	2.249
282.45	0.783
282.82	0.965
283.19	2.708
283.56	2.890
283.92	0.000
284.29	3.077
284.66	-0.388
285.03	0.000
285.40	1.701
285.77	1.757
286.14	-0.181
286.51	1.661
286.87	1.828
287.24	1.105
287.61	0.000
287.98	4.035
288.35	-1.386
288.72	2.452
289.08	0.868
289.45	1.933
289.82	2.448
290.19	-0.512
290.56	1.029
290.93	-0.337
291.29	2.311
291.66	2.520
292.03	1.595
292.40	0.806
292.77	-0.957
293.13	-0.325
293.50	-1.214
293.87	2.290
294.24	2.164
294.60	2.534
294.97	2.381
295.34	0.460
295.71	1.490
296.08	0.897
296.44	-1.138
296.81	1.111
297.18	1.014
297.55	3.659
297.91	0.959
298.28	2.902
298.65	1.628
299.02	1.752
299.38	-0.958
299.75	1.241
300.12	1.832
300.48	1.186
300.85	2.155
301.22	0.130
301.59	0.658
301.95	2.152
302.32	2.983
302.69	1.990
303.05	0.371
303.42	0.747
303.79	2.570
304.15	2.270
304.52	2.021
304.89	0.936
305.25	1.211
305.62	2.567
305.99	0.936
306.35	0.462
306.72	0.900
307.09	0.570
307.45	1.033
307.82	1.273
308.19	0.697
308.55	0.763
308.92	1.961
309.29	-0.447
309.65	0.861
310.02	0.660
310.38	1.647
310.75	1.639
311.12	2.799
311.48	0.742
311.85	2.199
312.22	0.527
312.58	0.955
312.95	0.640
313.31	0.207
313.68	1.361
314.05	1.633
314.41	1.959
314.78	1.856
315.14	3.186
315.51	1.967
315.87	0.512
316.24	3.134
316.61	2.657
316.97	2.679
317.34	1.660
317.70	3.155
318.07	2.212
318.43	2.255
318.80	2.652
319.16	3.809
319.53	4.843
319.89	3.937
320.26	3.846
320.62	4.714
320.99	4.071
321.35	4.008
321.72	6.231
322.08	5.539
322.45	7.005
322.81	6.483
323.18	5.594
323.54	6.081
323.91	6.816
324.27	8.594
324.64	7.865
325.00	9.033
325.37	9.917
325.73	8.704
326.10	9.900
326.46	10.942
326.83	11.374
327.19	11.421
327.56	12.163
327.92	11.796
328.29	12.054
328.65	14.245
329.01	14.063
329.38	14.931
329.74	14.070
330.11	12.975
330.47	14.378
330.84	15.096
331.20	17.015
331.56	17.222
331.93	16.256
332.29	17.690
332.66	18.281
333.02	17.937
333.38	17.965
333.75	18.407
334.11	18.174
334.48	19.855
334.84	19.414
335.20	21.134
335.57	18.858
335.93	19.241
336.29	20.442
336.66	20.254
337.02	19.888
337.38	19.444
337.75	20.909
338.11	21.100
338.47	22.810
338.84	21.534
339.20	21.115
339.56	22.385
339.93	21.844
340.29	22.110
340.65	21.505
341.02	21.897
341.38	21.947
341.74	21.025
342.11	22.184
342.47	23.043
342.83	21.972
343.20	22.300
343.56	22.087
343.92	22.055
344.28	23.570
344.65	21.330
345.01	23.423
345.37	22.288
345.73	23.431
346.10	23.641
346.46	22.372
346.82	22.831
347.19	22.943
347.55	22.139
347.91	23.058
348.27	22.635
348.63	22.998
349.00	22.642
349.36	24.023
349.72	23.798
350.08	22.951
350.45	22.666
350.81	22.425
351.17	22.801
351.53	23.837
351.89	21.965
352.26	22.560
352.62	24.194
352.98	21.446
353.34	23.027
353.70	24.676
354.07	23.790
354.43	23.139
354.79	23.287
355.15	23.413
355.51	24.446
355.87	23.786
356.24	23.491
356.60	24.495
356.96	23.730
357.32	22.923
357.68	24.316
358.04	23.102
358.40	23.875
358.77	24.083
359.13	23.859
359.49	23.421
359.85	24.103
360.21	23.764
360.57	24.254
360.93	23.525
361.29	22.508
361.66	24.060
362.02	24.621
362.38	25.514
362.74	24.224
363.10	24.755
363.46	24.759
363.82	25.695
364.18	24.945
364.54	23.824
364.90	24.444
365.26	25.109
365.62	25.985
365.98	25.367
366.35	25.200
366.71	26.386
367.07	25.980
367.43	25.018
367.79	24.594
368.15	26.346
368.51	25.637
368.87	25.341
369.23	25.343
369.59	26.458
369.95	26.833
370.31	26.517
370.67	25.448
371.03	26.064
371.39	26.842
371.75	26.300
372.11	26.391
372.47	26.553
372.83	27.750
373.19	27.389
373.55	27.004
373.91	26.926
374.27	27.569
374.63	27.064
374.99	27.447
375.35	28.064
375.71	27.552
376.07	26.826
376.42	28.571
376.78	27.114
377.14	27.420
377.50	28.021
377.86	28.648
378.22	28.590
378.58	28.205
378.94	27.725
379.30	27.760
379.66	30.157
380.02	28.571
380.38	28.119
380.74	28.845
381.09	29.387
381.45	28.502
381.81	30.660
382.17	29.378
382.53	29.232
382.89	29.379
383.25	30.554
383.61	29.512
383.97	30.413
384.32	29.456
384.68	30.217
385.04	29.412
385.40	29.309
385.76	30.818
386.12	30.595
386.48	30.587
386.83	30.501
387.19	30.586
387.55	30.552
387.91	30.807
388.27	30.342
388.62	30.963
388.98	31.123
389.34	31.480
389.70	30.143
390.06	30.459
390.42	30.246
390.77	31.328
391.13	29.760
391.49	31.501
391.85	31.124
392.20	30.571
392.56	30.642
392.92	30.828
393.28	30.896
393.64	30.751
393.99	32.727
394.35	31.815
394.71	31.034
395.07	31.678
395.42	30.540
395.78	32.052
396.14	31.526
396.50	31.579
396.85	31.938
397.21	32.206
397.57	30.909
397.92	32.295
398.28	31.034
398.64	30.723
399.00	31.490
399.35	31.603
399.71	31.591
400.07	31.923
400.42	32.313
400.78	32.456
401.14	31.639
401.49	31.328
401.85	31.810
402.21	31.325
402.57	31.250
402.92	31.117
403.28	31.579
403.63	31.841
403.99	31.250
404.35	32.854
404.70	30.774
405.06	30.200
405.42	30.827
405.77	30.854
406.13	30.792
406.49	31.498
406.84	31.846
407.20	32.511
407.55	31.552
407.91	31.484
408.27	31.421
408.62	31.938
408.98	31.115
409.34	32.032
409.69	31.912
410.05	31.034
410.40	31.420
410.76	31.846
411.11	32.062
411.47	31.690
411.83	31.011
412.18	31.145
412.54	31.835
412.89	31.712
413.25	31.769
413.60	31.366
413.96	31.779
414.31	31.646
414.67	32.713
415.03	30.892
415.38	30.809
415.74	32.378
416.09	32.397
416.45	31.398
416.80	32.849
417.16	31.906
417.51	31.779
417.87	31.160
418.22	32.513
418.58	32.977
418.93	33.668
419.29	30.986
419.64	31.497
420.00	32.935
420.35	32.060
420.71	33.475
421.06	32.106
421.42	33.053
421.77	33.757
422.12	31.385
422.48	32.648
422.83	33.295
423.19	33.521
423.54	32.158
423.90	32.862
424.25	32.836
424.61	34.578
424.96	33.043
425.31	35.066
425.67	33.979
426.02	34.452
426.38	34.565
426.73	34.019
427.09	34.684
427.44	34.059
427.79	33.883
428.15	34.466
428.50	34.949
428.85	33.292
429.21	35.088
429.56	35.418
429.92	35.028
430.27	32.882
430.62	34.449
430.98	34.926
431.33	34.858
431.68	34.642
432.04	35.439
432.39	35.425
432.74	34.516
433.10	36.207
433.45	35.125
433.80	36.390
434.16	34.903
434.51	35.161
434.86	35.482
435.22	36.063
435.57	36.619
435.92	36.707
436.28	35.122
436.63	36.623
436.98	34.820
437.34	37.145
437.69	36.673
438.04	37.607
438.39	36.103
438.75	36.855
439.10	36.559
439.45	37.249
439.81	37.676
440.16	38.183
440.51	37.313
440.86	38.127
441.22	36.991
441.57	37.969
441.92	37.303
442.27	37.472
442.63	37.794
442.98	36.990
443.33	36.672
443.68	35.968
444.03	37.009
444.39	37.088
444.74	38.517
445.09	38.140
445.44	37.436
445.79	38.319
446.15	37.500
446.50	36.328
446.85	38.310
447.20	38.686
447.55	37.779
447.91	38.522
448.26	38.589
448.61	38.400
448.96	38.612
449.31	39.191
449.66	38.966
450.02	39.076
450.37	38.115
450.72	38.603
451.07	38.544
451.42	38.077
451.77	38.577
452.12	37.739
452.47	39.086
452.83	38.104
453.18	39.152
453.53	38.496
453.88	39.223
454.23	38.414
454.58	38.791
454.93	39.304
455.28	37.587
455.63	38.810
455.98	39.327
456.34	40.549
456.69	38.882
457.04	40.202
457.39	38.275
457.74	38.089
458.09	37.316
458.44	39.263
458.79	37.703
459.14	39.188
459.49	39.343
459.84	38.071
460.19	39.745
460.54	40.709
460.89	39.602
461.24	39.814
461.59	39.014
461.94	39.308
462.29	39.324
462.64	39.468
462.99	40.217
463.34	39.013
463.69	38.674
464.04	40.194
464.39	39.175
464.74	38.344
465.09	39.800
465.44	40.335
465.79	38.549
466.14	39.852
466.49	38.988
466.84	39.203
467.19	39.487
467.54	39.208
467.89	38.850
468.24	38.808
468.59	39.556
468.94	39.175
469.29	39.803
469.64	39.166
469.99	40.715
470.34	39.932
470.68	41.312
471.03	40.835
471.38	40.086
471.73	40.126
472.08	39.959
472.43	41.074
472.78	40.096
473.13	40.884
473.48	40.782
473.83	40.037
474.17	40.220
474.52	39.821
474.87	40.970
475.22	39.231
475.57	39.469
475.92	39.660
476.27	40.745
476.61	40.046
476.96	39.766
477.31	40.671
477.66	41.236
478.01	40.090
478.36	39.488
478.70	40.729
479.05	40.604
479.40	40.223
479.75	40.146
480.10	40.348
480.45	40.700
480.79	40.584
481.14	40.779
481.49	39.064
481.84	40.154
482.19	39.944
482.53	41.583
482.88	40.048
483.23	39.779
483.58	40.189
483.92	39.351
484.27	40.337
484.62	39.892
484.97	39.138
485.31	38.801
485.66	37.641
486.01	37.694
486.36	36.688
486.70	36.919
487.05	37.391
487.40	38.159
487.75	38.620
488.09	38.164
488.44	38.824
488.79	40.120
489.13	40.665
489.48	40.402
489.83	40.717
490.17	40.584
490.52	40.924
490.87	39.981
491.22	41.786
491.56	40.655
491.91	39.101
492.26	41.176
492.60	40.403
492.95	41.466
493.30	40.449
493.64	41.503
493.99	40.725
494.34	40.874
494.68	40.857
495.03	41.022
495.37	41.217
495.72	41.595
496.07	42.390
496.41	40.613
496.76	41.363
497.11	39.683
497.45	41.671
497.80	41.826
498.14	40.437
498.49	41.849
498.84	41.766
499.18	41.767
499.53	40.675
499.87	41.488
500.22	41.691
500.56	41.553
500.91	40.763
501.26	41.127
501.60	40.876
501.95	41.291
502.29	40.581
502.64	40.734
502.98	41.293
503.33	41.547
503.67	41.398
504.02	41.544
504.36	42.306
504.71	41.667
505.06	41.168
505.40	40.305
505.75	42.680
506.09	41.054
506.44	42.094
506.78	43.010
507.13	41.107
507.47	40.731
507.82	41.934
508.16	41.416
508.51	41.973
508.85	42.072
509.19	42.629
509.54	41.984
509.88	42.395
510.23	43.410
510.57	43.292
510.92	42.271
511.26	42.008
511.61	42.849
511.95	42.795
512.30	42.184
512.64	42.460
512.98	43.122
513.33	44.096
513.67	42.865
514.02	45.881
514.36	43.257
514.70	43.473
515.05	43.478
515.39	43.861
515.74	44.371
516.08	43.814
516.42	44.582
516.77	45.348
517.11	43.145
517.46	43.387
517.80	44.219
518.14	44.703
518.49	42.969
518.83	44.350
519.17	43.542
519.52	42.688
519.86	43.697
520.20	44.471
520.55	43.277
520.89	44.291
521.23	44.649
521.58	44.984
521.92	45.128
522.26	45.218
522.61	44.351
522.95	45.430
523.29	45.044
523.64	44.981
523.98	45.366
524.32	44.781
524.66	45.070
525.01	44.805
525.35	43.876
525.69	45.724
526.04	45.106
526.38	45.655
526.72	44.016
527.06	44.877
527.41	46.174
527.75	43.365
528.09	45.116
528.43	46.658
528.78	44.950
529.12	45.548
529.46	43.795
529.80	43.952
530.15	45.413
530.49	45.253
530.83	45.075
531.17	45.668
531.51	45.349
531.86	45.003
532.20	44.398
532.54	44.384
532.88	45.996
533.22	44.556
533.57	43.316
533.91	44.582
534.25	45.443
534.59	44.580
534.93	44.682
535.27	43.718
535.62	44.135
535.96	45.010
536.30	45.185
536.64	44.176
536.98	45.436
537.32	45.235
537.66	46.564
538.01	45.175
538.35	45.076
538.69	44.274
539.03	44.703
539.37	45.155
539.71	44.376
540.05	43.788
540.39	44.875
540.73	44.770
541.07	43.854
541.42	44.288
541.76	45.217
542.10	45.286
542.44	45.865
542.78	44.047
543.12	43.269
543.46	44.576
543.80	44.552
544.14	42.523
544.48	44.237
544.82	44.429
545.16	46.243
545.50	45.661
545.84	46.459
546.18	46.099
546.52	45.350
546.86	46.154
547.20	45.637
547.54	44.170
547.88	44.497
548.22	43.655
548.56	43.536
548.90	44.677
549.24	44.284
549.58	44.499
549.92	45.032
550.26	44.908
550.60	45.428
550.94	46.751
551.28	46.059
551.62	46.385
551.96	46.015
552.30	45.614
552.64	45.557
552.98	44.585
553.32	44.864
553.66	44.412
554.00	46.861
554.34	46.233
554.68	45.206
555.02	45.387
555.36	45.924
555.69	44.982
556.03	46.181
556.37	44.840
556.71	45.199
557.05	45.190
557.39	45.204
557.73	47.001
558.07	46.003
558.41	44.946
558.75	46.454
559.08	46.809
559.42	47.460
559.76	46.597
560.10	45.336
560.44	46.984
560.78	45.245
561.12	45.557
561.45	45.397
561.79	44.818
562.13	46.629
562.47	45.396
562.81	45.533
563.15	44.781
563.48	46.110
563.82	46.397
564.16	45.543
564.50	45.270
564.84	45.047
565.17	44.735
565.51	46.585
565.85	46.982
566.19	44.695
566.52	45.576
566.86	45.823
567.20	45.517
567.54	45.255
567.88	44.991
568.21	44.966
568.55	44.511
568.89	43.532
569.23	43.380
569.56	41.769
569.90	41.332
570.24	40.640
570.57	41.745
570.91	40.920
571.25	39.921
571.59	39.583
571.92	39.407
572.26	39.734
572.60	40.000
572.93	39.944
573.27	40.125
573.61	39.021
573.95	39.186
574.28	38.612
574.62	38.317
574.96	38.394
575.29	38.566
575.63	37.937
575.97	39.496
576.30	38.769
576.64	38.623
576.98	39.356
577.31	38.658
577.65	39.083
577.98	38.335
578.32	37.894
578.66	37.503
578.99	38.535
579.33	37.897
579.67	38.632
580.00	38.582
580.34	38.433
580.67	38.551
581.01	38.617
581.35	38.157
581.68	37.847
582.02	38.080
582.35	38.013
582.69	38.002
583.02	38.026
583.36	39.319
583.70	39.642
584.03	39.783
584.37	40.570
584.70	39.231
585.04	38.756
585.37	38.821
585.71	39.151
586.04	39.208
586.38	39.050
586.72	39.397
587.05	40.410
587.39	40.313
587.72	40.733
588.06	40.105
588.39	40.245
588.73	40.446
589.06	41.129
589.40	40.788
589.73	41.183
590.07	41.276
590.40	41.525
590.73	42.792
591.07	42.239
591.40	42.565
591.74	41.765
592.07	43.367
592.41	43.286
592.74	41.258
593.08	39.783
593.41	40.626
593.75	40.236
594.08	40.405
594.41	40.793
594.75	41.183
595.08	41.392
595.42	42.142
595.75	41.607
596.09	41.595
596.42	42.249
596.75	42.185
597.09	42.688
597.42	43.270
597.75	43.930
598.09	42.055
598.42	41.697
598.76	41.441
599.09	41.066
599.42	40.356
599.76	40.895
600.09	40.875
600.42	41.092
600.76	40.230
601.09	40.496
601.42	40.031
601.76	41.802
602.09	41.873
602.42	42.923
602.76	42.063
603.09	42.525
603.42	43.186
603.76	42.097
604.09	41.272
604.42	42.174
604.76	43.124
605.09	43.282
605.42	42.032
605.75	41.725
606.09	41.996
606.42	41.493
606.75	41.602
607.09	42.681
607.42	40.984
607.75	41.252
608.08	42.004
608.42	42.577
608.75	43.614
609.08	43.149
609.41	43.249
609.75	43.700
610.08	42.536
610.41	42.899
610.74	42.613
611.07	44.031
611.41	44.369
611.74	44.510
612.07	43.951
612.40	43.654
612.73	43.446
613.07	43.307
613.40	44.475
613.73	43.984
614.06	43.628
614.39	44.106
614.72	43.585
615.06	44.190
615.39	43.832
615.72	42.357
616.05	44.190
616.38	43.305
616.71	44.587
617.05	44.719
617.38	45.129
617.71	44.151
618.04	45.524
618.37	46.280
618.70	45.347
619.03	45.694
619.36	45.658
619.69	47.915
620.03	46.530
620.36	46.209
620.69	45.396
621.02	47.324
621.35	47.303
621.68	48.129
622.01	47.917
622.34	47.566
622.67	46.688
623.00	46.631
623.33	47.409
623.66	45.924
623.99	45.461
624.32	47.376
624.65	45.714
624.99	46.953
625.32	45.413
625.65	47.054
625.98	48.026
626.31	47.714
626.64	48.873
626.97	48.517
627.30	49.212
627.63	48.267
627.96	49.326
628.29	49.399
628.62	49.656
628.95	49.599
629.28	50.806
629.61	49.252
629.94	50.342
630.26	49.802
630.59	52.341
630.92	50.667
631.25	48.923
631.58	51.432
631.91	50.768
632.24	51.491
632.57	52.273
632.90	52.788
633.23	51.882
633.56	52.897
633.89	51.788
634.22	51.605
634.55	51.842
634.88	51.086
635.20	51.538
635.53	53.600
635.86	52.536
636.19	54.463
636.52	53.699
636.85	51.613
637.18	52.327
637.51	52.453
637.83	53.745
638.16	53.479
