SpectraSuite Data File
++++++++++++++++++++++++++++++++++++
Date: Fri May 15 17:12:58 PDT 2015
User: schluterlab
Dark Spectrum Present: Yes
Reference Spectrum Present: Yes
Number of Sampled Component Spectra: 1
Spectrometers: USB2E3373
Integration Time (usec): 3000 (USB2E3373)
Spectra Averaged: 3 (USB2E3373)
Boxcar Smoothing: 0 (USB2E3373)
Correct for Electrical Dark: No (USB2E3373)
Strobe/Lamp Enabled: No (USB2E3373)
Correct for Detector Non-linearity: No (USB2E3373)
Correct for Stray Light: No (USB2E3373)
Number of Pixels in Processed Spectrum: 2048
>>>>>Begin Processed Spectral Data<<<<<
178.53	0.000
178.91	0.000
179.29	212.500
179.67	50.000
180.04	-85.714
180.42	25.000
180.80	400.000
181.18	-300.000
181.56	200.000
181.94	-100.000
182.31	200.000
182.69	20.000
183.07	-233.333
183.45	20.000
183.83	-66.667
184.20	18.182
184.58	-22.222
184.96	-325.000
185.34	-100.000
185.72	-300.000
186.09	30.769
186.47	-700.000
186.85	83.333
187.23	-44.444
187.61	-600.000
187.98	-66.667
188.36	0.000
188.74	133.333
189.12	41.176
189.49	27.778
189.87	0.000
190.25	107.143
190.63	350.000
191.00	300.000
191.38	57.895
191.76	50.000
192.14	-150.000
192.51	700.000
192.89	11.111
193.27	-42.857
193.65	116.667
194.02	109.091
194.40	70.000
194.78	-125.000
195.15	8.333
195.53	-50.000
195.91	175.000
196.29	-25.000
196.66	30.769
197.04	14.286
197.42	22.222
197.79	-300.000
198.17	-76.923
198.55	100.000
198.92	-166.667
199.30	0.000
199.68	-20.000
200.05	-33.333
200.43	0.000
200.81	-100.000
201.18	100.000
201.56	-0.000
201.94	-150.000
202.31	100.000
202.69	40.000
203.07	-75.000
203.44	1100.000
203.82	0.000
204.19	128.571
204.57	-400.000
204.95	125.000
205.32	40.000
205.70	57.143
206.08	25.000
206.45	266.667
206.83	121.429
207.20	-14.286
207.58	100.000
207.96	66.667
208.33	-100.000
208.71	-75.000
209.08	-100.000
209.46	-400.000
209.84	-60.000
210.21	0.000
210.59	185.714
210.96	-33.333
211.34	25.000
211.71	93.333
212.09	-57.143
212.46	-1000.000
212.84	0.000
213.22	20.000
213.59	250.000
213.97	69.231
214.34	36.364
214.72	-83.333
215.09	325.000
215.47	-30.769
215.84	-36.364
216.22	0.000
216.59	-100.000
216.97	200.000
217.34	200.000
217.72	20.000
218.09	150.000
218.47	62.500
218.84	0.000
219.22	44.444
219.59	100.000
219.97	233.333
220.34	125.000
220.72	0.000
221.09	25.000
221.47	100.000
221.84	-200.000
222.22	-350.000
222.59	27.273
222.97	75.000
223.34	66.667
223.72	114.286
224.09	47.619
224.46	50.000
224.84	33.333
225.21	30.000
225.59	80.000
225.96	200.000
226.34	100.000
226.71	85.714
227.08	0.000
227.46	50.000
227.83	-200.000
228.21	88.889
228.58	54.545
228.95	0.000
229.33	-20.000
229.70	-18.750
230.08	-75.000
230.45	42.857
230.82	142.857
231.20	40.000
231.57	85.714
231.95	142.857
232.32	50.000
232.69	71.429
233.07	-433.333
233.44	40.000
233.81	40.000
234.19	133.333
234.56	5.882
234.93	-200.000
235.31	275.000
235.68	-140.000
236.05	-23.077
236.43	-55.000
236.80	47.059
237.17	28.125
237.55	-30.000
237.92	-11.111
238.29	2.778
238.67	30.000
239.04	-8.824
239.41	-2.439
239.79	-6.667
240.16	2.439
240.53	-5.263
240.91	-6.522
241.28	7.937
241.65	12.500
242.02	17.808
242.40	8.333
242.77	15.254
243.14	9.091
243.51	2.500
243.89	28.736
244.26	4.598
244.63	9.524
245.00	11.340
245.38	11.340
245.75	-7.865
246.12	1.724
246.49	2.479
246.87	8.654
247.24	-1.681
247.61	0.877
247.98	0.000
248.36	8.750
248.73	9.211
249.10	8.442
249.47	2.532
249.84	0.000
250.22	2.941
250.59	1.961
250.96	5.634
251.33	0.581
251.70	6.471
252.08	5.076
252.45	2.475
252.82	3.015
253.19	7.834
253.56	3.271
253.94	7.658
254.31	7.826
254.68	8.772
255.05	3.937
255.42	5.240
255.79	5.792
256.16	5.447
256.54	7.090
256.91	2.662
257.28	7.807
257.65	2.996
258.02	3.546
258.39	6.061
258.76	7.326
259.14	8.638
259.51	5.178
259.88	2.405
260.25	3.268
260.62	5.903
260.99	1.695
261.36	4.452
261.73	4.747
262.10	6.079
262.47	5.521
262.85	5.016
263.22	4.923
263.59	3.427
263.96	6.832
264.33	3.939
264.70	4.762
265.07	4.762
265.44	6.232
265.81	5.932
266.18	4.918
266.55	4.627
266.92	4.663
267.29	4.178
267.66	4.604
268.03	4.450
268.40	3.655
268.77	8.556
269.14	6.235
269.51	6.170
269.88	3.990
270.25	2.551
270.62	5.122
270.99	2.046
271.36	7.090
271.73	6.808
272.10	5.109
272.47	4.965
272.84	3.218
273.21	5.800
273.58	4.337
273.95	5.721
274.32	5.081
274.69	3.394
275.06	4.688
275.43	4.989
275.80	3.753
276.17	4.138
276.54	3.640
276.91	4.167
277.28	4.148
277.65	6.198
278.02	3.404
278.39	2.626
278.76	5.451
279.13	3.734
279.50	7.983
279.87	6.695
280.23	3.871
280.60	6.238
280.97	4.646
281.34	4.038
281.71	7.392
282.08	4.090
282.45	4.697
282.82	3.475
283.19	4.449
283.56	4.432
283.92	5.693
284.29	4.423
284.66	2.907
285.03	2.161
285.40	5.104
285.77	2.812
286.14	5.054
286.51	6.089
286.87	4.753
287.24	4.420
287.61	4.233
287.98	7.018
288.35	4.506
288.72	5.254
289.08	3.819
289.45	5.975
289.82	4.021
290.19	4.266
290.56	2.744
290.93	3.367
291.29	2.619
291.66	5.827
292.03	4.147
292.40	4.355
292.77	3.509
293.13	2.922
293.50	2.883
293.87	3.053
294.24	3.555
294.60	5.365
294.97	4.167
295.34	3.528
295.71	4.918
296.08	4.783
296.44	2.987
296.81	3.056
297.18	3.478
297.55	5.420
297.91	2.466
298.28	5.937
298.65	3.664
299.02	4.043
299.38	1.094
299.75	2.483
300.12	2.618
300.48	2.372
300.85	4.563
301.22	3.247
301.59	3.158
301.95	4.810
302.32	5.447
302.69	3.607
303.05	2.847
303.42	4.857
303.79	3.037
304.15	5.137
304.52	1.665
304.89	2.222
305.25	3.390
305.62	3.034
305.99	3.041
306.35	2.197
306.72	3.712
307.09	4.675
307.45	4.363
307.82	3.009
308.19	4.065
308.55	3.926
308.92	3.050
309.29	2.793
309.65	2.691
310.02	3.960
310.38	3.732
310.75	2.623
311.12	3.445
311.48	3.287
311.85	3.874
312.22	3.165
312.58	3.079
312.95	1.814
313.31	1.967
313.68	1.361
314.05	2.857
314.41	4.433
314.78	3.299
315.14	4.214
315.51	4.348
315.87	3.074
316.24	3.640
316.61	5.118
316.97	4.266
317.34	4.102
317.70	3.824
318.07	3.269
318.43	4.118
318.80	4.072
319.16	3.418
319.53	5.603
319.89	3.346
320.26	5.162
320.62	5.517
320.99	3.236
321.35	4.728
321.72	6.750
322.08	5.136
322.45	5.685
322.81	6.582
323.18	5.299
323.54	5.405
323.91	5.745
324.27	6.836
324.64	6.367
325.00	7.391
325.37	8.356
325.73	6.800
326.10	7.448
326.46	8.251
326.83	8.661
327.19	9.067
327.56	9.904
327.92	9.419
328.29	10.357
328.65	11.604
329.01	11.765
329.38	12.627
329.74	11.520
330.11	12.975
330.47	12.616
330.84	13.173
331.20	15.304
331.56	15.185
331.93	14.977
332.29	16.590
332.66	15.656
333.02	17.100
333.38	16.132
333.75	18.223
334.11	17.547
334.48	19.039
334.84	19.048
335.20	18.573
335.57	18.858
335.93	18.428
336.29	20.166
336.66	18.165
337.02	19.610
337.38	18.056
337.75	19.909
338.11	21.371
338.47	20.255
338.84	20.425
339.20	21.481
339.56	20.917
339.93	22.023
340.29	22.844
340.65	21.326
341.02	21.011
341.38	20.708
341.74	20.583
342.11	19.844
342.47	21.441
342.83	22.318
343.20	22.213
343.56	21.826
343.92	21.258
344.28	21.691
344.65	21.330
345.01	21.521
345.37	21.615
345.73	22.845
346.10	20.621
346.46	22.372
346.82	22.831
347.19	21.446
347.55	21.721
347.91	22.006
348.27	20.857
348.63	22.913
349.00	20.509
349.36	22.028
349.72	21.891
350.08	21.311
350.45	22.346
350.81	22.010
351.17	20.765
351.53	22.122
351.89	20.892
352.26	20.800
352.62	22.500
352.98	21.124
353.34	20.692
353.70	22.411
354.07	22.177
354.43	21.217
354.79	22.626
355.15	22.540
355.51	21.123
355.87	22.735
356.24	20.555
356.60	20.776
356.96	22.698
357.32	20.607
357.68	21.892
358.04	21.729
358.40	22.267
358.77	23.046
359.13	21.938
359.49	21.572
359.85	22.465
360.21	21.212
360.57	22.188
360.93	22.239
361.29	20.695
361.66	22.100
362.02	23.485
362.38	21.858
362.74	21.802
363.10	22.874
363.46	22.313
363.82	23.065
364.18	22.362
364.54	21.765
364.90	21.505
365.26	21.761
365.62	23.650
365.98	22.801
366.35	23.161
366.71	22.986
367.07	23.367
367.43	22.070
367.79	23.110
368.15	22.900
368.51	22.724
368.87	21.608
369.23	21.733
369.59	23.032
369.95	23.021
370.31	22.905
370.67	23.284
371.03	22.479
371.39	23.122
371.75	23.077
372.11	23.181
372.47	23.447
372.83	23.350
373.19	24.180
373.55	23.105
373.91	23.902
374.27	24.096
374.63	24.480
374.99	23.617
375.35	24.373
375.71	24.895
376.07	24.579
376.42	24.354
376.78	24.228
377.14	24.171
377.50	24.436
377.86	25.703
378.22	25.335
378.58	24.359
378.94	24.449
379.30	24.953
379.66	26.520
380.02	25.199
380.38	24.589
380.74	24.297
381.09	25.583
381.45	25.627
381.81	25.601
382.17	26.015
382.53	25.796
382.89	26.428
383.25	26.882
383.61	26.768
383.97	26.286
384.32	27.142
384.68	26.935
385.04	26.348
385.40	26.633
385.76	26.855
386.12	27.555
386.48	28.161
386.83	27.838
387.19	26.679
387.55	28.294
387.91	28.301
388.27	27.106
388.62	27.816
388.98	28.115
389.34	28.232
389.70	29.397
390.06	28.005
390.42	27.850
390.77	27.861
391.13	27.743
391.49	29.431
391.85	28.525
392.20	28.123
392.56	29.116
392.92	28.773
393.28	28.243
393.64	28.649
393.99	29.655
394.35	28.463
394.71	29.502
395.07	28.975
395.42	28.051
395.78	28.730
396.14	29.634
396.50	28.535
396.85	28.976
397.21	28.697
397.57	28.715
397.92	28.820
398.28	29.540
398.64	27.651
399.00	29.853
399.35	28.442
399.71	29.638
400.07	29.141
400.42	28.703
400.78	29.700
401.14	29.401
401.49	29.363
401.85	27.849
402.21	28.193
402.57	29.063
402.92	28.921
403.28	28.822
403.63	29.950
403.99	29.592
404.35	29.419
404.70	28.452
405.06	28.555
405.42	28.838
405.77	28.646
406.13	29.162
406.49	27.886
406.84	29.340
407.20	29.862
407.55	29.234
407.91	28.610
408.27	28.553
408.62	29.908
408.98	29.144
409.34	29.554
409.69	29.587
410.05	28.633
410.40	29.012
410.76	29.554
411.11	30.313
411.47	30.046
411.83	28.814
412.18	30.245
412.54	28.402
412.89	29.064
413.25	29.723
413.60	29.379
413.96	28.344
414.31	29.268
414.67	29.121
415.03	28.495
415.38	29.308
415.74	29.902
416.09	29.131
416.45	29.305
416.80	29.280
417.16	29.420
417.51	30.580
417.87	29.922
418.22	30.440
418.58	30.234
418.93	30.846
419.29	29.449
419.64	29.747
420.00	31.486
420.35	29.970
420.71	30.680
421.06	30.510
421.42	31.971
421.77	30.000
422.12	29.398
422.48	30.211
422.83	30.742
423.19	30.587
423.54	30.629
423.90	29.741
424.25	30.654
424.61	31.089
424.96	31.185
425.31	30.676
425.67	31.338
426.02	31.684
426.38	33.062
426.73	31.780
427.09	31.709
427.44	31.647
427.79	32.705
428.15	32.100
428.50	31.617
428.85	30.835
429.21	31.183
429.56	31.752
429.92	31.433
430.27	31.378
430.62	30.685
430.98	32.431
431.33	31.651
431.68	32.077
432.04	31.917
432.39	31.831
432.74	31.209
433.10	32.644
433.45	32.736
433.80	32.966
434.16	32.188
434.51	32.903
434.86	32.869
435.22	32.529
435.57	32.065
435.92	33.533
436.28	33.453
436.63	33.428
436.98	32.793
437.34	33.091
437.69	34.705
438.04	34.245
438.39	32.498
438.75	33.212
439.10	33.729
439.45	34.145
439.81	33.272
440.16	33.729
440.51	32.537
440.86	34.924
441.22	33.824
441.57	34.272
441.92	34.837
442.27	33.980
442.63	34.957
442.98	34.520
443.33	33.278
443.68	35.013
444.03	35.122
444.39	33.891
444.74	34.504
445.09	35.134
445.44	34.644
445.79	35.946
446.15	34.141
446.50	34.443
446.85	35.122
447.20	34.932
447.55	35.212
447.91	34.123
448.26	35.515
448.61	34.657
448.96	35.112
449.31	35.665
449.66	34.611
450.02	34.740
450.37	35.685
450.72	35.166
451.07	35.949
451.42	35.456
451.77	35.865
452.12	34.031
452.47	35.093
452.83	35.630
453.18	35.547
453.53	36.157
453.88	36.551
454.23	36.140
454.58	36.020
454.93	36.147
455.28	35.937
455.63	36.206
455.98	36.380
456.34	35.504
456.69	36.277
457.04	37.492
457.39	36.027
457.74	35.732
458.09	34.667
458.44	36.454
458.79	36.022
459.14	36.041
459.49	35.761
459.84	36.097
460.19	35.558
460.54	36.308
460.89	37.216
461.24	36.087
461.59	36.461
461.94	34.906
462.29	36.791
462.64	37.342
462.99	36.831
463.34	36.022
463.69	35.843
464.04	36.985
464.39	36.082
464.74	36.258
465.09	37.243
465.44	37.392
465.79	35.317
466.14	37.685
466.49	36.170
466.84	36.704
467.19	36.170
467.54	36.015
467.89	36.450
468.24	36.131
468.59	36.444
468.94	35.810
469.29	36.459
469.64	36.432
469.99	37.421
470.34	36.382
470.68	36.838
471.03	36.377
471.38	36.305
471.73	38.375
472.08	37.449
472.43	37.181
472.78	37.423
473.13	38.027
473.48	36.938
473.83	36.239
474.17	37.565
474.52	37.205
474.87	37.394
475.22	36.181
475.57	36.420
475.92	36.698
476.27	37.485
476.61	37.558
476.96	36.698
477.31	35.857
477.66	35.730
478.01	36.103
478.36	36.819
478.70	38.119
479.05	37.143
479.40	36.990
479.75	36.184
480.10	36.354
480.45	36.950
480.79	37.664
481.14	37.346
481.49	36.502
481.84	37.548
482.19	37.886
482.53	37.794
482.88	37.136
483.23	36.804
483.58	36.179
483.92	35.866
484.27	36.053
484.62	37.382
484.97	36.318
485.31	36.344
485.66	35.116
486.01	35.298
486.36	34.886
486.70	35.297
487.05	35.314
487.40	35.936
487.75	35.775
488.09	36.279
488.44	35.557
488.79	36.683
489.13	36.739
489.48	37.024
489.83	36.457
490.17	36.360
490.52	36.443
490.87	36.835
491.22	36.867
491.56	36.290
491.91	36.472
492.26	36.801
492.60	37.428
492.95	37.186
493.30	35.711
493.64	37.181
493.99	36.280
494.34	36.553
494.68	36.571
495.03	35.620
495.37	36.850
495.72	37.557
496.07	37.024
496.41	36.321
496.76	36.020
497.11	35.911
497.45	36.516
497.80	37.689
498.14	36.513
498.49	36.059
498.84	36.577
499.18	36.898
499.53	36.806
499.87	36.187
500.22	36.103
500.56	36.964
500.91	36.747
501.26	35.937
501.60	36.547
501.95	37.118
502.29	36.174
502.64	37.307
502.98	37.000
503.33	35.975
503.67	36.434
504.02	36.755
504.36	36.764
504.71	35.859
505.06	36.286
505.40	35.635
505.75	36.907
506.09	35.428
506.44	37.269
506.78	38.112
507.13	36.918
507.47	36.136
507.82	36.111
508.16	36.397
508.51	36.464
508.85	37.363
509.19	36.456
509.54	37.105
509.88	35.653
510.23	37.601
510.57	37.146
510.92	35.394
511.26	36.879
511.61	37.184
511.95	36.110
512.30	37.805
512.64	37.062
512.98	36.777
513.33	37.045
513.67	37.067
514.02	37.529
514.36	38.400
514.70	37.471
515.05	39.072
515.39	38.430
515.74	38.802
516.08	37.717
516.42	38.575
516.77	38.327
517.11	38.872
517.46	37.941
517.80	38.975
518.14	38.518
518.49	37.380
518.83	38.275
519.17	36.750
519.52	37.655
519.86	38.055
520.20	38.639
520.55	37.836
520.89	37.641
521.23	37.999
521.58	38.864
521.92	38.077
522.26	39.297
522.61	38.831
522.95	39.139
523.29	39.581
523.64	38.437
523.98	38.626
524.32	38.531
524.66	38.924
525.01	39.091
525.35	38.691
525.69	37.441
526.04	38.558
526.38	39.235
526.72	37.999
527.06	38.067
527.41	38.325
527.75	38.740
528.09	38.804
528.43	40.108
528.78	38.746
529.12	39.742
529.46	38.856
529.80	38.759
530.15	40.528
530.49	38.519
530.83	38.509
531.17	39.624
531.51	38.577
531.86	37.797
532.20	39.388
532.54	38.393
532.88	39.288
533.22	38.642
533.57	37.287
533.91	37.990
534.25	39.909
534.59	38.037
534.93	38.829
535.27	39.530
535.62	38.561
535.96	38.813
536.30	40.172
536.64	40.386
536.98	38.258
537.32	40.185
537.66	40.393
538.01	40.350
538.35	38.419
538.69	39.680
539.03	38.756
539.37	38.964
539.71	38.309
540.05	39.783
540.39	40.235
540.73	39.888
541.07	40.124
541.42	39.718
541.76	39.023
542.10	38.954
542.44	41.209
542.78	38.679
543.12	39.148
543.46	38.248
543.80	39.764
544.14	39.186
544.48	38.374
544.82	39.098
545.16	39.139
545.50	40.053
545.84	40.793
546.18	39.433
546.52	39.366
546.86	40.043
547.20	39.628
547.54	39.576
547.88	40.014
548.22	38.527
548.56	38.193
548.90	39.623
549.24	38.567
549.58	38.575
549.92	38.885
550.26	39.267
550.60	40.149
550.94	38.686
551.28	40.649
551.62	39.462
551.96	39.699
552.30	40.716
552.64	39.563
552.98	39.381
553.32	39.586
553.66	39.913
554.00	39.708
554.34	38.996
554.68	38.938
555.02	40.253
555.36	40.464
555.69	39.707
556.03	39.543
556.37	39.644
556.71	40.361
557.05	39.374
557.39	39.033
557.73	39.955
558.07	40.799
558.41	38.821
558.75	40.062
559.08	39.795
559.42	40.000
559.76	40.753
560.10	40.291
560.44	38.645
560.78	39.371
561.12	39.633
561.45	40.618
561.79	39.426
562.13	40.170
562.47	39.209
562.81	39.409
563.15	39.915
563.48	38.543
563.82	40.426
564.16	39.694
564.50	39.122
564.84	40.629
565.17	38.632
565.51	40.437
565.85	39.918
566.19	39.257
566.52	40.214
566.86	40.039
567.20	39.041
567.54	38.869
567.88	39.133
568.21	39.819
568.55	39.837
568.89	39.117
569.23	37.699
569.56	38.792
569.90	37.881
570.24	37.700
570.57	38.036
570.91	38.759
571.25	37.817
571.59	37.839
571.92	37.363
572.26	37.319
572.60	37.767
572.93	37.716
573.27	37.022
573.61	37.082
573.95	37.138
574.28	37.182
574.62	36.766
574.96	36.973
575.29	37.279
575.63	36.123
575.97	36.677
576.30	37.166
576.64	36.371
576.98	37.246
577.31	37.331
577.65	37.294
577.98	37.067
578.32	36.851
578.66	36.643
578.99	36.874
579.33	36.797
579.67	37.093
580.00	37.013
580.34	37.363
580.67	36.894
581.01	37.056
581.35	36.994
581.68	36.587
582.02	36.759
582.35	36.787
582.69	36.716
583.02	37.086
583.36	36.977
583.70	37.617
584.03	37.976
584.37	38.001
584.70	36.868
585.04	36.813
585.37	37.224
585.71	37.176
586.04	37.166
586.38	37.050
586.72	37.073
587.05	37.262
587.39	37.098
587.72	37.835
588.06	38.002
588.39	37.852
588.73	37.729
589.06	38.389
589.40	37.781
589.73	38.846
590.07	38.255
590.40	38.235
590.73	39.703
591.07	38.295
591.40	38.201
591.74	39.005
592.07	38.822
592.41	38.207
592.74	38.590
593.08	36.395
593.41	37.759
593.75	37.946
594.08	37.315
594.41	37.809
594.75	38.359
595.08	37.874
595.42	38.609
595.75	38.828
596.09	38.624
596.42	38.776
596.75	38.854
597.09	38.588
597.42	39.070
597.75	37.929
598.09	38.026
598.42	38.989
598.76	37.623
599.09	38.341
599.42	38.158
599.76	37.359
600.09	38.462
600.42	37.604
600.76	37.667
601.09	37.557
601.42	37.368
601.76	38.428
602.09	37.995
602.42	38.964
602.76	38.497
603.09	38.414
603.42	39.047
603.76	38.427
604.09	37.748
604.42	39.213
604.76	39.608
605.09	38.757
605.42	38.059
605.75	38.310
606.09	38.217
606.42	38.198
606.75	38.225
607.09	38.549
607.42	38.591
607.75	37.877
608.08	37.601
608.42	38.374
608.75	39.904
609.08	38.964
609.41	38.477
609.75	38.206
610.08	39.041
610.41	38.116
610.74	38.323
611.07	39.121
611.41	39.958
611.74	40.192
612.07	38.812
612.40	38.621
612.73	39.153
613.07	38.189
613.40	39.059
613.73	40.515
614.06	38.564
614.39	39.594
614.72	38.711
615.06	39.050
615.39	37.828
615.72	38.698
616.05	39.162
616.38	38.632
616.71	39.633
617.05	39.654
617.38	39.409
617.71	40.000
618.04	39.873
618.37	40.416
618.70	39.934
619.03	40.486
619.36	39.653
619.69	40.561
620.03	40.541
620.36	39.843
620.69	40.114
621.02	39.985
621.35	41.909
621.68	41.156
622.01	41.917
622.34	41.421
622.67	40.852
623.00	41.501
623.33	40.015
623.66	40.539
623.99	39.561
624.32	39.392
624.65	39.474
624.99	40.406
625.32	38.969
625.65	41.163
625.98	40.532
626.31	38.155
626.64	41.768
626.97	40.489
627.30	41.156
627.63	40.988
627.96	41.060
628.29	40.888
628.62	42.773
628.95	41.483
629.28	40.625
629.61	40.279
629.94	42.033
630.26	41.798
630.59	42.248
630.92	40.615
631.25	40.513
631.58	40.639
631.91	41.338
632.24	42.431
632.57	43.068
632.90	41.637
633.23	41.765
633.56	42.821
633.89	43.403
634.22	41.481
634.55	41.804
634.88	41.252
635.20	42.564
635.53	44.533
635.86	42.393
636.19	42.950
636.52	41.071
636.85	42.060
637.18	41.132
637.51	41.132
637.83	40.867
638.16	43.247
638.49	42.507
638.82	44.079
639.15	43.962
