SpectraSuite Data File
++++++++++++++++++++++++++++++++++++
Date: Fri May 15 20:10:37 PDT 2015
User: schluterlab
Dark Spectrum Present: Yes
Reference Spectrum Present: Yes
Number of Sampled Component Spectra: 1
Spectrometers: USB2E3373
Integration Time (usec): 3000 (USB2E3373)
Spectra Averaged: 3 (USB2E3373)
Boxcar Smoothing: 0 (USB2E3373)
Correct for Electrical Dark: No (USB2E3373)
Strobe/Lamp Enabled: No (USB2E3373)
Correct for Detector Non-linearity: No (USB2E3373)
Correct for Stray Light: No (USB2E3373)
Number of Pixels in Processed Spectrum: 2048
>>>>>Begin Processed Spectral Data<<<<<
178.53	0.000
178.91	0.000
179.29	62.500
179.67	200.000
180.04	-200.000
180.42	50.000
180.80	-400.000
181.18	100.000
181.56	100.000
181.94	150.000
182.31	200.000
182.69	240.000
183.07	-100.000
183.45	20.000
183.83	133.333
184.20	-45.455
184.58	77.778
184.96	-75.000
185.34	-0.000
185.72	-500.000
186.09	76.923
186.47	200.000
186.85	50.000
187.23	55.556
187.61	100.000
187.98	100.000
188.36	100.000
188.74	-100.000
189.12	64.706
189.49	16.667
189.87	0.000
190.25	85.714
190.63	600.000
191.00	33.333
191.38	31.579
191.76	650.000
192.14	-175.000
192.51	350.000
192.89	77.778
193.27	-42.857
193.65	16.667
194.02	136.364
194.40	20.000
194.78	-50.000
195.15	41.667
195.53	-112.500
195.91	150.000
196.29	100.000
196.66	76.923
197.04	42.857
197.42	11.111
197.79	-166.667
198.17	-92.308
198.55	200.000
198.92	-233.333
199.30	900.000
199.68	40.000
200.05	-266.667
200.43	0.000
200.81	100.000
201.18	-66.667
201.56	700.000
201.94	350.000
202.31	-0.000
202.69	-100.000
203.07	-100.000
203.44	600.000
203.82	0.000
204.19	114.286
204.57	-133.333
204.95	150.000
205.32	10.000
205.70	57.143
206.08	100.000
206.45	155.556
206.83	142.857
207.20	-71.429
207.58	500.000
207.96	66.667
208.33	-60.000
208.71	0.000
209.08	-150.000
209.46	200.000
209.84	-20.000
210.21	-100.000
210.59	42.857
210.96	100.000
211.34	-50.000
211.71	40.000
212.09	-42.857
212.46	-800.000
212.84	0.000
213.22	110.000
213.59	200.000
213.97	23.077
214.34	45.455
214.72	33.333
215.09	475.000
215.47	30.769
215.84	9.091
216.22	-266.667
216.59	87.500
216.97	300.000
217.34	-50.000
217.72	60.000
218.09	200.000
218.47	75.000
218.84	-100.000
219.22	33.333
219.59	0.000
219.97	-33.333
220.34	175.000
220.72	14.286
221.09	-150.000
221.47	550.000
221.84	-100.000
222.22	-650.000
222.59	90.909
222.97	83.333
223.34	-66.667
223.72	7.143
224.09	14.286
224.46	46.429
224.84	433.333
225.21	100.000
225.59	60.000
225.96	-300.000
226.34	275.000
226.71	128.571
227.08	66.667
227.46	125.000
227.83	0.000
228.21	100.000
228.58	72.727
228.95	-12.500
229.33	30.000
229.70	12.500
230.08	150.000
230.45	57.143
230.82	85.714
231.20	33.333
231.57	64.286
231.95	28.571
232.32	150.000
232.69	78.571
233.07	33.333
233.44	260.000
233.81	40.000
234.19	11.111
234.56	23.529
234.93	-300.000
235.31	375.000
235.68	-100.000
236.05	23.077
236.43	50.000
236.80	41.176
237.17	46.875
237.55	45.000
237.92	48.148
238.29	44.444
238.67	53.333
239.04	61.765
239.41	-17.073
239.79	56.667
240.16	78.049
240.53	71.053
240.91	58.696
241.28	58.730
241.65	50.000
242.02	68.493
242.40	40.000
242.77	40.678
243.14	39.394
243.51	62.500
243.89	52.874
244.26	42.529
244.63	53.571
245.00	51.546
245.38	50.515
245.75	52.809
246.12	38.793
246.49	48.760
246.87	64.423
247.24	46.218
247.61	43.860
247.98	45.528
248.36	43.750
248.73	48.026
249.10	49.351
249.47	52.532
249.84	50.327
250.22	49.412
250.59	57.516
250.96	53.991
251.33	53.488
251.70	54.706
252.08	49.239
252.45	53.465
252.82	54.774
253.19	56.221
253.56	50.467
253.94	55.856
254.31	51.304
254.68	49.123
255.05	53.150
255.42	49.345
255.79	47.876
256.16	47.860
256.54	55.597
256.91	48.669
257.28	51.301
257.65	47.191
258.02	51.418
258.39	49.495
258.76	57.143
259.14	50.498
259.51	52.427
259.88	48.110
260.25	49.020
260.62	57.639
260.99	49.831
261.36	52.055
261.73	51.899
262.10	50.760
262.47	54.601
262.85	48.589
263.22	51.692
263.59	49.221
263.96	54.037
264.33	55.152
264.70	49.702
265.07	45.833
265.44	52.691
265.81	51.695
266.18	49.180
266.55	49.871
266.92	52.332
267.29	51.175
267.66	46.292
268.03	52.880
268.40	51.958
268.77	54.813
269.14	50.360
269.51	51.414
269.88	48.878
270.25	50.000
270.62	50.000
270.99	51.662
271.36	45.721
271.73	47.887
272.10	47.445
272.47	49.882
272.84	49.010
273.21	47.796
273.58	49.157
273.95	46.682
274.32	46.882
274.69	46.833
275.06	49.777
275.43	46.032
275.80	47.461
276.17	48.046
276.54	47.752
276.91	49.123
277.28	50.218
277.65	47.314
278.02	45.106
278.39	48.578
278.76	46.960
279.13	42.946
279.50	47.059
279.87	48.596
280.23	46.022
280.60	46.394
280.97	47.677
281.34	43.269
281.71	47.844
282.08	44.376
282.45	45.597
282.82	44.208
283.19	46.809
283.56	46.050
283.92	44.592
284.29	43.654
284.66	43.411
285.03	42.633
285.40	41.399
285.77	40.949
286.14	46.029
286.51	45.941
286.87	42.779
287.24	45.120
287.61	43.915
287.98	44.737
288.35	43.501
288.72	44.308
289.08	42.014
289.45	44.640
289.82	40.559
290.19	43.686
290.56	41.338
290.93	37.879
291.29	39.137
291.66	40.000
292.03	36.683
292.40	40.645
292.77	37.321
293.13	36.526
293.50	35.205
293.87	36.183
294.24	36.940
294.60	35.469
294.97	36.012
295.34	36.963
295.71	35.768
296.08	33.184
296.44	33.570
296.81	34.028
297.18	34.928
297.55	36.179
297.91	33.014
298.28	34.565
298.65	33.379
299.02	30.997
299.38	31.601
299.75	32.966
300.12	31.937
300.48	31.884
300.85	31.432
301.22	32.597
301.59	30.526
301.95	32.405
302.32	32.944
302.69	32.338
303.05	30.941
303.42	31.880
303.79	31.308
304.15	29.510
304.52	29.845
304.89	29.006
305.25	29.661
305.62	29.522
305.99	31.579
306.35	30.751
306.72	30.934
307.09	29.989
307.45	30.080
307.82	30.671
308.19	31.243
308.55	29.771
308.92	29.739
309.29	29.050
309.65	30.248
310.02	28.713
310.38	29.528
310.75	31.257
311.12	28.525
311.48	28.526
311.85	29.215
312.22	29.641
312.58	29.193
312.95	27.428
313.31	28.364
313.68	29.529
314.05	29.490
314.41	31.959
314.78	31.031
315.14	31.346
315.51	30.642
315.87	29.303
316.24	32.255
316.61	31.102
316.97	31.448
317.34	30.469
317.70	32.218
318.07	30.577
318.43	32.941
318.80	32.765
319.16	34.668
319.53	34.093
319.89	35.138
320.26	34.717
320.62	37.011
320.99	35.595
321.35	37.718
321.72	38.422
322.08	38.671
322.45	39.695
322.81	39.194
323.18	39.549
323.54	40.444
323.91	42.356
324.27	43.262
324.64	46.629
325.00	46.168
325.37	50.597
325.73	49.139
326.10	51.045
326.46	52.018
326.83	55.381
327.19	56.059
327.56	57.515
327.92	58.275
328.29	59.911
328.65	63.774
329.01	62.500
329.38	62.765
329.74	65.911
330.11	65.338
330.47	65.399
330.84	67.885
331.20	71.863
331.56	68.611
331.93	72.146
332.29	71.769
332.66	72.127
333.02	72.584
333.38	73.694
333.75	75.275
334.11	72.784
334.48	77.063
334.84	76.557
335.20	76.212
335.57	76.428
335.93	77.597
336.29	77.440
336.66	78.656
337.02	79.461
337.38	78.889
337.75	79.000
338.11	77.998
338.47	79.015
338.84	80.776
339.20	80.256
339.56	82.018
339.93	80.036
340.29	80.550
340.65	81.272
341.02	82.624
341.38	81.504
341.74	80.830
342.11	80.243
342.47	84.164
342.83	80.017
343.20	82.230
343.56	81.826
343.92	83.260
344.28	80.956
344.65	82.902
345.01	82.714
345.37	82.506
345.73	82.092
346.10	83.693
346.46	80.992
346.82	81.833
347.19	80.881
347.55	82.456
347.91	82.282
348.27	81.649
348.63	84.157
349.00	82.445
349.36	82.294
349.72	83.250
350.08	82.049
350.45	81.724
350.81	83.721
351.17	83.225
351.53	83.673
351.89	82.742
352.26	82.960
352.62	83.871
352.98	81.124
353.34	82.689
353.70	84.871
354.07	83.790
354.43	84.548
354.79	83.567
355.15	82.698
355.51	83.940
355.87	85.518
356.24	83.361
356.60	82.862
356.96	84.444
357.32	84.105
357.68	83.894
358.04	84.653
358.40	83.762
358.77	85.247
359.13	83.747
359.49	83.667
359.85	84.945
360.21	87.161
360.57	82.862
360.93	85.098
361.29	84.970
361.66	85.972
362.02	82.803
362.38	86.519
362.74	87.737
363.10	87.284
363.46	86.286
363.82	86.476
364.18	85.387
364.54	85.809
364.90	84.229
365.26	86.099
365.62	87.956
365.98	87.757
366.35	87.691
366.71	86.696
367.07	87.228
367.43	88.354
367.79	87.279
368.15	87.437
368.51	87.109
368.87	86.719
369.23	86.426
369.59	86.516
369.95	87.903
370.31	88.006
370.67	88.060
371.03	88.499
371.39	87.527
371.75	88.059
372.11	86.448
372.47	88.240
372.83	88.006
373.19	86.733
373.55	88.448
373.91	86.249
374.27	90.149
374.63	89.088
374.99	89.149
375.35	88.162
375.71	89.161
376.07	89.677
376.42	90.340
376.78	88.456
377.14	88.422
377.50	90.505
377.86	88.688
378.22	90.555
378.58	89.615
378.94	89.351
379.30	90.331
379.66	91.787
380.02	89.148
380.38	89.470
380.74	89.467
381.09	89.816
381.45	90.398
381.81	90.191
382.17	89.277
382.53	89.444
382.89	91.463
383.25	92.782
383.61	90.366
383.97	93.206
384.32	89.744
384.68	90.898
385.04	91.605
385.40	91.475
385.76	94.340
386.12	92.303
386.48	93.487
386.83	90.552
387.19	91.514
387.55	93.664
387.91	92.482
388.27	91.453
388.62	92.889
388.98	90.301
389.34	90.881
389.70	93.350
390.06	89.805
390.42	92.746
390.77	93.264
391.13	91.173
391.49	92.626
391.85	93.242
392.20	90.898
392.56	90.846
392.92	92.014
393.28	92.689
393.64	89.489
393.99	92.351
394.35	91.651
394.71	91.252
395.07	90.446
395.42	89.617
395.78	91.596
396.14	91.488
396.50	91.376
396.85	92.015
397.21	90.288
397.57	91.411
397.92	91.372
398.28	92.644
398.64	90.482
399.00	90.576
399.35	89.503
399.71	88.857
400.07	91.233
400.42	89.106
400.78	91.182
401.14	90.079
401.49	90.887
401.85	90.555
402.21	90.060
402.57	90.812
402.92	88.896
403.28	90.351
403.63	89.786
403.99	89.605
404.35	89.569
404.70	87.738
405.06	88.895
405.42	87.694
405.77	87.333
406.13	89.872
406.49	87.507
406.84	89.609
407.20	88.862
407.55	87.894
407.91	88.369
408.27	87.827
408.62	88.985
408.98	88.909
409.34	88.290
409.69	87.016
410.05	86.638
410.40	88.395
410.76	88.239
411.11	87.500
411.47	87.508
411.83	88.010
412.18	89.961
412.54	86.767
412.89	85.283
413.25	88.327
413.60	86.770
413.96	85.337
414.31	85.427
414.67	84.734
415.03	86.019
415.38	85.117
415.74	86.580
416.09	85.826
416.45	86.766
416.80	86.120
417.16	88.536
417.51	86.476
417.87	85.528
418.22	87.500
418.58	86.890
418.93	86.834
419.29	84.187
419.64	87.686
420.00	88.035
420.35	86.269
420.71	87.303
421.06	87.661
421.42	87.560
421.77	86.821
422.12	85.925
422.48	86.140
422.83	87.297
423.19	87.190
423.54	87.654
423.90	87.220
424.25	87.199
424.61	88.311
424.96	87.224
425.31	89.486
425.67	87.793
426.02	86.867
426.38	88.291
426.73	87.772
427.09	89.241
427.44	88.176
427.79	89.157
428.15	87.743
428.50	87.765
428.85	87.285
429.21	87.153
429.56	89.380
429.92	88.341
430.27	87.669
430.62	88.918
430.98	88.376
431.33	89.222
431.68	86.970
432.04	88.485
432.39	87.222
432.74	86.290
433.10	88.103
433.45	89.427
433.80	90.075
434.16	90.471
434.51	89.032
434.86	89.315
435.22	88.951
435.57	89.457
435.92	89.222
436.28	87.895
436.63	89.333
436.98	87.891
437.34	88.022
437.69	90.578
438.04	88.547
438.39	87.966
438.75	90.589
439.10	89.191
439.45	89.044
439.81	89.480
440.16	89.846
440.51	89.672
440.86	91.360
441.22	88.857
441.57	91.280
441.92	91.763
442.27	91.741
442.63	91.113
442.98	89.661
443.33	89.371
443.68	89.549
444.03	90.710
444.39	89.769
444.74	92.140
445.09	92.372
445.44	90.598
445.79	92.264
446.15	90.253
446.50	90.128
446.85	90.861
447.20	90.824
447.55	90.123
447.91	89.566
448.26	90.609
448.61	90.271
448.96	89.616
449.31	89.075
449.66	89.257
450.02	90.131
450.37	91.108
450.72	89.519
451.07	90.696
451.42	89.888
451.77	89.210
452.12	89.533
452.47	90.148
452.83	89.340
453.18	89.058
453.53	89.570
453.88	88.950
454.23	89.305
454.58	90.680
454.93	90.142
455.28	87.873
455.63	88.903
455.98	89.778
456.34	89.464
456.69	90.025
457.04	89.477
457.39	88.214
457.74	89.299
458.09	86.816
458.44	91.281
458.79	89.132
459.14	89.531
459.49	90.627
459.84	90.243
460.19	89.867
460.54	91.076
460.89	90.341
461.24	89.068
461.59	89.014
461.94	87.736
462.29	88.661
462.64	89.103
462.99	87.407
463.34	88.873
463.69	89.318
464.04	89.044
464.39	87.871
464.74	88.098
465.09	90.081
465.44	89.498
465.79	87.812
466.14	89.966
466.49	89.649
466.84	89.709
467.19	86.796
467.54	87.037
467.89	89.071
468.24	88.139
468.59	88.190
468.94	87.302
469.29	88.525
469.64	85.714
469.99	88.648
470.34	86.621
470.68	86.726
471.03	86.837
471.38	86.377
471.73	87.255
472.08	88.128
472.43	87.919
472.78	86.223
473.13	86.599
473.48	86.840
473.83	86.675
474.17	88.731
474.52	87.683
474.87	84.727
475.22	87.858
475.57	87.578
475.92	88.042
476.27	86.671
476.61	88.426
476.96	85.053
477.31	86.858
477.66	86.461
478.01	87.198
478.36	87.527
478.70	89.451
479.05	88.187
479.40	88.182
479.75	86.913
480.10	85.458
480.45	88.150
480.79	87.664
481.14	88.781
481.49	87.291
481.84	88.610
482.19	87.933
482.53	87.914
482.88	86.062
483.23	85.845
483.58	85.849
483.92	85.624
484.27	83.592
484.62	86.463
484.97	86.982
485.31	88.692
485.66	92.289
486.01	94.893
486.36	94.542
486.70	93.081
487.05	91.691
487.40	89.581
487.75	88.282
488.09	85.260
488.44	83.012
488.79	85.058
489.13	85.417
489.48	85.592
489.83	84.260
490.17	84.045
490.52	84.896
490.87	83.387
491.22	85.339
491.56	85.009
491.91	85.134
492.26	85.318
492.60	84.261
492.95	86.572
493.30	83.635
493.64	87.672
493.99	84.348
494.34	84.660
494.68	85.714
495.03	83.990
495.37	84.446
495.72	84.705
496.07	84.829
496.41	85.377
496.76	85.352
497.11	83.512
497.45	85.251
497.80	84.712
498.14	82.563
498.49	83.900
498.84	82.834
499.18	84.237
499.53	84.276
499.87	83.901
500.22	84.322
500.56	85.729
500.91	83.936
501.26	83.589
501.60	84.309
501.95	83.552
502.29	85.327
502.64	83.880
502.98	85.101
503.33	83.333
503.67	82.747
504.02	84.506
504.36	84.018
504.71	84.192
505.06	82.687
505.40	83.909
505.75	83.711
506.09	80.892
506.44	84.754
506.78	83.929
507.13	83.195
507.47	81.201
507.82	83.387
508.16	82.620
508.51	83.736
508.85	81.894
509.19	83.183
509.54	82.413
509.88	82.201
510.23	82.464
510.57	82.630
510.92	80.384
511.26	81.724
511.61	83.498
511.95	82.027
512.30	81.486
512.64	81.135
512.98	81.583
513.33	81.533
513.67	82.092
514.02	81.522
514.36	80.171
514.70	80.711
515.05	82.432
515.39	81.228
515.74	82.036
516.08	81.052
516.42	82.450
516.77	81.978
517.11	81.840
517.46	81.867
517.80	80.095
518.14	79.302
518.49	79.147
518.83	80.194
519.17	79.988
519.52	78.508
519.86	79.352
520.20	80.620
520.55	80.113
520.89	79.360
521.23	78.784
521.58	78.549
521.92	77.885
522.26	78.074
522.61	79.416
522.95	80.331
523.29	77.382
523.64	78.590
523.98	81.141
524.32	78.866
524.66	79.962
525.01	80.390
525.35	78.937
525.69	79.529
526.04	77.381
526.38	78.664
526.72	77.305
527.06	78.988
527.41	78.034
527.75	77.413
528.09	78.007
528.43	81.567
528.78	78.812
529.12	80.129
529.46	79.857
529.80	78.847
530.15	80.858
530.49	79.596
530.83	79.891
531.17	78.576
531.51	79.138
531.86	77.906
532.20	77.871
532.54	78.148
532.88	78.508
533.22	79.032
533.57	80.472
533.91	81.136
534.25	81.576
534.59	79.731
534.93	79.673
535.27	78.173
535.62	80.881
535.96	79.256
536.30	79.156
536.64	78.084
536.98	76.167
537.32	79.090
537.66	79.243
538.01	78.811
538.35	78.988
538.69	78.695
539.03	78.264
539.37	79.004
539.71	80.095
540.05	78.819
540.39	79.294
540.73	79.010
541.07	80.732
541.42	79.973
541.76	80.454
542.10	78.458
542.44	79.639
542.78	77.839
543.12	79.533
543.46	79.138
543.80	80.014
544.14	78.104
544.48	78.681
544.82	80.519
545.16	81.216
545.50	77.971
545.84	80.028
546.18	80.780
546.52	78.659
546.86	79.583
547.20	79.471
547.54	79.364
547.88	81.590
548.22	79.684
548.56	79.683
548.90	79.987
549.24	78.512
549.58	78.068
549.92	76.626
550.26	79.194
550.60	80.000
550.94	77.969
551.28	80.294
551.62	79.385
551.96	78.872
552.30	82.018
552.64	79.901
552.98	79.466
553.32	78.887
553.66	78.882
554.00	80.365
554.34	79.911
554.68	78.245
555.02	80.506
555.36	79.058
555.69	78.681
556.03	79.443
556.37	79.004
556.71	79.567
557.05	79.791
557.39	76.506
557.73	78.336
558.07	79.035
558.41	79.403
558.75	77.397
559.08	78.408
559.42	76.905
559.76	78.543
560.10	78.593
560.44	79.896
560.78	80.070
561.12	80.395
561.45	82.080
561.79	81.162
562.13	81.476
562.47	80.288
562.81	79.539
563.15	77.856
563.48	81.330
563.82	79.272
564.16	81.337
564.50	81.081
564.84	81.660
565.17	81.556
565.51	83.197
565.85	81.962
566.19	82.095
566.52	82.172
566.86	82.134
567.20	81.694
567.54	85.158
567.88	86.819
568.21	86.482
568.55	86.630
568.89	87.936
569.23	88.637
569.56	89.842
569.90	91.514
570.24	89.877
570.57	91.491
570.91	92.332
571.25	91.483
571.59	91.031
571.92	89.333
572.26	90.459
572.60	89.767
572.93	87.543
573.27	89.781
573.61	90.662
573.95	91.125
574.28	90.969
574.62	90.796
574.96	90.127
575.29	90.687
575.63	88.676
575.97	88.723
576.30	89.654
576.64	89.272
576.98	91.840
577.31	92.603
577.65	92.408
577.98	92.667
578.32	92.346
578.66	91.124
578.99	89.916
579.33	89.283
579.67	87.711
580.00	90.000
580.34	89.975
580.67	88.897
581.01	91.907
581.35	92.808
581.68	94.115
582.02	94.311
582.35	93.463
582.69	93.377
583.02	91.241
583.36	90.442
583.70	89.694
584.03	90.631
584.37	90.542
584.70	90.027
585.04	89.378
585.37	90.786
585.71	91.879
586.04	91.805
586.38	90.931
586.72	91.449
587.05	92.605
587.39	92.144
587.72	93.521
588.06	91.918
588.39	90.316
588.73	90.720
589.06	90.346
589.40	89.492
589.73	89.084
590.07	89.237
590.40	89.241
590.73	89.621
591.07	87.150
591.40	88.557
591.74	88.552
592.07	88.451
592.41	89.708
592.74	89.606
593.08	91.268
593.41	93.114
593.75	92.640
594.08	90.079
594.41	89.665
594.75	90.305
595.08	90.201
595.42	90.946
595.75	92.415
596.09	90.266
596.42	88.301
596.75	88.499
597.09	87.836
597.42	87.579
597.75	90.930
598.09	86.148
598.42	87.906
598.76	88.760
599.09	91.947
599.42	89.276
599.76	90.331
600.09	89.781
600.42	90.068
600.76	90.305
601.09	89.313
601.42	88.837
601.76	88.329
602.09	90.677
602.42	90.101
602.76	88.667
603.09	91.653
603.42	92.768
603.76	90.927
604.09	89.834
604.42	91.032
604.76	89.230
605.09	89.899
605.42	89.074
605.75	90.587
606.09	90.403
606.42	88.407
606.75	88.398
607.09	88.132
607.42	88.879
607.75	89.565
608.08	86.792
608.42	86.067
608.75	89.253
609.08	89.387
609.41	87.970
609.75	88.558
610.08	89.066
610.41	87.536
610.74	88.152
611.07	89.044
611.41	89.829
611.74	89.872
612.07	87.366
612.40	87.527
612.73	88.588
613.07	86.895
613.40	88.293
613.73	88.248
614.06	86.923
614.39	87.874
614.72	87.283
615.06	87.542
615.39	87.172
615.72	87.191
616.05	87.709
616.38	84.274
616.71	85.260
617.05	87.956
617.38	86.235
617.71	87.547
618.04	86.984
618.37	88.398
618.70	87.261
619.03	85.417
619.36	84.443
619.69	85.368
620.03	85.756
620.36	86.195
620.69	84.868
621.02	82.645
621.35	84.896
621.68	82.823
622.01	84.417
622.34	83.081
622.67	82.729
623.00	83.767
623.33	84.223
623.66	85.714
623.99	83.888
624.32	84.106
624.65	85.564
624.99	84.801
625.32	83.927
625.65	85.467
625.98	84.932
626.31	81.712
626.64	82.322
626.97	82.810
627.30	82.399
627.63	80.243
627.96	84.007
628.29	79.926
628.62	82.399
628.95	78.457
629.28	81.653
629.61	83.948
629.94	80.841
630.26	81.028
630.59	82.830
630.92	80.308
631.25	76.410
631.58	81.388
631.91	80.921
632.24	80.619
632.57	78.068
632.90	77.224
633.23	76.471
633.56	78.715
633.89	79.901
634.22	79.506
