SpectraSuite Data File
++++++++++++++++++++++++++++++++++++
Date: Fri May 15 17:18:43 PDT 2015
User: schluterlab
Dark Spectrum Present: Yes
Reference Spectrum Present: Yes
Number of Sampled Component Spectra: 1
Spectrometers: USB2E3373
Integration Time (usec): 3000 (USB2E3373)
Spectra Averaged: 3 (USB2E3373)
Boxcar Smoothing: 0 (USB2E3373)
Correct for Electrical Dark: No (USB2E3373)
Strobe/Lamp Enabled: No (USB2E3373)
Correct for Detector Non-linearity: No (USB2E3373)
Correct for Stray Light: No (USB2E3373)
Number of Pixels in Processed Spectrum: 2048
>>>>>Begin Processed Spectral Data<<<<<
178.53	0.000
178.91	0.000
179.29	175.000
179.67	-50.000
180.04	-85.714
180.42	325.000
180.80	0.000
181.18	-166.667
181.56	150.000
181.94	200.000
182.31	400.000
182.69	20.000
183.07	0.000
183.45	100.000
183.83	-66.667
184.20	63.636
184.58	66.667
184.96	-175.000
185.34	-33.333
185.72	400.000
186.09	53.846
186.47	100.000
186.85	-100.000
187.23	111.111
187.61	-1000.000
187.98	-66.667
188.36	33.333
188.74	100.000
189.12	76.471
189.49	72.222
189.87	0.000
190.25	128.571
190.63	500.000
191.00	33.333
191.38	21.053
191.76	850.000
192.14	-150.000
192.51	50.000
192.89	-77.778
193.27	-114.286
193.65	50.000
194.02	136.364
194.40	0.000
194.78	12.500
195.15	75.000
195.53	12.500
195.91	50.000
196.29	100.000
196.66	15.385
197.04	-14.286
197.42	22.222
197.79	-466.667
198.17	23.077
198.55	1000.000
198.92	-266.667
199.30	0.000
199.68	100.000
200.05	33.333
200.43	0.000
200.81	33.333
201.18	100.000
201.56	-500.000
201.94	200.000
202.31	-233.333
202.69	-100.000
203.07	50.000
203.44	1100.000
203.82	0.000
204.19	42.857
204.57	-366.667
204.95	-0.000
205.32	100.000
205.70	71.429
206.08	75.000
206.45	244.444
206.83	100.000
207.20	-28.571
207.58	-200.000
207.96	0.000
208.33	10.000
208.71	275.000
209.08	16.667
209.46	600.000
209.84	-80.000
210.21	-700.000
210.59	-14.286
210.96	200.000
211.34	-150.000
211.71	46.667
212.09	-42.857
212.46	-700.000
212.84	0.000
213.22	80.000
213.59	-400.000
213.97	61.538
214.34	36.364
214.72	150.000
215.09	225.000
215.47	76.923
215.84	90.909
216.22	100.000
216.59	-12.500
216.97	750.000
217.34	-50.000
217.72	120.000
218.09	37.500
218.47	50.000
218.84	200.000
219.22	55.556
219.59	240.000
219.97	366.667
220.34	125.000
220.72	157.143
221.09	-125.000
221.47	550.000
221.84	-350.000
222.22	-250.000
222.59	172.727
222.97	50.000
223.34	133.333
223.72	78.571
224.09	28.571
224.46	28.571
224.84	33.333
225.21	-10.000
225.59	153.333
225.96	150.000
226.34	75.000
226.71	42.857
227.08	100.000
227.46	37.500
227.83	-600.000
228.21	133.333
228.58	209.091
228.95	112.500
229.33	80.000
229.70	50.000
230.08	37.500
230.45	14.286
230.82	-42.857
231.20	40.000
231.57	92.857
231.95	71.429
232.32	50.000
232.69	21.429
233.07	166.667
233.44	120.000
233.81	40.000
234.19	11.111
234.56	41.176
234.93	-0.000
235.31	225.000
235.68	40.000
236.05	0.000
236.43	30.000
236.80	52.941
237.17	40.625
237.55	45.000
237.92	44.444
238.29	41.667
238.67	70.000
239.04	20.588
239.41	-9.756
239.79	0.000
240.16	46.341
240.53	15.789
240.91	34.783
241.28	30.159
241.65	33.929
242.02	31.507
242.40	23.333
242.77	30.508
243.14	16.667
243.51	18.750
243.89	35.632
244.26	10.345
244.63	23.810
245.00	26.804
245.38	26.804
245.75	11.236
246.12	23.276
246.49	26.446
246.87	21.154
247.24	19.328
247.61	16.667
247.98	20.325
248.36	20.000
248.73	25.000
249.10	19.481
249.47	24.051
249.84	24.183
250.22	22.353
250.59	24.183
250.96	23.005
251.33	17.442
251.70	24.118
252.08	22.843
252.45	24.752
252.82	28.141
253.19	24.885
253.56	20.093
253.94	25.225
254.31	23.478
254.68	24.561
255.05	26.378
255.42	24.454
255.79	26.641
256.16	23.735
256.54	25.000
256.91	20.532
257.28	23.420
257.65	17.603
258.02	22.340
258.39	22.222
258.76	20.513
259.14	23.920
259.51	23.301
259.88	18.900
260.25	21.895
260.62	26.042
260.99	20.339
261.36	18.493
261.73	19.304
262.10	27.660
262.47	23.620
262.85	22.257
263.22	28.308
263.59	23.053
263.96	24.224
264.33	20.303
264.70	25.595
265.07	22.619
265.44	24.363
265.81	23.446
266.18	24.317
266.55	27.506
266.92	23.316
267.29	24.021
267.66	23.018
268.03	24.346
268.40	23.499
268.77	23.529
269.14	23.981
269.51	22.108
269.88	21.696
270.25	22.194
270.62	20.244
270.99	23.018
271.36	22.005
271.73	23.709
272.10	21.168
272.47	25.296
272.84	23.515
273.21	21.810
273.58	22.410
273.95	21.281
274.32	20.092
274.69	21.719
275.06	22.098
275.43	22.222
275.80	22.517
276.17	22.069
276.54	21.842
276.91	22.807
277.28	21.834
277.65	21.901
278.02	21.702
278.39	24.508
278.76	21.384
279.13	18.050
279.50	21.849
279.87	19.438
280.23	19.785
280.60	22.222
280.97	21.414
281.34	20.962
281.71	22.382
282.08	21.472
282.45	21.331
282.82	21.815
283.19	21.470
283.56	20.231
283.92	20.114
284.29	19.231
284.66	18.217
285.03	19.450
285.40	21.361
285.77	18.629
286.14	20.758
286.51	22.509
286.87	20.293
287.24	18.969
287.61	18.695
287.98	20.000
288.35	18.718
288.72	22.592
289.08	18.229
289.45	18.102
289.82	19.056
290.19	20.990
290.56	17.496
290.93	16.835
291.29	16.333
291.66	18.583
292.03	17.384
292.40	18.226
292.77	17.384
293.13	13.799
293.50	16.844
293.87	17.710
294.24	18.702
294.60	16.542
294.97	16.815
295.34	17.791
295.71	16.692
296.08	16.891
296.44	12.660
296.81	17.639
297.18	14.783
297.55	17.751
297.91	15.342
298.28	17.942
298.65	15.604
299.02	14.555
299.38	14.774
299.75	14.759
300.12	15.052
300.48	16.337
300.85	15.209
301.22	14.545
301.59	13.026
301.95	15.823
302.32	15.824
302.69	15.920
303.05	14.233
303.42	16.065
303.79	15.537
304.15	15.173
304.52	13.674
304.89	13.684
305.25	13.923
305.62	12.719
305.99	14.152
306.35	12.486
306.72	13.273
307.09	13.797
307.45	13.662
307.82	13.657
308.19	14.053
308.55	14.504
308.92	15.686
309.29	13.073
309.65	14.101
310.02	15.072
310.38	13.172
310.75	13.880
311.12	14.639
311.48	13.256
311.85	12.670
312.22	12.236
312.58	13.694
312.95	12.914
313.31	13.354
313.68	13.822
314.05	14.082
314.41	15.258
314.78	14.227
315.14	13.875
315.51	14.182
315.87	12.910
316.24	14.156
316.61	14.075
316.97	13.690
317.34	12.793
317.70	14.245
318.07	12.885
318.43	13.431
318.80	13.163
319.16	14.355
319.53	14.625
319.89	13.780
320.26	13.360
320.62	15.547
320.99	12.317
321.35	13.669
321.72	14.226
322.08	14.502
322.45	14.010
322.81	14.440
323.18	13.935
323.54	14.286
323.91	12.950
324.27	15.039
324.64	13.764
325.00	15.055
325.37	15.335
325.73	13.781
326.10	14.351
326.46	14.350
326.83	15.048
327.19	15.344
327.56	15.812
327.92	15.933
328.29	14.554
328.65	14.245
329.01	15.349
329.38	14.286
329.74	14.542
330.11	15.107
330.47	14.750
330.84	15.385
331.20	16.255
331.56	15.093
331.93	14.795
332.29	14.940
332.66	15.747
333.02	15.149
333.38	15.124
333.75	15.568
334.11	14.235
334.48	16.682
334.84	15.568
335.20	15.371
335.57	13.418
335.93	14.634
336.29	14.549
336.66	14.169
337.02	14.963
337.38	14.074
337.75	14.818
338.11	16.231
338.47	14.507
338.84	14.880
339.20	15.174
339.56	14.220
339.93	15.488
340.29	13.945
340.65	15.502
341.02	13.918
341.38	13.894
341.74	14.223
342.11	14.558
342.47	15.214
342.83	14.706
343.20	13.763
343.56	14.870
343.92	13.906
344.28	14.603
344.65	14.162
345.01	13.397
345.37	14.466
345.73	15.816
346.10	15.272
346.46	14.550
346.82	15.303
347.19	13.882
347.55	14.369
347.91	14.239
348.27	14.390
348.63	14.140
349.00	14.028
349.36	14.879
349.72	14.511
350.08	14.918
350.45	14.844
350.81	13.704
351.17	14.251
351.53	15.347
351.89	14.038
352.26	14.240
352.62	14.919
352.98	15.261
353.34	14.573
353.70	15.129
354.07	14.194
354.43	14.492
354.79	14.368
355.15	14.683
355.51	14.557
355.87	13.997
356.24	13.540
356.60	14.309
356.96	14.762
357.32	13.978
357.68	13.761
358.04	15.105
358.40	14.228
358.77	15.710
359.13	14.091
359.49	14.330
359.85	14.665
360.21	15.072
360.57	14.078
360.93	14.675
361.29	14.577
361.66	14.812
362.02	15.227
362.38	14.775
362.74	14.383
363.10	15.049
363.46	14.678
363.82	15.402
364.18	15.055
364.54	14.338
364.90	13.978
365.26	13.901
365.62	15.547
365.98	15.543
366.35	16.169
366.71	15.152
367.07	14.586
367.43	14.306
367.79	15.760
368.15	14.645
368.51	14.785
368.87	13.999
369.23	13.646
369.59	14.796
369.95	14.956
370.31	14.595
370.67	14.552
371.03	14.339
371.39	14.953
371.75	14.945
372.11	14.979
372.47	15.754
372.83	15.401
373.19	16.049
373.55	14.729
373.91	15.191
374.27	15.734
374.63	16.439
374.99	14.894
375.35	14.833
375.71	16.084
376.07	14.256
376.42	15.578
376.78	16.711
377.14	14.760
377.50	15.206
377.86	15.663
378.22	16.401
378.58	15.321
378.94	15.501
379.30	15.908
379.66	16.552
380.02	15.512
380.38	15.460
380.74	15.859
381.09	17.607
381.45	16.086
381.81	16.039
382.17	16.434
382.53	15.678
382.89	17.012
383.25	16.366
383.61	16.768
383.97	16.127
384.32	16.948
384.68	15.728
385.04	16.238
385.40	16.179
385.76	17.547
386.12	17.012
386.48	17.305
386.83	16.233
387.19	17.216
387.55	17.440
387.91	16.748
388.27	17.155
388.62	17.810
388.98	16.943
389.34	17.239
389.70	18.459
390.06	16.866
390.42	18.264
390.77	17.135
391.13	16.520
391.49	16.624
391.85	17.609
392.20	17.137
392.56	18.118
392.92	18.438
393.28	17.571
393.64	17.598
393.99	17.429
394.35	18.280
394.71	18.199
395.07	18.165
395.42	18.397
395.78	18.632
396.14	17.844
396.50	18.009
396.85	19.060
397.21	17.920
397.57	18.245
397.92	18.754
398.28	18.218
398.64	18.072
399.00	19.074
399.35	17.833
399.71	18.495
400.07	18.924
400.42	17.687
400.78	19.045
401.14	18.330
401.49	18.940
401.85	18.099
402.21	18.675
402.57	19.437
402.92	18.695
403.28	19.737
403.63	18.916
403.99	18.240
404.35	19.113
404.70	18.571
405.06	18.508
405.42	18.956
405.77	18.187
406.13	18.976
406.49	18.295
406.84	19.743
407.20	18.663
407.55	19.768
407.91	19.251
408.27	19.503
408.62	19.446
408.98	19.532
409.34	18.835
409.69	19.767
410.05	18.596
410.40	18.765
410.76	19.059
411.11	19.438
411.47	19.921
411.83	18.707
412.18	19.498
412.54	19.476
412.89	19.150
413.25	20.036
413.60	19.876
413.96	18.896
414.31	19.878
414.67	18.858
415.03	19.640
415.38	18.864
415.74	19.218
416.09	19.856
416.45	19.649
416.80	19.101
417.16	20.718
417.51	20.253
417.87	19.817
418.22	20.337
418.58	19.398
418.93	20.439
419.29	19.206
419.64	19.183
420.00	20.718
420.35	19.761
420.71	19.745
421.06	20.258
421.42	20.373
421.77	19.595
422.12	19.921
422.48	19.762
422.83	20.534
423.19	19.470
423.54	19.283
423.90	19.670
424.25	20.321
424.61	21.297
424.96	20.151
425.31	20.739
425.67	20.364
426.02	20.612
426.38	20.726
426.73	20.823
427.09	21.392
427.44	20.706
427.79	20.566
428.15	21.238
428.50	20.775
428.85	20.025
429.21	20.656
429.56	20.162
429.92	20.390
430.27	20.401
430.62	20.178
430.98	19.851
431.33	21.188
431.68	20.251
432.04	21.017
432.39	20.878
432.74	20.385
433.10	21.092
433.45	20.370
433.80	20.662
434.16	20.720
434.51	20.108
434.86	21.312
435.22	21.873
435.57	20.961
435.92	20.838
436.28	21.169
436.63	20.993
436.98	20.684
437.34	20.448
437.69	20.632
438.04	21.197
438.39	20.525
438.75	21.129
439.10	21.222
439.45	21.729
439.81	21.590
440.16	21.259
440.51	21.910
440.86	22.417
441.22	21.776
441.57	21.854
441.92	21.668
442.27	21.175
442.63	21.949
442.98	21.712
443.33	21.536
443.68	20.690
444.03	21.212
444.39	21.643
444.74	21.628
445.09	22.049
445.44	21.823
445.79	21.764
446.15	21.586
446.50	21.353
446.85	22.104
447.20	21.429
447.55	22.154
447.91	21.602
448.26	22.083
448.61	20.898
448.96	21.515
449.31	22.254
449.66	22.067
450.02	22.133
450.37	22.762
450.72	21.993
451.07	21.772
451.42	21.099
451.77	22.363
452.12	21.411
452.47	21.893
452.83	22.203
453.18	22.264
453.53	22.693
453.88	22.769
454.23	22.680
454.58	22.229
454.93	23.196
455.28	21.079
455.63	22.443
455.98	22.971
456.34	22.733
456.69	22.173
457.04	23.251
457.39	21.932
457.74	22.370
458.09	21.130
458.44	21.943
458.79	22.409
459.14	22.883
459.49	22.806
459.84	22.843
460.19	21.723
460.54	22.983
460.89	22.159
461.24	21.801
461.59	23.219
461.94	21.447
462.29	22.437
462.64	22.791
462.99	22.613
463.34	22.045
463.69	21.750
464.04	22.155
464.39	21.710
464.74	23.067
465.09	24.080
465.44	22.504
465.79	21.599
466.14	21.779
466.49	22.254
466.84	22.665
467.19	23.029
467.54	22.733
467.89	22.931
468.24	22.993
468.59	23.492
468.94	22.794
469.29	23.803
469.64	22.420
469.99	23.686
470.34	21.775
470.68	22.893
471.03	24.133
471.38	23.252
471.73	23.109
472.08	22.456
472.43	23.154
472.78	24.126
473.13	23.129
473.48	22.606
473.83	22.478
474.17	23.316
474.52	23.995
474.87	23.212
475.22	22.392
475.57	22.643
475.92	23.094
476.27	23.108
476.61	23.553
476.96	22.755
477.31	23.310
477.66	23.146
478.01	22.852
478.36	23.312
478.70	23.002
479.05	23.187
479.40	23.158
479.75	23.358
480.10	23.451
480.45	23.200
480.79	23.313
481.14	24.180
481.49	23.448
481.84	23.600
482.19	21.796
482.53	23.501
482.88	23.580
483.23	23.512
483.58	23.208
483.92	22.410
484.27	22.653
484.62	22.994
484.97	22.388
485.31	22.868
485.66	22.246
486.01	22.255
486.36	21.866
486.70	22.270
487.05	22.336
487.40	22.156
487.75	22.986
488.09	22.621
488.44	22.490
488.79	22.637
489.13	23.357
489.48	23.215
489.83	23.498
490.17	23.056
490.52	23.741
490.87	22.952
491.22	23.257
491.56	23.624
491.91	22.801
492.26	23.627
492.60	22.985
492.95	24.348
493.30	23.302
493.64	23.919
493.99	23.623
494.34	23.495
494.68	23.714
495.03	23.309
495.37	23.356
495.72	23.069
496.07	23.951
496.41	23.019
496.76	24.413
497.11	22.823
497.45	23.437
497.80	23.865
498.14	23.746
498.49	23.514
498.84	23.603
499.18	24.448
499.53	24.405
499.87	23.541
500.22	23.887
500.56	24.307
500.91	23.494
501.26	23.925
501.60	24.201
501.95	23.193
502.29	23.923
502.64	24.131
502.98	24.223
503.33	23.631
503.67	24.386
504.02	23.949
504.36	24.790
504.71	24.141
505.06	23.201
505.40	23.401
505.75	24.227
506.09	24.126
506.44	24.487
506.78	24.898
507.13	25.129
507.47	23.499
507.82	23.611
508.16	24.036
508.51	24.449
508.85	24.542
509.19	23.683
509.54	24.343
509.88	24.110
510.23	25.282
510.57	24.853
510.92	23.667
511.26	25.041
511.61	24.697
511.95	24.932
512.30	25.055
512.64	24.318
512.98	25.154
513.33	25.350
513.67	24.901
514.02	25.515
514.36	26.457
514.70	25.816
515.05	25.676
515.39	25.620
515.74	26.467
516.08	25.643
516.42	26.325
516.77	25.863
517.11	26.172
517.46	25.913
517.80	24.911
518.14	25.720
518.49	25.841
518.83	25.577
519.17	24.924
519.52	25.281
519.86	24.190
520.20	26.853
520.55	25.328
520.89	27.102
521.23	26.472
521.58	27.256
521.92	26.282
522.26	26.740
522.61	26.429
522.95	27.219
523.29	26.112
523.64	26.048
523.98	26.572
524.32	26.224
524.66	26.569
525.01	26.623
525.35	26.572
525.69	26.061
526.04	26.124
526.38	26.719
526.72	25.441
527.06	27.237
527.41	26.319
527.75	26.206
528.09	26.578
528.43	27.211
528.78	26.601
529.12	26.839
529.46	25.666
529.80	26.409
530.15	28.119
530.49	26.801
530.83	27.633
531.17	26.729
531.51	26.881
531.86	25.901
532.20	27.001
532.54	26.549
532.88	27.310
533.22	26.882
533.57	26.343
533.91	25.783
534.25	27.083
534.59	26.620
534.93	26.306
535.27	26.777
535.62	26.053
535.96	26.484
536.30	26.979
536.64	27.292
536.98	27.387
537.32	26.316
537.66	27.560
538.01	26.853
538.35	26.560
538.69	26.631
539.03	27.136
539.37	26.851
539.71	27.267
540.05	26.748
540.39	26.247
540.73	27.127
541.07	27.762
541.42	27.285
541.76	27.529
542.10	26.772
542.44	26.824
542.78	26.084
543.12	26.099
543.46	27.538
543.80	25.607
544.14	25.634
544.48	27.249
544.82	25.974
545.16	26.298
545.50	27.904
545.84	26.062
546.18	27.092
546.52	26.748
546.86	27.175
547.20	27.611
547.54	25.512
547.88	27.106
548.22	25.904
548.56	26.649
548.90	27.291
549.24	25.069
549.58	26.728
549.92	25.375
550.26	26.520
550.60	27.286
550.94	28.305
551.28	27.666
551.62	27.077
551.96	27.368
552.30	27.412
552.64	26.234
552.98	26.582
553.32	27.675
553.66	26.778
554.00	26.788
554.34	27.548
554.68	27.065
555.02	27.604
555.36	27.001
555.69	26.593
556.03	27.052
556.37	26.335
556.71	27.148
557.05	27.069
557.39	27.212
557.73	27.286
558.07	27.677
558.41	27.718
558.75	28.059
559.08	27.738
559.42	26.905
559.76	26.821
560.10	25.841
560.44	27.252
560.78	26.503
561.12	26.023
561.45	26.142
561.79	27.311
562.13	27.750
562.47	26.619
562.81	25.937
563.15	27.221
563.48	26.591
563.82	26.493
564.16	26.741
564.50	26.284
564.84	26.573
565.17	26.157
565.51	26.844
565.85	26.886
566.19	26.724
566.52	26.206
566.86	27.571
567.20	26.526
567.54	25.791
567.88	27.006
568.21	26.527
568.55	25.326
568.89	25.821
569.23	25.758
569.56	24.912
569.90	26.188
570.24	25.270
570.57	24.655
570.91	25.514
571.25	24.860
571.59	24.759
571.92	24.237
572.26	24.789
572.60	24.589
572.93	24.851
573.27	24.107
573.61	24.672
573.95	24.358
574.28	23.676
574.62	23.671
574.96	23.635
575.29	23.852
575.63	23.167
575.97	23.882
576.30	23.812
576.64	23.656
576.98	24.015
577.31	24.207
577.65	23.784
577.98	23.394
578.32	23.837
578.66	23.447
578.99	23.608
579.33	23.333
579.67	23.618
580.00	24.228
580.34	23.358
580.67	23.467
581.01	23.919
581.35	24.053
581.68	23.204
582.02	23.527
582.35	23.250
582.69	23.296
583.02	23.542
583.36	23.515
583.70	24.299
584.03	24.493
584.37	24.675
584.70	24.396
585.04	23.756
585.37	23.710
585.71	23.772
586.04	23.575
586.38	23.340
586.72	24.247
587.05	24.321
587.39	24.266
587.72	23.756
588.06	24.024
588.39	24.010
588.73	23.932
589.06	24.690
589.40	24.438
589.73	24.425
590.07	25.453
590.40	25.039
590.73	25.865
591.07	25.318
591.40	24.978
591.74	24.525
592.07	25.325
592.41	25.972
592.74	25.249
593.08	24.205
593.41	24.909
593.75	24.403
594.08	23.824
594.41	24.491
594.75	24.122
595.08	24.518
595.42	24.733
595.75	24.221
596.09	24.590
596.42	24.514
596.75	25.400
597.09	25.421
597.42	25.113
597.75	24.233
598.09	24.355
598.42	23.872
598.76	24.882
599.09	24.359
599.42	23.986
599.76	24.229
600.09	24.359
600.42	23.995
600.76	24.071
601.09	24.351
601.42	23.306
601.76	23.382
602.09	24.505
602.42	25.105
602.76	25.042
603.09	25.083
603.42	25.334
603.76	24.355
604.09	24.625
604.42	24.281
604.76	25.011
605.09	25.046
605.42	25.192
605.75	24.124
606.09	23.694
606.42	24.229
606.75	24.199
607.09	24.835
607.42	23.970
607.75	24.645
608.08	23.989
608.42	23.938
608.75	25.349
609.08	24.514
609.41	24.975
609.75	25.000
610.08	24.913
610.41	24.831
610.74	24.866
611.07	24.444
611.41	25.117
611.74	25.320
612.07	24.786
612.40	25.547
612.73	24.689
613.07	24.184
613.40	25.985
613.73	24.902
614.06	25.765
614.39	25.494
614.72	25.154
615.06	25.698
615.39	25.218
615.72	24.004
616.05	24.581
616.38	24.615
616.71	25.566
617.05	25.139
617.38	25.707
617.71	25.283
618.04	25.270
618.37	26.356
618.70	25.809
619.03	27.361
619.36	24.602
619.69	27.293
620.03	26.516
620.36	26.681
620.69	26.267
621.02	25.688
621.35	27.054
621.68	26.871
622.01	26.333
622.34	26.656
622.67	26.262
623.00	25.115
623.33	25.534
623.66	25.131
623.99	25.265
624.32	26.084
624.65	26.466
624.99	26.787
625.32	25.550
625.65	26.787
625.98	26.753
626.31	26.268
626.64	27.296
626.97	26.353
627.30	26.795
627.63	27.296
627.96	27.044
628.29	27.752
628.62	27.335
628.95	25.251
629.28	27.520
629.61	26.919
629.94	28.250
630.26	26.186
630.59	28.616
630.92	27.590
631.25	26.359
631.58	27.753
631.91	26.645
632.24	28.670
632.57	26.932
632.90	26.809
633.23	27.765
633.56	28.338
633.89	26.510
634.22	28.889
634.55	29.225
