SpectraSuite Data File
++++++++++++++++++++++++++++++++++++
Date: Fri May 15 17:25:21 PDT 2015
User: schluterlab
Dark Spectrum Present: Yes
Reference Spectrum Present: Yes
Number of Sampled Component Spectra: 1
Spectrometers: USB2E3373
Integration Time (usec): 3000 (USB2E3373)
Spectra Averaged: 3 (USB2E3373)
Boxcar Smoothing: 0 (USB2E3373)
Correct for Electrical Dark: No (USB2E3373)
Strobe/Lamp Enabled: No (USB2E3373)
Correct for Detector Non-linearity: No (USB2E3373)
Correct for Stray Light: No (USB2E3373)
Number of Pixels in Processed Spectrum: 2048
>>>>>Begin Processed Spectral Data<<<<<
178.53	0.000
178.91	0.000
179.29	25.000
179.67	-350.000
180.04	42.857
180.42	150.000
180.80	-100.000
181.18	-266.667
181.56	400.000
181.94	100.000
182.31	-0.000
182.69	-160.000
183.07	66.667
183.45	-120.000
183.83	116.667
184.20	18.182
184.58	77.778
184.96	-50.000
185.34	-66.667
185.72	-150.000
186.09	-0.000
186.47	-200.000
186.85	133.333
187.23	55.556
187.61	-500.000
187.98	-100.000
188.36	55.556
188.74	-66.667
189.12	82.353
189.49	27.778
189.87	0.000
190.25	100.000
190.63	-350.000
191.00	-133.333
191.38	0.000
191.76	500.000
192.14	-75.000
192.51	650.000
192.89	0.000
193.27	-128.571
193.65	-0.000
194.02	54.545
194.40	80.000
194.78	-75.000
195.15	41.667
195.53	-200.000
195.91	75.000
196.29	25.000
196.66	-7.692
197.04	-71.429
197.42	-88.889
197.79	-233.333
198.17	-76.923
198.55	800.000
198.92	-166.667
199.30	-500.000
199.68	-180.000
200.05	100.000
200.43	0.000
200.81	-200.000
201.18	-133.333
201.56	200.000
201.94	200.000
202.31	-600.000
202.69	-220.000
203.07	225.000
203.44	600.000
203.82	0.000
204.19	42.857
204.57	-200.000
204.95	37.500
205.32	0.000
205.70	100.000
206.08	25.000
206.45	188.889
206.83	107.143
207.20	42.857
207.58	-600.000
207.96	133.333
208.33	20.000
208.71	75.000
209.08	-150.000
209.46	-600.000
209.84	80.000
210.21	0.000
210.59	85.714
210.96	33.333
211.34	25.000
211.71	86.667
212.09	-100.000
212.46	-1200.000
212.84	0.000
213.22	90.000
213.59	-100.000
213.97	92.308
214.34	-45.455
214.72	16.667
215.09	250.000
215.47	61.538
215.84	-27.273
216.22	66.667
216.59	0.000
216.97	-100.000
217.34	-75.000
217.72	-60.000
218.09	-37.500
218.47	50.000
218.84	-700.000
219.22	-11.111
219.59	100.000
219.97	433.333
220.34	225.000
220.72	0.000
221.09	125.000
221.47	0.000
221.84	-650.000
222.22	-450.000
222.59	0.000
222.97	50.000
223.34	-33.333
223.72	35.714
224.09	-4.762
224.46	21.429
224.84	400.000
225.21	40.000
225.59	33.333
225.96	200.000
226.34	250.000
226.71	-57.143
227.08	-50.000
227.46	0.000
227.83	-250.000
228.21	33.333
228.58	90.909
228.95	237.500
229.33	100.000
229.70	62.500
230.08	-62.500
230.45	114.286
230.82	100.000
231.20	40.000
231.57	114.286
231.95	200.000
232.32	-20.000
232.69	-21.429
233.07	33.333
233.44	-60.000
233.81	10.000
234.19	100.000
234.56	29.412
234.93	100.000
235.31	200.000
235.68	-160.000
236.05	-84.615
236.43	35.000
236.80	5.882
237.17	50.000
237.55	10.000
237.92	14.815
238.29	5.556
238.67	43.333
239.04	58.824
239.41	-4.878
239.79	6.667
240.16	46.341
240.53	23.684
240.91	6.522
241.28	25.397
241.65	28.571
242.02	17.808
242.40	26.667
242.77	23.729
243.14	6.061
243.51	32.500
243.89	29.885
244.26	21.839
244.63	27.381
245.00	30.928
245.38	38.144
245.75	20.225
246.12	19.828
246.49	20.661
246.87	15.385
247.24	18.487
247.61	17.544
247.98	23.577
248.36	24.375
248.73	18.421
249.10	18.182
249.47	14.557
249.84	18.954
250.22	22.353
250.59	24.183
250.96	23.005
251.33	24.419
251.70	19.412
252.08	24.873
252.45	25.248
252.82	22.613
253.19	15.668
253.56	19.626
253.94	24.775
254.31	20.000
254.68	23.246
255.05	24.016
255.42	23.581
255.79	26.641
256.16	22.179
256.54	25.000
256.91	23.954
257.28	19.331
257.65	22.097
258.02	20.213
258.39	22.559
258.76	25.275
259.14	23.588
259.51	22.006
259.88	22.680
260.25	18.954
260.62	22.569
260.99	19.322
261.36	23.288
261.73	22.785
262.10	22.188
262.47	18.405
262.85	19.749
263.22	23.077
263.59	21.807
263.96	23.913
264.33	22.121
264.70	24.405
265.07	23.512
265.44	22.946
265.81	22.316
266.18	24.863
266.55	24.936
266.92	23.834
267.29	22.977
267.66	24.041
268.03	25.131
268.40	21.410
268.77	26.203
269.14	23.501
269.51	24.936
269.88	21.197
270.25	20.153
270.62	19.756
270.99	21.228
271.36	23.227
271.73	21.362
272.10	25.061
272.47	24.113
272.84	21.040
273.21	22.506
273.58	21.205
273.95	22.197
274.32	21.247
274.69	19.910
275.06	23.214
275.43	21.088
275.80	22.517
276.17	19.540
276.54	23.340
276.91	23.904
277.28	19.651
277.65	22.314
278.02	22.979
278.39	21.444
278.76	21.384
279.13	19.502
279.50	21.849
279.87	20.086
280.23	20.215
280.60	23.782
280.97	22.626
281.34	17.885
281.71	21.150
282.08	20.859
282.45	20.352
282.82	20.077
283.19	23.017
283.56	20.424
283.92	21.063
284.29	20.192
284.66	20.349
285.03	20.432
285.40	20.794
285.77	19.156
286.14	20.217
286.51	21.587
286.87	20.841
287.24	19.153
287.61	18.519
287.98	20.526
288.35	19.064
288.72	20.315
289.08	18.403
289.45	20.562
289.82	19.406
290.19	20.137
290.56	19.039
290.93	17.003
291.29	18.644
291.66	17.008
292.03	17.384
292.40	19.032
292.77	15.470
293.13	15.422
293.50	18.361
293.87	18.626
294.24	16.383
294.60	16.095
294.97	15.030
295.34	16.564
295.71	16.542
296.08	18.236
296.44	16.074
296.81	16.389
297.18	17.826
297.55	18.428
297.91	16.164
298.28	17.018
298.65	15.332
299.02	15.768
299.38	14.637
299.75	15.172
300.12	14.529
300.48	14.493
300.85	16.223
301.22	14.416
301.59	14.605
301.95	15.949
302.32	16.602
302.69	14.179
303.05	14.728
303.42	15.567
303.79	15.771
304.15	14.337
304.52	14.863
304.89	13.567
305.25	12.470
305.62	14.236
305.99	14.386
306.35	11.792
306.72	13.948
307.09	14.025
307.45	14.466
307.82	14.236
308.19	13.937
308.55	13.959
308.92	14.379
309.29	14.413
309.65	13.455
310.02	13.091
310.38	13.721
310.75	14.973
311.12	14.209
311.48	13.574
311.85	13.089
312.22	13.713
312.58	12.739
312.95	13.127
313.31	13.354
313.68	12.461
314.05	12.959
314.41	12.784
314.78	14.433
315.14	14.902
315.51	14.182
315.87	13.217
316.24	14.257
316.61	12.992
316.97	13.889
317.34	13.965
317.70	14.436
318.07	13.173
318.43	14.412
318.80	13.731
319.16	14.160
319.53	15.005
319.89	14.075
320.26	13.158
320.62	14.744
320.99	14.301
321.35	15.313
321.72	14.953
322.08	15.408
322.45	15.635
322.81	14.145
323.18	14.818
323.54	13.996
323.91	14.995
324.27	15.918
324.64	15.356
325.00	16.150
325.37	16.804
325.73	16.047
326.10	17.348
326.46	17.220
326.83	16.798
327.19	17.088
327.56	18.158
327.92	18.486
328.29	17.411
328.65	18.208
329.01	18.107
329.38	19.078
329.74	17.092
330.11	18.072
330.47	17.904
330.84	18.077
331.20	20.532
331.56	17.963
331.93	20.183
332.29	19.432
332.66	18.009
333.02	18.959
333.38	19.248
333.75	21.612
334.11	19.517
334.48	19.946
334.84	18.590
335.20	19.762
335.57	18.767
335.93	19.874
336.29	20.902
336.66	19.074
337.02	19.517
337.38	18.889
337.75	19.818
338.11	20.198
338.47	20.712
338.84	19.593
339.20	20.567
339.56	19.266
339.93	21.218
340.29	21.284
340.65	19.892
341.02	20.301
341.38	19.646
341.74	19.523
342.11	19.151
342.47	20.018
342.83	20.415
343.20	19.425
343.56	19.739
343.92	20.726
344.28	20.581
344.65	19.948
345.01	19.793
345.37	20.521
345.73	21.004
346.10	20.017
346.46	20.185
346.82	21.358
347.19	18.869
347.55	20.718
347.91	22.006
348.27	19.159
348.63	21.295
349.00	20.345
349.36	19.036
349.72	22.139
350.08	19.918
350.45	19.633
350.81	19.767
351.17	19.707
351.53	21.061
351.89	19.240
352.26	19.360
352.62	20.806
352.98	19.920
353.34	19.887
353.70	20.955
354.07	20.887
354.43	20.416
354.79	20.479
355.15	20.714
355.51	21.203
355.87	20.307
356.24	20.636
356.60	21.019
356.96	21.984
357.32	20.208
357.68	19.703
358.04	21.082
358.40	20.659
358.77	20.494
359.13	20.817
359.49	20.647
359.85	20.983
360.21	20.255
360.57	21.500
360.93	20.802
361.29	19.940
361.66	22.414
362.02	22.045
362.38	21.630
362.74	21.196
363.10	21.971
363.46	20.756
363.82	21.037
364.18	22.140
364.54	21.397
364.90	22.509
365.26	21.616
365.62	22.701
365.98	22.434
366.35	22.433
366.71	22.247
367.07	22.279
367.43	22.430
367.79	21.979
368.15	21.536
368.51	21.923
368.87	21.680
369.23	22.310
369.59	22.157
369.95	22.581
370.31	21.749
370.67	23.284
371.03	22.629
371.39	22.538
371.75	21.758
372.11	23.324
372.47	23.373
372.83	22.782
373.19	23.039
373.55	23.394
373.91	22.894
374.27	23.671
374.63	22.972
374.99	22.411
375.35	22.981
375.71	23.846
376.07	24.017
376.42	23.673
376.78	24.228
377.14	24.374
377.50	24.436
377.86	23.695
378.22	24.952
378.58	24.679
378.94	25.079
379.30	24.766
379.66	25.392
380.02	24.709
380.38	24.772
380.74	24.895
381.09	24.356
381.45	24.954
381.81	25.725
382.17	25.254
382.53	25.234
382.89	25.675
383.25	26.882
383.61	25.793
383.97	26.476
384.32	25.391
384.68	26.130
385.04	25.306
385.40	25.513
385.76	26.478
386.12	27.555
386.48	27.331
386.83	26.569
387.19	26.984
387.55	28.921
387.91	27.262
388.27	27.167
388.62	27.942
388.98	28.300
389.34	27.545
389.70	28.092
390.06	27.942
390.42	27.137
390.77	28.385
391.13	27.554
391.49	28.913
391.85	28.265
392.20	28.123
392.56	28.735
392.92	28.773
393.28	28.538
393.64	28.949
393.99	30.345
394.35	27.957
394.71	28.991
395.07	28.661
395.42	29.083
395.78	29.316
396.14	28.625
396.50	29.994
396.85	29.363
397.21	29.511
397.57	29.091
397.92	29.898
398.28	29.885
398.64	29.157
399.00	30.756
399.35	29.345
399.71	28.891
400.07	30.048
400.42	29.743
400.78	30.251
401.14	30.188
401.49	30.494
401.85	29.738
402.21	30.361
402.57	30.687
402.92	29.987
403.28	31.203
403.63	30.013
403.99	30.548
404.35	31.543
404.70	30.476
405.06	30.905
405.42	29.832
405.77	29.460
406.13	30.210
406.49	29.959
406.84	31.112
407.20	30.163
407.55	30.457
407.91	30.348
408.27	30.720
408.62	31.262
408.98	31.177
409.34	30.731
409.69	30.749
410.05	30.419
410.40	30.926
410.76	30.941
411.11	31.250
411.47	32.018
411.83	30.760
412.18	31.918
412.54	30.961
412.89	30.850
413.25	31.829
413.60	31.988
413.96	30.307
414.31	30.732
414.67	31.944
415.03	31.225
415.38	31.723
415.74	32.704
416.09	32.920
416.45	32.816
416.80	32.716
417.16	32.528
417.51	33.045
417.87	31.943
418.22	32.319
418.58	33.445
418.93	33.730
419.29	31.754
419.64	32.599
420.00	33.690
420.35	32.060
420.71	33.111
421.06	31.921
421.42	32.933
421.77	32.428
422.12	33.258
422.48	33.243
422.83	33.121
423.19	32.562
423.54	32.922
423.90	33.098
424.25	34.156
424.61	34.027
424.96	33.101
425.31	34.835
425.67	34.507
426.02	34.806
426.38	35.191
426.73	35.351
427.09	34.114
427.44	35.647
427.79	35.062
428.15	34.769
428.50	35.615
428.85	34.214
429.21	35.201
429.56	35.849
429.92	36.055
430.27	34.586
430.62	35.024
430.98	35.085
431.33	35.910
431.68	35.583
432.04	34.824
432.39	34.284
432.74	35.719
433.10	36.379
433.45	36.977
433.80	37.028
434.16	36.066
434.51	36.290
434.86	35.889
435.22	35.951
435.57	37.742
435.92	36.886
436.28	37.030
436.63	36.566
436.98	36.790
437.34	37.508
437.69	38.521
438.04	38.974
438.39	37.630
438.75	39.405
439.10	38.596
439.45	39.075
439.81	38.410
440.16	38.777
440.51	39.463
440.86	39.154
441.22	39.140
441.57	38.907
441.92	38.667
442.27	39.800
442.63	39.347
442.98	38.656
443.33	38.509
443.68	37.825
444.03	39.295
444.39	39.154
444.74	39.967
445.09	39.532
445.44	39.259
445.79	40.175
446.15	39.813
446.50	38.769
446.85	39.586
447.20	40.615
447.55	40.067
447.91	39.199
448.26	40.467
448.61	39.609
448.96	41.193
449.31	41.503
449.66	39.199
450.02	40.559
450.37	40.960
450.72	40.722
451.07	41.392
451.42	39.451
451.77	40.506
452.12	40.789
452.47	41.597
452.83	40.931
453.18	40.670
453.53	41.783
453.88	41.409
454.23	41.856
454.58	42.569
454.93	42.590
455.28	40.444
455.63	41.538
455.98	41.792
456.34	41.826
456.69	41.931
457.04	41.777
457.39	41.738
457.74	42.322
458.09	41.789
458.44	41.837
458.79	40.840
459.14	41.590
459.49	42.448
459.84	41.399
460.19	41.990
460.54	43.093
460.89	42.386
461.24	42.236
461.59	41.686
461.94	41.384
462.29	43.305
462.64	43.056
462.99	42.383
463.34	42.490
463.69	41.570
464.04	43.039
464.39	41.722
464.74	41.718
465.09	43.294
465.44	43.047
465.79	41.043
466.14	43.786
466.49	42.496
466.84	41.880
467.19	42.678
467.54	43.167
467.89	42.830
468.24	42.214
468.59	44.063
468.94	42.730
469.29	43.541
469.64	43.814
469.99	44.219
470.34	44.027
470.68	44.892
471.03	45.364
471.38	44.793
471.73	43.347
472.08	43.758
472.43	43.826
472.78	43.592
473.13	44.830
473.48	44.169
473.83	44.583
474.17	45.272
474.52	43.969
474.87	43.879
475.22	43.258
475.57	44.382
475.92	44.432
476.27	44.529
476.61	45.139
476.96	43.279
477.31	43.970
477.66	44.045
478.01	43.908
478.36	43.410
478.70	44.481
479.05	43.901
479.40	44.886
479.75	43.274
480.10	43.728
480.45	42.500
480.79	43.706
481.14	44.775
481.49	43.645
481.84	44.643
482.19	44.200
482.53	44.221
482.88	42.864
483.23	44.146
483.58	44.151
483.92	44.627
484.27	43.938
484.62	44.733
484.97	43.284
485.31	42.413
485.66	40.623
486.01	40.621
486.36	40.377
486.70	40.631
487.05	41.144
487.40	41.081
487.75	41.465
488.09	41.007
488.44	41.781
488.79	42.734
489.13	43.710
489.48	43.865
489.83	44.170
490.17	44.045
490.52	44.296
490.87	43.776
491.22	45.129
491.56	44.023
491.91	43.690
492.26	45.552
492.60	45.633
492.95	45.155
493.30	45.725
493.64	45.874
493.99	44.976
494.34	44.903
494.68	45.190
495.03	44.331
495.37	45.240
495.72	45.785
496.07	46.049
496.41	44.198
496.76	44.496
497.11	44.108
497.45	44.916
497.80	46.115
498.14	44.660
498.49	45.201
498.84	45.409
499.18	45.783
499.53	45.089
499.87	44.504
500.22	45.500
500.56	46.546
500.91	45.934
501.26	44.933
501.60	45.401
501.95	44.541
502.29	45.472
502.64	46.573
502.98	45.387
503.33	45.005
503.67	45.831
504.02	46.481
504.36	46.462
504.71	45.808
505.06	45.949
505.40	46.244
505.75	46.959
506.09	46.123
506.44	48.152
506.78	47.194
507.13	47.260
507.47	46.475
507.82	45.513
508.16	47.121
508.51	47.796
508.85	47.305
509.19	47.259
509.54	48.150
509.88	47.087
510.23	47.768
510.57	46.713
510.92	46.109
511.26	48.391
511.61	47.690
511.95	46.959
512.30	48.337
512.64	48.136
512.98	48.063
513.33	48.909
513.67	47.754
514.02	49.428
514.36	49.486
514.70	48.951
515.05	49.295
515.39	49.055
515.74	50.719
516.08	50.329
516.42	49.706
516.77	50.263
517.11	50.861
517.46	50.987
517.80	50.834
518.14	50.643
518.49	48.377
518.83	51.094
519.17	49.242
519.52	50.207
519.86	50.480
520.20	50.851
520.55	50.532
520.89	51.380
521.23	51.045
521.58	51.546
521.92	51.859
522.26	51.529
522.61	50.909
522.95	52.781
523.29	50.699
523.64	51.652
523.98	52.106
524.32	51.482
524.66	51.793
525.01	52.727
525.35	52.625
525.69	52.323
526.04	50.860
526.38	53.372
526.72	51.602
527.06	50.713
527.41	51.781
527.75	52.212
528.09	53.223
528.43	53.612
528.78	53.135
529.12	52.968
529.46	52.242
529.80	51.805
530.15	53.003
530.49	52.660
530.83	53.967
531.17	51.175
531.51	53.352
531.86	51.666
532.20	52.610
532.54	52.417
532.88	53.525
533.22	52.285
533.57	51.376
533.91	51.501
534.25	52.930
534.59	52.534
534.93	50.913
535.27	50.888
535.62	52.041
535.96	52.185
536.30	51.583
536.64	54.307
536.98	52.334
537.32	53.912
537.66	53.717
538.01	53.217
538.35	52.635
538.69	52.064
539.03	53.110
539.37	52.086
539.71	53.033
540.05	52.274
540.39	52.770
540.73	53.068
541.07	52.970
541.42	52.083
541.76	53.200
542.10	51.686
542.44	53.162
542.78	51.617
543.12	52.198
543.46	51.460
543.80	52.533
544.14	49.599
544.48	51.765
544.82	51.743
545.16	53.689
545.50	51.602
545.84	52.762
546.18	54.043
546.52	53.497
546.86	53.487
547.20	53.290
547.54	51.519
547.88	52.174
548.22	50.625
548.56	52.375
548.90	51.011
549.24	51.240
549.58	52.116
549.92	51.179
550.26	53.333
550.60	54.647
550.94	54.444
551.28	54.096
551.62	54.923
551.96	53.835
552.30	53.509
552.64	53.244
552.98	54.149
553.32	53.566
553.66	53.919
554.00	53.650
554.34	55.613
554.68	53.540
555.02	54.688
555.36	52.431
555.69	55.604
556.03	52.177
556.37	52.669
556.71	53.791
557.05	54.288
557.39	53.903
557.73	54.498
558.07	54.977
558.41	54.211
558.75	56.196
559.08	55.871
559.42	54.524
559.76	56.125
560.10	54.128
560.44	54.207
560.78	53.706
561.12	52.821
561.45	54.673
561.79	53.641
562.13	54.578
562.47	53.741
562.81	54.971
563.15	53.879
563.48	52.900
563.82	53.878
564.16	54.109
564.50	53.176
564.84	53.213
565.17	54.326
565.51	55.533
565.85	55.007
566.19	54.708
566.52	54.021
566.86	54.370
567.20	51.557
567.54	52.129
567.88	53.076
568.21	52.093
568.55	50.870
568.89	50.924
569.23	50.698
569.56	49.037
569.90	49.411
570.24	48.456
570.57	48.836
570.91	47.961
571.25	47.616
571.59	46.310
571.92	45.274
572.26	46.528
572.60	45.767
572.93	45.937
573.27	45.925
573.61	45.973
573.95	46.641
574.28	45.207
574.62	44.699
574.96	44.552
575.29	44.750
575.63	44.234
575.97	44.755
576.30	45.235
576.64	44.901
576.98	46.126
577.31	45.072
577.65	45.413
577.98	44.992
578.32	44.275
578.66	43.692
578.99	44.408
579.33	44.117
579.67	44.310
580.00	45.215
580.34	44.900
580.67	44.461
581.01	44.765
581.35	44.423
581.68	45.070
582.02	43.733
582.35	44.828
582.69	44.780
583.02	44.200
583.36	44.594
583.70	46.028
584.03	45.872
584.37	46.330
584.70	45.907
585.04	43.834
585.37	45.160
585.71	45.125
586.04	45.008
586.38	46.012
586.72	46.485
587.05	47.140
587.39	46.212
587.72	46.993
588.06	46.333
588.39	46.226
588.73	46.642
589.06	47.586
589.40	47.874
589.73	48.412
590.07	48.980
590.40	48.491
590.73	49.835
591.07	48.473
591.40	49.065
591.74	50.633
592.07	50.278
592.41	49.867
592.74	48.228
593.08	47.258
593.41	47.809
593.75	47.727
594.08	47.614
594.41	48.362
594.75	47.672
595.08	49.073
595.42	48.289
595.75	48.066
596.09	48.632
596.42	50.310
596.75	49.822
597.09	49.567
597.42	49.910
597.75	50.344
598.09	49.570
598.42	49.097
598.76	48.949
599.09	48.998
599.42	48.503
599.76	48.495
600.09	47.888
600.42	47.877
600.76	46.991
601.09	48.321
601.42	47.944
601.76	48.670
602.09	49.051
602.42	49.621
602.76	50.127
603.09	50.664
603.42	51.171
603.76	49.234
604.09	49.413
604.42	49.915
604.76	51.179
605.09	50.731
605.42	50.293
605.75	50.306
606.09	49.257
606.42	49.958
606.75	48.961
607.09	49.231
607.42	50.244
607.75	49.600
608.08	48.518
608.42	49.520
608.75	51.181
609.08	51.769
609.41	50.609
609.75	51.361
610.08	51.772
610.41	50.097
610.74	50.804
611.07	51.938
611.41	51.064
611.74	52.292
612.07	50.857
612.40	53.173
612.73	52.768
613.07	53.262
613.40	51.696
613.73	52.714
614.06	52.643
614.39	53.356
614.72	52.325
615.06	52.067
615.39	51.146
615.72	51.453
616.05	52.849
616.38	51.966
616.71	52.905
617.05	53.428
617.38	54.054
617.71	54.403
618.04	54.921
618.37	55.612
618.70	55.512
619.03	56.389
619.36	56.657
619.69	57.544
620.03	56.392
620.36	55.794
620.69	55.675
621.02	55.581
621.35	59.585
621.68	57.993
622.01	58.833
622.34	59.218
622.67	58.281
623.00	57.963
623.33	57.927
623.66	55.198
623.99	55.522
624.32	57.338
624.65	57.293
624.99	57.938
625.32	56.482
625.65	57.973
625.98	59.790
626.31	59.518
626.64	61.958
626.97	59.337
627.30	60.420
627.63	60.139
627.96	61.545
628.29	60.500
628.62	59.980
628.95	62.625
629.28	61.593
629.61	62.114
629.94	62.757
630.26	61.858
630.59	64.620
630.92	61.538
631.25	61.026
631.58	63.767
631.91	62.829
632.24	64.564
632.57	63.636
632.90	65.125
633.23	65.294
633.56	67.254
633.89	66.215
634.22	66.914
