SpectraSuite Data File
++++++++++++++++++++++++++++++++++++
Date: Fri May 15 20:15:37 PDT 2015
User: schluterlab
Dark Spectrum Present: Yes
Reference Spectrum Present: Yes
Number of Sampled Component Spectra: 1
Spectrometers: USB2E3373
Integration Time (usec): 3000 (USB2E3373)
Spectra Averaged: 3 (USB2E3373)
Boxcar Smoothing: 0 (USB2E3373)
Correct for Electrical Dark: No (USB2E3373)
Strobe/Lamp Enabled: No (USB2E3373)
Correct for Detector Non-linearity: No (USB2E3373)
Correct for Stray Light: No (USB2E3373)
Number of Pixels in Processed Spectrum: 2048
>>>>>Begin Processed Spectral Data<<<<<
178.53	0.000
178.91	0.000
179.29	37.500
179.67	-500.000
180.04	-28.571
180.42	150.000
180.80	-700.000
181.18	-233.333
181.56	600.000
181.94	-150.000
182.31	700.000
182.69	-100.000
183.07	-333.333
183.45	-180.000
183.83	133.333
184.20	45.455
184.58	33.333
184.96	-225.000
185.34	-66.667
185.72	-500.000
186.09	100.000
186.47	-500.000
186.85	16.667
187.23	22.222
187.61	-400.000
187.98	33.333
188.36	-44.444
188.74	-66.667
189.12	64.706
189.49	83.333
189.87	0.000
190.25	28.571
190.63	400.000
191.00	-333.333
191.38	10.526
191.76	150.000
192.14	375.000
192.51	200.000
192.89	-33.333
193.27	-57.143
193.65	100.000
194.02	72.727
194.40	20.000
194.78	-100.000
195.15	-58.333
195.53	-87.500
195.91	-0.000
196.29	-100.000
196.66	100.000
197.04	-28.571
197.42	66.667
197.79	-366.667
198.17	-61.538
198.55	1500.000
198.92	-333.333
199.30	500.000
199.68	-60.000
200.05	33.333
200.43	0.000
200.81	66.667
201.18	133.333
201.56	1200.000
201.94	-250.000
202.31	-0.000
202.69	20.000
203.07	175.000
203.44	-200.000
203.82	0.000
204.19	64.286
204.57	-466.667
204.95	-0.000
205.32	50.000
205.70	-42.857
206.08	75.000
206.45	111.111
206.83	42.857
207.20	-85.714
207.58	200.000
207.96	-200.000
208.33	10.000
208.71	-150.000
209.08	-100.000
209.46	-800.000
209.84	-60.000
210.21	400.000
210.59	57.143
210.96	33.333
211.34	50.000
211.71	53.333
212.09	0.000
212.46	-700.000
212.84	0.000
213.22	40.000
213.59	200.000
213.97	30.769
214.34	9.091
214.72	-116.667
215.09	325.000
215.47	-15.385
215.84	63.636
216.22	-133.333
216.59	-50.000
216.97	200.000
217.34	-150.000
217.72	-140.000
218.09	125.000
218.47	62.500
218.84	-1000.000
219.22	-100.000
219.59	-20.000
219.97	233.333
220.34	275.000
220.72	-100.000
221.09	25.000
221.47	100.000
221.84	-500.000
222.22	-550.000
222.59	72.727
222.97	125.000
223.34	-100.000
223.72	-21.429
224.09	-23.810
224.46	17.857
224.84	-33.333
225.21	-40.000
225.59	100.000
225.96	-200.000
226.34	225.000
226.71	14.286
227.08	100.000
227.46	25.000
227.83	-150.000
228.21	55.556
228.58	-45.455
228.95	-12.500
229.33	90.000
229.70	0.000
230.08	-62.500
230.45	14.286
230.82	28.571
231.20	60.000
231.57	50.000
231.95	-100.000
232.32	-90.000
232.69	100.000
233.07	166.667
233.44	0.000
233.81	40.000
234.19	33.333
234.56	-52.941
234.93	-0.000
235.31	-25.000
235.68	-60.000
236.05	-46.154
236.43	-10.000
236.80	0.000
237.17	31.250
237.55	15.000
237.92	7.407
238.29	33.333
238.67	26.667
239.04	17.647
239.41	-21.951
239.79	63.333
240.16	26.829
240.53	31.579
240.91	21.739
241.28	12.698
241.65	21.429
242.02	34.247
242.40	40.000
242.77	20.339
243.14	36.364
243.51	31.250
243.89	21.839
244.26	16.092
244.63	30.952
245.00	24.742
245.38	26.804
245.75	20.225
246.12	25.862
246.49	35.537
246.87	22.115
247.24	19.328
247.61	21.053
247.98	22.764
248.36	31.250
248.73	28.947
249.10	27.273
249.47	26.582
249.84	27.451
250.22	30.000
250.59	33.333
250.96	25.822
251.33	26.744
251.70	32.353
252.08	29.949
252.45	28.218
252.82	35.176
253.19	35.484
253.56	30.374
253.94	28.378
254.31	29.130
254.68	28.070
255.05	27.165
255.42	32.314
255.79	28.571
256.16	27.626
256.54	29.104
256.91	26.236
257.28	33.086
257.65	28.464
258.02	27.305
258.39	31.987
258.76	32.234
259.14	28.239
259.51	31.715
259.88	28.522
260.25	29.739
260.62	31.944
260.99	30.508
261.36	29.452
261.73	31.013
262.10	30.395
262.47	30.675
262.85	28.213
263.22	28.000
263.59	33.956
263.96	32.919
264.33	33.636
264.70	28.571
265.07	26.190
265.44	30.878
265.81	30.226
266.18	30.328
266.55	27.506
266.92	30.311
267.29	28.721
267.66	29.412
268.03	29.319
268.40	29.243
268.77	31.551
269.14	27.338
269.51	30.848
269.88	29.177
270.25	26.020
270.62	27.561
270.99	29.412
271.36	25.917
271.73	28.638
272.10	28.467
272.47	29.314
272.84	27.475
273.21	27.842
273.58	29.880
273.95	28.375
274.32	29.099
274.69	26.471
275.06	29.018
275.43	29.025
275.80	29.581
276.17	29.425
276.54	28.051
276.91	31.798
277.28	29.694
277.65	29.545
278.02	26.809
278.39	26.915
278.76	26.834
279.13	25.104
279.50	28.992
279.87	30.454
280.23	26.022
280.60	27.680
280.97	28.687
281.34	28.269
281.71	29.569
282.08	25.971
282.45	29.354
282.82	24.131
283.19	27.853
283.56	27.553
283.92	27.324
284.29	24.808
284.66	27.132
285.03	27.112
285.40	26.276
285.77	26.538
286.14	26.715
286.51	27.491
286.87	26.691
287.24	27.440
287.61	24.339
287.98	25.263
288.35	26.516
288.72	25.569
289.08	26.389
289.45	24.956
289.82	23.601
290.19	21.672
290.56	25.557
290.93	24.747
291.29	21.880
291.66	22.520
292.03	22.010
292.40	23.548
292.77	21.850
293.13	22.240
293.50	21.244
293.87	22.595
294.24	22.566
294.60	23.249
294.97	21.429
295.34	21.166
295.71	20.268
296.08	21.076
296.44	19.346
296.81	20.417
297.18	20.580
297.55	21.409
297.91	22.192
298.28	20.580
298.65	20.353
299.02	21.159
299.38	18.331
299.75	17.793
300.12	20.157
300.48	19.631
300.85	19.518
301.22	20.909
301.59	19.868
301.95	19.367
302.32	20.233
302.69	20.522
303.05	19.431
303.42	19.801
303.79	19.276
304.15	19.235
304.52	18.430
304.89	17.778
305.25	18.644
305.62	18.436
305.99	19.064
306.35	17.225
306.72	16.648
307.09	19.384
307.45	18.370
307.82	18.750
308.19	18.815
308.55	18.321
308.92	19.499
309.29	17.654
309.65	17.546
310.02	17.712
310.38	18.551
310.75	18.470
311.12	18.192
311.48	17.922
311.85	18.325
312.22	18.143
312.58	17.941
312.95	17.716
313.31	17.598
313.68	17.068
314.05	17.653
314.41	17.629
314.78	18.557
315.14	17.780
315.51	17.495
315.87	16.496
316.24	17.492
316.61	18.996
316.97	16.369
317.34	16.504
317.70	17.973
318.07	17.308
318.43	17.255
318.80	17.140
319.16	17.969
319.53	16.999
319.89	17.028
320.26	17.105
320.62	17.352
320.99	17.954
321.35	16.958
321.72	18.380
322.08	17.724
322.45	15.838
322.81	18.075
323.18	17.468
323.54	17.278
323.91	16.748
324.27	17.285
324.64	16.854
325.00	17.974
325.37	18.365
325.73	15.503
326.10	17.166
326.46	16.861
326.83	16.185
327.19	17.786
327.56	16.855
327.92	18.222
328.29	17.589
328.65	17.358
329.01	16.544
329.38	17.143
329.74	16.714
330.11	16.126
330.47	17.347
330.84	15.865
331.20	17.586
331.56	15.000
331.93	18.174
332.29	16.682
332.66	17.195
333.02	15.799
333.38	15.857
333.75	15.934
334.11	15.756
334.48	16.410
334.84	16.392
335.20	16.194
335.57	16.500
335.93	16.712
336.29	16.390
336.66	16.258
337.02	15.149
337.38	15.741
337.75	17.364
338.11	15.870
338.47	17.427
338.84	16.359
339.20	16.271
339.56	15.596
339.93	16.025
340.29	16.422
340.65	16.935
341.02	16.578
341.38	16.549
341.74	15.371
342.11	14.298
342.47	16.726
342.83	15.744
343.20	15.679
343.56	15.913
343.92	15.058
344.28	16.396
344.65	15.458
345.01	15.817
345.37	15.980
345.73	16.234
346.10	15.876
346.46	16.064
346.82	15.057
347.19	15.295
347.55	15.288
347.91	16.343
348.27	15.441
348.63	16.440
349.00	14.438
349.36	15.960
349.72	15.174
350.08	16.148
350.45	15.323
350.81	14.867
351.17	15.065
351.53	16.163
351.89	14.781
352.26	14.880
352.62	15.806
352.98	15.341
353.34	14.654
353.70	16.262
354.07	14.677
354.43	15.853
354.79	14.368
355.15	15.635
355.51	16.139
355.87	14.968
356.24	14.519
356.60	14.875
356.96	15.635
357.32	15.016
357.68	14.308
358.04	14.216
358.40	14.871
358.77	16.029
359.13	13.931
359.49	15.871
359.85	15.133
360.21	14.753
360.57	15.073
360.93	14.826
361.29	14.502
361.66	14.969
362.02	15.227
362.38	15.461
362.74	14.459
363.10	16.253
363.46	15.493
363.82	14.801
364.18	14.686
364.54	13.897
364.90	14.624
365.26	14.265
365.62	15.547
365.98	14.883
366.35	15.295
366.71	15.152
367.07	15.239
367.43	13.947
367.79	15.053
368.15	14.716
368.51	15.368
368.87	13.424
369.23	13.863
369.59	14.723
369.95	14.736
370.31	14.812
370.67	14.701
371.03	14.264
371.39	13.713
371.75	13.993
372.11	15.193
372.47	14.423
372.83	14.407
373.19	15.692
373.55	13.718
373.91	14.471
374.27	14.529
374.63	14.932
374.99	13.617
375.35	14.415
375.71	14.336
376.07	14.185
376.42	13.537
376.78	15.369
377.14	14.286
377.50	14.608
377.86	14.190
378.22	14.869
378.58	14.295
378.94	14.871
379.30	14.286
379.66	14.483
380.02	14.102
380.38	13.999
380.74	14.063
381.09	14.172
381.45	13.884
381.81	14.559
382.17	14.150
382.53	13.866
382.89	13.810
383.25	14.375
383.61	14.756
383.97	13.587
384.32	13.383
384.68	14.241
385.04	13.419
385.40	14.126
385.76	14.780
386.12	14.101
386.48	14.879
386.83	14.711
387.19	14.042
387.55	14.492
387.91	13.998
388.27	14.103
388.62	14.852
388.98	14.303
389.34	14.678
389.70	15.165
390.06	14.097
390.42	14.249
390.77	14.192
391.13	13.871
391.49	14.942
391.85	14.425
392.20	14.124
392.56	14.749
392.92	14.915
393.28	14.387
393.64	13.694
393.99	16.050
394.35	13.346
394.71	15.198
395.07	15.085
395.42	14.268
395.78	13.225
396.14	13.997
396.50	14.648
396.85	14.359
397.21	14.286
397.57	14.608
397.92	14.859
398.28	14.828
398.64	14.096
399.00	15.293
399.35	14.447
399.71	15.221
400.07	15.538
400.42	14.504
400.78	15.248
401.14	14.640
401.49	14.949
401.85	14.016
402.21	15.120
402.57	14.312
402.92	14.492
403.28	14.912
403.63	14.943
403.99	14.605
404.35	14.428
404.70	15.060
405.06	14.747
405.42	14.854
405.77	14.410
406.13	14.435
406.49	14.210
406.84	14.364
407.20	14.871
407.55	14.552
407.91	14.572
408.27	14.468
408.62	15.569
408.98	13.678
409.34	14.932
409.69	14.147
410.05	14.286
410.40	14.321
410.76	14.415
411.11	14.625
411.47	15.253
411.83	14.564
412.18	14.479
412.54	14.794
412.89	13.978
413.25	14.561
413.60	13.975
413.96	14.294
414.31	15.305
414.67	15.010
415.03	14.647
415.38	14.883
415.74	15.114
416.09	15.676
416.45	15.395
416.80	14.342
417.16	14.572
417.51	15.256
417.87	14.928
418.22	15.155
418.58	13.980
418.93	15.486
419.29	14.341
419.64	14.841
420.00	15.617
420.35	15.224
420.71	15.371
421.06	13.996
421.42	15.144
421.77	14.740
422.12	13.507
422.48	14.997
422.83	15.313
423.19	15.237
423.54	14.638
423.90	14.016
424.25	15.098
424.61	15.177
424.96	15.099
425.31	15.309
425.67	14.495
426.02	15.724
426.38	14.527
426.73	14.467
427.09	15.949
427.44	14.647
427.79	15.439
428.15	15.413
428.50	15.082
428.85	14.128
429.21	15.676
429.56	15.310
429.92	15.203
430.27	15.188
430.62	14.219
430.98	14.968
431.33	14.879
431.68	15.489
432.04	15.595
432.39	14.375
432.74	15.574
433.10	15.402
433.45	15.233
433.80	14.916
434.16	14.848
434.51	15.538
434.86	15.331
435.22	14.470
435.57	14.660
435.92	14.910
436.28	14.669
436.63	14.775
436.98	15.006
437.34	15.789
437.69	15.265
438.04	15.157
438.39	14.417
438.75	15.665
439.10	15.280
439.45	15.703
439.81	14.924
440.16	15.261
440.51	15.104
440.86	16.193
441.22	15.385
441.57	15.342
441.92	16.055
442.27	15.299
442.63	16.060
442.98	14.647
443.33	14.580
443.68	15.438
444.03	15.648
444.39	16.183
444.74	16.054
445.09	15.702
445.44	15.328
445.79	16.349
446.15	15.308
446.50	14.920
446.85	15.303
447.20	15.485
447.55	16.071
447.91	15.510
448.26	15.879
448.61	16.120
448.96	16.236
449.31	15.376
449.66	15.331
450.02	15.973
450.37	15.471
450.72	15.865
451.07	15.316
451.42	16.854
451.77	16.697
452.12	15.730
452.47	15.969
452.83	15.960
453.18	16.319
453.53	15.866
453.88	15.483
454.23	16.165
454.58	15.995
454.93	16.108
455.28	15.238
455.63	15.437
455.98	15.634
456.34	16.156
456.69	15.883
457.04	16.572
457.39	15.431
457.74	15.659
458.09	15.009
458.44	15.506
458.79	15.462
459.14	16.247
459.49	16.060
459.84	16.469
460.19	15.595
460.54	16.504
460.89	16.250
461.24	15.839
461.59	16.805
461.94	15.535
462.29	16.285
462.64	16.478
462.99	16.181
463.34	16.203
463.69	15.959
464.04	15.981
464.39	15.585
464.74	15.828
465.09	16.220
465.44	16.388
465.79	15.930
466.14	15.165
466.49	16.159
466.84	16.121
467.19	15.645
467.54	16.092
467.89	15.287
468.24	15.146
468.59	16.063
468.94	15.810
469.29	15.541
469.64	15.858
469.99	16.258
470.34	15.222
470.68	16.107
471.03	15.570
471.38	15.977
471.73	16.317
472.08	15.739
472.43	15.436
472.78	15.490
473.13	15.714
473.48	16.221
473.83	15.131
474.17	16.192
474.52	15.890
474.87	15.939
475.22	16.107
475.57	15.641
475.92	16.456
476.27	16.705
476.61	16.319
476.96	15.449
477.31	16.279
477.66	15.955
478.01	15.385
478.36	15.414
478.70	15.715
479.05	16.703
479.40	16.163
479.75	15.328
480.10	15.668
480.45	15.900
480.79	16.767
481.14	15.881
481.49	15.665
481.84	15.685
482.19	15.388
482.53	16.163
482.88	15.752
483.23	15.547
483.58	15.991
483.92	15.247
484.27	15.816
484.62	15.957
484.97	15.547
485.31	16.402
485.66	15.287
486.01	15.773
486.36	15.840
486.70	16.775
487.05	16.551
487.40	16.029
487.75	16.225
488.09	16.069
488.44	16.197
488.79	16.175
489.13	16.346
489.48	15.306
489.83	15.516
490.17	15.506
490.52	16.351
490.87	15.456
491.22	16.237
491.56	15.228
491.91	15.631
492.26	15.897
492.60	15.835
492.95	16.527
493.30	15.584
493.64	14.882
493.99	16.087
494.34	15.340
494.68	16.143
495.03	15.523
495.37	15.751
495.72	14.841
496.07	15.659
496.41	15.660
496.76	15.615
497.11	14.858
497.45	16.038
497.80	15.691
498.14	15.698
498.49	15.338
498.84	15.719
499.18	15.763
499.53	16.270
499.87	15.175
500.22	14.985
500.56	16.087
500.91	15.110
501.26	15.522
501.60	15.445
501.95	15.672
502.29	15.932
502.64	15.878
502.98	14.554
503.33	15.178
503.67	15.855
504.02	15.787
504.36	15.834
504.71	15.303
505.06	15.551
505.40	16.041
505.75	16.495
506.09	15.459
506.44	16.324
506.78	16.071
507.13	15.564
507.47	15.509
507.82	14.690
508.16	15.214
508.51	15.740
508.85	15.437
509.19	15.008
509.54	15.603
509.88	15.426
510.23	15.707
510.57	15.553
510.92	15.139
511.26	15.767
511.61	15.347
511.95	15.945
512.30	14.911
512.64	15.860
512.98	15.385
513.33	16.004
513.67	14.952
514.02	16.076
514.36	15.371
514.70	15.443
515.05	15.981
515.39	15.289
515.74	15.808
516.08	15.481
516.42	16.372
516.77	15.799
517.11	15.905
517.46	16.278
517.80	15.912
518.14	15.860
518.49	15.445
518.83	16.100
519.17	15.039
519.52	14.802
519.86	15.306
520.20	15.006
520.55	15.322
520.89	15.307
521.23	15.833
521.58	15.836
521.92	15.962
522.26	15.940
522.61	14.870
522.95	15.430
523.29	15.693
523.64	16.264
523.98	15.619
524.32	14.562
524.66	15.621
525.01	15.844
525.35	15.619
525.69	16.027
526.04	14.815
526.38	15.759
526.72	15.631
527.06	16.148
527.41	16.095
527.75	14.343
528.09	14.817
528.43	16.408
528.78	15.116
529.12	15.871
529.46	15.465
529.80	16.276
530.15	15.314
530.49	14.680
530.83	15.458
531.17	15.648
531.51	16.074
531.86	14.820
532.20	14.823
532.54	15.453
532.88	16.769
533.22	17.003
533.57	15.990
533.91	15.078
534.25	15.560
534.59	14.561
534.93	15.419
535.27	14.911
535.62	15.749
535.96	16.243
536.30	15.633
536.64	16.265
536.98	15.331
537.32	15.576
537.66	15.778
538.01	16.014
538.35	15.950
538.69	16.178
539.03	15.311
539.37	15.410
539.71	16.564
540.05	15.614
540.39	15.859
540.73	15.621
541.07	15.331
541.42	15.927
541.76	16.242
542.10	14.935
542.44	15.427
542.78	14.591
543.12	15.659
543.46	15.925
543.80	14.573
544.14	14.953
544.48	14.990
544.82	15.653
545.16	16.257
545.50	16.288
545.84	15.439
546.18	16.099
546.52	15.357
546.86	15.313
547.20	15.236
547.54	15.124
547.88	16.033
548.22	14.990
548.56	14.710
548.90	16.375
549.24	14.601
549.58	15.867
549.92	14.939
550.26	14.505
550.60	15.019
550.94	15.310
551.28	14.142
551.62	15.615
551.96	15.489
552.30	15.278
552.64	15.303
552.98	15.049
553.32	15.193
553.66	15.602
554.00	15.109
554.34	15.879
554.68	15.265
555.02	16.071
555.36	15.782
555.69	13.993
556.03	14.276
556.37	15.374
556.71	16.029
557.05	15.884
557.39	15.613
557.73	14.768
558.07	15.535
558.41	15.008
558.75	14.653
559.08	15.682
559.42	14.921
559.76	14.972
560.10	15.673
560.44	15.115
560.78	16.154
561.12	15.797
561.45	16.514
561.79	15.126
562.13	15.401
562.47	15.324
562.81	14.986
563.15	15.162
563.48	15.842
563.82	16.198
564.16	15.251
564.50	15.743
564.84	15.529
565.17	15.895
565.51	16.120
565.85	15.638
566.19	15.318
566.52	16.086
566.86	16.324
567.20	15.753
567.54	15.937
567.88	15.876
568.21	15.837
568.55	15.054
568.89	16.068
569.23	15.551
569.56	15.806
569.90	16.443
570.24	15.854
570.57	16.291
570.91	16.068
571.25	15.982
571.59	15.696
571.92	15.970
572.26	15.791
572.60	16.155
572.93	15.814
573.27	16.176
573.61	15.662
573.95	15.975
574.28	15.757
574.62	15.662
574.96	16.006
575.29	15.422
575.63	15.833
575.97	15.668
576.30	15.687
576.64	15.788
576.98	16.165
577.31	15.557
577.65	15.940
577.98	16.484
578.32	15.787
578.66	15.839
578.99	15.840
579.33	15.788
579.67	16.200
580.00	15.899
580.34	15.846
580.67	16.246
581.01	16.186
581.35	15.870
581.68	15.981
582.02	16.168
582.35	15.915
582.69	16.323
583.02	16.129
583.36	16.276
583.70	16.018
584.03	16.375
584.37	16.573
584.70	16.374
585.04	15.544
585.37	16.044
585.71	15.774
586.04	15.658
586.38	15.471
586.72	15.897
587.05	16.464
587.39	16.019
587.72	16.703
588.06	15.804
588.39	16.349
588.73	15.965
589.06	16.569
589.40	16.557
589.73	16.393
590.07	16.201
590.40	16.486
590.73	16.433
591.07	15.691
591.40	16.073
591.74	16.652
592.07	16.234
592.41	16.740
592.74	15.970
593.08	15.788
593.41	16.409
593.75	15.734
594.08	15.963
594.41	16.557
594.75	16.221
595.08	15.437
595.42	16.158
595.75	15.997
596.09	16.224
596.42	16.329
596.75	16.963
597.09	15.763
597.42	15.492
597.75	15.941
598.09	15.754
598.42	15.839
598.76	15.830
599.09	15.705
599.42	16.142
599.76	15.801
600.09	15.875
600.42	15.694
600.76	16.233
601.09	15.954
601.42	15.981
601.76	15.601
602.09	15.718
602.42	16.512
602.76	16.553
603.09	16.445
603.42	16.806
603.76	15.484
604.09	15.553
604.42	16.540
604.76	15.888
605.09	16.408
605.42	16.298
605.75	16.156
606.09	15.669
606.42	15.763
606.75	16.190
607.09	16.220
607.42	15.507
607.75	15.719
608.08	15.813
608.42	15.989
608.75	15.952
609.08	16.193
609.41	16.041
609.75	15.827
610.08	15.627
610.41	15.314
610.74	15.407
611.07	16.021
611.41	15.776
611.74	16.258
612.07	15.096
612.40	16.247
612.73	15.198
613.07	14.567
613.40	15.974
613.73	15.669
614.06	15.025
614.39	15.680
614.72	15.798
615.06	15.642
615.39	15.830
615.72	16.254
616.05	15.754
616.38	15.670
616.71	15.841
617.05	15.750
617.38	15.651
617.71	15.094
618.04	16.127
618.37	16.015
618.70	15.512
619.03	17.083
619.36	15.847
619.69	15.845
620.03	15.778
620.36	15.165
620.69	14.704
621.02	14.985
621.35	15.021
621.68	16.582
622.01	15.083
622.34	15.962
622.67	17.271
623.00	15.697
623.33	14.787
623.66	14.510
623.99	14.902
624.32	15.285
624.65	13.534
624.99	14.974
625.32	14.329
625.65	16.104
625.98	13.860
626.31	14.879
626.64	14.905
626.97	16.056
627.30	15.674
627.63	15.165
627.96	15.094
628.29	14.616
628.62	16.519
628.95	14.930
629.28	15.423
629.61	14.756
629.94	16.031
630.26	13.933
630.59	14.880
630.92	14.872
631.25	15.077
631.58	14.317
631.91	14.803
632.24	14.679
632.57	15.341
632.90	12.930
633.23	14.824
633.56	14.610
