SpectraSuite Data File
++++++++++++++++++++++++++++++++++++
Date: Fri May 15 17:14:17 PDT 2015
User: schluterlab
Dark Spectrum Present: Yes
Reference Spectrum Present: Yes
Number of Sampled Component Spectra: 1
Spectrometers: USB2E3373
Integration Time (usec): 3000 (USB2E3373)
Spectra Averaged: 3 (USB2E3373)
Boxcar Smoothing: 0 (USB2E3373)
Correct for Electrical Dark: No (USB2E3373)
Strobe/Lamp Enabled: No (USB2E3373)
Correct for Detector Non-linearity: No (USB2E3373)
Correct for Stray Light: No (USB2E3373)
Number of Pixels in Processed Spectrum: 2048
>>>>>Begin Processed Spectral Data<<<<<
178.53	0.000
178.91	0.000
179.29	37.500
179.67	-50.000
180.04	-142.857
180.42	200.000
180.80	-200.000
181.18	-433.333
181.56	-50.000
181.94	-150.000
182.31	-400.000
182.69	60.000
183.07	-200.000
183.45	0.000
183.83	33.333
184.20	72.727
184.58	-33.333
184.96	-100.000
185.34	-166.667
185.72	-500.000
186.09	61.538
186.47	300.000
186.85	50.000
187.23	133.333
187.61	-400.000
187.98	-166.667
188.36	122.222
188.74	66.667
189.12	52.941
189.49	105.556
189.87	0.000
190.25	71.429
190.63	300.000
191.00	166.667
191.38	21.053
191.76	450.000
192.14	125.000
192.51	100.000
192.89	66.667
193.27	28.571
193.65	16.667
194.02	109.091
194.40	160.000
194.78	12.500
195.15	25.000
195.53	112.500
195.91	-0.000
196.29	50.000
196.66	15.385
197.04	-57.143
197.42	77.778
197.79	-133.333
198.17	-23.077
198.55	1000.000
198.92	-100.000
199.30	800.000
199.68	80.000
200.05	-200.000
200.43	0.000
200.81	233.333
201.18	66.667
201.56	500.000
201.94	400.000
202.31	-233.333
202.69	160.000
203.07	-75.000
203.44	1300.000
203.82	0.000
204.19	114.286
204.57	-266.667
204.95	-0.000
205.32	90.000
205.70	171.429
206.08	175.000
206.45	55.556
206.83	71.429
207.20	-14.286
207.58	-600.000
207.96	200.000
208.33	-110.000
208.71	-200.000
209.08	-200.000
209.46	400.000
209.84	120.000
210.21	100.000
210.59	142.857
210.96	133.333
211.34	350.000
211.71	60.000
212.09	42.857
212.46	-300.000
212.84	0.000
213.22	150.000
213.59	150.000
213.97	146.154
214.34	27.273
214.72	66.667
215.09	100.000
215.47	15.385
215.84	54.545
216.22	100.000
216.59	-12.500
216.97	300.000
217.34	250.000
217.72	100.000
218.09	75.000
218.47	-100.000
218.84	-500.000
219.22	22.222
219.59	240.000
219.97	-133.333
220.34	-125.000
220.72	-42.857
221.09	0.000
221.47	550.000
221.84	-150.000
222.22	-400.000
222.59	18.182
222.97	66.667
223.34	100.000
223.72	35.714
224.09	57.143
224.46	71.429
224.84	133.333
225.21	100.000
225.59	26.667
225.96	50.000
226.34	-0.000
226.71	14.286
227.08	33.333
227.46	50.000
227.83	-50.000
228.21	111.111
228.58	9.091
228.95	137.500
229.33	50.000
229.70	118.750
230.08	37.500
230.45	42.857
230.82	214.286
231.20	6.667
231.57	64.286
231.95	-28.571
232.32	-50.000
232.69	78.571
233.07	433.333
233.44	80.000
233.81	130.000
234.19	200.000
234.56	70.588
234.93	100.000
235.31	0.000
235.68	80.000
236.05	0.000
236.43	-15.000
236.80	52.941
237.17	40.625
237.55	30.000
237.92	37.037
238.29	58.333
238.67	26.667
239.04	20.588
239.41	-4.878
239.79	16.667
240.16	41.463
240.53	36.842
240.91	26.087
241.28	30.159
241.65	30.357
242.02	32.877
242.40	16.667
242.77	20.339
243.14	15.152
243.51	15.000
243.89	35.632
244.26	17.241
244.63	21.429
245.00	18.557
245.38	19.588
245.75	22.472
246.12	18.966
246.49	18.182
246.87	20.192
247.24	15.126
247.61	8.772
247.98	21.138
248.36	22.500
248.73	14.474
249.10	17.532
249.47	14.557
249.84	24.183
250.22	18.235
250.59	20.915
250.96	20.657
251.33	11.047
251.70	26.471
252.08	16.244
252.45	15.842
252.82	13.065
253.19	15.668
253.56	16.355
253.94	13.063
254.31	19.130
254.68	19.737
255.05	14.173
255.42	15.284
255.79	15.058
256.16	18.288
256.54	16.045
256.91	13.688
257.28	16.357
257.65	15.730
258.02	17.376
258.39	16.835
258.76	16.484
259.14	20.266
259.51	16.181
259.88	13.402
260.25	13.072
260.62	15.625
260.99	14.576
261.36	13.014
261.73	16.456
262.10	17.325
262.47	14.724
262.85	14.107
263.22	15.692
263.59	17.445
263.96	17.391
264.33	16.364
264.70	16.964
265.07	17.560
265.44	15.581
265.81	14.407
266.18	10.929
266.55	15.938
266.92	16.321
267.29	18.277
267.66	16.113
268.03	16.492
268.40	15.405
268.77	20.321
269.14	14.868
269.51	15.681
269.88	13.217
270.25	14.286
270.62	15.610
270.99	15.090
271.36	13.447
271.73	17.136
272.10	17.275
272.47	14.657
272.84	14.356
273.21	18.097
273.58	15.663
273.95	16.934
274.32	16.628
274.69	11.086
275.06	15.179
275.43	14.286
275.80	16.115
276.17	14.713
276.54	14.561
276.91	14.693
277.28	14.847
277.65	14.876
278.02	15.106
278.39	14.880
278.76	14.465
279.13	10.166
279.50	14.076
279.87	15.551
280.23	15.699
280.60	16.959
280.97	15.354
281.34	12.500
281.71	16.016
282.08	13.088
282.45	12.720
282.82	12.162
283.19	13.153
283.56	13.873
283.92	14.801
284.29	13.654
284.66	13.760
285.03	13.360
285.40	13.233
285.77	14.236
286.14	13.899
286.51	14.760
286.87	13.163
287.24	13.076
287.61	13.404
287.98	14.737
288.35	11.785
288.72	14.361
289.08	12.674
289.45	13.884
289.82	13.811
290.19	11.604
290.56	14.065
290.93	12.458
291.29	13.097
291.66	12.441
292.03	13.557
292.40	12.419
292.77	13.716
293.13	9.903
293.50	10.319
293.87	12.824
294.24	12.365
294.60	11.475
294.97	12.500
295.34	11.043
295.71	12.668
296.08	13.154
296.44	10.526
296.81	10.417
297.18	12.464
297.55	12.466
297.91	11.918
298.28	12.665
298.65	11.262
299.02	11.321
299.38	9.302
299.75	10.621
300.12	10.995
300.48	11.331
300.85	13.181
301.22	10.519
301.59	10.263
301.95	12.025
302.32	10.895
302.69	9.577
303.05	11.386
303.42	10.710
303.79	10.514
304.15	11.111
304.52	8.680
304.89	9.942
305.25	11.501
305.62	9.568
305.99	10.409
306.35	9.942
306.72	10.236
307.09	9.692
307.45	9.874
307.82	9.722
308.19	11.266
308.55	9.815
308.92	10.566
309.29	9.497
309.65	10.764
310.02	10.341
310.38	11.306
310.75	10.929
311.12	12.056
311.48	10.180
311.85	10.890
312.22	10.549
312.58	9.979
312.95	11.313
313.31	11.698
313.68	11.623
314.05	12.857
314.41	13.093
314.78	12.577
315.14	13.052
315.51	13.872
315.87	13.422
316.24	15.774
316.61	15.453
316.97	16.567
317.34	14.941
317.70	15.296
318.07	17.019
318.43	16.667
318.80	17.992
319.16	18.164
319.53	19.658
319.89	20.669
320.26	21.154
320.62	21.063
320.99	21.921
321.35	22.302
321.72	22.118
322.08	24.270
322.45	24.569
322.81	27.308
323.18	26.595
323.54	26.737
323.91	27.848
324.27	31.445
324.64	31.835
325.00	33.394
325.37	34.711
325.73	33.182
326.10	36.421
326.46	38.565
326.83	37.970
327.19	41.325
327.56	43.440
327.92	44.630
328.29	45.179
328.65	47.830
329.01	46.507
329.38	47.834
329.74	49.953
330.11	50.417
330.47	51.020
330.84	52.596
331.20	55.513
331.56	53.981
331.93	54.795
332.29	56.370
332.66	56.561
333.02	56.691
333.38	56.920
333.75	60.073
334.11	59.445
334.48	60.018
334.84	60.531
335.20	61.391
335.57	60.743
335.93	61.879
336.29	62.523
336.66	61.671
337.02	62.639
337.38	63.148
337.75	62.273
338.11	64.022
338.47	64.781
338.84	65.527
339.20	64.899
339.56	66.697
339.93	64.637
340.29	65.505
340.65	68.100
341.02	66.312
341.38	65.221
341.74	64.488
342.11	63.518
342.47	66.459
342.83	65.398
343.20	65.157
343.56	66.609
343.92	67.848
344.28	67.037
344.65	67.185
345.01	66.811
345.37	66.274
345.73	67.364
346.10	69.456
346.46	67.199
346.82	66.858
347.19	65.254
347.55	67.586
347.91	68.285
348.27	67.098
348.63	68.739
349.00	68.253
349.36	68.745
349.72	70.564
350.08	69.262
350.45	69.034
350.81	71.512
351.17	68.404
351.53	69.633
351.89	68.786
352.26	68.400
352.62	71.452
352.98	68.835
353.34	68.680
353.70	70.388
354.07	70.726
354.43	70.697
354.79	72.007
355.15	71.429
355.51	71.203
355.87	71.521
356.24	71.452
356.60	71.544
356.96	70.873
357.32	72.045
357.68	70.915
358.04	72.940
358.40	73.151
358.77	75.199
359.13	74.700
359.49	71.341
359.85	73.245
360.21	74.561
360.57	73.068
360.93	74.206
361.29	72.356
361.66	75.078
362.02	74.470
362.38	75.095
362.74	76.003
363.10	76.674
363.46	75.612
363.82	76.334
364.18	74.760
364.54	75.662
364.90	76.703
365.26	76.201
365.62	78.759
365.98	77.126
366.35	76.912
366.71	78.936
367.07	78.737
367.43	78.361
367.79	77.739
368.15	77.602
368.51	78.733
368.87	79.469
369.23	78.412
369.59	80.539
369.95	80.279
370.31	80.419
370.67	80.672
371.03	80.060
371.39	79.650
371.75	81.685
372.11	79.815
372.47	80.991
372.83	82.470
373.19	79.886
373.55	82.744
373.91	80.490
374.27	83.770
374.63	82.915
374.99	83.050
375.35	83.287
375.71	84.965
376.07	83.638
376.42	83.673
376.78	84.027
377.14	84.022
377.50	83.665
377.86	85.676
378.22	85.578
378.58	83.846
378.94	83.995
379.30	85.652
379.66	86.458
380.02	86.941
380.38	86.366
380.74	85.637
381.09	87.546
381.45	86.422
381.81	88.094
382.17	88.959
382.53	87.071
382.89	90.333
383.25	89.172
383.61	87.866
383.97	88.952
384.32	90.432
384.68	90.031
385.04	89.216
385.40	88.488
385.76	90.818
386.12	90.492
386.48	91.826
386.83	91.439
387.19	91.209
387.55	89.272
387.91	91.993
388.27	88.706
388.62	91.882
388.98	89.994
389.34	89.569
389.70	91.610
390.06	88.987
390.42	91.516
390.77	92.021
391.13	91.488
391.49	91.074
391.85	92.268
392.20	91.023
392.56	92.562
392.92	92.366
393.28	92.394
393.64	91.471
393.99	92.100
394.35	91.777
394.71	92.337
395.07	91.703
395.42	91.925
395.78	93.355
396.14	91.929
396.50	92.264
396.85	93.496
397.21	92.732
397.57	92.226
397.92	92.690
398.28	93.103
398.64	90.663
399.00	93.228
399.35	90.068
399.71	90.063
400.07	92.201
400.42	89.780
400.78	91.182
401.14	91.289
401.49	90.411
401.85	91.164
402.21	91.084
402.57	90.438
402.92	89.837
403.28	91.667
403.63	91.677
403.99	90.242
404.35	90.443
404.70	88.452
405.06	89.365
405.42	91.112
405.77	89.715
406.13	89.232
406.49	89.165
406.84	90.465
407.20	90.367
407.55	87.830
407.91	89.171
408.27	88.910
408.62	88.677
408.98	89.156
409.34	89.157
409.69	88.178
410.05	87.685
410.40	89.321
410.76	90.470
411.11	88.688
411.47	90.335
411.83	90.709
412.18	92.342
412.54	88.702
412.89	88.362
413.25	90.915
413.60	89.938
413.96	87.853
414.31	88.659
414.67	88.775
415.03	89.414
415.38	89.360
415.74	92.117
416.09	89.549
416.45	90.817
416.80	89.623
417.16	91.506
417.51	90.606
417.87	89.570
418.22	90.479
418.58	90.502
418.93	92.602
419.29	89.565
419.64	92.806
420.00	93.640
420.35	90.746
420.71	92.467
421.06	94.045
421.42	93.269
421.77	93.468
422.12	92.792
422.48	93.774
422.83	93.155
423.19	94.074
423.54	95.238
423.90	94.170
424.25	95.121
424.61	96.940
424.96	95.470
425.31	98.845
425.67	97.418
426.02	98.292
426.38	98.059
426.73	98.910
427.09	100.823
427.44	98.588
427.79	98.645
428.15	97.998
428.50	97.880
428.85	97.789
429.21	99.377
429.56	102.318
429.92	100.257
430.27	98.095
430.62	99.216
430.98	100.531
431.33	98.948
431.68	99.110
432.04	103.018
432.39	100.742
432.74	101.263
433.10	103.966
433.45	101.314
433.80	104.353
434.16	104.100
434.51	103.710
434.86	105.401
435.22	104.431
435.57	105.926
435.92	105.329
436.28	104.472
436.63	105.362
436.98	103.824
437.34	105.082
437.69	107.335
438.04	106.553
438.39	106.170
438.75	109.411
439.10	106.904
439.45	107.365
439.81	106.361
440.16	110.451
440.51	108.060
440.86	110.211
441.22	105.486
441.57	109.713
441.92	111.175
442.27	110.033
442.63	109.261
442.98	109.420
443.33	108.403
443.68	108.382
444.03	109.737
444.39	110.034
444.74	111.371
445.09	110.022
445.44	111.510
445.79	111.913
446.15	109.912
446.50	109.429
446.85	111.477
447.20	111.001
447.55	110.826
447.91	111.732
448.26	108.822
448.61	110.363
448.96	112.392
449.31	110.636
449.66	110.453
450.02	111.637
450.37	113.159
450.72	111.283
451.07	113.734
451.42	112.235
451.77	112.960
452.12	110.586
452.47	112.170
452.83	112.014
453.18	112.460
453.53	110.430
453.88	113.054
454.23	112.846
454.58	114.043
454.93	113.144
455.28	111.302
455.63	113.267
455.98	113.891
456.34	113.729
456.69	115.883
457.04	113.422
457.39	114.277
457.74	113.180
458.09	111.065
458.44	114.277
458.79	112.605
459.14	114.016
459.49	113.910
459.84	111.337
460.19	112.500
460.54	114.731
460.89	113.352
461.24	114.534
461.59	112.114
461.94	112.390
462.29	114.053
462.64	116.146
462.99	112.932
463.34	113.978
463.69	113.320
464.04	116.102
464.39	113.159
464.74	114.540
465.09	116.157
465.44	114.253
465.79	112.925
466.14	114.994
466.49	114.204
466.84	115.764
467.19	113.830
467.54	114.368
467.89	115.919
468.24	114.538
468.59	116.254
468.94	113.905
469.29	116.328
469.64	114.422
469.99	116.538
470.34	115.290
470.68	117.599
471.03	115.782
471.38	116.405
471.73	116.387
472.08	115.943
472.43	117.987
472.78	115.147
473.13	116.803
473.48	115.635
473.83	114.446
474.17	117.293
474.52	115.763
474.87	117.333
475.22	115.375
475.57	115.076
475.92	116.731
476.27	115.425
476.61	118.403
476.96	113.441
477.31	117.036
477.66	114.157
478.01	117.406
478.36	116.394
478.70	118.488
479.05	116.868
479.40	115.845
479.75	114.338
480.10	115.975
480.45	116.450
480.79	118.530
481.14	119.262
481.49	115.567
481.84	118.292
482.19	117.540
482.53	118.177
482.88	115.131
483.23	116.939
483.58	115.425
483.92	115.489
484.27	114.631
484.62	115.329
484.97	115.672
485.31	115.390
485.66	114.831
486.01	114.653
486.36	113.186
486.70	112.955
487.05	113.469
487.40	114.633
487.75	114.704
488.09	113.535
488.44	113.514
488.79	114.830
489.13	115.665
489.48	116.118
489.83	116.054
490.17	115.910
490.52	116.859
490.87	114.901
491.22	118.338
491.56	116.698
491.91	114.914
492.26	117.890
492.60	116.123
492.95	119.134
493.30	116.756
493.64	119.303
493.99	116.860
494.34	118.107
494.68	118.286
495.03	118.491
495.37	117.763
495.72	117.819
496.07	119.073
496.41	117.406
496.76	117.181
497.11	116.255
497.45	116.468
497.80	118.214
498.14	116.344
498.49	117.776
498.84	117.016
499.18	117.922
499.53	118.155
499.87	117.802
500.22	117.507
500.56	118.911
500.91	120.030
501.26	116.757
501.60	118.987
501.95	118.341
502.29	118.644
502.64	118.919
502.98	120.720
503.33	117.819
503.67	116.530
504.02	118.328
504.36	119.297
504.71	117.222
505.06	117.262
505.40	119.848
505.75	120.670
506.09	118.601
506.44	120.431
506.78	118.214
507.13	119.390
507.47	118.695
507.82	121.474
508.16	118.700
508.51	120.147
508.85	119.937
509.19	120.703
509.54	119.410
509.88	118.716
510.23	120.656
510.57	119.241
510.92	118.284
511.26	120.840
511.61	123.102
511.95	120.767
512.30	119.457
512.64	118.197
512.98	120.326
513.33	120.481
513.67	120.864
514.02	121.796
514.36	122.286
514.70	122.786
515.05	124.853
515.39	121.665
515.74	122.994
516.08	123.132
516.42	123.616
516.77	122.645
517.11	124.451
517.46	123.519
517.80	121.990
518.14	122.229
518.49	122.596
518.83	122.357
519.17	121.953
519.52	120.249
519.86	122.389
520.20	123.269
520.55	122.264
520.89	122.585
521.23	123.749
521.58	121.577
521.92	122.564
522.26	123.943
522.61	124.221
522.95	126.689
523.29	123.380
523.64	123.698
523.98	125.146
524.32	123.260
524.66	123.816
525.01	124.026
525.35	123.331
525.69	125.993
526.04	125.265
526.38	123.346
526.72	122.695
527.06	121.855
527.41	123.549
527.75	123.391
528.09	124.120
528.43	126.671
528.78	125.545
529.12	125.355
529.46	125.861
529.80	123.496
530.15	123.828
530.49	125.455
530.83	126.949
531.17	123.304
531.51	124.282
531.86	123.725
532.20	125.748
532.54	124.575
532.88	124.641
533.22	123.253
533.57	123.132
533.91	123.368
534.25	126.758
534.59	122.514
534.93	120.894
535.27	122.272
535.62	123.590
535.96	124.397
536.30	124.142
536.64	125.982
536.98	123.833
537.32	126.529
537.66	125.877
538.01	124.336
538.35	123.509
538.69	121.039
539.03	124.402
539.37	126.043
539.71	122.631
540.05	123.014
540.39	124.861
540.73	124.268
541.07	125.898
541.42	122.984
541.76	127.047
542.10	124.776
542.44	125.365
542.78	122.092
543.12	124.519
543.46	124.478
543.80	125.468
544.14	122.029
544.48	123.651
544.82	125.154
545.16	125.068
545.50	123.765
545.84	124.929
546.18	125.106
546.52	124.585
546.86	126.312
547.20	126.824
547.54	124.806
547.88	125.068
548.22	124.523
548.56	123.153
548.90	125.202
549.24	124.311
549.58	126.023
549.92	123.016
550.26	124.396
550.60	126.468
550.94	128.006
551.28	125.425
551.62	128.538
551.96	126.090
552.30	126.535
552.64	125.247
552.98	125.809
553.32	126.106
553.66	128.084
554.00	127.372
554.34	127.179
554.68	125.000
555.02	126.711
555.36	127.524
555.69	125.495
556.03	124.340
556.37	125.694
556.71	125.343
557.05	127.144
557.39	124.907
557.73	126.912
558.07	128.884
558.41	127.948
558.75	129.618
559.08	125.611
559.42	131.190
559.76	130.905
560.10	125.612
560.44	126.880
560.78	126.573
561.12	129.549
561.45	128.250
561.79	127.591
562.13	127.537
562.47	127.698
562.81	125.793
563.15	125.176
563.48	126.874
563.82	128.483
564.16	129.387
564.50	124.865
564.84	127.778
565.17	127.901
565.51	129.850
565.85	129.630
566.19	127.719
566.52	129.357
566.86	127.378
567.20	126.214
567.54	128.589
567.88	130.814
568.21	129.808
568.55	128.641
568.89	128.542
569.23	128.936
569.56	126.970
569.90	129.314
570.24	125.716
570.57	126.836
570.91	126.211
571.25	123.972
571.59	123.326
571.92	122.430
572.26	122.343
572.60	122.574
572.93	121.996
573.27	122.696
573.61	123.359
573.95	122.474
574.28	122.590
574.62	121.078
574.96	121.466
575.29	120.999
575.63	118.684
575.97	120.683
576.30	121.732
576.64	120.636
576.98	122.420
577.31	122.659
577.65	122.179
577.98	121.872
578.32	120.584
578.66	119.815
578.99	121.104
579.33	119.585
579.67	119.531
580.00	121.848
580.34	122.114
580.67	121.217
581.01	122.166
581.35	121.899
581.68	122.082
582.02	122.224
582.35	121.151
582.69	121.426
583.02	122.495
583.36	122.238
583.70	123.027
584.03	124.520
584.37	124.901
584.70	124.258
585.04	122.668
585.37	123.194
585.71	123.303
586.04	123.122
586.38	123.553
586.72	126.255
587.05	126.632
587.39	124.965
587.72	127.966
588.06	126.156
588.39	125.206
588.73	125.214
589.06	126.614
589.40	125.510
589.73	125.630
590.07	128.059
590.40	128.096
590.73	128.707
591.07	127.481
591.40	128.495
591.74	129.593
592.07	129.406
592.41	129.196
592.74	127.917
593.08	125.917
593.41	127.908
593.75	127.805
594.08	125.644
594.41	126.055
594.75	128.015
595.08	127.620
595.42	128.487
595.75	129.628
596.09	128.421
596.42	128.731
596.75	128.819
597.09	127.927
597.42	128.907
597.75	131.974
598.09	127.750
598.42	126.940
598.76	127.756
599.09	127.524
599.42	126.298
599.76	126.110
600.09	126.659
600.42	127.142
600.76	126.857
601.09	128.473
601.42	127.145
601.76	128.503
602.09	129.125
602.42	129.318
602.76	130.051
603.09	130.606
603.42	132.400
603.76	130.282
604.09	128.433
604.42	130.457
604.76	131.242
605.09	131.536
605.42	129.571
605.75	130.560
606.09	130.021
606.42	127.356
606.75	128.874
607.09	128.747
607.42	128.268
607.75	129.618
608.08	126.730
608.42	125.720
608.75	131.084
609.08	131.340
609.41	130.964
609.75	128.881
610.08	132.501
610.41	127.971
610.74	131.253
611.07	133.385
611.41	131.240
611.74	133.529
612.07	131.263
612.40	131.127
612.73	133.955
613.07	130.765
613.40	131.018
613.73	131.561
614.06	131.608
614.39	132.769
614.72	130.252
615.06	132.570
615.39	130.568
615.72	129.117
616.05	131.676
616.38	130.997
616.71	131.865
617.05	132.242
617.38	134.255
617.71	134.151
618.04	136.063
618.37	135.120
618.70	135.248
619.03	134.722
619.36	135.022
619.69	136.467
620.03	137.911
620.36	134.478
620.69	135.903
621.02	134.404
621.35	136.432
621.68	139.286
622.01	138.417
