SpectraSuite Data File
++++++++++++++++++++++++++++++++++++
Date: Fri May 15 17:20:06 PDT 2015
User: schluterlab
Dark Spectrum Present: Yes
Reference Spectrum Present: Yes
Number of Sampled Component Spectra: 1
Spectrometers: USB2E3373
Integration Time (usec): 3000 (USB2E3373)
Spectra Averaged: 3 (USB2E3373)
Boxcar Smoothing: 0 (USB2E3373)
Correct for Electrical Dark: No (USB2E3373)
Strobe/Lamp Enabled: No (USB2E3373)
Correct for Detector Non-linearity: No (USB2E3373)
Correct for Stray Light: No (USB2E3373)
Number of Pixels in Processed Spectrum: 2048
>>>>>Begin Processed Spectral Data<<<<<
178.53	0.000
178.91	0.000
179.29	175.000
179.67	100.000
180.04	-142.857
180.42	400.000
180.80	500.000
181.18	-366.667
181.56	300.000
181.94	50.000
182.31	-200.000
182.69	120.000
183.07	300.000
183.45	120.000
183.83	16.667
184.20	27.273
184.58	-22.222
184.96	-125.000
185.34	-166.667
185.72	-150.000
186.09	7.692
186.47	600.000
186.85	33.333
187.23	-77.778
187.61	-200.000
187.98	-66.667
188.36	88.889
188.74	266.667
189.12	94.118
189.49	100.000
189.87	0.000
190.25	50.000
190.63	-50.000
191.00	-100.000
191.38	10.526
191.76	400.000
192.14	-200.000
192.51	0.000
192.89	66.667
193.27	14.286
193.65	83.333
194.02	81.818
194.40	80.000
194.78	-25.000
195.15	66.667
195.53	-87.500
195.91	75.000
196.29	125.000
196.66	7.692
197.04	-28.571
197.42	-11.111
197.79	-266.667
198.17	-15.385
198.55	100.000
198.92	-100.000
199.30	700.000
199.68	100.000
200.05	-233.333
200.43	0.000
200.81	466.667
201.18	233.333
201.56	1200.000
201.94	100.000
202.31	66.667
202.69	-200.000
203.07	50.000
203.44	400.000
203.82	0.000
204.19	121.429
204.57	-100.000
204.95	62.500
205.32	0.000
205.70	28.571
206.08	-175.000
206.45	233.333
206.83	100.000
207.20	14.286
207.58	200.000
207.96	-33.333
208.33	-40.000
208.71	0.000
209.08	-83.333
209.46	-800.000
209.84	40.000
210.21	-300.000
210.59	100.000
210.96	100.000
211.34	25.000
211.71	26.667
212.09	-42.857
212.46	-1000.000
212.84	0.000
213.22	130.000
213.59	-0.000
213.97	92.308
214.34	72.727
214.72	-16.667
215.09	300.000
215.47	84.615
215.84	0.000
216.22	-66.667
216.59	187.500
216.97	-350.000
217.34	-75.000
217.72	120.000
218.09	-50.000
218.47	62.500
218.84	100.000
219.22	-22.222
219.59	200.000
219.97	33.333
220.34	250.000
220.72	100.000
221.09	-50.000
221.47	750.000
221.84	-600.000
222.22	-100.000
222.59	90.909
222.97	150.000
223.34	-100.000
223.72	78.571
224.09	4.762
224.46	42.857
224.84	100.000
225.21	-20.000
225.59	53.333
225.96	100.000
226.34	-0.000
226.71	57.143
227.08	200.000
227.46	0.000
227.83	-150.000
228.21	122.222
228.58	-45.455
228.95	150.000
229.33	90.000
229.70	68.750
230.08	-62.500
230.45	-57.143
230.82	185.714
231.20	20.000
231.57	21.429
231.95	-57.143
232.32	20.000
232.69	64.286
233.07	0.000
233.44	120.000
233.81	50.000
234.19	55.556
234.56	35.294
234.93	-200.000
235.31	200.000
235.68	-20.000
236.05	-7.692
236.43	10.000
236.80	23.529
237.17	46.875
237.55	15.000
237.92	14.815
238.29	47.222
238.67	23.333
239.04	38.235
239.41	4.878
239.79	-6.667
240.16	19.512
240.53	2.632
240.91	4.348
241.28	9.524
241.65	23.214
242.02	27.397
242.40	11.667
242.77	3.390
243.14	9.091
243.51	1.250
243.89	18.391
244.26	1.149
244.63	13.095
245.00	5.155
245.38	17.526
245.75	8.989
246.12	5.172
246.49	15.702
246.87	10.577
247.24	3.361
247.61	2.632
247.98	10.569
248.36	13.125
248.73	12.500
249.10	7.143
249.47	11.392
249.84	16.340
250.22	1.765
250.59	7.190
250.96	12.207
251.33	5.814
251.70	11.176
252.08	9.645
252.45	8.911
252.82	9.548
253.19	13.364
253.56	4.206
253.94	14.414
254.31	10.870
254.68	12.719
255.05	9.449
255.42	7.860
255.79	12.355
256.16	9.728
256.54	11.567
256.91	9.506
257.28	7.063
257.65	5.993
258.02	8.156
258.39	9.091
258.76	12.088
259.14	12.292
259.51	9.385
259.88	7.560
260.25	4.575
260.62	10.069
260.99	4.746
261.36	4.452
261.73	5.063
262.10	6.991
262.47	7.975
262.85	4.389
263.22	8.000
263.59	9.657
263.96	13.665
264.33	7.273
264.70	5.655
265.07	7.440
265.44	10.482
265.81	6.497
266.18	9.836
266.55	11.054
266.92	11.140
267.29	10.183
267.66	9.207
268.03	8.639
268.40	6.789
268.77	13.636
269.14	7.914
269.51	9.512
269.88	8.728
270.25	3.571
270.62	9.024
270.99	7.161
271.36	7.335
271.73	8.216
272.10	10.462
272.47	7.801
272.84	7.673
273.21	8.121
273.58	7.229
273.95	10.069
274.32	6.005
274.69	7.014
275.06	9.152
275.43	9.524
275.80	7.947
276.17	4.598
276.54	7.281
276.91	8.553
277.28	6.114
277.65	7.231
278.02	6.383
278.39	7.221
278.76	6.289
279.13	6.432
279.50	7.563
279.87	6.479
280.23	6.667
280.60	7.407
280.97	7.475
281.34	7.308
281.71	9.856
282.08	7.771
282.45	7.632
282.82	6.950
283.19	9.671
283.56	7.900
283.92	5.123
284.29	5.577
284.66	6.783
285.03	6.876
285.40	6.427
285.77	6.854
286.14	7.220
286.51	6.827
286.87	6.033
287.24	7.551
287.61	6.526
287.98	6.316
288.35	6.932
288.72	7.531
289.08	6.944
289.45	8.436
289.82	6.469
290.19	5.461
290.56	6.518
290.93	5.219
291.29	5.547
291.66	6.457
292.03	9.729
292.40	7.419
292.77	7.177
293.13	4.383
293.50	5.766
293.87	8.702
294.24	7.573
294.60	7.452
294.97	7.143
295.34	5.521
295.71	4.918
296.08	7.773
296.44	4.552
296.81	6.667
297.18	7.246
297.55	7.453
297.91	7.123
298.28	6.992
298.65	6.649
299.02	4.717
299.38	4.241
299.75	6.483
300.12	5.890
300.48	7.115
300.85	6.210
301.22	7.403
301.59	4.737
301.95	6.709
302.32	6.615
302.69	6.468
303.05	6.559
303.42	7.098
303.79	6.776
304.15	7.288
304.52	5.113
304.89	6.667
305.25	5.448
305.62	5.134
305.99	6.316
306.35	6.243
306.72	4.162
307.09	5.701
307.45	5.281
307.82	6.019
308.19	5.923
308.55	6.216
308.92	6.100
309.29	5.475
309.65	5.274
310.02	5.611
310.38	6.806
310.75	6.339
311.12	5.274
311.48	6.787
311.85	6.073
312.22	3.270
312.58	4.989
312.95	4.909
313.31	3.727
313.68	5.236
314.05	5.204
314.41	5.258
314.78	5.155
315.14	5.961
315.51	5.487
315.87	6.352
316.24	6.775
316.61	5.807
316.97	6.349
317.34	4.883
317.70	6.501
318.07	6.346
318.43	5.392
318.80	5.682
319.16	5.566
319.53	5.603
319.89	4.429
320.26	7.186
320.62	6.720
320.99	5.324
321.35	5.961
321.72	5.815
322.08	5.841
322.45	4.873
322.81	5.403
323.18	5.594
323.54	4.923
323.91	5.355
324.27	4.297
324.64	6.461
325.00	6.661
325.37	7.805
325.73	5.621
326.10	6.176
326.46	6.368
326.83	5.949
327.19	6.016
327.56	6.516
327.92	5.810
328.29	6.071
328.65	5.377
329.01	6.618
329.38	6.636
329.74	4.438
330.11	6.302
330.47	4.360
330.84	5.385
331.20	7.319
331.56	5.278
331.93	5.662
332.29	7.058
332.66	5.430
333.02	6.227
333.38	5.225
333.75	6.777
334.11	5.282
334.48	6.074
334.84	6.685
335.20	6.038
335.57	5.712
335.93	6.594
336.29	5.617
336.66	5.177
337.02	5.019
337.38	5.556
337.75	5.909
338.11	5.410
338.47	5.839
338.84	6.285
339.20	6.033
339.56	5.229
339.93	6.804
340.29	5.596
340.65	6.183
341.02	6.117
341.38	5.221
341.74	5.565
342.11	5.286
342.47	4.804
342.83	5.796
343.20	5.488
343.56	5.826
343.92	6.200
344.28	5.978
344.65	5.181
345.01	5.532
345.37	5.383
345.73	6.527
346.10	6.212
346.46	6.140
346.82	4.910
347.19	5.320
347.55	6.266
347.91	5.421
348.27	6.225
348.63	6.048
349.00	6.071
349.36	4.821
349.72	6.136
350.08	5.246
350.45	6.624
350.81	5.648
351.17	4.967
351.53	6.122
351.89	4.542
352.26	4.960
352.62	5.484
352.98	5.863
353.34	5.636
353.70	6.311
354.07	6.290
354.43	5.845
354.79	5.615
355.15	5.476
355.51	5.617
355.87	5.583
356.24	3.997
356.60	4.931
356.96	5.635
357.32	6.390
357.68	5.629
358.04	5.008
358.40	6.029
358.77	6.459
359.13	5.124
359.49	5.778
359.85	5.538
360.21	5.183
360.57	6.044
360.93	5.673
361.29	4.607
361.66	6.191
362.02	5.379
362.38	5.560
362.74	5.753
363.10	5.418
363.46	5.411
363.82	6.161
364.18	5.609
364.54	6.029
364.90	5.018
365.26	5.822
365.62	6.642
365.98	5.132
366.35	6.628
366.71	5.617
367.07	5.588
367.43	4.817
367.79	6.219
368.15	5.671
368.51	6.045
368.87	5.384
369.23	5.632
369.59	5.685
369.95	5.865
370.31	5.780
370.67	5.000
371.03	5.975
371.39	5.252
371.75	6.227
372.11	5.278
372.47	5.104
372.83	5.962
373.19	6.205
373.55	5.560
373.91	6.263
374.27	5.386
374.63	6.820
374.99	5.390
375.35	6.058
375.71	5.944
376.07	5.899
376.42	5.714
376.78	6.779
377.14	6.635
377.50	6.308
377.86	6.693
378.22	6.573
378.58	5.769
378.94	5.860
379.30	6.488
379.66	8.025
380.02	5.579
380.38	6.330
380.74	6.164
381.09	7.178
381.45	6.239
381.81	6.169
382.17	6.662
382.53	6.309
382.89	6.215
383.25	7.156
383.61	7.134
383.97	6.794
384.32	7.192
384.68	6.749
385.04	6.740
385.40	6.223
385.76	7.673
386.12	7.503
386.48	7.791
386.83	7.546
387.19	7.692
387.55	7.716
387.91	6.968
388.27	7.814
388.62	6.734
388.98	7.551
389.34	7.683
389.70	8.142
390.06	7.426
390.42	7.707
390.77	7.521
391.13	7.566
391.49	7.697
391.85	7.602
392.20	7.721
392.56	7.438
392.92	8.925
393.28	7.311
393.64	8.348
393.99	8.777
394.35	7.780
394.71	8.940
395.07	7.228
395.42	8.318
395.78	8.339
396.14	7.818
396.50	8.053
396.85	8.693
397.21	8.271
397.57	8.464
397.92	8.328
398.28	8.621
398.64	7.530
399.00	8.860
399.35	8.014
399.71	9.190
400.07	8.162
400.42	7.956
400.78	7.777
401.14	8.469
401.49	8.517
401.85	8.044
402.21	9.277
402.57	7.938
402.92	7.465
403.28	9.336
403.63	8.008
403.99	8.291
404.35	8.745
404.70	8.333
405.06	7.991
405.42	8.515
405.77	8.367
406.13	7.625
406.49	9.532
406.84	8.435
407.20	8.368
407.55	8.113
407.91	8.155
408.27	8.732
408.62	9.231
408.98	8.688
409.34	8.612
409.69	7.752
410.05	8.867
410.40	8.210
410.76	8.926
411.11	8.125
411.47	8.218
411.83	7.972
412.18	8.559
412.54	8.177
412.89	8.682
413.25	9.446
413.60	8.385
413.96	9.080
414.31	8.537
414.67	8.852
415.03	8.788
415.38	8.094
415.74	8.925
416.09	9.340
416.45	7.968
416.80	8.658
417.16	8.702
417.51	9.327
417.87	8.279
418.22	9.132
418.58	8.161
418.93	9.216
419.29	8.131
419.64	8.555
420.00	9.257
420.35	8.119
420.71	9.174
421.06	8.656
421.42	8.594
421.77	8.613
422.12	8.570
422.48	8.663
422.83	8.585
423.19	8.747
423.54	7.466
423.90	9.069
424.25	8.553
424.61	8.813
424.96	9.524
425.31	9.821
425.67	9.272
426.02	9.364
426.38	8.892
426.73	9.383
427.09	9.241
427.44	9.471
427.79	9.134
428.15	9.405
428.50	9.388
428.85	8.292
429.21	9.508
429.56	9.218
429.92	9.759
430.27	9.273
430.62	8.468
430.98	9.448
431.33	9.411
431.68	8.791
432.04	9.111
432.39	9.013
432.74	9.260
433.10	10.057
433.45	9.498
433.80	9.228
434.16	8.753
434.51	9.032
434.86	9.350
435.22	9.422
435.57	9.357
435.92	9.281
436.28	9.362
436.63	9.584
436.98	8.691
437.34	9.740
437.69	9.541
438.04	9.630
438.39	8.980
438.75	9.229
439.10	10.017
439.45	9.312
439.81	9.725
440.16	9.501
440.51	10.209
440.86	10.816
441.22	9.672
441.57	9.823
441.92	9.706
442.27	8.814
442.63	10.171
442.98	9.650
443.33	9.794
443.68	10.027
444.03	9.836
444.39	9.985
444.74	10.089
445.09	9.633
445.44	9.801
445.79	10.727
446.15	9.637
446.50	9.651
446.85	9.936
447.20	9.750
447.55	10.379
447.91	10.096
448.26	10.302
448.61	10.190
448.96	10.270
449.31	9.884
449.66	10.569
450.02	9.184
450.37	10.077
450.72	9.679
451.07	10.063
451.42	9.988
451.77	10.368
452.12	10.108
452.47	10.431
452.83	10.660
453.18	10.753
453.53	10.240
453.88	10.929
454.23	10.387
454.58	10.390
454.93	11.276
455.28	9.143
455.63	10.353
455.98	10.222
456.34	10.281
456.69	10.419
457.04	10.838
457.39	10.450
457.74	9.674
458.09	10.006
458.44	10.650
458.79	9.972
459.14	10.412
459.49	10.985
459.84	10.547
460.19	10.437
460.54	11.247
460.89	10.341
461.24	10.186
461.59	10.867
461.94	10.314
462.29	11.098
462.64	10.831
462.99	11.510
463.34	11.474
463.69	10.296
464.04	10.654
464.39	11.037
464.74	10.184
465.09	10.667
465.44	11.541
465.79	10.601
466.14	11.288
466.49	10.063
466.84	10.767
467.19	11.014
467.54	11.239
467.89	9.981
468.24	10.645
468.59	11.048
468.94	10.222
469.29	11.869
469.64	11.210
469.99	11.212
470.34	10.239
470.68	11.409
471.03	11.111
471.38	11.484
471.73	11.485
472.08	11.262
472.43	10.336
472.78	11.103
473.13	10.884
473.48	11.010
473.83	11.893
474.17	11.334
474.52	11.487
474.87	11.818
475.22	11.043
475.57	10.503
475.92	11.135
476.27	11.467
476.61	11.574
476.96	10.931
477.31	11.303
477.66	11.124
478.01	10.893
478.36	10.839
478.70	11.637
479.05	11.154
479.40	11.076
479.75	11.418
480.10	11.214
480.45	11.400
480.79	10.826
481.14	12.090
481.49	10.887
481.84	10.907
482.19	11.132
482.53	11.223
482.88	11.074
483.23	10.940
483.58	11.792
483.92	11.084
484.27	10.620
484.62	10.533
484.97	11.153
485.31	11.163
485.66	10.398
486.01	10.627
486.36	10.332
486.70	10.252
487.05	10.520
487.40	10.264
487.75	10.507
488.09	10.661
488.44	10.523
488.79	10.796
489.13	11.218
489.48	10.774
489.83	11.390
490.17	11.326
490.52	10.901
490.87	11.384
491.22	12.178
491.56	11.338
491.91	10.612
492.26	11.279
492.60	11.228
492.95	12.002
493.30	11.138
493.64	11.935
493.99	11.739
494.34	10.583
494.68	11.429
495.03	11.046
495.37	10.844
495.72	11.762
496.07	11.707
496.41	10.849
496.76	11.055
497.11	11.411
497.45	11.599
497.80	11.150
498.14	11.128
498.49	11.275
498.84	11.776
499.18	11.797
499.53	11.657
499.87	11.138
500.22	11.375
500.56	11.094
500.91	11.345
501.26	11.468
501.60	11.805
501.95	11.305
502.29	11.380
502.64	12.307
502.98	11.347
503.33	11.912
503.67	11.807
504.02	12.414
504.36	11.479
504.71	12.020
505.06	12.079
505.40	12.081
505.75	12.268
506.09	12.114
506.44	12.474
506.78	12.908
507.13	12.099
507.47	11.384
507.82	11.592
508.16	11.939
508.51	12.172
508.85	12.297
509.19	12.241
509.54	12.440
509.88	12.190
510.23	12.103
510.57	13.148
510.92	11.567
511.26	12.766
511.61	11.991
511.95	12.164
512.30	12.361
512.64	13.634
512.98	11.679
513.33	12.479
513.67	12.337
514.02	12.986
514.36	13.200
514.70	14.103
515.05	13.749
515.39	13.046
515.74	13.772
516.08	12.971
516.42	14.075
516.77	13.751
517.11	12.878
517.46	13.585
517.80	13.230
518.14	13.533
518.49	13.281
518.83	13.305
519.17	13.341
519.52	12.137
519.86	12.185
520.20	13.609
520.55	12.633
520.89	13.739
521.23	13.173
521.58	14.574
521.92	13.205
522.26	12.427
522.61	13.377
522.95	14.702
523.29	13.596
523.64	13.532
523.98	13.999
524.32	13.466
524.66	14.789
525.01	13.961
525.35	13.675
525.69	13.535
526.04	13.360
526.38	15.175
526.72	13.146
527.06	14.591
527.41	14.908
527.75	13.271
528.09	14.086
528.43	15.463
528.78	13.795
529.12	14.129
529.46	13.840
529.80	14.313
530.15	14.719
530.49	13.468
530.83	13.680
531.17	13.163
531.51	15.253
531.86	13.392
532.20	13.848
532.54	14.159
532.88	13.758
533.22	14.651
533.57	13.172
533.91	12.924
534.25	14.648
534.59	12.957
534.93	13.090
535.27	13.832
535.62	13.351
535.96	14.286
536.30	14.050
536.64	14.128
536.98	13.240
537.32	15.007
537.66	15.217
538.01	14.196
538.35	14.632
538.69	13.449
539.03	12.919
539.37	14.536
539.71	13.633
540.05	13.578
540.39	14.474
540.73	14.086
541.07	14.986
541.42	13.978
541.76	14.522
542.10	13.696
542.44	13.760
542.78	12.388
543.12	14.011
543.46	14.673
543.80	14.087
544.14	13.485
544.48	14.191
544.82	13.944
545.16	14.276
545.50	13.952
545.84	13.952
546.18	14.043
546.52	14.131
546.86	13.659
547.20	14.306
547.54	13.145
547.88	13.927
548.22	14.201
548.56	14.776
548.90	14.084
549.24	13.499
549.58	14.316
549.92	13.581
550.26	14.359
550.60	14.052
550.94	14.638
551.28	14.606
551.62	14.692
551.96	13.985
552.30	13.743
552.64	14.316
552.98	14.346
553.32	14.622
553.66	13.280
554.00	13.431
554.34	14.476
554.68	13.274
555.02	13.988
555.36	13.388
555.69	13.260
556.03	13.276
556.37	14.164
556.71	14.152
557.05	13.647
557.39	13.829
557.73	13.793
558.07	13.876
558.41	13.783
558.75	14.341
559.08	14.421
559.42	13.889
559.76	14.171
560.10	14.144
560.44	14.222
560.78	14.056
561.12	14.669
561.45	14.336
561.79	13.445
562.13	13.343
562.47	13.453
562.81	13.761
563.15	14.034
563.48	13.508
563.82	14.894
564.16	13.649
564.50	13.378
564.84	14.793
565.17	13.749
565.51	14.071
565.85	14.678
566.19	14.257
566.52	14.410
566.86	14.075
567.20	13.387
567.54	14.355
567.88	13.650
568.21	14.027
568.55	13.043
568.89	13.244
569.23	12.855
569.56	12.916
569.90	13.276
570.24	12.840
570.57	13.236
570.91	13.210
571.25	12.463
571.59	12.613
571.92	12.741
572.26	12.319
572.60	12.248
572.93	12.676
573.27	13.009
573.61	12.500
573.95	12.507
574.28	12.553
574.62	12.026
574.96	12.715
575.29	12.090
575.63	11.791
575.97	12.253
576.30	12.286
576.64	11.815
576.98	12.767
577.31	12.214
577.65	12.592
577.98	12.511
578.32	12.284
578.66	11.820
578.99	11.933
579.33	12.041
579.67	12.465
580.00	12.076
580.34	12.313
580.67	11.968
581.01	12.152
581.35	11.908
581.68	12.084
582.02	11.855
582.35	11.811
582.69	12.135
583.02	11.878
583.36	12.278
583.70	12.980
584.03	12.316
584.37	13.269
584.70	12.527
585.04	11.943
585.37	12.236
585.71	12.071
586.04	12.179
586.38	12.483
586.72	12.482
587.05	12.218
587.39	12.664
587.72	12.685
588.06	12.649
588.39	12.788
588.73	12.973
589.06	13.046
589.40	12.478
589.73	13.399
590.07	13.671
590.40	13.080
590.73	13.056
591.07	12.765
591.40	13.357
591.74	13.620
592.07	13.868
592.41	13.472
592.74	12.983
593.08	12.435
593.41	12.685
593.75	12.463
594.08	12.667
594.41	13.100
594.75	13.359
595.08	12.940
595.42	13.250
595.75	13.631
596.09	13.565
596.42	12.650
596.75	13.544
597.09	13.895
597.42	12.873
597.75	13.697
598.09	12.268
598.42	12.906
598.76	12.913
599.09	12.740
599.42	12.618
599.76	12.792
600.09	12.971
600.42	12.775
600.76	12.853
601.09	12.824
601.42	13.043
601.76	12.624
602.09	13.160
602.42	13.985
602.76	13.455
603.09	13.331
603.42	13.712
603.76	12.581
604.09	12.394
604.42	13.663
604.76	13.707
605.09	13.528
605.42	13.589
605.75	13.091
606.09	12.951
606.42	13.636
606.75	13.333
607.09	13.231
607.42	13.646
607.75	13.544
608.08	13.387
608.42	13.568
608.75	13.831
609.08	13.254
609.41	13.553
609.75	13.407
610.08	13.879
610.41	13.043
610.74	13.457
611.07	13.747
611.41	13.441
611.74	13.326
612.07	13.276
612.40	12.637
612.73	13.616
613.07	12.936
613.40	14.606
613.73	13.766
614.06	13.467
614.39	13.706
614.72	12.885
615.06	13.352
615.39	13.483
615.72	12.971
616.05	12.682
616.38	13.390
616.71	13.823
617.05	13.527
617.38	14.142
617.71	13.774
618.04	13.143
618.37	14.187
618.70	14.389
619.03	14.514
619.36	13.459
619.69	15.239
620.03	15.267
620.36	13.734
620.69	13.776
621.02	14.067
621.35	15.602
621.68	14.711
622.01	14.333
622.34	15.323
622.67	14.748
623.00	14.012
623.33	14.710
623.66	13.987
623.99	14.070
624.32	15.057
624.65	13.083
624.99	13.695
625.32	13.950
625.65	14.454
625.98	15.552
626.31	13.799
626.64	15.078
626.97	14.921
627.30	14.273
627.63	14.905
627.96	14.735
628.29	14.894
628.62	15.831
628.95	14.529
629.28	15.827
629.61	14.855
629.94	16.422
630.26	14.526
630.59	16.233
630.92	14.974
631.25	13.744
631.58	14.868
631.91	13.596
632.24	14.564
632.57	17.045
632.90	14.353
633.23	15.882
633.56	15.995
633.89	15.413
634.22	16.296
634.55	13.850
634.88	14.559
635.20	15.385
635.53	16.133
635.86	15.475
636.19	16.041
636.52	15.816
636.85	14.516
637.18	15.597
637.51	15.597
637.83	16.820
638.16	14.598
638.49	16.349
638.82	17.895
639.15	15.468
639.48	15.406
639.81	17.713
640.13	16.595
640.46	15.160
640.79	15.611
641.12	16.544
641.45	16.517
641.77	17.333
642.10	18.325
642.43	16.559
642.76	18.152
643.09	15.994
643.41	16.667
643.74	16.804
644.07	17.241
644.40	16.892
644.73	19.264
645.05	15.604
645.38	17.108
645.71	16.489
646.04	20.108
