SpectraSuite Data File
++++++++++++++++++++++++++++++++++++
Date: Fri May 15 17:07:32 PDT 2015
User: schluterlab
Dark Spectrum Present: Yes
Reference Spectrum Present: Yes
Number of Sampled Component Spectra: 1
Spectrometers: USB2E3373
Integration Time (usec): 3000 (USB2E3373)
Spectra Averaged: 3 (USB2E3373)
Boxcar Smoothing: 0 (USB2E3373)
Correct for Electrical Dark: No (USB2E3373)
Strobe/Lamp Enabled: No (USB2E3373)
Correct for Detector Non-linearity: No (USB2E3373)
Correct for Stray Light: No (USB2E3373)
Number of Pixels in Processed Spectrum: 2048
>>>>>Begin Processed Spectral Data<<<<<
178.53	0.000
178.91	0.000
179.29	112.500
179.67	-250.000
180.04	-14.286
180.42	175.000
180.80	500.000
181.18	-166.667
181.56	150.000
181.94	250.000
182.31	-200.000
182.69	180.000
183.07	400.000
183.45	0.000
183.83	83.333
184.20	54.545
184.58	33.333
184.96	-300.000
185.34	-366.667
185.72	700.000
186.09	-23.077
186.47	100.000
186.85	-33.333
187.23	55.556
187.61	-200.000
187.98	200.000
188.36	77.778
188.74	66.667
189.12	58.824
189.49	88.889
189.87	0.000
190.25	78.571
190.63	400.000
191.00	166.667
191.38	63.158
191.76	600.000
192.14	-50.000
192.51	500.000
192.89	100.000
193.27	-57.143
193.65	16.667
194.02	45.455
194.40	40.000
194.78	-75.000
195.15	100.000
195.53	87.500
195.91	100.000
196.29	175.000
196.66	92.308
197.04	-42.857
197.42	122.222
197.79	-133.333
198.17	15.385
198.55	-200.000
198.92	33.333
199.30	500.000
199.68	100.000
200.05	300.000
200.43	0.000
200.81	166.667
201.18	-266.667
201.56	400.000
201.94	-350.000
202.31	-300.000
202.69	100.000
203.07	50.000
203.44	1400.000
203.82	0.000
204.19	71.429
204.57	-133.333
204.95	37.500
205.32	130.000
205.70	85.714
206.08	275.000
206.45	255.556
206.83	100.000
207.20	-71.429
207.58	-400.000
207.96	-33.333
208.33	0.000
208.71	375.000
209.08	-116.667
209.46	100.000
209.84	220.000
210.21	800.000
210.59	228.571
210.96	16.667
211.34	100.000
211.71	60.000
212.09	-14.286
212.46	-300.000
212.84	0.000
213.22	70.000
213.59	50.000
213.97	115.385
214.34	127.273
214.72	150.000
215.09	350.000
215.47	130.769
215.84	54.545
216.22	333.333
216.59	137.500
216.97	550.000
217.34	50.000
217.72	0.000
218.09	50.000
218.47	25.000
218.84	-100.000
219.22	22.222
219.59	120.000
219.97	66.667
220.34	75.000
220.72	42.857
221.09	175.000
221.47	500.000
221.84	50.000
222.22	-450.000
222.59	100.000
222.97	41.667
223.34	200.000
223.72	114.286
224.09	33.333
224.46	39.286
224.84	133.333
225.21	30.000
225.59	26.667
225.96	-150.000
226.34	-25.000
226.71	28.571
227.08	233.333
227.46	62.500
227.83	-350.000
228.21	155.556
228.58	27.273
228.95	112.500
229.33	-50.000
229.70	12.500
230.08	-62.500
230.45	100.000
230.82	114.286
231.20	6.667
231.57	71.429
231.95	71.429
232.32	20.000
232.69	121.429
233.07	33.333
233.44	-60.000
233.81	30.000
234.19	155.556
234.56	41.176
234.93	-200.000
235.31	-200.000
235.68	-80.000
236.05	15.385
236.43	-35.000
236.80	5.882
237.17	21.875
237.55	35.000
237.92	22.222
238.29	19.444
238.67	30.000
239.04	26.471
239.41	12.195
239.79	63.333
240.16	17.073
240.53	15.789
240.91	-19.565
241.28	23.810
241.65	14.286
242.02	19.178
242.40	6.667
242.77	23.729
243.14	4.545
243.51	7.500
243.89	20.690
244.26	4.598
244.63	19.048
245.00	4.124
245.38	12.371
245.75	-4.494
246.12	9.483
246.49	11.570
246.87	12.500
247.24	0.840
247.61	-1.754
247.98	1.626
248.36	6.250
248.73	2.632
249.10	4.545
249.47	4.430
249.84	4.575
250.22	4.706
250.59	8.497
250.96	9.390
251.33	4.070
251.70	5.882
252.08	4.061
252.45	6.436
252.82	4.523
253.19	5.991
253.56	2.804
253.94	6.306
254.31	6.087
254.68	5.263
255.05	5.118
255.42	2.620
255.79	4.633
256.16	5.447
256.54	7.463
256.91	7.224
257.28	5.204
257.65	2.247
258.02	1.773
258.39	6.734
258.76	4.029
259.14	6.312
259.51	5.502
259.88	2.062
260.25	2.288
260.62	7.292
260.99	1.356
261.36	2.055
261.73	4.430
262.10	3.951
262.47	2.761
262.85	1.567
263.22	4.000
263.59	9.657
263.96	7.764
264.33	2.727
264.70	1.488
265.07	4.167
265.44	7.932
265.81	5.650
266.18	7.377
266.55	8.226
266.92	5.181
267.29	6.005
267.66	2.302
268.03	4.974
268.40	3.394
268.77	8.289
269.14	2.158
269.51	2.571
269.88	4.738
270.25	3.571
270.62	2.439
270.99	1.279
271.36	2.934
271.73	3.756
272.10	3.406
272.47	2.128
272.84	0.248
273.21	7.657
273.58	3.855
273.95	5.034
274.32	1.617
274.69	5.882
275.06	4.688
275.43	4.308
275.80	6.181
276.17	3.218
276.54	5.353
276.91	6.360
277.28	2.620
277.65	5.992
278.02	5.957
278.39	3.939
278.76	2.935
279.13	2.697
279.50	5.042
279.87	5.616
280.23	3.226
280.60	7.407
280.97	5.051
281.34	2.885
281.71	5.955
282.08	5.112
282.45	3.327
282.82	2.703
283.19	5.803
283.56	3.468
283.92	1.708
284.29	2.692
284.66	4.070
285.03	2.554
285.40	2.268
285.77	1.933
286.14	2.708
286.51	6.273
286.87	3.473
287.24	4.604
287.61	2.293
287.98	4.912
288.35	3.293
288.72	4.378
289.08	4.688
289.45	2.988
289.82	3.846
290.19	3.242
290.56	3.431
290.93	2.357
291.29	4.314
291.66	4.724
292.03	6.061
292.40	3.226
292.77	4.306
293.13	1.786
293.50	2.276
293.87	2.137
294.24	4.173
294.60	3.726
294.97	4.911
295.34	1.534
295.71	2.235
296.08	3.438
296.44	2.703
296.81	2.500
297.18	3.768
297.55	3.659
297.91	3.425
298.28	3.298
298.65	2.985
299.02	3.639
299.38	-0.274
299.75	2.483
300.12	4.843
300.48	1.318
300.85	3.042
301.22	3.247
301.59	3.421
301.95	4.304
302.32	5.318
302.69	1.617
303.05	2.104
303.42	2.740
303.79	2.570
304.15	5.257
304.52	0.595
304.89	3.041
305.25	1.937
305.62	1.984
305.99	3.275
306.35	2.312
306.72	2.587
307.09	2.851
307.45	2.641
307.82	2.894
308.19	4.297
308.55	2.726
308.92	3.813
309.29	2.011
309.65	3.014
310.02	3.850
310.38	2.854
310.75	2.951
311.12	3.552
311.48	3.181
311.85	2.932
312.22	3.692
312.58	2.866
312.95	3.842
313.31	1.346
313.68	2.827
314.05	2.755
314.41	4.124
314.78	3.608
315.14	4.111
315.51	4.244
315.87	3.996
316.24	5.865
316.61	5.709
316.97	5.357
317.34	4.980
317.70	5.163
318.07	4.712
318.43	5.490
318.80	5.398
319.16	5.469
319.53	6.553
319.89	6.398
320.26	5.061
320.62	6.419
320.99	5.532
321.35	5.550
321.72	7.373
322.08	7.351
322.45	7.107
322.81	7.564
323.18	7.556
323.54	8.205
323.91	9.153
324.27	8.887
324.64	9.270
325.00	10.401
325.37	11.387
325.73	9.791
326.10	12.080
326.46	13.004
326.83	12.336
327.19	13.078
327.56	12.685
327.92	15.669
328.29	14.107
328.65	15.849
329.01	16.636
329.38	16.866
329.74	17.375
330.11	18.350
330.47	17.904
330.84	19.808
331.20	20.532
331.56	19.907
331.93	22.283
332.29	21.815
332.66	22.172
333.02	22.398
333.38	20.348
333.75	22.253
334.11	22.381
334.48	23.844
334.84	23.810
335.20	25.160
335.57	24.297
335.93	25.023
336.29	24.309
336.66	24.160
337.02	23.978
337.38	25.463
337.75	25.545
338.11	25.428
338.47	26.095
338.84	25.416
339.20	26.051
339.56	26.881
339.93	23.993
340.29	26.422
340.65	24.552
341.02	25.709
341.38	25.664
341.74	25.088
342.11	25.130
342.47	25.890
342.83	27.336
343.20	26.481
343.56	26.957
343.92	26.395
344.28	26.132
344.65	25.820
345.01	26.102
345.37	25.315
345.73	26.444
346.10	26.143
346.46	25.231
346.82	25.205
347.19	24.688
347.55	26.149
347.91	26.294
348.27	25.788
348.63	26.235
349.00	26.005
349.36	26.018
349.72	26.617
350.08	26.639
350.45	26.576
350.81	25.249
351.17	25.651
351.53	27.429
351.89	25.186
352.26	24.400
352.62	26.452
352.98	25.221
353.34	25.604
353.70	26.294
354.07	25.726
354.43	26.741
354.79	24.525
355.15	26.825
355.51	26.028
355.87	26.214
356.24	24.959
356.60	24.656
356.96	26.349
357.32	25.399
357.68	26.036
358.04	26.252
358.40	25.563
358.77	27.033
359.13	25.540
359.49	25.424
359.85	25.585
360.21	26.156
360.57	26.014
360.93	26.551
361.29	25.302
361.66	26.176
362.02	27.121
362.38	26.961
362.74	25.511
363.10	26.336
363.46	26.464
363.82	26.972
364.18	26.937
364.54	25.294
364.90	26.165
365.26	27.147
365.62	27.153
365.98	27.126
366.35	25.783
366.71	26.090
367.07	26.560
367.43	26.528
367.79	26.007
368.15	25.485
368.51	25.856
368.87	26.849
369.23	25.776
369.59	26.676
369.95	27.273
370.31	27.384
370.67	27.015
371.03	26.512
371.39	25.894
371.75	27.399
372.11	26.391
372.47	27.367
372.83	27.537
373.19	26.819
373.55	27.148
373.91	26.206
374.27	28.065
374.63	27.782
374.99	27.234
375.35	27.855
375.71	28.042
376.07	28.230
376.42	28.367
376.78	27.383
377.14	28.775
377.50	28.088
377.86	27.778
378.22	27.505
378.58	27.885
378.94	26.969
379.30	28.322
379.66	28.339
380.02	28.571
380.38	29.032
380.74	27.947
381.09	28.773
381.45	28.440
381.81	29.426
382.17	28.109
382.53	29.232
382.89	29.567
383.25	28.811
383.61	28.963
383.97	29.270
384.32	28.455
384.68	28.731
385.04	28.615
385.40	28.314
385.76	30.943
386.12	28.849
386.48	29.055
386.83	28.282
387.19	29.060
387.55	29.737
387.91	28.912
388.27	28.694
388.62	30.208
388.98	29.650
389.34	29.919
389.70	29.646
390.06	29.578
390.42	28.951
390.77	29.431
391.13	29.760
391.49	28.655
391.85	29.305
392.20	29.065
392.56	29.625
392.92	30.123
393.28	29.776
393.64	29.129
393.99	30.533
394.35	29.791
394.71	29.821
395.07	29.353
395.42	29.144
395.78	29.511
396.14	29.004
396.50	30.501
396.85	29.813
397.21	29.762
397.57	29.530
397.92	29.479
398.28	29.770
398.64	28.193
399.00	30.023
399.35	28.273
399.71	29.696
400.07	28.839
400.42	28.213
400.78	29.639
401.14	29.099
401.49	29.065
401.85	29.738
402.21	29.157
402.57	28.812
402.92	28.105
403.28	29.637
403.63	29.508
403.99	28.125
404.35	28.919
404.70	27.857
405.06	29.788
405.42	28.527
405.77	28.820
406.13	28.463
406.49	27.768
406.84	29.034
407.20	29.079
407.55	28.525
407.91	28.877
408.27	28.681
408.62	28.985
408.98	28.281
409.34	28.563
409.69	28.747
410.05	28.325
410.40	28.827
410.76	29.071
411.11	27.938
411.47	28.271
411.83	28.625
412.18	28.700
412.54	28.215
412.89	27.771
413.25	28.520
413.60	27.516
413.96	27.485
414.31	28.720
414.67	27.903
415.03	27.364
415.38	28.264
415.74	28.664
416.09	29.131
416.45	28.562
416.80	29.610
417.16	29.144
417.51	29.514
417.87	28.553
418.22	29.145
418.58	28.562
418.93	28.715
419.29	28.361
419.64	29.294
420.00	30.227
420.35	28.776
420.71	29.222
421.06	29.036
421.42	29.868
421.77	28.671
422.12	29.001
422.48	29.020
422.83	28.828
423.19	28.894
423.54	28.924
423.90	29.034
424.25	29.392
424.61	30.171
424.96	28.920
425.31	29.636
425.67	30.223
426.02	30.212
426.38	30.244
426.73	29.964
427.09	30.570
427.44	31.412
427.79	29.582
428.15	29.612
428.50	30.890
428.85	30.774
429.21	30.164
429.56	30.296
429.92	30.098
430.27	29.975
430.62	29.796
430.98	30.202
431.33	30.915
431.68	30.612
432.04	30.352
432.39	30.975
432.74	30.848
433.10	32.126
433.45	31.959
433.80	31.573
434.16	30.970
434.51	31.559
434.86	31.998
435.22	32.193
435.57	31.815
435.92	31.617
436.28	32.260
436.63	31.375
436.98	31.460
437.34	32.123
437.69	33.154
438.04	32.137
438.39	32.254
438.75	32.665
439.10	32.767
439.45	32.258
439.81	32.049
440.16	33.314
440.51	32.896
440.86	34.381
441.22	33.880
441.57	33.333
441.92	33.263
442.27	33.814
442.63	35.225
442.98	33.716
443.33	33.500
443.68	33.581
444.03	32.936
444.39	33.448
444.74	34.448
445.09	33.964
445.44	33.618
445.79	34.554
446.15	34.086
446.50	33.444
446.85	34.378
447.20	34.254
447.55	34.263
447.91	35.871
448.26	34.206
448.61	34.024
448.96	34.997
449.31	34.913
449.66	34.146
450.02	34.284
450.37	35.388
450.72	35.223
451.07	35.190
451.42	34.519
451.77	34.237
452.12	34.689
452.47	34.707
452.83	34.276
453.18	34.662
453.53	35.904
453.88	34.791
454.23	34.972
454.58	36.398
454.93	36.534
455.28	34.921
455.63	36.640
455.98	35.899
456.34	35.121
456.69	34.562
457.04	36.295
457.39	35.237
457.74	35.792
458.09	33.961
458.44	35.518
458.79	34.454
459.14	35.355
459.49	36.836
459.84	36.153
460.19	36.104
460.54	35.819
460.89	36.250
461.24	35.590
461.59	35.808
461.94	34.780
462.29	37.274
462.64	35.947
462.99	36.222
463.34	36.579
463.69	35.843
464.04	36.380
464.39	35.233
464.74	35.092
465.09	36.245
465.44	36.469
465.79	36.395
466.14	36.317
466.49	36.745
466.84	36.288
467.19	36.796
467.54	35.951
467.89	36.387
468.24	36.131
468.59	36.254
468.94	35.810
469.29	37.180
469.64	37.457
469.99	38.052
470.34	36.177
470.68	37.062
471.03	38.004
471.38	37.803
471.73	37.465
472.08	37.992
472.43	37.248
472.78	37.491
473.13	38.095
473.48	36.873
473.83	36.675
474.17	37.500
474.52	37.460
474.87	37.818
475.22	37.096
475.57	38.058
475.92	38.124
476.27	37.951
476.61	38.252
476.96	37.981
477.31	38.021
477.66	37.921
478.01	36.721
478.36	37.309
478.70	39.369
479.05	37.912
479.40	37.785
479.75	37.226
480.10	37.583
480.45	38.100
480.79	38.872
481.14	38.217
481.49	37.783
481.84	37.355
482.19	38.167
482.53	38.897
482.88	37.518
483.23	38.292
483.58	39.009
483.92	37.851
484.27	37.511
484.62	38.055
484.97	38.474
485.31	38.114
485.66	36.728
486.01	36.731
486.36	36.705
486.70	36.955
487.05	36.766
487.40	37.513
487.75	36.845
488.09	37.577
488.44	37.895
488.79	38.625
489.13	38.582
489.48	39.290
489.83	38.386
490.17	38.472
490.52	37.644
490.87	38.825
491.22	40.210
491.56	37.476
491.91	38.767
492.26	39.475
492.60	38.772
492.95	39.695
493.30	37.958
493.64	39.538
493.99	39.758
494.34	39.223
494.68	39.095
495.03	38.151
495.37	38.763
495.72	39.223
496.07	39.220
496.41	38.962
496.76	39.567
497.11	38.752
497.45	39.093
497.80	40.565
498.14	38.847
498.49	40.173
498.84	39.222
499.18	40.211
499.53	39.732
499.87	38.619
500.22	39.169
500.56	40.545
500.91	38.805
501.26	39.990
501.60	40.285
501.95	40.902
502.29	39.855
502.64	40.058
502.98	41.046
503.33	39.673
503.67	39.952
504.02	41.105
504.36	40.376
504.71	40.000
505.06	40.262
505.40	39.898
505.75	40.000
506.09	40.497
506.44	41.478
506.78	40.765
507.13	41.055
507.47	39.373
507.82	40.224
508.16	40.571
508.51	40.241
508.85	41.130
509.19	40.287
509.54	40.054
509.88	39.482
510.23	40.775
510.57	41.101
510.92	39.765
511.26	41.135
511.61	40.649
511.95	41.973
512.30	41.463
512.64	39.955
512.98	40.988
513.33	41.354
513.67	41.785
514.02	41.705
514.36	41.829
514.70	43.298
515.05	41.304
515.39	41.736
515.74	42.994
516.08	42.439
516.42	41.755
516.77	43.183
517.11	41.958
517.46	42.609
517.80	41.836
518.14	42.560
518.49	41.046
518.83	42.041
519.17	42.693
519.52	41.563
519.86	41.116
520.20	42.710
520.55	42.464
520.89	43.099
521.23	41.482
521.58	43.155
521.92	43.205
522.26	43.136
522.61	42.532
522.95	44.238
523.29	41.995
523.64	43.520
523.98	43.681
524.32	43.363
524.66	43.790
525.01	43.831
525.35	43.163
525.69	43.838
526.04	42.923
526.38	43.709
526.72	42.250
527.06	42.931
527.41	42.942
527.75	43.700
528.09	43.256
528.43	44.294
528.78	43.696
529.12	43.742
529.46	42.885
529.80	43.255
530.15	44.158
530.49	43.569
530.83	43.707
531.17	42.579
531.51	44.802
531.86	44.324
532.20	43.285
532.54	43.907
532.88	45.311
533.22	44.556
533.57	43.250
533.91	42.559
534.25	44.401
534.59	42.656
534.93	41.598
535.27	41.878
535.62	42.774
535.96	43.640
536.30	43.602
536.64	44.108
536.98	43.693
537.32	44.737
537.66	44.460
538.01	44.336
538.35	43.065
538.69	42.943
539.03	43.199
539.37	42.799
539.71	44.581
540.05	44.128
540.39	43.837
540.73	43.933
541.07	44.337
541.42	44.019
541.76	44.391
542.10	44.460
542.44	44.406
542.78	43.083
543.12	44.093
543.46	44.019
543.80	44.136
544.14	41.923
544.48	43.438
544.82	42.994
545.16	43.648
545.50	44.393
545.84	44.830
546.18	43.759
546.52	44.412
546.86	44.932
547.20	44.921
547.54	41.837
547.88	42.731
548.22	42.801
548.56	43.074
548.90	44.474
549.24	43.113
549.58	43.935
549.92	42.244
550.26	43.956
550.60	44.981
550.94	43.241
551.28	44.822
551.62	44.385
551.96	45.338
552.30	43.640
552.64	43.300
552.98	44.163
553.32	44.365
553.66	44.485
554.00	44.161
554.34	45.052
554.68	43.658
555.02	44.792
555.36	44.203
555.69	44.396
556.03	43.540
556.37	44.698
556.71	43.827
557.05	44.519
557.39	42.677
557.73	45.502
558.07	46.154
558.41	45.329
558.75	45.207
559.08	44.523
559.42	45.714
559.76	45.076
560.10	43.960
560.44	44.080
560.78	43.916
561.12	44.852
561.45	45.046
561.79	44.538
562.13	43.790
562.47	46.259
562.81	44.741
563.15	44.147
563.48	46.252
563.82	45.299
564.16	44.011
564.50	43.514
564.84	43.976
565.17	43.997
565.51	46.107
565.85	46.091
566.19	45.225
566.52	44.772
566.86	45.694
567.20	43.711
567.54	44.221
567.88	43.761
568.21	45.023
568.55	44.837
568.89	43.121
569.23	43.958
569.56	42.732
569.90	43.118
570.24	41.682
570.57	42.509
570.91	43.569
571.25	41.401
571.59	41.202
571.92	41.185
572.26	41.395
572.60	40.992
572.93	41.889
573.27	41.567
573.61	41.647
573.95	41.699
574.28	41.340
574.62	40.732
574.96	40.813
575.29	41.141
575.63	39.855
575.97	40.580
576.30	40.961
576.64	41.166
576.98	41.828
577.31	41.558
577.65	40.780
577.98	41.251
578.32	40.209
578.66	39.480
578.99	40.618
579.33	40.495
579.67	40.373
580.00	41.342
580.34	40.821
580.67	40.331
581.01	41.523
581.35	40.332
581.68	41.114
582.02	40.576
582.35	40.520
582.69	40.534
583.02	40.461
583.36	40.785
583.70	41.407
584.03	41.674
584.37	42.321
584.70	42.170
585.04	41.295
585.37	41.229
585.71	41.471
586.04	40.948
586.38	40.918
586.72	41.205
587.05	42.143
587.39	41.347
587.72	41.881
588.06	42.070
588.39	41.840
588.73	42.430
589.06	43.216
589.40	42.240
589.73	42.935
590.07	43.127
590.40	42.221
590.73	42.710
591.07	42.875
591.40	43.143
591.74	43.665
592.07	43.506
592.41	43.154
592.74	41.736
593.08	41.111
593.41	41.911
593.75	41.609
594.08	41.126
594.41	41.703
594.75	41.947
595.08	41.582
595.42	42.989
595.75	42.696
596.09	42.494
596.42	43.117
596.75	43.828
597.09	42.916
597.42	43.496
597.75	42.510
598.09	42.055
598.42	42.103
598.76	41.870
599.09	42.388
599.42	41.266
599.76	42.325
600.09	41.365
600.42	41.812
600.76	40.936
601.09	41.679
601.42	41.951
601.76	41.524
602.09	41.625
602.42	41.912
602.76	41.978
603.09	42.317
603.42	42.768
603.76	41.694
604.09	42.001
604.42	43.105
604.76	42.724
605.09	42.870
605.42	42.483
605.75	41.944
606.09	42.293
606.42	40.701
606.75	41.472
607.09	42.330
607.42	42.091
607.75	42.140
608.08	42.408
608.42	41.571
608.75	42.651
609.08	42.850
609.41	42.893
609.75	43.246
610.08	42.386
610.41	42.802
610.74	43.150
611.07	42.842
611.41	42.657
611.74	43.817
612.07	41.863
612.40	43.545
612.73	43.164
613.07	42.351
613.40	42.505
613.73	43.369
614.06	42.293
614.39	43.316
614.72	41.849
615.06	42.570
615.39	41.539
615.72	41.389
616.05	42.291
616.38	42.222
616.71	42.018
617.05	43.422
617.38	42.992
617.71	42.956
618.04	43.175
618.37	44.451
618.70	44.884
619.03	44.236
619.36	43.271
619.69	45.034
620.03	45.289
620.36	43.777
620.69	43.540
621.02	43.349
621.35	44.315
621.68	45.663
622.01	45.750
622.34	44.054
622.67	43.770
623.00	44.487
623.33	43.445
623.66	44.203
623.99	42.057
624.32	43.194
624.65	44.436
624.99	44.244
625.32	43.442
625.65	44.069
625.98	43.997
626.31	43.724
626.64	44.281
626.97	44.066
627.30	44.658
627.63	44.714
627.96	44.924
628.29	45.051
628.62	47.001
628.95	45.491
629.28	45.464
629.61	44.566
629.94	45.650
630.26	43.874
630.59	46.410
630.92	44.821
631.25	45.436
631.58	45.815
631.91	44.956
632.24	45.413
632.57	46.250
632.90	46.026
633.23	46.353
633.56	49.118
633.89	46.609
634.22	47.037
634.55	46.379
634.88	46.488
635.20	46.410
635.53	48.000
635.86	45.644
636.19	46.572
636.52	45.918
636.85	45.533
637.18	44.906
637.51	45.409
637.83	44.284
638.16	49.386
638.49	45.777
638.82	47.500
