SpectraSuite Data File
++++++++++++++++++++++++++++++++++++
Date: Fri May 15 20:10:49 PDT 2015
User: schluterlab
Dark Spectrum Present: Yes
Reference Spectrum Present: Yes
Number of Sampled Component Spectra: 1
Spectrometers: USB2E3373
Integration Time (usec): 3000 (USB2E3373)
Spectra Averaged: 3 (USB2E3373)
Boxcar Smoothing: 0 (USB2E3373)
Correct for Electrical Dark: No (USB2E3373)
Strobe/Lamp Enabled: No (USB2E3373)
Correct for Detector Non-linearity: No (USB2E3373)
Correct for Stray Light: No (USB2E3373)
Number of Pixels in Processed Spectrum: 2048
>>>>>Begin Processed Spectral Data<<<<<
178.53	0.000
178.91	0.000
179.29	62.500
179.67	100.000
180.04	-271.429
180.42	150.000
180.80	-600.000
181.18	66.667
181.56	250.000
181.94	100.000
182.31	-600.000
182.69	-20.000
183.07	-266.667
183.45	80.000
183.83	-83.333
184.20	-9.091
184.58	77.778
184.96	-100.000
185.34	-33.333
185.72	-300.000
186.09	-69.231
186.47	-100.000
186.85	33.333
187.23	100.000
187.61	500.000
187.98	-133.333
188.36	77.778
188.74	-200.000
189.12	64.706
189.49	50.000
189.87	0.000
190.25	92.857
190.63	650.000
191.00	-266.667
191.38	36.842
191.76	400.000
192.14	25.000
192.51	250.000
192.89	-44.444
193.27	-71.429
193.65	150.000
194.02	45.455
194.40	100.000
194.78	-37.500
195.15	-66.667
195.53	-37.500
195.91	250.000
196.29	-50.000
196.66	76.923
197.04	-28.571
197.42	-33.333
197.79	-400.000
198.17	-38.462
198.55	600.000
198.92	-133.333
199.30	-400.000
199.68	-180.000
200.05	-400.000
200.43	0.000
200.81	0.000
201.18	166.667
201.56	600.000
201.94	-300.000
202.31	-133.333
202.69	-240.000
203.07	250.000
203.44	600.000
203.82	0.000
204.19	50.000
204.57	-333.333
204.95	87.500
205.32	100.000
205.70	28.571
206.08	75.000
206.45	144.444
206.83	85.714
207.20	-100.000
207.58	-600.000
207.96	-166.667
208.33	0.000
208.71	50.000
209.08	-50.000
209.46	-400.000
209.84	100.000
210.21	-500.000
210.59	-114.286
210.96	-16.667
211.34	75.000
211.71	53.333
212.09	-157.143
212.46	-1300.000
212.84	0.000
213.22	60.000
213.59	400.000
213.97	30.769
214.34	27.273
214.72	-100.000
215.09	325.000
215.47	46.154
215.84	-9.091
216.22	-200.000
216.59	12.500
216.97	150.000
217.34	-100.000
217.72	-20.000
218.09	125.000
218.47	62.500
218.84	-500.000
219.22	11.111
219.59	-20.000
219.97	266.667
220.34	100.000
220.72	114.286
221.09	150.000
221.47	200.000
221.84	-700.000
222.22	-450.000
222.59	63.636
222.97	0.000
223.34	-133.333
223.72	14.286
224.09	14.286
224.46	3.571
224.84	233.333
225.21	50.000
225.59	40.000
225.96	-200.000
226.34	375.000
226.71	-57.143
227.08	-50.000
227.46	75.000
227.83	50.000
228.21	44.444
228.58	-27.273
228.95	-75.000
229.33	40.000
229.70	0.000
230.08	-37.500
230.45	-14.286
230.82	-28.571
231.20	0.000
231.57	64.286
231.95	-57.143
232.32	-80.000
232.69	100.000
233.07	200.000
233.44	180.000
233.81	-110.000
234.19	-44.444
234.56	5.882
234.93	600.000
235.31	150.000
235.68	40.000
236.05	-61.538
236.43	-65.000
236.80	23.529
237.17	-9.375
237.55	-35.000
237.92	-25.926
238.29	-5.556
238.67	20.000
239.04	2.941
239.41	-46.341
239.79	-20.000
240.16	0.000
240.53	18.421
240.91	-19.565
241.28	0.000
241.65	-10.714
242.02	15.068
242.40	3.333
242.77	3.390
243.14	-9.091
243.51	-6.250
243.89	6.897
244.26	-8.046
244.63	8.333
245.00	-1.031
245.38	8.247
245.75	-5.618
246.12	-0.862
246.49	-0.826
246.87	0.000
247.24	3.361
247.61	-8.772
247.98	0.000
248.36	-0.625
248.73	1.974
249.10	-11.039
249.47	5.063
249.84	-3.268
250.22	0.000
250.59	-1.961
250.96	8.451
251.33	-2.326
251.70	3.529
252.08	-1.015
252.45	-2.475
252.82	-2.010
253.19	3.687
253.56	1.402
253.94	-0.901
254.31	3.043
254.68	3.509
255.05	3.150
255.42	-0.873
255.79	-0.772
256.16	1.946
256.54	1.866
256.91	0.000
257.28	2.230
257.65	-1.498
258.02	-2.482
258.39	2.020
258.76	2.198
259.14	3.322
259.51	2.265
259.88	0.344
260.25	-0.980
260.62	0.694
260.99	-0.678
261.36	-0.685
261.73	-1.899
262.10	2.128
262.47	-3.067
262.85	0.313
263.22	0.000
263.59	2.492
263.96	0.311
264.33	-0.909
264.70	-1.488
265.07	-2.083
265.44	1.416
265.81	1.412
266.18	-0.546
266.55	2.314
266.92	0.000
267.29	0.261
267.66	-1.279
268.03	0.000
268.40	-0.783
268.77	4.011
269.14	1.199
269.51	0.257
269.88	1.496
270.25	-2.296
270.62	1.707
270.99	-1.535
271.36	-2.934
271.73	0.235
272.10	-0.243
272.47	1.182
272.84	0.495
273.21	4.176
273.58	-0.482
273.95	0.915
274.32	-0.693
274.69	0.000
275.06	1.786
275.43	-2.041
275.80	0.442
276.17	-2.299
276.54	0.642
276.91	1.535
277.28	0.873
277.65	1.653
278.02	-0.213
278.39	-3.063
278.76	0.000
279.13	-3.320
279.50	0.840
279.87	1.512
280.23	-3.871
280.60	-0.195
280.97	-0.404
281.34	0.769
281.71	1.027
282.08	0.613
282.45	-0.587
282.82	-2.896
283.19	1.547
283.56	1.156
283.92	0.380
284.29	2.308
284.66	0.194
285.03	-0.786
285.40	2.457
285.77	-0.351
286.14	0.181
286.51	1.107
286.87	0.183
287.24	0.921
287.61	-1.411
287.98	1.579
288.35	-0.693
288.72	0.350
289.08	-0.347
289.45	2.460
289.82	1.049
290.19	0.000
290.56	-0.686
290.93	-0.168
291.29	-0.154
291.66	0.630
292.03	0.797
292.40	1.452
292.77	-0.319
293.13	-1.136
293.50	-0.759
293.87	1.679
294.24	0.927
294.60	1.788
294.97	2.827
295.34	1.994
295.71	1.192
296.08	0.149
296.44	-0.284
296.81	0.556
297.18	1.014
297.55	2.710
297.91	1.370
298.28	2.375
298.65	0.814
299.02	0.943
299.38	0.000
299.75	1.517
300.12	-1.309
300.48	0.132
300.85	1.014
301.22	0.649
301.59	0.132
301.95	2.025
302.32	1.816
302.69	0.498
303.05	1.609
303.42	1.494
303.79	1.051
304.15	1.673
304.52	0.119
304.89	1.053
305.25	0.969
305.62	-0.117
305.99	0.702
306.35	0.462
306.72	-0.337
307.09	2.052
307.45	2.411
307.82	0.579
308.19	2.091
308.55	1.200
308.92	1.634
309.29	0.112
309.65	0.969
310.02	1.210
310.38	1.866
310.75	1.858
311.12	1.399
311.48	1.485
311.85	1.780
312.22	0.633
312.58	0.955
312.95	0.320
313.31	0.518
313.68	1.257
314.05	1.531
314.41	1.237
314.78	1.546
315.14	2.055
315.51	2.277
315.87	1.127
316.24	3.337
316.61	2.657
316.97	2.778
317.34	1.660
317.70	1.052
318.07	2.115
318.43	1.569
318.80	1.610
319.16	1.758
319.53	3.324
319.89	2.165
320.26	3.846
320.62	3.310
320.99	0.835
321.35	1.850
321.72	3.427
322.08	3.525
322.45	2.741
322.81	1.965
323.18	3.042
323.54	3.571
323.91	2.337
324.27	3.223
324.64	3.652
325.00	4.471
325.37	5.693
325.73	3.536
326.10	4.450
326.46	4.933
326.83	3.937
327.19	4.621
327.56	5.126
327.92	5.370
328.29	5.089
328.65	5.000
329.01	4.228
329.38	5.622
329.74	4.533
330.11	6.209
330.47	5.288
330.84	3.558
331.20	6.084
331.56	5.185
331.93	5.936
332.29	5.500
332.66	6.878
333.02	5.576
333.38	4.308
333.75	5.586
334.11	6.088
334.48	5.440
334.84	5.952
335.20	7.136
335.57	5.349
335.93	5.691
336.29	5.709
336.66	5.086
337.02	4.368
337.38	5.741
337.75	5.727
338.11	7.033
338.47	5.657
338.84	6.007
339.20	6.673
339.56	6.330
339.93	6.535
340.29	5.505
340.65	7.258
341.02	6.649
341.38	5.310
341.74	5.477
342.11	5.113
342.47	6.317
342.83	7.007
343.20	6.010
343.56	6.087
343.92	6.377
344.28	6.917
344.65	5.527
345.01	4.408
345.37	6.308
345.73	6.946
346.10	6.126
346.46	7.149
346.82	6.219
347.19	4.406
347.55	5.931
347.91	6.311
348.27	6.548
348.63	5.026
349.00	5.168
349.36	6.068
349.72	6.136
350.08	5.902
350.45	6.065
350.81	5.731
351.17	5.049
351.53	6.449
351.89	5.698
352.26	5.200
352.62	6.613
352.98	6.426
353.34	5.958
353.70	6.149
354.07	5.565
354.43	6.725
354.79	5.945
355.15	7.302
355.51	6.487
355.87	6.230
356.24	5.139
356.60	5.821
356.96	6.270
357.32	5.911
357.68	6.568
358.04	5.331
358.40	5.949
358.77	6.858
359.13	5.604
359.49	6.549
359.85	6.240
360.21	6.061
360.57	5.585
360.93	5.598
361.29	5.211
361.66	5.721
362.02	6.061
362.38	6.169
362.74	5.980
363.10	6.847
363.46	6.449
363.82	6.461
364.18	5.978
364.54	6.176
364.90	6.308
365.26	6.186
365.62	7.445
365.98	6.158
366.35	6.846
366.71	6.430
367.07	7.039
367.43	6.254
367.79	5.866
368.15	5.671
368.51	6.191
368.87	6.389
369.23	6.282
369.59	6.560
369.95	6.965
370.31	7.153
370.67	7.164
371.03	6.348
371.39	6.929
371.75	7.106
372.11	7.347
372.47	6.583
372.83	6.600
373.19	7.632
373.55	5.921
373.91	6.983
374.27	7.016
374.63	7.609
374.99	6.667
375.35	6.964
375.71	8.182
376.07	6.812
376.42	6.939
376.78	7.315
377.14	6.297
377.50	8.234
377.86	7.764
378.22	8.041
378.58	7.436
378.94	7.246
379.30	7.923
379.66	8.464
380.02	7.787
380.38	6.939
380.74	7.121
381.09	7.975
381.45	7.645
381.81	8.575
382.17	8.629
382.53	8.682
382.89	8.035
383.25	8.587
383.61	9.024
383.97	8.190
384.32	8.881
384.68	9.164
385.04	8.150
385.40	8.463
385.76	9.371
386.12	9.508
386.48	9.834
386.83	9.131
387.19	9.585
387.55	10.163
387.91	8.741
388.27	10.195
388.62	9.377
388.98	9.208
389.34	9.806
389.70	10.131
390.06	9.566
390.42	9.780
390.77	9.941
391.13	10.088
391.49	9.444
391.85	10.331
392.20	9.667
392.56	10.235
392.92	10.804
393.28	10.200
393.64	9.790
393.99	11.599
394.35	9.235
394.71	10.728
395.07	10.559
395.42	10.443
395.78	10.814
396.14	10.719
396.50	10.653
396.85	10.818
397.21	11.090
397.57	10.784
397.92	10.365
398.28	10.575
398.64	10.120
399.00	10.440
399.35	9.819
399.71	10.396
400.07	10.459
400.42	10.771
400.78	11.635
401.14	11.071
401.49	10.602
401.85	10.116
402.21	10.482
402.57	10.250
402.92	9.787
403.28	11.466
403.63	10.277
403.99	10.842
404.35	10.306
404.70	10.476
405.06	10.811
405.42	10.876
405.77	9.762
406.13	10.827
406.49	10.539
406.84	10.575
407.20	10.837
407.55	10.560
407.91	10.294
408.27	10.580
408.62	11.015
408.98	10.228
409.34	11.276
409.69	11.176
410.05	10.099
410.40	10.123
410.76	10.434
411.11	11.062
411.47	11.243
411.83	9.667
412.18	10.425
412.54	10.861
412.89	10.037
413.25	10.590
413.60	10.683
413.96	10.613
414.31	10.671
414.67	10.071
415.03	10.786
415.38	9.856
415.74	11.140
416.09	10.451
416.45	10.871
416.80	9.584
417.16	10.428
417.51	10.859
417.87	11.017
418.22	10.298
418.58	10.435
418.93	10.909
419.29	10.307
419.64	9.916
420.00	11.587
420.35	10.328
420.71	11.786
421.06	10.988
421.42	10.877
421.77	10.751
422.12	10.897
422.48	11.153
422.83	9.977
423.19	10.779
423.54	9.818
423.90	10.130
424.25	10.563
424.61	10.710
424.96	10.801
425.31	10.745
425.67	10.798
426.02	11.190
426.38	9.768
426.73	10.835
427.09	10.443
427.44	10.000
427.79	9.900
428.15	11.529
428.50	10.660
428.85	10.381
429.21	10.866
429.56	10.189
429.92	11.197
430.27	11.228
430.62	9.775
430.98	10.775
431.33	11.251
431.68	10.204
432.04	10.285
432.39	10.896
432.74	10.583
433.10	11.207
433.45	10.155
433.80	10.331
434.16	9.972
434.51	10.968
434.86	10.918
435.22	9.983
435.57	10.044
435.92	10.240
436.28	10.197
436.63	10.782
436.98	9.849
437.34	10.224
437.69	10.376
438.04	10.199
438.39	9.713
438.75	9.775
439.10	10.413
439.45	10.286
439.81	10.214
440.16	10.214
440.51	10.627
440.86	11.360
441.22	11.086
441.57	9.989
441.92	10.913
442.27	10.255
442.63	11.135
442.98	10.913
443.33	10.851
443.68	10.345
444.03	10.631
444.39	10.625
444.74	10.591
445.09	11.024
445.44	10.712
445.79	11.707
446.15	10.407
446.50	10.205
446.85	10.414
447.20	10.271
447.55	10.882
447.91	9.475
448.26	10.359
448.61	10.823
448.96	10.155
449.31	10.751
449.66	10.859
450.02	10.382
450.37	10.373
450.72	10.309
451.07	10.696
451.42	11.174
451.77	9.705
452.12	9.629
452.47	9.723
452.83	10.130
453.18	10.183
453.53	10.114
453.88	9.836
454.23	10.387
454.58	11.650
454.93	10.825
455.28	9.651
455.63	10.911
455.98	10.944
456.34	10.792
456.69	10.419
457.04	10.712
457.39	10.267
457.74	10.097
458.09	9.712
458.44	9.538
458.79	9.692
459.14	10.870
459.49	11.164
459.84	11.055
460.19	9.587
460.54	10.819
460.89	10.852
461.24	10.621
461.59	10.867
461.94	10.252
462.29	10.676
462.64	10.565
462.99	10.968
463.34	9.597
463.69	10.425
464.04	11.259
464.39	10.006
464.74	10.307
465.09	10.792
465.44	10.560
465.79	9.467
466.14	10.490
466.49	10.236
466.84	10.648
467.19	9.700
467.54	10.473
467.89	9.981
468.24	9.854
468.59	10.667
468.94	11.048
469.29	11.344
469.64	10.731
469.99	9.881
470.34	9.215
470.68	10.291
471.03	11.040
471.38	10.057
471.73	10.014
472.08	10.651
472.43	8.859
472.78	8.636
473.13	8.980
473.48	9.902
473.83	10.087
474.17	10.363
474.52	9.955
474.87	10.121
475.22	10.372
475.57	10.841
475.92	10.532
476.27	10.652
476.61	9.896
476.96	9.593
477.31	10.925
477.66	10.899
478.01	10.163
478.36	9.804
478.70	11.147
479.05	10.714
479.40	10.493
479.75	9.958
480.10	10.599
480.45	10.300
480.79	10.222
481.14	10.451
481.49	9.803
481.84	9.701
482.19	10.290
482.53	10.504
482.88	10.215
483.23	10.269
483.58	10.142
483.92	9.729
484.27	9.572
484.62	9.996
484.97	9.784
485.31	10.079
485.66	10.129
486.01	10.686
486.36	10.616
486.70	10.667
487.05	10.319
487.40	10.238
487.75	10.366
488.09	10.105
488.44	10.076
488.79	9.787
489.13	10.296
489.48	9.833
489.83	9.641
490.17	9.888
490.52	9.423
490.87	9.579
491.22	9.647
491.56	9.677
491.91	9.034
492.26	9.966
492.60	9.885
492.95	10.182
493.30	9.184
493.64	9.921
493.99	9.855
494.34	8.641
494.68	10.048
495.03	9.246
495.37	9.568
495.72	9.844
496.07	9.512
496.41	9.623
496.76	10.180
497.11	9.735
497.45	10.167
497.80	10.141
498.14	9.836
498.49	9.751
498.84	9.780
499.18	9.839
499.53	9.821
499.87	9.582
500.22	9.693
500.56	9.481
500.91	9.538
501.26	9.540
501.60	9.346
501.95	9.850
502.29	9.685
502.64	9.990
502.98	9.077
503.33	8.934
503.67	10.120
504.02	9.775
504.36	10.094
504.71	9.798
505.06	9.864
505.40	9.391
505.75	9.897
506.09	9.630
506.44	10.062
506.78	10.255
507.13	10.031
507.47	9.452
507.82	8.120
508.16	9.297
508.51	9.601
508.85	9.314
509.19	9.473
509.54	9.544
509.88	9.277
510.23	9.736
510.57	9.567
510.92	8.529
511.26	8.893
511.61	9.626
511.95	9.151
512.30	9.590
512.64	9.405
512.98	9.545
513.33	10.353
513.67	9.210
514.02	10.126
514.36	10.286
514.70	9.907
515.05	10.341
515.39	9.386
515.74	10.659
516.08	10.221
516.42	9.717
516.77	10.006
517.11	9.021
517.46	9.575
517.80	9.833
518.14	9.124
518.49	9.315
518.83	9.781
519.17	9.157
519.52	9.473
519.86	9.544
520.20	9.660
520.55	9.006
520.89	9.975
521.23	9.626
521.58	10.347
521.92	10.192
522.26	9.499
522.61	9.545
522.95	9.868
523.29	9.022
523.64	9.911
523.98	10.110
524.32	8.892
524.66	9.667
525.01	9.935
525.35	10.693
525.69	8.956
526.04	9.392
526.38	9.922
526.72	8.502
527.06	9.014
527.41	10.158
527.75	10.054
528.09	9.302
528.43	10.128
528.78	9.043
529.12	9.806
529.46	9.422
529.80	9.753
530.15	9.835
530.49	9.630
530.83	9.713
531.17	9.738
531.51	9.234
531.86	9.925
532.20	8.420
532.54	9.939
532.88	10.198
533.22	10.349
533.57	9.961
533.91	9.987
534.25	10.352
534.59	10.135
534.93	9.440
535.27	9.518
535.62	9.981
535.96	10.633
536.30	9.697
536.64	9.786
536.98	9.895
537.32	9.602
537.66	10.309
538.01	9.930
538.35	9.154
538.69	9.587
539.03	9.706
539.37	9.960
539.71	9.339
540.05	10.251
540.39	9.765
540.73	9.205
541.07	10.152
541.42	10.484
541.76	9.773
542.10	9.429
542.44	9.868
542.78	8.947
543.12	9.066
543.46	10.918
543.80	9.299
544.14	10.214
544.48	9.993
544.82	10.185
545.16	10.656
545.50	10.948
545.84	10.482
546.18	10.000
546.52	10.166
546.86	10.280
547.20	10.443
547.54	9.258
547.88	10.530
548.22	10.256
548.56	10.158
548.90	11.253
549.24	9.986
549.58	9.944
549.92	8.863
550.26	9.231
550.60	8.550
550.94	8.887
551.28	8.733
551.62	10.077
551.96	9.398
552.30	9.284
552.64	9.803
552.98	10.197
553.32	9.344
553.66	9.507
554.00	10.219
554.34	9.970
554.68	9.882
555.02	10.565
555.36	9.349
555.69	8.352
556.03	8.994
556.37	9.253
556.71	9.458
557.05	9.247
557.39	9.294
557.73	10.270
558.07	9.729
558.41	9.801
558.75	9.119
559.08	9.693
559.42	8.889
559.76	9.047
560.10	8.869
560.44	8.935
560.78	10.420
561.12	9.661
561.45	9.768
561.79	10.294
562.13	9.652
562.47	9.065
562.81	10.086
563.15	10.578
563.48	9.972
563.82	10.158
564.16	9.262
564.50	9.459
564.84	9.973
565.17	9.457
565.51	9.768
565.85	9.259
566.19	9.748
566.52	9.987
566.86	10.476
567.20	9.589
567.54	10.036
567.88	10.135
568.21	10.351
568.55	9.565
568.89	10.678
569.23	9.726
569.56	9.457
569.90	10.516
570.24	10.234
570.57	10.436
570.91	10.561
571.25	10.095
571.59	10.215
571.92	10.281
572.26	10.236
572.60	10.605
572.93	10.292
573.27	9.687
573.61	10.292
573.95	10.350
574.28	10.275
574.62	10.399
574.96	10.521
575.29	10.273
575.63	10.262
575.97	10.057
576.30	9.531
576.64	9.987
576.98	10.347
577.31	10.297
577.65	10.413
577.98	10.841
578.32	10.219
578.66	10.230
578.99	10.342
579.33	10.267
579.67	9.917
580.00	10.025
580.34	10.323
580.67	10.114
581.01	10.447
581.35	10.357
581.68	10.529
582.02	10.406
582.35	10.362
582.69	10.577
583.02	10.297
583.36	10.362
583.70	10.566
584.03	10.370
584.37	10.248
584.70	10.275
585.04	9.896
585.37	10.467
585.71	9.775
586.04	10.086
586.38	9.816
586.72	10.301
587.05	10.485
587.39	10.512
587.72	10.525
588.06	10.324
588.39	10.453
588.73	9.921
589.06	10.274
589.40	10.162
589.73	10.332
590.07	10.272
590.40	10.759
590.73	10.544
591.07	9.924
591.40	9.617
591.74	10.181
592.07	10.668
592.41	10.247
592.74	10.115
593.08	10.129
593.41	10.313
593.75	10.108
594.08	10.093
594.41	10.335
594.75	9.656
595.08	9.875
595.42	10.048
595.75	10.364
596.09	9.578
596.42	10.211
596.75	10.302
597.09	10.478
597.42	9.937
597.75	9.986
598.09	10.231
598.42	9.567
598.76	9.567
599.09	10.256
599.42	10.534
599.76	9.895
600.09	10.030
600.42	10.311
600.76	9.658
601.09	9.656
601.42	9.557
601.76	9.925
602.09	9.818
602.42	10.362
602.76	9.550
603.09	9.967
603.42	10.577
603.76	9.315
604.09	9.032
604.42	10.787
604.76	10.102
605.09	10.146
605.42	10.068
605.75	9.720
606.09	9.851
606.42	10.217
606.75	9.784
607.09	10.593
607.42	9.526
607.75	9.991
608.08	9.299
608.42	10.187
608.75	9.976
609.08	10.115
609.41	9.594
609.75	9.728
610.08	9.885
610.41	9.710
610.74	9.703
611.07	9.974
611.41	10.119
611.74	10.608
612.07	10.707
612.40	9.245
612.73	9.718
613.07	9.561
613.40	10.613
613.73	8.786
614.06	9.905
614.39	10.321
614.72	9.076
615.06	9.330
615.39	9.989
615.72	9.257
616.05	9.888
616.38	9.288
616.71	9.786
617.05	9.944
617.38	10.434
617.71	9.434
618.04	9.270
618.37	10.088
618.70	10.363
619.03	10.208
619.36	8.466
619.69	9.401
620.03	10.080
620.36	10.086
620.69	9.779
621.02	8.945
621.35	9.129
621.68	9.354
622.01	9.500
622.34	10.295
622.67	9.858
623.00	10.337
623.33	9.680
623.66	9.723
623.99	9.834
624.32	10.494
624.65	9.398
624.99	9.932
625.32	8.340
625.65	10.841
625.98	9.992
626.31	8.811
626.64	9.879
626.97	10.035
627.30	9.019
627.63	10.572
627.96	8.985
628.29	9.436
628.62	8.850
628.95	8.918
629.28	8.972
629.61	8.275
629.94	9.775
630.26	9.585
630.59	9.053
630.92	10.769
631.25	8.615
631.58	8.590
631.91	9.211
632.24	8.945
632.57	9.659
632.90	8.066
633.23	7.765
633.56	7.431
633.89	8.385
634.22	9.259
634.55	8.895
634.88	9.579
635.20	8.205
635.53	8.533
635.86	8.713
636.19	8.926
636.52	9.056
636.85	8.065
637.18	8.553
637.51	9.686
637.83	7.622
638.16	9.413
638.49	6.948
638.82	9.737
639.15	9.769
639.48	8.666
639.81	7.810
640.13	8.081
640.46	11.224
640.79	6.922
641.12	9.306
641.45	6.757
641.77	9.481
642.10	11.690
642.43	8.039
642.76	6.271
643.09	7.916
643.41	8.576
643.74	8.731
644.07	9.195
644.40	7.939
644.73	7.881
645.05	8.557
645.38	9.171
645.71	7.447
646.04	8.977
646.36	8.688
646.69	10.971
647.02	8.507
647.35	9.515
647.67	9.506
648.00	10.075
648.33	8.874
648.66	7.458
648.98	7.203
