SpectraSuite Data File
++++++++++++++++++++++++++++++++++++
Date: Fri May 15 17:19:59 PDT 2015
User: schluterlab
Dark Spectrum Present: Yes
Reference Spectrum Present: Yes
Number of Sampled Component Spectra: 1
Spectrometers: USB2E3373
Integration Time (usec): 3000 (USB2E3373)
Spectra Averaged: 3 (USB2E3373)
Boxcar Smoothing: 0 (USB2E3373)
Correct for Electrical Dark: No (USB2E3373)
Strobe/Lamp Enabled: No (USB2E3373)
Correct for Detector Non-linearity: No (USB2E3373)
Correct for Stray Light: No (USB2E3373)
Number of Pixels in Processed Spectrum: 2048
>>>>>Begin Processed Spectral Data<<<<<
178.53	0.000
178.91	0.000
179.29	187.500
179.67	250.000
180.04	-257.143
180.42	225.000
180.80	100.000
181.18	-66.667
181.56	-0.000
181.94	50.000
182.31	200.000
182.69	300.000
183.07	-33.333
183.45	120.000
183.83	-0.000
184.20	63.636
184.58	88.889
184.96	-125.000
185.34	-366.667
185.72	-100.000
186.09	-15.385
186.47	-100.000
186.85	-100.000
187.23	22.222
187.61	-1800.000
187.98	33.333
188.36	177.778
188.74	0.000
189.12	88.235
189.49	50.000
189.87	0.000
190.25	121.429
190.63	250.000
191.00	133.333
191.38	36.842
191.76	650.000
192.14	-250.000
192.51	250.000
192.89	66.667
193.27	28.571
193.65	-50.000
194.02	81.818
194.40	110.000
194.78	-87.500
195.15	-8.333
195.53	12.500
195.91	200.000
196.29	50.000
196.66	-0.000
197.04	-14.286
197.42	33.333
197.79	-133.333
198.17	7.692
198.55	-200.000
198.92	333.333
199.30	300.000
199.68	-80.000
200.05	233.333
200.43	0.000
200.81	33.333
201.18	0.000
201.56	1200.000
201.94	200.000
202.31	-233.333
202.69	-40.000
203.07	-50.000
203.44	900.000
203.82	0.000
204.19	64.286
204.57	-266.667
204.95	-87.500
205.32	80.000
205.70	157.143
206.08	0.000
206.45	155.556
206.83	200.000
207.20	-42.857
207.58	100.000
207.96	33.333
208.33	-10.000
208.71	100.000
209.08	-66.667
209.46	100.000
209.84	60.000
210.21	-100.000
210.59	214.286
210.96	-16.667
211.34	-25.000
211.71	46.667
212.09	-171.429
212.46	-1200.000
212.84	0.000
213.22	40.000
213.59	-150.000
213.97	61.538
214.34	45.455
214.72	0.000
215.09	225.000
215.47	76.923
215.84	90.909
216.22	33.333
216.59	87.500
216.97	0.000
217.34	150.000
217.72	-180.000
218.09	75.000
218.47	75.000
218.84	300.000
219.22	44.444
219.59	-100.000
219.97	200.000
220.34	-75.000
220.72	157.143
221.09	50.000
221.47	300.000
221.84	-300.000
222.22	-300.000
222.59	81.818
222.97	100.000
223.34	-100.000
223.72	21.429
224.09	71.429
224.46	57.143
224.84	100.000
225.21	100.000
225.59	93.333
225.96	0.000
226.34	25.000
226.71	-14.286
227.08	116.667
227.46	75.000
227.83	200.000
228.21	44.444
228.58	109.091
228.95	50.000
229.33	120.000
229.70	50.000
230.08	37.500
230.45	-28.571
230.82	-57.143
231.20	73.333
231.57	78.571
231.95	114.286
232.32	50.000
232.69	28.571
233.07	533.333
233.44	80.000
233.81	0.000
234.19	77.778
234.56	-23.529
234.93	-350.000
235.31	300.000
235.68	-40.000
236.05	15.385
236.43	15.000
236.80	64.706
237.17	75.000
237.55	30.000
237.92	22.222
238.29	55.556
238.67	36.667
239.04	14.706
239.41	-9.756
239.79	16.667
240.16	31.707
240.53	13.158
240.91	2.174
241.28	26.984
241.65	30.357
242.02	26.027
242.40	23.333
242.77	27.119
243.14	18.182
243.51	26.250
243.89	14.943
244.26	18.391
244.63	16.667
245.00	30.928
245.38	35.052
245.75	20.225
246.12	25.000
246.49	19.835
246.87	17.308
247.24	17.647
247.61	13.158
247.98	20.325
248.36	19.375
248.73	15.132
249.10	17.532
249.47	17.089
249.84	22.876
250.22	17.059
250.59	24.183
250.96	22.066
251.33	19.767
251.70	25.294
252.08	18.274
252.45	21.287
252.82	20.603
253.19	15.207
253.56	16.822
253.94	20.270
254.31	20.435
254.68	24.561
255.05	15.354
255.42	21.397
255.79	22.008
256.16	19.455
256.54	22.015
256.91	21.673
257.28	22.305
257.65	17.603
258.02	18.085
258.39	19.192
258.76	20.513
259.14	21.927
259.51	17.799
259.88	17.182
260.25	16.340
260.62	22.222
260.99	15.932
261.36	16.781
261.73	20.886
262.10	18.237
262.47	19.939
262.85	20.063
263.22	17.231
263.59	22.118
263.96	19.255
264.33	17.879
264.70	21.131
265.07	17.262
265.44	18.414
265.81	20.056
266.18	18.306
266.55	19.023
266.92	18.653
267.29	19.321
267.66	20.460
268.03	16.754
268.40	15.666
268.77	21.123
269.14	17.266
269.51	17.481
269.88	18.703
270.25	17.857
270.62	16.585
270.99	15.601
271.36	19.071
271.73	20.892
272.10	17.518
272.47	21.986
272.84	15.842
273.21	19.026
273.58	18.554
273.95	16.476
274.32	16.166
274.69	17.647
275.06	18.304
275.43	16.100
275.80	20.309
276.17	14.943
276.54	13.919
276.91	18.640
277.28	17.467
277.65	17.355
278.02	16.383
278.39	17.505
278.76	18.449
279.13	14.315
279.50	18.487
279.87	19.006
280.23	16.129
280.60	16.764
280.97	17.374
281.34	15.769
281.71	18.070
282.08	17.791
282.45	17.221
282.82	16.795
283.19	17.602
283.56	16.956
283.92	16.509
284.29	16.154
284.66	14.535
285.03	15.521
285.40	17.580
285.77	15.466
286.14	15.884
286.51	18.450
286.87	15.722
287.24	17.864
287.61	14.991
287.98	18.772
288.35	16.118
288.72	18.389
289.08	14.931
289.45	18.278
289.82	16.084
290.19	15.017
290.56	15.437
290.93	13.636
291.29	14.330
291.66	17.008
292.03	14.354
292.40	15.484
292.77	14.992
293.13	13.961
293.50	13.505
293.87	14.504
294.24	14.992
294.60	14.307
294.97	14.881
295.34	14.571
295.71	14.456
296.08	13.154
296.44	12.233
296.81	13.889
297.18	14.928
297.55	14.905
297.91	13.973
298.28	16.227
298.65	12.754
299.02	12.668
299.38	11.628
299.75	13.793
300.12	11.387
300.48	13.702
300.85	14.195
301.22	12.597
301.59	11.447
301.95	14.177
302.32	14.267
302.69	13.060
303.05	12.995
303.42	12.702
303.79	13.902
304.15	13.023
304.52	12.604
304.89	11.813
305.25	11.501
305.62	11.435
305.99	13.099
306.35	11.098
306.72	11.024
307.09	11.631
307.45	13.548
307.82	11.806
308.19	13.240
308.55	12.105
308.92	13.072
309.29	13.296
309.65	11.087
310.02	11.771
310.38	12.514
310.75	12.240
311.12	11.087
311.48	11.559
311.85	11.623
312.22	11.498
312.58	11.890
312.95	11.419
313.31	11.698
313.68	10.366
314.05	11.939
314.41	10.928
314.78	12.474
315.14	12.230
315.51	11.594
315.87	10.861
316.24	12.740
316.61	12.205
316.97	10.615
317.34	12.207
317.70	11.759
318.07	11.346
318.43	10.882
318.80	10.322
319.16	12.012
319.53	11.871
319.89	11.614
320.26	11.336
320.62	12.237
320.99	10.334
321.35	11.922
321.72	11.630
322.08	11.380
322.45	11.472
322.81	11.886
323.18	11.482
323.54	10.907
323.91	10.808
324.27	12.305
324.64	11.610
325.00	11.223
325.37	11.754
325.73	11.151
326.10	11.989
326.46	12.108
326.83	11.811
327.19	12.467
327.56	12.772
327.92	12.676
328.29	11.786
328.65	11.981
329.01	10.294
329.38	11.982
329.74	11.048
330.11	11.307
330.47	10.946
330.84	11.538
331.20	13.498
331.56	10.556
331.93	11.324
332.29	13.016
332.66	11.674
333.02	11.803
333.38	9.716
333.75	12.637
334.11	11.012
334.48	13.237
334.84	11.630
335.20	11.802
335.57	10.517
335.93	11.382
336.29	12.799
336.66	11.626
337.02	10.130
337.38	11.111
337.75	11.000
338.11	11.452
338.47	11.314
338.84	11.830
339.20	10.603
339.56	12.477
339.93	11.459
340.29	11.651
340.65	11.201
341.02	11.613
341.38	11.239
341.74	10.071
342.11	11.438
342.47	11.566
342.83	12.024
343.20	10.801
343.56	11.130
343.92	11.603
344.28	12.212
344.65	10.708
345.01	9.853
345.37	10.597
345.73	12.301
346.10	10.613
346.46	11.018
346.82	10.065
347.19	10.058
347.55	11.529
347.91	11.570
348.27	11.156
348.63	11.158
349.00	11.649
349.36	10.806
349.72	11.277
350.08	11.230
350.45	11.014
350.81	11.130
351.17	10.668
351.53	12.245
351.89	10.405
352.26	10.880
352.62	10.323
352.98	10.763
353.34	10.467
353.70	12.621
354.07	10.968
354.43	11.049
354.79	10.322
355.15	10.635
355.51	10.601
355.87	12.540
356.24	10.277
356.60	11.237
356.96	11.429
357.32	10.942
357.68	11.181
358.04	11.147
358.40	9.968
358.77	12.360
359.13	10.328
359.49	10.863
359.85	10.998
360.21	10.845
360.57	10.559
360.93	10.968
361.29	9.517
361.66	11.520
362.02	11.136
362.38	11.805
362.74	10.674
363.10	10.685
363.46	10.675
363.82	11.645
364.18	11.365
364.54	11.029
364.90	10.394
365.26	10.262
365.62	11.022
365.98	11.437
366.35	11.143
366.71	10.865
367.07	10.232
367.43	10.496
367.79	10.742
368.15	9.978
368.51	10.342
368.87	9.835
369.23	11.264
369.59	11.297
369.95	11.877
370.31	11.344
370.67	11.269
371.03	10.904
371.39	10.576
371.75	11.722
372.11	11.127
372.47	10.207
372.83	10.646
373.19	11.484
373.55	10.975
373.91	10.799
374.27	10.631
374.63	11.558
374.99	10.355
375.35	11.072
375.71	11.399
376.07	11.025
376.42	10.340
376.78	11.141
377.14	10.900
377.50	10.226
377.86	11.647
378.22	10.849
378.58	10.769
378.94	10.712
379.30	10.792
379.66	11.536
380.02	11.465
380.38	10.225
380.74	11.071
381.09	11.718
381.45	10.581
381.81	10.919
382.17	11.041
382.53	9.931
382.89	11.111
383.25	10.952
383.61	11.220
383.97	10.603
384.32	10.319
384.68	11.331
385.04	10.049
385.40	11.263
385.76	12.138
386.12	11.837
386.48	12.069
386.83	11.160
387.19	11.538
387.55	12.233
387.91	11.308
388.27	11.050
388.62	11.013
388.98	11.541
389.34	11.056
389.70	12.306
390.06	11.391
390.42	12.047
390.77	11.380
391.13	11.475
391.49	11.578
391.85	11.631
392.20	11.551
392.56	11.380
392.92	12.272
393.28	12.441
393.64	11.892
393.99	12.727
394.35	11.891
394.71	12.580
395.07	11.628
395.42	11.779
395.78	11.987
396.14	11.412
396.50	11.921
396.85	11.977
397.21	12.782
397.57	12.414
397.92	11.863
398.28	12.126
398.64	11.627
399.00	12.302
399.35	11.512
399.71	11.832
400.07	12.636
400.42	12.301
400.78	12.860
401.14	12.402
401.49	12.329
401.85	12.980
402.21	12.470
402.57	12.750
402.92	11.794
403.28	13.346
403.63	12.043
403.99	11.735
404.35	12.430
404.70	12.083
405.06	12.103
405.42	12.368
405.77	11.331
406.13	11.991
406.49	11.368
406.84	12.164
407.20	12.523
407.55	11.269
407.91	11.765
408.27	11.855
408.62	13.600
408.98	12.261
409.34	12.206
409.69	12.339
410.05	12.131
410.40	12.099
410.76	12.244
411.11	12.562
411.47	12.032
411.83	11.990
412.18	12.806
412.54	12.297
412.89	12.623
413.25	13.237
413.60	11.925
413.96	12.270
414.31	12.744
414.67	11.546
415.03	11.784
415.38	12.337
415.74	12.443
416.09	12.671
416.45	12.694
416.80	12.624
417.16	13.260
417.51	13.524
417.87	12.777
418.22	12.241
418.58	12.642
418.93	13.229
419.29	12.292
419.64	12.314
420.00	13.665
420.35	12.299
420.71	12.819
421.06	12.953
421.42	12.560
421.77	12.254
422.12	11.862
422.48	12.561
422.83	12.297
423.19	11.964
423.54	11.993
423.90	11.484
424.25	12.572
424.61	12.668
424.96	12.079
425.31	13.287
425.67	12.676
426.02	13.840
426.38	13.024
426.73	12.107
427.09	13.291
427.44	12.294
427.79	13.435
428.15	13.714
428.50	11.750
428.85	13.084
429.21	12.507
429.56	12.183
429.92	12.275
430.27	12.782
430.62	12.023
430.98	12.208
431.33	12.618
431.68	12.925
432.04	12.409
432.39	12.208
432.74	12.928
433.10	13.506
433.45	11.828
433.80	12.014
434.16	11.413
434.51	13.011
434.86	12.602
435.22	12.395
435.57	12.040
435.92	12.455
436.28	12.403
436.63	12.835
436.98	13.152
437.34	12.099
437.69	12.642
438.04	12.593
438.39	11.790
438.75	12.811
439.10	11.941
439.45	12.660
439.81	11.865
440.16	13.124
440.51	13.194
440.86	13.293
441.22	12.330
441.57	12.969
441.92	13.169
442.27	12.583
442.63	12.741
442.98	12.636
443.33	12.632
443.68	12.573
444.03	12.568
444.39	12.248
444.74	12.598
445.09	12.806
445.44	12.422
445.79	13.357
446.15	12.390
446.50	12.368
446.85	12.168
447.20	12.200
447.55	13.114
447.91	12.408
448.26	12.635
448.61	12.953
448.96	12.622
449.31	12.428
449.66	13.124
450.02	13.292
450.37	13.397
450.72	11.970
451.07	12.468
451.42	12.484
451.77	12.960
452.12	11.782
452.47	12.106
452.83	13.722
453.18	12.207
453.53	12.769
453.88	13.418
454.23	12.538
454.58	12.846
454.93	13.531
455.28	12.254
455.63	14.135
455.98	13.530
456.34	12.388
456.69	12.834
457.04	13.737
457.39	12.758
457.74	12.817
458.09	11.948
458.44	12.815
458.79	12.493
459.14	13.272
459.49	13.552
459.84	13.593
460.19	13.350
460.54	12.836
460.89	12.273
461.24	12.671
461.59	13.658
461.94	11.761
462.29	13.993
462.64	13.422
462.99	12.390
463.34	13.143
463.69	12.484
464.04	13.136
464.39	12.917
464.74	13.129
465.09	13.225
465.44	12.926
465.79	12.132
466.14	13.284
466.49	12.018
466.84	13.087
467.19	13.705
467.54	13.665
467.89	13.140
468.24	13.017
468.59	13.587
468.94	13.397
469.29	12.721
469.64	13.329
469.99	13.875
470.34	12.287
470.68	13.423
471.03	13.588
471.38	13.267
471.73	12.885
472.08	13.229
472.43	12.752
472.78	11.926
473.13	12.925
473.48	13.225
473.83	12.516
474.17	13.925
474.52	13.720
474.87	13.212
475.22	13.545
475.57	12.761
475.92	12.891
476.27	13.504
476.61	13.484
476.96	12.716
477.31	13.845
477.66	12.978
478.01	13.307
478.36	13.181
478.70	12.561
479.05	13.462
479.40	13.249
479.75	12.930
480.10	13.313
480.45	13.550
480.79	13.595
481.14	13.371
481.49	13.153
481.84	12.741
482.19	12.956
482.53	12.998
482.88	13.365
483.23	13.100
483.58	12.972
483.92	12.633
484.27	13.036
484.62	13.268
484.97	12.521
485.31	13.006
485.66	12.520
486.01	12.473
486.36	12.352
486.70	12.468
487.05	12.553
487.40	12.771
487.75	12.873
488.09	13.133
488.44	13.239
488.79	12.888
489.13	13.622
489.48	13.852
489.83	13.004
490.17	12.719
490.52	13.072
490.87	13.373
491.22	13.515
491.56	12.761
491.91	12.859
492.26	13.952
492.60	13.580
492.95	13.822
493.30	12.848
493.64	14.096
493.99	13.382
494.34	12.282
494.68	12.857
495.03	12.701
495.37	13.346
495.72	12.721
496.07	13.805
496.41	13.160
496.76	13.542
497.11	12.902
497.45	13.317
497.80	14.026
498.14	13.214
498.49	13.662
498.84	12.774
499.18	13.404
499.53	13.194
499.87	13.181
500.22	13.650
500.56	13.111
500.91	12.751
501.26	13.099
501.60	13.133
501.95	13.100
502.29	13.656
502.64	13.417
502.98	13.715
503.33	12.344
503.67	13.735
504.02	14.027
504.36	13.360
504.71	13.131
505.06	13.085
505.40	13.858
505.75	13.351
506.09	13.735
506.44	14.220
506.78	13.878
507.13	13.857
507.47	13.368
507.82	13.248
508.16	13.576
508.51	13.851
508.85	13.815
509.19	13.518
509.54	14.263
509.88	13.754
510.23	13.825
510.57	13.201
510.92	12.687
511.26	13.803
511.61	13.916
511.95	13.589
512.30	13.692
512.64	15.136
512.98	14.599
513.33	14.102
513.67	13.872
514.02	14.989
514.36	14.457
514.70	14.277
515.05	13.984
515.39	13.991
515.74	15.030
516.08	14.824
516.42	14.193
516.77	15.389
517.11	13.828
517.46	15.021
517.80	14.839
518.14	14.513
518.49	14.663
518.83	14.034
519.17	13.584
519.52	14.210
519.86	13.926
520.20	14.216
520.55	13.571
520.89	15.182
521.23	13.996
521.58	15.016
521.92	14.744
522.26	14.639
522.61	14.026
522.95	14.570
523.29	15.057
523.64	14.485
523.98	14.841
524.32	13.724
524.66	15.045
525.01	15.000
525.35	14.647
525.69	14.276
526.04	14.286
526.38	16.083
526.72	14.127
527.06	14.786
527.41	14.446
527.75	14.410
528.09	15.017
528.43	15.395
528.78	13.465
529.12	15.097
529.46	14.685
529.80	14.820
530.15	15.380
530.49	14.747
530.83	14.364
531.17	14.372
531.51	15.048
531.86	14.004
532.20	14.683
532.54	15.112
532.88	14.648
533.22	14.785
533.57	15.138
533.91	13.577
534.25	15.820
534.59	15.459
534.93	14.097
535.27	13.959
535.62	14.517
535.96	14.938
536.30	15.040
536.64	15.093
536.98	14.286
537.32	14.865
537.66	15.568
538.01	14.476
538.35	14.494
538.69	15.180
539.03	14.286
539.37	15.612
539.71	15.337
540.05	15.207
540.39	15.305
540.73	15.063
541.07	15.401
541.42	15.390
541.76	14.935
542.10	14.315
542.44	14.593
542.78	14.040
543.12	14.217
543.46	15.229
543.80	14.851
544.14	14.352
544.48	15.123
544.82	15.721
545.16	15.574
545.50	15.554
545.84	16.147
546.18	16.028
546.52	15.213
546.86	14.450
547.20	15.165
547.54	14.417
547.88	15.014
548.22	14.398
548.56	14.380
548.90	15.162
549.24	15.083
549.58	15.303
549.92	15.011
550.26	16.264
550.60	15.762
550.94	15.609
551.28	14.992
551.62	15.154
551.96	15.564
552.30	15.351
552.64	14.175
552.98	14.698
553.32	15.264
553.66	14.006
554.00	14.599
554.34	15.436
554.68	14.676
555.02	15.848
555.36	14.959
555.69	14.432
556.03	13.776
556.37	15.302
556.71	14.946
557.05	14.765
557.39	13.978
557.73	15.217
558.07	14.404
558.41	14.625
558.75	14.341
559.08	14.106
559.42	14.762
559.76	14.732
560.10	14.526
560.44	14.147
560.78	14.825
561.12	14.457
561.45	14.898
561.79	15.266
562.13	13.769
562.47	13.813
562.81	14.769
563.15	15.585
563.48	14.851
563.82	15.580
564.16	13.370
564.50	15.405
564.84	15.194
565.17	14.822
565.51	15.642
565.85	14.746
566.19	15.318
566.52	15.282
566.86	15.424
567.20	14.010
567.54	14.720
567.88	15.231
568.21	14.593
568.55	14.728
568.89	14.220
569.23	14.251
569.56	14.229
569.90	14.495
570.24	14.031
570.57	13.818
570.91	14.291
571.25	13.844
571.59	13.859
571.92	13.511
572.26	13.527
572.60	13.674
572.93	14.214
573.27	13.636
573.61	13.604
573.95	13.517
574.28	13.400
574.62	12.942
574.96	13.413
575.29	13.352
575.63	13.579
575.97	13.229
576.30	13.691
576.64	12.980
576.98	13.822
577.31	13.492
577.65	13.394
577.98	13.567
578.32	13.493
578.66	13.153
578.99	13.734
579.33	12.815
579.67	13.222
580.00	13.620
580.34	13.507
580.67	13.650
581.01	13.713
581.35	13.415
581.68	13.324
582.02	13.048
582.35	13.129
582.69	13.810
583.02	13.480
583.36	13.674
583.70	14.226
584.03	14.123
584.37	14.060
584.70	13.874
585.04	12.953
585.37	13.563
585.71	13.133
586.04	13.414
586.38	13.257
586.72	13.888
587.05	13.865
587.39	13.810
587.72	13.833
588.06	13.784
588.39	13.871
588.73	14.011
589.06	13.829
589.40	13.999
589.73	14.786
590.07	14.539
590.40	14.319
590.73	14.745
591.07	14.207
591.40	13.891
591.74	14.615
592.07	14.796
592.41	14.488
592.74	13.620
593.08	13.168
593.41	13.707
593.75	13.445
594.08	13.629
594.41	14.192
594.75	13.168
595.08	13.507
595.42	13.765
595.75	14.157
596.09	13.878
596.42	13.725
596.75	14.609
597.09	14.123
597.42	14.679
597.75	14.292
598.09	13.309
598.42	13.673
598.76	13.814
599.09	13.942
599.42	13.414
599.76	13.281
600.09	14.065
600.42	14.215
600.76	13.001
601.09	13.931
601.42	14.493
601.76	13.497
602.09	13.985
602.42	14.027
602.76	13.582
603.09	14.203
603.42	14.548
603.76	13.387
604.09	13.933
604.42	14.848
604.76	14.642
605.09	14.260
605.42	14.131
605.75	14.011
606.09	13.758
606.42	13.595
606.75	13.939
607.09	14.066
607.42	14.001
607.75	14.476
608.08	13.971
608.42	14.070
608.75	15.133
609.08	13.901
609.41	14.213
609.75	14.869
610.08	14.179
610.41	13.478
610.74	14.139
611.07	14.057
611.41	14.375
611.74	14.339
612.07	13.865
612.40	13.621
612.73	14.746
613.07	13.048
613.40	14.442
613.73	14.214
614.06	14.413
614.39	14.777
614.72	14.230
615.06	14.749
615.39	14.192
615.72	13.617
616.05	14.302
616.38	13.675
616.71	14.067
617.05	14.515
617.38	14.896
617.71	14.717
618.04	14.667
618.37	16.204
618.70	15.644
619.03	15.625
619.36	13.748
619.69	14.556
620.03	15.924
620.36	16.094
620.69	15.203
621.02	15.443
621.35	15.104
621.68	15.136
622.01	15.500
622.34	15.882
622.67	15.852
623.00	14.931
623.33	15.244
623.66	14.361
623.99	14.070
624.32	15.589
624.65	14.511
624.99	15.124
625.32	13.723
625.65	16.182
625.98	15.633
626.31	14.630
626.64	16.205
626.97	15.358
627.30	16.462
627.63	16.378
627.96	15.813
628.29	15.171
628.62	16.421
628.95	16.032
629.28	15.827
629.61	15.952
629.94	16.227
630.26	15.217
630.59	15.817
630.92	14.564
631.25	15.487
631.58	15.419
631.91	14.803
632.24	14.794
632.57	16.818
632.90	16.133
633.23	16.706
633.56	16.499
633.89	15.906
634.22	17.654
634.55	16.900
