SpectraSuite Data File
++++++++++++++++++++++++++++++++++++
Date: Fri May 15 17:13:06 PDT 2015
User: schluterlab
Dark Spectrum Present: Yes
Reference Spectrum Present: Yes
Number of Sampled Component Spectra: 1
Spectrometers: USB2E3373
Integration Time (usec): 3000 (USB2E3373)
Spectra Averaged: 3 (USB2E3373)
Boxcar Smoothing: 0 (USB2E3373)
Correct for Electrical Dark: No (USB2E3373)
Strobe/Lamp Enabled: No (USB2E3373)
Correct for Detector Non-linearity: No (USB2E3373)
Correct for Stray Light: No (USB2E3373)
Number of Pixels in Processed Spectrum: 2048
>>>>>Begin Processed Spectral Data<<<<<
178.53	0.000
178.91	0.000
179.29	162.500
179.67	-50.000
180.04	-185.714
180.42	300.000
180.80	-300.000
181.18	-200.000
181.56	50.000
181.94	0.000
182.31	-400.000
182.69	40.000
183.07	-66.667
183.45	20.000
183.83	133.333
184.20	90.909
184.58	66.667
184.96	-275.000
185.34	-366.667
185.72	-50.000
186.09	69.231
186.47	-200.000
186.85	33.333
187.23	22.222
187.61	-300.000
187.98	-66.667
188.36	66.667
188.74	333.333
189.12	64.706
189.49	50.000
189.87	0.000
190.25	57.143
190.63	650.000
191.00	-100.000
191.38	26.316
191.76	600.000
192.14	-100.000
192.51	150.000
192.89	-22.222
193.27	142.857
193.65	116.667
194.02	72.727
194.40	60.000
194.78	-125.000
195.15	8.333
195.53	50.000
195.91	75.000
196.29	125.000
196.66	7.692
197.04	42.857
197.42	-66.667
197.79	-33.333
198.17	-53.846
198.55	500.000
198.92	-133.333
199.30	0.000
199.68	40.000
200.05	-33.333
200.43	0.000
200.81	66.667
201.18	100.000
201.56	800.000
201.94	-500.000
202.31	-233.333
202.69	-60.000
203.07	25.000
203.44	600.000
203.82	0.000
204.19	114.286
204.57	-200.000
204.95	12.500
205.32	30.000
205.70	200.000
206.08	275.000
206.45	233.333
206.83	85.714
207.20	-128.571
207.58	-0.000
207.96	0.000
208.33	-70.000
208.71	400.000
209.08	0.000
209.46	100.000
209.84	120.000
210.21	1000.000
210.59	42.857
210.96	100.000
211.34	25.000
211.71	53.333
212.09	14.286
212.46	-600.000
212.84	0.000
213.22	170.000
213.59	-50.000
213.97	61.538
214.34	181.818
214.72	16.667
215.09	150.000
215.47	-7.692
215.84	54.545
216.22	66.667
216.59	25.000
216.97	650.000
217.34	0.000
217.72	120.000
218.09	125.000
218.47	50.000
218.84	-200.000
219.22	-22.222
219.59	160.000
219.97	266.667
220.34	75.000
220.72	85.714
221.09	100.000
221.47	-550.000
221.84	-300.000
222.22	-350.000
222.59	63.636
222.97	41.667
223.34	166.667
223.72	21.429
224.09	4.762
224.46	17.857
224.84	-100.000
225.21	100.000
225.59	126.667
225.96	-100.000
226.34	200.000
226.71	28.571
227.08	50.000
227.46	62.500
227.83	250.000
228.21	100.000
228.58	90.909
228.95	-25.000
229.33	20.000
229.70	118.750
230.08	12.500
230.45	57.143
230.82	142.857
231.20	20.000
231.57	-14.286
231.95	142.857
232.32	40.000
232.69	121.429
233.07	233.333
233.44	20.000
233.81	-20.000
234.19	233.333
234.56	29.412
234.93	-50.000
235.31	100.000
235.68	20.000
236.05	0.000
236.43	35.000
236.80	29.412
237.17	6.250
237.55	-10.000
237.92	-14.815
238.29	27.778
238.67	23.333
239.04	26.471
239.41	-4.878
239.79	-23.333
240.16	43.902
240.53	31.579
240.91	17.391
241.28	22.222
241.65	25.000
242.02	17.808
242.40	26.667
242.77	1.695
243.14	9.091
243.51	17.500
243.89	35.632
244.26	12.644
244.63	14.286
245.00	17.526
245.38	14.433
245.75	8.989
246.12	3.448
246.49	19.008
246.87	14.423
247.24	5.882
247.61	10.526
247.98	7.317
248.36	16.250
248.73	11.184
249.10	12.987
249.47	9.494
249.84	10.458
250.22	11.765
250.59	11.765
250.96	9.859
251.33	7.558
251.70	17.059
252.08	6.091
252.45	10.396
252.82	7.538
253.19	7.834
253.56	7.944
253.94	17.568
254.31	12.609
254.68	10.526
255.05	6.299
255.42	12.227
255.79	15.058
256.16	11.673
256.54	13.433
256.91	11.407
257.28	10.781
257.65	8.989
258.02	7.801
258.39	14.478
258.76	9.524
259.14	12.292
259.51	13.269
259.88	12.371
260.25	7.190
260.62	13.889
260.99	9.153
261.36	10.274
261.73	7.278
262.10	10.334
262.47	8.896
262.85	9.404
263.22	11.692
263.59	10.280
263.96	10.248
264.33	9.394
264.70	10.119
265.07	10.119
265.44	14.448
265.81	12.147
266.18	10.656
266.55	11.825
266.92	11.140
267.29	14.099
267.66	8.184
268.03	8.639
268.40	8.616
268.77	10.428
269.14	10.072
269.51	8.226
269.88	8.229
270.25	9.184
270.62	8.780
270.99	6.650
271.36	9.780
271.73	10.329
272.10	9.976
272.47	12.293
272.84	8.168
273.21	11.601
273.58	10.361
273.95	10.297
274.32	6.467
274.69	11.538
275.06	9.598
275.43	11.565
275.80	9.492
276.17	11.494
276.54	9.850
276.91	11.623
277.28	8.297
277.65	11.157
278.02	9.574
278.39	9.409
278.76	7.966
279.13	9.544
279.50	11.555
279.87	12.095
280.23	8.387
280.60	11.306
280.97	10.707
281.34	7.308
281.71	11.088
282.08	8.793
282.45	10.372
282.82	7.915
283.19	8.511
283.56	7.129
283.92	9.677
284.29	10.192
284.66	9.109
285.03	9.037
285.40	8.507
285.77	6.854
286.14	7.942
286.51	12.731
286.87	9.506
287.24	8.471
287.61	11.464
287.98	11.053
288.35	9.532
288.72	9.807
289.08	7.986
289.45	9.490
289.82	8.392
290.19	8.703
290.56	7.376
290.93	8.586
291.29	7.396
291.66	8.819
292.03	8.612
292.40	8.548
292.77	9.410
293.13	6.494
293.50	6.677
293.87	7.634
294.24	8.501
294.60	8.644
294.97	9.077
295.34	8.282
295.71	5.812
296.08	7.623
296.44	6.970
296.81	7.500
297.18	8.551
297.55	8.266
297.91	7.260
298.28	8.971
298.65	7.191
299.02	7.412
299.38	5.472
299.75	8.000
300.12	6.021
300.48	7.905
300.85	7.351
301.22	7.403
301.59	6.447
301.95	8.861
302.32	7.263
302.69	7.090
303.05	6.931
303.42	6.974
303.79	7.710
304.15	8.124
304.52	5.707
304.89	5.965
305.25	6.659
305.62	6.301
305.99	6.316
306.35	7.283
306.72	5.512
307.09	6.842
307.45	6.085
307.82	6.134
308.19	6.969
308.55	6.325
308.92	7.516
309.29	5.698
309.65	6.136
310.02	6.491
310.38	6.476
310.75	6.995
311.12	6.243
311.48	6.999
311.85	6.492
312.22	6.435
312.58	6.157
312.95	6.403
313.31	5.487
313.68	5.236
314.05	5.816
314.41	6.907
314.78	6.392
315.14	7.605
315.51	6.315
315.87	6.557
316.24	7.381
316.61	6.988
316.97	7.639
317.34	7.910
317.70	7.170
318.07	6.827
318.43	6.863
318.80	7.481
319.16	8.691
319.53	8.262
319.89	8.760
320.26	9.312
320.62	11.033
320.99	8.768
321.35	9.866
321.72	10.592
322.08	10.876
322.45	10.660
322.81	11.395
323.18	10.206
323.54	11.004
323.91	11.977
324.27	13.184
324.64	13.015
325.00	14.325
325.37	16.253
325.73	14.234
326.10	15.985
326.46	17.848
326.83	17.935
327.19	18.309
327.56	20.070
327.92	20.599
328.29	19.196
328.65	21.321
329.01	22.426
329.38	22.949
329.74	22.852
330.11	24.745
330.47	24.583
330.84	26.923
331.20	28.897
331.56	27.778
331.93	29.680
332.29	27.956
332.66	29.050
333.02	29.554
333.38	29.973
333.75	32.418
334.11	30.081
334.48	31.460
334.84	31.319
335.20	31.839
335.57	32.820
335.93	33.153
336.29	33.517
336.66	33.878
337.02	33.178
337.38	34.630
337.75	34.364
338.11	35.437
338.47	36.588
338.84	36.506
339.20	35.375
339.56	36.422
339.93	36.258
340.29	36.239
340.65	36.470
341.02	36.082
341.38	37.168
341.74	36.396
342.11	35.702
342.47	38.078
342.83	36.765
343.20	36.150
343.56	37.826
343.92	36.758
344.28	37.831
344.65	37.047
345.01	36.560
345.37	37.006
345.73	38.159
346.10	38.481
346.46	36.585
346.82	37.561
347.19	35.993
347.55	37.093
347.91	37.136
348.27	37.348
348.63	39.438
349.00	37.982
349.36	38.155
349.72	38.474
350.08	37.459
350.45	38.228
350.81	36.960
351.17	37.296
351.53	39.020
351.89	38.150
352.26	38.480
352.62	38.145
352.98	37.269
353.34	38.325
353.70	39.239
354.07	37.258
354.43	38.110
354.79	39.637
355.15	37.619
355.51	38.054
355.87	38.916
356.24	38.254
356.60	37.672
356.96	39.921
357.32	39.137
357.68	39.406
358.04	39.661
358.40	39.550
358.77	38.676
359.13	40.192
359.49	38.213
359.85	39.548
360.21	40.032
360.57	38.332
360.93	39.939
361.29	39.426
361.66	41.223
362.02	39.773
362.38	41.127
362.74	40.424
363.10	41.911
363.46	41.660
363.82	40.346
364.18	41.328
364.54	39.926
364.90	41.935
365.26	40.902
365.62	42.409
365.98	40.689
366.35	42.389
366.71	42.498
367.07	42.453
367.43	42.991
367.79	41.060
368.15	41.709
368.51	41.879
368.87	42.570
369.23	42.527
369.59	43.732
369.95	42.229
370.31	43.353
370.67	44.776
371.03	44.361
371.39	43.253
371.75	43.883
372.11	45.292
372.47	44.527
372.83	44.713
373.19	44.294
373.55	43.827
373.91	43.844
374.27	45.641
374.63	45.729
374.99	44.681
375.35	45.822
375.71	46.853
376.07	46.138
376.42	47.075
376.78	47.181
377.14	46.310
377.50	47.012
377.86	48.260
378.22	46.650
378.58	48.269
378.94	47.826
379.30	47.785
379.66	48.903
380.02	48.253
380.38	47.900
380.74	49.192
381.09	50.307
381.45	49.725
381.81	49.414
382.17	50.254
382.53	48.969
382.89	50.785
383.25	51.151
383.61	51.098
383.97	50.730
384.32	51.970
384.68	51.084
385.04	51.409
385.40	50.404
385.76	53.145
386.12	51.876
386.48	53.640
386.83	53.075
387.19	53.663
387.55	53.450
387.91	54.340
388.27	53.846
388.62	54.751
388.98	54.205
389.34	54.279
389.70	55.376
390.06	53.807
390.42	54.793
390.77	55.526
391.13	54.477
391.49	55.175
391.85	56.595
392.20	55.430
392.56	56.008
392.92	55.960
393.28	55.837
393.64	56.276
393.99	57.618
394.35	57.306
394.71	57.854
395.07	55.877
395.42	56.709
395.78	57.524
396.14	57.440
396.50	58.909
396.85	58.789
397.21	58.208
397.57	58.307
397.92	56.081
398.28	58.506
398.64	57.229
399.00	58.465
399.35	56.321
399.71	57.381
400.07	58.827
400.42	57.466
400.78	58.236
401.14	57.290
401.49	57.296
401.85	58.074
402.21	56.807
402.57	59.000
402.92	57.779
403.28	58.897
403.63	58.890
403.99	60.077
404.35	59.838
404.70	57.738
405.06	58.696
405.42	58.794
405.77	58.396
406.13	59.139
406.49	58.022
406.84	59.535
407.20	58.639
407.55	58.339
407.91	58.757
408.27	59.082
408.62	59.508
408.98	59.458
409.34	58.612
409.69	59.302
410.05	58.313
410.40	58.704
410.76	59.409
411.11	59.000
411.47	59.895
411.83	59.510
412.18	60.618
412.54	59.301
412.89	58.682
413.25	58.724
413.60	60.124
413.96	59.202
414.31	59.085
414.67	58.627
415.03	59.188
415.38	59.987
415.74	60.651
416.09	60.614
416.45	59.824
416.80	60.608
417.16	61.395
417.51	60.160
417.87	59.909
418.22	62.435
418.58	61.070
418.93	60.313
419.29	58.195
419.64	60.661
420.00	61.902
420.35	60.060
420.71	60.571
421.06	62.124
421.42	60.637
421.77	59.827
422.12	60.897
422.48	60.693
422.83	60.325
423.19	61.343
423.54	61.611
423.90	60.306
424.25	61.711
424.61	61.628
424.96	61.092
425.31	62.796
425.67	63.028
426.02	62.721
426.38	63.431
426.73	62.893
427.09	63.861
427.44	63.118
427.79	61.402
428.15	63.167
428.50	62.568
428.85	62.101
429.21	62.649
429.56	63.127
429.92	61.531
430.27	61.604
430.62	61.945
430.98	63.270
431.33	61.777
431.68	63.108
432.04	62.437
432.39	63.149
432.74	62.057
433.10	64.195
433.45	62.963
433.80	64.423
434.16	63.823
434.51	62.473
434.86	64.402
435.22	63.545
435.57	63.880
435.92	64.551
436.28	63.626
436.63	64.119
436.98	64.137
437.34	64.428
437.69	65.534
438.04	63.647
438.39	63.836
438.75	65.392
439.10	64.403
439.45	65.612
439.81	63.976
440.16	67.162
440.51	66.985
440.86	66.526
441.22	63.857
441.57	66.004
441.92	65.792
442.27	66.685
442.63	65.792
442.98	64.848
443.33	64.441
443.68	65.889
444.03	65.673
444.39	64.879
444.74	66.332
445.09	67.149
445.44	65.527
445.79	67.303
446.15	65.419
446.50	66.500
446.85	66.100
447.20	66.058
447.55	66.350
447.91	66.328
448.26	66.762
448.61	65.746
448.96	66.093
449.31	66.301
449.66	66.028
450.02	66.971
450.37	67.279
450.72	66.380
451.07	67.025
451.42	66.729
451.77	67.089
452.12	66.328
452.47	66.323
452.83	66.431
453.18	66.667
453.53	67.004
453.88	67.760
454.23	66.318
454.58	67.821
454.93	65.851
455.28	65.143
455.63	66.770
455.98	67.048
456.34	65.645
456.69	67.217
457.04	66.856
457.39	66.403
457.74	66.445
458.09	65.274
458.44	66.004
458.79	66.835
459.14	67.220
459.49	67.940
459.84	66.159
460.19	65.534
460.54	66.993
460.89	67.500
461.24	67.267
461.59	66.449
461.94	66.038
462.29	67.250
462.64	68.173
462.99	67.163
463.34	68.150
463.69	66.731
464.04	66.768
464.39	67.192
464.74	66.748
465.09	66.625
465.44	66.301
465.79	64.399
466.14	66.819
466.49	64.807
466.84	66.627
467.19	65.144
467.54	66.411
467.89	66.582
468.24	65.937
468.59	68.825
468.94	65.270
469.29	66.951
469.64	66.165
469.99	67.905
470.34	66.894
470.68	68.531
471.03	67.799
471.38	68.616
471.73	67.227
472.08	67.300
472.43	67.450
472.78	66.552
473.13	68.231
473.48	66.906
473.83	65.006
474.17	67.487
474.52	65.795
474.87	66.667
475.22	67.114
475.57	66.911
475.92	68.294
476.27	67.055
476.61	68.171
476.96	65.142
477.31	66.685
477.66	67.865
478.01	66.929
478.36	65.523
478.70	68.026
479.05	66.923
479.40	67.144
479.75	65.902
480.10	66.564
480.45	66.750
480.79	67.372
481.14	67.674
481.49	66.108
481.84	67.375
482.19	66.417
482.53	66.667
482.88	66.348
483.23	67.802
483.58	66.509
483.92	65.973
484.27	66.180
484.62	65.979
484.97	66.418
485.31	64.957
485.66	63.595
486.01	64.447
486.36	64.063
486.70	64.432
487.05	65.267
487.40	64.969
487.75	64.930
488.09	65.019
488.44	65.887
488.79	66.156
489.13	66.907
489.48	66.481
489.83	65.112
490.17	66.292
490.52	65.266
490.87	66.173
491.22	67.670
491.56	66.746
491.91	65.296
492.26	66.505
492.60	65.355
492.95	67.044
493.30	66.243
493.64	66.749
493.99	66.280
494.34	65.825
494.68	65.619
495.03	66.326
495.37	66.683
495.72	66.835
496.07	66.976
496.41	66.934
496.76	66.467
497.11	65.999
497.45	67.064
497.80	66.902
498.14	66.468
498.49	66.582
498.84	66.517
499.18	66.215
499.53	66.022
499.87	65.418
500.22	65.875
500.56	66.818
500.91	65.211
501.26	66.337
501.60	66.699
501.95	65.648
502.29	65.811
502.64	66.795
502.98	66.601
503.33	65.370
503.67	66.072
504.02	66.227
504.36	65.908
504.71	64.697
505.06	65.526
505.40	67.817
505.75	67.165
506.09	65.028
506.44	67.762
506.78	66.020
507.13	67.735
507.47	65.640
507.82	66.346
508.16	67.195
508.51	66.894
508.85	67.190
509.19	66.951
509.54	67.292
509.88	66.936
510.23	67.725
510.57	67.290
510.92	65.672
511.26	66.612
511.61	67.712
511.95	67.342
512.30	66.907
512.64	67.446
512.98	67.996
513.33	66.872
513.67	66.686
514.02	67.963
514.36	69.029
514.70	68.415
515.05	67.920
515.39	67.769
515.74	67.904
516.08	69.815
516.42	68.492
516.77	68.929
517.11	68.665
517.46	68.163
517.80	67.878
518.14	67.728
518.49	66.947
518.83	68.712
519.17	66.889
519.52	68.088
519.86	66.747
520.20	67.740
520.55	67.230
520.89	67.440
521.23	68.778
521.58	68.896
521.92	68.590
522.26	68.445
522.61	69.935
522.95	69.338
523.29	68.869
523.64	67.916
523.98	68.957
524.32	67.590
524.66	68.566
525.01	69.156
525.35	69.540
525.69	69.024
526.04	69.312
526.38	70.039
526.72	68.018
527.06	67.575
527.41	68.931
527.75	68.633
528.09	68.771
528.43	71.101
528.78	69.901
529.12	68.645
529.46	70.110
529.80	67.258
530.15	68.515
530.49	69.428
530.83	70.793
531.17	68.368
531.51	68.536
531.86	67.573
532.20	68.198
532.54	68.890
532.88	68.583
533.22	69.288
533.57	68.807
533.91	68.603
534.25	69.792
534.59	67.672
534.93	67.275
535.27	67.132
535.62	67.920
535.96	68.689
536.30	68.140
536.64	69.194
536.98	67.805
537.32	69.630
537.66	68.864
538.01	70.070
538.35	70.180
538.69	68.642
539.03	67.601
539.37	69.044
539.71	68.507
540.05	67.821
540.39	68.975
540.73	69.526
541.07	69.406
541.42	67.608
541.76	70.062
542.10	67.653
542.44	70.605
542.78	66.896
543.12	68.819
543.46	69.680
543.80	67.870
544.14	66.355
544.48	67.888
544.82	67.396
545.16	68.716
545.50	69.626
545.84	67.705
546.18	68.865
546.52	68.637
546.86	68.009
547.20	69.814
547.54	67.915
547.88	68.410
548.22	67.193
548.56	67.414
548.90	68.261
549.24	67.424
549.58	68.265
549.92	68.120
550.26	68.278
550.60	69.665
550.94	67.662
551.28	68.702
551.62	70.923
551.96	69.248
552.30	69.371
552.64	66.925
552.98	68.636
553.32	69.116
553.66	68.723
554.00	70.949
554.34	69.276
554.68	67.552
555.02	68.899
555.36	69.634
555.69	68.205
556.03	68.380
556.37	67.972
556.71	68.953
557.05	70.321
557.39	67.881
557.73	68.591
558.07	70.287
558.41	69.755
558.75	69.758
559.08	69.425
559.42	69.762
559.76	70.616
560.10	69.113
560.44	68.801
560.78	68.601
561.12	68.618
561.45	69.782
561.79	68.908
562.13	69.198
562.47	69.065
562.81	69.164
563.15	67.348
563.48	69.024
563.82	68.497
564.16	69.847
564.50	68.919
564.84	69.009
565.17	68.142
565.51	69.536
565.85	70.165
566.19	68.435
566.52	70.442
566.86	68.059
567.20	67.497
567.54	68.674
567.88	68.483
568.21	69.287
568.55	67.609
568.89	67.967
569.23	67.646
569.56	66.462
569.90	66.991
570.24	63.900
570.57	67.891
570.91	66.713
571.25	65.044
571.59	63.781
571.92	63.496
572.26	64.946
572.60	64.403
572.93	65.014
573.27	63.887
573.61	64.588
573.95	64.528
574.28	63.851
574.62	64.150
574.96	63.301
575.29	63.327
575.63	62.685
575.97	63.378
576.30	63.846
576.64	63.338
576.98	63.861
577.31	63.947
577.65	64.197
577.98	64.138
578.32	63.816
578.66	63.292
578.99	63.173
579.33	63.402
579.67	63.184
580.00	63.949
580.34	63.532
580.67	63.155
581.01	63.785
581.35	63.243
581.68	63.137
582.02	63.388
582.35	63.565
582.69	64.336
583.02	63.128
583.36	63.875
583.70	64.356
584.03	66.166
584.37	65.274
584.70	64.313
585.04	63.731
585.37	63.047
585.71	64.132
586.04	63.817
586.38	63.030
586.72	64.161
587.05	64.385
587.39	65.082
587.72	65.528
588.06	64.849
588.39	64.654
588.73	64.469
589.06	65.688
589.40	64.984
589.73	65.425
590.07	65.899
590.40	66.254
590.73	66.392
591.07	66.539
591.40	66.207
591.74	65.928
592.07	66.929
592.41	66.343
592.74	65.472
593.08	64.094
593.41	64.349
593.75	63.952
594.08	64.710
594.41	64.338
594.75	65.038
595.08	64.548
595.42	65.477
595.75	65.490
596.09	65.520
596.42	65.523
596.75	66.119
597.09	65.831
597.42	66.079
597.75	66.880
598.09	64.962
598.42	64.892
598.76	64.522
599.09	64.223
599.42	63.698
599.76	63.582
600.09	64.367
600.42	64.746
600.76	63.410
601.09	64.656
601.42	63.416
601.76	64.867
602.09	64.398
602.42	65.796
602.76	65.450
603.09	65.947
603.42	66.973
603.76	65.968
604.09	65.087
604.42	66.117
604.76	66.088
605.09	67.002
605.42	66.140
605.75	65.630
606.09	65.902
606.42	64.178
606.75	66.494
607.09	65.275
607.42	64.776
607.75	64.387
608.08	64.331
608.42	64.504
608.75	66.506
609.08	66.069
609.41	66.599
609.75	65.272
610.08	65.602
610.41	65.942
610.74	65.480
611.07	66.873
611.41	67.462
611.74	65.778
612.07	65.471
612.40	66.466
612.73	66.667
613.07	66.423
613.40	66.685
613.73	66.256
614.06	65.442
614.39	67.061
614.72	66.723
615.06	66.872
615.39	64.574
615.72	65.339
616.05	66.369
616.38	65.071
616.71	67.034
617.05	67.820
617.38	66.562
617.71	68.365
618.04	67.492
618.37	68.348
618.70	68.317
619.03	68.403
619.36	68.162
619.69	70.508
620.03	69.540
620.36	67.525
620.69	67.380
621.02	69.343
621.35	69.129
621.68	71.088
622.01	69.583
622.34	69.912
622.67	69.164
623.00	68.224
623.33	70.198
623.66	67.988
623.99	67.927
624.32	69.278
624.65	67.293
624.99	69.300
625.32	68.234
625.65	69.128
625.98	69.782
626.31	71.072
626.64	70.537
626.97	69.197
627.30	70.841
627.63	68.458
627.96	72.686
628.29	71.970
628.62	70.501
628.95	70.441
629.28	70.464
629.61	70.090
629.94	72.434
630.26	71.739
630.59	73.569
630.92	71.795
631.25	69.949
631.58	72.357
631.91	72.478
632.24	72.706
632.57	73.068
632.90	72.598
633.23	72.000
633.56	73.929
633.89	71.147
634.22	74.691
634.55	73.571
634.88	72.925
635.20	70.513
635.53	74.800
635.86	72.042
636.19	73.739
636.52	74.107
636.85	72.208
637.18	73.333
637.51	71.824
