SpectraSuite Data File
++++++++++++++++++++++++++++++++++++
Date: Fri May 15 20:15:55 PDT 2015
User: schluterlab
Dark Spectrum Present: Yes
Reference Spectrum Present: Yes
Number of Sampled Component Spectra: 1
Spectrometers: USB2E3373
Integration Time (usec): 3000 (USB2E3373)
Spectra Averaged: 3 (USB2E3373)
Boxcar Smoothing: 0 (USB2E3373)
Correct for Electrical Dark: No (USB2E3373)
Strobe/Lamp Enabled: No (USB2E3373)
Correct for Detector Non-linearity: No (USB2E3373)
Correct for Stray Light: No (USB2E3373)
Number of Pixels in Processed Spectrum: 2048
>>>>>Begin Processed Spectral Data<<<<<
178.53	0.000
178.91	0.000
179.29	-12.500
179.67	-500.000
180.04	14.286
180.42	50.000
180.80	400.000
181.18	-100.000
181.56	100.000
181.94	250.000
182.31	-0.000
182.69	0.000
183.07	-133.333
183.45	-260.000
183.83	200.000
184.20	45.455
184.58	55.556
184.96	25.000
185.34	-66.667
185.72	-550.000
186.09	138.462
186.47	-600.000
186.85	183.333
187.23	88.889
187.61	500.000
187.98	-166.667
188.36	33.333
188.74	-33.333
189.12	11.765
189.49	-22.222
189.87	0.000
190.25	64.286
190.63	250.000
191.00	-266.667
191.38	-36.842
191.76	100.000
192.14	125.000
192.51	200.000
192.89	44.444
193.27	-28.571
193.65	316.667
194.02	190.909
194.40	60.000
194.78	-37.500
195.15	-25.000
195.53	-25.000
195.91	350.000
196.29	175.000
196.66	100.000
197.04	200.000
197.42	-33.333
197.79	-333.333
198.17	-30.769
198.55	1400.000
198.92	-433.333
199.30	700.000
199.68	0.000
200.05	-233.333
200.43	0.000
200.81	-233.333
201.18	200.000
201.56	500.000
201.94	-50.000
202.31	-166.667
202.69	-160.000
203.07	250.000
203.44	600.000
203.82	0.000
204.19	7.143
204.57	-666.667
204.95	12.500
205.32	40.000
205.70	-71.429
206.08	-175.000
206.45	155.556
206.83	42.857
207.20	-100.000
207.58	200.000
207.96	-300.000
208.33	-40.000
208.71	-275.000
209.08	-100.000
209.46	200.000
209.84	-60.000
210.21	-1700.000
210.59	-14.286
210.96	66.667
211.34	100.000
211.71	33.333
212.09	-228.571
212.46	-600.000
212.84	0.000
213.22	40.000
213.59	950.000
213.97	30.769
214.34	72.727
214.72	83.333
215.09	500.000
215.47	-38.462
215.84	27.273
216.22	-133.333
216.59	-62.500
216.97	-50.000
217.34	-275.000
217.72	-200.000
218.09	50.000
218.47	112.500
218.84	-600.000
219.22	-55.556
219.59	20.000
219.97	400.000
220.34	250.000
220.72	14.286
221.09	-125.000
221.47	0.000
221.84	-50.000
222.22	-350.000
222.59	27.273
222.97	0.000
223.34	-100.000
223.72	0.000
224.09	28.571
224.46	42.857
224.84	433.333
225.21	-30.000
225.59	93.333
225.96	50.000
226.34	350.000
226.71	-128.571
227.08	-50.000
227.46	25.000
227.83	-450.000
228.21	88.889
228.58	63.636
228.95	25.000
229.33	70.000
229.70	-18.750
230.08	-25.000
230.45	-114.286
230.82	-14.286
231.20	73.333
231.57	71.429
231.95	28.571
232.32	-110.000
232.69	-14.286
233.07	-100.000
233.44	40.000
233.81	60.000
234.19	-22.222
234.56	-11.765
234.93	-350.000
235.31	75.000
235.68	-100.000
236.05	-53.846
236.43	-5.000
236.80	-23.529
237.17	-18.750
237.55	-30.000
237.92	-29.630
238.29	-2.778
238.67	0.000
239.04	-2.941
239.41	-21.951
239.79	-6.667
240.16	29.268
240.53	-28.947
240.91	-15.217
241.28	-3.175
241.65	10.714
242.02	15.068
242.40	16.667
242.77	3.390
243.14	4.545
243.51	15.000
243.89	19.540
244.26	0.000
244.63	4.762
245.00	16.495
245.38	9.278
245.75	0.000
246.12	6.034
246.49	-0.826
246.87	5.769
247.24	8.403
247.61	5.263
247.98	7.317
248.36	5.625
248.73	11.842
249.10	11.039
249.47	3.165
249.84	5.882
250.22	10.588
250.59	10.458
250.96	12.207
251.33	6.977
251.70	12.941
252.08	16.244
252.45	7.921
252.82	6.533
253.19	12.442
253.56	5.607
253.94	12.162
254.31	9.130
254.68	10.526
255.05	7.480
255.42	9.170
255.79	10.039
256.16	8.171
256.54	10.448
256.91	9.886
257.28	13.755
257.65	10.861
258.02	6.738
258.39	8.418
258.76	10.989
259.14	12.957
259.51	6.472
259.88	8.591
260.25	6.863
260.62	12.153
260.99	5.424
261.36	7.877
261.73	7.278
262.10	9.422
262.47	11.963
262.85	4.389
263.22	10.154
263.59	10.280
263.96	11.180
264.33	13.030
264.70	10.714
265.07	4.167
265.44	9.065
265.81	12.712
266.18	12.022
266.55	11.054
266.92	10.363
267.29	8.094
267.66	8.951
268.03	12.304
268.40	7.050
268.77	9.358
269.14	9.353
269.51	13.882
269.88	9.227
270.25	8.163
270.62	6.829
270.99	10.230
271.36	10.024
271.73	8.685
272.10	9.976
272.47	10.165
272.84	8.663
273.21	11.601
273.58	9.880
273.95	11.670
274.32	8.545
274.69	6.109
275.06	7.812
275.43	7.256
275.80	9.051
276.17	8.046
276.54	9.636
276.91	10.965
277.28	8.734
277.65	13.017
278.02	10.213
278.39	6.783
278.76	10.692
279.13	6.846
279.50	11.134
279.87	9.719
280.23	7.527
280.60	10.916
280.97	9.899
281.34	9.038
281.71	9.446
282.08	8.589
282.45	9.002
282.82	8.301
283.19	9.284
283.56	6.744
283.92	8.539
284.29	9.615
284.66	9.884
285.03	8.841
285.40	9.452
285.77	5.975
286.14	8.303
286.51	9.594
286.87	7.130
287.24	9.392
287.61	9.700
287.98	9.825
288.35	5.893
288.72	8.932
289.08	8.854
289.45	9.139
289.82	8.392
290.19	7.338
290.56	7.890
290.93	8.081
291.29	8.475
291.66	7.559
292.03	9.410
292.40	8.226
292.77	8.453
293.13	7.955
293.50	7.891
293.87	7.328
294.24	8.037
294.60	7.899
294.97	7.143
295.34	7.362
295.71	8.942
296.08	7.623
296.44	7.112
296.81	8.472
297.18	7.246
297.55	7.046
297.91	7.534
298.28	7.916
298.65	6.649
299.02	7.817
299.38	5.335
299.75	6.483
300.12	6.937
300.48	6.324
300.85	7.098
301.22	7.532
301.59	8.026
301.95	6.709
302.32	8.301
302.69	6.095
303.05	7.178
303.42	6.600
303.79	6.659
304.15	8.363
304.52	5.232
304.89	5.965
305.25	6.659
305.62	4.551
305.99	5.731
306.35	6.590
306.72	5.512
307.09	6.727
307.45	7.233
307.82	5.671
308.19	6.039
308.55	6.325
308.92	7.843
309.29	4.246
309.65	5.705
310.02	5.281
310.38	6.915
310.75	7.104
311.12	5.920
311.48	5.408
311.85	7.539
312.22	4.747
312.58	6.051
312.95	4.696
313.31	5.590
313.68	6.597
314.05	6.735
314.41	6.701
314.78	6.186
315.14	7.400
315.51	6.625
315.87	5.430
316.24	7.482
316.61	7.087
316.97	6.944
317.34	5.859
317.70	7.935
318.07	7.019
318.43	6.569
318.80	6.155
319.16	7.129
319.53	7.502
319.89	6.594
320.26	7.389
320.62	8.526
320.99	6.681
321.35	7.914
321.72	8.307
322.08	7.754
322.45	8.426
322.81	7.269
323.18	7.556
323.54	8.494
323.91	7.984
324.27	8.594
324.64	8.801
325.00	9.672
325.37	11.019
325.73	8.341
326.10	9.809
326.46	9.955
326.83	9.624
327.19	10.288
327.56	10.860
327.92	10.651
328.29	9.821
328.65	10.943
329.01	11.489
329.38	10.876
329.74	10.009
330.11	10.473
330.47	11.039
330.84	10.962
331.20	13.878
331.56	10.741
331.93	12.329
332.29	12.191
332.66	12.127
333.02	12.546
333.38	12.099
333.75	12.821
334.11	13.250
334.48	13.418
334.84	13.278
335.20	12.717
335.57	12.783
335.93	13.550
336.29	13.076
336.66	13.442
337.02	12.082
337.38	13.333
337.75	13.909
338.11	13.075
338.47	14.142
338.84	13.124
339.20	13.620
339.56	13.578
339.93	14.235
340.29	13.578
340.65	14.516
341.02	14.184
341.38	13.451
341.74	12.456
342.11	13.605
342.47	13.256
342.83	14.533
343.20	13.502
343.56	14.174
343.92	14.438
344.28	14.176
344.65	13.299
345.01	13.656
345.37	14.550
345.73	13.975
346.10	15.099
346.46	14.718
346.82	14.075
347.19	14.131
347.55	14.035
347.91	14.320
348.27	13.985
348.63	14.566
349.00	14.602
349.36	14.630
349.72	14.096
350.08	14.672
350.45	14.525
350.81	14.120
351.17	13.518
351.53	14.531
351.89	14.699
352.26	14.320
352.62	15.403
352.98	14.618
353.34	13.688
353.70	14.725
354.07	13.629
354.43	14.331
354.79	14.946
355.15	15.238
355.51	15.111
355.87	14.806
356.24	13.622
356.60	14.713
356.96	15.000
357.32	14.457
357.68	14.308
358.04	14.540
358.40	14.550
358.77	14.434
359.13	15.452
359.49	14.638
359.85	14.899
360.21	14.434
360.57	14.920
360.93	15.431
361.29	13.746
361.66	14.655
362.02	15.227
362.38	15.994
362.74	14.534
363.10	14.898
363.46	14.529
363.82	16.304
364.18	14.982
364.54	15.368
364.90	15.054
365.26	14.556
365.62	15.620
365.98	14.296
366.35	15.805
366.71	16.186
367.07	14.877
367.43	14.738
367.79	15.830
368.15	16.152
368.51	15.586
368.87	15.219
369.23	15.307
369.59	15.962
369.95	14.663
370.31	16.040
370.67	14.403
371.03	14.937
371.39	14.880
371.75	15.604
372.11	16.405
372.47	15.607
372.83	15.614
373.19	15.264
373.55	15.451
373.91	15.767
374.27	15.804
374.63	15.865
374.99	15.674
375.35	16.156
375.71	16.224
376.07	15.660
376.42	15.850
376.78	16.174
377.14	16.317
377.50	15.405
377.86	16.131
378.22	16.273
378.58	15.897
378.94	15.753
379.30	16.032
379.66	16.238
380.02	16.125
380.38	15.520
380.74	15.679
381.09	17.362
381.45	15.902
381.81	16.780
382.17	15.673
382.53	16.115
382.89	16.635
383.25	16.677
383.61	17.195
383.97	16.952
384.32	17.261
384.68	16.718
385.04	16.850
385.40	16.055
385.76	17.484
386.12	16.882
386.48	16.220
386.83	16.677
387.19	17.582
387.55	16.625
387.91	16.565
388.27	17.582
388.62	16.866
388.98	16.636
389.34	16.740
389.70	17.340
390.06	16.362
390.42	16.904
390.77	17.332
391.13	16.583
391.49	17.335
391.85	17.869
392.20	17.012
392.56	17.355
392.92	17.733
393.28	17.217
393.64	16.817
393.99	17.743
394.35	16.951
394.71	18.072
395.07	16.468
395.42	17.304
395.78	16.873
396.14	17.150
396.50	16.931
396.85	17.643
397.21	16.416
397.57	17.116
397.92	17.436
398.28	17.414
398.64	16.566
399.00	18.172
399.35	17.212
399.71	17.576
400.07	17.231
400.42	17.564
400.78	17.759
401.14	17.181
401.49	17.689
401.85	17.246
402.21	17.470
402.57	18.062
402.92	16.688
403.28	17.794
403.63	17.150
403.99	17.283
404.35	17.052
404.70	16.429
405.06	17.744
405.42	16.967
405.77	16.676
406.13	17.113
406.49	16.755
406.84	17.298
407.20	17.158
407.55	17.965
407.91	16.979
408.27	16.826
408.62	17.846
408.98	17.129
409.34	17.658
409.69	16.667
410.05	17.057
410.40	16.358
410.76	17.250
411.11	17.875
411.47	17.094
411.83	14.878
412.18	17.246
412.54	16.854
412.89	16.626
413.25	17.449
413.60	15.901
413.96	17.423
414.31	18.537
414.67	16.100
415.03	16.711
415.38	17.232
415.74	17.785
416.09	18.093
416.45	17.151
416.80	18.044
417.16	17.887
417.51	18.254
417.87	17.405
418.22	17.293
418.58	17.258
418.93	17.492
419.29	15.685
419.64	17.110
420.00	18.703
420.35	17.791
420.71	17.436
421.06	17.864
421.42	17.608
421.77	17.688
422.12	17.764
422.48	17.163
422.83	16.531
423.19	17.043
423.54	17.989
423.90	17.197
424.25	17.853
424.61	17.931
424.96	17.538
425.31	18.371
425.67	17.547
426.02	17.786
426.38	18.410
426.73	17.978
427.09	18.924
427.44	17.824
427.79	16.853
428.15	18.265
428.50	17.807
428.85	17.138
429.21	18.506
429.56	18.005
429.92	17.874
430.27	17.794
430.62	17.721
430.98	18.259
431.33	18.086
431.68	16.954
432.04	18.167
432.39	17.570
432.74	18.340
433.10	18.218
433.45	17.981
433.80	18.166
434.16	17.230
434.51	18.763
434.86	17.944
435.22	18.452
435.57	18.590
435.92	17.126
436.28	18.068
436.63	17.741
436.98	17.497
437.34	18.693
437.69	19.261
438.04	18.462
438.39	17.715
438.75	18.276
439.10	18.053
439.45	18.198
439.81	18.349
440.16	18.112
440.51	18.388
440.86	18.973
441.22	18.439
441.57	18.377
441.92	18.993
442.27	18.348
442.63	18.201
442.98	18.840
443.33	18.531
443.68	18.408
444.03	18.877
444.39	18.692
444.74	19.008
445.09	17.650
445.44	18.689
445.79	18.876
446.15	17.952
446.50	17.748
446.85	18.597
447.20	19.187
447.55	19.643
447.91	18.556
448.26	19.351
448.61	18.883
448.96	18.531
449.31	18.960
449.66	18.525
450.02	19.053
450.37	18.257
450.72	18.614
451.07	19.177
451.42	19.788
451.77	19.228
452.12	18.600
452.47	18.094
452.83	19.140
453.18	19.228
453.53	19.722
453.88	19.065
454.23	19.361
454.58	19.395
454.93	19.588
455.28	18.921
455.63	19.591
455.98	19.242
456.34	19.604
456.69	18.933
457.04	19.975
457.39	18.712
457.74	19.166
458.09	18.481
458.44	18.783
458.79	18.431
459.14	18.993
459.49	20.776
459.84	18.725
460.19	19.903
460.54	19.621
460.89	18.580
461.24	19.255
461.59	19.774
461.94	19.057
462.29	19.361
462.64	20.465
462.99	19.025
463.34	18.289
463.69	18.790
464.04	20.218
464.39	20.255
464.74	18.834
465.09	20.025
465.44	20.138
465.79	19.444
466.14	19.840
466.49	19.034
466.84	20.048
467.19	19.712
467.54	19.285
467.89	19.141
468.24	19.100
468.59	19.492
468.94	19.492
469.29	20.459
469.64	19.139
469.99	20.392
470.34	18.362
470.68	20.582
471.03	20.807
471.38	19.187
471.73	19.328
472.08	19.810
472.43	19.463
472.78	19.397
473.13	21.361
473.48	19.283
473.83	19.925
474.17	19.365
474.52	19.528
474.87	20.061
475.22	19.280
475.57	18.916
475.92	19.912
476.27	20.140
476.61	20.544
476.96	19.967
477.31	20.119
477.66	20.899
478.01	19.427
478.36	20.153
478.70	20.663
479.05	20.659
479.40	19.502
479.75	19.447
480.10	20.328
480.45	19.950
480.79	20.947
481.14	20.184
481.49	19.754
481.84	20.560
482.19	19.551
482.53	20.288
482.88	19.475
483.23	19.866
483.58	20.425
483.92	20.184
484.27	19.827
484.62	19.588
484.97	19.527
485.31	19.436
485.66	19.049
486.01	18.798
486.36	18.812
486.70	18.919
487.05	19.187
487.40	19.416
487.75	19.746
488.09	19.283
488.44	19.223
488.79	20.209
489.13	21.074
489.48	20.222
489.83	20.135
490.17	19.910
490.52	21.247
490.87	19.621
491.22	20.057
491.56	20.304
491.91	20.172
492.26	20.272
492.60	20.298
492.95	20.856
493.30	19.736
493.64	20.776
493.99	20.145
494.34	20.777
494.68	20.524
495.03	20.097
495.37	20.363
495.72	20.747
496.07	20.683
496.41	20.660
496.76	20.682
497.11	19.888
497.45	21.193
497.80	21.191
498.14	20.864
498.49	20.569
498.84	21.756
499.18	20.231
499.53	21.429
499.87	20.136
500.22	20.920
500.56	20.625
500.91	20.030
501.26	19.970
501.60	21.053
501.95	20.864
502.29	20.630
502.64	21.332
502.98	20.868
503.33	20.029
503.67	20.530
504.02	21.065
504.36	21.376
504.71	20.960
505.06	20.886
505.40	20.609
505.75	20.619
506.09	20.020
506.44	21.099
506.78	21.735
507.13	20.683
507.47	20.888
507.82	21.047
508.16	21.289
508.51	20.881
508.85	20.984
509.19	20.703
509.54	20.858
509.88	20.658
510.23	21.194
510.57	21.700
510.92	20.416
511.26	21.549
511.61	21.012
511.95	22.192
512.30	21.397
512.64	21.480
512.98	21.617
513.33	21.824
513.67	21.319
514.02	22.426
514.36	22.343
514.70	22.844
515.05	22.679
515.39	22.373
515.74	22.635
516.08	21.757
516.42	22.144
516.77	22.177
517.11	22.136
517.46	22.442
517.80	22.646
518.14	22.168
518.49	21.875
518.83	22.114
519.17	21.346
519.52	21.314
519.86	22.389
520.20	22.600
520.55	22.264
520.89	22.961
521.23	22.673
521.58	23.155
521.92	22.564
522.26	22.772
522.61	22.208
522.95	23.775
523.29	22.872
523.64	22.745
523.98	23.202
524.32	21.972
524.66	23.431
525.01	22.857
525.35	23.979
525.69	22.020
526.04	22.090
526.38	23.281
526.72	23.152
527.06	22.957
527.41	22.955
527.75	23.056
528.09	22.525
528.43	23.498
528.78	23.828
529.12	22.774
529.46	21.702
529.80	22.926
530.15	24.224
530.49	23.771
530.83	22.777
531.17	22.565
531.51	23.256
531.86	21.754
532.20	23.591
532.54	22.873
532.88	23.682
533.22	22.245
533.57	22.805
533.91	22.846
534.25	23.568
534.59	22.707
534.93	21.901
535.27	21.637
535.62	23.266
535.96	23.679
536.30	23.285
536.64	23.983
536.98	22.997
537.32	24.680
537.66	24.194
538.01	22.727
538.35	22.746
538.69	23.435
539.03	22.830
539.37	23.217
539.71	23.586
540.05	22.403
540.39	22.645
540.73	22.664
541.07	23.273
541.42	23.253
541.76	23.125
542.10	23.193
542.44	22.307
542.78	22.230
543.12	22.253
543.46	23.922
543.80	22.762
544.14	22.163
544.48	23.384
544.82	22.967
545.16	23.702
545.50	23.565
545.84	24.363
546.18	23.901
546.52	23.216
546.86	23.149
547.20	23.319
547.54	22.615
547.88	23.573
548.22	22.880
548.56	22.164
548.90	24.057
549.24	22.727
549.58	22.638
549.92	22.802
550.26	23.736
550.60	23.346
550.94	23.824
551.28	23.648
551.62	24.077
551.96	23.083
552.30	23.757
552.64	22.567
552.98	24.051
553.32	23.680
553.66	23.585
554.00	23.504
554.34	24.003
554.68	23.820
555.02	24.479
555.36	23.111
555.69	23.004
556.03	22.841
556.37	23.488
556.71	23.394
557.05	23.863
557.39	22.528
557.73	24.438
558.07	24.133
558.41	24.655
558.75	23.227
559.08	24.192
559.42	24.286
559.76	23.859
560.10	23.165
560.44	23.529
560.78	23.636
561.12	24.542
561.45	24.385
561.79	24.020
562.13	23.847
562.47	23.669
562.81	24.135
563.15	24.330
563.48	23.975
563.82	24.640
564.16	24.164
564.50	23.649
564.84	23.762
565.17	23.206
565.51	23.429
565.85	23.800
566.19	23.541
566.52	23.324
566.86	24.357
567.20	22.976
567.54	23.662
567.88	23.140
568.21	23.982
568.55	22.283
568.89	23.203
569.23	22.436
569.56	21.848
569.90	22.452
570.24	21.920
570.57	22.000
570.91	22.342
571.25	21.506
571.59	22.111
571.92	21.452
572.26	21.286
572.60	21.550
572.93	21.776
573.27	20.564
573.61	21.778
573.95	21.436
574.28	20.895
574.62	20.849
574.96	21.242
575.29	20.192
575.63	20.575
575.97	20.548
576.30	20.973
576.64	20.636
576.98	21.441
577.31	20.742
577.65	21.009
577.98	21.133
578.32	20.834
578.66	20.825
578.99	20.847
579.33	20.560
579.67	20.994
580.00	20.861
580.34	21.294
580.67	20.129
581.01	20.509
581.35	21.016
581.68	20.646
582.02	20.609
582.35	20.353
582.69	20.510
583.02	20.487
583.36	21.079
583.70	21.443
584.03	21.907
584.37	22.050
584.70	21.456
585.04	20.415
585.37	20.983
585.71	21.032
586.04	21.357
586.38	20.752
586.72	21.463
587.05	21.693
587.39	21.303
587.72	21.296
588.06	21.782
588.39	21.390
588.73	21.520
589.06	21.918
589.40	21.362
589.73	22.088
590.07	21.979
590.40	22.330
590.73	22.776
591.07	21.968
591.40	22.084
591.74	22.127
592.07	23.145
592.41	22.350
592.74	21.943
593.08	21.306
593.41	21.483
593.75	21.786
594.08	21.284
594.41	21.798
594.75	21.794
595.08	21.983
595.42	21.568
595.75	21.517
596.09	21.814
596.42	21.827
596.75	23.046
597.09	22.187
597.42	22.448
597.75	22.950
598.09	22.182
598.42	22.292
598.76	22.608
599.09	21.755
599.42	21.675
599.76	21.708
600.09	21.946
600.42	21.190
600.76	21.285
601.09	21.794
601.42	21.034
601.76	22.072
602.09	22.195
602.42	22.578
602.76	21.859
603.09	22.508
603.42	22.492
603.76	21.976
604.09	21.142
604.42	22.377
604.76	22.786
605.09	22.486
605.42	22.212
605.75	22.504
606.09	21.699
606.42	21.685
606.75	22.165
607.09	22.725
607.42	22.153
607.75	21.670
608.08	21.743
608.42	22.522
608.75	23.325
609.08	23.069
609.41	22.893
609.75	22.984
610.08	22.916
610.41	22.222
610.74	22.574
611.07	22.946
611.41	21.847
611.74	23.294
612.07	22.270
612.40	23.359
612.73	23.503
613.07	23.060
613.40	23.140
613.73	22.664
614.06	22.927
614.39	23.858
614.72	22.913
615.06	23.184
615.39	22.052
615.72	22.766
616.05	22.011
616.38	21.994
616.71	22.997
617.05	24.027
617.38	23.947
617.71	23.585
618.04	24.317
618.37	24.023
618.70	23.366
619.03	25.139
619.36	23.951
619.69	25.095
620.03	25.493
620.36	24.678
620.69	24.911
621.02	24.312
621.35	24.481
621.68	24.660
622.01	24.833
622.34	25.140
622.67	25.789
623.00	24.579
623.33	25.229
623.66	24.458
623.99	24.584
624.32	24.335
624.65	24.511
624.99	24.530
625.32	23.578
625.65	26.316
625.98	25.463
626.31	23.525
626.64	26.950
626.97	25.044
627.30	24.781
627.63	26.603
627.96	25.517
628.29	25.254
628.62	26.647
628.95	26.253
629.28	26.512
629.61	25.723
629.94	26.002
630.26	26.087
630.59	26.847
630.92	27.590
631.25	25.641
631.58	26.101
631.91	25.658
632.24	26.950
632.57	28.295
632.90	26.809
633.23	27.412
633.56	27.582
633.89	28.113
634.22	29.383
634.55	27.065
634.88	28.097
635.20	27.949
635.53	29.333
635.86	27.698
636.19	28.461
636.52	27.041
636.85	27.667
637.18	27.170
637.51	26.792
