SpectraSuite Data File
++++++++++++++++++++++++++++++++++++
Date: Fri May 15 17:20:02 PDT 2015
User: schluterlab
Dark Spectrum Present: Yes
Reference Spectrum Present: Yes
Number of Sampled Component Spectra: 1
Spectrometers: USB2E3373
Integration Time (usec): 3000 (USB2E3373)
Spectra Averaged: 3 (USB2E3373)
Boxcar Smoothing: 0 (USB2E3373)
Correct for Electrical Dark: No (USB2E3373)
Strobe/Lamp Enabled: No (USB2E3373)
Correct for Detector Non-linearity: No (USB2E3373)
Correct for Stray Light: No (USB2E3373)
Number of Pixels in Processed Spectrum: 2048
>>>>>Begin Processed Spectral Data<<<<<
178.53	0.000
178.91	0.000
179.29	112.500
179.67	150.000
180.04	-0.000
180.42	250.000
180.80	200.000
181.18	-33.333
181.56	-150.000
181.94	450.000
182.31	200.000
182.69	-40.000
183.07	0.000
183.45	100.000
183.83	16.667
184.20	136.364
184.58	77.778
184.96	-325.000
185.34	-33.333
185.72	-50.000
186.09	15.385
186.47	-400.000
186.85	-33.333
187.23	-55.556
187.61	-1500.000
187.98	100.000
188.36	44.444
188.74	-100.000
189.12	94.118
189.49	77.778
189.87	0.000
190.25	71.429
190.63	500.000
191.00	-66.667
191.38	42.105
191.76	750.000
192.14	-175.000
192.51	250.000
192.89	0.000
193.27	-14.286
193.65	116.667
194.02	-36.364
194.40	150.000
194.78	37.500
195.15	41.667
195.53	25.000
195.91	200.000
196.29	0.000
196.66	30.769
197.04	142.857
197.42	88.889
197.79	-166.667
198.17	-23.077
198.55	1500.000
198.92	-233.333
199.30	-100.000
199.68	-80.000
200.05	133.333
200.43	0.000
200.81	-66.667
201.18	100.000
201.56	600.000
201.94	300.000
202.31	-266.667
202.69	-40.000
203.07	-25.000
203.44	1100.000
203.82	0.000
204.19	28.571
204.57	-33.333
204.95	-0.000
205.32	60.000
205.70	128.571
206.08	100.000
206.45	388.889
206.83	92.857
207.20	-100.000
207.58	-1300.000
207.96	66.667
208.33	60.000
208.71	-50.000
209.08	0.000
209.46	700.000
209.84	60.000
210.21	-800.000
210.59	157.143
210.96	200.000
211.34	125.000
211.71	80.000
212.09	-42.857
212.46	0.000
212.84	0.000
213.22	140.000
213.59	600.000
213.97	107.692
214.34	109.091
214.72	100.000
215.09	225.000
215.47	69.231
215.84	27.273
216.22	166.667
216.59	125.000
216.97	450.000
217.34	100.000
217.72	0.000
218.09	0.000
218.47	-12.500
218.84	100.000
219.22	88.889
219.59	60.000
219.97	233.333
220.34	125.000
220.72	-28.571
221.09	125.000
221.47	350.000
221.84	-250.000
222.22	-200.000
222.59	0.000
222.97	75.000
223.34	33.333
223.72	50.000
224.09	47.619
224.46	53.571
224.84	133.333
225.21	-60.000
225.59	126.667
225.96	200.000
226.34	50.000
226.71	28.571
227.08	83.333
227.46	12.500
227.83	-250.000
228.21	166.667
228.58	145.455
228.95	12.500
229.33	10.000
229.70	37.500
230.08	25.000
230.45	-85.714
230.82	157.143
231.20	20.000
231.57	50.000
231.95	71.429
232.32	110.000
232.69	71.429
233.07	166.667
233.44	40.000
233.81	40.000
234.19	77.778
234.56	41.176
234.93	-350.000
235.31	350.000
235.68	0.000
236.05	53.846
236.43	30.000
236.80	88.235
237.17	46.875
237.55	55.000
237.92	37.037
238.29	36.111
238.67	70.000
239.04	32.353
239.41	21.951
239.79	26.667
240.16	34.146
240.53	39.474
240.91	41.304
241.28	33.333
241.65	57.143
242.02	42.466
242.40	31.667
242.77	37.288
243.14	25.758
243.51	30.000
243.89	28.736
244.26	25.287
244.63	21.429
245.00	31.959
245.38	43.299
245.75	20.225
246.12	22.414
246.49	26.446
246.87	43.269
247.24	31.933
247.61	28.947
247.98	31.707
248.36	30.625
248.73	34.211
249.10	26.623
249.47	36.709
249.84	27.451
250.22	34.118
250.59	37.255
250.96	30.047
251.33	31.395
251.70	34.118
252.08	30.964
252.45	28.713
252.82	28.643
253.19	29.954
253.56	26.636
253.94	33.333
254.31	30.870
254.68	39.035
255.05	27.559
255.42	31.004
255.79	30.502
256.16	28.016
256.54	30.597
256.91	29.658
257.28	31.599
257.65	28.839
258.02	24.468
258.39	29.293
258.76	30.037
259.14	29.236
259.51	28.803
259.88	30.584
260.25	30.065
260.62	31.597
260.99	28.136
261.36	26.370
261.73	32.278
262.10	27.964
262.47	28.221
262.85	27.586
263.22	27.692
263.59	28.349
263.96	33.230
264.33	31.515
264.70	29.762
265.07	30.655
265.44	32.011
265.81	33.051
266.18	30.328
266.55	32.391
266.92	28.756
267.29	29.504
267.66	30.946
268.03	27.225
268.40	29.243
268.77	34.225
269.14	29.257
269.51	31.362
269.88	27.930
270.25	31.378
270.62	26.585
270.99	26.854
271.36	25.917
271.73	27.700
272.10	27.981
272.47	28.605
272.84	31.188
273.21	27.378
273.58	29.639
273.95	32.037
274.32	28.406
274.69	25.566
275.06	29.241
275.43	27.438
275.80	29.360
276.17	28.276
276.54	26.767
276.91	29.386
277.28	27.293
277.65	28.512
278.02	25.957
278.39	28.665
278.76	27.254
279.13	24.896
279.50	29.202
279.87	29.590
280.23	29.677
280.60	29.630
280.97	29.293
281.34	27.115
281.71	28.747
282.08	25.153
282.45	28.767
282.82	26.641
283.19	26.306
283.56	28.131
283.92	25.996
284.29	26.346
284.66	25.581
285.03	27.505
285.40	27.032
285.77	25.835
286.14	25.090
286.51	28.598
286.87	25.594
287.24	27.072
287.61	26.631
287.98	29.474
288.35	26.343
288.72	28.371
289.08	24.826
289.45	25.835
289.82	26.748
290.19	24.744
290.56	24.185
290.93	23.569
291.29	23.421
291.66	25.197
292.03	23.126
292.40	24.677
292.77	23.285
293.13	21.429
293.50	22.003
293.87	24.427
294.24	21.947
294.60	22.802
294.97	22.768
295.34	23.620
295.71	22.206
296.08	22.123
296.44	21.053
296.81	23.889
297.18	23.623
297.55	22.087
297.91	22.192
298.28	22.823
298.65	22.117
299.02	19.811
299.38	19.152
299.75	21.655
300.12	19.764
300.48	20.817
300.85	21.420
301.22	20.000
301.59	21.053
301.95	21.013
302.32	21.141
302.69	20.896
303.05	21.782
303.42	18.680
303.79	19.626
304.15	20.789
304.52	20.333
304.89	20.819
305.25	17.676
305.62	18.670
305.99	19.181
306.35	18.844
306.72	19.348
307.09	18.586
307.45	21.584
307.82	20.023
308.19	20.557
308.55	19.520
308.92	20.697
309.29	20.335
309.65	18.407
310.02	18.812
310.38	18.661
310.75	19.344
311.12	20.667
311.48	18.452
311.85	17.382
312.22	17.722
312.58	18.684
312.95	18.463
313.31	17.598
313.68	19.162
314.05	18.469
314.41	18.351
314.78	17.526
315.14	19.630
315.51	19.048
315.87	18.545
316.24	18.706
316.61	17.618
316.97	19.544
317.34	18.262
317.70	18.642
318.07	18.654
318.43	18.725
318.80	18.182
319.16	17.969
319.53	17.664
319.89	18.209
320.26	18.927
320.62	19.057
320.99	18.476
321.35	17.883
321.72	18.069
322.08	18.228
322.45	17.766
322.81	17.878
323.18	17.566
323.54	17.375
323.91	17.624
324.27	17.773
324.64	17.884
325.00	18.978
325.37	19.651
325.73	16.591
326.10	18.074
326.46	18.296
326.83	18.198
327.19	18.309
327.56	17.724
327.92	18.310
328.29	17.232
328.65	18.491
329.01	17.004
329.38	18.157
329.74	17.564
330.11	17.794
330.47	16.976
330.84	17.019
331.20	19.962
331.56	17.037
331.93	19.087
332.29	18.973
332.66	17.557
333.02	18.309
333.38	16.315
333.75	18.498
334.11	16.562
334.48	17.316
334.84	18.315
335.20	17.841
335.57	17.044
335.93	17.344
336.29	18.324
336.66	18.165
337.02	17.193
337.38	16.481
337.75	18.455
338.11	16.050
338.47	17.427
338.84	16.451
339.20	18.647
339.56	17.798
339.93	17.189
340.29	17.431
340.65	17.473
341.02	17.465
341.38	15.841
341.74	16.696
342.11	17.244
342.47	18.594
342.83	17.215
343.20	17.509
343.56	16.000
343.92	17.626
344.28	17.079
344.65	17.185
345.01	17.459
345.37	17.410
345.73	17.406
346.10	17.170
346.46	17.578
346.82	17.103
347.19	16.459
347.55	17.126
347.91	17.233
348.27	16.330
348.63	17.291
349.00	16.571
349.36	16.874
349.72	17.993
350.08	17.049
350.45	17.478
350.81	16.445
351.17	16.287
351.53	16.735
351.89	17.341
352.26	16.160
352.62	17.258
352.98	16.546
353.34	16.264
353.70	17.476
354.07	17.177
354.43	16.813
354.79	16.350
355.15	17.540
355.51	16.772
355.87	16.586
356.24	14.927
356.60	16.572
356.96	16.984
357.32	16.933
357.68	15.559
358.04	16.478
358.40	16.158
358.77	16.667
359.13	17.614
359.49	15.948
359.85	16.537
360.21	16.746
360.57	16.985
360.93	16.490
361.29	15.257
361.66	16.771
362.02	17.348
362.38	16.832
362.74	16.200
363.10	16.629
363.46	16.383
363.82	16.228
364.18	16.827
364.54	15.662
364.90	16.487
365.26	15.793
365.62	16.642
365.98	16.276
366.35	15.950
366.71	16.186
367.07	16.981
367.43	15.457
367.79	16.678
368.15	17.157
368.51	15.805
368.87	16.511
369.23	15.740
369.59	16.618
369.95	17.082
370.31	16.618
370.67	16.791
371.03	15.459
371.39	15.463
371.75	17.216
372.11	16.049
372.47	16.272
372.83	17.388
373.19	15.906
373.55	15.162
373.91	15.911
374.27	16.655
374.63	16.798
374.99	15.390
375.35	16.226
375.71	16.993
376.07	16.854
376.42	15.306
376.78	16.711
377.14	15.978
377.50	16.069
377.86	16.466
378.22	16.465
378.58	16.538
378.94	16.320
379.30	16.220
379.66	17.053
380.02	16.370
380.38	15.703
380.74	15.560
381.09	17.853
381.45	15.291
381.81	16.286
382.17	16.371
382.53	17.739
382.89	16.070
383.25	17.113
383.61	17.012
383.97	15.873
384.32	15.885
384.68	17.090
385.04	16.238
385.40	15.744
385.76	17.044
386.12	17.012
386.48	16.794
386.83	16.550
387.19	16.728
387.55	16.939
387.91	17.482
388.27	17.094
388.62	17.244
388.98	17.188
389.34	17.739
389.70	17.589
390.06	16.111
390.42	17.746
390.77	16.808
391.13	16.330
391.49	17.270
391.85	17.869
392.20	17.577
392.56	16.783
392.92	17.557
393.28	16.804
393.64	17.057
393.99	18.934
394.35	16.825
394.71	18.135
395.07	17.222
395.42	16.515
395.78	17.785
396.14	16.709
396.50	17.945
396.85	17.901
397.21	17.481
397.57	17.179
397.92	17.855
398.28	17.644
398.64	16.145
399.00	17.720
399.35	16.253
399.71	17.691
400.07	18.077
400.42	16.707
400.78	17.453
401.14	18.149
401.49	18.463
401.85	17.063
402.21	17.651
402.57	17.875
402.92	17.189
403.28	17.544
403.63	17.213
403.99	16.773
404.35	17.989
404.70	17.619
405.06	17.098
405.42	16.718
405.77	16.793
406.13	17.229
406.49	17.762
406.84	17.910
407.20	17.580
407.55	17.128
407.91	18.516
408.27	18.228
408.62	17.908
408.98	17.252
409.34	17.534
409.69	16.602
410.05	17.549
410.40	17.346
410.76	17.853
411.11	16.875
411.47	17.883
411.83	17.137
412.18	17.181
412.54	17.603
412.89	16.010
413.25	17.750
413.60	17.267
413.96	17.485
414.31	17.439
414.67	17.575
415.03	16.778
415.38	18.211
415.74	16.938
416.09	18.158
416.45	16.948
416.80	17.052
417.16	17.680
417.51	18.188
417.87	17.275
418.22	18.199
418.58	17.458
418.93	17.931
419.29	16.389
419.64	18.276
420.00	18.136
420.35	17.373
420.71	18.226
421.06	17.250
421.42	17.728
421.77	17.110
422.12	16.913
422.48	17.488
422.83	17.633
423.19	18.397
423.54	16.990
423.90	17.138
424.25	17.566
424.61	17.931
424.96	17.247
425.31	17.851
425.67	17.899
426.02	17.668
426.38	18.785
426.73	17.373
427.09	17.975
427.44	18.235
427.79	17.914
428.15	17.961
428.50	17.444
428.85	17.383
429.21	18.280
429.56	17.790
429.92	17.411
430.27	17.544
430.62	17.355
430.98	17.197
431.33	17.771
431.68	16.693
432.04	17.272
432.39	17.741
432.74	17.078
433.10	18.448
433.45	17.861
433.80	17.528
434.16	17.618
434.51	16.935
434.86	17.712
435.22	16.994
435.57	18.528
435.92	16.946
436.28	16.935
436.63	17.684
436.98	17.613
437.34	17.604
437.69	17.531
438.04	17.322
438.39	17.227
438.75	18.276
439.10	17.431
439.45	16.799
439.81	17.431
440.16	17.577
440.51	17.910
440.86	18.731
441.22	17.647
441.57	17.660
441.92	17.629
442.27	17.960
442.63	18.148
442.98	17.634
443.33	18.197
443.68	17.825
444.03	17.884
444.39	17.462
444.74	18.283
445.09	17.706
445.44	17.664
445.79	18.102
446.15	18.227
446.50	17.415
446.85	17.641
447.20	17.518
447.55	17.634
447.91	18.218
448.26	18.554
448.61	18.135
448.96	18.531
449.31	17.977
449.66	17.944
450.02	17.741
450.37	17.961
450.72	16.953
451.07	18.418
451.42	18.414
451.77	17.420
452.12	17.045
452.47	17.643
452.83	17.550
453.18	17.647
453.53	17.826
453.88	18.336
454.23	17.763
454.58	18.514
454.93	18.814
455.28	17.079
455.63	18.103
455.98	18.220
456.34	18.072
456.69	18.424
457.04	17.958
457.39	18.469
457.74	17.412
458.09	18.011
458.44	17.320
458.79	17.591
459.14	18.822
459.49	18.149
459.84	17.541
460.19	17.961
460.54	17.787
460.89	17.670
461.24	17.453
461.59	17.458
461.94	17.233
462.29	17.551
462.64	18.870
462.99	18.619
463.34	17.872
463.69	17.310
464.04	18.523
464.39	18.375
464.74	19.264
465.09	18.341
465.44	18.234
465.79	18.367
466.14	18.586
466.49	17.194
466.84	18.263
467.19	17.835
467.54	18.008
467.89	17.688
468.24	18.613
468.59	17.905
468.94	17.968
469.29	17.902
469.64	18.250
469.99	18.010
470.34	17.543
470.68	18.792
471.03	19.038
471.38	18.046
471.73	18.207
472.08	18.182
472.43	17.718
472.78	17.135
473.13	18.776
473.48	18.567
473.83	18.618
474.17	18.135
474.52	17.549
474.87	18.061
475.22	17.755
475.57	18.521
475.92	18.212
476.27	18.859
476.61	17.940
476.96	16.788
477.31	17.577
477.66	18.315
478.01	18.024
478.36	16.993
478.70	18.815
479.05	19.121
479.40	18.601
479.75	17.831
480.10	17.921
480.45	18.300
480.79	18.731
481.14	19.057
481.49	17.980
481.84	18.195
482.19	18.101
482.53	17.890
482.88	18.043
483.23	18.186
483.58	18.160
483.92	17.957
484.27	18.004
484.62	18.288
484.97	18.367
485.31	17.811
485.66	17.517
486.01	17.069
486.36	17.276
486.70	17.495
487.05	17.378
487.40	17.115
487.75	17.775
488.09	17.676
488.44	18.707
488.79	17.931
489.13	18.149
489.48	18.469
489.83	18.161
490.17	17.753
490.52	17.737
490.87	18.232
491.22	18.625
491.56	18.264
491.91	17.878
492.26	18.668
492.60	18.618
492.95	18.446
493.30	17.733
493.64	18.713
493.99	17.536
494.34	17.379
494.68	18.619
495.03	18.151
495.37	17.959
495.72	18.274
496.07	18.488
496.41	18.160
496.76	17.780
497.11	17.653
497.45	18.807
497.80	18.971
498.14	18.430
498.49	17.826
498.84	18.812
499.18	18.072
499.53	18.452
499.87	17.996
500.22	18.299
500.56	18.154
500.91	18.624
501.26	18.191
501.60	18.987
501.95	18.147
502.29	18.886
502.64	18.533
502.98	18.402
503.33	17.819
503.67	18.747
504.02	19.306
504.36	18.902
504.71	17.980
505.06	17.665
505.40	17.919
505.75	18.660
506.09	18.449
506.44	19.405
506.78	18.776
507.13	18.459
507.47	18.016
507.82	18.803
508.16	18.225
508.51	19.255
508.85	18.891
509.19	18.840
509.54	18.928
509.88	18.878
510.23	18.881
510.57	19.401
510.92	17.377
511.26	18.658
511.61	19.527
511.95	19.452
512.30	19.678
512.64	19.310
512.98	19.034
513.33	18.970
513.67	18.363
514.02	19.565
514.36	19.543
514.70	19.289
515.05	19.506
515.39	20.307
515.74	20.120
516.08	19.546
516.42	20.612
516.77	19.719
517.11	18.457
517.46	19.868
517.80	19.845
518.14	19.167
518.49	19.291
518.83	20.109
519.17	18.860
519.52	19.775
519.86	19.748
520.20	19.380
520.55	19.074
520.89	20.013
521.23	19.253
521.58	19.874
521.92	19.808
522.26	18.933
522.61	20.065
522.95	20.000
523.29	19.949
523.64	20.521
523.98	20.285
524.32	19.265
524.66	20.038
525.01	19.610
525.35	20.868
525.69	18.990
526.04	20.238
526.38	21.401
526.72	20.209
527.06	19.390
527.41	21.042
527.75	19.370
528.09	20.266
528.43	21.337
528.78	20.198
529.12	20.323
529.46	19.883
529.80	20.203
530.15	20.132
530.49	20.404
530.83	20.178
531.17	19.678
531.51	20.930
531.86	21.142
532.20	18.998
532.54	20.694
532.88	20.671
533.22	20.296
533.57	20.052
533.91	19.843
534.25	21.680
534.59	19.949
534.93	19.446
535.27	19.480
535.62	19.572
535.96	20.809
536.30	20.580
536.64	20.538
536.98	20.488
537.32	20.484
537.66	20.898
538.01	20.839
538.35	20.111
538.69	20.040
539.03	20.643
539.37	20.727
539.71	20.177
540.05	19.756
540.39	19.945
540.73	20.293
541.07	21.133
541.42	21.169
541.76	20.578
542.10	20.303
542.44	19.180
542.78	19.064
543.12	19.712
543.46	21.558
543.80	20.472
544.14	19.626
544.48	19.853
544.82	20.232
545.16	21.448
545.50	20.694
545.84	20.963
546.18	21.064
546.52	20.620
546.86	21.280
547.20	20.529
547.54	19.364
547.88	20.041
548.22	19.724
548.56	20.844
548.90	20.081
549.24	19.697
549.58	20.028
549.92	19.657
550.26	20.733
550.60	20.000
550.94	20.015
551.28	20.479
551.62	20.462
551.96	20.526
552.30	20.760
552.64	19.958
552.98	20.183
553.32	19.686
553.66	19.303
554.00	20.657
554.34	20.532
554.68	19.912
555.02	20.461
555.36	20.868
555.69	20.073
556.03	19.272
556.37	19.786
556.71	20.361
557.05	20.955
557.39	19.405
557.73	20.090
558.07	21.719
558.41	20.291
558.75	19.953
559.08	20.646
559.42	20.952
559.76	20.016
560.10	19.266
560.44	19.062
560.78	19.790
561.12	20.028
561.45	20.098
561.79	19.748
562.13	20.369
562.47	20.000
562.81	20.173
563.15	20.451
563.48	19.378
563.82	21.482
564.16	19.568
564.50	19.662
564.84	20.348
565.17	19.450
565.51	19.809
565.85	20.988
566.19	20.623
566.52	20.107
566.86	19.987
567.20	19.303
567.54	20.195
567.88	20.152
568.21	19.796
568.55	19.130
568.89	20.688
569.23	19.836
569.56	19.658
569.90	19.773
570.24	19.427
570.57	19.382
570.91	19.798
571.25	18.842
571.59	18.966
571.92	19.200
572.26	18.871
572.60	19.380
572.93	18.983
573.27	18.871
573.61	19.004
573.95	19.252
574.28	18.644
574.62	18.561
574.96	18.424
575.29	18.728
575.63	18.476
575.97	18.027
576.30	18.583
576.64	18.808
576.98	19.228
577.31	18.481
577.65	18.440
577.98	18.216
578.32	18.811
578.66	18.311
578.99	18.788
579.33	18.286
579.67	18.673
580.00	18.987
580.34	19.353
580.67	18.793
581.01	18.516
581.35	18.691
581.68	18.461
582.02	18.315
582.35	18.329
582.69	18.582
583.02	18.778
583.36	18.831
583.70	19.600
584.03	19.433
584.37	20.243
584.70	19.121
585.04	18.368
585.37	18.821
585.71	18.687
586.04	18.709
586.38	18.058
586.72	19.283
587.05	18.775
587.39	19.122
587.72	19.191
588.06	18.766
588.39	18.997
588.73	19.078
589.06	19.504
589.40	19.634
589.73	19.934
590.07	19.184
590.40	19.389
590.73	19.934
591.07	19.593
591.40	19.501
591.74	19.593
592.07	19.527
592.41	20.053
592.74	18.479
593.08	18.198
593.41	18.715
593.75	18.744
594.08	18.709
594.41	18.632
594.75	18.740
595.08	19.183
595.42	19.139
595.75	19.827
596.09	19.468
596.42	19.264
596.75	19.361
597.09	20.137
597.42	19.377
597.75	19.285
598.09	19.013
598.42	19.404
598.76	18.790
599.09	18.990
599.42	19.098
599.76	18.811
600.09	18.778
600.42	18.802
600.76	19.056
601.09	18.473
601.42	18.919
601.76	19.214
602.09	19.183
602.42	19.756
602.76	18.718
603.09	19.435
603.42	19.858
603.76	18.710
604.09	19.563
604.42	19.797
604.76	19.582
605.09	19.150
605.42	19.323
605.75	18.958
606.09	18.981
606.42	19.016
606.75	19.091
607.09	19.912
607.42	18.742
607.75	19.316
608.08	18.239
608.42	19.187
608.75	19.663
609.08	19.831
609.41	19.695
609.75	20.060
610.08	19.421
610.41	18.986
610.74	19.308
611.07	19.121
611.41	19.305
611.74	20.043
612.07	18.737
612.40	19.311
612.73	19.492
613.07	18.841
613.40	19.967
613.73	19.026
614.06	19.811
614.39	20.192
614.72	19.496
615.06	18.883
615.39	19.432
615.72	19.053
616.05	19.274
616.38	18.405
616.71	20.061
617.05	19.889
617.38	19.610
617.71	19.811
618.04	20.571
618.37	20.429
618.70	19.868
619.03	20.833
619.36	20.043
619.69	20.318
620.03	20.526
620.36	19.742
620.69	20.343
621.02	20.107
621.35	21.577
621.68	20.493
622.01	20.250
622.34	20.032
622.67	21.372
623.00	20.061
623.33	19.284
623.66	19.521
623.99	20.272
624.32	20.913
624.65	19.098
624.99	20.090
625.32	19.636
625.65	20.581
625.98	20.709
626.31	19.950
626.64	20.797
626.97	19.983
627.30	21.454
627.63	21.750
627.96	20.395
628.29	20.999
628.62	21.436
628.95	20.240
629.28	19.758
629.61	20.937
629.94	19.844
630.26	20.652
630.59	21.020
630.92	21.231
631.25	19.590
631.58	21.035
631.91	21.601
632.24	20.872
632.57	20.909
632.90	21.115
633.23	21.882
633.56	22.040
633.89	19.852
634.22	21.975
