SpectraSuite Data File
++++++++++++++++++++++++++++++++++++
Date: Fri May 15 17:10:59 PDT 2015
User: schluterlab
Dark Spectrum Present: Yes
Reference Spectrum Present: Yes
Number of Sampled Component Spectra: 1
Spectrometers: USB2E3373
Integration Time (usec): 3000 (USB2E3373)
Spectra Averaged: 3 (USB2E3373)
Boxcar Smoothing: 0 (USB2E3373)
Correct for Electrical Dark: No (USB2E3373)
Strobe/Lamp Enabled: No (USB2E3373)
Correct for Detector Non-linearity: No (USB2E3373)
Correct for Stray Light: No (USB2E3373)
Number of Pixels in Processed Spectrum: 2048
>>>>>Begin Processed Spectral Data<<<<<
178.53	0.000
178.91	0.000
179.29	150.000
179.67	-50.000
180.04	-200.000
180.42	100.000
180.80	1100.000
181.18	-33.333
181.56	-150.000
181.94	450.000
182.31	-300.000
182.69	40.000
183.07	-200.000
183.45	40.000
183.83	100.000
184.20	81.818
184.58	66.667
184.96	-325.000
185.34	-133.333
185.72	-150.000
186.09	-38.462
186.47	-300.000
186.85	16.667
187.23	-0.000
187.61	-700.000
187.98	-266.667
188.36	55.556
188.74	200.000
189.12	117.647
189.49	5.556
189.87	0.000
190.25	57.143
190.63	300.000
191.00	66.667
191.38	-15.789
191.76	250.000
192.14	-50.000
192.51	450.000
192.89	-44.444
193.27	114.286
193.65	-16.667
194.02	90.909
194.40	30.000
194.78	-212.500
195.15	33.333
195.53	-87.500
195.91	-125.000
196.29	-175.000
196.66	61.538
197.04	-0.000
197.42	-44.444
197.79	-333.333
198.17	-30.769
198.55	600.000
198.92	0.000
199.30	600.000
199.68	20.000
200.05	-400.000
200.43	0.000
200.81	233.333
201.18	0.000
201.56	700.000
201.94	0.000
202.31	-233.333
202.69	40.000
203.07	-50.000
203.44	400.000
203.82	0.000
204.19	28.571
204.57	-100.000
204.95	100.000
205.32	-30.000
205.70	114.286
206.08	50.000
206.45	177.778
206.83	57.143
207.20	14.286
207.58	200.000
207.96	-100.000
208.33	0.000
208.71	75.000
209.08	16.667
209.46	200.000
209.84	-80.000
210.21	-200.000
210.59	142.857
210.96	0.000
211.34	125.000
211.71	53.333
212.09	28.571
212.46	-400.000
212.84	0.000
213.22	150.000
213.59	-100.000
213.97	53.846
214.34	9.091
214.72	100.000
215.09	225.000
215.47	-7.692
215.84	9.091
216.22	300.000
216.59	62.500
216.97	100.000
217.34	75.000
217.72	-40.000
218.09	37.500
218.47	-50.000
218.84	-800.000
219.22	55.556
219.59	-60.000
219.97	133.333
220.34	-100.000
220.72	42.857
221.09	125.000
221.47	-300.000
221.84	-350.000
222.22	-450.000
222.59	90.909
222.97	166.667
223.34	66.667
223.72	0.000
224.09	33.333
224.46	21.429
224.84	133.333
225.21	150.000
225.59	46.667
225.96	650.000
226.34	50.000
226.71	42.857
227.08	83.333
227.46	200.000
227.83	200.000
228.21	66.667
228.58	27.273
228.95	37.500
229.33	-0.000
229.70	56.250
230.08	-112.500
230.45	-85.714
230.82	71.429
231.20	-46.667
231.57	92.857
231.95	114.286
232.32	-40.000
232.69	21.429
233.07	133.333
233.44	40.000
233.81	10.000
234.19	55.556
234.56	29.412
234.93	-0.000
235.31	175.000
235.68	-40.000
236.05	84.615
236.43	85.000
236.80	70.588
237.17	34.375
237.55	35.000
237.92	29.630
238.29	25.000
238.67	56.667
239.04	32.353
239.41	7.317
239.79	33.333
240.16	34.146
240.53	52.632
240.91	39.130
241.28	44.444
241.65	55.357
242.02	52.055
242.40	51.667
242.77	37.288
243.14	39.394
243.51	32.500
243.89	60.920
244.26	37.931
244.63	47.619
245.00	38.144
245.38	45.361
245.75	44.944
246.12	36.207
246.49	42.149
246.87	49.038
247.24	41.176
247.61	34.211
247.98	48.780
248.36	43.125
248.73	48.026
249.10	42.208
249.47	44.937
249.84	37.255
250.22	44.118
250.59	42.484
250.96	38.028
251.33	41.860
251.70	46.471
252.08	37.056
252.45	43.564
252.82	46.734
253.19	40.092
253.56	39.720
253.94	39.189
254.31	45.217
254.68	45.175
255.05	42.913
255.42	46.288
255.79	38.224
256.16	38.132
256.54	36.940
256.91	43.726
257.28	41.264
257.65	36.704
258.02	45.390
258.39	44.444
258.76	42.857
259.14	44.186
259.51	41.424
259.88	45.361
260.25	41.176
260.62	46.181
260.99	36.949
261.36	41.781
261.73	44.937
262.10	41.945
262.47	42.025
262.85	35.737
263.22	39.692
263.59	45.171
263.96	42.857
264.33	45.455
264.70	43.155
265.07	41.667
265.44	43.909
265.81	39.266
266.18	42.077
266.55	39.846
266.92	40.415
267.29	42.820
267.66	42.455
268.03	40.052
268.40	41.253
268.77	43.316
269.14	39.329
269.51	43.188
269.88	41.147
270.25	40.051
270.62	39.756
270.99	44.246
271.36	37.897
271.73	39.906
272.10	40.876
272.47	41.608
272.84	39.851
273.21	40.371
273.58	40.482
273.95	39.817
274.32	39.030
274.69	40.271
275.06	42.411
275.43	38.095
275.80	42.605
276.17	40.000
276.54	38.758
276.91	38.377
277.28	39.083
277.65	38.017
278.02	38.723
278.39	38.950
278.76	38.994
279.13	38.589
279.50	39.916
279.87	39.309
280.23	37.204
280.60	37.037
280.97	39.192
281.34	36.154
281.71	41.889
282.08	35.992
282.45	38.552
282.82	36.486
283.19	35.977
283.56	38.150
283.92	40.038
284.29	35.962
284.66	38.178
285.03	37.525
285.40	36.295
285.77	36.380
286.14	35.018
286.51	39.299
286.87	37.843
287.24	37.753
287.61	34.039
287.98	36.316
288.35	35.875
288.72	36.427
289.08	34.201
289.45	34.446
289.82	33.566
290.19	34.300
290.56	33.619
290.93	34.175
291.29	29.738
291.66	34.016
292.03	31.579
292.40	34.032
292.77	30.144
293.13	30.519
293.50	30.804
293.87	32.061
294.24	30.139
294.60	30.551
294.97	29.315
295.34	31.135
295.71	28.316
296.08	30.194
296.44	27.596
296.81	28.194
297.18	28.406
297.55	29.268
297.91	29.041
298.28	28.760
298.65	27.680
299.02	28.167
299.38	26.539
299.75	27.586
300.12	26.440
300.48	27.536
300.85	26.743
301.22	26.623
301.59	27.368
301.95	26.076
302.32	28.275
302.69	26.368
303.05	27.104
303.42	25.778
303.79	25.935
304.15	27.360
304.52	24.376
304.89	26.316
305.25	26.513
305.62	25.788
305.99	24.912
306.35	24.740
306.72	25.197
307.09	26.454
307.45	26.521
307.82	24.074
308.19	24.390
308.55	25.409
308.92	25.381
309.29	25.363
309.65	24.650
310.02	25.303
310.38	24.479
310.75	26.011
311.12	24.112
311.48	24.602
311.85	26.283
312.22	24.262
312.58	24.841
312.95	23.159
313.31	24.638
313.68	24.607
314.05	23.265
314.41	24.742
314.78	24.021
315.14	25.077
315.51	24.741
315.87	23.566
316.24	25.076
316.61	23.622
316.97	25.000
317.34	22.070
317.70	23.327
318.07	24.038
318.43	24.412
318.80	23.864
319.16	24.121
319.53	23.647
319.89	25.197
320.26	23.178
320.62	24.072
320.99	21.921
321.35	24.358
321.72	23.261
322.08	24.572
322.45	23.452
322.81	23.674
323.18	22.669
323.54	22.490
323.91	22.006
324.27	23.633
324.64	23.408
325.00	23.266
325.37	25.069
325.73	24.025
326.10	23.342
326.46	22.870
326.83	23.272
327.19	22.493
327.56	24.066
327.92	23.063
328.29	22.946
328.65	23.019
329.01	23.346
329.38	23.779
329.74	22.757
330.11	23.726
330.47	23.284
330.84	22.885
331.20	23.954
331.56	22.870
331.93	24.201
332.29	23.098
332.66	24.525
333.02	21.933
333.38	21.448
333.75	24.451
334.11	22.650
334.48	22.847
334.84	24.359
335.20	22.415
335.57	22.484
335.93	24.571
336.29	22.376
336.66	21.526
337.02	22.862
337.38	21.852
337.75	22.636
338.11	22.002
338.47	22.719
338.84	23.567
339.20	22.029
339.56	23.578
339.93	23.277
340.29	23.945
340.65	23.029
341.02	22.252
341.38	22.743
341.74	21.025
342.11	21.231
342.47	21.263
342.83	22.837
343.20	22.038
343.56	21.826
343.92	22.675
344.28	23.484
344.65	22.021
345.01	21.608
345.37	22.372
345.73	21.925
346.10	21.829
346.46	22.792
346.82	22.668
347.19	20.698
347.55	22.556
347.91	22.816
348.27	21.584
348.63	21.550
349.00	20.673
349.36	20.781
349.72	22.886
350.08	22.459
350.45	21.628
350.81	20.183
351.17	22.068
351.53	22.204
351.89	20.892
352.26	21.040
352.62	21.210
352.98	21.606
353.34	21.014
353.70	21.117
354.07	21.694
354.43	21.217
354.79	20.727
355.15	21.984
355.51	20.649
355.87	22.492
356.24	20.473
356.60	20.453
356.96	21.667
357.32	21.486
357.68	19.781
358.04	20.436
358.40	21.061
358.77	21.930
359.13	20.256
359.49	21.263
359.85	20.203
360.21	19.936
360.57	20.735
360.93	21.331
361.29	19.789
361.66	20.611
362.02	22.197
362.38	21.630
362.74	21.272
363.10	20.617
363.46	20.089
363.82	21.863
364.18	20.812
364.54	19.926
364.90	20.502
365.26	20.815
365.62	21.606
365.98	21.334
366.35	20.466
366.71	20.990
367.07	20.247
367.43	19.770
367.79	20.636
368.15	20.818
368.51	19.956
368.87	20.316
369.23	20.361
369.59	19.679
369.95	21.114
370.31	20.665
370.67	20.746
371.03	20.388
371.39	19.767
371.75	20.000
372.11	20.257
372.47	19.970
372.83	20.369
373.19	20.899
373.55	19.856
373.91	21.166
374.27	20.482
374.63	21.967
374.99	20.213
375.35	20.056
375.71	20.000
376.07	20.154
376.42	19.932
376.78	20.805
377.14	19.364
377.50	20.120
377.86	20.013
378.22	19.783
378.58	20.705
378.94	19.975
379.30	21.210
379.66	21.191
380.02	19.988
380.38	19.720
380.74	19.569
381.09	19.877
381.45	20.061
381.81	20.296
382.17	20.495
382.53	19.550
382.89	20.025
383.25	20.473
383.61	21.707
383.97	19.683
384.32	19.825
384.68	20.557
385.04	19.547
385.40	19.353
385.76	21.887
386.12	20.569
386.48	20.690
386.83	19.848
387.19	20.574
387.55	21.016
387.91	20.599
388.27	20.635
388.62	21.712
388.98	20.258
389.34	21.299
389.70	20.758
390.06	20.390
390.42	19.689
390.77	20.863
391.13	19.357
391.49	20.310
391.85	19.948
392.20	20.339
392.56	21.043
392.92	21.903
393.28	20.873
393.64	20.180
393.99	21.066
394.35	20.620
394.71	19.668
395.07	20.302
395.42	19.854
395.78	20.717
396.14	20.744
396.50	21.370
396.85	20.670
397.21	20.363
397.57	20.752
397.92	20.611
398.28	21.092
398.64	19.639
399.00	21.727
399.35	19.526
399.71	19.816
400.07	19.952
400.42	19.584
400.78	20.576
401.14	20.387
401.49	21.203
401.85	20.475
402.21	20.482
402.57	20.688
402.92	20.013
403.28	20.927
403.63	20.933
403.99	20.026
404.35	20.987
404.70	20.298
405.06	20.329
405.42	21.193
405.77	19.640
406.13	20.023
406.49	21.078
406.84	20.660
407.20	21.192
407.55	19.768
407.91	20.722
408.27	20.395
408.62	21.231
408.98	19.778
409.34	21.375
409.69	20.607
410.05	20.382
410.40	20.988
410.76	21.110
411.11	20.312
411.47	20.907
411.83	20.841
412.18	20.592
412.54	20.911
412.89	19.458
413.25	20.999
413.60	20.124
413.96	19.877
414.31	20.915
414.67	20.654
415.03	20.772
415.38	19.517
415.74	21.173
416.09	20.771
416.45	20.999
416.80	19.828
417.16	20.442
417.51	21.252
417.87	20.600
418.22	20.013
418.58	19.599
418.93	20.878
419.29	19.910
419.64	19.831
420.00	21.725
420.35	21.134
420.71	20.960
421.06	20.074
421.42	20.192
421.77	20.636
422.12	20.488
422.48	20.845
422.83	19.954
423.19	20.203
423.54	20.282
423.90	20.141
424.25	20.494
424.61	21.175
424.96	20.616
425.31	21.664
425.67	20.716
426.02	20.848
426.38	21.290
426.73	21.126
427.09	21.392
427.44	21.294
427.79	21.096
428.15	21.177
428.50	20.896
428.85	20.086
429.21	21.166
429.56	21.024
429.92	21.109
430.27	21.103
430.62	20.387
430.98	19.904
431.33	20.978
431.68	20.722
432.04	21.185
432.39	20.422
432.74	19.964
433.10	21.092
433.45	20.848
433.80	21.126
434.16	20.554
434.51	21.237
434.86	20.383
435.22	21.200
435.57	22.021
435.92	21.317
436.28	20.692
436.63	21.164
436.98	21.031
437.34	21.295
437.69	21.407
438.04	20.741
438.39	21.258
438.75	20.826
439.10	20.487
439.45	21.120
439.81	21.713
440.16	21.675
440.51	22.090
440.86	21.631
441.22	21.097
441.57	21.302
441.92	21.878
442.27	21.397
442.63	22.216
442.98	22.056
443.33	20.868
443.68	21.592
444.03	21.510
444.39	21.643
444.74	22.742
445.09	21.381
445.44	21.937
445.79	21.970
446.15	21.035
446.50	20.743
446.85	21.573
447.20	21.168
447.55	21.708
447.91	21.997
448.26	22.425
448.61	22.913
448.96	22.031
449.31	21.214
449.66	21.138
450.02	22.019
450.37	21.636
450.72	21.363
451.07	21.962
451.42	21.473
451.77	22.001
452.12	20.754
452.47	21.442
452.83	20.848
453.18	22.138
453.53	21.681
453.88	21.797
454.23	21.696
454.58	21.725
454.93	22.294
455.28	20.635
455.63	21.451
455.98	21.648
456.34	22.478
456.69	22.490
457.04	22.180
457.39	21.689
457.74	22.189
458.09	21.778
458.44	22.235
458.79	21.120
459.14	21.625
459.49	22.985
459.84	21.884
460.19	22.330
460.54	22.494
460.89	21.932
461.24	21.677
461.59	22.328
461.94	20.943
462.29	22.437
462.64	22.259
462.99	22.478
463.34	21.071
463.69	22.008
464.04	22.760
464.39	21.589
464.74	22.025
465.09	22.957
465.44	22.504
465.79	21.429
466.14	21.608
466.49	21.449
466.84	22.130
467.19	22.028
467.54	22.989
467.89	22.552
468.24	21.837
468.59	22.984
468.94	21.841
469.29	22.820
469.64	22.625
469.99	22.915
470.34	20.956
470.68	24.087
471.03	23.638
471.38	21.469
471.73	22.549
472.08	22.456
472.43	21.678
472.78	23.029
473.13	21.905
473.48	22.541
473.83	22.540
474.17	22.215
474.52	22.399
474.87	22.848
475.22	22.514
475.57	22.417
475.92	23.807
476.27	23.341
476.61	22.569
476.96	21.807
477.31	23.472
477.66	22.753
478.01	22.740
478.36	21.895
478.70	22.675
479.05	23.132
479.40	22.523
479.75	22.680
480.10	22.427
480.45	23.000
480.79	23.212
481.14	23.463
481.49	22.512
481.84	22.635
482.19	21.422
482.53	23.118
482.88	23.150
483.23	22.217
483.58	21.745
483.92	22.604
484.27	22.562
484.62	22.008
484.97	23.051
485.31	21.712
485.66	22.058
486.01	21.941
486.36	21.849
486.70	21.694
487.05	21.309
487.40	21.587
487.75	21.887
488.09	21.014
488.44	21.733
488.79	22.002
489.13	22.796
489.48	22.189
489.83	21.883
490.17	22.607
490.52	22.217
490.87	23.230
491.22	21.777
491.56	22.438
491.91	21.558
492.26	23.286
492.60	23.081
492.95	23.660
493.30	21.935
493.64	22.790
493.99	22.995
494.34	21.893
494.68	22.476
495.03	22.384
495.37	23.013
495.72	23.574
496.07	22.537
496.41	22.736
496.76	23.031
497.11	22.543
497.45	23.246
497.80	22.755
498.14	23.000
498.49	22.651
498.84	22.904
499.18	22.490
499.53	22.718
499.87	22.519
500.22	22.404
500.56	23.046
500.91	22.289
501.26	22.739
501.60	22.774
501.95	23.387
502.29	22.906
502.64	22.442
502.98	22.595
503.33	21.854
503.67	21.590
504.02	22.630
504.36	22.563
504.71	22.626
505.06	22.446
505.40	23.249
505.75	23.351
506.09	23.061
506.44	24.179
506.78	22.347
507.13	22.389
507.47	21.932
507.82	22.543
508.16	22.557
508.51	23.190
508.85	23.286
509.19	22.885
509.54	22.895
509.88	22.276
510.23	23.238
510.57	23.303
510.92	21.588
511.26	22.586
511.61	22.937
511.95	22.521
512.30	23.060
512.64	23.205
512.98	22.628
513.33	23.615
513.67	22.342
514.02	22.941
514.36	24.400
514.70	24.709
515.05	23.972
515.39	23.259
515.74	23.892
516.08	22.953
516.42	24.617
516.77	23.288
517.11	23.323
517.46	23.519
517.80	23.778
518.14	22.413
518.49	22.957
518.83	23.815
519.17	23.166
519.52	23.683
519.86	22.749
520.20	23.026
520.55	23.390
520.89	25.157
521.23	23.876
521.58	23.218
521.92	22.756
522.26	24.789
522.61	23.571
522.95	23.841
523.29	23.571
523.64	23.825
523.98	23.785
524.32	22.745
524.66	24.008
525.01	24.545
525.35	24.951
525.69	22.761
526.04	23.810
526.38	24.773
526.72	22.629
527.06	22.503
527.41	23.417
527.75	23.861
528.09	23.322
528.43	23.633
528.78	23.696
529.12	23.226
529.46	23.067
529.80	23.876
530.15	23.630
530.49	22.424
530.83	24.282
531.17	23.103
531.51	23.940
531.86	23.453
532.20	23.382
532.54	23.622
532.88	23.614
533.22	23.387
533.57	23.657
533.91	22.977
534.25	23.372
534.59	23.605
534.93	22.970
535.27	23.033
535.62	22.294
535.96	24.918
536.30	23.945
536.64	24.742
536.98	23.345
537.32	24.680
537.66	24.194
538.01	23.077
538.35	23.024
538.69	24.101
539.03	22.967
539.37	24.495
539.71	23.790
540.05	23.625
540.39	25.000
540.73	23.640
541.07	25.207
541.42	24.395
541.76	24.501
542.10	24.019
542.44	24.044
542.78	24.019
543.12	23.283
543.46	24.548
543.80	23.942
544.14	23.431
544.48	23.718
544.82	24.197
545.16	23.702
545.50	23.698
545.84	23.017
546.18	24.113
546.52	23.576
546.86	23.436
547.20	23.319
547.54	23.463
547.88	24.321
548.22	23.274
548.56	23.483
548.90	24.057
549.24	23.554
549.58	23.343
549.92	23.088
550.26	23.663
550.60	23.941
550.94	23.973
551.28	23.493
551.62	23.769
551.96	24.511
552.30	23.684
552.64	22.708
552.98	23.840
553.32	23.823
553.66	23.657
554.00	23.869
554.34	24.003
554.68	23.746
555.02	23.289
555.36	23.934
555.69	23.297
556.03	23.697
556.37	23.274
556.71	23.971
557.05	24.087
557.39	23.569
557.73	23.613
558.07	24.510
558.41	24.273
558.75	24.396
559.08	24.429
559.42	25.159
559.76	24.500
560.10	24.083
560.44	23.380
560.78	24.196
561.12	23.766
561.45	24.455
561.79	24.300
562.13	24.344
562.47	24.173
562.81	23.847
563.15	23.413
563.48	23.479
563.82	23.473
564.16	23.747
564.50	23.446
564.84	23.896
565.17	23.608
565.51	24.522
565.85	24.348
566.19	23.806
566.52	23.861
566.86	24.165
567.20	23.288
567.54	24.088
567.88	23.609
568.21	24.265
568.55	22.989
568.89	23.460
569.23	23.784
569.56	23.730
569.90	22.737
570.24	23.148
570.57	23.564
570.91	23.074
571.25	22.427
571.59	22.610
571.92	22.104
572.26	22.011
572.60	22.171
572.93	21.996
573.27	21.944
573.61	21.897
573.95	22.392
574.28	22.034
574.62	21.281
574.96	21.740
575.29	21.959
575.63	21.405
575.97	21.632
576.30	21.619
576.64	21.166
576.98	21.802
577.31	21.873
577.65	22.294
577.98	21.746
578.32	21.814
578.66	21.384
578.99	21.502
579.33	21.484
579.67	21.272
580.00	22.025
580.34	21.642
580.67	21.538
581.01	21.494
581.35	21.705
581.68	21.551
582.02	21.545
582.35	21.616
582.69	21.348
583.02	21.406
583.36	21.789
583.70	21.521
584.03	22.324
584.37	22.219
584.70	21.593
585.04	21.580
585.37	21.548
585.71	22.093
586.04	21.936
586.38	21.819
586.72	22.123
587.05	22.559
587.39	22.337
587.72	22.553
588.06	21.893
588.39	21.789
588.73	22.497
589.06	23.157
589.40	22.468
589.73	22.344
590.07	22.621
590.40	23.026
590.73	23.188
591.07	21.671
591.40	23.019
591.74	22.941
592.07	23.052
592.41	23.012
592.74	22.382
593.08	22.284
593.41	21.812
593.75	22.473
594.08	21.833
594.41	21.907
594.75	22.214
595.08	22.512
595.42	22.967
595.75	22.906
596.09	22.244
596.42	23.067
596.75	22.602
597.09	22.642
597.42	22.990
597.75	23.133
598.09	22.816
598.42	21.931
598.76	22.523
599.09	22.476
599.42	22.205
599.76	22.160
600.09	22.323
600.42	22.707
600.76	22.325
601.09	22.137
601.42	22.013
601.76	22.231
602.09	21.988
602.42	23.378
602.76	22.750
603.09	22.508
603.42	22.784
603.76	22.581
604.09	22.479
604.42	23.562
604.76	23.008
605.09	23.492
605.42	22.664
605.75	22.373
606.09	22.590
606.42	23.019
606.75	22.468
607.09	23.121
607.42	21.887
607.75	22.869
608.08	22.776
608.42	22.659
608.75	22.988
609.08	22.870
609.41	22.893
609.75	23.135
610.08	23.165
610.41	22.512
610.74	23.013
611.07	22.946
611.41	23.404
611.74	23.987
612.07	22.966
612.40	22.593
612.73	23.220
613.07	22.778
613.40	23.742
613.73	23.279
614.06	22.593
614.39	22.786
614.72	22.185
615.06	22.570
615.39	22.489
615.72	22.766
616.05	22.793
616.38	21.880
616.71	23.792
617.05	23.286
617.38	23.193
617.71	23.648
618.04	24.000
618.37	23.644
618.70	23.432
619.03	25.278
619.36	23.227
619.69	24.943
620.03	23.886
620.36	23.534
620.69	23.483
621.02	24.235
621.35	24.979
621.68	23.810
622.01	24.500
622.34	24.741
622.67	24.369
623.00	23.660
623.33	24.009
623.66	23.785
623.99	24.508
624.32	24.183
624.65	24.060
624.99	24.680
625.32	24.564
625.65	24.509
625.98	24.174
626.31	23.441
626.64	23.917
626.97	24.695
627.30	24.431
627.63	25.130
627.96	24.798
628.29	24.422
628.62	25.762
628.95	24.349
629.28	24.597
629.61	24.925
629.94	24.340
630.26	23.518
630.59	26.327
630.92	27.077
631.25	24.000
631.58	24.229
631.91	24.342
632.24	24.312
632.57	25.455
632.90	25.267
633.23	24.824
633.56	26.700
633.89	25.771
634.22	25.309
