SpectraSuite Data File
++++++++++++++++++++++++++++++++++++
Date: Fri May 15 17:20:42 PDT 2015
User: schluterlab
Dark Spectrum Present: Yes
Reference Spectrum Present: Yes
Number of Sampled Component Spectra: 1
Spectrometers: USB2E3373
Integration Time (usec): 3000 (USB2E3373)
Spectra Averaged: 3 (USB2E3373)
Boxcar Smoothing: 0 (USB2E3373)
Correct for Electrical Dark: No (USB2E3373)
Strobe/Lamp Enabled: No (USB2E3373)
Correct for Detector Non-linearity: No (USB2E3373)
Correct for Stray Light: No (USB2E3373)
Number of Pixels in Processed Spectrum: 2048
>>>>>Begin Processed Spectral Data<<<<<
178.53	0.000
178.91	0.000
179.29	87.500
179.67	0.000
180.04	-200.000
180.42	175.000
180.80	200.000
181.18	-333.333
181.56	-150.000
181.94	400.000
182.31	-200.000
182.69	240.000
183.07	300.000
183.45	40.000
183.83	116.667
184.20	100.000
184.58	55.556
184.96	-100.000
185.34	-500.000
185.72	0.000
186.09	38.462
186.47	-900.000
186.85	-33.333
187.23	66.667
187.61	-0.000
187.98	66.667
188.36	200.000
188.74	200.000
189.12	-5.882
189.49	61.111
189.87	0.000
190.25	28.571
190.63	50.000
191.00	200.000
191.38	10.526
191.76	850.000
192.14	-175.000
192.51	100.000
192.89	0.000
193.27	42.857
193.65	-0.000
194.02	72.727
194.40	80.000
194.78	-87.500
195.15	8.333
195.53	112.500
195.91	100.000
196.29	0.000
196.66	38.462
197.04	-14.286
197.42	88.889
197.79	-100.000
198.17	-76.923
198.55	900.000
198.92	-166.667
199.30	900.000
199.68	140.000
200.05	66.667
200.43	0.000
200.81	266.667
201.18	166.667
201.56	-400.000
201.94	-50.000
202.31	-233.333
202.69	-20.000
203.07	125.000
203.44	400.000
203.82	0.000
204.19	107.143
204.57	-333.333
204.95	-75.000
205.32	70.000
205.70	71.429
206.08	150.000
206.45	177.778
206.83	28.571
207.20	-128.571
207.58	-400.000
207.96	-233.333
208.33	-70.000
208.71	100.000
209.08	133.333
209.46	900.000
209.84	0.000
210.21	-600.000
210.59	114.286
210.96	16.667
211.34	225.000
211.71	113.333
212.09	14.286
212.46	-600.000
212.84	0.000
213.22	90.000
213.59	150.000
213.97	115.385
214.34	36.364
214.72	166.667
215.09	275.000
215.47	123.077
215.84	-27.273
216.22	166.667
216.59	25.000
216.97	1050.000
217.34	275.000
217.72	-120.000
218.09	175.000
218.47	-37.500
218.84	600.000
219.22	111.111
219.59	40.000
219.97	-0.000
220.34	100.000
220.72	85.714
221.09	100.000
221.47	300.000
221.84	400.000
222.22	-350.000
222.59	72.727
222.97	125.000
223.34	233.333
223.72	57.143
224.09	52.381
224.46	50.000
224.84	-0.000
225.21	50.000
225.59	53.333
225.96	400.000
226.34	175.000
226.71	57.143
227.08	-16.667
227.46	62.500
227.83	-200.000
228.21	66.667
228.58	163.636
228.95	62.500
229.33	60.000
229.70	50.000
230.08	50.000
230.45	0.000
230.82	214.286
231.20	0.000
231.57	57.143
231.95	128.571
232.32	80.000
232.69	57.143
233.07	466.667
233.44	40.000
233.81	-10.000
234.19	0.000
234.56	23.529
234.93	-450.000
235.31	225.000
235.68	-120.000
236.05	-7.692
236.43	15.000
236.80	64.706
237.17	37.500
237.55	20.000
237.92	-3.704
238.29	38.889
238.67	50.000
239.04	20.588
239.41	7.317
239.79	40.000
240.16	56.098
240.53	18.421
240.91	6.522
241.28	31.746
241.65	26.786
242.02	43.836
242.40	36.667
242.77	30.508
243.14	27.273
243.51	15.000
243.89	36.782
244.26	25.287
244.63	27.381
245.00	22.680
245.38	28.866
245.75	11.236
246.12	14.655
246.49	26.446
246.87	14.423
247.24	21.849
247.61	14.035
247.98	25.203
248.36	16.875
248.73	21.711
249.10	16.883
249.47	26.582
249.84	19.608
250.22	22.353
250.59	19.608
250.96	23.474
251.33	15.116
251.70	22.941
252.08	23.858
252.45	19.802
252.82	20.101
253.19	22.581
253.56	21.028
253.94	22.973
254.31	26.522
254.68	28.947
255.05	18.504
255.42	25.764
255.79	22.008
256.16	20.233
256.54	28.731
256.91	21.293
257.28	22.305
257.65	21.348
258.02	18.794
258.39	21.212
258.76	23.077
259.14	21.927
259.51	19.094
259.88	20.619
260.25	23.529
260.62	23.611
260.99	18.305
261.36	19.521
261.73	20.570
262.10	19.757
262.47	20.245
262.85	17.241
263.22	19.692
263.59	19.938
263.96	22.671
264.33	20.303
264.70	23.512
265.07	19.345
265.44	22.380
265.81	21.469
266.18	20.219
266.55	21.851
266.92	23.057
267.29	22.454
267.66	21.739
268.03	21.466
268.40	20.627
268.77	26.203
269.14	22.062
269.51	19.280
269.88	20.948
270.25	19.133
270.62	18.780
270.99	19.693
271.36	19.071
271.73	20.188
272.10	21.168
272.47	20.804
272.84	18.564
273.21	24.130
273.58	24.337
273.95	22.654
274.32	18.707
274.69	19.005
275.06	20.313
275.43	21.769
275.80	21.413
276.17	17.931
276.54	18.630
276.91	20.833
277.28	20.087
277.65	20.455
278.02	20.000
278.39	22.757
278.76	21.593
279.13	17.842
279.50	21.008
279.87	19.654
280.23	18.925
280.60	20.858
280.97	18.586
281.34	18.077
281.71	22.382
282.08	20.450
282.45	20.744
282.82	20.077
283.19	16.634
283.56	21.002
283.92	20.493
284.29	21.346
284.66	18.992
285.03	18.861
285.40	21.739
285.77	17.750
286.14	18.953
286.51	21.218
286.87	19.196
287.24	19.153
287.61	18.342
287.98	19.649
288.35	19.411
288.72	22.067
289.08	18.403
289.45	19.684
289.82	18.881
290.19	19.966
290.56	19.039
290.93	18.350
291.29	16.795
291.66	19.055
292.03	20.096
292.40	19.839
292.77	19.936
293.13	18.019
293.50	17.451
293.87	18.931
294.24	17.311
294.60	19.225
294.97	18.006
295.34	19.018
295.71	18.331
296.08	18.236
296.44	17.496
296.81	18.750
297.18	18.406
297.55	19.783
297.91	18.356
298.28	20.185
298.65	18.860
299.02	17.385
299.38	18.057
299.75	18.069
300.12	18.455
300.48	17.918
300.85	19.518
301.22	18.182
301.59	18.158
301.95	19.367
302.32	17.639
302.69	18.905
303.05	18.317
303.42	18.804
303.79	19.159
304.15	19.952
304.52	16.647
304.89	17.661
305.25	17.918
305.62	17.620
305.99	17.544
306.35	17.688
306.72	17.435
307.09	18.130
307.45	18.370
307.82	16.782
308.19	20.093
308.55	18.975
308.92	19.063
309.29	18.771
309.65	18.084
310.02	19.692
310.38	19.210
310.75	19.781
311.12	19.483
311.48	19.300
311.85	18.953
312.22	17.932
312.58	19.639
312.95	18.783
313.31	18.116
313.68	18.848
314.05	19.592
314.41	19.175
314.78	20.103
315.14	20.452
315.51	21.739
315.87	20.184
316.24	21.537
316.61	19.291
316.97	19.841
317.34	20.215
317.70	19.885
318.07	20.288
318.43	20.392
318.80	19.792
319.16	19.922
319.53	19.658
319.89	21.161
320.26	21.154
320.62	20.261
320.99	20.146
321.35	20.555
321.72	21.288
322.08	21.450
322.45	22.437
322.81	21.022
323.18	20.903
323.54	21.332
323.91	20.643
324.27	21.680
324.64	23.408
325.00	23.175
325.37	24.702
325.73	22.756
326.10	22.616
326.46	25.561
326.83	24.497
327.19	24.586
327.56	25.717
327.92	24.560
328.29	25.446
328.65	26.132
329.01	25.000
329.38	26.267
329.74	25.212
330.11	27.618
330.47	25.881
330.84	26.635
331.20	30.513
331.56	26.852
331.93	28.219
332.29	29.973
332.66	26.697
333.02	29.089
333.38	27.956
333.75	29.670
334.11	27.932
334.48	31.369
334.84	30.037
335.20	30.009
335.57	29.828
335.93	31.075
336.29	30.755
336.66	29.700
337.02	29.461
337.38	28.704
337.75	30.000
338.11	29.937
338.47	29.015
338.84	29.575
339.20	29.890
339.56	29.725
339.93	30.260
340.29	30.550
340.65	29.570
341.02	29.167
341.38	29.912
341.74	29.947
342.11	28.423
342.47	29.982
342.83	29.498
343.20	29.094
343.56	30.609
343.92	30.381
344.28	30.316
344.65	30.052
345.01	29.213
345.37	29.352
345.73	29.707
346.10	30.198
346.46	30.278
346.82	28.396
347.19	28.678
347.55	29.323
347.91	29.612
348.27	28.860
348.63	30.664
349.00	29.040
349.36	29.177
349.72	28.856
350.08	29.754
350.45	29.210
350.81	28.738
351.17	29.235
351.53	28.490
351.89	29.315
352.26	28.400
352.62	28.548
352.98	28.434
353.34	28.824
353.70	29.288
354.07	28.387
354.43	27.942
354.79	29.397
355.15	29.603
355.51	29.193
355.87	28.317
356.24	29.282
356.60	29.184
356.96	28.968
357.32	28.514
357.68	27.991
358.04	28.514
358.40	28.617
358.77	28.868
359.13	29.063
359.49	28.043
359.85	29.017
360.21	29.665
360.57	29.763
360.93	28.593
361.29	27.492
361.66	29.937
362.02	29.394
362.38	29.246
362.74	29.145
363.10	30.023
363.46	28.836
363.82	29.902
364.18	28.930
364.54	28.603
364.90	29.606
365.26	28.020
365.62	30.657
365.98	29.032
366.35	29.862
366.71	30.007
367.07	30.334
367.43	29.331
367.79	28.834
368.15	29.074
368.51	29.643
368.87	28.284
369.23	29.675
369.59	29.009
369.95	28.519
370.31	29.697
370.67	29.851
371.03	29.126
371.39	29.759
371.75	30.842
372.11	30.599
372.47	30.178
372.83	30.873
373.19	30.314
373.55	30.903
373.91	31.030
374.27	31.892
374.63	31.084
374.99	31.135
375.35	31.058
375.71	31.049
376.07	31.461
376.42	31.020
376.78	31.208
377.14	31.618
377.50	32.072
377.86	31.593
378.22	31.270
378.58	31.026
378.94	31.569
379.30	32.751
379.66	32.288
380.02	32.434
380.38	31.893
380.74	32.077
381.09	34.233
381.45	32.294
381.81	33.621
382.17	33.249
382.53	32.167
382.89	33.836
383.25	34.350
383.61	34.024
383.97	33.397
384.32	33.896
384.68	34.303
385.04	33.395
385.40	33.230
385.76	35.094
386.12	34.864
386.48	34.610
386.83	35.574
387.19	34.615
387.55	35.759
387.91	35.330
388.27	35.348
388.62	36.375
388.98	35.298
389.34	35.978
389.70	35.550
390.06	34.613
390.42	35.168
390.77	36.691
391.13	35.687
391.49	35.964
391.85	35.673
392.20	36.598
392.56	35.919
392.92	36.641
393.28	36.910
393.64	36.517
393.99	38.056
394.35	35.863
394.71	36.654
395.07	35.889
395.42	36.855
395.78	36.352
396.14	37.137
396.50	37.603
396.85	35.802
397.21	35.840
397.57	35.862
397.92	36.189
398.28	37.874
398.64	35.482
399.00	36.061
399.35	35.779
399.71	35.669
400.07	37.001
400.42	36.230
400.78	36.865
401.14	36.661
401.49	37.522
401.85	35.771
402.21	36.265
402.57	35.750
402.92	35.759
403.28	36.153
403.63	36.381
403.99	35.842
404.35	35.728
404.70	36.548
405.06	34.841
405.42	35.364
405.77	35.445
406.13	35.972
406.49	35.583
406.84	36.675
407.20	36.966
407.55	35.930
407.91	35.495
408.27	35.819
408.62	36.615
408.98	35.675
409.34	36.493
409.69	35.465
410.05	34.975
410.40	34.877
410.76	35.525
411.11	35.938
411.47	36.029
411.83	35.844
412.18	35.907
412.54	35.019
412.89	35.099
413.25	35.379
413.60	35.466
413.96	35.767
414.31	36.280
414.67	35.471
415.03	35.353
415.38	35.901
415.74	37.329
416.09	36.381
416.45	36.259
416.80	36.153
417.16	36.809
417.51	37.042
417.87	35.984
418.22	37.047
418.58	36.522
418.93	38.433
419.29	35.467
419.64	36.941
420.00	38.287
420.35	38.090
420.71	36.391
421.06	37.262
421.42	37.921
421.77	37.168
422.12	36.890
422.48	36.708
422.83	37.297
423.19	37.810
423.54	37.919
423.90	37.691
424.25	37.543
424.61	38.800
424.96	38.037
425.31	39.053
425.67	38.732
426.02	38.634
426.38	39.198
426.73	39.044
427.09	40.316
427.44	39.765
427.79	39.364
428.15	38.714
428.50	39.128
428.85	39.189
429.21	38.879
429.56	39.407
429.92	39.445
430.27	39.348
430.62	38.840
430.98	40.074
431.33	39.064
431.68	39.613
432.04	39.352
432.39	38.905
432.74	38.545
433.10	39.655
433.45	40.382
433.80	39.756
434.16	40.055
434.51	39.570
434.86	40.708
435.22	40.101
435.57	40.050
435.92	40.419
436.28	39.475
436.63	39.646
436.98	39.224
437.34	39.988
437.69	41.622
438.04	39.544
438.39	41.112
438.75	40.194
439.10	40.860
439.45	40.231
439.81	40.061
440.16	42.458
440.51	40.597
440.86	42.900
441.22	41.290
441.57	42.274
441.92	41.868
442.27	41.741
442.63	41.381
442.98	41.183
443.33	39.844
443.68	41.061
444.03	41.232
444.39	41.761
444.74	41.472
445.09	42.984
445.44	42.963
445.79	43.528
446.15	40.804
446.50	40.987
446.85	42.455
447.20	41.554
447.55	41.853
447.91	41.963
448.26	42.857
448.61	42.257
448.96	42.456
449.31	41.445
449.66	41.405
450.02	41.586
450.37	41.849
450.72	42.153
451.07	41.582
451.42	41.261
451.77	42.375
452.12	42.105
452.47	42.241
452.83	41.225
453.18	42.062
453.53	43.047
453.88	42.441
454.23	42.102
454.58	42.947
454.93	43.299
455.28	41.905
455.63	43.025
455.98	42.514
456.34	41.635
456.69	43.139
457.04	43.037
457.39	42.588
457.74	42.503
458.09	41.377
458.44	42.598
458.79	41.513
459.14	43.307
459.49	41.791
459.84	42.527
460.19	43.507
460.54	42.848
460.89	43.920
461.24	43.043
461.59	42.874
461.94	41.321
462.29	43.004
462.64	43.987
462.99	43.128
463.34	43.185
463.69	42.407
464.04	44.552
464.39	42.511
464.74	42.577
465.09	43.231
465.44	42.701
465.79	42.063
466.14	42.018
466.49	42.841
466.84	42.356
467.19	43.492
467.54	42.401
467.89	43.462
468.24	42.701
468.59	44.063
468.94	42.921
469.29	43.541
469.64	43.882
469.99	45.060
470.34	43.891
470.68	44.594
471.03	45.011
471.38	44.080
471.73	44.538
472.08	43.555
472.43	44.497
472.78	43.660
473.13	44.150
473.48	43.779
473.83	43.898
474.17	44.171
474.52	43.395
474.87	43.152
475.22	44.051
475.57	42.970
475.92	44.048
476.27	44.645
476.61	44.271
476.96	42.889
477.31	43.537
477.66	43.764
478.01	43.796
478.36	42.810
478.70	43.556
479.05	44.505
479.40	44.356
479.75	42.909
480.10	43.523
480.45	44.400
480.79	45.015
481.14	44.365
481.49	43.448
481.84	43.533
482.19	44.060
482.53	44.604
482.88	43.580
483.23	43.666
483.58	43.679
483.92	44.046
484.27	43.254
484.62	43.433
484.97	42.620
485.31	43.389
485.66	42.262
486.01	41.701
486.36	41.612
486.70	41.568
487.05	41.412
487.40	41.830
487.75	42.535
488.09	42.645
488.44	43.054
488.79	43.706
489.13	43.550
489.48	44.463
489.83	44.215
490.17	43.640
490.52	44.619
490.87	43.360
491.22	44.890
491.56	44.165
491.91	43.499
492.26	44.725
492.60	45.058
492.95	45.155
493.30	44.113
493.64	45.138
493.99	43.285
494.34	44.854
494.68	44.429
495.03	44.964
495.37	44.308
495.72	45.331
496.07	45.951
496.41	44.858
496.76	43.989
497.11	43.782
497.45	43.675
497.80	45.459
498.14	44.064
498.49	45.048
498.84	44.611
499.18	45.181
499.53	45.139
499.87	45.233
500.22	44.461
500.56	45.083
500.91	44.026
501.26	44.933
501.60	45.450
501.95	45.803
502.29	44.891
502.64	45.319
502.98	45.091
503.33	44.092
503.67	44.241
504.02	45.552
504.36	45.473
504.71	44.697
505.06	44.942
505.40	45.431
505.75	45.825
506.09	44.856
506.44	45.996
506.78	45.714
507.13	45.915
507.47	45.274
507.82	46.100
508.16	45.378
508.51	45.226
508.85	45.683
509.19	45.024
509.54	46.059
509.88	45.415
510.23	45.562
510.57	45.644
510.92	44.776
511.26	46.809
511.61	46.535
511.95	46.027
512.30	45.455
512.64	45.409
512.98	44.526
513.33	45.999
513.67	46.276
514.02	46.854
514.36	47.143
514.70	46.737
515.05	47.297
515.39	46.871
515.74	46.766
516.08	47.759
516.42	46.996
516.77	46.987
517.11	47.537
517.46	47.756
517.80	47.139
518.14	46.295
518.49	45.553
518.83	46.962
519.17	47.605
519.52	46.063
519.86	45.498
520.20	46.476
520.55	47.029
520.89	47.051
521.23	47.688
521.58	48.139
521.92	46.987
522.26	47.755
522.61	47.078
522.95	47.748
523.29	47.014
523.64	47.459
523.98	48.607
524.32	46.134
524.66	47.631
525.01	48.506
525.35	47.375
525.69	48.418
526.04	48.148
526.38	48.379
526.72	46.436
527.06	47.276
527.41	48.879
527.75	47.319
528.09	47.641
528.43	49.426
528.78	48.119
529.12	47.097
529.46	47.563
529.80	46.295
530.15	48.581
530.49	46.128
530.83	48.495
531.17	47.280
531.51	48.564
531.86	47.383
532.20	48.156
532.54	47.924
532.88	47.775
533.22	48.118
533.57	47.706
533.91	46.671
534.25	49.023
534.59	47.081
534.93	46.633
535.27	46.256
535.62	46.209
535.96	47.423
536.30	48.219
536.64	47.484
536.98	44.878
537.32	49.147
537.66	47.756
538.01	49.021
538.35	47.226
538.69	47.736
539.03	45.728
539.37	46.030
539.71	47.648
540.05	47.047
540.39	47.645
540.73	46.304
541.07	47.652
541.42	47.648
541.76	47.488
542.10	47.694
542.44	47.880
542.78	45.079
543.12	46.772
543.46	47.010
543.80	46.773
544.14	45.594
544.48	46.436
544.82	47.984
545.16	47.541
545.50	46.862
545.84	48.867
546.18	47.305
546.52	47.080
546.86	47.664
547.20	48.641
547.54	45.654
547.88	46.739
548.22	46.022
548.56	47.164
548.90	47.844
549.24	45.386
549.58	46.756
549.92	46.390
550.26	48.132
550.60	47.063
550.94	48.394
551.28	47.141
551.62	47.692
551.96	46.842
552.30	47.222
552.64	46.827
552.98	46.906
553.32	46.933
553.66	46.154
554.00	48.978
554.34	47.858
554.68	46.976
555.02	47.991
555.36	49.364
555.69	46.374
556.03	47.109
556.37	46.477
556.71	46.354
557.05	48.248
557.39	47.509
557.73	47.751
558.07	48.718
558.41	47.933
558.75	47.155
559.08	48.069
559.42	47.381
559.76	48.359
560.10	46.407
560.44	48.027
560.78	46.853
561.12	47.250
561.45	48.559
561.79	46.779
562.13	47.551
562.47	48.058
562.81	48.415
563.15	46.897
563.48	47.100
563.82	47.907
564.16	47.911
564.50	46.892
564.84	47.189
565.17	46.144
565.51	48.292
565.85	46.845
566.19	47.281
566.52	47.118
566.86	47.558
567.20	46.015
567.54	46.655
567.88	46.339
568.21	47.059
568.55	45.815
568.89	45.637
569.23	45.932
569.56	44.177
569.90	45.595
570.24	43.245
570.57	43.564
570.91	43.987
571.25	42.716
571.59	42.479
571.92	42.341
572.26	42.723
572.60	42.016
572.93	41.512
573.27	42.163
573.61	42.303
573.95	42.600
574.28	41.393
574.62	41.546
574.96	41.237
575.29	41.318
575.63	40.451
575.97	40.607
576.30	41.439
576.64	41.033
576.98	42.188
577.31	41.779
577.65	41.330
577.98	41.716
578.32	41.460
578.66	40.683
578.99	40.875
579.33	40.744
579.67	40.626
580.00	41.367
580.34	41.294
580.67	40.554
581.01	41.787
581.35	40.956
581.68	41.311
582.02	40.796
582.35	40.427
582.69	40.417
583.02	40.611
583.36	41.495
583.70	41.589
584.03	42.396
584.37	42.547
584.70	42.005
585.04	41.036
585.37	41.081
585.71	41.521
586.04	40.898
586.38	41.424
586.72	42.439
587.05	42.114
587.39	42.270
587.72	41.990
588.06	41.849
588.39	42.182
588.73	42.002
589.06	42.694
589.40	43.104
589.73	43.629
590.07	43.807
590.40	43.808
590.73	43.245
591.07	44.317
591.40	44.167
591.74	43.529
592.07	44.666
592.41	44.744
592.74	42.652
593.08	41.949
593.41	42.306
593.75	42.329
594.08	41.538
594.41	42.504
594.75	42.328
595.08	42.603
595.42	42.952
595.75	43.748
596.09	43.002
596.42	42.828
596.75	42.673
597.09	43.052
597.42	44.128
597.75	44.343
598.09	43.006
598.42	42.870
598.76	43.115
599.09	42.468
599.42	42.819
599.76	42.852
600.09	41.667
600.42	41.547
600.76	41.456
601.09	41.603
601.42	42.029
601.76	41.921
602.09	42.492
602.42	43.639
602.76	43.379
603.09	42.774
603.42	43.227
603.76	42.379
604.09	42.892
604.42	43.316
604.76	44.281
605.09	43.327
605.42	43.296
605.75	43.783
606.09	42.208
606.42	42.410
606.75	42.727
607.09	42.593
607.42	42.623
607.75	42.185
608.08	42.363
608.42	42.485
608.75	44.337
609.08	44.195
609.41	44.213
609.75	43.548
610.08	43.635
610.41	42.947
610.74	43.784
611.07	44.083
611.41	44.473
611.74	45.043
612.07	44.218
612.40	44.475
612.73	44.068
613.07	43.645
613.40	44.147
613.73	44.096
614.06	43.851
614.39	44.444
614.72	44.538
615.06	44.190
615.39	42.631
615.72	42.949
616.05	43.575
616.38	42.792
616.71	45.076
617.05	45.769
617.38	44.689
617.71	45.975
618.04	45.206
618.37	46.028
618.70	45.347
619.03	46.667
619.36	44.718
619.69	46.096
620.03	47.188
620.36	46.137
620.69	45.468
621.02	44.801
621.35	46.639
621.68	48.129
622.01	48.000
622.34	46.768
622.67	46.057
623.00	46.248
623.33	46.723
623.66	45.774
623.99	46.293
624.32	45.399
624.65	44.962
624.99	46.652
625.32	44.276
625.65	47.604
625.98	47.865
626.31	45.885
626.64	47.054
626.97	49.302
627.30	47.548
627.63	46.274
627.96	47.260
628.29	47.641
628.62	49.263
628.95	47.295
629.28	49.798
629.61	48.056
629.94	48.387
630.26	47.925
630.59	51.093
630.92	49.641
631.25	48.410
631.58	50.881
631.91	49.232
632.24	51.147
632.57	49.091
632.90	49.348
633.23	50.118
633.56	52.267
633.89	50.801
634.22	50.617
