SpectraSuite Data File
++++++++++++++++++++++++++++++++++++
Date: Fri May 15 20:00:33 PDT 2015
User: schluterlab
Dark Spectrum Present: Yes
Reference Spectrum Present: Yes
Number of Sampled Component Spectra: 1
Spectrometers: USB2E3373
Integration Time (usec): 3000 (USB2E3373)
Spectra Averaged: 3 (USB2E3373)
Boxcar Smoothing: 0 (USB2E3373)
Correct for Electrical Dark: No (USB2E3373)
Strobe/Lamp Enabled: No (USB2E3373)
Correct for Detector Non-linearity: No (USB2E3373)
Correct for Stray Light: No (USB2E3373)
Number of Pixels in Processed Spectrum: 2048
>>>>>Begin Processed Spectral Data<<<<<
178.53	0.000
178.91	0.000
179.29	200.000
179.67	200.000
180.04	-85.714
180.42	75.000
180.80	0.000
181.18	200.000
181.56	250.000
181.94	550.000
182.31	500.000
182.69	140.000
183.07	-66.667
183.45	80.000
183.83	50.000
184.20	27.273
184.58	100.000
184.96	-300.000
185.34	166.667
185.72	-650.000
186.09	38.462
186.47	500.000
186.85	200.000
187.23	55.556
187.61	-400.000
187.98	-166.667
188.36	11.111
188.74	-166.667
189.12	23.529
189.49	72.222
189.87	0.000
190.25	85.714
190.63	200.000
191.00	-33.333
191.38	5.263
191.76	150.000
192.14	-25.000
192.51	-50.000
192.89	100.000
193.27	-14.286
193.65	16.667
194.02	118.182
194.40	110.000
194.78	-37.500
195.15	-8.333
195.53	-25.000
195.91	150.000
196.29	-50.000
196.66	61.538
197.04	28.571
197.42	88.889
197.79	-666.667
198.17	-30.769
198.55	400.000
198.92	0.000
199.30	800.000
199.68	-20.000
200.05	33.333
200.43	0.000
200.81	133.333
201.18	-100.000
201.56	700.000
201.94	100.000
202.31	-400.000
202.69	-60.000
203.07	-25.000
203.44	1100.000
203.82	0.000
204.19	28.571
204.57	-466.667
204.95	-0.000
205.32	60.000
205.70	14.286
206.08	125.000
206.45	55.556
206.83	107.143
207.20	-28.571
207.58	100.000
207.96	-133.333
208.33	-90.000
208.71	-25.000
209.08	-100.000
209.46	1000.000
209.84	-160.000
210.21	-600.000
210.59	128.571
210.96	100.000
211.34	100.000
211.71	26.667
212.09	114.286
212.46	-1100.000
212.84	0.000
213.22	30.000
213.59	200.000
213.97	61.538
214.34	109.091
214.72	-50.000
215.09	200.000
215.47	23.077
215.84	36.364
216.22	-233.333
216.59	37.500
216.97	400.000
217.34	175.000
217.72	-20.000
218.09	87.500
218.47	-50.000
218.84	1100.000
219.22	-44.444
219.59	-100.000
219.97	300.000
220.34	-50.000
220.72	171.429
221.09	-150.000
221.47	50.000
221.84	-250.000
222.22	-550.000
222.59	0.000
222.97	108.333
223.34	-33.333
223.72	-14.286
224.09	9.524
224.46	50.000
224.84	66.667
225.21	40.000
225.59	26.667
225.96	0.000
226.34	150.000
226.71	0.000
227.08	50.000
227.46	62.500
227.83	-400.000
228.21	200.000
228.58	81.818
228.95	112.500
229.33	90.000
229.70	56.250
230.08	112.500
230.45	71.429
230.82	-14.286
231.20	40.000
231.57	71.429
231.95	42.857
232.32	10.000
232.69	42.857
233.07	533.333
233.44	120.000
233.81	-30.000
234.19	0.000
234.56	0.000
234.93	-250.000
235.31	175.000
235.68	-20.000
236.05	23.077
236.43	0.000
236.80	58.824
237.17	62.500
237.55	100.000
237.92	25.926
238.29	44.444
238.67	40.000
239.04	38.235
239.41	9.756
239.79	30.000
240.16	19.512
240.53	13.158
240.91	17.391
241.28	1.587
241.65	46.429
242.02	32.877
242.40	28.333
242.77	18.644
243.14	15.152
243.51	27.500
243.89	33.333
244.26	22.989
244.63	15.476
245.00	23.711
245.38	25.773
245.75	10.112
246.12	13.793
246.49	33.058
246.87	26.923
247.24	21.849
247.61	20.175
247.98	23.577
248.36	26.875
248.73	23.684
249.10	28.571
249.47	20.886
249.84	26.797
250.22	25.882
250.59	25.490
250.96	24.413
251.33	25.000
251.70	27.059
252.08	22.843
252.45	24.257
252.82	25.628
253.19	28.111
253.56	23.364
253.94	22.973
254.31	23.478
254.68	27.632
255.05	23.622
255.42	21.834
255.79	22.394
256.16	22.957
256.54	25.000
256.91	20.532
257.28	22.305
257.65	23.221
258.02	21.986
258.39	25.926
258.76	28.205
259.14	19.934
259.51	22.654
259.88	27.148
260.25	23.529
260.62	28.472
260.99	25.085
261.36	19.521
261.73	21.519
262.10	22.796
262.47	22.699
262.85	21.944
263.22	20.923
263.59	23.364
263.96	25.466
264.33	23.939
264.70	20.238
265.07	22.917
265.44	24.079
265.81	23.729
266.18	25.137
266.55	26.221
266.92	25.389
267.29	23.499
267.66	24.552
268.03	21.204
268.40	22.977
268.77	27.540
269.14	23.022
269.51	21.594
269.88	22.943
270.25	20.663
270.62	20.244
270.99	21.228
271.36	22.005
271.73	23.005
272.10	23.601
272.47	24.113
272.84	22.277
273.21	20.650
273.58	23.133
273.95	23.112
274.32	18.707
274.69	23.077
275.06	24.554
275.43	21.995
275.80	24.503
276.17	18.161
276.54	19.914
276.91	23.026
277.28	19.869
277.65	24.587
278.02	20.000
278.39	23.414
278.76	20.126
279.13	18.880
279.50	24.160
279.87	22.030
280.23	23.226
280.60	20.858
280.97	22.020
281.34	19.808
281.71	24.025
282.08	20.859
282.45	19.569
282.82	19.884
283.19	20.696
283.56	20.809
283.92	20.873
284.29	20.385
284.66	20.543
285.03	18.861
285.40	22.873
285.77	19.684
286.14	21.661
286.51	21.771
286.87	22.486
287.24	19.890
287.61	17.813
287.98	20.000
288.35	21.317
288.72	20.315
289.08	19.618
289.45	19.156
289.82	20.979
290.19	19.795
290.56	17.324
290.93	19.192
291.29	17.874
291.66	17.638
292.03	17.384
292.40	17.742
292.77	18.182
293.13	17.532
293.50	15.933
293.87	18.321
294.24	17.929
294.60	17.735
294.97	16.815
295.34	17.485
295.71	17.288
296.08	16.741
296.44	14.225
296.81	15.556
297.18	17.971
297.55	16.396
297.91	16.712
298.28	17.546
298.65	15.061
299.02	16.307
299.38	14.227
299.75	16.414
300.12	16.754
300.48	15.810
300.85	15.463
301.22	17.013
301.59	13.816
301.95	16.076
302.32	15.045
302.69	16.791
303.05	15.842
303.42	16.189
303.79	16.005
304.15	16.129
304.52	14.982
304.89	13.333
305.25	14.891
305.62	13.769
305.99	13.684
306.35	15.376
306.72	13.836
307.09	15.507
307.45	16.188
307.82	14.699
308.19	15.912
308.55	15.812
308.92	16.340
309.29	16.089
309.65	14.424
310.02	15.402
310.38	14.819
310.75	15.410
311.12	17.115
311.48	14.846
311.85	14.346
312.22	14.241
312.58	15.924
312.95	14.728
313.31	14.182
313.68	14.346
314.05	15.408
314.41	15.464
314.78	16.701
315.14	16.650
315.51	15.735
315.87	15.266
316.24	18.200
316.61	16.240
316.97	16.071
317.34	16.602
317.70	15.679
318.07	16.635
318.43	17.451
318.80	15.909
319.16	17.383
319.53	16.904
319.89	19.193
320.26	18.219
320.62	18.355
320.99	16.806
321.35	18.397
321.72	19.938
322.08	17.925
322.45	18.883
322.81	19.155
323.18	19.038
323.54	20.270
323.91	18.306
324.27	20.312
324.64	20.880
325.00	21.168
325.37	21.855
325.73	20.852
326.10	21.798
326.46	22.511
326.83	22.310
327.19	22.319
327.56	22.676
327.92	23.680
328.29	21.875
328.65	23.491
329.01	23.989
329.38	24.608
329.74	24.551
330.11	24.189
330.47	25.139
330.84	23.654
331.20	25.570
331.56	24.815
331.93	25.023
332.29	24.198
332.66	24.525
333.02	24.907
333.38	23.190
333.75	26.099
334.11	24.261
334.48	25.839
334.84	24.451
335.20	25.252
335.57	24.932
335.93	25.294
336.29	24.770
336.66	25.522
337.02	23.978
337.38	23.981
337.75	24.000
338.11	24.346
338.47	24.909
338.84	26.710
339.20	23.949
339.56	25.138
339.93	24.709
340.29	25.046
340.65	25.627
341.02	25.089
341.38	25.044
341.74	24.647
342.11	22.704
342.47	23.665
342.83	25.346
343.20	23.084
343.56	24.087
343.92	25.686
344.28	25.278
344.65	24.352
345.01	23.682
345.37	23.633
345.73	24.686
346.10	25.971
346.46	25.484
346.82	23.895
347.19	23.026
347.55	23.977
347.91	23.786
348.27	23.686
348.63	24.532
349.00	23.544
349.36	24.106
349.72	25.622
350.08	23.607
350.45	24.342
350.81	22.841
351.17	24.349
351.53	25.224
351.89	23.534
352.26	24.320
352.62	22.339
352.98	23.614
353.34	22.866
353.70	23.867
354.07	24.274
354.43	23.779
354.79	25.186
355.15	24.921
355.51	24.446
355.87	24.595
356.24	23.491
356.60	23.848
356.96	24.286
357.32	22.604
357.68	23.456
358.04	23.748
358.40	23.875
358.77	23.525
359.13	23.299
359.49	23.652
359.85	22.933
360.21	23.126
360.57	24.407
360.93	24.206
361.29	23.263
361.66	23.824
362.02	24.242
362.38	23.534
362.74	24.300
363.10	24.229
363.46	23.573
363.82	24.568
364.18	24.207
364.54	24.265
364.90	23.584
365.26	24.017
365.62	25.547
365.98	24.853
366.35	24.909
366.71	24.390
367.07	23.875
367.43	24.659
367.79	24.170
368.15	23.833
368.51	24.399
368.87	23.546
369.23	23.466
369.59	23.469
369.95	25.440
370.31	25.506
370.67	24.552
371.03	25.093
371.39	24.508
371.75	24.469
372.11	24.822
372.47	24.926
372.83	24.273
373.19	25.535
373.55	24.838
373.91	25.486
374.27	25.514
374.63	25.126
374.99	24.965
375.35	24.582
375.71	25.385
376.07	25.983
376.42	25.306
376.78	24.899
377.14	25.389
377.50	25.299
377.86	25.301
378.22	25.399
378.58	25.962
378.94	26.591
379.30	26.700
379.66	26.959
380.02	26.671
380.38	26.659
380.74	25.733
381.09	27.485
381.45	26.972
381.81	27.020
382.17	26.269
382.53	26.733
382.89	27.495
383.25	27.754
383.61	28.354
383.97	27.619
384.32	28.330
384.68	28.421
385.04	27.574
385.40	28.314
385.76	29.182
386.12	28.655
386.48	28.799
386.83	28.282
387.19	27.778
387.55	29.423
387.91	28.851
388.27	28.327
388.62	29.075
388.98	28.975
389.34	30.044
389.70	29.770
390.06	28.697
390.42	28.562
390.77	29.627
391.13	29.193
391.49	29.366
391.85	30.344
392.20	29.881
392.56	29.371
392.92	29.888
393.28	29.776
393.64	30.931
393.99	30.909
394.35	29.349
394.71	30.140
395.07	30.358
395.42	29.387
395.78	29.902
396.14	30.265
396.50	30.374
396.85	30.650
397.21	30.263
397.57	30.596
397.92	30.377
398.28	31.207
398.64	30.181
399.00	31.264
399.35	30.926
399.71	30.615
400.07	31.197
400.42	31.273
400.78	30.557
401.14	30.430
401.49	30.256
401.85	30.652
402.21	30.542
402.57	30.062
402.92	30.238
403.28	30.890
403.63	30.643
403.99	29.847
404.35	31.605
404.70	29.940
405.06	29.847
405.42	31.075
405.77	30.447
406.13	30.501
406.49	30.195
406.84	30.562
407.20	30.825
407.55	29.491
407.91	30.548
408.27	29.700
408.62	30.831
408.98	30.992
409.34	31.227
409.69	30.039
410.05	30.419
410.40	30.185
410.76	30.820
411.11	30.000
411.47	30.638
411.83	31.073
412.18	30.952
412.54	29.838
412.89	29.926
413.25	30.866
413.60	30.248
413.96	31.656
414.31	30.854
414.67	30.661
415.03	30.626
415.38	29.700
415.74	30.033
416.09	30.895
416.45	30.182
416.80	30.337
417.16	31.215
417.51	30.713
417.87	30.117
418.22	31.088
418.58	30.033
418.93	30.909
419.29	30.154
419.64	29.877
420.00	31.549
420.35	30.209
420.71	30.498
421.06	30.448
421.42	31.490
421.77	30.058
422.12	30.533
422.48	29.886
422.83	30.394
423.19	30.079
423.54	30.923
423.90	31.213
424.25	30.425
424.61	30.416
424.96	30.546
425.31	31.311
425.67	31.455
426.02	31.567
426.38	31.058
426.73	30.751
427.09	31.076
427.44	31.176
427.79	31.526
428.15	30.522
428.50	30.648
428.85	31.081
429.21	31.353
429.56	32.129
429.92	31.022
430.27	31.128
430.62	30.476
430.98	31.423
431.33	31.178
431.68	30.769
432.04	31.135
432.39	30.462
432.74	30.848
433.10	31.264
433.45	31.302
433.80	31.283
434.16	31.468
434.51	31.505
434.86	31.185
435.22	32.361
435.57	31.067
435.92	31.796
436.28	31.306
436.63	31.831
436.98	31.112
437.34	31.155
437.69	31.366
438.04	31.795
438.39	30.666
438.75	32.423
439.10	31.579
439.45	32.319
439.81	31.743
440.16	32.007
440.51	32.358
440.86	32.387
441.22	31.165
441.57	32.009
441.92	32.109
442.27	31.375
442.63	32.655
442.98	32.051
443.33	31.497
443.68	31.618
444.03	32.737
444.39	32.120
444.74	34.114
445.09	32.739
445.44	31.225
445.79	32.800
446.15	32.269
446.50	31.780
446.85	33.103
447.20	32.586
447.55	32.422
447.91	32.092
448.26	33.125
448.61	32.182
448.96	32.989
449.31	32.659
449.66	32.288
450.02	33.029
450.37	32.484
450.72	32.360
451.07	32.532
451.42	32.147
451.77	32.610
452.12	33.313
452.47	32.646
452.83	31.684
453.18	31.689
453.53	32.491
453.88	33.030
454.23	32.391
454.58	33.375
454.93	33.441
455.28	32.508
455.63	31.990
455.98	32.712
456.34	33.397
456.69	32.592
457.04	33.837
457.39	33.718
457.74	32.709
458.09	32.490
458.44	32.826
458.79	32.605
459.14	33.066
459.49	33.194
459.84	33.559
460.19	33.010
460.54	33.068
460.89	33.636
461.24	32.981
461.59	32.542
461.94	31.950
462.29	33.474
462.64	32.625
462.99	33.311
463.34	32.684
463.69	32.175
464.04	33.232
464.39	33.232
464.74	32.147
465.09	34.186
465.44	33.583
465.79	32.596
466.14	34.379
466.49	33.122
466.84	33.849
467.19	33.041
467.54	32.759
467.89	32.912
468.24	33.151
468.59	33.651
468.94	32.889
469.29	33.508
469.64	33.698
469.99	34.478
470.34	33.720
470.68	34.899
471.03	33.121
471.38	33.809
471.73	34.314
472.08	33.243
472.43	33.020
472.78	33.310
473.13	33.129
473.48	33.160
473.83	33.499
474.17	33.938
474.52	34.078
474.87	34.061
475.22	33.252
475.57	33.879
475.92	32.693
476.27	33.818
476.61	33.681
476.96	33.408
477.31	34.451
477.66	32.584
478.01	32.734
478.36	34.314
478.70	33.442
479.05	33.846
479.40	33.651
479.75	33.055
480.10	33.077
480.45	32.950
480.79	33.686
481.14	35.092
481.49	32.857
481.84	34.508
482.19	33.068
482.53	33.573
482.88	33.270
483.23	34.357
483.58	34.292
483.92	33.349
484.27	32.954
484.62	34.110
484.97	32.711
485.31	33.273
485.66	32.939
486.01	33.137
486.36	33.367
486.70	32.685
487.05	33.170
487.40	32.756
487.75	32.986
488.09	32.355
488.44	32.462
488.79	32.985
489.13	33.454
489.48	33.476
489.83	32.960
490.17	32.674
490.52	33.811
490.87	32.994
491.22	33.954
491.56	34.583
491.91	33.413
492.26	34.468
492.60	34.261
492.95	34.186
493.30	33.952
493.64	33.988
493.99	34.058
494.34	33.398
494.68	34.048
495.03	33.285
495.37	33.906
495.72	33.720
496.07	35.073
496.41	32.642
496.76	34.270
497.11	33.163
497.45	33.890
497.80	33.653
498.14	33.979
498.49	33.977
498.84	33.882
499.18	34.337
499.53	34.772
499.87	33.804
500.22	33.383
500.56	34.594
500.91	34.337
501.26	32.378
501.60	33.645
501.95	34.546
502.29	33.898
502.64	33.542
502.98	34.336
503.33	33.525
503.67	33.880
504.02	33.920
504.36	33.548
504.71	33.889
505.06	33.820
505.40	33.959
505.75	34.124
506.09	33.401
506.44	34.548
506.78	34.847
507.13	34.230
507.47	33.995
507.82	33.280
508.16	33.703
508.51	34.575
508.85	34.014
509.19	33.262
509.54	34.316
509.88	33.711
510.23	34.481
510.57	34.260
510.92	33.795
511.26	34.206
511.61	35.699
511.95	33.863
512.30	34.701
512.64	33.890
512.98	35.036
513.33	34.751
513.67	34.395
514.02	34.725
514.36	35.086
514.70	36.072
515.05	34.900
515.39	34.947
515.74	34.731
516.08	35.386
516.42	35.159
516.77	34.465
517.11	34.659
517.46	34.949
517.80	35.161
518.14	34.109
518.49	34.315
518.83	34.872
519.17	33.899
519.52	34.517
519.86	33.854
520.20	34.204
520.55	33.834
520.89	34.755
521.23	33.882
521.58	35.268
521.92	35.128
522.26	35.068
522.61	34.870
522.95	36.954
523.29	34.053
523.64	34.689
523.98	35.969
524.32	34.149
524.66	36.876
525.01	34.805
525.35	35.774
525.69	35.219
526.04	34.259
526.38	34.890
526.72	34.663
527.06	34.241
527.41	34.763
527.75	34.651
528.09	34.485
528.43	35.787
528.78	35.644
529.12	35.677
529.46	35.218
529.80	35.149
530.15	35.248
530.49	35.421
530.83	35.499
531.17	34.923
531.51	35.705
531.86	35.146
532.20	35.003
532.54	35.534
532.88	36.071
533.22	35.081
533.57	35.387
533.91	35.313
534.25	35.742
534.59	35.985
534.93	34.110
535.27	34.137
535.62	34.673
535.96	34.508
536.30	36.346
536.64	34.528
536.98	35.401
537.32	35.277
537.66	35.764
538.01	36.364
538.35	34.743
538.69	35.553
539.03	34.450
539.37	36.070
539.71	35.855
540.05	35.709
540.39	35.249
540.73	35.495
541.07	36.602
541.42	35.887
541.76	35.513
542.10	35.719
542.44	35.094
542.78	34.136
543.12	36.264
543.46	35.605
543.80	35.323
544.14	33.845
544.48	35.376
544.82	36.979
545.16	35.519
545.50	35.180
545.84	35.340
546.18	35.887
546.52	34.679
546.86	35.370
547.20	34.835
547.54	34.770
547.88	34.239
548.22	34.583
548.56	35.092
548.90	36.051
549.24	35.055
549.58	35.614
549.92	33.738
550.26	35.092
550.60	35.613
550.94	34.503
551.28	35.394
551.62	35.923
551.96	34.812
552.30	35.526
552.64	35.190
552.98	35.091
553.32	35.235
553.66	35.631
554.00	35.328
554.34	35.451
554.68	35.472
555.02	36.235
555.36	34.705
555.69	35.238
556.03	35.261
556.37	34.875
556.71	34.874
557.05	35.645
557.39	34.201
557.73	35.757
558.07	36.501
558.41	34.992
558.75	34.684
559.08	36.249
559.42	35.635
559.76	35.308
560.10	36.239
560.44	35.369
560.78	35.664
561.12	35.684
561.45	35.840
561.79	35.644
562.13	36.409
562.47	35.899
562.81	35.519
563.15	35.261
563.48	34.795
563.82	36.307
564.16	34.958
564.50	34.459
564.84	35.609
565.17	35.547
565.51	35.929
565.85	35.185
566.19	35.610
566.52	35.992
566.86	35.925
567.20	34.994
567.54	35.584
567.88	36.087
568.21	35.916
568.55	35.163
568.89	35.164
569.23	35.002
569.56	35.070
569.90	35.648
570.24	35.393
570.57	34.545
570.91	35.239
571.25	34.199
571.59	33.946
571.92	34.222
572.26	34.118
572.60	33.736
572.93	33.856
573.27	34.263
573.61	34.159
573.95	33.807
574.28	33.686
574.62	33.740
574.96	33.757
575.29	34.427
575.63	33.428
575.97	33.776
576.30	34.327
576.64	33.536
576.98	34.234
577.31	33.620
577.65	34.381
577.98	34.235
578.32	33.869
578.66	33.742
578.99	33.879
579.33	33.425
579.67	33.131
580.00	33.772
580.34	33.905
580.67	33.457
581.01	33.718
581.35	33.592
581.68	33.930
582.02	33.933
582.35	33.928
582.69	33.093
583.02	33.070
583.36	33.688
583.70	33.775
584.03	33.500
584.37	34.387
584.70	34.066
585.04	33.083
585.37	34.079
585.71	33.992
586.04	34.014
586.38	32.942
586.72	33.257
587.05	33.969
587.39	33.855
587.72	34.910
588.06	34.016
588.39	33.438
588.73	33.913
589.06	34.279
589.40	33.598
589.73	34.173
590.07	34.215
590.40	34.868
590.73	34.226
591.07	33.715
591.40	33.526
591.74	34.796
592.07	33.998
592.41	35.247
592.74	34.090
593.08	34.090
593.41	34.728
593.75	33.857
594.08	34.089
594.41	34.461
594.75	33.626
595.08	34.166
595.42	33.898
595.75	34.210
596.09	34.206
596.42	34.560
596.75	34.813
597.09	34.487
597.42	34.508
597.75	34.814
598.09	33.409
598.42	33.890
598.76	34.406
599.09	33.974
599.42	33.611
599.76	34.011
600.09	34.540
600.42	33.548
600.76	33.730
601.09	33.702
601.42	33.333
601.76	34.339
602.09	34.035
602.42	35.131
602.76	34.168
603.09	33.887
603.42	35.242
603.76	34.355
604.09	33.536
604.42	34.222
604.76	34.891
605.09	33.729
605.42	34.312
605.75	34.370
606.09	34.437
606.42	32.777
606.75	34.113
607.09	34.813
607.42	32.964
607.75	34.591
608.08	33.513
608.42	34.399
608.75	34.506
609.08	34.778
609.41	34.670
609.75	33.972
610.08	35.896
610.41	34.155
610.74	33.447
611.07	34.109
611.41	35.184
611.74	35.021
612.07	34.208
612.40	35.120
612.73	33.616
613.07	32.677
613.40	34.573
613.73	34.079
614.06	34.001
614.39	35.025
614.72	33.501
615.06	34.134
615.39	32.751
615.72	34.123
616.05	34.413
616.38	32.536
616.71	34.557
617.05	34.775
617.38	33.690
617.71	33.962
618.04	35.556
618.37	34.994
618.70	34.917
619.03	34.097
619.36	33.719
619.69	34.647
620.03	35.354
620.36	34.549
620.69	34.761
621.02	33.563
621.35	35.602
621.68	34.099
622.01	35.333
622.34	34.956
622.67	35.410
623.00	33.614
623.33	34.451
623.66	33.807
623.99	33.510
624.32	34.829
624.65	33.910
624.99	35.290
625.32	32.752
625.65	35.114
625.98	34.811
626.31	33.583
626.64	33.969
626.97	34.904
627.30	35.026
627.63	33.709
627.96	34.771
628.29	35.523
628.62	34.513
628.95	35.371
629.28	36.492
629.61	35.494
629.94	35.679
630.26	34.091
630.59	36.420
630.92	35.590
631.25	33.538
631.58	36.674
631.91	33.662
632.24	36.583
632.57	35.114
632.90	36.299
633.23	36.706
633.56	36.020
633.89	34.895
634.22	37.160
