SpectraSuite Data File
++++++++++++++++++++++++++++++++++++
Date: Fri May 15 17:06:07 PDT 2015
User: schluterlab
Dark Spectrum Present: Yes
Reference Spectrum Present: Yes
Number of Sampled Component Spectra: 1
Spectrometers: USB2E3373
Integration Time (usec): 3000 (USB2E3373)
Spectra Averaged: 3 (USB2E3373)
Boxcar Smoothing: 0 (USB2E3373)
Correct for Electrical Dark: No (USB2E3373)
Strobe/Lamp Enabled: No (USB2E3373)
Correct for Detector Non-linearity: No (USB2E3373)
Correct for Stray Light: No (USB2E3373)
Number of Pixels in Processed Spectrum: 2048
>>>>>Begin Processed Spectral Data<<<<<
178.53	0.000
178.91	0.000
179.29	75.000
179.67	-250.000
180.04	-214.286
180.42	350.000
180.80	800.000
181.18	-166.667
181.56	-250.000
181.94	650.000
182.31	-200.000
182.69	160.000
183.07	133.333
183.45	60.000
183.83	-100.000
184.20	36.364
184.58	-0.000
184.96	-400.000
185.34	100.000
185.72	450.000
186.09	-0.000
186.47	-500.000
186.85	50.000
187.23	22.222
187.61	100.000
187.98	266.667
188.36	188.889
188.74	200.000
189.12	52.941
189.49	5.556
189.87	0.000
190.25	114.286
190.63	900.000
191.00	300.000
191.38	36.842
191.76	250.000
192.14	-150.000
192.51	350.000
192.89	66.667
193.27	128.571
193.65	-100.000
194.02	45.455
194.40	90.000
194.78	100.000
195.15	50.000
195.53	50.000
195.91	-100.000
196.29	250.000
196.66	15.385
197.04	-28.571
197.42	33.333
197.79	-200.000
198.17	-7.692
198.55	800.000
198.92	33.333
199.30	400.000
199.68	120.000
200.05	-66.667
200.43	0.000
200.81	266.667
201.18	400.000
201.56	-300.000
201.94	150.000
202.31	-966.667
202.69	-160.000
203.07	-0.000
203.44	1700.000
203.82	0.000
204.19	71.429
204.57	-166.667
204.95	100.000
205.32	180.000
205.70	242.857
206.08	200.000
206.45	322.222
206.83	92.857
207.20	157.143
207.58	-400.000
207.96	-133.333
208.33	100.000
208.71	400.000
209.08	233.333
209.46	300.000
209.84	180.000
210.21	200.000
210.59	242.857
210.96	133.333
211.34	275.000
211.71	133.333
212.09	-14.286
212.46	-300.000
212.84	0.000
213.22	230.000
213.59	400.000
213.97	130.769
214.34	145.455
214.72	0.000
215.09	250.000
215.47	61.538
215.84	36.364
216.22	300.000
216.59	187.500
216.97	900.000
217.34	-150.000
217.72	-40.000
218.09	275.000
218.47	-25.000
218.84	300.000
219.22	55.556
219.59	40.000
219.97	-200.000
220.34	-25.000
220.72	157.143
221.09	225.000
221.47	400.000
221.84	0.000
222.22	-400.000
222.59	-18.182
222.97	191.667
223.34	300.000
223.72	57.143
224.09	42.857
224.46	78.571
224.84	100.000
225.21	80.000
225.59	53.333
225.96	300.000
226.34	50.000
226.71	100.000
227.08	66.667
227.46	0.000
227.83	450.000
228.21	111.111
228.58	90.909
228.95	125.000
229.33	20.000
229.70	100.000
230.08	62.500
230.45	57.143
230.82	200.000
231.20	60.000
231.57	200.000
231.95	257.143
232.32	80.000
232.69	121.429
233.07	333.333
233.44	280.000
233.81	100.000
234.19	166.667
234.56	70.588
234.93	-650.000
235.31	350.000
235.68	140.000
236.05	38.462
236.43	75.000
236.80	94.118
237.17	68.750
237.55	155.000
237.92	44.444
238.29	94.444
238.67	113.333
239.04	82.353
239.41	80.488
239.79	103.333
240.16	102.439
240.53	94.737
240.91	89.130
241.28	79.365
241.65	94.643
242.02	68.493
242.40	101.667
242.77	89.831
243.14	87.879
243.51	78.750
243.89	95.402
244.26	72.414
244.63	84.524
245.00	77.320
245.38	94.845
245.75	87.640
246.12	68.966
246.49	76.033
246.87	81.731
247.24	82.353
247.61	83.333
247.98	89.431
248.36	75.000
248.73	80.921
249.10	77.273
249.47	80.380
249.84	82.353
250.22	78.824
250.59	81.046
250.96	73.709
251.33	83.721
251.70	79.412
252.08	78.680
252.45	82.673
252.82	77.387
253.19	80.184
253.56	80.841
253.94	72.973
254.31	74.783
254.68	80.263
255.05	73.228
255.42	76.856
255.79	70.656
256.16	70.817
256.54	75.746
256.91	77.567
257.28	72.862
257.65	77.528
258.02	74.113
258.39	76.768
258.76	80.952
259.14	78.405
259.51	72.816
259.88	78.694
260.25	72.876
260.62	80.556
260.99	78.644
261.36	75.342
261.73	73.418
262.10	76.596
262.47	76.074
262.85	73.041
263.22	71.385
263.59	74.455
263.96	81.988
264.33	81.212
264.70	76.190
265.07	77.679
265.44	80.737
265.81	76.836
266.18	77.596
266.55	73.265
266.92	74.870
267.29	77.546
267.66	75.703
268.03	74.607
268.40	76.762
268.77	81.016
269.14	72.422
269.51	75.321
269.88	74.564
270.25	75.255
270.62	69.756
270.99	71.355
271.36	69.193
271.73	72.300
272.10	76.399
272.47	74.468
272.84	76.485
273.21	73.086
273.58	73.012
273.95	70.252
274.32	73.441
274.69	71.946
275.06	74.330
275.43	71.429
275.80	73.510
276.17	71.724
276.54	69.379
276.91	77.412
277.28	70.087
277.65	70.041
278.02	69.149
278.39	69.584
278.76	68.553
279.13	68.880
279.50	71.218
279.87	71.490
280.23	68.172
280.60	68.811
280.97	71.111
281.34	66.923
281.71	70.637
282.08	68.712
282.45	67.319
282.82	67.954
283.19	68.279
283.56	68.786
283.92	68.311
284.29	65.577
284.66	68.217
285.03	65.619
285.40	66.730
285.77	67.663
286.14	62.996
286.51	68.450
286.87	65.448
287.24	68.324
287.61	64.550
287.98	65.789
288.35	63.432
288.72	63.573
289.08	62.847
289.45	62.742
289.82	62.063
290.19	61.775
290.56	59.520
290.93	60.943
291.29	57.165
291.66	58.583
292.03	59.968
292.40	55.484
292.77	56.938
293.13	56.169
293.50	56.601
293.87	57.252
294.24	54.714
294.60	54.844
294.97	54.613
295.34	54.908
295.71	53.651
296.08	54.111
296.44	50.782
296.81	51.250
297.18	51.739
297.55	51.762
297.91	52.055
298.28	50.132
298.65	49.525
299.02	49.326
299.38	48.837
299.75	50.069
300.12	47.906
300.48	49.275
300.85	46.261
301.22	48.052
301.59	49.342
301.95	47.215
302.32	49.027
302.69	49.129
303.05	46.163
303.42	46.575
303.79	46.729
304.15	45.400
304.52	45.065
304.89	43.392
305.25	45.157
305.62	45.741
305.99	44.678
306.35	44.393
306.72	43.870
307.09	45.382
307.45	45.235
307.82	44.907
308.19	45.528
308.55	44.166
308.92	45.752
309.29	44.358
309.65	42.411
310.02	43.234
310.38	44.457
310.75	44.918
311.12	44.133
311.48	44.221
311.85	42.513
312.22	41.456
312.58	43.100
312.95	42.263
313.31	44.306
313.68	43.141
314.05	42.857
314.41	44.845
314.78	43.814
315.14	42.857
315.51	42.236
315.87	42.930
316.24	44.287
316.61	44.587
316.97	45.337
317.34	43.262
317.70	43.308
318.07	43.750
318.43	46.078
318.80	44.792
319.16	44.922
319.53	44.919
319.89	46.260
320.26	46.053
320.62	47.442
320.99	47.077
321.35	48.818
321.72	47.456
322.08	48.137
322.45	49.746
322.81	49.705
323.18	49.166
323.54	49.807
323.91	51.607
324.27	51.660
324.64	53.558
325.00	53.011
325.37	55.556
325.73	54.125
326.10	56.857
326.46	56.951
326.83	57.218
327.19	57.716
327.56	58.384
327.92	60.299
328.29	59.554
328.65	62.358
329.01	60.386
329.38	63.871
329.74	63.551
330.11	62.373
330.47	63.822
330.84	65.577
331.20	68.346
331.56	64.167
331.93	67.489
332.29	68.103
332.66	66.697
333.02	68.123
333.38	67.919
333.75	67.857
334.11	66.338
334.48	71.714
334.84	69.048
335.20	70.814
335.57	69.356
335.93	70.190
336.29	70.350
336.66	69.391
337.02	69.610
337.38	70.000
337.75	72.273
338.11	72.588
338.47	72.536
338.84	72.643
339.20	71.115
339.56	72.569
339.93	72.158
340.29	73.945
340.65	72.222
341.02	71.543
341.38	71.681
341.74	71.731
342.11	70.797
342.47	72.420
342.83	72.924
343.20	71.341
343.56	71.739
343.92	72.896
344.28	71.136
344.65	71.416
345.01	72.602
345.37	70.648
345.73	70.962
346.10	74.202
346.46	72.161
346.82	71.113
347.19	70.989
347.55	72.180
347.91	71.359
348.27	69.846
348.63	73.254
349.00	70.714
349.36	72.485
349.72	73.964
350.08	70.902
350.45	71.269
350.81	71.844
351.17	71.091
351.53	71.020
351.89	70.273
352.26	71.920
352.62	72.016
352.98	70.522
353.34	70.853
353.70	70.388
354.07	71.694
354.43	70.216
354.79	73.080
355.15	71.429
355.51	72.073
355.87	72.735
356.24	71.941
356.60	69.281
356.96	72.381
357.32	70.687
357.68	69.977
358.04	72.859
358.40	72.910
358.77	72.488
359.13	71.898
359.49	70.878
359.85	72.231
360.21	71.930
360.57	71.385
360.93	71.483
361.29	70.997
361.66	72.335
362.02	72.348
362.38	73.115
362.74	74.716
363.10	74.944
363.46	72.424
363.82	73.028
364.18	71.956
364.54	71.471
364.90	72.832
365.26	72.926
365.62	74.453
365.98	73.094
366.35	73.853
366.71	75.166
367.07	73.730
367.43	75.126
367.79	73.286
368.15	74.085
368.51	74.363
368.87	74.587
369.23	73.357
369.59	75.146
369.95	75.953
370.31	74.855
370.67	75.000
371.03	73.488
371.39	73.815
371.75	74.286
372.11	74.608
372.47	76.627
372.83	74.805
373.19	74.679
373.55	73.935
373.91	75.162
374.27	76.258
374.63	77.100
374.99	75.745
375.35	76.950
375.71	77.762
376.07	75.562
376.42	76.735
376.78	76.242
377.14	77.116
377.50	77.490
377.86	78.179
378.22	76.388
378.58	76.923
378.94	77.757
379.30	77.792
379.66	78.997
380.02	77.928
380.38	76.263
380.74	76.960
381.09	79.202
381.45	78.287
381.81	79.087
382.17	78.871
382.53	79.013
382.89	80.352
383.25	79.527
383.61	79.207
383.97	78.603
384.32	78.236
384.68	79.752
385.04	79.044
385.40	79.465
385.76	82.453
386.12	82.083
386.48	81.673
386.83	80.659
387.19	80.159
387.55	81.305
387.91	82.090
388.27	81.441
388.62	81.435
388.98	81.522
389.34	80.512
389.70	81.106
390.06	79.924
390.42	80.246
390.77	80.903
391.13	81.463
391.49	82.212
391.85	81.676
392.20	82.109
392.56	83.344
392.92	81.973
393.28	81.663
393.64	82.282
393.99	82.382
394.35	81.720
394.71	81.226
395.07	80.955
395.42	80.814
395.78	82.671
396.14	82.282
396.50	83.513
396.85	82.872
397.21	81.579
397.57	81.944
397.92	80.827
398.28	83.276
398.64	80.181
399.00	81.321
399.35	80.756
399.71	80.930
400.07	82.285
400.42	80.294
400.78	81.813
401.14	80.278
401.49	79.869
401.85	80.804
402.21	79.096
402.57	81.438
402.92	79.674
403.28	82.206
403.63	83.417
403.99	82.015
404.35	80.700
404.70	79.167
405.06	80.141
405.42	78.247
405.77	79.372
406.13	81.141
406.49	79.751
406.84	80.929
407.20	79.711
407.55	78.558
407.91	78.409
408.27	80.242
408.62	80.123
408.98	78.743
409.34	80.855
409.69	79.005
410.05	77.094
410.40	79.877
410.76	79.192
411.11	79.000
411.47	80.145
411.83	79.849
412.18	80.759
412.54	79.213
412.89	78.264
413.25	78.520
413.60	78.944
413.96	76.687
414.31	79.939
414.67	78.448
415.03	78.429
415.38	79.373
415.74	78.241
416.09	80.078
416.45	79.001
416.80	80.106
417.16	80.939
417.51	78.681
417.87	78.357
418.22	80.829
418.58	79.866
418.93	80.439
419.29	79.962
419.64	80.363
420.00	82.242
420.35	80.119
420.71	80.498
421.06	79.619
421.42	81.310
421.77	80.173
422.12	81.612
422.48	80.022
422.83	81.497
423.19	81.377
423.54	81.305
423.90	81.508
424.25	80.425
424.61	82.375
424.96	81.591
425.31	83.073
425.67	82.277
426.02	82.509
426.38	84.220
426.73	83.293
427.09	83.797
427.44	82.882
427.79	82.499
428.15	81.311
428.50	83.343
428.85	82.187
429.21	83.362
429.56	85.822
429.92	83.821
430.27	82.406
430.62	84.004
430.98	84.820
431.33	84.858
431.68	84.197
432.04	84.964
432.39	82.373
432.74	82.321
433.10	85.575
433.45	84.707
433.80	87.464
434.16	85.263
434.51	86.720
434.86	86.411
435.22	84.801
435.57	87.461
435.92	86.946
436.28	86.285
436.63	87.222
436.98	86.153
437.34	86.570
437.69	87.835
438.04	87.123
438.39	88.821
438.75	89.678
439.10	87.493
439.45	88.801
439.81	87.890
440.16	89.549
440.51	89.134
440.86	90.514
441.22	88.122
441.57	89.735
441.92	90.136
442.27	91.630
442.63	90.471
442.98	90.063
443.33	89.427
443.68	91.141
444.03	90.859
444.39	90.556
444.74	93.423
445.09	91.425
445.44	92.251
445.79	92.316
446.15	90.198
446.50	92.291
446.85	94.527
447.20	92.231
447.55	93.583
447.91	91.709
448.26	92.373
448.61	92.689
448.96	94.894
449.31	92.890
449.66	92.799
450.02	93.440
450.37	94.606
450.72	92.383
451.07	94.304
451.42	91.760
451.77	93.430
452.12	92.045
452.47	92.659
452.83	93.581
453.18	92.410
453.53	93.300
453.88	94.171
454.23	92.256
454.58	96.411
454.93	94.072
455.28	91.810
455.63	94.792
455.98	94.047
456.34	94.444
456.69	95.616
457.04	94.896
457.39	94.168
457.74	94.377
458.09	92.760
458.44	94.558
458.79	94.006
459.14	92.735
459.49	97.134
459.84	93.683
460.19	96.238
460.54	95.538
460.89	94.432
461.24	93.851
461.59	93.943
461.94	93.145
462.29	93.064
462.64	96.080
462.99	94.381
463.34	93.324
463.69	95.367
464.04	94.613
464.39	94.906
464.74	94.356
465.09	94.386
465.44	95.788
465.79	94.841
466.14	94.869
466.49	93.905
466.84	94.349
467.19	94.055
467.54	92.912
467.89	94.188
468.24	93.856
468.59	95.302
468.94	92.698
469.29	93.836
469.64	94.190
469.99	94.324
470.34	93.311
470.68	94.482
471.03	94.126
471.38	93.438
471.73	94.258
472.08	93.012
472.43	94.899
472.78	91.912
473.13	94.422
473.48	93.160
473.83	92.902
474.17	95.142
474.52	92.406
474.87	93.636
475.22	94.692
475.57	93.168
475.92	93.472
476.27	93.888
476.61	94.502
476.96	93.084
477.31	93.023
477.66	91.854
478.01	94.722
478.36	93.355
478.70	94.562
479.05	92.967
479.40	91.892
479.75	91.502
480.10	93.190
480.45	94.200
480.79	95.267
481.14	96.107
481.49	94.138
481.84	94.208
482.19	93.966
482.53	94.101
482.88	92.267
483.23	91.939
483.58	92.170
483.92	92.304
484.27	91.613
484.62	92.694
484.97	93.740
485.31	95.051
485.66	95.218
486.01	97.132
486.36	97.897
486.70	95.748
487.05	95.778
487.40	94.648
487.75	94.507
488.09	93.511
488.44	92.400
488.79	91.819
489.13	92.027
489.48	93.288
489.83	90.852
490.17	92.360
490.52	91.224
490.87	89.727
491.22	92.980
491.56	89.279
491.91	90.966
492.26	92.659
492.60	90.211
492.95	92.327
493.30	89.643
493.64	92.583
493.99	90.338
494.34	90.631
494.68	91.619
495.03	90.316
495.37	91.168
495.72	91.772
496.07	92.195
496.41	90.472
496.76	91.755
497.11	91.244
497.45	92.076
497.80	91.473
498.14	90.412
498.49	91.569
498.84	90.768
499.18	92.420
499.53	90.228
499.87	92.218
500.22	93.126
500.56	91.931
500.91	91.315
501.26	90.262
501.60	90.753
501.95	91.460
502.29	92.107
502.64	92.181
502.98	92.057
503.33	90.682
503.67	91.229
504.02	92.473
504.36	91.687
504.71	90.657
505.06	89.381
505.40	90.558
505.75	91.856
506.09	89.002
506.44	92.967
506.78	91.020
507.13	90.486
507.47	89.243
507.82	90.331
508.16	90.333
508.51	92.445
508.85	90.999
509.19	92.283
509.54	90.134
509.88	90.669
510.23	92.792
510.57	90.112
510.92	88.859
511.26	92.144
511.61	90.649
511.95	89.973
512.30	90.854
512.64	89.371
512.98	89.893
513.33	89.312
513.67	89.483
514.02	91.419
514.36	90.457
514.70	91.492
515.05	91.716
515.39	89.433
515.74	91.437
516.08	90.317
516.42	91.519
516.77	89.643
517.11	91.395
517.46	91.562
517.80	89.094
518.14	89.039
518.49	89.002
518.83	90.401
519.17	89.569
519.52	89.165
519.86	89.256
520.20	91.130
520.55	88.680
520.89	89.774
521.23	88.030
521.58	90.410
521.92	89.231
522.26	90.046
522.61	88.506
522.95	91.192
523.29	88.183
523.64	89.835
523.98	90.992
524.32	89.111
524.66	89.629
525.01	89.805
525.35	89.047
525.69	90.438
526.04	87.698
526.38	89.948
526.72	87.443
527.06	89.040
527.41	87.995
527.75	89.343
528.09	87.973
528.43	89.467
528.78	90.429
529.12	91.161
529.46	89.474
529.80	88.347
530.15	90.891
530.49	90.572
530.83	89.808
531.17	89.523
531.51	89.603
531.86	88.375
532.20	89.770
532.54	90.402
532.88	89.459
533.22	89.180
533.57	89.318
533.91	90.274
534.25	91.862
534.59	89.480
534.93	89.301
535.27	89.404
535.62	88.983
535.96	88.715
536.30	90.237
536.64	91.247
536.98	87.596
537.32	91.679
537.66	90.673
538.01	90.280
538.35	89.390
538.69	88.748
539.03	90.362
539.37	89.838
539.71	88.821
540.05	87.305
540.39	89.543
540.73	89.819
541.07	91.022
541.42	88.575
541.76	90.778
542.10	89.952
542.44	89.437
542.78	87.681
543.12	91.209
543.46	92.281
543.80	89.452
544.14	86.315
544.48	89.074
544.82	91.046
545.16	92.077
545.50	89.853
545.84	91.431
546.18	91.206
546.52	88.969
546.86	89.145
547.20	91.559
547.54	87.703
547.88	90.421
548.22	89.744
548.56	89.248
548.90	92.049
549.24	88.981
549.58	89.774
549.92	87.563
550.26	88.645
550.60	91.227
550.94	88.947
551.28	90.572
551.62	90.692
551.96	90.226
552.30	91.228
552.64	89.351
552.98	89.381
553.32	90.514
553.66	89.985
554.00	92.701
554.34	91.728
554.68	88.938
555.02	90.476
555.36	91.324
555.69	90.623
556.03	89.936
556.37	89.680
556.71	90.108
557.05	91.275
557.39	88.773
557.73	91.604
558.07	90.950
558.41	91.041
558.75	91.115
559.08	88.889
559.42	90.635
559.76	92.554
560.10	90.061
560.44	90.692
560.78	90.559
561.12	91.396
561.45	94.308
561.79	91.667
562.13	93.116
562.47	91.295
562.81	91.427
563.15	91.678
563.48	91.160
563.82	92.588
564.16	93.733
564.50	91.284
564.84	91.031
565.17	93.092
565.51	96.995
565.85	94.856
566.19	92.507
566.52	95.107
566.86	93.316
567.20	94.521
567.54	96.472
567.88	96.075
568.21	97.172
568.55	96.304
568.89	97.433
569.23	98.122
569.56	99.299
569.90	99.919
570.24	98.325
570.57	100.182
570.91	100.837
571.25	98.849
571.59	98.692
571.92	97.452
572.26	99.517
572.60	98.946
572.93	98.306
573.27	98.213
573.61	99.045
573.95	99.590
574.28	98.994
574.62	99.466
574.96	98.604
575.29	98.990
575.63	97.616
575.97	98.319
576.30	98.735
576.64	98.464
576.98	99.588
577.31	101.401
577.65	100.573
577.98	101.183
578.32	100.271
578.66	98.603
578.99	98.620
579.33	98.076
579.67	97.376
580.00	99.342
580.34	100.075
580.67	98.615
581.01	100.336
581.35	100.237
581.68	101.870
582.02	102.110
582.35	101.058
582.69	102.006
583.02	100.299
583.36	100.331
583.70	100.883
584.03	101.529
584.37	102.626
584.70	100.192
585.04	99.974
585.37	100.934
585.71	101.382
586.04	101.412
586.38	100.427
586.72	102.611
587.05	101.098
587.39	102.740
587.72	103.609
588.06	101.827
588.39	101.737
588.73	101.740
589.06	101.663
589.40	101.763
589.73	101.570
590.07	101.511
590.40	101.664
590.73	104.201
591.07	101.315
591.40	100.935
591.74	101.448
592.07	100.974
592.41	101.325
592.74	100.677
593.08	101.013
593.41	103.855
593.75	104.024
594.08	101.167
594.41	101.310
594.75	103.092
595.08	101.476
595.42	103.644
595.75	104.168
596.09	102.033
596.42	101.695
596.75	101.288
597.09	100.957
597.42	101.671
597.75	103.848
598.09	100.000
598.42	101.805
598.76	101.973
599.09	101.603
599.42	102.274
599.76	100.978
600.09	101.584
600.42	101.592
600.76	102.192
601.09	103.206
601.42	100.940
601.76	102.382
602.09	102.393
602.42	103.412
602.76	103.438
603.09	103.613
603.42	105.477
603.76	103.952
604.09	104.496
604.42	103.892
604.76	103.382
605.09	102.422
605.42	101.896
605.75	103.284
606.09	103.609
606.42	101.209
606.75	102.035
607.09	101.802
607.42	102.570
607.75	102.442
608.08	101.033
608.42	99.452
608.75	102.506
609.08	104.634
609.41	103.046
609.75	102.319
610.08	103.545
610.41	102.174
610.74	102.974
611.07	103.307
611.41	103.840
611.74	104.211
612.07	101.552
612.40	101.696
612.73	104.181
613.07	99.550
613.40	100.383
613.73	103.022
614.06	101.614
614.39	103.271
614.72	102.297
615.06	102.291
615.39	100.328
615.72	100.753
616.05	102.458
616.38	101.311
616.71	102.202
617.05	101.359
617.38	101.320
617.71	103.774
618.04	103.683
618.37	102.081
618.70	102.706
619.03	100.556
619.36	100.434
619.69	103.487
620.03	104.091
620.36	101.645
620.69	101.499
621.02	98.624
621.35	100.332
621.68	101.020
622.01	100.667
622.34	101.437
622.67	99.132
623.00	99.770
623.33	101.372
623.66	100.075
623.99	100.227
624.32	102.662
624.65	102.707
624.99	101.129
625.32	100.531
625.65	102.671
625.98	102.095
626.31	100.083
626.64	100.607
626.97	100.960
627.30	98.774
627.63	99.047
627.96	100.090
628.29	97.502
628.62	100.197
628.95	98.297
629.28	101.109
629.61	99.501
629.94	98.827
630.26	97.826
630.59	101.353
