SpectraSuite Data File
++++++++++++++++++++++++++++++++++++
Date: Fri May 15 20:12:04 PDT 2015
User: schluterlab
Dark Spectrum Present: Yes
Reference Spectrum Present: Yes
Number of Sampled Component Spectra: 1
Spectrometers: USB2E3373
Integration Time (usec): 3000 (USB2E3373)
Spectra Averaged: 3 (USB2E3373)
Boxcar Smoothing: 0 (USB2E3373)
Correct for Electrical Dark: No (USB2E3373)
Strobe/Lamp Enabled: No (USB2E3373)
Correct for Detector Non-linearity: No (USB2E3373)
Correct for Stray Light: No (USB2E3373)
Number of Pixels in Processed Spectrum: 2048
>>>>>Begin Processed Spectral Data<<<<<
178.53	0.000
178.91	0.000
179.29	175.000
179.67	-250.000
180.04	-28.571
180.42	50.000
180.80	-100.000
181.18	-0.000
181.56	150.000
181.94	250.000
182.31	500.000
182.69	160.000
183.07	166.667
183.45	-120.000
183.83	50.000
184.20	45.455
184.58	33.333
184.96	50.000
185.34	-166.667
185.72	100.000
186.09	53.846
186.47	-200.000
186.85	-0.000
187.23	111.111
187.61	-800.000
187.98	-100.000
188.36	88.889
188.74	66.667
189.12	58.824
189.49	38.889
189.87	0.000
190.25	50.000
190.63	-100.000
191.00	133.333
191.38	42.105
191.76	400.000
192.14	50.000
192.51	50.000
192.89	-44.444
193.27	-71.429
193.65	183.333
194.02	100.000
194.40	50.000
194.78	-100.000
195.15	16.667
195.53	-62.500
195.91	375.000
196.29	150.000
196.66	53.846
197.04	-28.571
197.42	-22.222
197.79	-233.333
198.17	23.077
198.55	-100.000
198.92	-233.333
199.30	-400.000
199.68	-140.000
200.05	-133.333
200.43	0.000
200.81	-100.000
201.18	0.000
201.56	1200.000
201.94	300.000
202.31	100.000
202.69	100.000
203.07	-50.000
203.44	300.000
203.82	0.000
204.19	14.286
204.57	-466.667
204.95	-12.500
205.32	40.000
205.70	-14.286
206.08	25.000
206.45	22.222
206.83	21.429
207.20	-14.286
207.58	-400.000
207.96	100.000
208.33	30.000
208.71	150.000
209.08	-133.333
209.46	-100.000
209.84	80.000
210.21	-100.000
210.59	100.000
210.96	83.333
211.34	25.000
211.71	6.667
212.09	-57.143
212.46	-1500.000
212.84	0.000
213.22	100.000
213.59	300.000
213.97	92.308
214.34	54.545
214.72	-33.333
215.09	275.000
215.47	61.538
215.84	36.364
216.22	-66.667
216.59	0.000
216.97	300.000
217.34	-125.000
217.72	-120.000
218.09	162.500
218.47	137.500
218.84	-100.000
219.22	-66.667
219.59	60.000
219.97	66.667
220.34	75.000
220.72	71.429
221.09	200.000
221.47	-200.000
221.84	-100.000
222.22	-750.000
222.59	-27.273
222.97	8.333
223.34	33.333
223.72	-7.143
224.09	57.143
224.46	3.571
224.84	166.667
225.21	70.000
225.59	93.333
225.96	550.000
226.34	150.000
226.71	57.143
227.08	-116.667
227.46	112.500
227.83	-300.000
228.21	-33.333
228.58	54.545
228.95	0.000
229.33	110.000
229.70	6.250
230.08	-25.000
230.45	-57.143
230.82	185.714
231.20	-13.333
231.57	50.000
231.95	114.286
232.32	-100.000
232.69	21.429
233.07	-133.333
233.44	-80.000
233.81	-80.000
234.19	-77.778
234.56	11.765
234.93	-0.000
235.31	-50.000
235.68	-240.000
236.05	-61.538
236.43	-35.000
236.80	17.647
237.17	6.250
237.55	-10.000
237.92	0.000
238.29	8.333
238.67	10.000
239.04	0.000
239.41	-31.707
239.79	-26.667
240.16	2.439
240.53	5.263
240.91	-8.696
241.28	1.587
241.65	-10.714
242.02	13.699
242.40	5.000
242.77	-8.475
243.14	-7.576
243.51	3.750
243.89	4.598
244.26	-4.598
244.63	5.952
245.00	7.216
245.38	4.124
245.75	-7.865
246.12	-3.448
246.49	-1.653
246.87	5.769
247.24	-2.521
247.61	-10.526
247.98	-11.382
248.36	-5.000
248.73	2.632
249.10	1.948
249.47	-2.532
249.84	1.961
250.22	2.941
250.59	-0.654
250.96	7.042
251.33	-4.070
251.70	8.235
252.08	2.538
252.45	-1.485
252.82	5.025
253.19	1.382
253.56	-7.009
253.94	2.703
254.31	3.478
254.68	0.439
255.05	1.575
255.42	2.620
255.79	-0.772
256.16	-0.389
256.54	1.493
256.91	-5.323
257.28	-0.743
257.65	-1.498
258.02	2.128
258.39	2.694
258.76	2.564
259.14	2.326
259.51	0.647
259.88	-2.749
260.25	0.000
260.62	3.125
260.99	-0.678
261.36	-2.055
261.73	-0.949
262.10	-0.304
262.47	0.000
262.85	-1.567
263.22	-3.385
263.59	1.246
263.96	-1.242
264.33	-2.121
264.70	-0.595
265.07	-1.786
265.44	-0.850
265.81	2.260
266.18	-1.093
266.55	2.057
266.92	2.591
267.29	0.522
267.66	1.535
268.03	1.309
268.40	0.522
268.77	2.139
269.14	2.638
269.51	1.799
269.88	-0.998
270.25	-3.061
270.62	-1.951
270.99	-2.558
271.36	-2.200
271.73	1.174
272.10	-1.460
272.47	0.236
272.84	0.000
273.21	1.624
273.58	2.651
273.95	1.602
274.32	0.231
274.69	-1.584
275.06	1.786
275.43	-2.041
275.80	-0.221
276.17	-1.149
276.54	1.071
276.91	0.219
277.28	0.873
277.65	1.653
278.02	0.638
278.39	-1.751
278.76	-0.839
279.13	-5.394
279.50	-1.261
279.87	1.728
280.23	-1.505
280.60	0.975
280.97	-0.808
281.34	-1.538
281.71	-0.205
282.08	0.409
282.45	0.000
282.82	-0.386
283.19	-0.580
283.56	0.000
283.92	-2.467
284.29	0.577
284.66	1.744
285.03	-0.393
285.40	-0.189
285.77	0.527
286.14	0.722
286.51	0.554
286.87	-1.097
287.24	0.552
287.61	-1.764
287.98	0.702
288.35	-0.347
288.72	0.175
289.08	-1.562
289.45	1.582
289.82	1.573
290.19	0.000
290.56	-0.686
290.93	-1.178
291.29	0.000
291.66	2.362
292.03	-0.638
292.40	0.806
292.77	1.595
293.13	-1.948
293.50	-0.303
293.87	0.916
294.24	0.309
294.60	0.447
294.97	1.786
295.34	-0.460
295.71	0.149
296.08	0.747
296.44	-1.991
296.81	0.139
297.18	0.725
297.55	1.355
297.91	0.411
298.28	2.770
298.65	0.271
299.02	0.000
299.38	-2.052
299.75	-0.276
300.12	-0.131
300.48	-0.264
300.85	0.507
301.22	-0.649
301.59	-0.658
301.95	0.506
302.32	2.075
302.69	0.746
303.05	-0.124
303.42	1.245
303.79	2.103
304.15	1.075
304.52	-0.476
304.89	-0.468
305.25	-0.121
305.62	0.467
305.99	-0.468
306.35	-0.925
306.72	0.900
307.09	-0.342
307.45	1.378
307.82	0.694
308.19	0.465
308.55	-0.545
308.92	1.198
309.29	-1.229
309.65	0.538
310.02	0.990
310.38	0.000
310.75	0.219
311.12	0.000
311.48	0.530
311.85	0.314
312.22	-0.844
312.58	-0.318
312.95	-0.747
313.31	-1.242
313.68	-1.466
314.05	0.204
314.41	0.515
314.78	1.237
315.14	1.233
315.51	1.967
315.87	0.820
316.24	1.719
316.61	1.673
316.97	1.587
317.34	1.367
317.70	0.382
318.07	1.635
318.43	1.667
318.80	1.799
319.16	1.953
319.53	3.229
319.89	1.969
320.26	2.328
320.62	2.307
320.99	2.192
321.35	2.569
321.72	2.077
322.08	3.323
322.45	3.046
322.81	3.635
323.18	3.925
323.54	3.958
323.91	4.090
324.27	5.762
324.64	6.180
325.00	6.113
325.37	7.438
325.73	5.621
326.10	7.629
326.46	7.982
326.83	8.749
327.19	9.503
327.56	9.470
327.92	9.507
328.29	8.839
328.65	10.660
329.01	10.937
329.38	10.415
329.74	9.726
330.11	11.307
330.47	11.596
330.84	10.481
331.20	13.118
331.56	12.130
331.93	14.064
332.29	13.749
332.66	13.665
333.02	12.918
333.38	13.474
333.75	15.201
334.11	13.250
334.48	14.687
334.84	14.927
335.20	14.547
335.57	13.690
335.93	15.628
336.29	16.206
336.66	14.532
337.02	14.033
337.38	13.981
337.75	15.455
338.11	14.518
338.47	16.423
338.84	15.804
339.20	16.636
339.56	15.780
339.93	17.368
340.29	16.330
340.65	16.935
341.02	16.046
341.38	15.398
341.74	15.371
342.11	16.291
342.47	16.459
342.83	15.744
343.20	15.767
343.56	16.522
343.92	16.475
344.28	17.763
344.65	15.976
345.01	15.903
345.37	15.475
345.73	15.900
346.10	16.566
346.46	15.980
346.82	16.776
347.19	16.043
347.55	16.374
347.91	16.262
348.27	16.087
348.63	17.376
349.00	16.981
349.36	16.958
349.72	16.335
350.08	16.885
350.45	16.361
350.81	15.615
351.17	15.065
351.53	17.878
351.89	16.515
352.26	16.560
352.62	17.339
352.98	16.546
353.34	16.586
353.70	16.262
354.07	17.823
354.43	16.894
354.79	17.589
355.15	17.302
355.51	17.089
355.87	17.557
356.24	16.232
356.60	16.653
356.96	17.302
357.32	16.933
357.68	17.045
358.04	16.801
358.40	17.444
358.77	18.421
359.13	18.014
359.49	17.411
359.85	17.707
360.21	16.667
360.57	16.526
360.93	18.079
361.29	16.390
361.66	17.947
362.02	18.030
362.38	17.974
362.74	17.562
363.10	17.983
363.46	17.643
363.82	18.633
364.18	18.229
364.54	17.574
364.90	17.706
365.26	18.049
365.62	19.124
365.98	17.302
366.35	19.009
366.71	17.369
367.07	18.287
367.43	18.692
367.79	17.244
368.15	18.306
368.51	17.771
368.87	17.588
369.23	17.473
369.59	18.003
369.95	19.575
370.31	18.280
370.67	18.433
371.03	17.774
371.39	18.089
371.75	18.535
372.11	19.757
372.47	18.713
372.83	19.163
373.19	18.759
373.55	17.690
373.91	18.359
374.27	19.490
374.63	20.101
374.99	19.007
375.35	19.916
375.71	20.909
376.07	19.101
376.42	19.932
376.78	19.933
377.14	20.108
377.50	19.655
377.86	20.950
378.22	20.676
378.58	20.192
378.94	20.416
379.30	21.148
379.66	20.752
380.02	19.926
380.38	20.146
380.74	22.023
381.09	21.963
381.45	21.346
381.81	20.790
382.17	21.129
382.53	20.362
382.89	21.155
383.25	21.593
383.61	22.256
383.97	21.333
384.32	21.388
384.68	21.858
385.04	21.569
385.40	21.157
385.76	22.075
386.12	21.992
386.48	22.733
386.83	22.257
387.19	22.222
387.55	22.836
387.91	22.188
388.27	21.856
388.62	22.907
388.98	21.854
389.34	23.111
389.70	22.561
390.06	22.026
390.42	22.280
390.77	22.956
391.13	22.762
391.49	23.221
391.85	23.002
392.20	23.227
392.56	22.950
392.92	23.782
393.28	23.762
393.64	22.523
393.99	24.765
394.35	23.782
394.71	23.883
395.07	22.062
395.42	23.315
395.78	23.518
396.14	22.762
396.50	23.843
396.85	23.889
397.21	23.246
397.57	23.762
397.92	23.128
398.28	23.966
398.64	22.349
399.00	23.646
399.35	23.646
399.71	23.148
400.07	24.244
400.42	23.133
400.78	23.393
401.14	24.380
401.49	24.419
401.85	23.461
402.21	23.855
402.57	24.000
402.92	23.400
403.28	23.434
403.63	23.266
403.99	23.151
404.35	23.673
404.70	23.274
405.06	23.325
405.42	23.928
405.77	22.661
406.13	23.225
406.49	22.617
406.84	23.594
407.20	23.781
407.55	23.181
407.91	23.730
408.27	23.136
408.62	23.446
408.98	23.229
409.34	22.367
409.69	22.610
410.05	22.167
410.40	22.840
410.76	22.316
411.11	22.312
411.47	22.485
411.83	22.222
412.18	22.458
412.54	22.097
412.89	22.229
413.25	22.984
413.60	22.422
413.96	22.086
414.31	23.049
414.67	22.450
415.03	23.103
415.38	23.172
415.74	23.257
416.09	22.534
416.45	22.350
416.80	23.133
417.16	23.204
417.51	22.851
417.87	22.816
418.22	22.539
418.58	22.408
418.93	23.135
419.29	21.575
419.64	22.813
420.00	24.055
420.35	22.269
420.71	22.904
421.06	22.345
421.42	23.077
421.77	22.312
422.12	23.042
422.48	23.443
422.83	23.202
423.19	22.460
423.54	22.693
423.90	22.497
424.25	22.905
424.61	23.133
424.96	23.229
425.31	24.379
425.67	22.887
426.02	23.793
426.38	23.544
426.73	23.668
427.09	23.987
427.44	23.765
427.79	23.630
428.15	23.786
428.50	23.440
428.85	22.543
429.21	24.561
429.56	25.229
429.92	23.883
430.27	23.910
430.62	23.471
430.98	23.779
431.33	24.238
431.68	23.600
432.04	24.762
432.39	24.073
432.74	23.752
433.10	24.138
433.45	24.373
433.80	23.680
434.16	23.213
434.51	24.194
434.86	24.274
435.22	24.229
435.57	24.579
435.92	23.952
436.28	23.315
436.63	24.130
436.98	23.696
437.34	23.775
437.69	25.283
438.04	24.729
438.39	23.763
438.75	25.197
439.10	24.222
439.45	25.137
439.81	23.853
440.16	24.941
440.51	25.552
440.86	25.317
441.22	23.925
441.57	23.455
441.92	25.498
442.27	24.889
442.63	24.732
442.98	24.756
443.33	24.485
443.68	24.297
444.03	24.739
444.39	24.299
444.74	25.139
445.09	24.944
445.44	25.014
445.79	25.941
446.15	25.055
446.50	24.570
446.85	25.080
447.20	24.505
447.55	25.000
447.91	24.535
448.26	25.327
448.61	25.158
448.96	25.129
449.31	24.335
449.66	23.635
450.02	25.157
450.37	24.778
450.72	25.086
451.07	24.557
451.42	24.032
451.77	24.714
452.12	24.462
452.47	24.018
452.83	24.853
453.18	24.921
453.53	24.716
453.88	25.137
454.23	24.524
454.58	25.504
454.93	25.644
455.28	24.635
455.63	25.666
455.98	24.835
456.34	24.138
456.69	24.905
457.04	25.835
457.39	23.998
457.74	25.635
458.09	24.544
458.44	25.278
458.79	25.042
459.14	25.458
459.49	25.313
459.84	25.324
460.19	25.182
460.54	25.795
460.89	25.455
461.24	26.149
461.59	26.247
461.94	24.717
462.29	25.090
462.64	25.382
462.99	25.660
463.34	24.757
463.69	24.775
464.04	25.121
464.39	24.864
464.74	25.276
465.09	25.140
465.44	25.563
465.79	24.490
466.14	25.257
466.49	24.612
466.84	25.521
467.19	24.718
467.54	25.415
467.89	23.563
468.24	25.182
468.59	25.397
468.94	24.571
469.29	25.770
469.64	25.290
469.99	25.508
470.34	24.027
470.68	24.981
471.03	24.982
471.38	25.250
471.73	24.370
472.08	24.898
472.43	24.497
472.78	24.537
473.13	24.150
473.48	25.798
473.83	23.661
474.17	25.065
474.52	25.335
474.87	25.030
475.22	23.734
475.57	24.506
475.92	25.398
476.27	25.553
476.61	25.694
476.96	24.038
477.31	24.824
477.66	24.326
478.01	25.491
478.36	25.490
478.70	25.285
479.05	25.275
479.40	24.483
479.75	24.557
480.10	25.038
480.45	24.450
480.79	25.025
481.14	25.615
481.49	24.828
481.84	24.614
482.19	24.275
482.53	25.324
482.88	24.010
483.23	25.144
483.58	25.047
483.92	24.395
484.27	24.886
484.62	24.473
484.97	25.041
485.31	24.566
485.66	24.476
486.01	24.769
486.36	24.987
486.70	25.297
487.05	25.642
487.40	25.078
487.75	24.873
488.09	24.722
488.44	25.241
488.79	24.767
489.13	25.481
489.48	25.224
489.83	25.022
490.17	24.719
490.52	25.081
490.87	23.600
491.22	24.976
491.56	24.668
491.91	23.948
492.26	24.842
492.60	24.808
492.95	25.873
493.30	24.524
493.64	24.656
493.99	24.541
494.34	24.272
494.68	24.286
495.03	24.428
495.37	24.387
495.72	24.685
496.07	25.317
496.41	24.481
496.76	25.702
497.11	24.732
497.45	25.012
497.80	25.328
498.14	24.193
498.49	24.937
498.84	24.301
499.18	24.598
499.53	24.306
499.87	24.465
500.22	24.283
500.56	25.063
500.91	24.498
501.26	23.480
501.60	24.594
501.95	24.697
502.29	25.182
502.64	25.434
502.98	24.914
503.33	23.439
503.67	25.060
504.02	25.562
504.36	25.680
504.71	24.040
505.06	24.761
505.40	24.315
505.75	24.639
506.09	24.430
506.44	25.051
506.78	24.541
507.13	24.922
507.47	24.909
507.82	24.840
508.16	25.409
508.51	24.921
508.85	24.751
509.19	23.417
509.54	24.236
509.88	24.272
510.23	25.121
510.57	25.174
510.92	23.774
511.26	24.877
511.61	24.367
511.95	23.616
512.30	24.778
512.64	23.929
512.98	24.593
513.33	25.182
513.67	24.105
514.02	25.343
514.36	24.343
514.70	24.767
515.05	25.793
515.39	23.495
515.74	25.449
516.08	24.746
516.42	24.499
516.77	25.922
517.11	25.460
517.46	24.357
517.80	23.897
518.14	24.862
518.49	24.579
518.83	24.484
519.17	24.682
519.52	23.801
519.86	24.190
520.20	25.395
520.55	23.702
520.89	25.471
521.23	24.129
521.58	25.300
521.92	23.910
522.26	24.854
522.61	25.000
522.95	24.768
523.29	23.888
523.64	24.841
523.98	24.757
524.32	23.325
524.66	24.712
525.01	25.260
525.35	25.211
525.69	23.636
526.04	23.876
526.38	25.940
526.72	23.676
527.06	24.578
527.41	24.802
527.75	24.531
528.09	24.718
528.43	25.658
528.78	24.158
529.12	24.452
529.46	24.561
529.80	24.573
530.15	24.818
530.49	24.175
530.83	25.923
531.17	24.715
531.51	24.213
531.86	24.949
532.20	24.217
532.54	22.873
532.88	23.614
533.22	24.798
533.57	24.312
533.91	24.543
534.25	25.521
534.59	24.310
534.93	23.789
535.27	24.619
535.62	25.405
535.96	24.984
536.30	25.066
536.64	24.810
536.98	24.530
537.32	25.818
537.66	26.017
538.01	25.035
538.35	23.925
538.69	24.501
539.03	24.607
539.37	25.168
539.71	24.881
540.05	24.847
540.39	24.654
540.73	24.407
541.07	24.586
541.42	25.202
541.76	24.983
542.10	24.639
542.44	25.365
542.78	24.295
543.12	23.970
543.46	24.757
543.80	24.983
544.14	23.832
544.48	24.317
544.82	24.265
545.16	25.068
545.50	24.833
545.84	24.433
546.18	25.816
546.52	25.234
546.86	24.587
547.20	24.464
547.54	24.947
547.88	24.524
548.22	23.340
548.56	24.142
548.90	24.596
549.24	23.623
549.58	23.907
549.92	23.874
550.26	24.322
550.60	24.535
550.94	24.944
551.28	24.034
551.62	25.462
551.96	24.962
552.30	24.927
552.64	24.401
552.98	24.121
553.32	23.966
553.66	23.803
554.00	24.891
554.34	25.185
554.68	23.820
555.02	24.851
555.36	23.635
555.69	24.029
556.03	23.412
556.37	24.484
556.71	24.549
557.05	24.012
557.39	24.833
557.73	24.138
558.07	24.661
558.41	23.813
558.75	24.708
559.08	25.217
559.42	24.762
559.76	24.420
560.10	24.235
560.44	24.944
560.78	24.545
561.12	24.260
561.45	25.299
561.79	24.300
562.13	24.131
562.47	23.885
562.81	24.928
563.15	24.471
563.48	24.470
563.82	25.120
564.16	24.582
564.50	23.514
564.84	24.766
565.17	25.151
565.51	25.751
565.85	25.377
566.19	25.000
566.52	24.196
566.86	24.936
567.20	24.284
567.54	25.182
567.88	25.132
568.21	25.396
568.55	25.109
568.89	25.667
569.23	25.036
569.56	25.000
569.90	25.213
570.24	25.121
570.57	25.200
570.91	25.967
571.25	25.025
571.59	24.790
571.92	24.889
572.26	25.060
572.60	24.837
572.93	24.851
573.27	25.361
573.61	24.761
573.95	25.177
574.28	24.656
574.62	24.205
574.96	24.782
575.29	24.685
575.63	24.333
575.97	24.261
576.30	24.740
576.64	24.344
576.98	25.148
577.31	25.190
577.65	25.344
577.98	24.852
578.32	24.672
578.66	24.436
578.99	25.082
579.33	24.806
579.67	24.552
580.00	24.835
580.34	25.274
580.67	24.951
581.01	25.096
581.35	24.505
581.68	24.601
582.02	24.940
582.35	24.661
582.69	24.523
583.02	24.439
583.36	24.817
583.70	25.208
584.03	24.965
584.37	25.974
584.70	25.055
585.04	24.611
585.37	24.865
585.71	25.228
586.04	24.458
586.38	24.300
586.72	25.136
587.05	25.217
587.39	25.161
587.72	25.178
588.06	25.076
588.39	24.836
588.73	24.756
589.06	25.082
589.40	24.991
589.73	25.009
590.07	25.227
590.40	24.923
590.73	26.071
591.07	25.445
591.40	25.824
591.74	25.339
592.07	25.186
592.41	25.707
592.74	25.169
593.08	24.694
593.41	24.942
593.75	25.352
594.08	24.785
594.41	25.400
594.75	24.695
595.08	25.161
595.42	24.696
595.75	25.648
596.09	25.215
596.42	25.010
596.75	25.000
597.09	24.966
597.42	25.790
597.75	25.836
598.09	24.989
598.42	24.504
598.76	24.882
599.09	25.401
599.42	25.123
599.76	24.567
600.09	25.000
600.42	25.057
600.76	24.629
601.09	24.885
601.42	23.933
601.76	25.288
602.09	25.413
602.42	25.737
602.76	24.745
603.09	24.502
603.42	25.794
603.76	24.597
604.09	24.706
604.42	24.239
604.76	25.768
605.09	25.548
605.42	24.921
605.75	24.781
606.09	24.331
606.42	23.978
606.75	24.935
607.09	25.143
607.42	24.767
607.75	24.778
608.08	25.202
608.42	24.486
608.75	25.446
609.08	24.614
609.41	24.975
609.75	24.698
610.08	24.813
610.41	25.121
610.74	24.378
611.07	25.065
611.41	25.324
611.74	26.119
612.07	24.732
612.40	24.726
612.73	25.650
613.07	25.309
613.40	25.000
613.73	23.615
614.06	24.708
614.39	25.155
614.72	24.650
615.06	24.246
615.39	23.963
615.72	23.897
616.05	24.246
616.38	24.843
616.71	24.343
617.05	25.386
617.38	25.016
617.71	25.031
618.04	25.778
618.37	26.230
618.70	25.941
619.03	25.486
619.36	25.109
619.69	26.080
620.03	24.324
620.36	25.751
620.69	25.339
621.02	23.853
621.35	25.062
621.68	24.830
622.01	24.417
622.34	24.661
622.67	24.763
623.00	23.813
623.33	25.534
623.66	24.832
623.99	24.584
624.32	24.867
624.65	23.759
624.99	25.132
625.32	24.564
625.65	25.766
625.98	25.060
626.31	24.938
626.64	25.997
626.97	24.346
627.30	25.306
627.63	25.043
627.96	26.056
628.29	23.682
628.62	25.762
628.95	25.451
629.28	25.806
629.61	25.025
629.94	26.882
630.26	23.617
630.59	25.286
630.92	24.615
631.25	24.410
631.58	24.890
631.91	23.904
632.24	25.344
632.57	25.568
632.90	23.962
633.23	26.471
633.56	24.559
633.89	24.661
634.22	25.309
634.55	25.667
634.88	24.266
635.20	23.974
635.53	26.400
635.86	24.707
636.19	25.226
636.52	24.490
636.85	23.945
637.18	24.528
