SpectraSuite Data File
++++++++++++++++++++++++++++++++++++
Date: Fri May 15 17:14:02 PDT 2015
User: schluterlab
Dark Spectrum Present: Yes
Reference Spectrum Present: Yes
Number of Sampled Component Spectra: 1
Spectrometers: USB2E3373
Integration Time (usec): 3000 (USB2E3373)
Spectra Averaged: 3 (USB2E3373)
Boxcar Smoothing: 0 (USB2E3373)
Correct for Electrical Dark: No (USB2E3373)
Strobe/Lamp Enabled: No (USB2E3373)
Correct for Detector Non-linearity: No (USB2E3373)
Correct for Stray Light: No (USB2E3373)
Number of Pixels in Processed Spectrum: 2048
>>>>>Begin Processed Spectral Data<<<<<
178.53	0.000
178.91	0.000
179.29	50.000
179.67	150.000
180.04	57.143
180.42	300.000
180.80	0.000
181.18	-100.000
181.56	350.000
181.94	300.000
182.31	500.000
182.69	-20.000
183.07	233.333
183.45	80.000
183.83	83.333
184.20	63.636
184.58	77.778
184.96	-100.000
185.34	-166.667
185.72	-300.000
186.09	130.769
186.47	800.000
186.85	-0.000
187.23	-0.000
187.61	-1100.000
187.98	-166.667
188.36	-33.333
188.74	-166.667
189.12	-11.765
189.49	27.778
189.87	0.000
190.25	28.571
190.63	150.000
191.00	66.667
191.38	26.316
191.76	500.000
192.14	-125.000
192.51	600.000
192.89	-88.889
193.27	-71.429
193.65	66.667
194.02	36.364
194.40	30.000
194.78	-87.500
195.15	100.000
195.53	-125.000
195.91	100.000
196.29	50.000
196.66	46.154
197.04	57.143
197.42	111.111
197.79	-266.667
198.17	-46.154
198.55	-200.000
198.92	0.000
199.30	1300.000
199.68	100.000
200.05	-600.000
200.43	0.000
200.81	0.000
201.18	166.667
201.56	300.000
201.94	0.000
202.31	-166.667
202.69	-40.000
203.07	100.000
203.44	500.000
203.82	0.000
204.19	7.143
204.57	-700.000
204.95	12.500
205.32	100.000
205.70	185.714
206.08	25.000
206.45	111.111
206.83	64.286
207.20	-57.143
207.58	-500.000
207.96	-100.000
208.33	-60.000
208.71	-75.000
209.08	-166.667
209.46	300.000
209.84	160.000
210.21	-700.000
210.59	0.000
210.96	50.000
211.34	200.000
211.71	13.333
212.09	-114.286
212.46	-800.000
212.84	0.000
213.22	150.000
213.59	400.000
213.97	107.692
214.34	81.818
214.72	0.000
215.09	250.000
215.47	46.154
215.84	-9.091
216.22	133.333
216.59	87.500
216.97	200.000
217.34	-200.000
217.72	-260.000
218.09	87.500
218.47	125.000
218.84	200.000
219.22	-44.444
219.59	60.000
219.97	433.333
220.34	75.000
220.72	14.286
221.09	-250.000
221.47	250.000
221.84	-200.000
222.22	-800.000
222.59	81.818
222.97	0.000
223.34	-200.000
223.72	-14.286
224.09	23.810
224.46	39.286
224.84	100.000
225.21	20.000
225.59	13.333
225.96	400.000
226.34	175.000
226.71	28.571
227.08	66.667
227.46	0.000
227.83	-450.000
228.21	66.667
228.58	81.818
228.95	-50.000
229.33	90.000
229.70	50.000
230.08	-87.500
230.45	14.286
230.82	214.286
231.20	13.333
231.57	128.571
231.95	14.286
232.32	-80.000
232.69	64.286
233.07	33.333
233.44	-220.000
233.81	50.000
234.19	0.000
234.56	52.941
234.93	-350.000
235.31	0.000
235.68	-120.000
236.05	-30.769
236.43	20.000
236.80	0.000
237.17	71.875
237.55	-5.000
237.92	7.407
238.29	13.889
238.67	30.000
239.04	26.471
239.41	9.756
239.79	-26.667
240.16	46.341
240.53	15.789
240.91	19.565
241.28	38.095
241.65	39.286
242.02	46.575
242.40	53.333
242.77	32.203
243.14	30.303
243.51	38.750
243.89	36.782
244.26	31.034
244.63	23.810
245.00	42.268
245.38	38.144
245.75	29.213
246.12	25.862
246.49	42.149
246.87	35.577
247.24	31.092
247.61	28.070
247.98	36.585
248.36	30.625
248.73	33.553
249.10	30.519
249.47	31.013
249.84	34.641
250.22	37.059
250.59	34.641
250.96	37.559
251.33	36.047
251.70	35.294
252.08	36.041
252.45	37.624
252.82	35.678
253.19	35.484
253.56	34.112
253.94	39.189
254.31	31.739
254.68	38.158
255.05	32.283
255.42	37.555
255.79	39.768
256.16	33.852
256.54	36.567
256.91	33.840
257.28	28.253
257.65	34.082
258.02	36.170
258.39	33.670
258.76	39.560
259.14	37.874
259.51	34.951
259.88	34.021
260.25	36.275
260.62	42.014
260.99	36.610
261.36	34.247
261.73	37.025
262.10	37.082
262.47	35.890
262.85	33.229
263.22	36.308
263.59	35.202
263.96	36.957
264.33	37.273
264.70	35.714
265.07	36.012
265.44	36.827
265.81	36.441
266.18	37.705
266.55	34.447
266.92	37.824
267.29	37.859
267.66	36.573
268.03	33.246
268.40	37.337
268.77	37.701
269.14	35.012
269.51	35.219
269.88	36.658
270.25	32.143
270.62	34.634
270.99	31.969
271.36	31.296
271.73	37.089
272.10	38.443
272.47	35.461
272.84	34.653
273.21	33.179
273.58	36.386
273.95	33.867
274.32	33.487
274.69	33.484
275.06	35.268
275.43	32.880
275.80	34.216
276.17	32.874
276.54	34.047
276.91	33.772
277.28	34.498
277.65	34.298
278.02	34.043
278.39	33.260
278.76	33.543
279.13	31.743
279.50	35.084
279.87	32.181
280.23	33.118
280.60	34.113
280.97	36.768
281.34	32.500
281.71	33.676
282.08	32.720
282.45	33.464
282.82	33.591
283.19	35.590
283.56	32.370
283.92	32.448
284.29	32.115
284.66	32.946
285.03	34.381
285.40	34.026
285.77	31.634
286.14	30.505
286.51	33.026
286.87	30.896
287.24	33.333
287.61	31.041
287.98	30.877
288.35	31.716
288.72	30.648
289.08	30.208
289.45	29.877
289.82	29.720
290.19	29.352
290.56	31.046
290.93	29.125
291.29	28.197
291.66	29.291
292.03	28.070
292.40	29.677
292.77	28.708
293.13	27.273
293.50	28.073
293.87	29.008
294.24	27.202
294.60	25.633
294.97	26.042
295.34	26.840
295.71	25.037
296.08	24.514
296.44	25.178
296.81	27.083
297.18	25.362
297.55	26.423
297.91	25.616
298.28	24.934
298.65	24.288
299.02	25.202
299.38	23.119
299.75	23.172
300.12	24.084
300.48	24.374
300.85	24.968
301.22	24.805
301.59	23.553
301.95	24.051
302.32	25.681
302.69	23.632
303.05	22.153
303.42	23.039
303.79	23.715
304.15	23.775
304.52	21.284
304.89	22.573
305.25	22.881
305.62	21.004
305.99	23.392
306.35	21.965
306.72	22.385
307.09	22.007
307.45	22.044
307.82	21.644
308.19	23.926
308.55	21.810
308.92	23.747
309.29	22.570
309.65	21.529
310.02	23.432
310.38	22.503
310.75	22.951
311.12	21.098
311.48	20.891
311.85	21.990
312.22	21.308
312.58	21.550
312.95	20.918
313.31	21.739
313.68	20.733
314.05	20.714
314.41	21.856
314.78	21.443
315.14	21.788
315.51	21.429
315.87	20.799
316.24	22.548
316.61	21.260
316.97	21.627
317.34	20.312
317.70	21.033
318.07	20.865
318.43	22.255
318.80	21.307
319.16	20.898
319.53	21.273
319.89	21.949
320.26	21.761
320.62	22.066
320.99	20.564
321.35	22.097
321.72	23.884
322.08	22.860
322.45	22.234
322.81	21.709
323.18	21.884
323.54	21.139
323.91	20.935
324.27	20.996
324.64	22.566
325.00	23.814
325.37	24.151
325.73	21.578
326.10	21.798
326.46	22.691
326.83	22.047
327.19	23.017
327.56	21.981
327.92	22.975
328.29	22.054
328.65	22.170
329.01	23.070
329.38	23.041
329.74	20.963
330.11	21.965
330.47	22.171
330.84	21.731
331.20	24.240
331.56	20.833
331.93	23.288
332.29	22.731
332.66	22.353
333.02	21.933
333.38	21.815
333.75	23.168
334.11	22.202
334.48	23.028
334.84	22.436
335.20	21.500
335.57	21.850
335.93	22.764
336.29	21.915
336.66	21.526
337.02	20.911
337.38	21.111
337.75	22.364
338.11	23.174
338.47	23.631
338.84	21.627
339.20	21.115
339.56	22.110
339.93	21.665
340.29	23.486
340.65	23.029
341.02	22.252
341.38	21.681
341.74	20.583
342.11	21.144
342.47	21.797
342.83	21.713
343.20	21.341
343.56	22.522
343.92	22.055
344.28	21.862
344.65	20.553
345.01	22.213
345.37	21.615
345.73	21.674
346.10	21.829
346.46	21.699
346.82	20.458
347.19	21.530
347.55	22.389
347.91	21.521
348.27	20.776
348.63	21.891
349.00	20.263
349.36	21.779
349.72	22.222
350.08	21.639
350.45	21.069
350.81	20.183
351.17	20.765
351.53	21.878
351.89	20.809
352.26	21.120
352.62	22.823
352.98	21.044
353.34	20.451
353.70	22.411
354.07	21.210
354.43	20.657
354.79	19.901
355.15	21.270
355.51	21.677
355.87	22.168
356.24	20.473
356.60	19.725
356.96	21.587
357.32	21.006
357.68	20.719
358.04	20.436
358.40	20.900
358.77	21.451
359.13	20.096
359.49	20.339
359.85	21.529
360.21	21.212
360.57	21.117
360.93	20.348
361.29	20.393
361.66	20.846
362.02	20.530
362.38	21.706
362.74	20.666
363.10	21.294
363.46	20.756
363.82	22.164
364.18	20.886
364.54	19.191
364.90	20.430
365.26	19.578
365.62	21.606
365.98	20.894
366.35	21.850
366.71	21.508
367.07	21.335
367.43	20.848
367.79	20.848
368.15	20.459
368.51	20.976
368.87	20.675
369.23	20.144
369.59	20.335
369.95	20.894
370.31	20.231
370.67	21.045
371.03	20.538
371.39	20.423
371.75	21.319
372.11	20.613
372.47	21.228
372.83	20.653
373.19	21.755
373.55	19.422
373.91	21.166
374.27	21.191
374.63	21.823
374.99	20.071
375.35	20.961
375.71	21.399
376.07	20.997
376.42	21.156
376.78	20.604
377.14	19.973
377.50	20.717
377.86	20.817
378.22	20.932
378.58	20.641
378.94	20.794
379.30	20.774
379.66	21.379
380.02	20.110
380.38	20.146
380.74	20.527
381.09	21.718
381.45	20.245
381.81	20.605
382.17	20.749
382.53	20.987
382.89	21.783
383.25	21.033
383.61	21.951
383.97	20.127
384.32	20.450
384.68	20.186
385.04	19.914
385.40	19.664
385.76	21.509
386.12	21.475
386.48	21.328
386.83	21.370
387.19	21.245
387.55	21.267
387.91	20.599
388.27	21.001
388.62	20.264
388.98	20.381
389.34	20.612
389.70	21.690
390.06	20.894
390.42	20.920
390.77	21.517
391.13	20.870
391.49	21.087
391.85	20.728
392.20	21.218
392.56	21.360
392.92	21.609
393.28	21.226
393.64	20.601
393.99	22.132
394.35	20.746
394.71	20.945
395.07	21.496
395.42	20.279
395.78	21.694
396.14	21.438
396.50	21.179
396.85	20.927
397.21	20.301
397.57	20.502
397.92	20.671
398.28	21.207
398.64	21.325
399.00	21.219
399.35	20.542
399.71	21.367
400.07	21.100
400.42	20.808
400.78	21.494
401.14	20.750
401.49	21.977
401.85	20.658
402.21	20.120
402.57	21.563
402.92	20.703
403.28	21.303
403.63	22.194
403.99	21.939
404.35	22.548
404.70	21.488
405.06	20.740
405.42	20.945
405.77	20.395
406.13	20.489
406.49	20.663
406.84	21.333
407.20	21.734
407.55	21.764
407.91	21.390
408.27	20.650
408.62	22.154
408.98	21.811
409.34	21.499
409.69	20.866
410.05	21.798
410.40	21.173
410.76	22.497
411.11	20.687
411.47	21.631
411.83	20.590
412.18	22.394
412.54	21.099
412.89	21.121
413.25	22.202
413.60	21.429
413.96	20.982
414.31	21.707
414.67	20.975
415.03	21.505
415.38	20.757
415.74	21.629
416.09	22.796
416.45	21.607
416.80	21.282
417.16	21.685
417.51	21.519
417.87	20.860
418.22	21.956
418.58	20.602
418.93	22.633
419.29	19.974
419.64	20.350
420.00	22.544
420.35	21.433
420.71	22.114
421.06	21.608
421.42	21.995
421.77	21.850
422.12	21.566
422.48	21.711
422.83	21.520
423.19	21.783
423.54	20.870
423.90	21.084
424.25	21.297
424.61	21.787
424.96	21.545
425.31	22.819
425.67	21.714
426.02	21.849
426.38	21.916
426.73	22.458
427.09	22.911
427.44	22.294
427.79	22.746
428.15	22.087
428.50	21.199
428.85	21.929
429.21	21.902
429.56	22.803
429.92	21.263
430.27	22.005
430.62	21.485
430.98	21.391
431.33	21.451
431.68	21.193
432.04	21.465
432.39	22.533
432.74	21.106
433.10	21.897
433.45	22.342
433.80	22.693
434.16	21.219
434.51	21.935
434.86	22.474
435.22	22.490
435.57	21.772
435.92	22.395
436.28	22.182
436.63	21.335
436.98	22.190
437.34	21.234
437.69	23.256
438.04	22.279
438.39	21.686
438.75	21.676
439.10	22.581
439.45	22.215
439.81	21.651
440.16	23.219
440.51	23.284
440.86	23.686
441.22	22.681
441.57	22.737
441.92	24.082
442.27	23.060
442.63	22.537
442.98	22.918
443.33	22.871
443.68	22.175
444.03	23.348
444.39	22.873
444.74	22.965
445.09	22.606
445.44	23.818
445.79	23.105
446.15	23.568
446.50	22.740
446.85	23.379
447.20	23.097
447.55	24.330
447.91	22.786
448.26	23.108
448.61	23.949
448.96	24.211
449.31	23.410
449.66	22.938
450.02	24.187
450.37	23.711
450.72	22.566
451.07	24.051
451.42	23.346
451.77	23.267
452.12	23.325
452.47	23.760
452.83	24.617
453.18	23.656
453.53	24.463
453.88	24.044
454.23	24.093
454.58	23.992
454.93	24.162
455.28	22.159
455.63	23.311
455.98	23.993
456.34	24.649
456.69	25.159
457.04	24.323
457.39	23.269
457.74	23.519
458.09	23.367
458.44	23.288
458.79	23.697
459.14	24.771
459.49	24.358
459.84	23.971
460.19	22.876
460.54	24.022
460.89	23.523
461.24	25.093
461.59	24.347
461.94	24.528
462.29	24.306
462.64	24.385
462.99	24.441
463.34	23.853
463.69	24.196
464.04	24.092
464.39	23.954
464.74	23.681
465.09	24.704
465.44	24.235
465.79	24.036
466.14	24.116
466.49	24.152
466.84	24.807
467.19	24.656
467.54	23.691
467.89	24.258
468.24	24.939
468.59	25.206
468.94	24.190
469.29	24.787
469.64	25.496
469.99	25.578
470.34	23.481
470.68	26.100
471.03	25.761
471.38	24.893
471.73	25.210
472.08	24.559
472.43	25.503
472.78	24.674
473.13	24.354
473.48	24.560
473.83	24.658
474.17	25.518
474.52	25.590
474.87	25.333
475.22	24.710
475.57	24.054
475.92	25.672
476.27	25.437
476.61	26.215
476.96	24.540
477.31	26.176
477.66	24.944
478.01	25.098
478.36	25.054
478.70	24.959
479.05	25.934
479.40	25.225
479.75	24.922
480.10	25.038
480.45	25.250
480.79	25.327
481.14	25.666
481.49	24.778
481.84	25.579
482.19	24.181
482.53	24.700
482.88	25.680
483.23	25.096
483.58	24.858
483.92	24.782
484.27	24.932
484.62	25.549
484.97	24.627
485.31	25.181
485.66	23.939
486.01	23.551
486.36	23.101
486.70	23.441
487.05	23.989
487.40	23.914
487.75	24.507
488.09	24.907
488.44	24.794
488.79	25.065
489.13	26.322
489.48	25.310
489.83	25.291
490.17	25.258
490.52	25.543
490.87	25.174
491.22	25.836
491.56	25.569
491.91	25.574
492.26	26.155
492.60	25.240
492.95	26.267
493.30	25.305
493.64	26.179
493.99	25.990
494.34	26.019
494.68	25.381
495.03	25.353
495.37	26.693
495.72	26.552
496.07	26.634
496.41	26.368
496.76	26.301
497.11	25.338
497.45	26.205
497.80	26.842
498.14	26.875
498.49	26.206
498.84	26.397
499.18	27.008
499.53	26.637
499.87	26.070
500.22	25.569
500.56	26.778
500.91	26.456
501.26	26.495
501.60	26.316
501.95	26.298
502.29	27.070
502.64	26.207
502.98	26.443
503.33	25.841
503.67	25.976
504.02	26.931
504.36	26.571
504.71	26.566
505.06	27.277
505.40	27.005
505.75	27.010
506.09	27.268
506.44	27.002
506.78	27.194
507.13	26.939
507.47	25.692
507.82	26.656
508.16	26.624
508.51	27.177
508.85	26.269
509.19	25.865
509.54	26.702
509.88	26.483
510.23	26.681
510.57	27.151
510.92	26.066
511.26	27.605
511.61	27.393
511.95	26.795
512.30	27.162
512.64	28.047
512.98	27.288
513.33	27.812
513.67	27.231
514.02	28.490
514.36	28.343
514.70	28.846
515.05	29.025
515.39	28.453
515.74	28.982
516.08	27.914
516.42	28.269
516.77	28.555
517.11	29.258
517.46	28.127
517.80	29.142
518.14	27.924
518.49	26.923
518.83	27.096
519.17	28.320
519.52	27.827
519.86	27.431
520.20	28.797
520.55	27.767
520.89	28.921
521.23	29.006
521.58	29.338
521.92	29.744
522.26	28.432
522.61	28.701
522.95	30.199
523.29	29.352
523.64	29.416
523.98	30.266
524.32	29.381
524.66	29.577
525.01	29.416
525.35	29.099
525.69	28.552
526.04	28.902
526.38	30.220
526.72	28.254
527.06	29.702
527.41	30.277
527.75	29.088
528.09	29.169
528.43	29.980
528.78	29.307
529.12	30.452
529.46	28.330
529.80	28.372
530.15	29.439
530.49	29.832
530.83	28.933
531.17	29.416
531.51	29.480
531.86	29.164
532.20	29.367
532.54	29.204
532.88	29.363
533.22	29.772
533.57	29.489
533.91	27.872
534.25	30.208
534.59	29.185
534.93	28.068
535.27	28.173
535.62	29.164
535.96	28.702
536.30	30.277
536.64	30.255
536.98	30.105
537.32	29.374
537.66	29.874
538.01	30.140
538.35	30.305
538.69	29.361
539.03	28.503
539.37	29.542
539.71	30.470
540.05	29.192
540.39	30.055
540.73	29.777
541.07	29.696
541.42	30.108
541.76	29.387
542.10	30.076
542.44	28.978
542.78	29.112
543.12	29.464
543.46	28.720
543.80	30.257
544.14	28.638
544.48	29.913
544.82	29.802
545.16	29.303
545.50	30.107
545.84	29.745
546.18	30.142
546.52	29.488
546.86	29.475
547.20	30.401
547.54	28.834
547.88	29.959
548.22	29.191
548.56	29.222
548.90	29.380
549.24	29.132
549.58	29.126
549.92	28.806
550.26	30.183
550.60	30.558
550.94	30.022
551.28	29.753
551.62	31.077
551.96	29.925
552.30	29.605
552.64	29.196
552.98	30.309
553.32	28.673
553.66	28.302
554.00	30.146
554.34	30.059
554.68	29.720
555.02	31.324
555.36	30.217
555.69	29.963
556.03	30.264
556.37	29.609
556.71	30.614
557.05	31.096
557.39	29.740
557.73	31.184
558.07	30.618
558.41	31.240
558.75	31.099
559.08	29.551
559.42	31.032
559.76	30.905
560.10	29.511
560.44	29.412
560.78	29.720
561.12	30.042
561.45	30.710
561.79	30.112
562.13	30.092
562.47	29.640
562.81	31.196
563.15	30.395
563.48	30.905
563.82	30.336
564.16	29.526
564.50	29.865
564.84	30.991
565.17	30.785
565.51	30.806
565.85	30.247
566.19	31.034
566.52	29.960
566.86	31.362
567.20	28.705
567.54	30.839
567.88	29.291
568.21	29.072
568.55	28.967
568.89	29.209
569.23	28.021
569.56	28.459
569.90	27.446
570.24	27.317
570.57	26.982
570.91	27.187
571.25	26.702
571.59	26.970
571.92	26.311
572.26	26.540
572.60	26.636
572.93	26.388
573.27	26.332
573.61	26.641
573.95	26.597
574.28	25.768
574.62	25.858
574.96	26.203
575.29	25.694
575.63	25.680
575.97	25.752
576.30	25.893
576.64	25.881
576.98	25.972
577.31	25.608
577.65	25.665
577.98	25.655
578.32	25.673
578.66	25.253
578.99	25.643
579.33	25.606
579.67	25.839
580.00	25.823
580.34	26.045
580.67	25.495
581.01	25.793
581.35	25.495
581.68	25.408
582.02	25.473
582.35	25.255
582.69	25.633
583.02	25.764
583.36	25.716
583.70	26.324
584.03	26.300
584.37	27.527
584.70	26.758
585.04	25.803
585.37	26.044
585.71	25.944
586.04	25.845
586.38	25.900
586.72	26.542
587.05	26.805
587.39	26.391
587.72	26.435
588.06	26.764
588.39	26.232
588.73	27.228
589.06	27.560
589.40	27.929
589.73	27.528
590.07	27.644
590.40	27.748
590.73	28.295
591.07	28.159
591.40	28.495
591.74	28.235
592.07	28.432
592.41	28.666
592.74	27.121
593.08	26.441
593.41	26.755
593.75	26.366
594.08	27.703
594.41	27.183
594.75	26.985
595.08	26.977
595.42	27.273
595.75	27.751
596.09	28.069
596.42	28.276
596.75	28.597
597.09	28.565
597.42	28.455
597.75	28.310
598.09	27.478
598.42	27.256
598.76	27.542
599.09	27.204
599.42	27.321
599.76	27.690
600.09	27.413
600.42	27.635
600.76	26.969
601.09	26.603
601.42	27.105
601.76	27.273
602.09	27.393
602.42	28.644
602.76	28.183
603.09	28.405
603.42	29.055
603.76	27.742
604.09	28.109
604.42	28.257
604.76	28.616
605.09	28.245
605.42	27.810
605.75	28.021
606.09	27.813
606.42	27.189
606.75	28.139
607.09	28.176
607.42	27.736
607.75	27.709
608.08	28.122
608.42	27.912
608.75	28.241
609.08	28.351
609.41	28.528
609.75	27.772
610.08	29.156
610.41	26.957
610.74	27.694
611.07	29.509
611.41	29.268
611.74	28.198
612.07	28.266
612.40	29.376
612.73	29.718
613.07	28.515
613.40	29.158
613.73	28.987
614.06	28.937
614.39	29.047
614.72	29.076
615.06	28.212
615.39	28.930
615.72	28.310
616.05	29.385
616.38	29.003
616.71	30.092
617.05	30.080
617.38	28.410
617.71	30.629
618.04	30.095
618.37	29.508
618.70	30.825
619.03	31.042
619.36	30.101
619.69	32.600
620.03	31.337
620.36	31.617
620.69	30.193
621.02	31.651
621.35	32.116
621.68	32.058
622.01	31.250
622.34	33.041
622.67	32.177
623.00	31.700
623.33	31.098
623.66	31.488
623.99	29.728
624.32	30.570
624.65	32.030
624.99	30.850
625.32	29.719
625.65	32.129
625.98	32.071
626.31	31.172
626.64	30.849
626.97	32.897
627.30	32.312
627.63	32.582
627.96	32.884
628.29	33.117
628.62	33.628
628.95	33.968
629.28	33.669
629.61	32.502
629.94	33.333
630.26	34.585
630.59	34.964
630.92	33.949
631.25	33.231
631.58	32.930
631.91	33.333
632.24	32.798
632.57	35.227
632.90	34.401
633.23	34.706
633.56	36.020
633.89	34.525
634.22	37.037
