SpectraSuite Data File
++++++++++++++++++++++++++++++++++++
Date: Fri May 15 20:07:08 PDT 2015
User: schluterlab
Dark Spectrum Present: Yes
Reference Spectrum Present: Yes
Number of Sampled Component Spectra: 1
Spectrometers: USB2E3373
Integration Time (usec): 3000 (USB2E3373)
Spectra Averaged: 3 (USB2E3373)
Boxcar Smoothing: 0 (USB2E3373)
Correct for Electrical Dark: No (USB2E3373)
Strobe/Lamp Enabled: No (USB2E3373)
Correct for Detector Non-linearity: No (USB2E3373)
Correct for Stray Light: No (USB2E3373)
Number of Pixels in Processed Spectrum: 2048
>>>>>Begin Processed Spectral Data<<<<<
178.53	0.000
178.91	0.000
179.29	75.000
179.67	-550.000
180.04	-85.714
180.42	-25.000
180.80	900.000
181.18	-166.667
181.56	400.000
181.94	500.000
182.31	-0.000
182.69	20.000
183.07	-233.333
183.45	0.000
183.83	266.667
184.20	9.091
184.58	66.667
184.96	-250.000
185.34	-33.333
185.72	200.000
186.09	15.385
186.47	400.000
186.85	-33.333
187.23	55.556
187.61	-100.000
187.98	-100.000
188.36	0.000
188.74	66.667
189.12	64.706
189.49	66.667
189.87	0.000
190.25	78.571
190.63	50.000
191.00	-366.667
191.38	21.053
191.76	250.000
192.14	125.000
192.51	350.000
192.89	-66.667
193.27	-100.000
193.65	116.667
194.02	109.091
194.40	20.000
194.78	-162.500
195.15	16.667
195.53	-87.500
195.91	300.000
196.29	75.000
196.66	84.615
197.04	14.286
197.42	-122.222
197.79	-200.000
198.17	-92.308
198.55	1400.000
198.92	-233.333
199.30	-100.000
199.68	-80.000
200.05	-100.000
200.43	0.000
200.81	66.667
201.18	-100.000
201.56	1400.000
201.94	-350.000
202.31	66.667
202.69	-80.000
203.07	125.000
203.44	1100.000
203.82	0.000
204.19	64.286
204.57	-133.333
204.95	25.000
205.32	-10.000
205.70	14.286
206.08	50.000
206.45	144.444
206.83	64.286
207.20	-71.429
207.58	200.000
207.96	-133.333
208.33	-120.000
208.71	75.000
209.08	-150.000
209.46	-1700.000
209.84	-240.000
210.21	-700.000
210.59	14.286
210.96	66.667
211.34	50.000
211.71	40.000
212.09	-200.000
212.46	-1100.000
212.84	0.000
213.22	60.000
213.59	650.000
213.97	76.923
214.34	27.273
214.72	33.333
215.09	300.000
215.47	-38.462
215.84	-81.818
216.22	-433.333
216.59	-37.500
216.97	200.000
217.34	-75.000
217.72	-200.000
218.09	-12.500
218.47	175.000
218.84	-1400.000
219.22	-55.556
219.59	-20.000
219.97	133.333
220.34	350.000
220.72	57.143
221.09	-50.000
221.47	0.000
221.84	-800.000
222.22	-750.000
222.59	81.818
222.97	50.000
223.34	-133.333
223.72	-14.286
224.09	42.857
224.46	3.571
224.84	266.667
225.21	70.000
225.59	-20.000
225.96	-200.000
226.34	300.000
226.71	85.714
227.08	-33.333
227.46	0.000
227.83	-350.000
228.21	0.000
228.58	27.273
228.95	-25.000
229.33	120.000
229.70	-31.250
230.08	-87.500
230.45	-57.143
230.82	0.000
231.20	-26.667
231.57	21.429
231.95	-57.143
232.32	10.000
232.69	35.714
233.07	-166.667
233.44	140.000
233.81	-150.000
234.19	77.778
234.56	0.000
234.93	250.000
235.31	-75.000
235.68	-300.000
236.05	7.692
236.43	-20.000
236.80	-35.294
237.17	3.125
237.55	-10.000
237.92	7.407
238.29	19.444
238.67	20.000
239.04	8.824
239.41	-24.390
239.79	6.667
240.16	14.634
240.53	-31.579
240.91	10.870
241.28	12.698
241.65	25.000
242.02	10.959
242.40	13.333
242.77	18.644
243.14	7.576
243.51	6.250
243.89	18.391
244.26	-8.046
244.63	-2.381
245.00	5.155
245.38	12.371
245.75	-6.742
246.12	8.621
246.49	3.306
246.87	2.885
247.24	-6.723
247.61	0.000
247.98	4.878
248.36	8.125
248.73	3.947
249.10	7.143
249.47	2.532
249.84	8.497
250.22	2.941
250.59	10.458
250.96	12.207
251.33	-1.744
251.70	4.118
252.08	5.076
252.45	9.406
252.82	8.040
253.19	8.295
253.56	1.402
253.94	9.459
254.31	3.478
254.68	9.649
255.05	8.661
255.42	6.114
255.79	7.336
256.16	7.782
256.54	12.687
256.91	6.084
257.28	7.063
257.65	7.116
258.02	4.255
258.39	3.704
258.76	9.890
259.14	10.631
259.51	10.032
259.88	5.155
260.25	8.497
260.62	7.292
260.99	4.068
261.36	5.822
261.73	6.962
262.10	9.119
262.47	7.362
262.85	5.956
263.22	5.846
263.59	6.854
263.96	8.075
264.33	10.606
264.70	6.250
265.07	4.464
265.44	9.348
265.81	10.169
266.18	9.836
266.55	7.712
266.92	11.399
267.29	8.877
267.66	8.440
268.03	6.545
268.40	8.616
268.77	10.963
269.14	7.674
269.51	10.797
269.88	8.479
270.25	6.122
270.62	5.122
270.99	8.184
271.36	6.846
271.73	7.512
272.10	8.516
272.47	9.456
272.84	6.188
273.21	9.281
273.58	10.602
273.95	6.865
274.32	6.005
274.69	5.656
275.06	9.152
275.43	6.803
275.80	4.194
276.17	7.126
276.54	6.424
276.91	8.114
277.28	7.860
277.65	8.884
278.02	7.234
278.39	6.127
278.76	7.338
279.13	5.809
279.50	10.504
279.87	4.320
280.23	5.591
280.60	7.992
280.97	7.677
281.34	5.962
281.71	9.240
282.08	7.975
282.45	7.045
282.82	6.371
283.19	7.157
283.56	5.588
283.92	5.503
284.29	5.962
284.66	6.589
285.03	6.680
285.40	6.805
285.77	6.151
286.14	8.303
286.51	7.934
286.87	5.667
287.24	5.341
287.61	5.291
287.98	7.544
288.35	6.586
288.72	10.508
289.08	6.076
289.45	8.963
289.82	6.818
290.19	8.191
290.56	5.832
290.93	4.714
291.29	7.704
291.66	6.929
292.03	3.668
292.40	6.935
292.77	7.496
293.13	5.519
293.50	4.856
293.87	5.954
294.24	6.491
294.60	6.557
294.97	5.804
295.34	4.601
295.71	5.216
296.08	7.474
296.44	4.836
296.81	5.417
297.18	6.087
297.55	6.640
297.91	6.438
298.28	6.728
298.65	5.834
299.02	5.256
299.38	4.378
299.75	5.103
300.12	4.319
300.48	4.480
300.85	5.196
301.22	4.545
301.59	5.263
301.95	6.076
302.32	7.393
302.69	6.343
303.05	6.188
303.42	5.729
303.79	6.659
304.15	6.093
304.52	4.043
304.89	4.678
305.25	4.964
305.62	4.551
305.99	5.380
306.35	3.931
306.72	3.937
307.09	5.587
307.45	4.248
307.82	3.704
308.19	6.852
308.55	4.798
308.92	6.536
309.29	4.022
309.65	3.552
310.02	4.510
310.38	4.940
310.75	5.246
311.12	5.167
311.48	5.408
311.85	6.073
312.22	4.852
312.58	4.989
312.95	5.123
313.31	4.037
313.68	4.817
314.05	6.224
314.41	5.155
314.78	5.258
315.14	5.858
315.51	6.108
315.87	4.918
316.24	6.370
316.61	6.693
316.97	5.655
317.34	6.543
317.70	6.405
318.07	6.538
318.43	6.471
318.80	5.587
319.16	6.934
319.53	6.933
319.89	6.398
320.26	6.781
320.62	7.222
320.99	6.263
321.35	5.858
321.72	7.892
322.08	5.942
322.45	7.310
322.81	7.171
323.18	7.556
323.54	7.819
323.91	8.082
324.27	6.934
324.64	8.052
325.00	7.573
325.37	9.275
325.73	7.978
326.10	9.173
326.46	9.148
326.83	9.186
327.19	8.806
327.56	9.557
327.92	10.299
328.29	9.732
328.65	9.434
329.01	8.640
329.38	9.585
329.74	8.782
330.11	10.380
330.47	9.926
330.84	8.654
331.20	11.597
331.56	10.185
331.93	11.050
332.29	10.816
332.66	10.588
333.02	11.059
333.38	9.808
333.75	11.538
334.11	10.833
334.48	10.607
334.84	10.806
335.20	11.985
335.57	10.245
335.93	11.201
336.29	11.142
336.66	11.262
337.02	9.294
337.38	11.296
337.75	12.364
338.11	12.083
338.47	11.314
338.84	12.107
339.20	11.792
339.56	11.651
339.93	11.101
340.29	11.743
340.65	13.262
341.02	12.411
341.38	11.416
341.74	11.837
342.11	11.525
342.47	11.210
342.83	12.976
343.20	11.934
343.56	12.348
343.92	11.780
344.28	13.237
344.65	10.535
345.01	12.014
345.37	12.700
345.73	12.552
346.10	12.770
346.46	12.447
346.82	12.275
347.19	10.806
347.55	12.531
347.91	13.511
348.27	12.449
348.63	12.351
349.00	12.387
349.36	11.970
349.72	13.184
350.08	11.885
350.45	12.929
350.81	11.628
351.17	11.482
351.53	12.163
351.89	11.065
352.26	12.960
352.62	13.306
352.98	12.048
353.34	12.721
353.70	13.673
354.07	12.661
354.43	13.131
354.79	12.882
355.15	13.413
355.51	13.528
355.87	11.974
356.24	11.909
356.60	13.015
356.96	12.778
357.32	12.780
357.68	12.823
358.04	13.005
358.40	12.942
358.77	12.440
359.13	12.490
359.49	12.096
359.85	13.807
360.21	13.158
360.57	13.160
360.93	13.162
361.29	12.613
361.66	14.028
362.02	14.318
362.38	13.557
362.74	14.156
363.10	14.221
363.46	12.824
363.82	14.050
364.18	13.432
364.54	13.382
364.90	13.835
365.26	13.100
365.62	15.182
365.98	13.710
366.35	14.421
366.71	14.412
367.07	14.369
367.43	12.797
367.79	14.488
368.15	13.927
368.51	14.130
368.87	12.922
369.23	13.502
369.59	14.650
369.95	14.956
370.31	15.318
370.67	14.552
371.03	13.891
371.39	13.931
371.75	14.286
372.11	14.622
372.47	14.793
372.83	15.046
373.19	15.407
373.55	15.235
373.91	14.255
374.27	15.167
374.63	14.429
374.99	15.745
375.35	15.390
375.71	14.755
376.07	15.098
376.42	15.306
376.78	15.973
377.14	15.775
377.50	14.741
377.86	14.926
378.22	15.890
378.58	14.295
378.94	15.312
379.30	15.221
379.66	15.862
380.02	15.757
380.38	14.790
380.74	15.141
381.09	16.380
381.45	16.086
381.81	15.423
382.17	15.482
382.53	16.677
382.89	15.819
383.25	16.677
383.61	17.012
383.97	15.746
384.32	16.260
384.68	16.533
385.04	15.502
385.40	16.055
385.76	17.233
386.12	16.559
386.48	16.858
386.83	16.804
387.19	17.582
387.55	16.562
387.91	17.421
388.27	16.667
388.62	18.250
388.98	16.022
389.34	16.864
389.70	18.645
390.06	16.803
390.42	17.487
390.77	17.462
391.13	16.835
391.49	17.206
391.85	16.699
392.20	16.133
392.56	17.483
392.92	17.851
393.28	17.689
393.64	16.276
393.99	19.310
394.35	17.457
394.71	17.944
395.07	16.719
395.42	18.154
395.78	17.850
396.14	17.844
396.50	17.819
396.85	17.386
397.21	18.045
397.57	18.182
397.92	18.095
398.28	18.793
398.64	17.108
399.00	18.567
399.35	17.212
399.71	18.840
400.07	18.803
400.42	18.543
400.78	18.861
401.14	18.270
401.49	18.761
401.85	18.160
402.21	18.675
402.57	18.312
402.92	17.754
403.28	19.048
403.63	18.663
403.99	18.814
404.35	18.114
404.70	18.155
405.06	18.449
405.42	18.956
405.77	17.722
406.13	18.568
406.49	18.176
406.84	19.315
407.20	19.386
407.55	18.480
407.91	18.783
408.27	18.292
408.62	19.138
408.98	18.484
409.34	19.455
409.69	18.088
410.05	17.796
410.40	17.593
410.76	18.577
411.11	17.938
411.47	18.540
411.83	17.891
412.18	18.211
412.54	18.851
412.89	18.658
413.25	18.532
413.60	18.634
413.96	18.282
414.31	18.720
414.67	18.473
415.03	18.043
415.38	18.211
415.74	19.088
416.09	19.268
416.45	19.109
416.80	18.705
417.16	19.337
417.51	18.388
417.87	17.797
418.22	19.041
418.58	19.465
418.93	19.937
419.29	18.566
419.64	19.054
420.00	19.081
420.35	18.567
420.71	19.016
421.06	18.355
421.42	19.952
421.77	19.422
422.12	18.388
422.48	18.896
422.83	19.258
423.19	19.413
423.54	18.989
423.90	18.610
424.25	19.920
424.61	19.706
424.96	19.048
425.31	19.700
425.67	19.190
426.02	20.082
426.38	19.224
426.73	19.249
427.09	20.253
427.44	19.824
427.79	19.976
428.15	19.903
428.50	19.261
428.85	19.042
429.21	19.581
429.56	19.784
429.92	19.723
430.27	19.449
430.62	19.446
430.98	19.321
431.33	19.716
431.68	19.309
432.04	19.899
432.39	19.053
432.74	19.964
433.10	20.402
433.45	19.295
433.80	20.255
434.16	19.945
434.51	19.462
434.86	19.977
435.22	20.359
435.57	20.462
435.92	19.880
436.28	19.857
436.63	19.795
436.98	20.104
437.34	19.359
437.69	19.857
438.04	19.544
438.39	19.853
438.75	19.915
439.10	20.543
439.45	20.268
439.81	19.633
440.16	20.428
440.51	20.418
440.86	21.329
441.22	20.136
441.57	20.530
441.92	20.829
442.27	20.177
442.63	20.664
442.98	20.620
443.33	21.202
443.68	20.477
444.03	20.368
444.39	20.905
444.74	20.401
445.09	21.771
445.44	20.627
445.79	21.506
446.15	20.650
446.50	19.967
446.85	20.191
447.20	19.969
447.55	20.536
447.91	20.643
448.26	21.002
448.61	21.244
448.96	20.884
449.31	20.405
449.66	20.732
450.02	21.278
450.37	21.340
450.72	20.275
451.07	21.076
451.42	20.537
451.77	20.916
452.12	19.199
452.47	20.927
452.83	20.495
453.18	21.316
453.53	21.049
453.88	21.008
454.23	20.836
454.58	20.844
454.93	21.843
455.28	19.937
455.63	21.575
455.98	21.407
456.34	21.009
456.69	21.728
457.04	21.298
457.39	20.960
457.74	19.649
458.09	20.188
458.44	20.070
458.79	20.504
459.14	21.854
459.49	21.612
459.84	21.094
460.19	20.874
460.54	21.883
460.89	20.625
461.24	20.311
461.59	21.734
461.94	19.874
462.29	21.110
462.64	21.130
462.99	20.311
463.34	20.793
463.69	20.721
464.04	20.642
464.39	20.922
464.74	20.552
465.09	20.961
465.44	20.658
465.79	21.032
466.14	20.525
466.49	20.759
466.84	21.892
467.19	21.464
467.54	21.264
467.89	21.478
468.24	20.985
468.59	22.349
468.94	21.524
469.29	22.557
469.64	21.668
469.99	21.794
470.34	20.478
470.68	22.073
471.03	21.798
471.38	21.398
471.73	21.779
472.08	22.117
472.43	21.275
472.78	21.247
473.13	21.701
473.48	22.215
473.83	20.797
474.17	21.956
474.52	22.272
474.87	21.030
475.22	20.683
475.57	21.174
475.92	21.613
476.27	21.362
476.61	22.106
476.96	21.528
477.31	21.092
477.66	21.573
478.01	21.392
478.36	21.351
478.70	21.914
479.05	22.143
479.40	21.940
479.75	21.846
480.10	21.505
480.45	21.450
480.79	21.853
481.14	21.568
481.49	21.084
481.84	22.297
482.19	21.048
482.53	21.727
482.88	21.002
483.23	21.737
483.58	21.226
483.92	20.958
484.27	21.376
484.62	20.798
484.97	21.808
485.31	20.051
485.66	19.801
486.01	19.859
486.36	19.045
486.70	19.838
487.05	20.103
487.40	20.657
487.75	20.676
488.09	20.859
488.44	20.839
488.79	21.666
489.13	22.075
489.48	21.932
489.83	21.883
490.17	21.348
490.52	21.247
490.87	21.148
491.22	21.920
491.56	21.205
491.91	22.371
492.26	21.877
492.60	21.977
492.95	22.381
493.30	21.935
493.64	21.758
493.99	22.367
494.34	21.456
494.68	22.190
495.03	21.606
495.37	21.786
495.72	22.060
496.07	22.341
496.41	21.509
496.76	22.110
497.11	21.565
497.45	22.959
497.80	22.603
498.14	22.305
498.49	22.194
498.84	22.605
499.18	23.394
499.53	22.718
499.87	21.158
500.22	21.958
500.56	22.743
500.91	22.741
501.26	21.948
501.60	22.184
501.95	22.222
502.29	21.550
502.64	22.249
502.98	22.348
503.33	21.566
503.67	21.783
504.02	23.363
504.36	22.959
504.71	22.172
505.06	22.295
505.40	22.538
505.75	22.629
506.09	22.656
506.44	23.460
506.78	23.418
507.13	22.441
507.47	21.723
507.82	22.062
508.16	22.504
508.51	22.928
508.85	23.077
509.19	23.417
509.54	23.271
509.88	22.762
510.23	22.324
510.57	23.036
510.92	22.388
511.26	21.549
511.61	23.597
511.95	23.616
512.30	23.947
512.64	23.261
512.98	22.628
513.33	23.559
513.67	23.764
514.02	23.341
514.36	23.943
514.70	24.650
515.05	24.207
515.39	23.554
515.74	24.850
516.08	23.909
516.42	24.382
516.77	24.108
517.11	24.570
517.46	23.519
517.80	23.719
518.14	23.821
518.49	24.459
518.83	24.180
519.17	22.862
519.52	23.505
519.86	23.169
520.20	24.241
520.55	23.327
520.89	24.718
521.23	24.256
521.58	24.921
521.92	24.038
522.26	23.748
522.61	24.156
522.95	25.232
523.29	25.476
523.64	24.968
523.98	24.627
524.32	24.162
524.66	24.648
525.01	25.455
525.35	25.729
525.69	24.377
526.04	25.331
526.38	26.200
526.72	24.264
527.06	24.384
527.41	25.132
527.75	24.129
528.09	23.920
528.43	26.199
528.78	24.950
529.12	25.161
529.46	25.406
529.80	25.332
530.15	26.271
530.49	25.859
530.83	25.239
531.17	24.715
531.51	25.992
531.86	24.745
532.20	24.426
532.54	25.323
532.88	25.667
533.22	25.067
533.57	24.509
533.91	24.608
534.25	24.805
534.59	25.016
534.93	25.425
535.27	23.985
535.62	24.433
535.96	25.179
536.30	25.792
536.64	25.155
536.98	25.436
537.32	26.671
537.66	26.087
538.01	25.874
538.35	25.451
538.69	25.499
539.03	24.265
539.37	25.101
539.71	24.676
540.05	25.119
540.39	27.078
540.73	25.244
541.07	25.967
541.42	26.210
541.76	26.359
542.10	24.501
542.44	25.295
542.78	24.570
543.12	25.069
543.46	25.035
543.80	24.844
544.14	24.032
544.48	25.383
544.82	25.837
545.16	26.025
545.50	25.300
545.84	25.850
546.18	27.092
546.52	25.811
546.86	25.162
547.20	24.893
547.54	24.452
547.88	26.698
548.22	25.181
548.56	25.462
548.90	25.472
549.24	25.413
549.58	25.458
549.92	25.733
550.26	25.934
550.60	26.171
550.94	25.990
551.28	25.657
551.62	27.000
551.96	25.789
552.30	25.877
552.64	24.542
552.98	26.160
553.32	25.606
553.66	25.544
554.00	25.839
554.34	26.588
554.68	26.991
555.02	27.307
555.36	26.178
555.69	24.908
556.03	24.411
556.37	26.121
556.71	25.704
557.05	26.249
557.39	25.874
557.73	27.061
558.07	28.205
558.41	26.953
558.75	26.267
559.08	26.241
559.42	26.349
559.76	27.062
560.10	26.070
560.44	26.582
560.78	25.944
561.12	26.023
561.45	26.564
561.79	25.840
562.13	25.195
562.47	25.396
562.81	25.288
563.15	25.670
563.48	26.308
563.82	25.806
564.16	25.975
564.50	25.068
564.84	26.104
565.17	25.419
565.51	27.596
565.85	25.652
566.19	25.862
566.52	26.676
566.86	26.093
567.20	26.339
567.54	24.696
567.88	26.186
568.21	25.566
568.55	24.565
568.89	25.462
569.23	24.795
569.56	24.299
569.90	24.279
570.24	23.409
570.57	23.782
570.91	23.388
571.25	23.216
571.59	22.361
571.92	22.222
572.26	22.886
572.60	22.667
572.93	22.968
573.27	23.135
573.61	22.494
573.95	22.802
574.28	22.696
574.62	21.993
574.96	22.364
575.29	22.539
575.63	22.052
575.97	21.876
576.30	22.266
576.64	21.881
576.98	22.471
577.31	22.659
577.65	22.385
577.98	22.232
578.32	22.023
578.66	21.384
578.99	22.181
579.33	21.959
579.67	22.735
580.00	22.506
580.34	22.189
580.67	22.527
581.01	22.574
581.35	22.761
581.68	21.866
582.02	21.710
582.35	21.281
582.69	21.660
583.02	22.111
583.36	23.208
583.70	23.235
584.03	23.381
584.37	23.123
584.70	23.434
585.04	22.565
585.37	22.752
585.71	22.340
586.04	22.592
586.38	22.273
586.72	22.869
587.05	23.368
587.39	23.092
587.72	23.346
588.06	22.834
588.39	23.156
588.73	23.382
589.06	23.810
589.40	23.712
589.73	24.717
590.07	24.585
590.40	23.994
590.73	24.259
591.07	24.979
591.40	24.310
591.74	24.525
592.07	24.490
592.41	24.867
592.74	24.771
593.08	22.669
593.41	23.460
593.75	23.127
594.08	23.206
594.41	23.836
594.75	23.435
595.08	23.723
595.42	23.151
595.75	23.958
596.09	24.472
596.42	25.010
596.75	25.178
597.09	24.784
597.42	24.571
597.75	23.958
598.09	23.902
598.42	25.226
598.76	23.767
599.09	23.357
599.42	23.683
599.76	23.589
600.09	22.926
600.42	23.844
600.76	23.105
601.09	23.321
601.42	23.228
601.76	23.779
602.09	23.886
602.42	24.052
602.76	24.236
603.09	23.879
603.42	24.498
603.76	24.153
604.09	23.937
604.42	25.127
604.76	24.967
605.09	24.634
605.42	24.515
605.75	24.037
606.09	24.204
606.42	24.312
606.75	24.199
607.09	24.527
607.42	23.881
607.75	23.712
608.08	23.450
608.42	24.714
608.75	25.542
609.08	25.012
609.41	25.178
609.75	24.798
610.08	24.713
610.41	24.493
610.74	24.476
611.07	25.271
611.41	25.532
611.74	25.053
612.07	24.197
612.40	26.313
612.73	25.819
613.07	24.466
613.40	24.781
613.73	24.790
614.06	25.431
614.39	26.678
614.72	25.658
615.06	24.804
615.39	25.000
615.72	25.350
616.05	26.257
616.38	24.786
616.71	25.566
617.05	26.004
617.38	26.524
617.71	27.358
618.04	27.492
618.37	26.797
618.70	26.931
619.03	28.125
619.36	26.194
619.69	28.052
620.03	27.684
620.36	27.039
620.69	27.766
621.02	27.446
621.35	28.465
621.68	28.146
622.01	28.083
622.34	27.773
622.67	28.628
623.00	27.029
623.33	28.354
623.66	26.328
623.99	26.626
624.32	26.920
624.65	26.617
624.99	28.066
625.32	27.369
625.65	28.515
625.98	28.687
626.31	28.512
626.64	29.116
626.97	29.058
627.30	29.772
627.63	28.856
627.96	29.290
628.29	29.972
628.62	29.499
628.95	30.661
629.28	30.242
629.61	31.007
629.94	31.281
630.26	31.028
630.59	31.322
630.92	29.538
631.25	28.923
631.58	30.396
631.91	28.838
632.24	29.128
632.57	31.932
632.90	31.079
633.23	31.529
633.56	30.856
633.89	30.949
634.22	32.963
634.55	31.512
634.88	31.673
635.20	32.308
635.53	31.867
635.86	29.779
636.19	33.765
636.52	31.888
636.85	31.638
637.18	31.824
637.51	30.440
637.83	32.063
638.16	33.970
638.49	31.199
