SpectraSuite Data File
++++++++++++++++++++++++++++++++++++
Date: Fri May 15 17:32:55 PDT 2015
User: schluterlab
Dark Spectrum Present: Yes
Reference Spectrum Present: Yes
Number of Sampled Component Spectra: 1
Spectrometers: USB2E3373
Integration Time (usec): 3000 (USB2E3373)
Spectra Averaged: 3 (USB2E3373)
Boxcar Smoothing: 0 (USB2E3373)
Correct for Electrical Dark: No (USB2E3373)
Strobe/Lamp Enabled: No (USB2E3373)
Correct for Detector Non-linearity: No (USB2E3373)
Correct for Stray Light: No (USB2E3373)
Number of Pixels in Processed Spectrum: 2048
>>>>>Begin Processed Spectral Data<<<<<
178.53	0.000
178.91	0.000
179.29	112.500
179.67	-300.000
180.04	-85.714
180.42	175.000
180.80	700.000
181.18	33.333
181.56	350.000
181.94	-150.000
182.31	-100.000
182.69	-60.000
183.07	-500.000
183.45	40.000
183.83	-116.667
184.20	63.636
184.58	-33.333
184.96	150.000
185.34	33.333
185.72	100.000
186.09	53.846
186.47	700.000
186.85	33.333
187.23	155.556
187.61	400.000
187.98	233.333
188.36	77.778
188.74	0.000
189.12	76.471
189.49	66.667
189.87	0.000
190.25	14.286
190.63	100.000
191.00	200.000
191.38	26.316
191.76	500.000
192.14	-150.000
192.51	350.000
192.89	-22.222
193.27	-71.429
193.65	116.667
194.02	109.091
194.40	50.000
194.78	-25.000
195.15	25.000
195.53	-100.000
195.91	125.000
196.29	-150.000
196.66	23.077
197.04	-28.571
197.42	-122.222
197.79	-366.667
198.17	-92.308
198.55	700.000
198.92	-400.000
199.30	200.000
199.68	40.000
200.05	-100.000
200.43	0.000
200.81	-233.333
201.18	366.667
201.56	900.000
201.94	300.000
202.31	33.333
202.69	-100.000
203.07	-75.000
203.44	300.000
203.82	0.000
204.19	85.714
204.57	-533.333
204.95	12.500
205.32	130.000
205.70	0.000
206.08	25.000
206.45	266.667
206.83	35.714
207.20	-114.286
207.58	900.000
207.96	66.667
208.33	40.000
208.71	25.000
209.08	-233.333
209.46	400.000
209.84	0.000
210.21	-500.000
210.59	71.429
210.96	83.333
211.34	-50.000
211.71	53.333
212.09	-100.000
212.46	-400.000
212.84	0.000
213.22	40.000
213.59	100.000
213.97	107.692
214.34	100.000
214.72	50.000
215.09	25.000
215.47	53.846
215.84	-63.636
216.22	-66.667
216.59	62.500
216.97	300.000
217.34	175.000
217.72	20.000
218.09	25.000
218.47	12.500
218.84	0.000
219.22	-11.111
219.59	-200.000
219.97	33.333
220.34	25.000
220.72	-42.857
221.09	-75.000
221.47	150.000
221.84	-100.000
222.22	0.000
222.59	9.091
222.97	133.333
223.34	-166.667
223.72	28.571
224.09	42.857
224.46	64.286
224.84	-33.333
225.21	120.000
225.59	60.000
225.96	300.000
226.34	25.000
226.71	-14.286
227.08	116.667
227.46	-125.000
227.83	-600.000
228.21	77.778
228.58	127.273
228.95	-25.000
229.33	40.000
229.70	50.000
230.08	37.500
230.45	57.143
230.82	0.000
231.20	40.000
231.57	100.000
231.95	200.000
232.32	-70.000
232.69	28.571
233.07	166.667
233.44	120.000
233.81	-90.000
234.19	133.333
234.56	100.000
234.93	-200.000
235.31	50.000
235.68	0.000
236.05	46.154
236.43	85.000
236.80	111.765
237.17	65.625
237.55	60.000
237.92	55.556
238.29	52.778
238.67	90.000
239.04	29.412
239.41	53.659
239.79	90.000
240.16	117.073
240.53	71.053
240.91	71.739
241.28	61.905
241.65	55.357
242.02	63.014
242.40	68.333
242.77	71.186
243.14	68.182
243.51	67.500
243.89	65.517
244.26	67.816
244.63	72.619
245.00	60.825
245.38	71.134
245.75	70.787
246.12	63.793
246.49	64.463
246.87	81.731
247.24	70.588
247.61	71.053
247.98	72.358
248.36	59.375
248.73	76.974
249.10	69.481
249.47	72.785
249.84	66.667
250.22	68.235
250.59	80.392
250.96	69.484
251.33	70.349
251.70	78.824
252.08	71.066
252.45	64.851
252.82	73.367
253.19	64.055
253.56	70.093
253.94	69.369
254.31	73.913
254.68	75.000
255.05	62.992
255.42	69.869
255.79	69.112
256.16	73.541
256.54	71.269
256.91	71.863
257.28	68.030
257.65	67.041
258.02	67.021
258.39	67.340
258.76	69.597
259.14	68.771
259.51	69.579
259.88	74.914
260.25	65.686
260.62	70.486
260.99	71.525
261.36	68.493
261.73	67.089
262.10	71.733
262.47	69.018
262.85	71.787
263.22	68.615
263.59	72.586
263.96	74.224
264.33	70.606
264.70	71.429
265.07	71.131
265.44	71.955
265.81	67.797
266.18	66.393
266.55	69.923
266.92	69.171
267.29	69.452
267.66	63.939
268.03	68.325
268.40	68.930
268.77	71.925
269.14	68.345
269.51	69.409
269.88	69.576
270.25	66.582
270.62	66.829
270.99	67.008
271.36	66.259
271.73	66.197
272.10	70.803
272.47	66.667
272.84	68.812
273.21	63.573
273.58	66.988
273.95	67.506
274.32	65.820
274.69	62.896
275.06	66.964
275.43	67.800
275.80	68.433
276.17	68.966
276.54	63.597
276.91	63.596
277.28	67.904
277.65	64.050
278.02	63.830
278.39	64.770
278.76	63.941
279.13	61.411
279.50	65.546
279.87	63.283
280.23	63.656
280.60	62.963
280.97	64.242
281.34	59.615
281.71	65.298
282.08	64.417
282.45	62.231
282.82	61.969
283.19	62.089
283.56	63.584
283.92	60.721
284.29	64.423
284.66	60.271
285.03	63.261
285.40	59.546
285.77	58.699
286.14	58.845
286.51	63.100
286.87	56.673
287.24	61.142
287.61	58.907
287.98	62.982
288.35	56.846
288.72	58.844
289.08	58.333
289.45	57.645
289.82	56.119
290.19	56.485
290.56	57.461
290.93	56.061
291.29	51.464
291.66	54.803
292.03	53.110
292.40	55.000
292.77	52.951
293.13	52.435
293.50	51.290
293.87	50.229
294.24	49.150
294.60	49.329
294.97	50.000
295.34	49.540
295.71	49.478
296.08	46.487
296.44	46.515
296.81	45.972
297.18	48.261
297.55	49.593
297.91	48.082
298.28	48.153
298.65	45.183
299.02	43.935
299.38	43.776
299.75	46.621
300.12	45.550
300.48	44.664
300.85	45.374
301.22	42.338
301.59	45.132
301.95	44.051
302.32	44.877
302.69	42.040
303.05	41.337
303.42	44.209
303.79	42.757
304.15	43.369
304.52	41.498
304.89	41.053
305.25	42.131
305.62	40.490
305.99	40.819
306.35	40.925
306.72	40.382
307.09	40.251
307.45	41.676
307.82	40.625
308.19	41.115
308.55	39.695
308.92	40.523
309.29	40.559
309.65	39.397
310.02	38.174
310.38	39.407
310.75	40.984
311.12	41.981
311.48	40.191
311.85	38.429
312.22	38.608
312.58	39.597
312.95	39.274
313.31	37.681
313.68	36.649
314.05	36.633
314.41	38.454
314.78	38.866
315.14	39.054
315.51	37.578
315.87	39.754
316.24	39.434
316.61	37.795
316.97	37.302
317.34	37.402
317.70	36.520
318.07	37.308
318.43	38.824
318.80	36.932
319.16	39.355
319.53	37.132
319.89	37.205
320.26	37.247
320.62	37.412
320.99	35.595
321.35	37.616
321.72	36.345
322.08	37.261
322.45	37.360
322.81	36.837
323.18	37.390
323.54	36.583
323.91	36.417
324.27	36.914
324.64	35.955
325.00	36.588
325.37	37.649
325.73	36.355
326.10	36.785
326.46	37.220
326.83	34.558
327.19	36.443
327.56	37.011
327.92	37.764
328.29	35.804
328.65	36.509
329.01	35.754
329.38	36.498
329.74	35.316
330.11	35.403
330.47	34.601
330.84	34.904
331.20	37.072
331.56	35.648
331.93	35.799
332.29	34.739
332.66	34.208
333.02	34.944
333.38	34.005
333.75	36.172
334.11	33.393
334.48	35.086
334.84	35.531
335.20	33.577
335.57	35.449
335.93	34.869
336.29	34.991
336.66	34.242
337.02	33.736
337.38	33.056
337.75	34.455
338.11	34.265
338.47	35.219
338.84	34.566
339.20	33.729
339.56	34.404
339.93	34.199
340.29	34.037
340.65	34.588
341.02	34.309
341.38	33.097
341.74	33.569
342.11	31.976
342.47	33.185
342.83	33.910
343.20	32.317
343.56	33.565
343.92	33.570
344.28	32.878
344.65	32.297
345.01	32.757
345.37	33.389
345.73	34.477
346.10	33.736
346.46	33.474
346.82	32.324
347.19	32.170
347.55	32.832
347.91	32.686
348.27	33.387
348.63	33.731
349.00	33.388
349.36	33.167
349.72	32.504
350.08	32.213
350.45	32.163
350.81	31.645
351.17	32.085
351.53	34.041
351.89	32.535
352.26	30.960
352.62	32.419
352.98	32.691
353.34	32.287
353.70	33.010
354.07	31.129
354.43	31.545
354.79	32.040
355.15	32.222
355.51	31.883
355.87	32.767
356.24	31.729
356.60	30.154
356.96	31.190
357.32	31.390
357.68	30.962
358.04	30.452
358.40	31.833
358.77	31.419
359.13	31.145
359.49	30.200
359.85	31.045
360.21	31.260
360.57	30.069
360.93	30.182
361.29	30.514
361.66	32.053
362.02	32.121
362.38	30.845
362.74	31.491
363.10	31.603
363.46	30.467
363.82	31.104
364.18	30.627
364.54	29.779
364.90	29.892
365.26	30.713
365.62	32.555
365.98	30.205
366.35	31.391
366.71	31.559
367.07	30.914
367.43	29.260
367.79	29.965
368.15	30.940
368.51	30.663
368.87	29.648
369.23	29.747
369.59	29.883
369.95	30.425
370.31	29.624
370.67	29.478
371.03	29.798
371.39	29.103
371.75	28.864
372.11	29.601
372.47	29.364
372.83	29.524
373.19	29.815
373.55	29.314
373.91	30.022
374.27	29.837
374.63	29.218
374.99	28.794
375.35	29.735
375.71	30.699
376.07	29.986
376.42	28.571
376.78	29.262
377.14	29.993
377.50	29.814
377.86	29.786
378.22	29.611
378.58	28.718
378.94	29.175
379.30	29.757
379.66	29.906
380.02	29.614
380.38	28.728
380.74	27.887
381.09	30.552
381.45	29.174
381.81	28.809
382.17	29.569
382.53	28.482
382.89	29.441
383.25	29.869
383.61	28.963
383.97	28.889
384.32	28.893
384.68	28.483
385.04	28.002
385.40	28.314
385.76	29.623
386.12	30.660
386.48	29.502
386.83	28.028
387.19	29.792
387.55	28.733
387.91	29.279
388.27	28.571
388.62	30.082
388.98	29.405
389.34	28.607
389.70	29.397
390.06	28.508
390.42	28.886
390.77	28.254
391.13	28.184
391.49	29.237
391.85	29.500
392.20	29.316
392.56	29.116
392.92	29.888
393.28	29.953
393.64	29.249
393.99	29.530
394.35	28.906
394.71	29.374
395.07	28.850
395.42	27.930
395.78	28.795
396.14	28.878
396.50	29.423
396.85	28.203
397.21	28.947
397.57	28.025
397.92	28.700
398.28	29.253
398.64	28.614
399.00	29.289
399.35	28.950
399.71	29.351
400.07	29.323
400.42	29.498
400.78	29.271
401.14	29.522
401.49	30.137
401.85	28.946
402.21	28.976
402.57	28.250
402.92	27.039
403.28	29.198
403.63	28.373
403.99	28.061
404.35	29.232
404.70	28.274
405.06	28.907
405.42	30.081
405.77	27.658
406.13	28.638
406.49	28.715
406.84	29.523
407.20	28.718
407.55	27.753
407.91	28.142
408.27	28.681
408.62	28.554
408.98	28.774
409.34	28.625
409.69	29.393
410.05	28.818
410.40	27.963
410.76	28.106
411.11	29.312
411.47	28.665
411.83	27.370
412.18	28.571
412.54	28.402
412.89	28.202
413.25	29.122
413.60	28.137
413.96	28.282
414.31	28.963
414.67	28.031
415.03	29.228
415.38	28.264
415.74	27.557
416.09	28.347
416.45	28.022
416.80	28.222
417.16	28.039
417.51	29.114
417.87	27.640
418.22	28.109
418.58	28.562
418.93	29.154
419.29	26.633
419.64	28.257
420.00	28.463
420.35	27.761
420.71	28.797
421.06	27.993
421.42	28.906
421.77	29.017
422.12	28.207
422.48	28.912
422.83	28.422
423.19	27.427
423.54	27.984
423.90	28.327
424.25	28.071
424.61	28.335
424.96	28.688
425.31	28.769
425.67	28.286
426.02	28.386
426.38	28.053
426.73	27.421
427.09	28.481
427.44	28.294
427.79	28.285
428.15	28.519
428.50	28.225
428.85	27.826
429.21	28.353
429.56	27.925
429.92	28.968
430.27	27.970
430.62	28.385
430.98	28.981
431.33	28.864
431.68	28.100
432.04	28.508
432.39	27.895
432.74	27.300
433.10	27.989
433.45	28.973
433.80	26.582
434.16	28.033
434.51	27.903
434.86	28.455
435.22	27.818
435.57	28.883
435.92	28.204
436.28	27.907
436.63	27.781
436.98	27.057
437.34	27.405
437.69	27.967
438.04	29.231
438.39	27.550
438.75	28.658
439.10	27.391
439.45	28.424
439.81	27.584
440.16	28.325
440.51	28.239
440.86	29.124
441.22	26.923
441.57	28.146
441.92	28.332
442.27	29.047
442.63	28.747
442.98	27.743
443.33	27.880
443.68	27.905
444.03	28.068
444.39	28.480
444.74	29.041
445.09	29.009
445.44	28.775
445.79	28.468
446.15	27.974
446.50	27.898
446.85	28.693
447.20	27.268
447.55	28.739
447.91	27.919
448.26	27.945
448.61	27.864
448.96	28.399
449.31	28.092
449.66	27.294
450.02	27.952
450.37	28.216
450.72	27.491
451.07	28.038
451.42	27.216
451.77	27.486
452.12	26.555
452.47	26.916
452.83	28.327
453.18	27.008
453.53	27.370
453.88	27.747
454.23	27.658
454.58	27.519
454.93	27.448
455.28	26.032
455.63	27.898
455.98	27.901
456.34	28.097
456.69	27.192
457.04	28.859
457.39	27.825
457.74	28.114
458.09	26.898
458.44	27.150
458.79	26.835
459.14	28.776
459.49	27.582
459.84	27.411
460.19	27.427
460.54	27.873
460.89	27.898
461.24	27.205
461.59	28.029
461.94	26.918
462.29	27.865
462.64	28.040
462.99	26.811
463.34	26.147
463.69	26.126
464.04	28.087
464.39	27.107
464.74	27.239
465.09	28.072
465.44	26.486
465.79	27.381
466.14	27.081
466.49	27.372
466.84	27.424
467.19	27.597
467.54	26.373
467.89	26.153
468.24	26.521
468.59	27.111
468.94	27.048
469.29	26.885
469.64	27.956
469.99	27.610
470.34	25.461
470.68	26.846
471.03	26.115
471.38	25.820
471.73	27.031
472.08	25.577
472.43	25.369
472.78	25.154
473.13	25.986
473.48	26.710
473.83	26.837
474.17	26.619
474.52	25.654
474.87	26.424
475.22	26.174
475.57	25.861
475.92	27.098
476.27	26.950
476.61	25.810
476.96	26.771
477.31	27.637
477.66	26.685
478.01	26.839
478.36	25.708
478.70	26.862
479.05	26.868
479.40	26.815
479.75	25.547
480.10	25.755
480.45	26.050
480.79	26.838
481.14	25.717
481.49	26.601
481.84	26.158
482.19	26.707
482.53	26.906
482.88	26.396
483.23	25.432
483.58	25.566
483.92	25.557
484.27	25.661
484.62	27.028
484.97	25.166
485.31	26.445
485.66	27.405
486.01	28.639
486.36	28.242
486.70	28.523
487.05	28.390
487.40	27.611
487.75	27.775
488.09	27.318
488.44	26.651
488.79	26.560
489.13	25.881
489.48	25.524
489.83	25.022
490.17	24.584
490.52	25.450
490.87	24.757
491.22	25.692
491.56	24.478
491.91	25.430
492.26	25.425
492.60	25.960
492.95	25.381
493.30	24.670
493.64	24.754
493.99	25.652
494.34	24.709
494.68	25.619
495.03	24.818
495.37	24.828
495.72	24.987
496.07	25.854
496.41	24.953
496.76	25.702
497.11	24.779
497.45	25.107
497.80	25.832
498.14	24.441
498.49	25.140
498.84	24.501
499.18	25.301
499.53	24.702
499.87	24.368
500.22	24.233
500.56	25.517
500.91	24.498
501.26	24.518
501.60	25.086
501.95	25.716
502.29	25.036
502.64	24.903
502.98	25.802
503.33	25.216
503.67	25.060
504.02	25.024
504.36	25.136
504.71	25.051
505.06	24.962
505.40	25.076
505.75	24.794
506.09	24.430
506.44	26.232
506.78	25.153
507.13	24.457
507.47	23.812
507.82	24.092
508.16	23.930
508.51	24.397
508.85	24.437
509.19	24.534
509.54	24.182
509.88	23.571
510.23	23.884
510.57	24.425
510.92	23.721
511.26	24.441
511.61	24.037
511.95	24.055
512.30	24.113
512.64	23.484
512.98	23.582
513.33	23.671
513.67	23.536
514.02	24.485
514.36	23.543
514.70	24.650
515.05	25.088
515.39	23.554
515.74	22.934
516.08	24.029
516.42	24.205
516.77	23.230
517.11	23.323
517.46	23.639
517.80	23.659
518.14	22.780
518.49	22.716
518.83	23.026
519.17	22.862
519.52	22.676
519.86	22.989
520.20	22.904
520.55	23.327
520.89	23.024
521.23	22.989
521.58	23.470
521.92	21.731
522.26	23.422
522.61	22.662
522.95	23.377
523.29	22.935
523.64	23.126
523.98	23.590
524.32	23.647
524.66	23.431
525.01	23.506
525.35	22.878
525.69	21.953
526.04	22.222
526.38	23.476
526.72	22.106
527.06	22.114
527.41	24.142
527.75	22.386
528.09	22.259
528.43	23.160
528.78	23.036
529.12	22.581
529.46	22.222
529.80	22.609
530.15	23.366
530.49	22.559
530.83	23.187
531.17	22.565
531.51	23.187
531.86	22.570
532.20	22.269
532.54	22.805
532.88	22.040
533.22	22.849
533.57	22.936
533.91	21.671
534.25	23.633
534.59	23.220
534.93	22.782
535.27	22.652
535.62	23.331
535.96	23.353
536.30	24.142
536.64	23.432
536.98	22.091
537.32	23.471
537.66	23.703
538.01	23.077
538.35	23.509
538.69	24.234
539.03	23.103
539.37	23.284
539.71	22.904
540.05	21.453
540.39	22.992
540.73	22.245
541.07	22.997
541.42	24.059
541.76	23.813
542.10	22.505
542.44	22.724
542.78	22.161
543.12	22.871
543.46	23.366
543.80	22.137
544.14	21.963
544.48	22.252
544.82	22.556
545.16	23.907
545.50	24.099
545.84	23.725
546.18	24.043
546.52	22.927
546.86	23.293
547.20	23.462
547.54	22.968
547.88	23.370
548.22	23.603
548.56	23.483
548.90	24.259
549.24	21.970
549.58	22.355
549.92	21.801
550.26	23.663
550.60	22.677
550.94	22.704
551.28	22.720
551.62	23.154
551.96	23.083
552.30	23.757
552.64	22.849
552.98	23.066
553.32	22.468
553.66	22.932
554.00	23.431
554.34	23.708
554.68	21.681
555.02	23.140
555.36	23.411
555.69	22.491
556.03	22.912
556.37	22.420
556.71	23.032
557.05	22.595
557.39	21.487
557.73	23.163
558.07	22.624
558.41	23.047
558.75	22.681
559.08	21.434
559.42	22.381
559.76	22.258
560.10	22.554
560.44	22.264
560.78	22.517
561.12	23.343
561.45	23.963
561.79	23.319
562.13	23.776
562.47	23.165
562.81	22.478
563.15	23.131
563.48	23.338
563.82	23.336
564.16	23.189
564.50	22.432
564.84	23.427
565.17	22.602
565.51	23.975
565.85	23.525
566.19	23.342
566.52	24.464
566.86	23.650
567.20	24.097
567.54	24.696
567.88	25.366
568.21	25.283
568.55	24.891
568.89	25.565
569.23	25.469
569.56	25.963
569.90	26.188
570.24	26.386
570.57	27.091
570.91	27.327
571.25	26.603
571.59	26.503
571.92	26.341
572.26	26.540
572.60	26.388
572.93	26.671
573.27	26.113
573.61	27.178
573.95	26.980
574.28	27.251
574.62	26.723
574.96	26.801
575.29	27.309
575.63	26.276
575.97	26.267
576.30	26.314
576.64	26.940
576.98	27.336
577.31	27.402
577.65	28.234
577.98	27.346
578.32	27.466
578.66	27.574
578.99	27.071
579.33	26.655
579.67	26.697
580.00	27.063
580.34	27.065
580.67	26.929
581.01	27.522
581.35	27.498
581.68	27.514
582.02	27.803
582.35	27.874
582.69	27.522
583.02	27.131
583.36	27.348
583.70	27.285
584.03	27.162
584.37	27.583
584.70	27.418
585.04	26.580
585.37	27.174
585.71	27.129
586.04	27.131
586.38	26.807
586.72	27.202
587.05	27.787
587.39	27.146
587.72	27.638
588.06	26.764
588.39	27.001
588.73	26.893
589.06	27.332
589.40	27.031
589.73	26.798
590.07	26.133
590.40	26.587
590.73	27.100
591.07	25.827
591.40	25.779
591.74	26.244
592.07	26.113
592.41	25.928
592.74	26.683
593.08	25.847
593.41	26.623
593.75	26.529
594.08	26.159
594.41	26.346
594.75	25.420
595.08	26.636
595.42	26.573
595.75	26.699
596.09	27.013
596.42	26.044
596.75	26.110
597.09	26.424
597.42	26.152
597.75	25.882
598.09	25.939
598.42	26.173
598.76	25.997
599.09	26.162
599.42	25.692
599.76	26.862
600.09	25.867
600.42	26.422
600.76	25.966
601.09	25.420
601.42	26.479
601.76	26.479
602.09	25.743
602.42	26.411
602.76	26.104
603.09	26.703
603.42	27.216
603.76	25.887
604.09	25.800
604.42	25.931
604.76	26.435
605.09	26.143
605.42	25.598
605.75	25.569
606.09	26.369
606.42	25.813
606.75	26.104
607.09	26.418
607.42	25.831
607.75	26.021
608.08	25.472
608.42	25.720
608.75	26.506
609.08	26.208
609.41	25.381
609.75	25.706
610.08	25.961
610.41	24.589
610.74	24.768
611.07	25.013
611.41	25.999
611.74	25.426
612.07	25.535
612.40	24.945
612.73	25.480
613.07	24.634
613.40	24.508
613.73	24.622
614.06	26.377
614.39	25.324
614.72	24.706
615.06	25.587
615.39	25.218
615.72	25.296
616.05	25.475
616.38	23.989
616.71	24.771
617.05	25.201
617.38	24.764
617.71	25.157
618.04	26.032
618.37	25.158
618.70	24.752
619.03	25.139
619.36	23.155
619.69	24.488
620.03	25.639
620.36	24.535
620.69	23.483
621.02	22.859
621.35	23.900
621.68	23.299
622.01	22.333
622.34	23.623
622.67	24.132
623.00	24.043
623.33	24.924
623.66	23.411
623.99	23.828
624.32	25.399
624.65	23.308
624.99	24.153
625.32	23.351
625.65	24.980
625.98	24.416
626.31	23.026
626.64	24.523
626.97	23.997
627.30	22.767
627.63	23.310
627.96	23.540
628.29	22.942
628.62	23.795
628.95	21.844
629.28	22.177
629.61	22.931
629.94	23.363
630.26	22.036
630.59	23.309
630.92	23.590
631.25	21.641
631.58	22.687
631.91	20.285
632.24	22.706
632.57	22.614
632.90	20.996
633.23	22.824
633.56	20.655
633.89	20.838
634.22	22.222
