SpectraSuite Data File
++++++++++++++++++++++++++++++++++++
Date: Fri May 15 20:02:28 PDT 2015
User: schluterlab
Dark Spectrum Present: Yes
Reference Spectrum Present: Yes
Number of Sampled Component Spectra: 1
Spectrometers: USB2E3373
Integration Time (usec): 3000 (USB2E3373)
Spectra Averaged: 3 (USB2E3373)
Boxcar Smoothing: 0 (USB2E3373)
Correct for Electrical Dark: No (USB2E3373)
Strobe/Lamp Enabled: No (USB2E3373)
Correct for Detector Non-linearity: No (USB2E3373)
Correct for Stray Light: No (USB2E3373)
Number of Pixels in Processed Spectrum: 2048
>>>>>Begin Processed Spectral Data<<<<<
178.53	0.000
178.91	0.000
179.29	100.000
179.67	-400.000
180.04	42.857
180.42	150.000
180.80	-200.000
181.18	-133.333
181.56	400.000
181.94	250.000
182.31	500.000
182.69	0.000
183.07	-100.000
183.45	80.000
183.83	316.667
184.20	45.455
184.58	122.222
184.96	75.000
185.34	33.333
185.72	-200.000
186.09	30.769
186.47	800.000
186.85	-100.000
187.23	111.111
187.61	-0.000
187.98	33.333
188.36	55.556
188.74	-500.000
189.12	52.941
189.49	72.222
189.87	0.000
190.25	28.571
190.63	350.000
191.00	33.333
191.38	26.316
191.76	150.000
192.14	50.000
192.51	500.000
192.89	22.222
193.27	57.143
193.65	133.333
194.02	54.545
194.40	20.000
194.78	-125.000
195.15	-8.333
195.53	-62.500
195.91	125.000
196.29	100.000
196.66	69.231
197.04	-57.143
197.42	-55.556
197.79	-466.667
198.17	-38.462
198.55	-0.000
198.92	33.333
199.30	400.000
199.68	120.000
200.05	-33.333
200.43	0.000
200.81	-33.333
201.18	333.333
201.56	1300.000
201.94	-50.000
202.31	-266.667
202.69	-200.000
203.07	-75.000
203.44	100.000
203.82	0.000
204.19	107.143
204.57	-66.667
204.95	50.000
205.32	0.000
205.70	28.571
206.08	-75.000
206.45	166.667
206.83	121.429
207.20	0.000
207.58	-1300.000
207.96	-333.333
208.33	-80.000
208.71	-150.000
209.08	-33.333
209.46	-200.000
209.84	40.000
210.21	400.000
210.59	85.714
210.96	16.667
211.34	350.000
211.71	86.667
212.09	14.286
212.46	-1000.000
212.84	0.000
213.22	130.000
213.59	250.000
213.97	23.077
214.34	0.000
214.72	-16.667
215.09	-50.000
215.47	7.692
215.84	72.727
216.22	-266.667
216.59	-62.500
216.97	650.000
217.34	-25.000
217.72	-60.000
218.09	100.000
218.47	-87.500
218.84	-500.000
219.22	-22.222
219.59	40.000
219.97	66.667
220.34	-0.000
220.72	42.857
221.09	-275.000
221.47	450.000
221.84	-150.000
222.22	-450.000
222.59	81.818
222.97	50.000
223.34	266.667
223.72	-35.714
224.09	23.810
224.46	25.000
224.84	300.000
225.21	-30.000
225.59	53.333
225.96	-300.000
226.34	200.000
226.71	-57.143
227.08	83.333
227.46	0.000
227.83	0.000
228.21	55.556
228.58	36.364
228.95	-12.500
229.33	70.000
229.70	37.500
230.08	-37.500
230.45	-57.143
230.82	71.429
231.20	13.333
231.57	57.143
231.95	-114.286
232.32	0.000
232.69	35.714
233.07	-33.333
233.44	60.000
233.81	0.000
234.19	55.556
234.56	52.941
234.93	-0.000
235.31	350.000
235.68	-140.000
236.05	15.385
236.43	-5.000
236.80	58.824
237.17	9.375
237.55	10.000
237.92	-3.704
238.29	30.556
238.67	20.000
239.04	2.941
239.41	0.000
239.79	3.333
240.16	29.268
240.53	13.158
240.91	-2.174
241.28	31.746
241.65	35.714
242.02	34.247
242.40	45.000
242.77	49.153
243.14	33.333
243.51	17.500
243.89	27.586
244.26	18.391
244.63	20.238
245.00	19.588
245.38	23.711
245.75	21.348
246.12	11.207
246.49	24.793
246.87	24.038
247.24	23.529
247.61	19.298
247.98	17.886
248.36	19.375
248.73	21.053
249.10	19.481
249.47	20.886
249.84	20.261
250.22	25.882
250.59	30.065
250.96	30.047
251.33	20.349
251.70	24.706
252.08	26.904
252.45	22.277
252.82	16.583
253.19	22.581
253.56	18.224
253.94	26.577
254.31	24.783
254.68	25.877
255.05	26.378
255.42	22.271
255.79	23.166
256.16	24.514
256.54	25.373
256.91	19.011
257.28	25.279
257.65	22.097
258.02	18.794
258.39	23.906
258.76	25.275
259.14	24.252
259.51	22.654
259.88	21.993
260.25	18.627
260.62	23.958
260.99	24.746
261.36	20.548
261.73	24.051
262.10	26.140
262.47	21.472
262.85	22.884
263.22	23.077
263.59	26.168
263.96	22.671
264.33	24.545
264.70	22.321
265.07	18.750
265.44	19.830
265.81	20.056
266.18	23.224
266.55	23.907
266.92	23.834
267.29	21.932
267.66	24.297
268.03	20.419
268.40	22.193
268.77	26.203
269.14	21.823
269.51	23.907
269.88	24.938
270.25	17.347
270.62	19.268
270.99	21.483
271.36	18.826
271.73	20.657
272.10	20.925
272.47	23.641
272.84	18.069
273.21	23.898
273.58	21.205
273.95	23.341
274.32	20.785
274.69	18.778
275.06	20.982
275.43	19.728
275.80	20.088
276.17	19.540
276.54	20.343
276.91	21.711
277.28	20.087
277.65	22.314
278.02	19.149
278.39	19.912
278.76	19.078
279.13	15.353
279.50	22.689
279.87	21.166
280.23	21.935
280.60	20.078
280.97	22.020
281.34	19.423
281.71	24.230
282.08	20.859
282.45	19.374
282.82	19.305
283.19	23.017
283.56	20.231
283.92	19.734
284.29	19.423
284.66	21.124
285.03	21.611
285.40	20.038
285.77	20.387
286.14	20.578
286.51	22.509
286.87	20.293
287.24	20.442
287.61	21.164
287.98	20.877
288.35	21.317
288.72	20.140
289.08	19.618
289.45	21.090
289.82	19.406
290.19	19.113
290.56	20.069
290.93	21.886
291.29	19.723
291.66	19.843
292.03	18.979
292.40	19.677
292.77	18.820
293.13	17.045
293.50	17.906
293.87	18.779
294.24	18.393
294.60	19.225
294.97	20.387
295.34	19.018
295.71	18.629
296.08	18.087
296.44	17.781
296.81	17.222
297.18	16.957
297.55	19.377
297.91	18.904
298.28	18.865
298.65	17.368
299.02	17.116
299.38	16.963
299.75	17.103
300.12	16.361
300.48	15.942
300.85	17.237
301.22	17.013
301.59	18.289
301.95	18.354
302.32	18.547
302.69	17.910
303.05	16.955
303.42	17.310
303.79	17.173
304.15	16.726
304.52	17.241
304.89	15.439
305.25	17.070
305.62	16.686
305.99	16.608
306.35	15.607
306.72	15.973
307.09	17.446
307.45	18.485
307.82	17.361
308.19	18.467
308.55	17.775
308.92	18.410
309.29	17.542
309.65	17.653
310.02	17.162
310.38	17.563
310.75	16.503
311.12	17.330
311.48	16.755
311.85	17.277
312.22	17.194
312.58	16.773
312.95	15.475
313.31	16.563
313.68	17.382
314.05	17.041
314.41	18.454
314.78	17.732
315.14	17.369
315.51	17.598
315.87	16.086
316.24	18.605
316.61	17.815
316.97	16.567
317.34	16.504
317.70	17.495
318.07	16.635
318.43	16.961
318.80	17.235
319.16	17.188
319.53	16.904
319.89	17.421
320.26	17.713
320.62	18.054
320.99	16.284
321.35	17.266
321.72	17.238
322.08	17.523
322.45	17.766
322.81	17.583
323.18	16.977
323.54	16.216
323.91	18.306
324.27	17.676
324.64	18.633
325.00	20.164
325.37	20.294
325.73	17.951
326.10	18.983
326.46	19.552
326.83	20.122
327.19	20.052
327.56	20.591
327.92	20.863
328.29	20.804
328.65	19.434
329.01	22.426
329.38	21.198
329.74	21.624
330.11	22.521
330.47	22.078
330.84	22.981
331.20	24.049
331.56	21.296
331.93	24.201
332.29	23.190
332.66	22.805
333.02	22.212
333.38	22.090
333.75	25.824
334.11	23.187
334.48	23.753
334.84	24.359
335.20	24.428
335.57	23.572
335.93	24.119
336.29	24.586
336.66	24.523
337.02	24.349
337.38	24.074
337.75	24.455
338.11	24.256
338.47	24.361
338.84	24.584
339.20	23.675
339.56	25.138
339.93	24.530
340.29	24.495
340.65	24.821
341.02	24.645
341.38	23.982
341.74	23.498
342.11	23.657
342.47	24.644
342.83	25.865
343.20	23.693
343.56	25.913
343.92	24.889
344.28	25.107
344.65	23.748
345.01	24.287
345.37	24.643
345.73	25.105
346.10	24.849
346.46	24.643
346.82	22.913
347.19	22.776
347.55	24.728
347.91	24.595
348.27	23.686
348.63	25.468
349.00	23.626
349.36	24.605
349.72	24.793
350.08	24.180
350.45	24.741
350.81	23.422
351.17	23.290
351.53	24.327
351.89	25.021
352.26	23.280
352.62	24.919
352.98	23.775
353.34	23.591
353.70	24.515
354.07	23.548
354.43	23.219
354.79	23.369
355.15	24.206
355.51	24.446
355.87	23.706
356.24	23.573
356.60	23.282
356.96	24.444
357.32	24.281
357.68	24.081
358.04	23.183
358.40	24.357
358.77	24.242
359.13	25.220
359.49	24.422
359.85	24.181
360.21	24.482
360.57	23.795
360.93	23.752
361.29	22.583
361.66	23.668
362.02	24.697
362.38	23.610
362.74	24.224
363.10	24.379
363.46	24.166
363.82	25.620
364.18	24.280
364.54	24.191
364.90	22.652
365.26	24.309
365.62	24.964
365.98	25.367
366.35	25.856
366.71	23.799
367.07	23.803
367.43	24.299
367.79	25.300
368.15	24.551
368.51	24.253
368.87	24.121
369.23	24.043
369.59	24.854
369.95	24.853
370.31	25.217
370.67	25.821
371.03	24.795
371.39	25.529
371.75	25.641
372.11	25.036
372.47	25.444
372.83	24.982
373.19	24.608
373.55	24.693
373.91	25.126
374.27	26.010
374.63	25.915
374.99	25.887
375.35	25.070
375.71	26.084
376.07	26.124
376.42	25.510
376.78	26.242
377.14	25.457
377.50	25.631
377.86	26.305
378.22	26.930
378.58	26.090
378.94	26.087
379.30	25.889
379.66	27.210
380.02	26.364
380.38	26.659
380.74	26.810
381.09	27.423
381.45	27.584
381.81	27.884
382.17	28.490
382.53	27.858
382.89	28.311
383.25	28.438
383.61	29.878
383.97	28.571
384.32	28.705
384.68	28.421
385.04	28.493
385.40	28.687
385.76	29.623
386.12	29.560
386.48	30.268
386.83	29.550
387.19	29.915
387.55	30.803
387.91	31.051
388.27	31.258
388.62	30.208
388.98	29.711
389.34	30.856
389.70	31.075
390.06	30.459
390.42	31.153
390.77	31.655
391.13	31.148
391.49	31.242
391.85	31.644
392.20	30.822
392.56	30.769
392.92	31.767
393.28	31.309
393.64	31.592
393.99	32.163
394.35	31.689
394.71	32.503
395.07	31.364
395.42	31.755
395.78	32.964
396.14	32.346
396.50	32.720
396.85	32.518
397.21	32.143
397.57	31.536
397.92	32.115
398.28	32.529
398.64	31.386
399.00	33.521
399.35	31.998
399.71	32.453
400.07	32.950
400.42	32.252
400.78	33.803
401.14	32.547
401.49	32.758
401.85	32.236
402.21	32.048
402.57	33.000
402.92	31.493
403.28	32.519
403.63	33.291
403.99	32.398
404.35	33.354
404.70	32.560
405.06	33.666
405.42	33.188
405.77	31.842
406.13	33.120
406.49	32.623
406.84	33.313
407.20	33.113
407.55	32.067
407.91	33.289
408.27	33.525
408.62	33.662
408.98	33.457
409.34	32.776
409.69	33.398
410.05	32.512
410.40	33.148
410.76	32.087
411.11	33.375
411.47	33.202
411.83	32.957
412.18	33.269
412.54	31.960
412.89	33.251
413.25	33.333
413.60	32.981
413.96	32.945
414.31	33.171
414.67	32.777
415.03	33.688
415.38	33.029
415.74	34.137
416.09	33.573
416.45	32.546
416.80	32.386
417.16	33.978
417.51	33.178
417.87	32.464
418.22	34.262
418.58	33.512
418.93	34.922
419.29	32.394
419.64	32.469
420.00	34.383
420.35	33.910
420.71	33.475
421.06	33.763
421.42	34.075
421.77	33.468
422.12	33.201
422.48	33.135
422.83	33.063
423.19	33.521
423.54	32.216
423.90	33.628
424.25	33.697
424.61	33.782
424.96	33.740
425.31	33.911
425.67	34.331
426.02	35.218
426.38	34.690
426.73	33.898
427.09	34.747
427.44	34.529
427.79	34.060
428.15	34.284
428.50	34.827
428.85	33.477
429.21	34.578
429.56	34.232
429.92	33.385
430.27	34.486
430.62	33.194
430.98	33.652
431.33	34.227
431.68	34.642
432.04	35.271
432.39	35.197
432.74	33.614
433.10	33.851
433.45	34.110
433.80	34.243
434.16	34.571
434.51	34.624
434.86	34.901
435.22	34.212
435.57	34.623
435.92	34.551
436.28	33.810
436.63	33.999
436.98	34.473
437.34	34.241
437.69	35.719
438.04	34.188
438.39	34.087
438.75	35.762
439.10	35.031
439.45	34.753
439.81	34.679
440.16	35.689
440.51	35.761
440.86	36.556
441.22	35.124
441.57	34.879
441.92	35.467
442.27	35.255
442.63	34.957
442.98	35.612
443.33	35.170
443.68	34.377
444.03	36.066
444.39	34.088
444.74	35.674
445.09	35.356
445.44	35.670
445.79	35.482
446.15	34.637
446.50	35.663
446.85	35.600
447.20	35.871
447.55	35.547
447.91	35.195
448.26	35.857
448.61	35.118
448.96	35.513
449.31	33.526
449.66	35.714
450.02	35.368
450.37	34.973
450.72	34.651
451.07	35.759
451.42	34.582
451.77	35.503
452.12	34.330
452.47	35.093
452.83	35.512
453.18	34.978
453.53	35.272
453.88	36.005
454.23	35.648
454.58	35.264
454.93	35.309
455.28	34.032
455.63	35.214
455.98	35.057
456.34	34.483
456.69	35.070
457.04	35.980
457.39	34.872
457.74	35.792
458.09	34.726
458.44	35.050
458.79	34.846
459.14	35.641
459.49	35.463
459.84	35.195
460.19	34.951
460.54	35.575
460.89	35.398
461.24	35.839
461.59	36.045
461.94	35.157
462.29	35.042
462.64	35.880
462.99	36.019
463.34	36.161
463.69	35.006
464.04	34.927
464.39	35.597
464.74	36.258
465.09	36.120
465.44	36.353
465.79	35.317
466.14	35.348
466.49	35.135
466.84	35.098
467.19	36.295
467.54	35.057
467.89	35.502
468.24	34.976
468.59	36.063
468.94	35.556
469.29	36.459
469.64	36.022
469.99	36.720
470.34	35.085
470.68	36.391
471.03	36.377
471.38	36.662
471.73	35.854
472.08	34.261
472.43	36.107
472.78	35.709
473.13	35.986
473.48	36.287
473.83	34.932
474.17	36.140
474.52	35.099
474.87	34.788
475.22	35.815
475.57	35.630
475.92	36.204
476.27	35.623
476.61	36.690
476.96	34.858
477.31	36.723
477.66	36.067
478.01	35.205
478.36	34.804
478.70	35.454
479.05	35.769
479.40	35.771
479.75	35.506
480.10	35.381
480.45	34.850
480.79	36.103
481.14	35.656
481.49	35.320
481.84	36.390
482.19	35.500
482.53	35.444
482.88	35.847
483.23	35.077
483.58	36.415
483.92	36.205
484.27	35.050
484.62	35.365
484.97	34.909
485.31	34.899
485.66	34.820
486.01	34.296
486.36	34.418
486.70	34.505
487.05	34.979
487.40	34.307
487.75	34.056
488.09	34.642
488.44	34.938
488.79	34.292
489.13	34.295
489.48	35.699
489.83	35.919
490.17	35.236
490.52	35.427
490.87	35.169
491.22	36.151
491.56	35.389
491.91	34.943
492.26	35.634
492.60	35.701
492.95	36.793
493.30	35.222
493.64	36.002
493.99	36.522
494.34	34.612
494.68	35.190
495.03	35.377
495.37	35.329
495.72	35.689
496.07	36.488
496.41	36.321
496.76	35.606
497.11	34.653
497.45	36.181
497.80	36.630
498.14	35.618
498.49	36.414
498.84	35.429
499.18	35.743
499.53	36.607
499.87	35.457
500.22	36.350
500.56	36.157
500.91	36.044
501.26	34.652
501.60	35.121
501.95	35.856
502.29	34.818
502.64	35.473
502.98	35.816
503.33	35.783
503.67	35.759
504.02	35.924
504.36	35.972
504.71	35.152
505.06	36.034
505.40	35.635
505.75	35.722
506.09	35.124
506.44	36.294
506.78	35.765
507.13	35.574
507.47	34.726
507.82	36.485
508.16	35.658
508.51	35.362
508.85	36.211
509.19	36.988
509.54	35.925
509.88	35.437
510.23	35.987
510.57	36.611
510.92	35.608
511.26	36.443
511.61	36.194
511.95	36.000
512.30	36.364
512.64	36.895
512.98	36.159
513.33	36.933
513.67	35.702
514.02	37.300
514.36	36.629
514.70	37.413
515.05	37.427
515.39	35.065
515.74	36.168
516.08	37.119
516.42	37.515
516.77	36.630
517.11	37.033
517.46	36.146
517.80	35.936
518.14	36.742
518.49	36.238
518.83	36.817
519.17	36.082
519.52	35.998
519.86	36.074
520.20	35.966
520.55	35.647
520.89	36.826
521.23	36.985
521.58	37.287
521.92	37.821
522.26	37.280
522.61	37.078
522.95	36.291
523.29	35.388
523.64	36.468
523.98	36.617
524.32	35.567
524.66	36.940
525.01	36.688
525.35	37.719
525.69	37.104
526.04	36.839
526.38	37.095
526.72	35.775
527.06	35.992
527.41	37.005
527.75	36.059
528.09	36.678
528.43	36.394
528.78	36.832
529.12	36.452
529.46	37.102
529.80	35.909
530.15	36.172
530.49	36.633
530.83	37.346
531.17	36.602
531.51	37.688
531.86	36.506
532.20	35.769
532.54	36.147
532.88	36.756
533.22	37.769
533.57	36.304
533.91	35.836
534.25	37.500
534.59	36.434
534.93	35.368
535.27	35.660
535.62	35.126
535.96	36.725
536.30	36.807
536.64	36.527
536.98	36.516
537.32	36.700
537.66	37.307
538.01	35.734
538.35	35.992
538.69	36.418
539.03	35.270
539.37	35.128
539.71	36.469
540.05	34.691
540.39	36.496
540.73	36.402
541.07	36.740
541.42	36.694
541.76	37.715
542.10	35.788
542.44	36.414
542.78	34.618
543.12	35.646
543.46	37.065
543.80	36.225
544.14	36.248
544.48	35.843
544.82	35.817
545.16	37.022
545.50	36.449
545.84	35.198
546.18	36.312
546.52	36.698
546.86	36.089
547.20	36.767
547.54	35.548
547.88	35.802
548.22	34.911
548.56	35.752
548.90	37.129
549.24	35.055
549.58	36.248
549.92	36.169
550.26	36.410
550.60	36.059
550.94	36.893
551.28	37.326
551.62	36.154
551.96	35.940
552.30	35.453
552.64	36.037
552.98	36.146
553.32	37.019
553.66	34.543
554.00	35.766
554.34	35.968
554.68	36.209
555.02	35.789
555.36	36.574
555.69	35.531
556.03	35.261
556.37	35.374
556.71	35.668
557.05	36.913
557.39	34.349
557.73	36.357
558.07	37.406
558.41	36.371
558.75	36.867
559.08	36.564
559.42	35.952
559.76	35.228
560.10	36.697
560.44	35.964
560.78	36.014
561.12	35.049
561.45	36.051
561.79	35.784
562.13	35.131
562.47	35.180
562.81	36.671
563.15	35.543
563.48	36.280
563.82	36.445
564.16	35.655
564.50	35.135
564.84	36.278
565.17	34.675
565.51	35.587
565.85	36.694
566.19	35.743
566.52	36.394
566.86	35.411
567.20	35.803
567.54	34.915
567.88	36.321
568.21	36.708
568.55	35.652
568.89	35.010
569.23	34.810
569.56	34.588
569.90	34.430
570.24	33.532
570.57	34.036
570.91	34.123
571.25	33.311
571.59	32.794
571.92	32.267
572.26	32.790
572.60	33.147
572.93	32.758
573.27	33.072
573.61	33.025
573.95	33.452
574.28	32.389
574.62	32.571
574.96	32.660
575.29	32.408
575.63	32.314
575.97	32.583
576.30	32.443
576.64	32.212
576.98	32.510
577.31	32.760
577.65	32.523
577.98	32.819
578.32	32.513
578.66	31.936
578.99	31.680
579.33	31.626
579.67	31.845
580.00	32.329
580.34	32.438
580.67	31.924
581.01	32.493
581.35	32.257
581.68	32.454
582.02	31.951
582.35	31.643
582.69	32.314
583.02	31.959
583.36	31.488
583.70	32.762
584.03	32.944
584.37	32.524
584.70	32.253
585.04	32.047
585.37	32.138
585.71	31.622
586.04	31.921
586.38	32.489
586.72	32.511
587.05	32.756
587.39	33.184
587.72	32.887
588.06	31.691
588.39	32.298
588.73	32.387
589.06	33.203
589.40	33.667
589.73	33.735
590.07	33.044
590.40	32.740
590.73	33.278
591.07	33.036
591.40	33.037
591.74	33.122
592.07	34.323
592.41	33.348
592.74	32.935
593.08	32.344
593.41	32.257
593.75	33.137
594.08	32.441
594.41	32.606
594.75	31.603
595.08	32.955
595.42	32.352
595.75	33.121
596.09	32.721
596.42	32.947
596.75	33.171
597.09	33.166
597.42	33.559
597.75	34.082
598.09	33.137
598.42	33.303
598.76	32.990
599.09	33.013
599.42	32.285
599.76	32.619
600.09	32.617
600.42	32.070
600.76	32.169
601.09	31.947
601.42	32.354
601.76	32.950
602.09	32.673
602.42	33.024
602.76	33.786
603.09	33.472
603.42	32.985
603.76	31.895
604.09	32.442
604.42	33.164
604.76	33.066
605.09	33.318
605.42	33.002
605.75	32.837
606.09	32.909
606.42	32.277
606.75	32.251
607.09	33.275
607.42	32.521
607.75	32.149
608.08	32.570
608.42	31.658
608.75	32.627
609.08	32.935
609.41	33.299
609.75	33.115
610.08	33.450
610.41	33.333
610.74	33.106
611.07	33.902
611.41	33.368
611.74	34.861
612.07	33.084
612.40	33.425
612.73	33.164
613.07	32.621
613.40	32.932
613.73	32.792
614.06	33.445
614.39	32.995
614.72	31.821
615.06	33.408
615.39	32.260
615.72	31.808
616.05	33.296
616.38	32.023
616.71	32.844
617.05	33.972
617.38	32.872
617.71	32.893
618.04	33.714
618.37	33.039
618.70	33.465
619.03	33.889
619.36	33.285
619.69	34.572
620.03	35.062
620.36	34.621
620.69	33.833
621.02	33.563
621.35	35.021
621.68	35.289
622.01	33.917
622.34	34.238
622.67	34.937
623.00	34.992
623.33	34.223
623.66	33.583
623.99	34.493
624.32	34.221
624.65	32.707
624.99	34.011
625.32	32.449
625.65	34.485
625.98	35.052
626.31	34.248
626.64	35.355
626.97	35.166
627.30	34.063
627.63	35.095
627.96	35.130
628.29	34.228
628.62	35.497
628.95	34.870
629.28	34.778
629.61	34.098
629.94	36.168
630.26	34.684
630.59	36.316
630.92	34.667
631.25	34.462
631.58	34.692
631.91	34.759
632.24	34.289
632.57	36.136
632.90	34.994
633.23	35.882
633.56	36.146
633.89	35.388
634.22	37.160
634.55	37.484
