SpectraSuite Data File
++++++++++++++++++++++++++++++++++++
Date: Wed May 13 20:28:08 PDT 2015
User: schluterlab
Dark Spectrum Present: Yes
Reference Spectrum Present: Yes
Number of Sampled Component Spectra: 1
Spectrometers: USB2E3373
Integration Time (usec): 3000 (USB2E3373)
Spectra Averaged: 3 (USB2E3373)
Boxcar Smoothing: 0 (USB2E3373)
Correct for Electrical Dark: No (USB2E3373)
Strobe/Lamp Enabled: No (USB2E3373)
Correct for Detector Non-linearity: No (USB2E3373)
Correct for Stray Light: No (USB2E3373)
Number of Pixels in Processed Spectrum: 2048
>>>>>Begin Processed Spectral Data<<<<<
178.53	0.000
178.91	-1300.000
179.29	-1125.000
179.67	-200.000
180.04	-1300.000
180.42	2150.000
180.80	840.000
181.18	-850.000
181.56	757.143
181.94	0.000
182.31	-700.000
182.69	1400.000
183.07	-487.500
183.45	-400.000
183.83	518.182
184.20	-310.000
184.58	2200.000
184.96	4600.000
185.34	-560.000
185.72	-512.500
186.09	-2500.000
186.47	2250.000
186.85	1950.000
187.23	4300.000
187.61	-1200.000
187.98	1025.000
188.36	481.818
188.74	409.091
189.12	-680.000
189.49	460.000
189.87	-4000.000
190.25	-1125.000
190.63	364.286
191.00	384.615
191.38	883.333
191.76	-1025.000
192.14	1000.000
192.51	562.500
192.89	883.333
193.27	475.000
193.65	-1175.000
194.02	440.000
194.40	720.000
194.78	590.000
195.15	433.333
195.53	540.000
195.91	-2100.000
196.29	362.500
196.66	236.842
197.04	-300.000
197.42	0.000
197.79	490.000
198.17	-4900.000
198.55	600.000
198.92	537.500
199.30	880.000
199.68	0.000
200.05	233.333
200.43	728.571
200.81	4100.000
201.18	1466.667
201.56	-1300.000
201.94	466.667
202.31	544.444
202.69	366.667
203.07	570.000
203.44	0.000
203.82	1100.000
204.19	757.143
204.57	321.429
204.95	662.500
205.32	1166.667
205.70	445.455
206.08	300.000
206.45	1900.000
206.83	343.750
207.20	666.667
207.58	780.000
207.96	250.000
208.33	625.000
208.71	-716.667
209.08	700.000
209.46	566.667
209.84	372.727
210.21	-1000.000
210.59	1325.000
210.96	-425.000
211.34	1700.000
211.71	540.000
212.09	700.000
212.46	0.000
212.84	1600.000
213.22	1125.000
213.59	-4300.000
213.97	866.667
214.34	671.429
214.72	500.000
215.09	760.000
215.47	-1650.000
215.84	-2200.000
216.22	1400.000
216.59	278.571
216.97	1325.000
217.34	436.364
217.72	-750.000
218.09	0.000
218.47	-3800.000
218.84	466.667
219.22	528.571
219.59	1333.333
219.97	-528.571
220.34	780.000
220.72	-1500.000
221.09	364.286
221.47	1275.000
221.84	-750.000
222.22	0.000
222.59	1100.000
222.97	-2100.000
223.34	1160.000
223.72	338.462
224.09	980.000
224.46	2150.000
224.84	-4200.000
225.21	-680.000
225.59	-2800.000
225.96	520.000
226.34	280.000
226.71	2450.000
227.08	675.000
227.46	500.000
227.83	-925.000
228.21	-2000.000
228.58	600.000
228.95	-1750.000
229.33	-2250.000
229.70	1366.667
230.08	700.000
230.45	-700.000
230.82	333.333
231.20	566.667
231.57	542.857
231.95	500.000
232.32	250.000
232.69	290.909
233.07	728.571
233.44	276.923
233.81	-1300.000
234.19	263.158
234.56	425.000
234.93	350.000
235.31	354.545
235.68	338.462
236.05	300.000
236.43	154.545
236.80	221.053
237.17	4500.000
237.55	204.762
237.92	185.714
238.29	247.619
238.67	187.097
239.04	182.759
239.41	166.667
239.79	117.391
240.16	135.714
240.53	143.182
240.91	101.961
241.28	122.000
241.65	100.000
242.02	105.797
242.40	119.355
242.77	101.667
243.14	81.720
243.51	91.011
243.89	78.824
244.26	71.111
244.63	88.172
245.00	70.213
245.38	80.198
245.75	78.505
246.12	67.890
246.49	72.993
246.87	77.600
247.24	70.769
247.61	62.857
247.98	63.399
248.36	60.135
248.73	63.694
249.10	64.968
249.47	59.322
249.84	66.845
250.22	58.824
250.59	60.355
250.96	57.071
251.33	54.502
251.70	60.891
252.08	53.333
252.45	52.018
252.82	54.348
253.19	56.596
253.56	57.647
253.94	53.527
254.31	53.516
254.68	57.692
255.05	54.244
255.42	52.846
255.79	54.412
256.16	53.430
256.54	50.883
256.91	49.822
257.28	50.360
257.65	48.515
258.02	53.106
258.39	47.003
258.76	49.833
259.14	48.214
259.51	47.112
259.88	49.379
260.25	51.360
260.62	49.711
260.99	49.689
261.36	49.550
261.73	46.991
262.10	47.384
262.47	48.451
262.85	46.518
263.22	45.584
263.59	51.282
263.96	46.429
264.33	50.392
264.70	48.684
265.07	44.757
265.44	46.465
265.81	44.769
266.18	46.985
266.55	47.317
266.92	44.717
267.29	46.528
267.66	47.248
268.03	46.364
268.40	44.393
268.77	44.630
269.14	45.045
269.51	46.501
269.88	46.154
270.25	46.275
270.62	45.169
270.99	45.806
271.36	47.210
271.73	45.794
272.10	44.348
272.47	47.097
272.84	44.589
273.21	45.493
273.58	44.105
273.95	43.187
274.32	44.215
274.69	43.897
275.06	42.913
275.43	45.745
275.80	43.888
276.17	46.029
276.54	44.075
276.91	43.281
277.28	42.188
277.65	44.101
278.02	42.857
278.39	45.703
278.76	42.000
279.13	45.094
279.50	39.851
279.87	43.227
280.23	40.519
280.60	41.973
280.97	43.993
281.34	40.531
281.71	43.273
282.08	43.762
282.45	40.909
282.82	41.385
283.19	39.572
283.56	42.632
283.92	42.640
284.29	40.212
284.66	39.564
285.03	39.602
285.40	41.901
285.77	40.741
286.14	41.796
286.51	41.833
286.87	43.077
287.24	41.694
287.61	40.289
287.98	37.662
288.35	40.729
288.72	37.539
289.08	36.150
289.45	38.056
289.82	37.398
290.19	37.677
290.56	37.519
290.93	35.347
291.29	37.730
291.66	37.021
292.03	36.483
292.40	38.767
292.77	36.538
293.13	36.269
293.50	34.111
293.87	33.778
294.24	34.963
294.60	33.479
294.97	34.448
295.34	34.838
295.71	34.801
296.08	33.476
296.44	33.838
296.81	31.572
297.18	34.688
297.55	31.530
297.91	33.113
298.28	32.396
298.65	34.334
299.02	33.465
299.38	30.810
299.75	28.571
300.12	29.757
300.48	30.625
300.85	30.580
301.22	31.083
301.59	30.934
301.95	31.234
302.32	30.809
302.69	29.749
303.05	30.061
303.42	30.864
303.79	28.879
304.15	29.371
304.52	27.810
304.89	28.688
305.25	28.306
305.62	29.898
305.99	28.808
306.35	28.971
306.72	30.381
307.09	29.856
307.45	31.532
307.82	27.902
308.19	28.366
308.55	29.773
308.92	28.142
309.29	27.878
309.65	27.466
310.02	28.224
310.38	28.495
310.75	28.722
311.12	27.226
311.48	28.109
311.85	27.883
312.22	28.200
312.58	27.755
312.95	28.405
313.31	26.699
313.68	27.963
314.05	28.501
314.41	27.940
314.78	26.989
315.14	28.302
315.51	26.468
315.87	28.812
316.24	27.607
316.61	27.388
316.97	27.104
317.34	26.712
317.70	27.820
318.07	28.393
318.43	26.517
318.80	26.898
319.16	27.119
319.53	27.298
319.89	26.857
320.26	28.600
320.62	26.687
320.99	27.071
321.35	27.677
321.72	29.261
322.08	26.555
322.45	28.458
322.81	27.519
323.18	26.301
323.54	26.160
323.91	27.075
324.27	28.298
324.64	26.841
325.00	26.510
325.37	27.662
325.73	28.276
326.10	27.979
326.46	27.509
326.83	27.610
327.19	27.754
327.56	26.481
327.92	27.034
328.29	27.152
328.65	27.164
329.01	27.437
329.38	27.382
329.74	26.593
330.11	28.181
330.47	27.456
330.84	28.676
331.20	26.503
331.56	25.963
331.93	27.315
332.29	27.240
332.66	27.876
333.02	26.782
333.38	27.823
333.75	27.986
334.11	27.669
334.48	27.507
334.84	26.930
335.20	27.273
335.57	26.111
335.93	26.071
336.29	27.289
336.66	27.683
337.02	24.887
337.38	26.759
337.75	26.292
338.11	27.126
338.47	26.151
338.84	26.123
339.20	24.862
339.56	27.190
339.93	26.182
340.29	25.543
340.65	24.599
341.02	26.789
341.38	26.512
341.74	26.754
342.11	26.463
342.47	25.639
342.83	25.942
343.20	27.619
343.56	24.937
343.92	26.228
344.28	25.170
344.65	26.655
345.01	25.253
345.37	24.614
345.73	25.973
346.10	26.257
346.46	25.169
346.82	25.783
347.19	24.645
347.55	25.452
347.91	25.890
348.27	26.294
348.63	25.000
349.00	24.191
349.36	25.862
349.72	24.699
350.08	24.311
350.45	25.386
350.81	25.020
351.17	25.851
351.53	24.570
351.89	23.927
352.26	25.257
352.62	24.619
352.98	25.689
353.34	26.459
353.70	24.304
354.07	25.242
354.43	23.730
354.79	24.618
355.15	25.060
355.51	24.860
355.87	24.000
356.24	25.244
356.60	23.176
356.96	23.894
357.32	24.530
357.68	24.961
358.04	23.595
358.40	25.178
358.77	23.318
359.13	23.441
359.49	24.549
359.85	22.937
360.21	23.445
360.57	24.591
360.93	24.615
361.29	23.583
361.66	22.678
362.02	24.030
362.38	22.966
362.74	24.033
363.10	21.762
363.46	22.671
363.82	23.356
364.18	23.348
364.54	25.037
364.90	23.654
365.26	22.941
365.62	23.448
365.98	22.279
366.35	21.705
366.71	23.283
367.07	23.015
367.43	23.948
367.79	23.911
368.15	23.851
368.51	22.892
368.87	22.698
369.23	22.677
369.59	23.244
369.95	22.941
370.31	22.578
370.67	22.029
371.03	24.419
371.39	23.178
371.75	23.088
372.11	22.902
372.47	23.387
372.83	22.911
373.19	22.038
373.55	21.434
373.91	23.122
374.27	21.168
374.63	22.400
374.99	22.881
375.35	21.912
375.71	21.522
376.07	22.222
376.42	22.008
376.78	21.670
377.14	22.863
377.50	21.589
377.86	21.277
378.22	22.440
378.58	21.178
378.94	21.559
379.30	21.947
379.66	22.398
380.02	22.297
380.38	21.554
380.74	22.209
381.09	21.516
381.45	22.311
381.81	21.929
382.17	21.720
382.53	21.258
382.89	22.222
383.25	21.263
383.61	22.800
383.97	21.701
384.32	21.585
384.68	21.561
385.04	21.881
385.40	21.053
385.76	20.885
386.12	21.114
386.48	21.208
386.83	21.552
387.19	21.583
387.55	21.459
387.91	21.161
388.27	21.214
388.62	22.372
388.98	21.314
389.34	21.527
389.70	21.521
390.06	21.420
390.42	20.947
390.77	22.265
391.13	21.442
391.49	21.701
391.85	20.942
392.20	20.505
392.56	21.275
392.92	20.247
393.28	20.237
393.64	20.624
393.99	21.258
394.35	20.596
394.71	21.142
395.07	21.184
395.42	20.519
395.78	21.565
396.14	21.229
396.50	21.930
396.85	20.852
397.21	20.715
397.57	20.893
397.92	20.793
398.28	20.348
398.64	21.207
399.00	20.985
399.35	20.305
399.71	20.370
400.07	20.757
400.42	21.288
400.78	22.014
401.14	20.854
401.49	21.552
401.85	20.024
402.21	20.659
402.57	20.234
402.92	21.438
403.28	20.425
403.63	20.668
403.99	20.701
404.35	20.848
404.70	20.983
405.06	19.627
405.42	20.462
405.77	19.886
406.13	20.598
406.49	20.993
406.84	20.673
407.20	20.213
407.55	20.676
407.91	21.867
408.27	20.868
408.62	20.409
408.98	19.975
409.34	21.341
409.69	20.581
410.05	20.446
410.40	21.957
410.76	21.027
411.11	21.653
411.47	20.831
411.83	20.464
412.18	20.346
412.54	20.361
412.89	20.904
413.25	20.012
413.60	20.877
413.96	20.158
414.31	19.988
414.67	21.356
415.03	20.861
415.38	20.490
415.74	20.064
416.09	21.424
416.45	20.884
416.80	20.423
417.16	21.314
417.51	19.907
417.87	20.488
418.22	20.757
418.58	20.917
418.93	20.577
419.29	20.433
419.64	20.403
420.00	20.549
420.35	20.348
420.71	20.323
421.06	19.988
421.42	20.000
421.77	20.740
422.12	20.606
422.48	19.374
422.83	20.559
423.19	20.608
423.54	20.894
423.90	19.826
424.25	20.491
424.61	20.357
424.96	20.641
425.31	19.767
425.67	19.719
426.02	19.829
426.38	20.757
426.73	19.310
427.09	20.304
427.44	20.127
427.79	20.357
428.15	20.298
428.50	20.480
428.85	21.216
429.21	20.320
429.56	19.751
429.92	20.030
430.27	19.563
430.62	20.174
430.98	20.187
431.33	20.103
431.68	20.262
432.04	19.808
432.39	20.103
432.74	21.005
433.10	19.638
433.45	20.058
433.80	19.956
434.16	20.780
434.51	20.000
434.86	20.981
435.22	20.567
435.57	20.243
435.92	19.719
436.28	20.225
436.63	20.143
436.98	20.263
437.34	21.944
437.69	20.828
438.04	20.461
438.39	20.537
438.75	20.453
439.10	20.894
439.45	21.311
439.81	19.396
440.16	19.932
440.51	20.680
440.86	20.672
441.22	19.522
441.57	21.072
441.92	20.727
442.27	20.452
442.63	19.853
442.98	21.634
443.33	20.217
443.68	19.979
444.03	20.205
444.39	19.864
444.74	20.509
445.09	20.323
445.44	19.902
445.79	20.139
446.15	20.593
446.50	20.517
446.85	20.452
447.20	20.194
447.55	20.212
447.91	20.022
448.26	20.312
448.61	20.859
448.96	20.653
449.31	20.472
449.66	20.484
450.02	20.279
450.37	20.181
450.72	20.079
451.07	19.683
451.42	19.939
451.77	20.787
452.12	20.035
452.47	20.274
452.83	20.280
453.18	19.682
453.53	21.027
453.88	20.142
454.23	20.143
454.58	20.472
454.93	20.343
455.28	20.137
455.63	19.964
455.98	21.012
456.34	20.101
456.69	20.977
457.04	20.867
457.39	20.573
457.74	20.836
458.09	20.357
458.44	20.582
458.79	19.089
459.14	20.485
459.49	20.957
459.84	20.720
460.19	19.682
460.54	19.676
460.89	19.803
461.24	20.461
461.59	21.092
461.94	20.284
462.29	20.950
462.64	19.783
462.99	20.429
463.34	20.600
463.69	20.388
464.04	21.043
464.39	20.986
464.74	20.202
465.09	19.903
465.44	20.886
465.79	19.407
466.14	20.307
466.49	20.412
466.84	20.665
467.19	20.941
467.54	20.312
467.89	20.768
468.24	20.128
468.59	20.879
468.94	19.365
469.29	19.794
469.64	20.817
469.99	19.892
470.34	20.674
470.68	20.187
471.03	18.980
471.38	20.848
471.73	20.586
472.08	20.395
472.43	20.226
472.78	19.882
473.13	19.961
473.48	20.974
473.83	20.488
474.17	19.602
474.52	20.533
474.87	20.841
475.22	21.010
475.57	19.344
475.92	19.490
476.27	20.011
476.61	20.408
476.96	19.681
477.31	19.257
477.66	20.022
478.01	19.498
478.36	20.677
478.70	19.782
479.05	20.021
479.40	20.522
479.75	20.081
480.10	18.787
480.45	19.467
480.79	19.541
481.14	20.205
481.49	19.649
481.84	19.296
482.19	20.036
482.53	19.083
482.88	19.684
483.23	19.533
483.58	19.654
483.92	19.775
484.27	18.693
484.62	19.483
484.97	19.472
485.31	19.486
485.66	19.690
486.01	19.547
486.36	19.191
486.70	18.338
487.05	18.629
487.40	18.258
487.75	18.373
488.09	18.077
488.44	17.745
488.79	18.228
489.13	18.335
489.48	18.148
489.83	18.861
490.17	19.947
490.52	18.423
490.87	18.951
491.22	19.463
491.56	18.724
491.91	18.846
492.26	18.052
492.60	19.032
492.95	19.270
493.30	18.364
493.64	18.899
493.99	19.452
494.34	19.473
494.68	19.368
495.03	19.408
495.37	18.660
495.72	19.444
496.07	19.118
496.41	18.584
496.76	18.777
497.11	18.820
497.45	18.398
497.80	19.146
498.14	18.792
498.49	18.585
498.84	19.175
499.18	18.810
499.53	18.756
499.87	19.292
500.22	19.312
500.56	20.194
500.91	17.981
501.26	19.203
501.60	19.459
501.95	18.607
502.29	18.932
502.64	18.808
502.98	18.887
503.33	18.373
503.67	18.329
504.02	19.785
504.36	19.139
504.71	18.906
505.06	18.892
505.40	18.960
505.75	18.226
506.09	18.999
506.44	19.339
506.78	19.338
507.13	19.081
507.47	18.939
507.82	20.061
508.16	19.200
508.51	18.823
508.85	19.464
509.19	19.031
509.54	18.776
509.88	18.599
510.23	18.663
510.57	20.021
510.92	19.161
511.26	18.602
511.61	19.450
511.95	18.476
512.30	18.452
512.64	17.786
512.98	19.132
513.33	18.683
513.67	19.050
514.02	18.290
514.36	18.842
514.70	19.314
515.05	18.015
515.39	19.910
515.74	18.863
516.08	19.676
516.42	19.478
516.77	19.398
517.11	18.812
517.46	19.018
517.80	18.990
518.14	18.356
518.49	19.020
518.83	18.523
519.17	18.649
519.52	19.072
519.86	18.597
520.20	19.017
520.55	19.031
520.89	18.431
521.23	19.662
521.58	18.487
521.92	19.106
522.26	18.487
522.61	18.941
522.95	18.907
523.29	19.172
523.64	19.268
523.98	18.669
524.32	18.335
524.66	18.942
525.01	19.424
525.35	18.711
525.69	18.227
526.04	18.069
526.38	18.975
526.72	18.466
527.06	17.891
527.41	17.512
527.75	19.164
528.09	18.882
528.43	19.375
528.78	18.931
529.12	19.152
529.46	19.167
529.80	19.616
530.15	20.249
530.49	18.154
530.83	18.671
531.17	19.713
531.51	20.169
531.86	19.742
532.20	19.426
532.54	18.898
532.88	19.255
533.22	19.488
533.57	19.198
533.91	18.844
534.25	19.563
534.59	18.609
534.93	18.501
535.27	19.010
535.62	19.048
535.96	19.460
536.30	18.563
536.64	19.124
536.98	18.182
537.32	18.762
537.66	19.133
538.01	18.565
538.35	19.198
538.69	19.592
539.03	18.259
539.37	18.594
539.71	17.822
540.05	19.150
540.39	19.203
540.73	18.305
541.07	19.208
541.42	19.635
541.76	19.226
542.10	19.599
542.44	18.477
542.78	19.104
543.12	18.170
543.46	19.738
543.80	18.998
544.14	18.421
544.48	18.984
544.82	18.922
545.16	19.193
545.50	19.087
545.84	18.347
546.18	19.394
546.52	17.963
546.86	18.969
547.20	19.285
547.54	19.906
547.88	19.133
548.22	18.867
548.56	19.057
548.90	17.926
549.24	18.586
549.58	18.690
549.92	19.437
550.26	18.608
550.60	18.949
550.94	19.718
551.28	18.069
551.62	18.404
551.96	20.140
552.30	19.044
552.64	19.202
552.98	19.864
553.32	19.150
553.66	19.700
554.00	20.041
554.34	19.462
554.68	20.100
555.02	19.464
555.36	19.763
555.69	19.012
556.03	20.054
556.37	19.441
556.71	18.486
557.05	19.118
557.39	17.985
557.73	18.278
558.07	18.999
558.41	18.307
558.75	20.059
559.08	18.941
559.42	18.065
559.76	19.559
560.10	19.058
560.44	19.008
560.78	19.095
561.12	18.668
561.45	19.752
561.79	19.512
562.13	18.779
562.47	18.852
562.81	18.201
563.15	19.197
563.48	19.098
563.82	18.330
564.16	19.359
564.50	17.578
564.84	17.699
565.17	19.112
565.51	18.978
565.85	19.099
566.19	18.159
566.52	18.746
566.86	18.807
567.20	18.809
567.54	19.349
567.88	19.011
568.21	20.053
568.55	18.655
568.89	18.677
569.23	18.271
569.56	18.947
569.90	18.566
570.24	18.622
570.57	18.463
570.91	18.423
571.25	18.283
571.59	18.498
571.92	17.972
572.26	18.544
572.60	18.438
572.93	18.291
573.27	18.219
573.61	18.453
573.95	18.579
574.28	18.693
574.62	17.784
574.96	17.897
575.29	17.871
575.63	18.039
575.97	17.990
576.30	18.083
576.64	17.842
576.98	17.842
577.31	18.161
577.65	18.350
577.98	18.516
578.32	18.090
578.66	18.134
578.99	17.804
579.33	17.599
579.67	17.514
580.00	17.861
580.34	17.727
580.67	17.703
581.01	18.260
581.35	18.163
581.68	18.226
582.02	18.174
582.35	17.975
582.69	18.476
583.02	18.121
583.36	17.524
583.70	17.882
584.03	17.398
584.37	17.839
584.70	17.659
585.04	17.931
585.37	18.220
585.71	18.727
586.04	18.169
586.38	18.077
586.72	18.558
587.05	17.984
587.39	18.074
587.72	18.294
588.06	17.689
588.39	17.860
588.73	17.718
589.06	17.700
589.40	17.643
589.73	17.916
590.07	18.043
590.40	17.318
590.73	17.525
591.07	18.315
591.40	18.051
591.74	18.268
592.07	17.845
592.41	18.520
592.74	18.689
593.08	18.954
593.41	18.792
593.75	18.145
594.08	18.371
594.41	18.204
594.75	18.041
595.08	18.647
595.42	18.389
595.75	17.771
596.09	18.588
596.42	18.743
596.75	17.982
597.09	18.485
597.42	17.707
597.75	17.551
598.09	17.826
598.42	17.655
598.76	18.362
599.09	17.636
599.42	18.341
599.76	18.485
600.09	18.033
600.42	18.335
600.76	17.714
601.09	18.179
601.42	18.798
601.76	18.292
602.09	18.142
602.42	18.511
602.76	18.783
603.09	18.725
603.42	18.586
603.76	17.912
604.09	18.069
604.42	18.100
604.76	18.726
605.09	18.523
605.42	17.785
605.75	18.171
606.09	18.056
606.42	18.308
606.75	17.959
607.09	18.292
607.42	18.057
607.75	18.228
608.08	18.063
608.42	18.512
608.75	18.079
609.08	18.085
609.41	18.229
609.75	18.009
610.08	18.615
610.41	17.691
610.74	18.590
611.07	17.935
611.41	17.713
611.74	18.854
612.07	18.530
612.40	18.468
612.73	17.842
613.07	18.912
613.40	19.063
613.73	17.672
614.06	18.495
614.39	18.721
614.72	18.895
615.06	19.013
615.39	18.100
615.72	18.507
616.05	18.129
616.38	18.232
616.71	18.646
617.05	18.963
617.38	17.198
617.71	17.778
618.04	19.050
618.37	18.332
618.70	18.046
619.03	18.224
619.36	18.398
619.69	19.014
620.03	18.338
620.36	18.650
620.69	18.973
621.02	18.437
621.35	17.228
621.68	17.679
622.01	19.505
622.34	19.440
622.67	18.479
623.00	18.269
623.33	18.728
623.66	19.371
623.99	18.925
624.32	18.260
624.65	18.715
624.99	18.059
625.32	18.537
625.65	17.956
625.98	19.216
626.31	18.896
626.64	18.449
626.97	18.786
627.30	18.288
627.63	18.950
627.96	19.260
628.29	18.810
628.62	18.756
628.95	18.679
629.28	18.704
629.61	20.715
629.94	19.619
630.26	18.684
630.59	18.112
630.92	19.923
