SpectraSuite Data File
++++++++++++++++++++++++++++++++++++
Date: Wed May 13 20:28:12 PDT 2015
User: schluterlab
Dark Spectrum Present: Yes
Reference Spectrum Present: Yes
Number of Sampled Component Spectra: 1
Spectrometers: USB2E3373
Integration Time (usec): 3000 (USB2E3373)
Spectra Averaged: 3 (USB2E3373)
Boxcar Smoothing: 0 (USB2E3373)
Correct for Electrical Dark: No (USB2E3373)
Strobe/Lamp Enabled: No (USB2E3373)
Correct for Detector Non-linearity: No (USB2E3373)
Correct for Stray Light: No (USB2E3373)
Number of Pixels in Processed Spectrum: 2048
>>>>>Begin Processed Spectral Data<<<<<
178.53	0.000
178.91	-1075.000
179.29	-1050.000
179.67	-188.889
180.04	-1075.000
180.42	2400.000
180.80	920.000
181.18	-950.000
181.56	614.286
181.94	0.000
182.31	-442.857
182.69	1433.333
183.07	-487.500
183.45	-600.000
183.83	536.364
184.20	-360.000
184.58	2100.000
184.96	4200.000
185.34	-640.000
185.72	-500.000
186.09	-2450.000
186.47	2200.000
186.85	1800.000
187.23	3900.000
187.61	-1500.000
187.98	1175.000
188.36	436.364
188.74	390.909
189.12	-680.000
189.49	570.000
189.87	-4100.000
190.25	-1250.000
190.63	442.857
191.00	369.231
191.38	866.667
191.76	-1050.000
192.14	1150.000
192.51	450.000
192.89	816.667
193.27	575.000
193.65	-975.000
194.02	480.000
194.40	680.000
194.78	540.000
195.15	458.333
195.53	550.000
195.91	-1850.000
196.29	306.250
196.66	284.211
197.04	-310.000
197.42	0.000
197.79	600.000
198.17	-2900.000
198.55	542.857
198.92	575.000
199.30	680.000
199.68	0.000
200.05	277.778
200.43	685.714
200.81	4100.000
201.18	1366.667
201.56	-1233.333
201.94	511.111
202.31	444.444
202.69	375.000
203.07	380.000
203.44	0.000
203.82	925.000
204.19	500.000
204.57	450.000
204.95	475.000
205.32	1466.667
205.70	490.909
206.08	300.000
206.45	1900.000
206.83	281.250
207.20	583.333
207.58	540.000
207.96	238.889
208.33	787.500
208.71	-683.333
209.08	657.143
209.46	633.333
209.84	445.455
210.21	-1266.667
210.59	1100.000
210.96	-450.000
211.34	1750.000
211.71	490.000
212.09	666.667
212.46	0.000
212.84	1333.333
213.22	1200.000
213.59	-4000.000
213.97	766.667
214.34	714.286
214.72	509.091
215.09	840.000
215.47	-2350.000
215.84	-2400.000
216.22	1166.667
216.59	342.857
216.97	1000.000
217.34	390.909
217.72	-616.667
218.09	0.000
218.47	-4400.000
218.84	488.889
219.22	657.143
219.59	1500.000
219.97	-600.000
220.34	900.000
220.72	-1466.667
221.09	371.429
221.47	1150.000
221.84	-900.000
222.22	0.000
222.59	1225.000
222.97	-2150.000
223.34	1100.000
223.72	346.154
224.09	840.000
224.46	2000.000
224.84	-4500.000
225.21	-880.000
225.59	-3200.000
225.96	570.000
226.34	235.000
226.71	2100.000
227.08	562.500
227.46	490.000
227.83	-925.000
228.21	-2250.000
228.58	544.444
228.95	-2200.000
229.33	-1750.000
229.70	1500.000
230.08	657.143
230.45	-660.000
230.82	400.000
231.20	600.000
231.57	628.571
231.95	425.000
232.32	218.182
232.69	436.364
233.07	585.714
233.44	292.308
233.81	-1533.333
234.19	321.053
234.56	441.667
234.93	366.667
235.31	436.364
235.68	330.769
236.05	292.857
236.43	178.788
236.80	236.842
237.17	4900.000
237.55	238.095
237.92	217.857
238.29	242.857
238.67	167.742
239.04	210.345
239.41	161.111
239.79	141.304
240.16	190.476
240.53	143.182
240.91	129.412
241.28	116.000
241.65	120.000
242.02	118.841
242.40	108.065
242.77	121.667
243.14	89.247
243.51	105.618
243.89	90.588
244.26	101.111
244.63	95.699
245.00	97.872
245.38	86.139
245.75	82.243
246.12	105.505
246.49	93.431
246.87	88.000
247.24	87.692
247.61	80.714
247.98	75.817
248.36	74.324
248.73	78.344
249.10	87.261
249.47	69.492
249.84	78.610
250.22	75.401
250.59	81.065
250.96	78.283
251.33	72.038
251.70	74.752
252.08	73.333
252.45	74.888
252.82	68.261
253.19	73.191
253.56	69.020
253.94	75.934
254.31	71.094
254.68	73.077
255.05	71.587
255.42	73.577
255.79	69.853
256.16	71.480
256.54	67.491
256.91	67.260
257.28	66.187
257.65	66.337
258.02	66.770
258.39	66.877
258.76	61.204
259.14	69.345
259.51	65.957
259.88	70.807
260.25	67.674
260.62	64.451
260.99	68.944
261.36	66.066
261.73	64.183
262.10	65.698
262.47	69.014
262.85	62.396
263.22	64.387
263.59	70.085
263.96	65.110
264.33	64.752
264.70	62.105
265.07	62.660
265.44	66.414
265.81	60.341
266.18	65.327
266.55	63.415
266.92	67.322
267.29	63.889
267.66	61.468
268.03	60.455
268.40	65.654
268.77	64.439
269.14	63.063
269.51	60.497
269.88	65.501
270.25	62.528
270.62	62.022
270.99	61.505
271.36	62.017
271.73	63.318
272.10	60.000
272.47	64.516
272.84	61.905
273.21	60.797
273.58	60.044
273.95	58.910
274.32	60.950
274.69	60.385
275.06	59.449
275.43	59.787
275.80	59.920
276.17	62.729
276.54	63.825
276.91	60.474
277.28	59.375
277.65	58.994
278.02	62.940
278.39	62.109
278.76	59.818
279.13	59.245
279.50	58.659
279.87	60.558
280.23	60.279
280.60	58.027
280.97	56.747
281.34	59.646
281.71	57.818
282.08	58.349
282.45	56.727
282.82	58.082
283.19	56.150
283.56	58.246
283.92	58.037
284.29	58.201
284.66	57.169
285.03	56.600
285.40	58.979
285.77	54.545
286.14	56.131
286.51	55.667
286.87	57.436
287.24	54.886
287.61	53.130
287.98	55.519
288.35	54.041
288.72	52.492
289.08	53.208
289.45	52.224
289.82	52.683
290.19	51.020
290.56	50.383
290.93	48.640
291.29	52.301
291.66	48.525
292.03	52.762
292.40	51.982
292.77	47.485
293.13	48.358
293.50	49.563
293.87	49.481
294.24	50.815
294.60	46.434
294.97	48.547
295.34	48.519
295.71	47.869
296.08	46.724
296.44	46.080
296.81	45.443
297.18	47.425
297.55	43.140
297.91	43.536
298.28	47.122
298.65	45.300
299.02	45.455
299.38	45.020
299.75	42.992
300.12	43.550
300.48	43.625
300.85	43.403
301.22	44.331
301.59	41.667
301.95	43.073
302.32	44.416
302.69	41.935
303.05	41.455
303.42	40.864
303.79	41.789
304.15	39.510
304.52	41.483
304.89	41.580
305.25	40.835
305.62	40.091
305.99	42.385
306.35	40.716
306.72	42.265
307.09	40.733
307.45	41.892
307.82	39.174
308.19	40.618
308.55	39.914
308.92	40.494
309.29	37.592
309.65	40.085
310.02	38.266
310.38	39.140
310.75	39.599
311.12	38.485
311.48	39.916
311.85	39.203
312.22	39.230
312.58	38.773
312.95	39.599
313.31	35.922
313.68	39.293
314.05	39.645
314.41	39.095
314.78	38.872
315.14	36.743
315.51	37.487
315.87	39.307
316.24	36.941
316.61	38.012
316.97	38.160
317.34	36.399
317.70	39.006
318.07	37.440
318.43	38.748
318.80	37.488
319.16	37.853
319.53	36.492
319.89	37.524
320.26	38.300
320.62	38.790
320.99	38.990
321.35	38.283
321.72	38.193
322.08	38.697
322.45	38.010
322.81	38.178
323.18	38.054
323.54	37.755
323.91	36.981
324.27	37.189
324.64	38.117
325.00	36.069
325.37	38.308
325.73	38.420
326.10	37.599
326.46	37.545
326.83	37.446
327.19	36.806
327.56	37.544
327.92	37.970
328.29	37.445
328.65	36.832
329.01	37.545
329.38	38.205
329.74	37.581
330.11	37.700
330.47	36.823
330.84	39.246
331.20	36.430
331.56	34.771
331.93	36.204
332.29	36.291
332.66	37.168
333.02	36.563
333.38	36.585
333.75	36.720
334.11	36.032
334.48	36.114
334.84	37.316
335.20	37.182
335.57	37.987
335.93	34.732
336.29	35.531
336.66	36.339
337.02	36.471
337.38	36.204
337.75	35.472
338.11	35.810
338.47	36.556
338.84	36.297
339.20	35.413
339.56	36.588
339.93	35.273
340.29	35.145
340.65	35.651
341.02	36.649
341.38	37.456
341.74	35.526
342.11	35.983
342.47	35.066
342.83	34.846
343.20	35.152
343.56	34.709
343.92	35.263
344.28	33.503
344.65	35.856
345.01	34.091
345.37	33.705
345.73	34.856
346.10	35.635
346.46	33.983
346.82	35.173
347.19	35.338
347.55	33.744
347.91	34.466
348.27	35.004
348.63	34.615
349.00	34.142
349.36	34.975
349.72	33.761
350.08	32.901
350.45	34.255
350.81	34.119
351.17	33.712
351.53	33.907
351.89	33.251
352.26	34.254
352.62	34.403
352.98	32.820
353.34	33.607
353.70	32.897
354.07	33.548
354.43	32.857
354.79	32.582
355.15	31.764
355.51	34.612
355.87	33.224
356.24	33.795
356.60	31.516
356.96	32.663
357.32	34.914
357.68	32.677
358.04	31.829
358.40	32.700
358.77	32.707
359.13	31.176
359.49	32.078
359.85	32.302
360.21	32.616
360.57	32.996
360.93	32.154
361.29	32.880
361.66	32.121
362.02	32.761
362.38	32.015
362.74	32.738
363.10	31.162
363.46	31.548
363.82	32.275
364.18	31.278
364.54	31.426
364.90	32.011
365.26	31.912
365.62	31.410
365.98	31.629
366.35	31.734
366.71	31.381
367.07	31.464
367.43	32.221
367.79	32.477
368.15	32.615
368.51	30.887
368.87	32.620
369.23	32.114
369.59	31.644
369.95	30.368
370.31	31.339
370.67	30.652
371.03	31.610
371.39	30.904
371.75	30.882
372.11	31.010
372.47	32.331
372.83	31.412
373.19	30.780
373.55	31.338
373.91	31.738
374.27	30.241
374.63	30.255
374.99	32.274
375.35	29.798
375.71	30.637
376.07	31.070
376.42	30.399
376.78	30.616
377.14	30.122
377.50	30.795
377.86	29.588
378.22	30.025
378.58	29.198
378.94	29.290
379.30	29.517
379.66	30.076
380.02	30.467
380.38	30.237
380.74	30.492
381.09	29.218
381.45	30.670
381.81	30.098
382.17	30.828
382.53	29.308
382.89	29.630
383.25	30.394
383.61	30.112
383.97	30.519
384.32	29.694
384.68	28.686
385.04	29.625
385.40	29.536
385.76	29.115
386.12	29.534
386.48	29.515
386.83	30.019
387.19	30.983
387.55	30.118
387.91	29.323
388.27	29.307
388.62	30.178
388.98	28.010
389.34	29.725
389.70	29.062
390.06	30.292
390.42	29.377
390.77	28.817
391.13	30.185
391.49	29.061
391.85	27.944
392.20	28.328
392.56	30.051
392.92	29.606
393.28	28.817
393.64	29.077
393.99	29.322
394.35	29.218
394.71	29.799
395.07	27.539
395.42	28.307
395.78	28.053
396.14	27.871
396.50	29.198
396.85	29.498
397.21	28.792
397.57	28.022
397.92	28.846
398.28	27.635
398.64	28.315
399.00	27.980
399.35	27.862
399.71	28.067
400.07	28.918
400.42	28.405
400.78	29.252
401.14	28.902
401.49	28.896
401.85	28.494
402.21	28.323
402.57	27.822
402.92	28.121
403.28	29.419
403.63	29.332
403.99	27.580
404.35	27.818
404.70	27.698
405.06	27.373
405.42	28.821
405.77	28.571
406.13	28.330
406.49	28.326
406.84	28.234
407.20	27.778
407.55	27.760
407.91	28.533
408.27	29.100
408.62	28.477
408.98	28.431
409.34	28.229
409.69	28.065
410.05	27.695
410.40	27.584
410.76	27.718
411.11	27.865
411.47	28.115
411.83	28.650
412.18	28.139
412.54	28.331
412.89	27.410
413.25	28.335
413.60	28.845
413.96	27.140
414.31	27.886
414.67	28.074
415.03	28.013
415.38	27.320
415.74	27.781
416.09	28.152
416.45	28.983
416.80	28.817
417.16	27.815
417.51	28.003
417.87	27.938
418.22	28.707
418.58	28.470
418.93	29.177
419.29	29.026
419.64	28.149
420.00	27.927
420.35	27.884
420.71	27.555
421.06	27.983
421.42	27.193
421.77	28.139
422.12	26.839
422.48	27.091
422.83	28.072
423.19	28.011
423.54	28.091
423.90	28.290
424.25	27.694
424.61	27.321
424.96	26.531
425.31	27.187
425.67	26.742
426.02	26.800
426.38	28.694
426.73	26.624
427.09	27.781
427.44	27.832
427.79	27.372
428.15	27.560
428.50	26.975
428.85	28.129
429.21	27.223
429.56	26.801
429.92	27.831
430.27	27.011
430.62	27.906
430.98	27.919
431.33	27.062
431.68	27.382
432.04	27.210
432.39	27.242
432.74	26.511
433.10	27.844
433.45	27.638
433.80	26.940
434.16	27.511
434.51	26.895
434.86	27.537
435.22	27.626
435.57	28.267
435.92	26.682
436.28	27.936
436.63	27.649
436.98	27.132
437.34	28.205
437.69	27.946
438.04	27.319
438.39	27.403
438.75	27.193
439.10	27.318
439.45	26.919
439.81	27.251
440.16	26.765
440.51	27.827
440.86	27.852
441.22	27.141
441.57	26.911
441.92	28.096
442.27	27.503
442.63	26.646
442.98	27.268
443.33	26.957
443.68	27.155
444.03	26.647
444.39	27.215
444.74	27.381
445.09	27.655
445.44	27.447
445.79	27.313
446.15	27.845
446.50	27.625
446.85	26.824
447.20	27.945
447.55	28.029
447.91	27.634
448.26	27.824
448.61	27.699
448.96	27.409
449.31	27.840
449.66	27.631
450.02	26.574
450.37	26.361
450.72	27.468
451.07	26.691
451.42	27.477
451.77	27.187
452.12	27.483
452.47	27.425
452.83	26.981
453.18	26.589
453.53	27.335
453.88	26.226
454.23	26.718
454.58	27.741
454.93	27.718
455.28	26.372
455.63	27.852
455.98	28.571
456.34	27.136
456.69	27.865
457.04	27.368
457.39	26.710
457.74	26.930
458.09	26.509
458.44	27.081
458.79	26.410
459.14	27.370
459.49	27.087
459.84	27.147
460.19	26.871
460.54	26.736
460.89	27.208
461.24	28.233
461.59	28.298
461.94	26.942
462.29	27.122
462.64	26.228
462.99	26.025
463.34	26.467
463.69	26.391
464.04	27.826
464.39	28.000
464.74	27.926
465.09	25.935
465.44	26.482
465.79	27.013
466.14	26.327
466.49	26.196
466.84	27.437
467.19	26.795
467.54	26.687
467.89	26.170
468.24	26.585
468.59	27.045
468.94	25.962
469.29	26.992
469.64	27.577
469.99	25.913
470.34	25.958
470.68	27.083
471.03	26.463
471.38	26.755
471.73	26.582
472.08	26.776
472.43	26.508
472.78	26.991
473.13	26.765
473.48	26.342
473.83	26.829
474.17	26.322
474.52	25.806
474.87	26.328
475.22	25.711
475.57	25.846
475.92	25.863
476.27	26.888
476.61	26.586
476.96	25.838
477.31	25.536
477.66	26.532
478.01	25.353
478.36	26.758
478.70	25.649
479.05	26.092
479.40	25.691
479.75	25.775
480.10	25.497
480.45	25.559
480.79	25.418
481.14	25.391
481.49	25.914
481.84	25.743
482.19	26.079
482.53	25.138
482.88	26.291
483.23	25.327
483.58	25.296
483.92	25.586
484.27	24.924
484.62	24.483
484.97	25.108
485.31	26.370
485.66	26.131
486.01	26.345
486.36	25.765
486.70	25.622
487.05	25.124
487.40	24.796
487.75	25.246
488.09	24.901
488.44	24.283
488.79	24.593
489.13	24.714
489.48	24.266
489.83	25.119
490.17	25.296
490.52	25.199
490.87	24.559
491.22	24.739
491.56	23.964
491.91	24.895
492.26	25.080
492.60	24.885
492.95	24.088
493.30	24.159
493.64	24.545
493.99	24.605
494.34	24.561
494.68	25.000
495.03	24.389
495.37	25.128
495.72	24.415
496.07	25.290
496.41	24.513
496.76	24.802
497.11	24.989
497.45	24.499
497.80	24.328
498.14	24.396
498.49	24.195
498.84	24.401
499.18	24.286
499.53	24.359
499.87	24.837
500.22	25.200
500.56	25.874
500.91	24.423
501.26	24.941
501.60	25.297
501.95	23.877
502.29	24.461
502.64	24.255
502.98	24.357
503.33	24.360
503.67	24.594
504.02	24.790
504.36	24.193
504.71	24.133
505.06	24.289
505.40	24.696
505.75	23.819
506.09	24.101
506.44	24.174
506.78	24.842
507.13	24.634
507.47	24.394
507.82	24.569
508.16	24.924
508.51	24.607
508.85	24.379
509.19	24.337
509.54	24.082
509.88	24.420
510.23	23.033
510.57	25.439
510.92	24.392
511.26	24.974
511.61	24.793
511.95	23.800
512.30	23.277
512.64	24.288
512.98	23.741
513.33	23.983
513.67	23.693
514.02	23.431
514.36	23.921
514.70	23.575
515.05	22.699
515.39	23.892
515.74	23.480
516.08	24.483
516.42	23.640
516.77	24.638
517.11	24.195
517.46	23.984
517.80	23.229
518.14	22.525
518.49	24.096
518.83	23.920
519.17	23.788
519.52	23.260
519.86	23.388
520.20	24.220
520.55	23.998
520.89	24.027
521.23	23.462
521.58	23.289
521.92	23.699
522.26	22.636
522.61	22.804
522.95	22.836
523.29	23.128
523.64	24.390
523.98	23.906
524.32	23.341
524.66	24.775
525.01	23.713
525.35	23.110
525.69	23.214
526.04	23.988
526.38	22.880
526.72	22.883
527.06	23.980
527.41	22.587
527.75	23.666
528.09	23.828
528.43	24.092
528.78	23.786
529.12	22.727
529.46	24.189
529.80	24.814
530.15	23.738
530.49	23.138
530.83	23.734
531.17	23.890
531.51	24.060
531.86	22.581
532.20	23.338
532.54	24.215
532.88	24.005
533.22	23.610
533.57	23.272
533.91	23.901
534.25	23.694
534.59	24.100
534.93	23.141
535.27	23.235
535.62	24.359
535.96	24.231
536.30	23.522
536.64	23.889
536.98	24.353
537.32	22.910
537.66	24.133
538.01	23.831
538.35	24.305
538.69	24.825
539.03	23.717
539.37	23.642
539.71	23.331
540.05	23.791
540.39	23.455
540.73	23.027
541.07	24.659
541.42	23.940
541.76	24.581
542.10	24.256
542.44	24.172
542.78	23.979
543.12	23.225
543.46	24.328
543.80	23.878
544.14	23.171
544.48	24.190
544.82	24.246
545.16	24.333
545.50	23.008
545.84	23.253
546.18	23.704
546.52	23.262
546.86	23.368
547.20	23.938
547.54	24.248
547.88	25.128
548.22	24.222
548.56	23.836
548.90	23.880
549.24	23.165
549.58	23.533
549.92	23.214
550.26	24.219
550.60	23.651
550.94	23.239
551.28	23.336
551.62	23.364
551.96	23.649
552.30	24.164
552.64	25.287
552.98	24.814
553.32	24.005
553.66	24.813
554.00	24.228
554.34	23.533
554.68	23.963
555.02	22.920
555.36	23.243
555.69	23.072
556.03	24.092
556.37	23.943
556.71	22.783
557.05	23.529
557.39	23.233
557.73	23.430
558.07	23.858
558.41	23.589
558.75	23.586
559.08	23.937
559.42	24.490
559.76	23.971
560.10	22.698
560.44	24.389
560.78	23.819
561.12	23.087
561.45	24.316
561.79	24.127
562.13	23.877
562.47	23.566
562.81	24.059
563.15	23.211
563.48	23.939
563.82	23.483
564.16	23.806
564.50	23.958
564.84	23.578
565.17	23.938
565.51	23.834
565.85	23.350
566.19	24.483
566.52	23.939
566.86	23.568
567.20	23.880
567.54	24.315
567.88	23.737
568.21	24.603
568.55	24.317
568.89	24.270
569.23	24.020
569.56	24.737
569.90	24.868
570.24	25.081
570.57	24.617
570.91	24.499
571.25	24.645
571.59	24.801
571.92	25.490
572.26	24.610
572.60	24.414
572.93	24.168
573.27	24.490
573.61	24.456
573.95	25.297
574.28	24.296
574.62	24.441
574.96	24.516
575.29	24.467
575.63	24.873
575.97	24.603
576.30	24.349
576.64	24.236
576.98	24.259
577.31	24.792
577.65	24.864
577.98	25.111
578.32	24.285
578.66	24.843
578.99	24.264
579.33	23.505
579.67	24.057
580.00	24.191
580.34	24.703
580.67	24.131
581.01	24.219
581.35	25.118
581.68	25.274
582.02	25.031
582.35	25.461
582.69	24.806
583.02	24.461
583.36	24.579
583.70	24.051
584.03	23.981
584.37	24.137
584.70	24.347
585.04	24.315
585.37	24.464
585.71	24.695
586.04	24.619
586.38	25.313
586.72	24.827
587.05	23.825
587.39	24.090
587.72	24.684
588.06	24.787
588.39	24.609
588.73	24.201
589.06	24.244
589.40	24.680
589.73	24.745
590.07	24.555
590.40	24.626
590.73	24.122
591.07	24.624
591.40	24.378
591.74	24.978
592.07	24.258
592.41	24.845
592.74	24.757
593.08	24.783
593.41	24.676
593.75	24.391
594.08	25.142
594.41	24.390
594.75	23.660
595.08	24.159
595.42	24.764
595.75	24.038
596.09	25.122
596.42	24.519
596.75	23.259
597.09	24.762
597.42	24.115
597.75	23.890
598.09	23.652
598.42	23.883
598.76	24.362
599.09	24.819
599.42	24.636
599.76	24.744
600.09	24.044
600.42	24.069
600.76	24.250
601.09	24.372
601.42	23.592
601.76	24.516
602.09	24.190
602.42	23.885
602.76	24.103
603.09	24.705
603.42	24.209
603.76	24.466
604.09	24.312
604.42	24.460
604.76	24.673
605.09	23.722
605.42	24.156
605.75	24.834
606.09	24.115
606.42	25.010
606.75	23.932
607.09	24.320
607.42	23.620
607.75	24.219
608.08	23.621
608.42	24.025
608.75	23.625
609.08	23.127
609.41	23.703
609.75	23.154
610.08	24.741
610.41	23.883
610.74	24.361
611.07	23.913
611.41	24.387
611.74	24.937
612.07	24.120
612.40	24.816
612.73	24.947
613.07	24.246
613.40	24.855
613.73	24.541
614.06	23.925
614.39	23.912
614.72	24.842
615.06	23.897
615.39	24.098
615.72	24.233
616.05	24.296
616.38	24.625
616.71	24.228
617.05	24.323
617.38	23.391
617.71	24.264
618.04	24.820
618.37	24.187
618.70	24.269
619.03	24.474
619.36	24.779
619.69	24.437
620.03	23.901
620.36	25.334
620.69	24.521
621.02	23.894
621.35	22.709
621.68	22.819
622.01	23.684
622.34	24.054
622.67	23.346
623.00	22.524
623.33	23.231
623.66	24.303
623.99	23.564
624.32	23.252
624.65	23.376
624.99	23.300
625.32	23.316
625.65	24.643
625.98	24.596
626.31	24.184
626.64	24.000
626.97	22.444
627.30	22.028
627.63	23.626
627.96	24.895
628.29	23.185
628.62	23.879
628.95	24.906
629.28	23.358
629.61	25.573
629.94	23.905
630.26	23.737
630.59	24.118
630.92	22.510
