SpectraSuite Data File
++++++++++++++++++++++++++++++++++++
Date: Wed May 13 20:23:17 PDT 2015
User: schluterlab
Dark Spectrum Present: Yes
Reference Spectrum Present: Yes
Number of Sampled Component Spectra: 1
Spectrometers: USB2E3373
Integration Time (usec): 3000 (USB2E3373)
Spectra Averaged: 3 (USB2E3373)
Boxcar Smoothing: 0 (USB2E3373)
Correct for Electrical Dark: No (USB2E3373)
Strobe/Lamp Enabled: No (USB2E3373)
Correct for Detector Non-linearity: No (USB2E3373)
Correct for Stray Light: No (USB2E3373)
Number of Pixels in Processed Spectrum: 2048
>>>>>Begin Processed Spectral Data<<<<<
178.53	0.000
178.91	-1250.000
179.29	-1325.000
179.67	-222.222
180.04	-1250.000
180.42	2700.000
180.80	1080.000
181.18	-1050.000
181.56	671.429
181.94	0.000
182.31	-642.857
182.69	1833.333
183.07	-562.500
183.45	-433.333
183.83	527.273
184.20	-390.000
184.58	2000.000
184.96	5000.000
185.34	-880.000
185.72	-512.500
186.09	-2250.000
186.47	2550.000
186.85	2700.000
187.23	4500.000
187.61	-1666.667
187.98	1325.000
188.36	563.636
188.74	445.455
189.12	-660.000
189.49	590.000
189.87	-5300.000
190.25	-1275.000
190.63	471.429
191.00	469.231
191.38	783.333
191.76	-1200.000
192.14	1525.000
192.51	562.500
192.89	966.667
193.27	550.000
193.65	-975.000
194.02	490.000
194.40	820.000
194.78	500.000
195.15	466.667
195.53	660.000
195.91	-2250.000
196.29	325.000
196.66	342.105
197.04	-360.000
197.42	0.000
197.79	550.000
198.17	-5000.000
198.55	700.000
198.92	712.500
199.30	940.000
199.68	0.000
200.05	355.556
200.43	671.429
200.81	4600.000
201.18	1733.333
201.56	-1600.000
201.94	511.111
202.31	622.222
202.69	408.333
203.07	460.000
203.44	0.000
203.82	1275.000
204.19	728.571
204.57	464.286
204.95	637.500
205.32	1633.333
205.70	454.545
206.08	371.429
206.45	1950.000
206.83	362.500
207.20	916.667
207.58	980.000
207.96	311.111
208.33	625.000
208.71	-900.000
209.08	742.857
209.46	611.111
209.84	427.273
210.21	-1333.333
210.59	1300.000
210.96	-462.500
211.34	2450.000
211.71	550.000
212.09	850.000
212.46	0.000
212.84	1666.667
213.22	1200.000
213.59	-4600.000
213.97	800.000
214.34	700.000
214.72	645.455
215.09	1000.000
215.47	-2350.000
215.84	-2850.000
216.22	1700.000
216.59	407.143
216.97	1400.000
217.34	409.091
217.72	-733.333
218.09	0.000
218.47	-4700.000
218.84	588.889
219.22	757.143
219.59	1400.000
219.97	-685.714
220.34	1180.000
220.72	-1866.667
221.09	385.714
221.47	1400.000
221.84	-916.667
222.22	0.000
222.59	1575.000
222.97	-2600.000
223.34	1060.000
223.72	392.308
224.09	1060.000
224.46	2100.000
224.84	-4400.000
225.21	-1100.000
225.59	-5700.000
225.96	630.000
226.34	320.000
226.71	2600.000
227.08	612.500
227.46	480.000
227.83	-1125.000
228.21	-2250.000
228.58	533.333
228.95	-2400.000
229.33	-1900.000
229.70	1533.333
230.08	857.143
230.45	-820.000
230.82	441.667
231.20	783.333
231.57	485.714
231.95	466.667
232.32	268.182
232.69	436.364
233.07	642.857
233.44	338.462
233.81	-1633.333
234.19	273.684
234.56	458.333
234.93	383.333
235.31	436.364
235.68	323.077
236.05	364.286
236.43	190.909
236.80	273.684
237.17	5500.000
237.55	242.857
237.92	253.571
238.29	257.143
238.67	187.097
239.04	248.276
239.41	208.333
239.79	123.913
240.16	166.667
240.53	156.818
240.91	121.569
241.28	140.000
241.65	156.000
242.02	124.638
242.40	120.968
242.77	111.667
243.14	93.548
243.51	105.618
243.89	92.941
244.26	91.111
244.63	90.323
245.00	88.298
245.38	104.950
245.75	85.981
246.12	91.743
246.49	83.942
246.87	92.000
247.24	80.000
247.61	81.429
247.98	81.046
248.36	73.649
248.73	73.248
249.10	75.159
249.47	74.576
249.84	68.984
250.22	65.775
250.59	69.822
250.96	70.202
251.33	72.986
251.70	69.307
252.08	67.619
252.45	65.022
252.82	62.609
253.19	67.660
253.56	69.020
253.94	65.975
254.31	64.062
254.68	62.308
255.05	65.683
255.42	70.325
255.79	60.294
256.16	63.538
256.54	59.011
256.91	61.210
257.28	59.353
257.65	57.426
258.02	55.901
258.39	59.621
258.76	60.535
259.14	57.738
259.51	56.231
259.88	60.559
260.25	58.610
260.62	58.671
260.99	57.143
261.36	63.063
261.73	60.172
262.10	56.686
262.47	58.873
262.85	59.053
263.22	56.980
263.59	59.544
263.96	54.121
264.33	55.352
264.70	54.474
265.07	56.522
265.44	57.828
265.81	52.068
266.18	57.789
266.55	57.317
266.92	57.248
267.29	57.407
267.66	52.064
268.03	54.773
268.40	55.607
268.77	55.847
269.14	54.505
269.51	55.530
269.88	57.110
270.25	52.144
270.62	53.034
270.99	55.914
271.36	53.004
271.73	50.000
272.10	53.696
272.47	56.774
272.84	50.216
273.21	53.249
273.58	54.367
273.95	50.734
274.32	51.860
274.69	54.818
275.06	50.000
275.43	54.255
275.80	50.701
276.17	52.546
276.54	53.638
276.91	51.186
277.28	46.484
277.65	49.903
278.02	50.518
278.39	51.562
278.76	50.182
279.13	51.698
279.50	50.838
279.87	50.598
280.23	52.894
280.60	49.516
280.97	48.799
281.34	51.327
281.71	49.818
282.08	51.440
282.45	49.273
282.82	49.023
283.19	49.911
283.56	48.596
283.92	50.254
284.29	49.912
284.66	49.002
285.03	48.101
285.40	49.120
285.77	47.811
286.14	47.841
286.51	48.333
286.87	49.231
287.24	47.883
287.61	45.746
287.98	45.292
288.35	46.910
288.72	45.639
289.08	46.009
289.45	46.458
289.82	45.203
290.19	43.642
290.56	44.257
290.93	43.958
291.29	46.472
291.66	42.920
292.03	46.657
292.40	44.640
292.77	40.976
293.13	42.836
293.50	43.149
293.87	43.704
294.24	41.926
294.60	39.738
294.97	41.715
295.34	41.326
295.71	41.477
296.08	40.313
296.44	40.853
296.81	38.177
297.18	40.921
297.55	37.863
297.91	37.071
298.28	40.830
298.65	39.948
299.02	38.735
299.38	37.716
299.75	36.523
300.12	36.526
300.48	36.000
300.85	37.608
301.22	36.561
301.59	36.995
301.95	36.524
302.32	36.200
302.69	34.289
303.05	36.848
303.42	34.321
303.79	35.900
304.15	33.916
304.52	34.994
304.89	35.075
305.25	34.571
305.62	36.014
305.99	35.537
306.35	34.340
306.72	34.529
307.09	34.850
307.45	34.234
307.82	35.268
308.19	35.651
308.55	35.599
308.92	33.835
309.29	33.263
309.65	32.662
310.02	35.201
310.38	33.871
310.75	33.791
311.12	33.777
311.48	34.483
311.85	34.172
312.22	34.027
312.58	33.888
312.95	34.213
313.31	33.010
313.68	33.784
314.05	34.418
314.41	33.769
314.78	33.635
315.14	33.664
315.51	33.677
315.87	34.752
316.24	33.069
316.61	33.821
316.97	32.387
317.34	33.072
317.70	33.843
318.07	34.264
318.43	34.344
318.80	34.114
319.16	34.181
319.53	33.677
319.89	35.714
320.26	36.000
320.62	35.119
320.99	35.758
321.35	34.848
321.72	36.550
322.08	36.426
322.45	36.915
322.81	37.888
323.18	37.669
323.54	37.291
323.91	36.509
324.27	37.572
324.64	36.906
325.00	36.159
325.37	38.672
325.73	38.151
326.10	37.776
326.46	37.903
326.83	38.568
327.19	40.393
327.56	38.240
327.92	40.157
328.29	40.728
328.65	40.700
329.01	40.614
329.38	40.056
329.74	40.628
330.11	41.565
330.47	41.690
330.84	41.728
331.20	41.166
331.56	41.376
331.93	42.222
332.29	40.728
332.66	42.832
333.02	42.596
333.38	41.373
333.75	42.513
334.11	42.171
334.48	41.260
334.84	42.739
335.20	43.727
335.57	43.336
335.93	41.696
336.29	43.498
336.66	42.381
337.02	40.995
337.38	42.963
337.75	41.889
338.11	43.957
338.47	43.002
338.84	43.171
339.20	42.569
339.56	43.066
339.93	42.000
340.29	42.572
340.65	42.335
341.02	43.368
341.38	43.505
341.74	43.947
342.11	42.707
342.47	43.524
342.83	42.466
343.20	42.511
343.56	42.713
343.92	43.772
344.28	43.197
344.65	43.336
345.01	41.414
345.37	42.796
345.73	42.978
346.10	44.160
346.46	42.203
346.82	42.092
347.19	43.358
347.55	41.954
347.91	43.528
348.27	43.468
348.63	43.729
349.00	41.990
349.36	43.103
349.72	42.181
350.08	40.924
350.45	43.287
350.81	42.161
351.17	42.058
351.53	43.653
351.89	42.327
352.26	42.699
352.62	43.224
352.98	42.950
353.34	43.632
353.70	43.126
354.07	42.903
354.43	43.095
354.79	42.397
355.15	43.815
355.51	44.524
355.87	44.245
356.24	44.218
356.60	41.780
356.96	44.087
357.32	43.336
357.68	41.339
358.04	43.389
358.40	43.310
358.77	44.210
359.13	43.489
359.49	43.137
359.85	43.333
360.21	43.860
360.57	44.514
360.93	44.846
361.29	44.067
361.66	43.189
362.02	43.060
362.38	44.943
362.74	43.676
363.10	42.857
363.46	43.727
363.82	44.142
364.18	43.686
364.54	44.502
364.90	44.051
365.26	44.412
365.62	45.289
365.98	42.732
366.35	43.553
366.71	44.035
367.07	44.137
367.43	45.428
367.79	44.897
368.15	45.474
368.51	43.895
368.87	45.967
369.23	46.306
369.59	45.112
369.95	45.221
370.31	45.228
370.67	45.145
371.03	46.891
371.39	46.137
371.75	46.471
372.11	45.235
372.47	45.894
372.83	47.118
373.19	45.954
373.55	45.972
373.91	46.539
374.27	44.811
374.63	46.109
374.99	46.469
375.35	45.569
375.71	45.785
376.07	46.776
376.42	46.492
376.78	46.918
377.14	46.472
377.50	46.225
377.86	45.412
378.22	46.903
378.58	45.489
378.94	46.512
379.30	46.565
379.66	47.081
380.02	46.499
380.38	46.752
380.74	46.759
381.09	46.149
381.45	49.293
381.81	48.096
382.17	48.535
382.53	47.107
382.89	47.778
383.25	48.218
383.61	48.575
383.97	47.467
384.32	47.286
384.68	48.327
385.04	47.511
385.40	48.545
385.76	48.280
386.12	47.992
386.48	48.018
386.83	50.545
387.19	49.660
387.55	48.794
387.91	47.703
388.27	47.823
388.62	50.154
388.98	47.604
389.34	49.499
389.70	48.682
390.06	49.683
390.42	49.222
390.77	49.618
391.13	49.521
391.49	48.985
391.85	50.477
392.20	49.338
392.56	49.874
392.92	48.970
393.28	48.462
393.64	50.240
393.99	48.687
394.35	50.062
394.71	48.369
395.07	49.346
395.42	50.927
395.78	49.809
396.14	49.845
396.50	50.063
396.85	50.858
397.21	49.260
397.57	50.403
397.92	49.519
398.28	48.374
398.64	50.299
399.00	50.476
399.35	49.295
399.71	50.174
400.07	49.793
400.42	50.613
400.78	50.483
401.14	51.037
401.49	51.045
401.85	50.514
402.21	50.000
402.57	50.339
402.92	49.937
403.28	50.156
403.63	49.938
403.99	51.019
404.35	49.152
404.70	49.820
405.06	49.621
405.42	49.595
405.77	49.771
406.13	49.549
406.49	50.917
406.84	49.734
407.20	49.291
407.55	49.968
407.91	51.400
408.27	51.627
408.62	50.090
408.98	50.306
409.34	49.815
409.69	50.903
410.05	50.434
410.40	50.826
410.76	49.522
411.11	49.337
411.47	49.904
411.83	50.275
412.18	49.907
412.54	50.560
412.89	50.482
413.25	50.236
413.60	51.575
413.96	49.180
414.31	49.635
414.67	50.190
415.03	50.728
415.38	50.515
415.74	51.125
416.09	51.600
416.45	50.335
416.80	50.297
417.16	51.072
417.51	51.161
417.87	50.546
418.22	50.726
418.58	50.613
418.93	51.044
419.29	49.523
419.64	51.071
420.00	50.915
420.35	49.797
420.71	51.285
421.06	50.239
421.42	50.117
421.77	50.336
422.12	49.298
422.48	50.027
422.83	50.262
423.19	50.387
423.54	50.784
423.90	50.203
424.25	49.581
424.61	50.952
424.96	49.621
425.31	50.055
425.67	48.933
426.02	49.829
426.38	51.221
426.73	49.386
427.09	50.456
427.44	48.476
427.79	50.776
428.15	48.810
428.50	49.912
428.85	50.656
429.21	49.365
429.56	49.663
429.92	49.371
430.27	49.106
430.62	48.797
430.98	50.597
431.33	50.052
431.68	51.047
432.04	48.829
432.39	51.114
432.74	50.449
433.10	50.821
433.45	50.029
433.80	49.945
434.16	49.947
434.51	49.263
434.86	49.658
435.22	49.361
435.57	50.334
435.92	49.327
436.28	51.779
436.63	50.717
436.98	50.086
437.34	50.984
437.69	50.758
438.04	49.635
438.39	50.030
438.75	50.087
439.10	50.391
439.45	50.295
439.81	50.634
440.16	49.746
440.51	50.439
440.86	51.013
441.22	49.944
441.57	49.947
441.92	50.716
442.27	49.731
442.63	49.868
442.98	50.141
443.33	49.402
443.68	49.871
444.03	49.439
444.39	49.270
444.74	50.703
445.09	48.194
445.44	48.442
445.79	49.085
446.15	49.021
446.50	49.704
446.85	50.051
447.20	49.669
447.55	50.530
447.91	49.476
448.26	48.303
448.61	50.028
448.96	50.443
449.31	51.181
449.66	49.015
450.02	49.749
450.37	48.753
450.72	49.633
451.07	49.665
451.42	49.605
451.77	49.383
452.12	50.231
452.47	50.373
452.83	50.117
453.18	48.900
453.53	50.278
453.88	50.089
454.23	50.090
454.58	50.636
454.93	49.968
455.28	49.190
455.63	49.757
455.98	50.476
456.34	50.691
456.69	49.781
457.04	49.845
457.39	49.795
457.74	49.275
458.09	49.511
458.44	49.373
458.79	47.939
459.14	49.605
459.49	49.854
459.84	48.366
460.19	48.674
460.54	48.495
460.89	50.082
461.24	48.573
461.59	50.552
461.94	48.459
462.29	49.614
462.64	49.777
462.99	48.731
463.34	50.867
463.69	50.281
464.04	50.725
464.39	49.391
464.74	49.733
465.09	50.603
465.44	48.255
465.79	49.217
466.14	48.440
466.49	49.388
466.84	50.029
467.19	48.884
467.54	49.437
467.89	48.980
468.24	50.145
468.59	50.733
468.94	49.420
469.29	50.386
469.64	50.000
469.99	50.677
470.34	49.802
470.68	52.371
471.03	48.503
471.38	51.633
471.73	50.167
472.08	50.263
472.43	49.812
472.78	50.296
473.13	48.716
473.48	50.312
473.83	49.512
474.17	49.409
474.52	50.000
474.87	50.730
475.22	50.029
475.57	49.382
475.92	49.495
476.27	49.211
476.61	49.752
476.96	49.863
477.31	49.503
477.66	49.836
478.01	48.092
478.36	49.180
478.70	49.013
479.05	49.681
479.40	49.335
479.75	49.110
480.10	50.398
480.45	48.406
480.79	48.399
481.14	49.511
481.49	49.217
481.84	49.566
482.19	49.432
482.53	49.404
482.88	49.372
483.23	48.972
483.58	48.817
483.92	49.016
484.27	47.756
484.62	49.138
484.97	47.970
485.31	48.082
485.66	47.198
486.01	46.776
486.36	45.585
486.70	45.791
487.05	46.189
487.40	46.859
487.75	48.001
488.09	48.802
488.44	47.865
488.79	48.933
489.13	48.663
489.48	48.083
489.83	47.993
490.17	49.233
490.52	47.741
490.87	48.485
491.22	48.658
491.56	47.745
491.91	48.906
492.26	47.634
492.60	48.571
492.95	48.176
493.30	47.944
493.64	48.530
493.99	48.004
494.34	49.260
494.68	47.985
495.03	49.530
495.37	48.115
495.72	48.294
496.07	49.559
496.41	48.407
496.76	49.384
497.11	48.492
497.45	49.278
497.80	49.472
498.14	49.179
498.49	49.902
498.84	49.856
499.18	48.190
499.53	48.481
499.87	48.835
500.22	48.045
500.56	49.709
500.91	48.558
501.26	48.222
501.60	49.834
501.95	48.763
502.29	50.000
502.64	49.814
502.98	49.883
503.33	48.766
503.67	49.745
504.02	49.719
504.36	49.883
504.71	49.731
505.06	50.024
505.40	49.781
505.75	49.807
506.09	48.785
506.44	49.877
506.78	50.170
507.13	50.782
507.47	50.202
507.82	50.355
508.16	50.507
508.51	51.598
508.85	50.497
509.19	50.000
509.54	51.990
509.88	50.541
510.23	51.003
510.57	52.167
510.92	51.683
511.26	50.565
511.61	51.660
511.95	50.522
512.30	51.644
512.64	52.499
512.98	53.055
513.33	51.606
513.67	52.188
514.02	51.894
514.36	53.687
514.70	52.573
515.05	51.088
515.39	51.935
515.74	52.534
516.08	52.152
516.42	52.775
516.77	53.679
517.11	52.553
517.46	52.709
517.80	53.833
518.14	52.577
518.49	54.492
518.83	52.216
519.17	53.868
519.52	53.424
519.86	53.622
520.20	54.566
520.55	53.740
520.89	54.015
521.23	55.428
521.58	54.322
521.92	54.807
522.26	52.410
522.61	53.583
522.95	54.266
523.29	54.108
523.64	55.244
523.98	54.529
524.32	56.876
524.66	55.201
525.01	53.064
525.35	54.213
525.69	53.140
526.04	53.956
526.38	55.278
526.72	54.294
527.06	55.304
527.41	53.342
527.75	55.627
528.09	56.840
528.43	55.067
528.78	54.579
529.12	54.303
529.46	55.297
529.80	56.312
530.15	54.766
530.49	53.723
530.83	54.304
531.17	56.984
531.51	55.707
531.86	54.645
532.20	55.085
532.54	56.566
532.88	54.685
533.22	54.216
533.57	54.630
533.91	54.365
534.25	54.192
534.59	56.193
534.93	55.027
535.27	54.134
535.62	54.212
535.96	55.242
536.30	54.545
536.64	54.089
536.98	54.280
537.32	54.707
537.66	55.600
538.01	55.958
538.35	56.367
538.69	55.648
539.03	54.581
539.37	54.313
539.71	54.569
540.05	54.967
540.39	54.751
540.73	53.493
541.07	55.483
541.42	56.034
541.76	55.419
542.10	56.404
542.44	56.821
542.78	55.731
543.12	54.319
543.46	55.279
543.80	55.498
544.14	54.236
544.48	54.921
544.82	55.805
545.16	55.433
545.50	53.085
545.84	55.309
546.18	55.556
546.52	55.540
546.86	56.289
547.20	54.754
547.54	54.910
547.88	56.059
548.22	54.483
548.56	54.214
548.90	54.738
549.24	54.411
549.58	55.389
549.92	56.044
550.26	56.321
550.60	53.389
550.94	55.141
551.28	55.523
551.62	55.715
551.96	54.316
552.30	55.358
552.64	55.375
552.98	56.136
553.32	55.158
553.66	55.351
554.00	56.005
554.34	53.071
554.68	55.579
555.02	53.738
555.36	54.141
555.69	53.789
556.03	55.653
556.37	53.956
556.71	54.366
557.05	54.342
557.39	53.884
557.73	55.328
558.07	55.620
558.41	55.282
558.75	54.592
559.08	55.481
559.42	56.614
559.76	54.265
560.10	54.889
560.44	53.948
560.78	54.824
561.12	54.354
561.45	55.020
561.79	53.659
562.13	53.789
562.47	55.328
562.81	55.718
563.15	53.378
563.48	54.443
563.82	53.686
564.16	53.695
564.50	54.036
564.84	53.856
565.17	53.604
565.51	53.738
565.85	53.173
566.19	52.599
566.52	54.085
566.86	51.838
567.20	53.656
567.54	53.824
567.88	52.091
568.21	52.593
568.55	51.871
568.89	52.481
569.23	50.624
569.56	49.879
569.90	49.887
570.24	50.233
570.57	49.915
570.91	48.352
571.25	49.629
571.59	49.337
571.92	49.654
572.26	50.116
572.60	50.691
572.93	49.925
573.27	50.251
573.61	49.777
573.95	50.336
574.28	49.548
574.62	49.125
574.96	49.438
575.29	49.273
575.63	49.390
575.97	49.388
576.30	48.885
576.64	49.078
576.98	49.344
577.31	48.452
577.65	49.316
577.98	49.437
578.32	48.471
578.66	48.910
578.99	49.213
579.33	49.891
579.67	48.869
580.00	48.933
580.34	49.383
580.67	48.901
581.01	48.774
581.35	48.435
581.68	49.117
582.02	47.682
582.35	48.987
582.69	48.986
583.02	48.462
583.36	48.697
583.70	49.201
584.03	49.033
584.37	49.065
584.70	49.242
585.04	49.706
585.37	48.788
585.71	48.567
586.04	48.152
586.38	49.269
586.72	48.909
587.05	47.949
587.39	47.678
587.72	49.291
588.06	49.120
588.39	49.163
588.73	48.783
589.06	49.392
589.40	50.000
589.73	49.806
590.07	49.893
590.40	48.813
590.73	50.585
591.07	50.265
591.40	48.925
591.74	50.736
592.07	49.520
592.41	49.153
592.74	48.914
593.08	49.001
593.41	48.592
593.75	48.001
594.08	48.642
594.41	48.957
594.75	48.872
595.08	48.175
595.42	49.457
595.75	49.323
596.09	49.493
596.42	49.273
596.75	49.768
597.09	49.913
597.42	48.567
597.75	49.978
598.09	50.783
598.42	49.012
598.76	49.858
599.09	48.841
599.42	48.799
599.76	49.597
600.09	48.962
600.42	49.562
600.76	48.929
601.09	48.160
601.42	49.505
601.76	48.956
602.09	49.368
602.42	48.965
602.76	50.181
603.09	48.702
603.42	48.926
603.76	48.247
604.09	48.507
604.42	49.246
604.76	48.967
605.09	49.279
605.42	48.482
605.75	48.510
606.09	48.150
606.42	49.612
606.75	48.693
607.09	48.723
607.42	49.465
607.75	47.764
608.08	48.719
608.42	49.350
608.75	48.873
609.08	48.844
609.41	48.929
609.75	49.262
610.08	49.152
610.41	48.277
610.74	49.149
611.07	50.000
611.41	49.460
611.74	49.774
612.07	50.104
612.40	50.525
612.73	48.684
613.07	50.000
613.40	49.763
613.73	49.030
614.06	49.892
614.39	48.768
614.72	48.895
615.06	49.055
615.39	49.045
615.72	49.029
616.05	48.325
616.38	49.861
616.71	51.603
617.05	50.236
617.38	49.669
617.71	50.390
618.04	49.579
618.37	48.906
618.70	49.658
619.03	50.329
619.36	49.830
619.69	50.986
620.03	50.137
620.36	49.131
620.69	50.685
621.02	50.590
621.35	49.804
621.68	49.299
622.01	49.536
622.34	50.303
622.67	50.875
623.00	50.037
623.33	49.964
623.66	50.393
623.99	50.515
624.32	50.357
624.65	50.636
624.99	49.858
625.32	49.312
625.65	50.864
625.98	50.730
626.31	51.711
626.64	50.204
626.97	50.623
627.30	51.372
627.63	50.615
627.96	50.967
628.29	49.694
628.62	51.967
628.95	53.396
629.28	50.456
629.61	50.871
629.94	52.000
630.26	51.001
630.59	50.334
630.92	50.096
