SpectraSuite Data File
++++++++++++++++++++++++++++++++++++
Date: Wed May 13 20:24:50 PDT 2015
User: schluterlab
Dark Spectrum Present: Yes
Reference Spectrum Present: Yes
Number of Sampled Component Spectra: 1
Spectrometers: USB2E3373
Integration Time (usec): 3000 (USB2E3373)
Spectra Averaged: 3 (USB2E3373)
Boxcar Smoothing: 0 (USB2E3373)
Correct for Electrical Dark: No (USB2E3373)
Strobe/Lamp Enabled: No (USB2E3373)
Correct for Detector Non-linearity: No (USB2E3373)
Correct for Stray Light: No (USB2E3373)
Number of Pixels in Processed Spectrum: 2048
>>>>>Begin Processed Spectral Data<<<<<
178.53	0.000
178.91	-975.000
179.29	-1175.000
179.67	-194.444
180.04	-1150.000
180.42	2600.000
180.80	1040.000
181.18	-1400.000
181.56	728.571
181.94	0.000
182.31	-614.286
182.69	1533.333
183.07	-575.000
183.45	-422.222
183.83	545.455
184.20	-260.000
184.58	1800.000
184.96	5200.000
185.34	-800.000
185.72	-462.500
186.09	-2200.000
186.47	2850.000
186.85	2150.000
187.23	5100.000
187.61	-1566.667
187.98	1175.000
188.36	518.182
188.74	500.000
189.12	-800.000
189.49	520.000
189.87	-4500.000
190.25	-850.000
190.63	321.429
191.00	392.308
191.38	750.000
191.76	-1225.000
192.14	1200.000
192.51	600.000
192.89	900.000
193.27	537.500
193.65	-975.000
194.02	610.000
194.40	880.000
194.78	510.000
195.15	491.667
195.53	550.000
195.91	-2150.000
196.29	293.750
196.66	284.211
197.04	-290.000
197.42	0.000
197.79	550.000
198.17	-4600.000
198.55	657.143
198.92	675.000
199.30	740.000
199.68	0.000
200.05	327.778
200.43	657.143
200.81	4400.000
201.18	1566.667
201.56	-1400.000
201.94	566.667
202.31	577.778
202.69	383.333
203.07	610.000
203.44	0.000
203.82	1200.000
204.19	685.714
204.57	450.000
204.95	600.000
205.32	1600.000
205.70	481.818
206.08	400.000
206.45	2250.000
206.83	331.250
207.20	816.667
207.58	540.000
207.96	261.111
208.33	687.500
208.71	-883.333
209.08	628.571
209.46	622.222
209.84	400.000
210.21	-1366.667
210.59	1375.000
210.96	-437.500
211.34	2200.000
211.71	500.000
212.09	700.000
212.46	0.000
212.84	1766.667
213.22	1200.000
213.59	-3900.000
213.97	816.667
214.34	642.857
214.72	572.727
215.09	940.000
215.47	-1600.000
215.84	-2300.000
216.22	1866.667
216.59	378.571
216.97	1325.000
217.34	363.636
217.72	-683.333
218.09	0.000
218.47	-5200.000
218.84	533.333
219.22	642.857
219.59	1833.333
219.97	-657.143
220.34	840.000
220.72	-1633.333
221.09	364.286
221.47	1350.000
221.84	-800.000
222.22	0.000
222.59	1350.000
222.97	-2350.000
223.34	920.000
223.72	369.231
224.09	920.000
224.46	2250.000
224.84	-4500.000
225.21	-1020.000
225.59	-4700.000
225.96	550.000
226.34	270.000
226.71	2650.000
227.08	650.000
227.46	480.000
227.83	-1075.000
228.21	-2300.000
228.58	544.444
228.95	-2200.000
229.33	-2000.000
229.70	1733.333
230.08	742.857
230.45	-760.000
230.82	408.333
231.20	816.667
231.57	628.571
231.95	500.000
232.32	240.909
232.69	418.182
233.07	785.714
233.44	353.846
233.81	-1533.333
234.19	257.895
234.56	458.333
234.93	300.000
235.31	363.636
235.68	338.462
236.05	371.429
236.43	184.848
236.80	231.579
237.17	4800.000
237.55	252.381
237.92	210.714
238.29	233.333
238.67	154.839
239.04	200.000
239.41	144.444
239.79	113.043
240.16	116.667
240.53	136.364
240.91	94.118
241.28	110.000
241.65	90.000
242.02	89.855
242.40	80.645
242.77	85.000
243.14	67.742
243.51	71.910
243.89	62.353
244.26	66.667
244.63	68.817
245.00	53.191
245.38	52.475
245.75	49.533
246.12	59.633
246.49	54.745
246.87	57.600
247.24	59.231
247.61	47.143
247.98	43.791
248.36	33.784
248.73	44.586
249.10	44.586
249.47	36.723
249.84	41.176
250.22	38.503
250.59	34.320
250.96	30.808
251.33	35.545
251.70	34.653
252.08	33.333
252.45	28.700
252.82	32.174
253.19	28.936
253.56	28.627
253.94	28.631
254.31	32.812
254.68	32.692
255.05	31.365
255.42	32.114
255.79	29.412
256.16	29.964
256.54	26.148
256.91	30.249
257.28	26.619
257.65	29.043
258.02	28.882
258.39	26.814
258.76	25.753
259.14	25.595
259.51	21.277
259.88	25.155
260.25	24.169
260.62	23.988
260.99	25.466
261.36	26.727
261.73	24.928
262.10	28.198
262.47	27.324
262.85	24.513
263.22	21.652
263.59	25.356
263.96	23.901
264.33	24.021
264.70	26.053
265.07	24.808
265.44	25.253
265.81	21.898
266.18	23.367
266.55	22.927
266.92	23.833
267.29	25.463
267.66	22.248
268.03	23.864
268.40	21.495
268.77	19.570
269.14	21.847
269.51	23.928
269.88	23.776
270.25	24.605
270.62	22.472
270.99	22.366
271.36	22.318
271.73	22.196
272.10	20.652
272.47	21.505
272.84	21.429
273.21	23.899
273.58	19.432
273.95	18.449
274.32	20.041
274.69	21.199
275.06	19.094
275.43	22.979
275.80	19.840
276.17	18.941
276.54	22.037
276.91	21.146
277.28	20.117
277.65	20.116
278.02	20.704
278.39	20.312
278.76	19.455
279.13	19.623
279.50	19.181
279.87	20.717
280.23	20.559
280.60	18.182
280.97	21.072
281.34	20.708
281.71	21.091
282.08	20.345
282.45	18.000
282.82	18.650
283.19	17.469
283.56	19.825
283.92	18.613
284.29	17.460
284.66	19.419
285.03	17.541
285.40	17.254
285.77	16.835
286.14	18.307
286.51	18.333
286.87	21.197
287.24	17.752
287.61	17.817
287.98	18.182
288.35	18.384
288.72	18.380
289.08	16.275
289.45	18.287
289.82	19.024
290.19	16.170
290.56	18.836
290.93	15.710
291.29	16.411
291.66	15.487
292.03	16.570
292.40	19.236
292.77	15.828
293.13	16.716
293.50	16.472
293.87	16.444
294.24	15.852
294.60	14.702
294.97	15.698
295.34	16.925
295.71	16.335
296.08	16.809
296.44	14.993
296.81	15.324
297.18	17.073
297.55	12.533
297.91	14.248
298.28	16.064
298.65	15.796
299.02	14.756
299.38	14.608
299.75	12.668
300.12	14.432
300.48	14.125
300.85	13.810
301.22	13.376
301.59	14.394
301.95	13.728
302.32	14.121
302.69	12.903
303.05	13.333
303.42	13.457
303.79	13.364
304.15	13.986
304.52	12.978
304.89	13.124
305.25	12.529
305.62	12.797
305.99	13.223
306.35	13.647
306.72	12.668
307.09	13.430
307.45	15.428
307.82	12.500
308.19	13.687
308.55	14.347
308.92	13.641
309.29	11.827
309.65	11.771
310.02	13.108
310.38	12.796
310.75	12.777
311.12	13.306
311.48	13.062
311.85	14.256
312.22	13.319
312.58	13.514
312.95	14.361
313.31	11.942
313.68	13.410
314.05	13.708
314.41	12.563
314.78	11.984
315.14	12.910
315.51	13.388
315.87	13.069
316.24	12.214
316.61	12.671
316.97	11.840
317.34	11.937
317.70	13.193
318.07	12.801
318.43	13.307
318.80	14.058
319.16	13.465
319.53	12.852
319.89	13.619
320.26	14.100
320.62	13.294
320.99	13.535
321.35	14.646
321.72	13.450
322.08	14.018
322.45	15.622
322.81	15.019
323.18	15.029
323.54	13.451
323.91	14.434
324.27	14.245
324.64	12.861
325.00	13.886
325.37	15.105
325.73	15.530
326.10	15.357
326.46	14.337
326.83	15.272
327.19	16.140
327.56	15.418
327.92	15.661
328.29	16.681
328.65	16.759
329.01	17.058
329.38	15.819
329.74	16.620
330.11	16.494
330.47	16.621
330.84	18.658
331.20	15.392
331.56	16.972
331.93	17.130
332.29	15.439
332.66	17.876
333.02	17.185
333.38	16.712
333.75	18.004
334.11	17.794
334.48	17.480
334.84	17.831
335.20	17.818
335.57	16.410
335.93	16.161
336.29	15.476
336.66	16.862
337.02	16.652
337.38	16.759
337.75	16.399
338.11	17.099
338.47	16.114
338.84	17.415
339.20	17.248
339.56	17.792
339.93	15.364
340.29	17.301
340.65	17.201
341.02	16.841
341.38	16.993
341.74	16.667
342.11	18.341
342.47	17.445
342.83	16.866
343.20	18.788
343.56	16.765
343.92	16.579
344.28	17.262
344.65	17.971
345.01	17.424
345.37	17.496
345.73	18.020
346.10	17.562
346.46	16.271
346.82	17.710
347.19	17.126
347.55	17.488
347.91	18.447
348.27	16.680
348.63	17.391
349.00	17.152
349.36	16.667
349.72	16.921
350.08	17.342
350.45	17.819
350.81	17.059
351.17	17.666
351.53	17.445
351.89	16.089
352.26	17.916
352.62	17.723
352.98	17.099
353.34	17.091
353.70	17.103
354.07	17.984
354.43	18.016
354.79	17.136
355.15	17.079
355.51	18.225
355.87	17.796
356.24	18.078
356.60	17.562
356.96	18.182
357.32	17.825
357.68	17.953
358.04	18.369
358.40	19.477
358.77	17.919
359.13	18.074
359.49	17.882
359.85	17.143
360.21	18.262
360.57	18.132
360.93	18.000
361.29	17.838
361.66	17.879
362.02	19.030
362.38	18.175
362.74	18.601
363.10	17.617
363.46	17.682
363.82	17.989
364.18	19.310
364.54	19.688
364.90	18.697
365.26	19.338
365.62	19.503
365.98	19.211
366.35	17.908
366.71	18.727
367.07	19.301
367.43	19.739
367.79	19.129
368.15	19.397
368.51	18.968
368.87	19.343
369.23	20.190
369.59	19.986
369.95	18.750
370.31	20.513
370.67	20.435
371.03	20.824
371.39	19.606
371.75	20.588
372.11	19.772
372.47	20.015
372.83	20.821
373.19	19.798
373.55	19.956
373.91	21.134
374.27	20.687
374.63	19.491
374.99	20.833
375.35	19.749
375.71	19.328
376.07	21.605
376.42	20.564
376.78	21.007
377.14	19.810
377.50	21.722
377.86	19.814
378.22	21.745
378.58	19.737
378.94	21.119
379.30	20.611
379.66	20.939
380.02	21.744
380.38	20.097
380.74	21.549
381.09	21.638
381.45	20.959
381.81	21.437
382.17	22.420
382.53	20.629
382.89	21.420
383.25	21.576
383.61	21.871
383.97	21.388
384.32	21.896
384.68	21.623
385.04	22.004
385.40	21.300
385.76	21.499
386.12	22.215
386.48	22.593
386.83	22.707
387.19	21.954
387.55	22.078
387.91	21.584
388.27	20.601
388.62	23.725
388.98	21.069
389.34	22.528
389.70	22.624
390.06	23.067
390.42	21.855
390.77	22.646
391.13	22.399
391.49	22.716
391.85	22.024
392.20	21.767
392.56	22.033
392.92	22.602
393.28	22.130
393.64	22.482
393.99	22.541
394.35	22.519
394.71	22.522
395.07	21.807
395.42	22.744
395.78	22.519
396.14	22.346
396.50	22.494
396.85	23.458
397.21	22.010
397.57	22.753
397.92	22.897
398.28	21.020
398.64	22.342
399.00	22.943
399.35	21.658
399.71	22.280
400.07	22.886
400.42	23.190
400.78	22.437
401.14	22.134
401.49	23.104
401.85	21.658
402.21	21.138
402.57	22.825
402.92	22.762
403.28	22.986
403.63	22.030
403.99	22.166
404.35	22.242
404.70	22.722
405.06	22.365
405.42	21.709
405.77	21.771
406.13	21.953
406.49	22.472
406.84	22.504
407.20	21.513
407.55	22.463
407.91	23.733
408.27	22.591
408.62	22.336
408.98	22.120
409.34	22.571
409.69	22.516
410.05	21.747
410.40	22.263
410.76	21.625
411.11	22.919
411.47	22.045
411.83	23.152
412.18	22.449
412.54	22.914
412.89	23.434
413.25	22.668
413.60	22.792
413.96	21.676
414.31	22.175
414.67	22.687
415.03	22.980
415.38	22.874
415.74	22.508
416.09	22.926
416.45	21.754
416.80	22.538
417.16	22.788
417.51	22.031
417.87	22.222
418.22	22.839
418.58	22.789
418.93	22.482
419.29	21.961
419.64	22.922
420.00	22.805
420.35	23.130
420.71	22.893
421.06	22.554
421.42	22.398
421.77	22.534
422.12	21.729
422.48	21.641
422.83	22.598
423.19	22.210
423.54	22.113
423.90	23.420
424.25	21.999
424.61	23.095
424.96	22.216
425.31	22.591
425.67	21.798
426.02	22.000
426.38	23.077
426.73	21.065
427.09	21.520
427.44	21.794
427.79	22.024
428.15	22.440
428.50	21.475
428.85	22.646
429.21	21.480
429.56	21.566
429.92	21.389
430.27	21.500
430.62	20.891
430.98	21.796
431.33	21.340
431.68	22.199
432.04	21.672
432.39	21.131
432.74	22.083
433.10	21.845
433.45	21.924
433.80	21.175
434.16	22.115
434.51	20.947
434.86	21.722
435.22	21.290
435.57	21.277
435.92	20.831
436.28	22.242
436.63	22.461
436.98	21.923
437.34	21.646
437.69	21.470
438.04	21.585
438.39	21.075
438.75	22.080
439.10	21.955
439.45	22.255
439.81	21.390
440.16	21.513
440.51	21.441
440.86	21.424
441.22	20.690
441.57	21.019
441.92	21.648
442.27	22.067
442.63	21.327
442.98	21.014
443.33	21.250
443.68	21.270
444.03	20.986
444.39	20.643
444.74	21.104
445.09	21.941
445.44	21.268
445.79	20.732
446.15	21.546
446.50	21.594
446.85	21.069
447.20	21.724
447.55	21.608
447.91	21.070
448.26	21.480
448.61	21.085
448.96	21.982
449.31	21.429
449.66	21.666
450.02	20.613
450.37	20.805
450.72	20.925
451.07	20.902
451.42	20.790
451.77	21.785
452.12	21.478
452.47	20.709
452.83	20.571
453.18	21.822
453.53	21.398
453.88	20.969
454.23	21.339
454.58	21.987
454.93	22.250
455.28	20.885
455.63	21.784
455.98	21.964
456.34	21.043
456.69	21.165
457.04	21.424
457.39	20.690
457.74	20.139
458.09	20.414
458.44	20.924
458.79	19.957
459.14	21.050
459.49	20.782
459.84	21.108
460.19	19.800
460.54	20.428
460.89	20.516
461.24	21.615
461.59	21.150
461.94	20.715
462.29	21.009
462.64	21.570
462.99	20.625
463.34	21.267
463.69	20.826
464.04	20.870
464.39	20.928
464.74	20.559
465.09	20.748
465.44	19.446
465.79	20.861
466.14	20.197
466.49	19.967
466.84	20.841
467.19	20.217
467.54	22.000
467.89	20.048
468.24	22.106
468.59	20.330
468.94	20.525
469.29	20.951
469.64	21.620
469.99	21.313
470.34	20.145
470.68	20.690
471.03	20.952
471.38	20.778
471.73	21.319
472.08	21.579
472.43	20.415
472.78	20.079
473.13	21.630
473.48	20.724
473.83	20.854
474.17	20.722
474.52	20.658
474.87	20.490
475.22	20.662
475.57	20.043
475.92	19.756
476.27	20.068
476.61	20.463
476.96	19.626
477.31	20.251
477.66	20.788
478.01	20.178
478.36	20.836
478.70	19.418
479.05	20.021
479.40	20.164
479.75	20.691
480.10	19.583
480.45	19.657
480.79	19.064
481.14	19.765
481.49	19.934
481.84	19.067
482.19	19.400
482.53	19.725
482.88	19.358
483.23	19.579
483.58	19.927
483.92	19.494
484.27	18.998
484.62	18.922
484.97	18.132
485.31	18.253
485.66	17.035
486.01	16.802
486.36	16.516
486.70	16.984
487.05	17.433
487.40	17.620
487.75	18.072
488.09	18.866
488.44	19.780
488.79	19.132
489.13	19.175
489.48	18.597
489.83	17.911
490.17	19.114
490.52	18.335
490.87	19.358
491.22	19.191
491.56	18.815
491.91	19.358
492.26	18.558
492.60	19.309
492.95	18.803
493.30	18.925
493.64	18.572
493.99	19.174
494.34	19.658
494.68	19.277
495.03	18.891
495.37	18.613
495.72	19.347
496.07	18.701
496.41	18.142
496.76	18.953
497.11	19.000
497.45	18.770
497.80	18.570
498.14	18.841
498.49	18.341
498.84	18.888
499.18	18.857
499.53	19.088
499.87	18.872
500.22	18.841
500.56	19.466
500.91	18.702
501.26	18.540
501.60	19.032
501.95	18.423
502.29	19.119
502.64	18.994
502.98	18.326
503.33	17.962
503.67	18.701
504.02	19.270
504.36	19.560
504.71	18.613
505.06	18.458
505.40	19.105
505.75	19.335
506.09	18.513
506.44	19.142
506.78	19.240
507.13	19.031
507.47	19.697
507.82	19.706
508.16	19.402
508.51	19.635
508.85	18.918
509.19	18.265
509.54	19.337
509.88	18.753
510.23	20.000
510.57	19.814
510.92	19.627
511.26	19.681
511.61	19.295
511.95	18.841
512.30	19.194
512.64	19.882
512.98	20.847
513.33	19.593
513.67	19.691
514.02	18.994
514.36	21.027
514.70	20.033
515.05	19.465
515.39	20.808
515.74	20.383
516.08	20.570
516.42	21.088
516.77	19.955
517.11	20.422
517.46	21.388
517.80	20.790
518.14	20.672
518.49	21.587
518.83	20.511
519.17	21.247
519.52	20.543
519.86	21.278
520.20	21.387
520.55	23.220
520.89	21.350
521.23	22.376
521.58	21.008
521.92	22.352
522.26	21.660
522.61	21.495
522.95	21.547
523.29	21.607
523.64	21.524
523.98	22.674
524.32	22.075
524.66	22.850
525.01	21.814
525.35	21.437
525.69	21.983
526.04	22.804
526.38	22.209
526.72	21.718
527.06	22.662
527.41	21.349
527.75	22.830
528.09	23.121
528.43	22.690
528.78	22.557
529.12	21.879
529.46	23.270
529.80	22.587
530.15	22.617
530.49	21.908
530.83	22.722
531.17	23.433
531.51	23.411
531.86	22.774
532.20	25.098
532.54	22.678
532.88	23.299
533.22	22.299
533.57	22.901
533.91	22.095
534.25	23.026
534.59	23.368
534.93	22.070
535.27	22.450
535.62	22.894
535.96	23.854
536.30	22.759
536.64	22.988
536.98	22.893
537.32	22.317
537.66	23.000
538.01	22.383
538.35	23.012
538.69	23.421
539.03	21.962
539.37	22.620
539.71	21.711
540.05	22.092
540.39	22.990
540.73	22.510
541.07	24.270
541.42	22.570
541.76	23.355
542.10	22.510
542.44	22.450
542.78	24.440
543.12	23.161
543.46	22.754
543.80	22.837
544.14	21.566
544.48	22.476
544.82	22.707
545.16	22.707
545.50	23.136
545.84	22.110
546.18	23.434
546.52	24.019
546.86	24.124
547.20	24.073
547.54	22.779
547.88	23.533
548.22	22.665
548.56	22.893
548.90	22.663
549.24	21.414
549.58	23.465
549.92	23.558
550.26	23.153
550.60	23.237
550.94	23.239
551.28	22.458
551.62	23.077
551.96	22.807
552.30	22.662
552.64	23.462
552.98	24.000
553.32	22.792
553.66	22.972
554.00	22.787
554.34	22.843
554.68	23.748
555.02	23.131
555.36	22.269
555.69	21.583
556.03	22.005
556.37	22.374
556.71	21.760
557.05	23.599
557.39	22.883
557.73	23.359
558.07	23.278
558.41	23.517
558.75	23.733
559.08	24.161
559.42	23.129
559.76	22.868
560.10	22.484
560.44	22.851
560.78	22.222
561.12	22.757
561.45	22.686
561.79	22.544
562.13	22.267
562.47	22.746
562.81	21.967
563.15	22.140
563.48	22.944
563.82	21.853
564.16	21.125
564.50	21.484
564.84	22.314
565.17	21.557
565.51	21.470
565.85	21.827
566.19	21.353
566.52	21.406
566.86	21.459
567.20	21.226
567.54	20.434
567.88	20.478
568.21	20.688
568.55	20.576
568.89	20.282
569.23	19.519
569.56	19.433
569.90	19.283
570.24	18.586
570.57	18.361
570.91	18.035
571.25	18.561
571.59	18.292
571.92	17.857
572.26	17.995
572.60	18.318
572.93	18.471
573.27	18.101
573.61	18.035
573.95	18.424
574.28	18.116
574.62	17.323
574.96	17.419
575.29	17.459
575.63	17.708
575.97	17.469
576.30	17.977
576.64	18.095
576.98	17.282
577.31	17.190
577.65	16.938
577.98	17.169
578.32	16.978
578.66	17.463
578.99	17.759
579.33	17.453
579.67	17.271
580.00	17.622
580.34	17.632
580.67	17.372
581.01	17.742
581.35	16.977
581.68	17.073
582.02	16.512
582.35	16.908
582.69	17.226
583.02	17.179
583.36	17.593
583.70	18.107
584.03	17.268
584.37	17.918
584.70	17.320
585.04	17.295
585.37	17.265
585.71	17.763
586.04	17.275
586.38	17.294
586.72	17.675
587.05	17.332
587.39	17.098
587.72	17.186
588.06	17.263
588.39	18.080
588.73	17.864
589.06	18.355
589.40	17.879
589.73	17.987
590.07	18.399
590.40	18.597
590.73	18.735
591.07	18.600
591.40	18.937
591.74	18.918
592.07	18.892
592.41	18.313
592.74	17.528
593.08	17.855
593.41	17.589
593.75	16.989
594.08	17.767
594.41	18.063
594.75	18.041
595.08	17.931
595.42	17.968
595.75	17.949
596.09	18.175
596.42	18.310
596.75	18.447
597.09	19.221
597.42	17.538
597.75	18.931
598.09	18.391
598.42	18.771
598.76	17.795
599.09	17.636
599.42	17.795
599.76	17.387
600.09	17.413
600.42	17.275
600.76	17.429
601.09	17.377
601.42	18.037
601.76	17.799
602.09	17.984
602.42	17.914
602.76	18.057
603.09	17.978
603.42	17.806
603.76	17.721
604.09	17.914
604.42	18.549
604.76	18.558
605.09	18.567
605.42	17.914
605.75	18.046
606.09	17.365
606.42	17.409
606.75	17.918
607.09	18.041
607.42	17.886
607.75	17.975
608.08	17.716
608.42	17.840
608.75	18.124
609.08	17.669
609.41	17.849
609.75	17.818
610.08	18.756
610.41	17.505
610.74	18.023
611.07	18.330
611.41	18.057
611.74	19.759
612.07	18.789
612.40	18.940
612.73	18.105
613.07	19.073
613.40	18.905
613.73	18.458
614.06	18.763
614.39	18.039
614.72	19.684
615.06	18.487
615.39	17.994
615.72	18.456
616.05	18.607
616.38	18.232
616.71	19.418
617.05	19.081
617.38	18.521
617.71	18.559
618.04	19.291
618.37	18.451
618.70	19.664
619.03	20.066
619.36	20.774
619.69	19.014
620.03	20.467
620.36	20.254
620.69	20.548
621.02	21.386
621.35	19.890
621.68	20.639
622.01	20.279
622.34	20.121
622.67	19.544
623.00	20.176
623.33	19.943
623.66	20.658
623.99	20.471
624.32	19.330
624.65	20.056
624.99	18.343
625.32	18.682
625.65	19.459
625.98	20.292
626.31	20.451
626.64	20.735
626.97	21.696
627.30	19.784
627.63	21.001
627.96	20.942
628.29	21.260
628.62	22.049
628.95	21.509
629.28	21.624
629.61	21.632
629.94	21.810
630.26	20.782
630.59	22.307
630.92	21.552
