SpectraSuite Data File
++++++++++++++++++++++++++++++++++++
Date: Wed May 13 20:23:29 PDT 2015
User: schluterlab
Dark Spectrum Present: Yes
Reference Spectrum Present: Yes
Number of Sampled Component Spectra: 1
Spectrometers: USB2E3373
Integration Time (usec): 3000 (USB2E3373)
Spectra Averaged: 3 (USB2E3373)
Boxcar Smoothing: 0 (USB2E3373)
Correct for Electrical Dark: No (USB2E3373)
Strobe/Lamp Enabled: No (USB2E3373)
Correct for Detector Non-linearity: No (USB2E3373)
Correct for Stray Light: No (USB2E3373)
Number of Pixels in Processed Spectrum: 2048
>>>>>Begin Processed Spectral Data<<<<<
178.53	0.000
178.91	-975.000
179.29	-1525.000
179.67	-250.000
180.04	-1250.000
180.42	2400.000
180.80	1140.000
181.18	-1075.000
181.56	528.571
181.94	0.000
182.31	-628.571
182.69	1900.000
183.07	-525.000
183.45	-577.778
183.83	563.636
184.20	-440.000
184.58	2350.000
184.96	5500.000
185.34	-960.000
185.72	-675.000
186.09	-2550.000
186.47	2250.000
186.85	2300.000
187.23	4100.000
187.61	-1733.333
187.98	1075.000
188.36	518.182
188.74	445.455
189.12	-1020.000
189.49	560.000
189.87	-4000.000
190.25	-1200.000
190.63	428.571
191.00	438.462
191.38	833.333
191.76	-1275.000
192.14	1450.000
192.51	625.000
192.89	916.667
193.27	562.500
193.65	-1225.000
194.02	520.000
194.40	920.000
194.78	480.000
195.15	475.000
195.53	530.000
195.91	-2350.000
196.29	312.500
196.66	242.105
197.04	-340.000
197.42	0.000
197.79	620.000
198.17	-4900.000
198.55	671.429
198.92	812.500
199.30	1140.000
199.68	0.000
200.05	288.889
200.43	842.857
200.81	4900.000
201.18	1666.667
201.56	-1566.667
201.94	577.778
202.31	633.333
202.69	425.000
203.07	570.000
203.44	0.000
203.82	1125.000
204.19	757.143
204.57	364.286
204.95	575.000
205.32	1466.667
205.70	472.727
206.08	364.286
206.45	2700.000
206.83	375.000
207.20	1116.667
207.58	880.000
207.96	261.111
208.33	675.000
208.71	-866.667
209.08	800.000
209.46	588.889
209.84	445.455
210.21	-1666.667
210.59	1275.000
210.96	-525.000
211.34	2400.000
211.71	600.000
212.09	850.000
212.46	0.000
212.84	1633.333
213.22	1250.000
213.59	-4100.000
213.97	766.667
214.34	685.714
214.72	590.909
215.09	920.000
215.47	-2400.000
215.84	-2400.000
216.22	1433.333
216.59	364.286
216.97	1075.000
217.34	418.182
217.72	-716.667
218.09	0.000
218.47	-4800.000
218.84	633.333
219.22	700.000
219.59	1633.333
219.97	-628.571
220.34	1180.000
220.72	-1633.333
221.09	364.286
221.47	1325.000
221.84	-800.000
222.22	0.000
222.59	1275.000
222.97	-2400.000
223.34	1060.000
223.72	400.000
224.09	1040.000
224.46	1750.000
224.84	-4400.000
225.21	-940.000
225.59	-4800.000
225.96	570.000
226.34	290.000
226.71	2850.000
227.08	700.000
227.46	470.000
227.83	-1050.000
228.21	-2450.000
228.58	611.111
228.95	-2350.000
229.33	-2200.000
229.70	1300.000
230.08	842.857
230.45	-1040.000
230.82	433.333
231.20	983.333
231.57	685.714
231.95	475.000
232.32	222.727
232.69	354.545
233.07	642.857
233.44	346.154
233.81	-1600.000
234.19	263.158
234.56	450.000
234.93	408.333
235.31	390.909
235.68	253.846
236.05	342.857
236.43	157.576
236.80	252.632
237.17	4600.000
237.55	223.810
237.92	221.429
238.29	228.571
238.67	138.710
239.04	179.310
239.41	130.556
239.79	117.391
240.16	121.429
240.53	145.455
240.91	98.039
241.28	108.000
241.65	100.000
242.02	84.058
242.40	74.194
242.77	71.667
243.14	56.989
243.51	60.674
243.89	52.941
244.26	43.333
244.63	56.989
245.00	47.872
245.38	49.505
245.75	56.075
246.12	45.872
246.49	52.555
246.87	58.400
247.24	46.923
247.61	42.857
247.98	41.176
248.36	33.108
248.73	28.662
249.10	43.949
249.47	31.638
249.84	33.690
250.22	28.342
250.59	27.219
250.96	34.848
251.33	31.754
251.70	30.198
252.08	27.619
252.45	24.664
252.82	20.870
253.19	27.234
253.56	26.667
253.94	28.631
254.31	24.609
254.68	24.615
255.05	28.782
255.42	25.610
255.79	24.265
256.16	25.632
256.54	20.848
256.91	20.285
257.28	20.504
257.65	20.462
258.02	22.050
258.39	20.820
258.76	23.411
259.14	22.619
259.51	17.325
259.88	16.770
260.25	23.565
260.62	22.543
260.99	20.497
261.36	20.420
261.73	21.490
262.10	18.895
262.47	20.282
262.85	16.435
263.22	16.239
263.59	22.507
263.96	15.659
264.33	20.627
264.70	17.632
265.07	19.949
265.44	17.929
265.81	15.815
266.18	18.844
266.55	15.854
266.92	20.147
267.29	19.676
267.66	14.908
268.03	18.409
268.40	17.056
268.77	13.365
269.14	15.315
269.51	16.930
269.88	18.415
270.25	14.221
270.62	16.404
270.99	18.065
271.36	16.738
271.73	15.421
272.10	15.435
272.47	17.419
272.84	17.100
273.21	15.094
273.58	17.904
273.95	13.836
274.32	15.702
274.69	16.060
275.06	14.567
275.43	17.234
275.80	15.230
276.17	15.886
276.54	15.177
276.91	15.020
277.28	15.234
277.65	17.988
278.02	15.942
278.39	17.383
278.76	14.000
279.13	14.906
279.50	16.015
279.87	13.944
280.23	14.571
280.60	14.313
280.97	14.418
281.34	16.814
281.71	14.909
282.08	16.891
282.45	13.455
282.82	15.098
283.19	11.765
283.56	14.211
283.92	15.736
284.29	14.286
284.66	14.156
285.03	12.297
285.40	13.028
285.77	14.983
286.14	13.126
286.51	13.667
286.87	15.214
287.24	13.192
287.61	11.878
287.98	13.799
288.35	13.788
288.72	12.773
289.08	13.615
289.45	11.038
289.82	11.545
290.19	12.402
290.56	12.557
290.93	12.236
291.29	12.270
291.66	13.274
292.03	12.936
292.40	13.803
292.77	10.207
293.13	13.134
293.50	11.516
293.87	10.815
294.24	10.667
294.60	10.335
294.97	11.337
295.34	13.117
295.71	10.653
296.08	11.396
296.44	10.041
296.81	9.908
297.18	12.195
297.55	8.971
297.91	11.741
298.28	10.040
298.65	11.880
299.02	10.408
299.38	11.687
299.75	10.108
300.12	10.217
300.48	11.000
300.85	11.714
301.22	11.210
301.59	10.480
301.95	8.942
302.32	10.270
302.69	9.558
303.05	10.182
303.42	10.000
303.79	9.400
304.15	9.324
304.52	9.965
304.89	9.408
305.25	9.513
305.62	10.193
305.99	10.862
306.35	9.843
306.72	10.426
307.09	11.210
307.45	10.923
307.82	8.817
308.19	9.823
308.55	9.493
308.92	9.237
309.29	9.609
309.65	8.802
310.02	9.302
310.38	9.355
310.75	8.870
311.12	9.519
311.48	10.763
311.85	9.958
312.22	9.677
312.58	9.252
312.95	10.243
313.31	8.932
313.68	10.603
314.05	10.750
314.41	10.653
314.78	11.581
315.14	9.930
315.51	9.166
315.87	10.594
316.24	10.228
316.61	9.844
316.97	10.176
317.34	9.785
317.70	10.038
318.07	10.876
318.43	11.252
318.80	10.684
319.16	11.111
319.53	11.163
319.89	11.905
320.26	12.600
320.62	11.607
320.99	12.525
321.35	12.121
321.72	12.936
322.08	14.018
322.45	14.428
322.81	14.244
323.18	14.162
323.54	14.750
323.91	14.623
324.27	13.098
324.64	14.818
325.00	15.059
325.37	14.650
325.73	16.517
326.10	15.799
326.46	15.502
326.83	17.170
327.19	16.225
327.56	17.422
327.92	16.798
328.29	18.190
328.65	17.495
329.01	17.690
329.38	18.039
329.74	16.528
330.11	18.002
330.47	19.651
330.84	19.485
331.20	18.306
331.56	19.174
331.93	17.778
332.29	20.231
332.66	20.885
333.02	19.835
333.38	19.151
333.75	20.945
334.11	20.196
334.48	19.521
334.84	20.312
335.20	20.636
335.57	19.583
335.93	19.911
336.29	20.055
336.66	20.649
337.02	20.000
337.38	21.759
337.75	20.856
338.11	22.739
338.47	21.731
338.84	22.273
339.20	20.917
339.56	21.807
339.93	21.818
340.29	22.011
340.65	21.390
341.02	22.513
341.38	22.242
341.74	21.754
342.11	22.358
342.47	23.172
342.83	22.089
343.20	23.377
343.56	22.241
343.92	21.316
344.28	21.088
344.65	23.560
345.01	23.822
345.37	21.612
345.73	23.181
346.10	23.103
346.46	23.220
346.82	23.641
347.19	23.642
347.55	22.085
347.91	24.353
348.27	23.829
348.63	23.913
349.00	23.220
349.36	23.727
349.72	23.978
350.08	23.825
350.45	25.386
350.81	23.396
351.17	24.797
351.53	24.079
351.89	24.340
352.26	25.414
352.62	25.902
352.98	24.716
353.34	24.322
353.70	24.714
354.07	26.129
354.43	25.238
354.79	24.859
355.15	25.539
355.51	26.299
355.87	26.041
356.24	25.244
356.60	25.581
356.96	25.101
357.32	26.002
357.68	25.591
358.04	26.049
358.40	27.553
358.77	26.995
359.13	25.967
359.49	25.725
359.85	25.635
360.21	26.396
360.57	27.393
360.93	27.000
361.29	26.379
361.66	26.393
362.02	26.493
362.38	27.452
362.74	27.307
363.10	25.759
363.46	26.339
363.82	27.664
364.18	27.239
364.54	28.529
364.90	28.116
365.26	27.206
365.62	28.707
365.98	27.319
366.35	27.794
366.71	28.272
367.07	27.968
367.43	28.447
367.79	27.837
368.15	29.382
368.51	27.762
368.87	28.408
369.23	28.091
369.59	29.544
369.95	29.191
370.31	28.704
370.67	27.826
371.03	28.839
371.39	27.915
371.75	29.559
372.11	27.809
372.47	29.399
372.83	29.971
373.19	28.468
373.55	29.712
373.91	29.897
374.27	28.866
374.63	28.945
374.99	29.661
375.35	28.472
375.71	29.130
376.07	29.218
376.42	28.817
376.78	29.092
377.14	29.986
377.50	29.338
377.86	28.258
378.22	29.709
378.58	28.133
378.94	29.415
379.30	28.181
379.66	30.520
380.02	29.177
380.38	28.840
380.74	29.712
381.09	29.829
381.45	29.502
381.81	30.037
382.17	30.191
382.53	29.497
382.89	30.185
383.25	29.518
383.61	30.112
383.97	29.268
384.32	29.507
384.68	30.235
385.04	29.441
385.40	29.536
385.76	29.361
386.12	29.987
386.48	30.334
386.83	30.404
387.19	30.612
387.55	29.437
387.91	29.686
388.27	29.736
388.62	29.441
388.98	29.054
389.34	29.912
389.70	29.859
390.06	30.292
390.42	30.480
390.77	30.344
391.13	29.036
391.49	30.774
391.85	29.917
392.20	29.527
392.56	29.672
392.92	29.665
393.28	29.172
393.64	29.376
393.99	29.811
394.35	30.645
394.71	29.172
395.07	29.408
395.42	30.593
395.78	29.453
396.14	28.554
396.50	30.075
396.85	29.943
397.21	29.038
397.57	29.324
397.92	29.026
398.28	28.700
398.64	29.032
399.00	29.491
399.35	29.329
399.71	29.861
400.07	29.391
400.42	30.061
400.78	29.554
401.14	29.939
401.49	29.851
401.85	27.586
402.21	27.605
402.57	28.933
402.92	28.815
403.28	29.169
403.63	28.837
403.99	28.726
404.35	28.303
404.70	27.878
405.06	28.596
405.42	29.195
405.77	27.829
406.13	28.894
406.49	28.918
406.84	29.120
407.20	27.778
407.55	28.462
407.91	28.067
408.27	28.462
408.62	28.477
408.98	27.635
409.34	28.229
409.69	28.968
410.05	27.014
410.40	27.890
410.76	28.136
411.11	28.890
411.47	27.412
411.83	27.489
412.18	27.644
412.54	27.646
412.89	27.410
413.25	26.919
413.60	27.424
413.96	26.776
414.31	27.278
414.67	26.996
415.03	27.351
415.38	27.448
415.74	27.010
416.09	28.478
416.45	27.175
416.80	25.909
417.16	27.547
417.51	28.202
417.87	27.039
418.22	27.256
418.58	28.470
418.93	27.150
419.29	26.926
419.64	27.456
420.00	26.768
420.35	27.014
420.71	26.360
421.06	26.492
421.42	26.608
421.77	25.841
422.12	25.940
422.48	25.202
422.83	24.985
423.19	26.409
423.54	25.885
423.90	26.725
424.25	25.572
424.61	25.000
424.96	25.948
425.31	26.080
425.67	24.213
426.02	24.114
426.38	25.153
426.73	24.693
427.09	25.897
427.44	24.382
427.79	24.784
428.15	25.833
428.50	25.278
428.85	24.672
429.21	24.738
429.56	24.209
429.92	23.452
430.27	24.628
430.62	23.758
430.98	24.390
431.33	24.227
431.68	23.927
432.04	24.494
432.39	24.158
432.74	24.357
433.10	23.769
433.45	24.082
433.80	23.725
434.16	23.665
434.51	23.526
434.86	23.945
435.22	23.569
435.57	23.891
435.92	23.464
436.28	23.665
436.63	23.289
436.98	22.782
437.34	22.958
437.69	23.279
438.04	23.609
438.39	24.299
438.75	23.823
439.10	23.575
439.45	23.554
439.81	23.686
440.16	22.530
440.51	22.496
440.86	22.930
441.22	22.581
441.57	22.452
441.92	22.876
442.27	22.605
442.63	21.696
442.98	22.592
443.33	21.957
443.68	21.993
444.03	21.523
444.39	21.860
444.74	22.294
445.09	22.480
445.44	21.542
445.79	21.573
446.15	22.446
446.50	21.863
446.85	21.583
447.20	21.367
447.55	21.050
447.91	20.684
448.26	21.536
448.61	21.311
448.96	21.650
449.31	20.979
449.66	20.428
450.02	21.281
450.37	20.918
450.72	20.248
451.07	20.719
451.42	20.973
451.77	21.315
452.12	20.497
452.47	20.522
452.83	21.445
453.18	20.844
453.53	21.274
453.88	20.555
454.23	20.143
454.58	21.442
454.93	20.788
455.28	20.137
455.63	20.449
455.98	20.774
456.34	20.540
456.69	19.537
457.04	20.991
457.39	19.930
457.74	20.662
458.09	20.069
458.44	19.498
458.79	19.469
459.14	19.074
459.49	20.082
459.84	19.889
460.19	19.623
460.54	19.271
460.89	19.528
461.24	19.429
461.59	20.395
461.94	18.927
462.29	20.059
462.64	19.209
462.99	19.649
463.34	19.800
463.69	19.325
464.04	19.014
464.39	19.536
464.74	19.073
465.09	18.215
465.44	18.670
465.79	18.512
466.14	18.993
466.49	18.242
466.84	18.681
467.19	18.346
467.54	18.812
467.89	18.367
468.24	18.557
468.59	19.048
468.94	17.776
469.29	18.573
469.64	19.210
469.99	18.877
470.34	17.701
470.68	19.037
471.03	17.619
471.38	18.277
471.73	17.921
472.08	19.211
472.43	18.530
472.78	18.170
473.13	17.715
473.48	18.477
473.83	18.293
474.17	17.362
474.52	18.300
474.87	18.330
475.22	17.295
475.57	16.926
475.92	17.897
476.27	17.024
476.61	17.044
476.96	16.658
477.31	16.850
477.66	17.888
478.01	17.041
478.36	16.658
478.70	15.940
479.05	16.028
479.40	16.633
479.75	15.963
480.10	16.352
480.45	16.183
480.79	15.671
481.14	15.949
481.49	15.994
481.84	16.049
482.19	16.174
482.53	16.743
482.88	15.914
483.23	15.467
483.58	15.924
483.92	15.886
484.27	14.771
484.62	15.259
484.97	15.215
485.31	14.795
485.66	14.012
486.01	13.412
486.36	13.245
486.70	13.745
487.05	13.577
487.40	14.275
487.75	14.020
488.09	14.832
488.44	14.443
488.79	15.371
489.13	15.317
489.48	14.967
489.83	15.019
490.17	14.993
490.52	15.013
490.87	14.654
491.22	15.098
491.56	14.351
491.91	14.751
492.26	14.469
492.60	14.516
492.95	13.985
493.30	15.234
493.64	14.699
493.99	14.670
494.34	14.477
494.68	15.476
495.03	14.615
495.37	14.705
495.72	13.889
496.07	14.756
496.41	13.805
496.76	14.336
497.11	14.723
497.45	14.578
497.80	14.012
498.14	13.768
498.49	13.902
498.84	14.669
499.18	13.667
499.53	14.055
499.87	13.840
500.22	13.943
500.56	14.175
500.91	13.750
501.26	14.272
501.60	14.760
501.95	14.115
502.29	14.292
502.64	13.128
502.98	13.885
503.33	14.168
503.67	14.385
504.02	13.751
504.36	14.366
504.71	14.021
505.06	14.169
505.40	13.563
505.75	13.597
506.09	13.848
506.44	14.307
506.78	13.687
507.13	13.428
507.47	13.636
507.82	14.488
508.16	13.576
508.51	13.952
508.85	13.754
509.19	13.980
509.54	13.469
509.88	13.344
510.23	14.190
510.57	14.654
510.92	13.361
511.26	13.926
511.61	13.589
511.95	13.674
512.30	13.415
512.64	14.401
512.98	13.773
513.33	14.186
513.67	14.461
514.02	13.853
514.36	14.691
514.70	14.001
515.05	14.334
515.39	14.190
515.74	14.077
516.08	14.086
516.42	14.206
516.77	14.047
517.11	14.206
517.46	14.334
517.80	13.763
518.14	13.607
518.49	14.177
518.83	14.602
519.17	13.972
519.52	13.978
519.86	14.318
520.20	14.220
520.55	14.363
520.89	14.659
521.23	14.656
521.58	14.466
521.92	14.636
522.26	13.118
522.61	14.268
522.95	14.426
523.29	14.486
523.64	14.756
523.98	14.479
524.32	14.234
524.66	14.732
525.01	14.461
525.35	13.817
525.69	14.286
526.04	13.894
526.38	14.765
526.72	14.233
527.06	15.505
527.41	12.748
527.75	15.113
528.09	13.487
528.43	14.340
528.78	14.444
529.12	14.545
529.46	14.452
529.80	14.975
530.15	14.455
530.49	13.969
530.83	15.000
531.17	15.535
531.51	15.888
531.86	15.097
532.20	15.189
532.54	15.247
532.88	14.763
533.22	14.428
533.57	14.753
533.91	13.967
534.25	14.581
534.59	13.850
534.93	14.456
535.27	14.001
535.62	14.713
535.96	14.124
536.30	13.732
536.64	15.261
536.98	14.731
537.32	14.220
537.66	14.267
538.01	14.417
538.35	15.191
538.69	15.826
539.03	14.880
539.37	13.930
539.71	13.286
540.05	14.183
540.39	13.355
540.73	13.713
541.07	14.860
541.42	14.155
541.76	15.161
542.10	13.648
542.44	13.377
542.78	14.690
543.12	14.267
543.46	14.426
543.80	14.899
544.14	13.479
544.48	14.286
544.82	13.470
545.16	14.639
545.50	13.946
545.84	13.978
546.18	13.737
546.52	14.040
546.86	14.570
547.20	14.093
547.54	13.093
547.88	15.689
548.22	14.570
548.56	13.774
548.90	13.700
549.24	13.670
549.58	14.393
549.92	13.049
550.26	14.347
550.60	14.661
550.94	13.662
551.28	13.460
551.62	15.025
551.96	14.316
552.30	14.130
552.64	14.604
552.98	14.508
553.32	14.633
553.66	15.542
554.00	14.756
554.34	14.079
554.68	14.449
555.02	14.386
555.36	13.709
555.69	14.141
556.03	14.805
556.37	14.188
556.71	13.779
557.05	13.866
557.39	13.786
557.73	14.467
558.07	13.851
558.41	13.603
558.75	14.695
559.08	14.541
559.42	13.908
559.76	14.191
560.10	13.919
560.44	12.928
560.78	13.639
561.12	14.446
561.45	14.472
561.79	13.382
562.13	13.481
562.47	14.276
562.81	13.808
563.15	13.244
563.48	13.992
563.82	13.438
564.16	13.538
564.50	13.542
564.84	13.021
565.17	13.063
565.51	13.994
565.85	13.261
566.19	11.960
566.52	12.983
566.86	13.442
567.20	12.854
567.54	12.614
567.88	11.461
568.21	12.963
568.55	12.184
568.89	12.014
569.23	11.765
569.56	11.700
569.90	11.925
570.24	10.980
570.57	11.221
570.91	10.989
571.25	10.716
571.59	10.633
571.92	11.089
572.26	11.121
572.60	11.291
572.93	10.525
573.27	11.476
573.61	10.999
573.95	10.620
574.28	10.653
574.62	10.666
574.96	10.514
575.29	10.694
575.63	10.595
575.97	10.362
576.30	10.781
576.64	10.437
576.98	10.331
577.31	10.120
577.65	10.076
577.98	10.314
578.32	9.929
578.66	10.419
578.99	10.272
579.33	10.264
579.67	10.119
580.00	10.693
580.34	10.275
580.67	10.494
581.01	10.412
581.35	10.084
581.68	10.006
582.02	9.568
582.35	9.729
582.69	10.081
583.02	9.960
583.36	10.307
583.70	10.315
584.03	10.136
584.37	10.777
584.70	10.397
585.04	10.445
585.37	9.809
585.71	10.479
586.04	10.534
586.38	10.554
586.72	10.798
587.05	10.215
587.39	10.053
587.72	10.384
588.06	10.245
588.39	10.617
588.73	10.443
589.06	10.689
589.40	10.976
589.73	10.771
590.07	10.819
590.40	10.559
590.73	11.046
591.07	10.908
591.40	11.514
591.74	11.688
592.07	10.689
592.41	10.996
592.74	10.861
593.08	10.493
593.41	10.345
593.75	10.244
594.08	10.493
594.41	10.746
594.75	10.573
595.08	10.666
595.42	11.173
595.75	10.613
596.09	11.003
596.42	11.473
596.75	10.891
597.09	11.602
597.42	10.666
597.75	10.996
598.09	10.783
598.42	11.254
598.76	10.093
599.09	10.338
599.42	10.408
599.76	10.359
600.09	10.128
600.42	10.263
600.76	10.143
601.09	10.055
601.42	10.959
601.76	10.626
602.09	10.593
602.42	10.709
602.76	11.125
603.09	10.818
603.42	10.738
603.76	10.671
604.09	10.043
604.42	10.966
604.76	10.755
605.09	10.529
605.42	10.731
605.75	10.679
606.09	10.329
606.42	10.421
606.75	10.867
607.09	11.009
607.42	10.526
607.75	10.633
608.08	10.986
608.42	11.340
608.75	11.046
609.08	11.101
609.41	11.709
609.75	10.481
610.08	10.980
610.41	10.335
610.74	10.360
611.07	10.870
611.41	11.237
611.74	11.111
612.07	11.335
612.40	11.647
612.73	11.316
613.07	11.800
613.40	10.742
613.73	10.068
614.06	11.022
614.39	11.379
614.72	11.421
615.06	10.977
615.39	11.040
615.72	11.145
616.05	11.962
616.38	11.117
616.71	11.936
617.05	12.073
617.38	11.485
617.71	11.231
618.04	11.538
618.37	11.059
618.70	11.823
619.03	11.316
619.36	11.405
619.69	12.465
620.03	11.882
620.36	11.965
620.69	13.082
621.02	13.053
621.35	12.138
621.68	11.215
622.01	12.848
622.34	11.725
622.67	11.787
623.00	11.225
623.33	11.866
623.66	12.580
623.99	12.297
624.32	12.482
624.65	13.065
624.99	11.190
625.32	11.658
625.65	11.946
625.98	12.683
626.31	13.530
626.64	13.388
626.97	12.801
627.30	11.804
627.63	12.715
627.96	13.961
628.29	13.736
628.62	13.266
628.95	14.245
629.28	13.686
629.61	13.107
629.94	12.952
630.26	13.441
630.59	13.251
630.92	13.793
631.25	12.636
631.58	13.514
