SpectraSuite Data File
++++++++++++++++++++++++++++++++++++
Date: Wed May 13 20:35:04 PDT 2015
User: schluterlab
Dark Spectrum Present: Yes
Reference Spectrum Present: Yes
Number of Sampled Component Spectra: 1
Spectrometers: USB2E3373
Integration Time (usec): 3000 (USB2E3373)
Spectra Averaged: 3 (USB2E3373)
Boxcar Smoothing: 0 (USB2E3373)
Correct for Electrical Dark: No (USB2E3373)
Strobe/Lamp Enabled: No (USB2E3373)
Correct for Detector Non-linearity: No (USB2E3373)
Correct for Stray Light: No (USB2E3373)
Number of Pixels in Processed Spectrum: 2048
>>>>>Begin Processed Spectral Data<<<<<
178.53	0.000
178.91	-975.000
179.29	-725.000
179.67	-205.556
180.04	-875.000
180.42	1300.000
180.80	820.000
181.18	-650.000
181.56	400.000
181.94	0.000
182.31	-471.429
182.69	1233.333
183.07	-412.500
183.45	-388.889
183.83	381.818
184.20	-290.000
184.58	1600.000
184.96	4300.000
185.34	-400.000
185.72	-425.000
186.09	-1950.000
186.47	1900.000
186.85	1450.000
187.23	3600.000
187.61	-1433.333
187.98	1150.000
188.36	490.909
188.74	336.364
189.12	-800.000
189.49	400.000
189.87	-4100.000
190.25	-850.000
190.63	292.857
191.00	330.769
191.38	600.000
191.76	-975.000
192.14	1075.000
192.51	537.500
192.89	650.000
193.27	550.000
193.65	-1000.000
194.02	440.000
194.40	580.000
194.78	410.000
195.15	391.667
195.53	470.000
195.91	-1500.000
196.29	262.500
196.66	231.579
197.04	-290.000
197.42	0.000
197.79	530.000
198.17	-2800.000
198.55	528.571
198.92	475.000
199.30	480.000
199.68	0.000
200.05	261.111
200.43	542.857
200.81	3500.000
201.18	1366.667
201.56	-1266.667
201.94	400.000
202.31	411.111
202.69	333.333
203.07	450.000
203.44	0.000
203.82	775.000
204.19	571.429
204.57	357.143
204.95	362.500
205.32	766.667
205.70	363.636
206.08	314.286
206.45	2200.000
206.83	262.500
207.20	550.000
207.58	500.000
207.96	266.667
208.33	475.000
208.71	-550.000
209.08	657.143
209.46	422.222
209.84	263.636
210.21	-933.333
210.59	1150.000
210.96	-237.500
211.34	2000.000
211.71	420.000
212.09	550.000
212.46	0.000
212.84	1066.667
213.22	950.000
213.59	-2900.000
213.97	716.667
214.34	614.286
214.72	400.000
215.09	820.000
215.47	-1300.000
215.84	-1350.000
216.22	1233.333
216.59	285.714
216.97	1000.000
217.34	363.636
217.72	-500.000
218.09	0.000
218.47	-3400.000
218.84	400.000
219.22	485.714
219.59	1366.667
219.97	-571.429
220.34	880.000
220.72	-1333.333
221.09	314.286
221.47	1050.000
221.84	-583.333
222.22	0.000
222.59	900.000
222.97	-1650.000
223.34	800.000
223.72	307.692
224.09	660.000
224.46	1750.000
224.84	-3000.000
225.21	-740.000
225.59	-3900.000
225.96	540.000
226.34	245.000
226.71	1950.000
227.08	462.500
227.46	390.000
227.83	-800.000
228.21	-1450.000
228.58	388.889
228.95	-2100.000
229.33	-1400.000
229.70	1133.333
230.08	642.857
230.45	-580.000
230.82	300.000
231.20	483.333
231.57	500.000
231.95	333.333
232.32	145.455
232.69	245.455
233.07	528.571
233.44	200.000
233.81	-1300.000
234.19	236.842
234.56	266.667
234.93	266.667
235.31	318.182
235.68	230.769
236.05	321.429
236.43	121.212
236.80	252.632
237.17	3400.000
237.55	171.429
237.92	150.000
238.29	142.857
238.67	132.258
239.04	175.862
239.41	119.444
239.79	104.348
240.16	109.524
240.53	106.818
240.91	103.922
241.28	100.000
241.65	90.000
242.02	98.551
242.40	88.710
242.77	96.667
243.14	73.118
243.51	82.022
243.89	76.471
244.26	63.333
244.63	77.419
245.00	60.638
245.38	65.347
245.75	64.486
246.12	57.798
246.49	62.774
246.87	57.600
247.24	66.154
247.61	59.286
247.98	56.209
248.36	51.351
248.73	55.414
249.10	58.599
249.47	59.322
249.84	56.150
250.22	58.824
250.59	56.213
250.96	57.071
251.33	52.607
251.70	54.950
252.08	47.143
252.45	47.982
252.82	52.609
253.19	46.809
253.56	47.059
253.94	51.452
254.31	46.094
254.68	50.000
255.05	50.554
255.42	50.000
255.79	50.735
256.16	45.126
256.54	46.290
256.91	45.907
257.28	43.525
257.65	46.865
258.02	44.099
258.39	47.003
258.76	46.154
259.14	46.131
259.51	44.073
259.88	43.789
260.25	43.505
260.62	42.775
260.99	48.447
261.36	43.844
261.73	44.126
262.10	42.442
262.47	40.845
262.85	44.568
263.22	41.026
263.59	43.020
263.96	44.505
264.33	44.125
264.70	41.053
265.07	43.223
265.44	38.636
265.81	40.389
266.18	42.211
266.55	41.707
266.92	42.998
267.29	43.287
267.66	41.284
268.03	40.227
268.40	40.888
268.77	42.005
269.14	40.315
269.51	41.309
269.88	44.522
270.25	41.761
270.62	40.225
270.99	42.796
271.36	40.129
271.73	41.355
272.10	38.043
272.47	40.860
272.84	40.693
273.21	40.881
273.58	39.738
273.95	37.317
274.32	38.843
274.69	43.041
275.06	38.189
275.43	42.766
275.80	40.882
276.17	38.697
276.54	38.877
276.91	39.921
277.28	36.914
277.65	41.586
278.02	40.166
278.39	39.844
278.76	39.818
279.13	36.415
279.50	38.920
279.87	36.653
280.23	39.321
280.60	38.104
280.97	39.187
281.34	38.053
281.71	38.000
282.08	38.004
282.45	37.455
282.82	37.655
283.19	38.503
283.56	35.789
283.92	37.225
284.29	36.508
284.66	38.294
285.03	36.166
285.40	35.211
285.77	37.542
286.14	37.997
286.51	36.500
286.87	37.436
287.24	36.971
287.61	36.276
287.98	35.552
288.35	34.707
288.72	34.112
289.08	35.368
289.45	36.244
289.82	34.797
290.19	33.752
290.56	32.772
290.93	32.628
291.29	35.123
291.66	33.481
292.03	34.012
292.40	33.333
292.77	31.953
293.13	32.090
293.50	31.778
293.87	32.148
294.24	30.963
294.60	32.023
294.97	32.267
295.34	31.030
295.71	30.824
296.08	30.627
296.44	32.737
296.81	29.855
297.18	29.675
297.55	27.836
297.91	29.815
298.28	28.782
298.65	29.243
299.02	28.327
299.38	29.349
299.75	27.898
300.12	27.458
300.48	28.250
300.85	26.757
301.22	27.898
301.59	26.389
301.95	27.204
302.32	26.444
302.69	27.838
303.05	27.394
303.42	26.420
303.79	27.067
304.15	25.291
304.52	26.651
304.89	26.945
305.25	25.522
305.62	26.840
305.99	26.919
306.35	26.957
306.72	26.121
307.09	26.526
307.45	26.351
307.82	25.335
308.19	27.042
308.55	26.537
308.92	25.242
309.29	24.710
309.65	25.769
310.02	26.638
310.38	25.376
310.75	26.082
311.12	26.305
311.48	25.914
311.85	26.520
312.22	25.911
312.58	25.364
312.95	26.399
313.31	24.272
313.68	27.443
314.05	26.430
314.41	25.427
314.78	25.076
315.14	25.422
315.51	25.232
315.87	26.139
316.24	27.309
316.61	23.782
316.97	24.168
317.34	24.168
317.70	25.717
318.07	23.869
318.43	26.223
318.80	25.773
319.16	24.765
319.53	24.484
319.89	23.619
320.26	24.300
320.62	24.802
320.99	25.354
321.35	25.253
321.72	25.051
322.08	25.271
322.45	24.577
322.81	26.163
323.18	24.855
323.54	25.603
323.91	25.189
324.27	24.283
324.64	24.697
325.00	23.264
325.37	24.659
325.73	25.135
326.10	24.184
326.46	23.297
326.83	23.986
327.19	24.338
327.56	23.606
327.92	24.497
328.29	24.135
328.65	24.862
329.01	24.368
329.38	23.867
329.74	24.377
330.11	23.280
330.47	23.600
330.84	25.827
331.20	23.588
331.56	23.945
331.93	24.167
332.29	24.046
332.66	24.956
333.02	24.223
333.38	24.842
333.75	24.153
334.11	24.466
334.48	23.336
334.84	24.816
335.20	25.091
335.57	23.028
335.93	23.125
336.29	23.810
336.66	24.256
337.02	23.439
337.38	23.704
337.75	23.529
338.11	24.978
338.47	23.297
338.84	23.923
339.20	23.761
339.56	25.000
339.93	22.909
340.29	22.736
340.65	22.906
341.02	23.298
341.38	23.310
341.74	22.895
342.11	24.803
342.47	23.260
342.83	23.716
343.20	23.463
343.56	22.578
343.92	22.895
344.28	22.194
344.65	22.786
345.01	22.811
345.37	22.384
345.73	22.589
346.10	23.615
346.46	21.949
346.82	22.982
347.19	22.139
347.55	22.332
347.91	22.977
348.27	23.829
348.63	22.993
349.00	22.573
349.36	23.235
349.72	22.053
350.08	20.746
350.45	22.457
350.81	22.827
351.17	22.528
351.53	22.031
351.89	20.792
352.26	21.389
352.62	22.855
352.98	21.475
353.34	22.432
353.70	21.604
354.07	21.935
354.43	22.540
354.79	21.158
355.15	21.309
355.51	22.382
355.87	22.286
356.24	22.394
356.60	20.289
356.96	21.561
357.32	21.504
357.68	21.260
358.04	21.615
358.40	21.378
358.77	20.970
359.13	20.916
359.49	21.255
359.85	20.238
360.21	21.691
360.57	22.724
360.93	21.538
361.29	21.542
361.66	20.124
362.02	22.537
362.38	21.217
362.74	21.503
363.10	20.133
363.46	20.176
363.82	21.693
364.18	20.778
364.54	21.322
364.90	22.450
365.26	20.368
365.62	20.526
365.98	20.380
366.35	20.129
366.71	20.680
367.07	20.757
367.43	21.118
367.79	21.842
368.15	22.055
368.51	20.422
368.87	20.271
369.23	20.263
369.59	21.796
369.95	21.029
370.31	19.943
370.67	20.217
371.03	21.648
371.39	21.137
371.75	20.000
372.11	20.341
372.47	20.674
372.83	21.326
373.19	20.448
373.55	20.695
373.91	21.208
374.27	19.725
374.63	20.509
374.99	20.339
375.35	20.098
375.71	20.082
376.07	19.890
376.42	19.670
376.78	20.278
377.14	19.946
377.50	20.331
377.86	19.082
378.22	20.291
378.58	19.361
378.94	19.485
379.30	19.656
379.66	19.987
380.02	19.963
380.38	19.854
380.74	19.808
381.09	20.416
381.45	20.774
381.81	19.902
382.17	19.745
382.53	19.245
382.89	20.556
383.25	19.575
383.61	19.703
383.97	20.388
384.32	20.150
384.68	19.641
385.04	19.545
385.40	20.000
385.76	19.902
386.12	19.430
386.48	19.383
386.83	20.141
387.19	20.099
387.55	19.109
387.91	19.347
388.27	18.823
388.62	19.791
388.98	18.796
389.34	19.399
389.70	19.804
390.06	19.455
390.42	18.418
390.77	18.893
391.13	18.890
391.49	20.114
391.85	19.223
392.20	18.801
392.56	18.434
392.92	19.894
393.28	18.462
393.64	19.305
393.99	19.181
394.35	19.541
394.71	18.758
395.07	18.754
395.42	19.283
395.78	19.020
396.14	20.050
396.50	19.298
396.85	20.025
397.21	18.804
397.57	19.467
397.92	18.990
398.28	18.161
398.64	19.534
399.00	19.418
399.35	18.556
399.71	18.576
400.07	19.219
400.42	19.080
400.78	19.361
401.14	19.573
401.49	18.866
401.85	18.512
402.21	19.341
402.57	18.692
402.92	18.789
403.28	18.926
403.63	18.812
403.99	18.025
404.35	19.636
404.70	18.825
405.06	18.346
405.42	19.401
405.77	19.086
406.13	18.962
406.49	18.746
406.84	19.138
407.20	17.730
407.55	19.209
407.91	19.933
408.27	18.634
408.62	18.844
408.98	18.689
409.34	19.496
409.69	19.484
410.05	19.393
410.40	19.878
410.76	19.654
411.11	18.938
411.47	18.978
411.83	19.487
412.18	18.738
412.54	19.240
412.89	19.337
413.25	19.303
413.60	19.518
413.96	18.822
414.31	19.016
414.67	19.455
415.03	18.278
415.38	19.716
415.74	19.100
416.09	19.464
416.45	18.742
416.80	18.837
417.16	19.973
417.51	19.907
417.87	19.268
418.22	19.811
418.58	20.529
418.93	19.963
419.29	19.096
419.64	19.521
420.00	19.329
420.35	19.594
420.71	19.366
421.06	18.377
421.42	18.713
421.77	19.899
422.12	18.360
422.48	18.564
422.83	18.870
423.19	18.729
423.54	18.456
423.90	19.014
424.25	19.430
424.61	19.226
424.96	19.242
425.31	18.660
425.67	19.045
426.02	18.229
426.38	19.841
426.73	18.900
427.09	18.663
427.44	19.494
427.79	19.436
428.15	19.167
428.50	19.310
428.85	19.309
429.21	19.105
429.56	18.974
429.92	19.074
430.27	18.520
430.62	18.484
430.98	19.668
431.33	18.608
431.68	19.215
432.04	18.903
432.39	18.561
432.74	18.552
433.10	18.393
433.45	19.650
433.80	18.902
434.16	19.231
434.51	19.316
434.86	19.555
435.22	19.511
435.57	19.088
435.92	19.602
436.28	19.098
436.63	19.592
436.98	19.118
437.34	19.797
437.69	19.428
438.04	19.168
438.39	19.224
438.75	20.105
439.10	18.939
439.45	19.303
439.81	18.610
440.16	18.803
440.51	18.571
440.86	18.992
441.22	18.910
441.57	19.055
441.92	19.038
442.27	20.022
442.63	18.694
442.98	19.831
443.33	19.348
443.68	19.411
444.03	18.985
444.39	18.257
444.74	19.102
445.09	19.137
445.44	18.917
445.79	19.149
446.15	19.217
446.50	19.278
446.85	19.168
447.20	19.072
447.55	18.370
447.91	19.084
448.26	19.421
448.61	19.446
448.96	18.383
449.31	18.673
449.66	20.146
450.02	18.607
450.37	19.444
450.72	20.079
451.07	19.013
451.42	19.392
451.77	19.319
452.12	19.457
452.47	18.843
452.83	19.056
453.18	20.232
453.53	19.604
453.88	18.960
454.23	19.486
454.58	20.957
454.93	20.598
455.28	19.514
455.63	19.782
455.98	21.012
456.34	19.598
456.69	19.537
457.04	19.814
457.39	19.404
457.74	19.327
458.09	19.321
458.44	19.384
458.79	18.709
459.14	19.413
459.49	19.498
459.84	19.723
460.19	19.093
460.54	19.329
460.89	19.199
461.24	19.126
461.59	19.988
461.94	19.482
462.29	20.000
462.64	20.166
462.99	20.039
463.34	20.733
463.69	19.387
464.04	19.420
464.39	19.768
464.74	19.548
465.09	19.602
465.44	18.560
465.79	19.519
466.14	19.759
466.49	20.078
466.84	20.374
467.19	19.493
467.54	20.312
467.89	19.208
468.24	20.884
468.59	20.696
468.94	19.426
469.29	19.344
469.64	20.415
469.99	20.095
470.34	19.749
470.68	20.043
471.03	20.000
471.38	20.153
471.73	20.320
472.08	21.579
472.43	19.724
472.78	20.013
473.13	19.255
473.48	19.788
473.83	19.817
474.17	20.037
474.52	20.347
474.87	20.198
475.22	20.081
475.57	20.097
475.92	19.225
476.27	19.222
476.61	19.967
476.96	19.351
477.31	19.152
477.66	19.584
478.01	19.080
478.36	19.778
478.70	19.574
479.05	19.755
479.40	19.857
479.75	19.065
480.10	19.682
480.45	19.277
480.79	19.685
481.14	19.325
481.49	19.886
481.84	19.433
482.19	19.718
482.53	19.495
482.88	19.730
483.23	19.813
483.58	19.563
483.92	19.541
484.27	19.172
484.62	19.353
484.97	18.802
485.31	18.664
485.66	18.559
486.01	18.294
486.36	17.564
486.70	17.679
487.05	18.020
487.40	18.386
487.75	17.881
488.09	17.652
488.44	17.712
488.79	18.626
489.13	18.564
489.48	18.801
489.83	18.990
490.17	19.071
490.52	19.265
490.87	20.036
491.22	19.554
491.56	18.724
491.91	19.358
492.26	18.925
492.60	19.724
492.95	18.803
493.30	19.393
493.64	19.085
493.99	19.313
494.34	20.028
494.68	19.551
495.03	20.019
495.37	19.777
495.72	20.370
496.07	20.093
496.41	18.938
496.76	19.129
497.11	19.901
497.45	20.587
497.80	19.482
498.14	19.275
498.49	19.951
498.84	19.942
499.18	19.190
499.53	20.038
499.87	19.991
500.22	19.878
500.56	20.340
500.91	19.615
501.26	19.298
501.60	20.835
501.95	19.478
502.29	20.244
502.64	20.298
502.98	19.402
503.33	18.921
503.67	19.165
504.02	19.878
504.36	19.560
504.71	19.932
505.06	20.048
505.40	19.883
505.75	19.624
506.09	19.485
506.44	19.832
506.78	19.532
507.13	20.141
507.47	20.606
507.82	20.719
508.16	20.314
508.51	20.142
508.85	20.159
509.19	20.255
509.54	20.408
509.88	19.938
510.23	19.743
510.57	20.846
510.92	20.093
511.26	20.863
511.61	20.591
511.95	19.102
512.30	19.989
512.64	20.742
512.98	20.900
513.33	20.985
513.67	20.438
514.02	19.481
514.36	20.863
514.70	21.029
515.05	20.803
515.39	20.527
515.74	20.946
516.08	21.185
516.42	20.810
516.77	21.405
517.11	20.311
517.46	21.050
517.80	21.312
518.14	21.251
518.49	20.828
518.83	21.648
519.17	20.497
519.52	20.713
519.86	21.449
520.20	21.272
520.55	21.604
520.89	21.655
521.23	21.713
521.58	21.309
521.92	21.249
522.26	20.561
522.61	21.558
522.95	21.179
523.29	20.694
523.64	22.500
523.98	22.366
524.32	21.894
524.66	22.069
525.01	20.895
525.35	20.818
525.69	21.244
526.04	21.931
526.38	20.683
526.72	21.779
527.06	20.841
527.41	20.173
527.75	21.029
528.09	22.158
528.43	21.606
528.78	22.004
529.12	21.515
529.46	22.290
529.80	21.349
530.15	21.994
530.49	21.477
530.83	21.835
531.17	22.128
531.51	23.346
531.86	21.871
532.20	22.360
532.54	22.101
532.88	22.144
533.22	21.174
533.57	21.852
533.91	21.373
534.25	21.324
534.59	21.721
534.93	20.999
535.27	20.157
535.62	21.856
535.96	22.850
536.30	21.360
536.64	21.442
536.98	21.964
537.32	21.791
537.66	21.533
538.01	21.922
538.35	22.107
538.69	22.527
539.03	21.118
539.37	21.278
539.71	20.544
540.05	21.503
540.39	21.595
540.73	22.510
541.07	22.064
541.42	22.896
541.76	22.194
542.10	21.475
542.44	21.258
542.78	21.739
543.12	20.985
543.46	21.967
543.80	21.991
544.14	20.154
544.48	21.206
544.82	21.873
545.16	21.601
545.50	21.080
545.84	22.984
546.18	22.290
546.52	21.679
546.86	21.375
547.20	21.915
547.54	21.910
547.88	22.130
548.22	21.420
548.56	21.384
548.90	21.063
549.24	20.943
549.58	22.306
549.92	21.841
550.26	21.662
550.60	21.093
550.94	21.690
551.28	20.922
551.62	22.070
551.96	22.175
552.30	22.389
552.64	21.704
552.98	21.763
553.32	22.050
553.66	22.427
554.00	22.237
554.34	22.360
554.68	22.961
555.02	22.567
555.36	23.243
555.69	21.989
556.03	22.140
556.37	21.623
556.71	22.033
557.05	22.269
557.39	21.763
557.73	21.665
558.07	22.625
558.41	21.997
558.75	21.822
559.08	23.266
559.42	22.751
559.76	21.618
560.10	21.842
560.44	21.174
560.78	21.690
561.12	21.372
561.45	22.621
561.79	22.083
562.13	21.663
562.47	21.721
562.81	21.757
563.15	21.472
563.48	21.950
563.82	21.331
564.16	21.714
564.50	21.029
564.84	21.176
565.17	21.815
565.51	22.236
565.85	22.081
566.19	21.290
566.52	21.849
566.86	21.579
567.20	20.696
567.54	21.233
567.88	21.184
568.21	20.423
568.55	20.475
568.89	20.963
569.23	19.875
569.56	20.283
569.90	20.113
570.24	19.806
570.57	19.075
570.91	18.811
571.25	19.148
571.59	19.028
571.92	18.865
572.26	19.122
572.60	19.189
572.93	18.771
573.27	19.314
573.61	19.068
573.95	18.708
574.28	19.020
574.62	18.489
574.96	18.734
575.29	18.817
575.63	18.293
575.97	18.615
576.30	18.826
576.64	18.019
576.98	18.206
577.31	18.068
577.65	18.458
577.98	18.335
578.32	17.951
578.66	18.344
578.99	18.124
579.33	18.301
579.67	17.952
580.00	18.533
580.34	17.964
580.67	18.435
581.01	18.529
581.35	18.429
581.68	18.114
582.02	17.737
582.35	18.318
582.69	18.420
583.02	18.163
583.36	18.285
583.70	18.606
584.03	17.921
584.37	18.235
584.70	18.521
585.04	18.151
585.37	18.383
585.71	18.539
586.04	18.434
586.38	19.148
586.72	19.276
587.05	18.256
587.39	18.654
587.72	19.119
588.06	18.463
588.39	18.738
588.73	18.715
589.06	19.103
589.40	18.855
589.73	19.676
590.07	19.431
590.40	18.780
590.73	19.321
591.07	19.495
591.40	19.485
591.74	19.697
592.07	19.546
592.41	19.305
592.74	19.101
593.08	19.520
593.41	19.519
593.75	18.301
594.08	19.175
594.41	18.982
594.75	19.593
595.08	19.184
595.42	19.440
595.75	19.551
596.09	19.339
596.42	19.332
596.75	20.008
597.09	20.303
597.42	18.971
597.75	19.750
598.09	20.174
598.42	19.759
598.76	19.173
599.09	18.966
599.42	19.250
599.76	18.887
600.09	18.798
600.42	19.028
600.76	18.393
601.09	18.689
601.42	19.178
601.76	18.558
602.09	18.498
602.42	19.666
602.76	19.629
603.09	18.961
603.42	19.446
603.76	19.665
604.09	19.310
604.42	19.405
604.76	19.865
605.09	19.572
605.42	19.025
605.75	19.454
606.09	19.032
606.42	19.452
606.75	18.830
607.09	19.590
607.42	18.956
607.75	19.114
608.08	19.323
608.42	19.588
608.75	20.108
609.08	19.380
609.41	19.419
609.75	19.533
610.08	19.651
610.41	18.948
610.74	19.536
611.07	20.702
611.41	19.774
611.74	20.161
612.07	19.720
612.40	20.042
612.73	19.842
613.07	20.420
613.40	20.590
613.73	19.350
614.06	20.753
614.39	20.189
614.72	19.211
615.06	20.641
615.39	19.692
615.72	19.785
616.05	20.096
616.38	20.233
616.71	20.131
617.05	21.437
617.38	19.904
617.71	20.300
618.04	21.875
618.37	20.225
618.70	21.033
619.03	20.921
619.36	20.774
619.69	20.563
620.03	21.909
620.36	21.190
620.69	20.274
621.02	20.723
621.35	21.300
621.68	21.495
622.01	21.053
622.34	22.163
622.67	20.684
623.00	21.570
623.33	21.229
623.66	20.801
623.99	20.913
624.32	20.899
624.65	20.904
624.99	21.176
625.32	20.203
625.65	21.713
625.98	22.521
626.31	22.317
626.64	22.286
626.97	22.195
627.30	21.862
627.63	21.903
627.96	22.372
628.29	21.872
628.62	23.056
628.95	23.208
629.28	23.358
629.61	23.006
629.94	22.952
630.26	21.926
630.59	21.735
630.92	22.126
631.25	21.915
