SpectraSuite Data File
++++++++++++++++++++++++++++++++++++
Date: Wed May 13 20:25:08 PDT 2015
User: schluterlab
Dark Spectrum Present: Yes
Reference Spectrum Present: Yes
Number of Sampled Component Spectra: 1
Spectrometers: USB2E3373
Integration Time (usec): 3000 (USB2E3373)
Spectra Averaged: 3 (USB2E3373)
Boxcar Smoothing: 0 (USB2E3373)
Correct for Electrical Dark: No (USB2E3373)
Strobe/Lamp Enabled: No (USB2E3373)
Correct for Detector Non-linearity: No (USB2E3373)
Correct for Stray Light: No (USB2E3373)
Number of Pixels in Processed Spectrum: 2048
>>>>>Begin Processed Spectral Data<<<<<
178.53	0.000
178.91	-1325.000
179.29	-1175.000
179.67	-194.444
180.04	-1275.000
180.42	1950.000
180.80	1080.000
181.18	-900.000
181.56	671.429
181.94	0.000
182.31	-614.286
182.69	1633.333
183.07	-575.000
183.45	-555.556
183.83	509.091
184.20	-360.000
184.58	2450.000
184.96	4600.000
185.34	-820.000
185.72	-562.500
186.09	-2250.000
186.47	2350.000
186.85	2050.000
187.23	5000.000
187.61	-1966.667
187.98	1525.000
188.36	454.545
188.74	509.091
189.12	-940.000
189.49	460.000
189.87	-4300.000
190.25	-1300.000
190.63	385.714
191.00	346.154
191.38	850.000
191.76	-1400.000
192.14	1250.000
192.51	662.500
192.89	766.667
193.27	550.000
193.65	-1175.000
194.02	540.000
194.40	820.000
194.78	510.000
195.15	425.000
195.53	570.000
195.91	-1650.000
196.29	343.750
196.66	278.947
197.04	-330.000
197.42	0.000
197.79	650.000
198.17	-3500.000
198.55	671.429
198.92	650.000
199.30	660.000
199.68	0.000
200.05	294.444
200.43	714.286
200.81	3300.000
201.18	1966.667
201.56	-1600.000
201.94	633.333
202.31	633.333
202.69	375.000
203.07	550.000
203.44	0.000
203.82	900.000
204.19	814.286
204.57	471.429
204.95	662.500
205.32	1266.667
205.70	590.909
206.08	328.571
206.45	2650.000
206.83	400.000
207.20	1016.667
207.58	760.000
207.96	311.111
208.33	787.500
208.71	-716.667
209.08	757.143
209.46	644.444
209.84	527.273
210.21	-1866.667
210.59	1275.000
210.96	-487.500
211.34	2850.000
211.71	550.000
212.09	783.333
212.46	0.000
212.84	1500.000
213.22	1250.000
213.59	-4100.000
213.97	933.333
214.34	714.286
214.72	572.727
215.09	1080.000
215.47	-2100.000
215.84	-2650.000
216.22	1666.667
216.59	435.714
216.97	1225.000
217.34	445.455
217.72	-683.333
218.09	0.000
218.47	-4300.000
218.84	577.778
219.22	814.286
219.59	1666.667
219.97	-414.286
220.34	1060.000
220.72	-1466.667
221.09	371.429
221.47	1350.000
221.84	-733.333
222.22	0.000
222.59	1350.000
222.97	-3150.000
223.34	1060.000
223.72	438.462
224.09	840.000
224.46	2600.000
224.84	-5800.000
225.21	-880.000
225.59	-4900.000
225.96	500.000
226.34	275.000
226.71	2200.000
227.08	712.500
227.46	540.000
227.83	-1175.000
228.21	-2000.000
228.58	600.000
228.95	-2800.000
229.33	-2300.000
229.70	1633.333
230.08	571.429
230.45	-740.000
230.82	441.667
231.20	883.333
231.57	671.429
231.95	466.667
232.32	231.818
232.69	418.182
233.07	628.571
233.44	369.231
233.81	-1600.000
234.19	284.211
234.56	425.000
234.93	358.333
235.31	490.909
235.68	338.462
236.05	350.000
236.43	203.030
236.80	252.632
237.17	6100.000
237.55	242.857
237.92	210.714
238.29	257.143
238.67	187.097
239.04	193.103
239.41	144.444
239.79	119.565
240.16	161.905
240.53	165.909
240.91	152.941
241.28	122.000
241.65	144.000
242.02	117.391
242.40	127.419
242.77	123.333
243.14	91.398
243.51	85.393
243.89	90.588
244.26	82.222
244.63	82.796
245.00	82.979
245.38	87.129
245.75	81.308
246.12	77.982
246.49	89.781
246.87	89.600
247.24	87.692
247.61	73.571
247.98	72.549
248.36	75.676
248.73	75.796
249.10	70.064
249.47	64.972
249.84	64.171
250.22	68.984
250.59	69.231
250.96	68.687
251.33	68.720
251.70	67.327
252.08	66.667
252.45	62.780
252.82	59.565
253.19	64.255
253.56	60.784
253.94	63.485
254.31	58.594
254.68	65.385
255.05	57.565
255.42	61.382
255.79	58.456
256.16	58.484
256.54	57.244
256.91	57.651
257.28	50.719
257.65	56.436
258.02	57.453
258.39	52.997
258.76	56.522
259.14	51.488
259.51	55.015
259.88	56.832
260.25	57.100
260.62	52.023
260.99	56.211
261.36	56.156
261.73	52.722
262.10	52.326
262.47	55.211
262.85	50.418
263.22	53.561
263.59	52.137
263.96	57.143
264.33	50.131
264.70	55.526
265.07	50.639
265.44	50.000
265.81	51.825
266.18	51.759
266.55	50.244
266.92	51.597
267.29	52.546
267.66	51.376
268.03	50.000
268.40	49.766
268.77	49.403
269.14	50.225
269.51	51.016
269.88	50.350
270.25	50.790
270.62	48.539
270.99	49.892
271.36	50.215
271.73	50.234
272.10	49.130
272.47	52.473
272.84	49.784
273.21	49.476
273.58	46.507
273.95	47.589
274.32	46.901
274.69	47.752
275.06	46.850
275.43	49.574
275.80	48.096
276.17	49.898
276.54	51.143
276.91	48.221
277.28	46.875
277.65	46.615
278.02	49.275
278.39	48.633
278.76	46.364
279.13	46.792
279.50	46.182
279.87	48.207
280.23	49.301
280.60	46.422
280.97	46.950
281.34	46.903
281.71	44.364
282.08	48.177
282.45	44.909
282.82	45.648
283.19	43.672
283.56	45.439
283.92	47.547
284.29	44.974
284.66	43.920
285.03	47.197
285.40	45.599
285.77	44.276
286.14	44.387
286.51	44.333
286.87	44.444
287.24	46.417
287.61	42.697
287.98	43.182
288.35	40.412
288.72	41.745
289.08	39.280
289.45	39.703
289.82	43.740
290.19	38.462
290.56	41.041
290.93	39.426
291.29	41.871
291.66	41.888
292.03	43.605
292.40	39.794
292.77	39.497
293.13	39.254
293.50	40.233
293.87	38.074
294.24	37.037
294.60	37.555
294.97	37.936
295.34	37.941
295.71	37.358
296.08	37.179
296.44	35.901
296.81	35.931
297.18	38.347
297.55	35.092
297.91	34.697
298.28	36.145
298.65	33.551
299.02	37.813
299.38	35.857
299.75	33.693
300.12	34.100
300.48	33.750
300.85	34.155
301.22	33.758
301.59	33.081
301.95	34.005
302.32	35.173
302.69	33.572
303.05	34.303
303.42	33.951
303.79	33.409
304.15	31.352
304.52	31.402
304.89	31.010
305.25	32.947
305.62	32.390
305.99	32.940
306.35	33.110
306.72	33.296
307.09	32.408
307.45	32.658
307.82	31.138
308.19	33.444
308.55	32.147
308.92	32.331
309.29	29.673
309.65	31.495
310.02	31.290
310.38	31.290
310.75	30.412
311.12	32.037
311.48	30.408
311.85	32.285
312.22	30.593
312.58	31.081
312.95	32.946
313.31	30.680
313.68	32.536
314.05	32.742
314.41	32.764
314.78	31.219
315.14	32.572
315.51	31.205
315.87	31.782
316.24	31.877
316.61	32.164
316.97	31.311
317.34	32.583
317.70	34.704
318.07	34.167
318.43	35.323
318.80	35.052
319.16	35.499
319.53	34.709
319.89	35.810
320.26	35.500
320.62	36.706
320.99	37.576
321.35	37.980
321.72	38.706
322.08	39.289
322.45	40.597
322.81	42.054
323.18	43.256
323.54	42.393
323.91	43.774
324.27	44.933
324.64	45.480
325.00	44.725
325.37	46.679
325.73	47.127
326.10	47.308
326.46	47.760
326.83	49.957
327.19	50.811
327.56	52.439
327.92	53.018
328.29	52.351
328.65	54.880
329.01	55.776
329.38	56.522
329.74	57.248
330.11	58.624
330.47	59.596
330.84	59.559
331.20	59.745
331.56	57.798
331.93	60.741
332.29	58.917
332.66	60.442
333.02	61.792
333.38	62.602
333.75	62.745
334.11	63.345
334.48	63.975
334.84	64.154
335.20	65.273
335.57	63.191
335.93	64.107
336.29	64.652
336.66	66.005
337.02	65.249
337.38	66.111
337.75	66.132
338.11	67.771
338.47	66.851
338.84	67.828
339.20	66.697
339.56	67.701
339.93	67.818
340.29	68.297
340.65	69.162
341.02	67.714
341.38	69.306
341.74	69.298
342.11	68.646
342.47	70.044
342.83	68.750
343.20	70.216
343.56	69.419
343.92	72.193
344.28	70.408
344.65	71.539
345.01	70.791
345.37	71.955
345.73	71.827
346.10	71.270
346.46	72.966
346.82	70.593
347.19	71.512
347.55	71.018
347.91	71.683
348.27	72.062
348.63	74.080
349.00	72.006
349.36	73.153
349.72	72.013
350.08	71.718
350.45	73.230
350.81	73.842
351.17	72.934
351.53	74.283
351.89	73.185
352.26	74.191
352.62	75.621
352.98	75.365
353.34	76.417
353.70	75.450
354.07	75.161
354.43	74.286
354.79	74.497
355.15	74.860
355.51	76.419
355.87	75.918
356.24	76.792
356.60	75.301
356.96	78.600
357.32	78.332
357.68	78.031
358.04	76.326
358.40	79.414
358.77	78.482
359.13	78.848
359.49	77.882
359.85	79.286
360.21	79.825
360.57	78.911
360.93	77.846
361.29	78.307
361.66	79.180
362.02	79.627
362.38	81.521
362.74	79.167
363.10	79.127
363.46	78.577
363.82	79.894
364.18	78.414
364.54	80.312
364.90	80.028
365.26	82.794
365.62	82.177
365.98	80.278
366.35	79.656
366.71	81.056
367.07	81.719
367.43	81.567
367.79	82.370
368.15	83.261
368.51	80.596
368.87	82.084
369.23	82.809
369.59	83.056
369.95	81.838
370.31	81.197
370.67	81.449
371.03	82.322
371.39	83.090
371.75	83.603
372.11	82.361
372.47	83.724
372.83	84.870
373.19	82.803
373.55	85.366
373.91	85.125
374.27	80.619
374.63	82.836
374.99	81.427
375.35	83.531
375.71	82.934
376.07	83.128
376.42	85.282
376.78	82.240
377.14	82.904
377.50	84.901
377.86	83.710
378.22	84.766
378.58	82.644
378.94	83.092
379.30	83.779
379.66	84.708
380.02	83.231
380.38	82.271
380.74	84.154
381.09	83.313
381.45	83.651
381.81	83.845
382.17	83.376
382.53	84.843
382.89	82.901
383.25	84.365
383.61	84.325
383.97	81.926
384.32	82.969
384.68	82.838
385.04	84.696
385.40	81.981
385.76	83.661
386.12	84.326
386.48	83.197
386.83	85.183
387.19	84.292
387.55	83.117
387.91	82.588
388.27	82.955
388.62	84.020
388.98	81.880
389.34	82.728
389.70	84.365
390.06	84.918
390.42	82.879
390.77	81.807
391.13	82.897
391.49	82.805
391.85	81.413
392.20	81.830
392.56	82.955
392.92	83.225
393.28	81.124
393.64	82.554
393.99	81.368
394.35	83.127
394.71	81.995
395.07	81.121
395.42	82.262
395.78	81.997
396.14	80.695
396.50	83.396
396.85	83.026
397.21	80.210
397.57	81.277
397.92	80.829
398.28	79.709
398.64	81.661
399.00	81.421
399.35	79.752
399.71	80.729
400.07	80.308
400.42	80.061
400.78	80.579
401.14	80.732
401.49	80.478
401.85	81.125
402.21	79.222
402.57	80.938
402.92	80.139
403.28	78.638
403.63	79.332
403.99	80.382
404.35	78.970
404.70	77.398
405.06	79.150
405.42	79.601
405.77	78.286
406.13	77.935
406.49	78.001
406.84	77.614
407.20	77.364
407.55	77.601
407.91	78.400
408.27	78.685
408.62	76.400
408.98	76.532
409.34	77.306
409.69	76.710
410.05	76.580
410.40	76.147
410.76	76.464
411.11	74.487
411.47	75.527
411.83	74.710
412.18	75.387
412.54	76.775
412.89	74.639
413.25	75.030
413.60	74.985
413.96	73.163
414.31	76.002
414.67	75.729
415.03	75.497
415.38	75.515
415.74	74.662
416.09	77.662
416.45	75.033
416.80	74.422
417.16	75.804
417.51	75.050
417.87	73.282
418.22	74.322
418.58	72.950
418.93	73.342
419.29	74.602
419.64	72.670
420.00	72.195
420.35	73.333
420.71	73.162
421.06	72.315
421.42	72.222
421.77	73.262
422.12	71.252
422.48	71.722
422.83	72.918
423.19	70.608
423.54	73.709
423.90	72.406
424.25	71.413
424.61	71.667
424.96	73.061
425.31	70.764
425.67	69.270
426.02	70.457
426.38	73.260
426.73	71.036
427.09	72.097
427.44	70.730
427.79	71.420
428.15	69.583
428.50	71.445
428.85	70.262
429.21	70.790
429.56	69.414
429.92	69.149
430.27	69.265
430.62	67.896
430.98	69.901
431.33	69.742
431.68	70.157
432.04	68.850
432.39	70.303
432.74	70.856
433.10	70.855
433.45	69.038
433.80	69.124
434.16	68.376
434.51	68.789
434.86	69.612
435.22	68.260
435.57	69.970
435.92	70.334
436.28	70.047
436.63	69.260
436.98	68.403
437.34	71.020
437.69	70.070
438.04	69.758
438.39	69.612
438.75	69.436
439.10	69.218
439.45	69.303
439.81	68.520
440.16	68.097
440.51	69.420
440.86	68.442
441.22	68.298
441.57	67.994
441.92	68.833
442.27	68.407
442.63	68.510
442.98	68.789
443.33	66.739
443.68	67.837
444.03	67.204
444.39	66.991
444.74	67.587
445.09	67.547
445.44	67.687
445.79	66.452
446.15	65.961
446.50	67.690
446.85	67.420
447.20	67.772
447.55	67.783
447.91	67.733
448.26	68.002
448.61	66.309
448.96	68.106
449.31	67.492
449.66	67.304
450.02	66.574
450.37	66.440
450.72	66.385
451.07	64.778
451.42	66.079
451.77	66.647
452.12	66.282
452.47	65.236
452.83	66.667
453.18	65.465
453.53	66.729
453.88	67.513
454.23	65.690
454.58	66.081
454.93	67.641
455.28	65.835
455.63	65.959
455.98	66.786
456.34	65.641
456.69	67.877
457.04	66.997
457.39	66.043
457.74	64.655
458.09	64.922
458.44	64.937
458.79	63.178
459.14	65.011
459.49	64.857
459.84	64.044
460.19	65.056
460.54	61.979
460.89	63.906
461.24	64.117
461.59	65.485
461.94	63.872
462.29	64.332
462.64	62.859
462.99	63.826
463.34	64.133
463.69	63.790
464.04	63.652
464.39	63.304
464.74	62.389
465.09	62.123
465.44	61.330
465.79	61.969
466.14	61.303
466.49	61.958
466.84	63.164
467.19	63.005
467.54	62.500
467.89	61.044
468.24	62.129
468.59	63.248
468.94	60.171
469.29	63.882
469.64	63.655
469.99	63.667
470.34	64.267
470.68	63.218
471.03	61.361
471.38	63.238
471.73	63.025
472.08	63.487
472.43	61.746
472.78	62.607
473.13	61.040
473.48	62.172
473.83	62.317
474.17	60.299
474.52	61.352
474.87	60.187
475.22	60.998
475.57	59.968
475.92	59.426
476.27	60.034
476.61	60.121
476.96	59.703
477.31	60.858
477.66	60.449
478.01	59.435
478.36	59.757
478.70	59.450
479.05	60.756
479.40	59.877
479.75	60.752
480.10	59.145
480.45	60.067
480.79	59.771
481.14	58.953
481.49	59.279
481.84	58.802
482.19	60.064
482.53	58.440
482.88	58.353
483.23	60.000
483.58	59.600
483.92	59.185
484.27	56.819
484.62	58.233
484.97	56.760
485.31	57.158
485.66	54.326
486.01	53.906
486.36	52.610
486.70	54.575
487.05	54.623
487.40	55.720
487.75	56.134
488.09	57.476
488.44	57.438
488.79	58.553
489.13	58.900
489.48	58.157
489.83	58.394
490.17	58.308
490.52	56.643
490.87	57.576
491.22	57.435
491.56	56.446
491.91	56.352
492.26	56.775
492.60	56.636
492.95	56.688
493.30	56.495
493.64	56.230
493.99	55.339
494.34	57.077
494.68	55.907
495.03	57.096
495.37	54.723
495.72	57.310
496.07	55.452
496.41	54.735
496.76	55.321
497.11	55.831
497.45	56.171
497.80	56.190
498.14	56.184
498.49	56.976
498.84	56.136
499.18	55.667
499.53	55.935
499.87	55.172
500.22	55.346
500.56	56.262
500.91	54.615
501.26	55.334
501.60	56.478
501.95	54.904
502.29	56.045
502.64	54.376
502.98	54.324
503.33	54.113
503.67	55.267
504.02	54.771
504.36	54.328
504.71	55.105
505.06	55.518
505.40	55.177
505.75	54.147
506.09	54.082
506.44	55.895
506.78	54.847
507.13	55.729
507.47	55.253
507.82	54.306
508.16	55.876
508.51	55.251
508.85	54.518
509.19	55.357
509.54	55.306
509.88	54.972
510.23	54.807
510.57	56.244
510.92	55.619
511.26	55.036
511.61	54.927
511.95	54.280
512.30	54.136
512.64	55.508
512.98	54.984
513.33	55.835
513.67	55.229
514.02	54.275
514.36	55.270
514.70	56.447
515.05	55.047
515.39	55.468
515.74	55.011
516.08	56.233
516.42	56.215
516.77	56.020
517.11	54.218
517.46	54.345
517.80	56.388
518.14	54.372
518.49	54.784
518.83	55.511
519.17	54.908
519.52	54.782
519.86	56.018
520.20	56.243
520.55	56.373
520.89	55.414
521.23	55.911
521.58	55.522
521.92	56.216
522.26	55.278
522.61	57.009
522.95	55.556
523.29	56.360
523.64	56.768
523.98	57.055
524.32	56.876
524.66	55.502
525.01	56.005
525.35	55.452
525.69	55.542
526.04	54.704
526.38	55.949
526.72	55.644
527.06	55.869
527.41	53.342
527.75	55.884
528.09	55.556
528.43	55.131
528.78	55.255
529.12	54.545
529.46	55.787
529.80	55.631
530.15	54.642
530.49	53.477
530.83	55.570
531.17	55.157
531.51	56.939
531.86	54.839
532.20	55.737
532.54	55.029
532.88	55.456
533.22	54.466
533.57	54.321
533.91	55.449
534.25	54.313
534.59	55.766
534.93	53.242
535.27	53.832
535.62	53.846
535.96	56.372
536.30	54.927
536.64	55.312
536.98	56.669
537.32	53.390
537.66	55.400
538.01	55.563
538.35	54.234
538.69	54.499
539.03	53.606
539.37	53.227
539.71	52.819
540.05	54.510
540.39	53.488
540.73	54.204
541.07	54.250
541.42	54.599
541.76	54.903
542.10	55.045
542.44	54.238
542.78	55.336
543.12	53.167
543.46	53.902
543.80	54.782
544.14	52.696
544.48	53.270
544.82	52.919
545.16	54.717
545.50	51.992
545.84	53.898
546.18	54.141
546.52	54.921
546.86	54.089
547.20	54.552
547.54	53.707
547.88	53.125
548.22	52.179
548.56	52.642
548.90	52.497
549.24	54.343
549.58	53.274
549.92	52.679
550.26	54.403
550.60	52.697
550.94	53.310
551.28	52.890
551.62	55.068
551.96	52.772
552.30	53.515
552.64	52.671
552.98	52.271
553.32	53.068
553.66	52.829
554.00	53.809
554.34	52.588
554.68	55.079
555.02	53.032
555.36	54.071
555.69	52.977
556.03	52.624
556.37	53.274
556.71	51.842
557.05	52.381
557.39	53.184
557.73	52.717
558.07	53.227
558.41	53.184
558.75	53.857
559.08	52.573
559.42	54.649
559.76	52.941
560.10	51.606
560.44	51.992
560.78	51.297
561.12	50.923
561.45	52.477
561.79	50.758
562.13	52.381
562.47	52.664
562.81	53.068
563.15	52.441
563.48	52.586
563.82	52.316
564.16	52.060
564.50	50.911
564.84	50.379
565.17	51.931
565.51	52.013
565.85	51.459
566.19	50.720
566.52	52.375
566.86	50.211
567.20	50.236
567.54	50.856
567.88	50.190
568.21	51.270
568.55	50.101
568.89	49.076
569.23	48.307
569.56	47.530
569.90	47.170
570.24	48.009
570.57	47.807
570.91	45.992
571.25	46.973
571.59	46.598
571.92	46.515
572.26	47.256
572.60	47.267
572.93	46.897
573.27	47.382
573.61	47.571
573.95	46.899
574.28	46.080
574.62	46.574
574.96	45.591
575.29	46.387
575.63	46.443
575.97	46.394
576.30	47.265
576.64	46.424
576.98	46.135
577.31	45.448
577.65	45.537
577.98	45.718
578.32	45.413
578.66	45.388
578.99	46.473
579.33	46.115
579.67	45.366
580.00	45.912
580.34	46.037
580.67	46.608
581.01	46.211
581.35	44.774
581.68	44.988
582.02	44.709
582.35	45.172
582.69	45.348
583.02	46.014
583.36	47.060
583.70	46.753
584.03	46.813
584.37	46.324
584.70	46.630
585.04	45.377
585.37	45.154
585.71	45.465
586.04	45.301
586.38	46.317
586.72	46.258
587.05	45.640
587.39	45.594
587.72	46.380
588.06	46.318
588.39	45.871
588.73	46.700
589.06	46.931
589.40	47.003
589.73	46.533
590.07	46.619
590.40	46.072
590.73	47.892
591.07	47.619
591.40	48.292
591.74	48.398
592.07	46.946
592.41	45.473
592.74	45.805
593.08	44.737
593.41	45.049
593.75	44.441
594.08	45.558
594.41	44.998
594.75	46.691
595.08	45.956
595.42	46.515
595.75	46.368
596.09	47.315
596.42	46.483
596.75	47.657
597.09	46.883
597.42	45.995
597.75	46.787
598.09	46.783
598.42	46.005
598.76	46.129
599.09	44.698
599.42	44.651
599.76	45.827
600.09	44.918
600.42	44.960
600.76	44.464
601.09	45.392
601.42	46.005
601.76	45.009
602.09	45.968
602.42	45.860
602.76	46.393
603.09	45.437
603.42	45.490
603.76	45.046
604.09	45.289
604.42	45.821
604.76	46.099
605.09	45.828
605.42	44.463
605.75	45.364
606.09	45.710
606.42	44.912
606.75	46.288
607.09	45.207
607.42	45.486
607.75	45.105
608.08	45.202
608.42	46.078
608.75	45.176
609.08	45.097
609.41	45.550
609.75	45.545
610.08	45.994
610.41	46.229
610.74	45.364
611.07	46.196
611.41	46.124
611.74	45.752
612.07	46.687
612.40	46.800
612.73	46.158
613.07	46.121
613.40	46.340
613.73	44.835
614.06	46.129
614.39	45.726
614.72	46.105
615.06	46.113
615.39	45.488
615.72	45.092
616.05	45.455
616.38	46.359
616.71	47.209
617.05	46.231
617.38	46.422
617.71	47.267
618.04	46.094
618.37	45.890
618.70	46.049
619.03	46.447
619.36	46.911
619.69	46.901
620.03	48.420
620.36	45.388
620.69	47.603
621.02	47.861
621.35	48.395
621.68	46.495
622.01	46.517
622.34	46.218
622.67	48.061
623.00	45.708
623.33	46.104
623.66	45.390
623.99	46.024
624.32	45.506
624.65	45.833
624.99	45.467
625.32	45.764
625.65	46.431
625.98	48.501
626.31	47.823
626.64	47.592
626.97	48.628
627.30	47.880
627.63	47.580
627.96	47.855
628.29	47.944
628.62	47.941
628.95	48.962
629.28	47.536
629.61	47.021
629.94	47.905
630.26	46.806
630.59	47.092
630.92	46.839
