SpectraSuite Data File
++++++++++++++++++++++++++++++++++++
Date: Wed May 13 20:29:06 PDT 2015
User: schluterlab
Dark Spectrum Present: Yes
Reference Spectrum Present: Yes
Number of Sampled Component Spectra: 1
Spectrometers: USB2E3373
Integration Time (usec): 3000 (USB2E3373)
Spectra Averaged: 3 (USB2E3373)
Boxcar Smoothing: 0 (USB2E3373)
Correct for Electrical Dark: No (USB2E3373)
Strobe/Lamp Enabled: No (USB2E3373)
Correct for Detector Non-linearity: No (USB2E3373)
Correct for Stray Light: No (USB2E3373)
Number of Pixels in Processed Spectrum: 2048
>>>>>Begin Processed Spectral Data<<<<<
178.53	0.000
178.91	-1025.000
179.29	-1150.000
179.67	-177.778
180.04	-975.000
180.42	2500.000
180.80	860.000
181.18	-575.000
181.56	642.857
181.94	0.000
182.31	-500.000
182.69	1333.333
183.07	-400.000
183.45	-377.778
183.83	500.000
184.20	-330.000
184.58	1850.000
184.96	4300.000
185.34	-760.000
185.72	-487.500
186.09	-1400.000
186.47	2100.000
186.85	1950.000
187.23	4500.000
187.61	-1533.333
187.98	1325.000
188.36	490.909
188.74	454.545
189.12	-700.000
189.49	490.000
189.87	-4200.000
190.25	-950.000
190.63	328.571
191.00	300.000
191.38	600.000
191.76	-925.000
192.14	1225.000
192.51	600.000
192.89	866.667
193.27	450.000
193.65	-900.000
194.02	540.000
194.40	640.000
194.78	510.000
195.15	441.667
195.53	500.000
195.91	-1650.000
196.29	350.000
196.66	331.579
197.04	-310.000
197.42	0.000
197.79	580.000
198.17	-3900.000
198.55	600.000
198.92	562.500
199.30	920.000
199.68	0.000
200.05	283.333
200.43	600.000
200.81	3000.000
201.18	1233.333
201.56	-1300.000
201.94	500.000
202.31	511.111
202.69	383.333
203.07	350.000
203.44	0.000
203.82	900.000
204.19	714.286
204.57	378.571
204.95	462.500
205.32	1066.667
205.70	472.727
206.08	264.286
206.45	2150.000
206.83	312.500
207.20	700.000
207.58	720.000
207.96	261.111
208.33	687.500
208.71	-483.333
209.08	671.429
209.46	422.222
209.84	327.273
210.21	-1233.333
210.59	950.000
210.96	-375.000
211.34	2200.000
211.71	450.000
212.09	650.000
212.46	0.000
212.84	1466.667
213.22	1250.000
213.59	-3100.000
213.97	600.000
214.34	742.857
214.72	490.909
215.09	880.000
215.47	-1800.000
215.84	-2500.000
216.22	1266.667
216.59	335.714
216.97	850.000
217.34	418.182
217.72	-466.667
218.09	0.000
218.47	-4700.000
218.84	555.556
219.22	600.000
219.59	1366.667
219.97	-557.143
220.34	800.000
220.72	-1633.333
221.09	314.286
221.47	1175.000
221.84	-800.000
222.22	0.000
222.59	1200.000
222.97	-2650.000
223.34	900.000
223.72	338.462
224.09	860.000
224.46	1800.000
224.84	-5000.000
225.21	-920.000
225.59	-3000.000
225.96	480.000
226.34	245.000
226.71	2100.000
227.08	625.000
227.46	540.000
227.83	-925.000
228.21	-1850.000
228.58	444.444
228.95	-2200.000
229.33	-1900.000
229.70	1433.333
230.08	728.571
230.45	-860.000
230.82	350.000
231.20	666.667
231.57	614.286
231.95	391.667
232.32	163.636
232.69	354.545
233.07	628.571
233.44	292.308
233.81	-1533.333
234.19	310.526
234.56	450.000
234.93	291.667
235.31	418.182
235.68	215.385
236.05	321.429
236.43	184.848
236.80	210.526
237.17	3800.000
237.55	219.048
237.92	196.429
238.29	223.810
238.67	154.839
239.04	186.207
239.41	127.778
239.79	108.696
240.16	138.095
240.53	111.364
240.91	111.765
241.28	102.000
241.65	98.000
242.02	104.348
242.40	82.258
242.77	95.000
243.14	75.269
243.51	82.022
243.89	76.471
244.26	70.000
244.63	64.516
245.00	60.638
245.38	72.277
245.75	67.290
246.12	66.055
246.49	67.883
246.87	57.600
247.24	58.462
247.61	52.857
247.98	56.209
248.36	50.676
248.73	56.688
249.10	64.331
249.47	51.977
249.84	53.476
250.22	52.406
250.59	53.254
250.96	56.566
251.33	59.242
251.70	55.941
252.08	47.143
252.45	48.430
252.82	49.565
253.19	48.511
253.56	49.020
253.94	51.037
254.31	45.703
254.68	45.769
255.05	45.018
255.42	45.528
255.79	45.588
256.16	48.014
256.54	42.049
256.91	43.772
257.28	43.165
257.65	43.894
258.02	41.615
258.39	40.694
258.76	42.140
259.14	44.345
259.51	39.210
259.88	38.509
260.25	41.390
260.62	38.728
260.99	44.720
261.36	42.342
261.73	38.395
262.10	39.535
262.47	41.690
262.85	42.340
263.22	38.177
263.59	41.595
263.96	42.033
264.33	38.903
264.70	39.474
265.07	40.921
265.44	41.162
265.81	37.226
266.18	40.704
266.55	37.805
266.92	42.260
267.29	39.352
267.66	40.138
268.03	37.500
268.40	39.019
268.77	35.084
269.14	36.712
269.51	39.503
269.88	42.424
270.25	38.375
270.62	37.978
270.99	41.720
271.36	37.124
271.73	40.888
272.10	38.043
272.47	38.710
272.84	38.528
273.21	35.849
273.58	37.118
273.95	36.478
274.32	37.397
274.69	39.615
275.06	36.024
275.43	38.085
275.80	37.475
276.17	36.456
276.54	35.135
276.91	37.549
277.28	32.422
277.65	37.911
278.02	38.509
278.39	39.258
278.76	35.091
279.13	36.038
279.50	34.264
279.87	35.657
280.23	36.527
280.60	37.524
280.97	35.675
281.34	36.991
281.71	35.273
282.08	37.044
282.45	35.818
282.82	36.590
283.19	34.759
283.56	34.737
283.92	37.225
284.29	35.626
284.66	35.209
285.03	35.443
285.40	33.803
285.77	34.512
286.14	32.642
286.51	33.667
286.87	36.410
287.24	36.482
287.61	34.350
287.98	35.065
288.35	33.281
288.72	31.931
289.08	31.299
289.45	32.455
289.82	33.984
290.19	30.455
290.56	32.006
290.93	31.269
291.29	31.595
291.66	30.383
292.03	33.140
292.40	33.480
292.77	29.438
293.13	30.597
293.50	30.904
293.87	29.037
294.24	29.778
294.60	29.694
294.97	28.198
295.34	29.055
295.71	30.398
296.08	28.632
296.44	27.235
296.81	27.873
297.18	30.217
297.55	25.330
297.91	27.441
298.28	27.577
298.65	27.285
299.02	25.955
299.38	26.428
299.75	26.280
300.12	26.054
300.48	27.625
300.85	25.894
301.22	28.025
301.59	24.242
301.95	27.330
302.32	28.241
302.69	27.240
303.05	26.303
303.42	26.049
303.79	24.689
304.15	25.291
304.52	23.986
304.89	23.693
305.25	24.362
305.62	26.048
305.99	25.384
306.35	24.273
306.72	27.130
307.09	25.194
307.45	27.477
307.82	23.996
308.19	26.380
308.55	25.782
308.92	25.027
309.29	22.809
309.65	24.920
310.02	24.524
310.38	24.731
310.75	25.449
311.12	23.849
311.48	24.765
311.85	25.262
312.22	25.182
312.58	23.805
312.95	23.759
313.31	23.495
313.68	24.116
314.05	25.937
314.41	24.724
314.78	24.572
315.14	24.131
315.51	26.262
315.87	23.861
316.24	25.223
316.61	23.977
316.97	23.875
317.34	24.266
317.70	25.430
318.07	24.158
318.43	24.658
318.80	24.555
319.16	25.424
319.53	23.734
319.89	25.524
320.26	25.300
320.62	25.694
320.99	25.253
321.35	26.465
321.72	26.899
322.08	26.752
322.45	28.458
322.81	26.744
323.18	27.746
323.54	26.994
323.91	26.132
324.27	29.063
324.64	26.747
325.00	26.961
325.37	28.662
325.73	28.456
326.10	27.714
326.46	27.330
326.83	29.163
327.19	28.096
327.56	30.226
327.92	29.834
328.29	30.435
328.65	29.926
329.01	29.242
329.38	31.175
329.74	30.194
330.11	31.197
330.47	31.221
330.84	32.077
331.20	31.239
331.56	32.110
331.93	32.130
332.29	30.701
332.66	31.150
333.02	32.998
333.38	32.611
333.75	32.353
334.11	31.673
334.48	31.145
334.84	33.364
335.20	32.091
335.57	31.550
335.93	31.339
336.29	31.136
336.66	31.019
337.02	31.131
337.38	30.648
337.75	31.283
338.11	32.408
338.47	32.689
338.84	32.997
339.20	31.743
339.56	32.755
339.93	31.909
340.29	31.431
340.65	31.551
341.02	31.763
341.38	32.829
341.74	31.842
342.11	31.441
342.47	32.247
342.83	32.449
343.20	33.074
343.56	32.350
343.92	30.789
344.28	31.803
344.65	31.728
345.01	32.323
345.37	31.132
345.73	32.318
346.10	32.566
346.46	32.034
346.82	30.890
347.19	31.662
347.55	31.117
347.91	31.634
348.27	32.703
348.63	32.441
349.00	31.068
349.36	31.445
349.72	31.115
350.08	30.713
350.45	31.896
350.81	31.357
351.17	31.605
351.53	31.695
351.89	30.446
352.26	32.044
352.62	32.077
352.98	30.551
353.34	31.471
353.70	29.624
354.07	30.806
354.43	30.317
354.79	30.973
355.15	32.003
355.51	31.815
355.87	31.265
356.24	31.922
356.60	30.634
356.96	32.180
357.32	31.316
357.68	31.024
358.04	31.116
358.40	30.641
358.77	31.925
359.13	30.624
359.49	31.059
359.85	31.190
360.21	30.941
360.57	31.440
360.93	32.154
361.29	31.141
361.66	31.347
362.02	31.866
362.38	31.635
362.74	31.399
363.10	31.236
363.46	30.888
363.82	31.670
364.18	31.645
364.54	33.135
364.90	31.161
365.26	31.544
365.62	31.337
365.98	31.848
366.35	30.731
366.71	31.020
367.07	32.119
367.43	32.075
367.79	32.263
368.15	32.543
368.51	32.049
368.87	32.405
369.23	31.529
369.59	32.223
369.95	31.103
370.31	31.695
370.67	31.667
371.03	32.884
371.39	33.017
371.75	31.029
372.11	31.010
372.47	33.065
372.83	31.988
373.19	30.853
373.55	32.594
373.91	32.622
374.27	30.928
374.63	31.564
374.99	31.427
375.35	32.310
375.71	32.351
376.07	33.128
376.42	32.393
376.78	32.273
377.14	32.497
377.50	32.715
377.86	32.247
378.22	32.111
378.58	31.704
378.94	31.804
379.30	32.252
379.66	33.629
380.02	32.801
380.38	32.969
380.74	32.233
381.09	33.557
381.45	32.883
381.81	32.678
382.17	32.739
382.53	31.761
382.89	33.765
383.25	32.583
383.61	34.325
383.97	33.396
384.32	33.437
384.68	33.767
385.04	33.374
385.40	33.622
385.76	33.784
386.12	34.003
386.48	34.487
386.83	34.381
387.19	34.941
387.55	34.261
387.91	33.918
388.27	33.538
388.62	34.665
388.98	33.968
389.34	35.232
389.70	34.580
390.06	35.741
390.42	34.371
390.77	35.433
391.13	35.099
391.49	35.025
391.85	35.010
392.20	34.069
392.56	35.417
392.92	35.845
393.28	34.615
393.64	35.312
393.99	35.247
394.35	34.801
394.71	35.320
395.07	35.452
395.42	35.785
395.78	36.069
396.14	35.816
396.50	35.840
396.85	35.791
397.21	36.190
397.57	35.834
397.92	36.839
398.28	35.874
398.64	36.499
399.00	36.262
399.35	36.041
399.71	36.400
400.07	36.251
400.42	35.951
400.78	37.093
401.14	36.829
401.49	37.433
401.85	36.056
402.21	36.707
402.57	37.138
402.92	37.390
403.28	38.413
403.63	36.757
403.99	38.280
404.35	37.515
404.70	37.110
405.06	36.692
405.42	38.054
405.77	37.257
406.13	37.415
406.49	37.966
406.84	39.220
407.20	37.589
407.55	38.609
407.91	38.400
408.27	37.779
408.62	39.615
408.98	38.235
409.34	38.499
409.69	39.677
410.05	38.910
410.40	38.960
410.76	38.889
411.11	38.782
411.47	38.978
411.83	38.729
412.18	38.714
412.54	39.601
412.89	38.976
413.25	38.666
413.60	39.839
413.96	38.312
414.31	39.186
414.67	39.924
415.03	39.338
415.38	40.077
415.74	40.579
416.09	40.692
416.45	40.094
416.80	40.317
417.16	40.751
417.51	40.013
417.87	39.306
418.22	41.388
418.58	40.801
418.93	40.909
419.29	39.847
419.64	41.058
420.00	39.451
420.35	40.580
420.71	41.184
421.06	41.110
421.42	40.936
421.77	41.200
422.12	40.202
422.48	39.504
422.83	40.944
423.19	40.497
423.54	42.194
423.90	40.754
424.25	41.318
424.61	41.190
424.96	41.108
425.31	40.975
425.67	40.843
426.02	40.000
426.38	43.040
426.73	41.077
427.09	41.459
427.44	41.001
427.79	41.518
428.15	42.381
428.50	41.252
428.85	42.253
429.21	40.696
429.56	40.902
429.92	40.916
430.27	40.765
430.62	40.758
430.98	41.412
431.33	41.289
431.68	41.937
432.04	41.427
432.39	43.175
432.74	41.951
433.10	42.332
433.45	42.274
433.80	42.794
434.16	42.735
434.51	41.737
434.86	42.702
435.22	42.857
435.57	42.553
435.92	42.949
436.28	43.594
436.63	42.826
436.98	41.900
437.34	42.874
437.69	43.932
438.04	42.271
438.39	43.284
438.75	43.056
439.10	42.905
439.45	42.975
439.81	43.323
440.16	42.462
440.51	42.707
440.86	43.080
441.22	42.659
441.57	42.781
441.92	42.938
442.27	42.573
442.63	41.811
442.98	44.338
443.33	43.533
443.68	41.869
444.03	42.899
444.39	43.087
444.74	43.398
445.09	42.857
445.44	42.865
445.79	43.394
446.15	42.668
446.50	42.488
446.85	42.806
447.20	43.651
447.55	43.551
447.91	43.464
448.26	42.738
448.61	43.414
448.96	43.023
449.31	44.263
449.66	43.219
450.02	42.451
450.37	45.295
450.72	43.768
451.07	42.535
451.42	41.884
451.77	44.627
452.12	43.245
452.47	43.408
452.83	44.522
453.18	42.726
453.53	44.403
453.88	44.123
454.23	43.993
454.58	44.700
454.93	45.709
455.28	42.020
455.63	43.143
455.98	44.940
456.34	44.598
456.69	45.398
457.04	43.344
457.39	43.834
457.74	43.645
458.09	44.221
458.44	43.672
458.79	42.462
459.14	44.582
459.49	43.549
459.84	43.934
460.19	43.312
460.54	43.056
460.89	44.542
461.24	44.444
461.59	44.218
461.94	43.342
462.29	44.332
462.64	42.948
462.99	42.485
463.34	44.267
463.69	43.152
464.04	43.304
464.39	43.246
464.74	43.850
465.09	43.305
465.44	42.825
465.79	43.065
466.14	43.678
466.49	42.436
466.84	44.892
467.19	43.090
467.54	42.687
467.89	43.517
468.24	43.688
468.59	43.284
468.94	43.555
469.29	42.995
469.64	44.244
469.99	44.181
470.34	43.923
470.68	43.894
471.03	43.265
471.38	44.892
471.73	45.303
472.08	45.263
472.43	43.530
472.78	42.791
473.13	43.774
473.48	42.385
473.83	43.537
474.17	42.999
474.52	44.417
474.87	43.841
475.22	45.038
475.57	43.095
475.92	43.176
476.27	43.123
476.61	43.078
476.96	42.056
477.31	42.491
477.66	43.381
478.01	42.603
478.36	43.998
478.70	42.627
479.05	43.504
479.40	42.835
479.75	43.111
480.10	43.787
480.45	42.980
480.79	42.045
481.14	42.759
481.49	42.667
481.84	42.753
482.19	44.025
482.53	42.936
482.88	42.950
483.23	42.103
483.58	42.311
483.92	43.580
484.27	40.915
484.62	42.500
484.97	41.309
485.31	42.295
485.66	40.118
486.01	39.849
486.36	39.236
486.70	39.495
487.05	40.347
487.40	41.292
487.75	40.991
488.09	41.705
488.44	41.294
488.79	42.242
489.13	41.406
489.48	41.395
489.83	42.210
490.17	42.394
490.52	41.763
490.87	42.515
491.22	42.474
491.56	41.139
491.91	43.043
492.26	41.801
492.60	41.982
492.95	41.487
493.30	41.963
493.64	42.790
493.99	41.504
494.34	42.276
494.68	41.896
495.03	41.823
495.37	41.926
495.72	42.495
496.07	41.624
496.41	40.841
496.76	41.865
497.11	40.928
497.45	41.966
497.80	41.603
498.14	41.643
498.49	42.878
498.84	42.761
499.18	42.476
499.53	41.975
499.87	41.612
500.22	41.404
500.56	42.282
500.91	41.058
501.26	42.153
501.60	42.715
501.95	41.842
502.29	42.737
502.64	41.946
502.98	41.702
503.33	41.682
503.67	42.088
504.02	41.020
504.36	42.162
504.71	42.062
505.06	41.157
505.40	42.878
505.75	41.707
506.09	41.545
506.44	42.033
506.78	42.426
507.13	43.009
507.47	42.020
507.82	43.262
508.16	43.161
508.51	43.125
508.85	41.658
509.19	41.990
509.54	41.684
509.88	42.865
510.23	43.136
510.57	42.724
510.92	42.724
511.26	42.497
511.61	42.739
511.95	41.649
512.30	41.251
512.64	42.719
512.98	43.140
513.33	42.934
513.67	42.689
514.02	41.937
514.36	43.528
514.70	43.608
515.05	42.387
515.39	42.681
515.74	43.300
516.08	42.538
516.42	42.841
516.77	44.036
517.11	42.342
517.46	43.849
517.80	43.612
518.14	42.617
518.49	43.874
518.83	43.750
519.17	43.649
519.52	43.690
519.86	44.267
520.20	44.451
520.55	44.105
520.89	43.735
521.23	44.150
521.58	43.517
521.92	43.356
522.26	42.587
522.61	44.174
522.95	42.971
523.29	43.396
523.64	44.390
523.98	44.547
524.32	43.124
524.66	43.776
525.01	43.689
525.35	43.680
525.69	42.919
526.04	43.489
526.38	43.258
526.72	43.006
527.06	43.942
527.41	41.522
527.75	43.408
528.09	43.674
528.43	44.296
528.78	43.085
529.12	43.576
529.46	44.887
529.80	43.379
530.15	44.174
530.49	42.892
530.83	42.532
531.17	44.843
531.51	44.293
531.86	43.806
532.20	44.198
532.54	44.779
532.88	42.811
533.22	43.036
533.57	42.963
533.91	42.264
534.25	42.710
534.59	43.014
534.93	43.248
535.27	42.667
535.62	44.139
535.96	43.503
536.30	43.738
536.64	43.142
536.98	43.995
537.32	41.870
537.66	43.533
538.01	43.120
538.35	43.504
538.69	45.501
539.03	41.845
539.37	41.214
539.71	41.283
540.05	43.856
540.39	43.256
540.73	42.109
541.07	44.062
541.42	44.097
541.76	43.226
542.10	43.208
542.44	43.907
542.78	44.005
543.12	42.163
543.46	42.623
543.80	42.811
544.14	40.693
544.48	42.476
544.82	42.912
545.16	42.550
545.50	41.645
545.84	41.801
546.18	41.616
546.52	41.913
546.86	41.443
547.20	43.425
547.54	43.487
547.88	42.347
548.22	41.719
548.56	41.509
548.90	41.997
549.24	41.010
549.58	41.814
549.92	41.690
550.26	43.253
550.60	42.047
550.94	43.239
551.28	41.770
551.62	42.487
551.96	41.544
552.30	41.911
552.64	42.394
552.98	42.034
553.32	42.009
553.66	41.854
554.00	41.592
554.34	41.684
554.68	42.060
555.02	41.890
555.36	40.988
555.69	41.610
556.03	41.925
556.37	42.633
556.71	41.542
557.05	41.106
557.39	41.428
557.73	41.426
558.07	42.059
558.41	41.027
558.75	41.587
559.08	42.431
559.42	40.287
559.76	41.324
560.10	41.542
560.44	40.881
560.78	40.585
561.12	40.633
561.45	41.330
561.79	40.738
562.13	41.113
562.47	41.189
562.81	40.865
563.15	40.268
563.48	40.252
563.82	39.530
564.16	41.007
564.50	40.365
564.84	39.886
565.17	39.768
565.51	40.064
565.85	39.530
566.19	39.386
566.52	40.722
566.86	40.145
567.20	39.858
567.54	39.840
567.88	37.697
568.21	38.571
568.55	38.018
568.89	38.667
569.23	37.522
569.56	37.773
569.90	37.509
570.24	37.567
570.57	36.518
570.91	36.328
571.25	36.411
571.59	36.024
571.92	35.887
572.26	36.568
572.60	37.117
572.93	35.982
573.27	36.054
573.61	36.013
573.95	35.530
574.28	35.352
574.62	34.864
574.96	34.600
575.29	35.500
575.63	34.985
575.97	35.329
576.30	35.210
576.64	35.355
576.98	35.270
577.31	35.444
577.65	34.701
577.98	34.922
578.32	34.432
578.66	34.633
578.99	35.175
579.33	34.544
579.67	34.882
580.00	34.716
580.34	34.670
580.67	35.216
581.01	34.540
581.35	34.567
581.68	34.220
582.02	33.916
582.35	34.412
582.69	34.868
583.02	34.924
583.36	34.817
583.70	35.215
584.03	35.475
584.37	34.941
584.70	35.110
585.04	34.540
585.37	34.390
585.71	34.422
586.04	34.839
586.38	35.658
586.72	35.460
587.05	34.393
587.39	34.222
587.72	34.759
588.06	34.418
588.39	35.583
588.73	34.908
589.06	36.055
589.40	35.118
589.73	35.164
590.07	34.840
590.40	35.221
590.73	36.183
591.07	36.508
591.40	35.302
591.74	35.714
592.07	35.689
592.41	35.428
592.74	35.019
593.08	34.843
593.41	34.641
593.75	33.635
594.08	34.361
594.41	34.995
594.75	34.677
595.08	34.538
595.42	35.131
595.75	35.328
596.09	35.261
596.42	35.678
596.75	35.247
597.09	35.758
597.42	34.570
597.75	35.015
598.09	35.000
598.42	35.481
598.76	34.212
599.09	33.713
599.42	34.170
599.76	34.553
600.09	34.426
600.42	34.186
600.76	34.143
601.09	33.698
601.42	34.361
601.76	33.966
602.09	34.348
602.42	34.713
602.76	34.825
603.09	34.461
603.42	34.791
603.76	33.994
604.09	34.238
604.42	34.651
604.76	34.753
605.09	34.819
605.42	33.989
605.75	34.065
606.09	33.672
606.42	34.491
606.75	34.218
607.09	34.366
607.42	33.932
607.75	33.713
608.08	33.999
608.42	34.514
608.75	34.671
609.08	34.043
609.41	34.317
609.75	34.969
610.08	35.203
610.41	35.009
610.74	34.484
611.07	36.117
611.41	35.034
611.74	35.244
612.07	34.213
612.40	34.523
612.73	34.105
613.07	35.022
613.40	34.071
613.73	34.452
614.06	34.194
614.39	34.452
614.72	34.474
615.06	33.876
615.39	33.917
615.72	33.231
616.05	33.865
616.38	34.686
616.71	35.629
617.05	35.866
617.38	34.456
617.71	35.075
618.04	34.315
618.37	34.654
618.70	34.848
619.03	36.184
619.36	35.574
619.69	34.577
620.03	34.684
620.36	35.762
620.69	35.685
621.02	35.619
621.35	36.413
621.68	35.436
622.01	36.146
622.34	35.174
622.67	35.894
623.00	34.996
623.33	35.740
623.66	36.312
623.99	35.346
624.32	35.592
624.65	35.381
624.99	35.127
625.32	34.251
625.65	35.838
625.98	36.895
626.31	35.925
626.64	35.918
626.97	35.079
627.30	34.830
627.63	35.603
627.96	36.585
628.29	37.095
628.62	36.322
628.95	38.585
629.28	37.135
629.61	36.389
629.94	37.810
630.26	36.320
630.59	36.988
630.92	36.782
631.25	36.032
