SpectraSuite Data File
++++++++++++++++++++++++++++++++++++
Date: Wed May 13 20:35:33 PDT 2015
User: schluterlab
Dark Spectrum Present: Yes
Reference Spectrum Present: Yes
Number of Sampled Component Spectra: 1
Spectrometers: USB2E3373
Integration Time (usec): 3000 (USB2E3373)
Spectra Averaged: 3 (USB2E3373)
Boxcar Smoothing: 0 (USB2E3373)
Correct for Electrical Dark: No (USB2E3373)
Strobe/Lamp Enabled: No (USB2E3373)
Correct for Detector Non-linearity: No (USB2E3373)
Correct for Stray Light: No (USB2E3373)
Number of Pixels in Processed Spectrum: 2048
>>>>>Begin Processed Spectral Data<<<<<
178.53	0.000
178.91	-950.000
179.29	-900.000
179.67	-188.889
180.04	-1025.000
180.42	1800.000
180.80	540.000
181.18	-750.000
181.56	442.857
181.94	0.000
182.31	-442.857
182.69	1300.000
183.07	-375.000
183.45	-388.889
183.83	372.727
184.20	-270.000
184.58	1400.000
184.96	4100.000
185.34	-420.000
185.72	-412.500
186.09	-1450.000
186.47	2150.000
186.85	2300.000
187.23	3000.000
187.61	-1133.333
187.98	1125.000
188.36	409.091
188.74	400.000
189.12	-700.000
189.49	520.000
189.87	-3300.000
190.25	-650.000
190.63	250.000
191.00	369.231
191.38	700.000
191.76	-725.000
192.14	1000.000
192.51	487.500
192.89	783.333
193.27	312.500
193.65	-725.000
194.02	360.000
194.40	500.000
194.78	370.000
195.15	400.000
195.53	570.000
195.91	-1500.000
196.29	212.500
196.66	247.368
197.04	-190.000
197.42	0.000
197.79	490.000
198.17	-2900.000
198.55	528.571
198.92	450.000
199.30	580.000
199.68	0.000
200.05	205.556
200.43	471.429
200.81	3400.000
201.18	1533.333
201.56	-966.667
201.94	466.667
202.31	477.778
202.69	300.000
203.07	410.000
203.44	0.000
203.82	775.000
204.19	542.857
204.57	271.429
204.95	325.000
205.32	1266.667
205.70	400.000
206.08	307.143
206.45	2050.000
206.83	300.000
207.20	683.333
207.58	460.000
207.96	194.444
208.33	450.000
208.71	-600.000
209.08	614.286
209.46	388.889
209.84	354.545
210.21	-1066.667
210.59	925.000
210.96	-275.000
211.34	1800.000
211.71	500.000
212.09	516.667
212.46	0.000
212.84	1233.333
213.22	925.000
213.59	-2700.000
213.97	550.000
214.34	614.286
214.72	490.909
215.09	720.000
215.47	-1950.000
215.84	-1450.000
216.22	1133.333
216.59	271.429
216.97	1175.000
217.34	363.636
217.72	-516.667
218.09	0.000
218.47	-3600.000
218.84	444.444
219.22	442.857
219.59	1066.667
219.97	-357.143
220.34	720.000
220.72	-1100.000
221.09	328.571
221.47	1225.000
221.84	-666.667
222.22	0.000
222.59	1150.000
222.97	-1850.000
223.34	860.000
223.72	307.692
224.09	720.000
224.46	1550.000
224.84	-3500.000
225.21	-580.000
225.59	-3200.000
225.96	520.000
226.34	255.000
226.71	2050.000
227.08	350.000
227.46	350.000
227.83	-650.000
228.21	-1400.000
228.58	400.000
228.95	-1750.000
229.33	-1950.000
229.70	1400.000
230.08	442.857
230.45	-700.000
230.82	391.667
231.20	566.667
231.57	542.857
231.95	333.333
232.32	172.727
232.69	290.909
233.07	485.714
233.44	323.077
233.81	-1000.000
234.19	184.211
234.56	400.000
234.93	275.000
235.31	300.000
235.68	184.615
236.05	228.571
236.43	106.061
236.80	152.632
237.17	4200.000
237.55	190.476
237.92	157.143
238.29	128.571
238.67	151.613
239.04	179.310
239.41	113.889
239.79	89.130
240.16	90.476
240.53	104.545
240.91	88.235
241.28	86.000
241.65	84.000
242.02	72.464
242.40	69.355
242.77	60.000
243.14	59.140
243.51	65.169
243.89	63.529
244.26	48.889
244.63	55.914
245.00	41.489
245.38	45.545
245.75	41.121
246.12	47.706
246.49	52.555
246.87	59.200
247.24	51.538
247.61	40.714
247.98	43.137
248.36	37.838
248.73	41.401
249.10	41.401
249.47	41.808
249.84	35.294
250.22	38.503
250.59	40.237
250.96	37.879
251.33	32.701
251.70	46.535
252.08	41.905
252.45	32.735
252.82	35.217
253.19	34.468
253.56	30.588
253.94	32.780
254.31	30.859
254.68	36.154
255.05	35.055
255.42	30.488
255.79	36.029
256.16	38.267
256.54	31.802
256.91	35.587
257.28	26.619
257.65	31.023
258.02	33.230
258.39	29.653
258.76	34.114
259.14	28.571
259.51	27.964
259.88	29.814
260.25	27.492
260.62	30.347
260.99	31.056
261.36	30.330
261.73	28.367
262.10	31.977
262.47	24.789
262.85	28.134
263.22	24.786
263.59	32.479
263.96	27.473
264.33	25.065
264.70	25.789
265.07	30.691
265.44	27.525
265.81	24.818
266.18	29.397
266.55	25.366
266.92	28.747
267.29	25.926
267.66	25.459
268.03	27.273
268.40	26.402
268.77	24.821
269.14	26.802
269.51	25.734
269.88	28.671
270.25	26.185
270.62	26.742
270.99	28.387
271.36	27.682
271.73	24.766
272.10	27.826
272.47	26.237
272.84	25.325
273.21	28.092
273.58	24.236
273.95	23.061
274.32	25.620
274.69	26.338
275.06	23.425
275.43	27.234
275.80	24.850
276.17	26.884
276.54	26.195
276.91	25.692
277.28	24.805
277.65	23.211
278.02	23.395
278.39	25.977
278.76	24.000
279.13	25.094
279.50	24.209
279.87	24.900
280.23	24.950
280.60	24.178
280.97	23.105
281.34	24.956
281.71	25.636
282.08	23.417
282.45	23.091
282.82	22.558
283.19	21.390
283.56	25.263
283.92	25.888
284.29	22.399
284.66	23.230
285.03	22.785
285.40	22.535
285.77	22.896
286.14	22.971
286.51	23.167
286.87	24.103
287.24	23.616
287.61	22.311
287.98	22.565
288.35	21.712
288.72	20.717
289.08	22.379
289.45	23.229
289.82	21.789
290.19	22.292
290.56	19.602
290.93	20.997
291.29	21.166
291.66	21.534
292.03	22.093
292.40	21.439
292.77	18.491
293.13	19.701
293.50	18.659
293.87	18.370
294.24	19.704
294.60	19.796
294.97	20.349
295.34	20.310
295.71	19.460
296.08	19.373
296.44	18.019
296.81	19.287
297.18	21.274
297.55	17.018
297.91	17.546
298.28	19.813
298.65	19.321
299.02	20.158
299.38	18.725
299.75	17.116
300.12	16.858
300.48	17.875
300.85	17.386
301.22	17.070
301.59	17.424
301.95	18.136
302.32	18.100
302.69	17.085
303.05	18.061
303.42	17.037
303.79	18.007
304.15	15.268
304.52	16.222
304.89	16.492
305.25	16.357
305.62	16.874
305.99	15.112
306.35	17.338
306.72	17.601
307.09	17.869
307.45	17.117
307.82	14.844
308.19	16.225
308.55	16.613
308.92	17.293
309.29	16.895
309.65	15.270
310.02	18.499
310.38	17.527
310.75	16.895
311.12	18.014
311.48	17.450
311.85	18.239
312.22	18.626
312.58	18.503
312.95	19.430
313.31	18.544
313.68	20.166
314.05	19.625
314.41	20.201
314.78	20.141
315.14	19.960
315.51	20.803
315.87	22.772
316.24	21.748
316.61	21.345
316.97	21.037
317.34	21.624
317.70	24.761
318.07	23.195
318.43	24.266
318.80	24.742
319.16	24.670
319.53	25.235
319.89	26.476
320.26	27.300
320.62	26.984
320.99	28.485
321.35	28.485
321.72	29.261
322.08	31.096
322.45	32.537
322.81	31.686
323.18	32.948
323.54	31.262
323.91	32.547
324.27	33.461
324.64	33.830
325.00	34.085
325.37	35.942
325.73	36.894
326.10	36.364
326.46	37.993
326.83	39.344
327.19	39.368
327.56	40.157
327.92	40.682
328.29	41.171
328.65	43.278
329.01	41.426
329.38	42.183
329.74	43.029
330.11	44.486
330.47	43.618
330.84	44.669
331.20	44.171
331.56	44.312
331.93	44.537
332.29	43.478
332.66	45.929
333.02	45.064
333.38	45.619
333.75	46.702
334.11	45.641
334.48	44.454
334.84	46.415
335.20	45.455
335.57	45.875
335.93	44.107
336.29	46.612
336.66	48.061
337.02	44.706
337.38	47.315
337.75	45.989
338.11	48.881
338.47	48.158
338.84	46.563
339.20	46.330
339.56	48.084
339.93	45.636
340.29	47.011
340.65	46.435
341.02	47.382
341.38	48.488
341.74	47.281
342.11	47.948
342.47	48.811
342.83	45.890
343.20	46.926
343.56	47.346
343.92	47.105
344.28	45.918
344.65	47.034
345.01	46.801
345.37	45.455
345.73	47.293
346.10	47.229
346.46	48.051
346.82	44.975
347.19	46.617
347.55	45.484
347.91	46.036
348.27	47.494
348.63	48.495
349.00	44.822
349.36	46.223
349.72	47.073
350.08	46.272
350.45	46.542
350.81	45.654
351.17	45.057
351.53	46.765
351.89	44.637
352.26	45.541
352.62	46.111
352.98	45.300
353.34	45.768
353.70	44.108
354.07	46.452
354.43	44.524
354.79	44.570
355.15	44.294
355.51	45.963
355.87	46.612
356.24	46.173
356.60	44.667
356.96	46.500
357.32	44.726
357.68	45.669
358.04	44.260
358.40	45.685
358.77	44.288
359.13	45.699
359.49	44.235
359.85	44.524
360.21	43.301
360.57	45.292
360.93	46.000
361.29	43.991
361.66	43.731
362.02	44.851
362.38	45.323
362.74	43.899
363.10	43.819
363.46	42.773
363.82	44.596
364.18	43.025
364.54	43.908
364.90	43.839
365.26	44.632
365.62	44.850
365.98	43.901
366.35	43.553
366.71	43.673
367.07	44.137
367.43	43.832
367.79	44.397
368.15	45.402
368.51	43.169
368.87	43.897
369.23	43.819
369.59	43.012
369.95	41.618
370.31	43.447
370.67	42.174
371.03	43.745
371.39	42.638
371.75	43.529
372.11	42.176
372.47	44.208
372.83	43.732
373.19	41.980
373.55	44.198
373.91	42.931
374.27	40.825
374.63	43.636
374.99	43.220
375.35	42.498
375.71	42.152
376.07	42.661
376.42	42.366
376.78	41.617
377.14	42.469
377.50	42.517
377.86	42.088
378.22	42.541
378.58	40.915
378.94	41.546
379.30	42.112
379.66	42.703
380.02	42.076
380.38	41.409
380.74	41.717
381.09	41.870
381.45	41.918
381.81	42.076
382.17	42.293
382.53	41.950
382.89	42.099
383.25	40.838
383.61	41.512
383.97	41.338
384.32	42.732
384.68	41.202
385.04	41.426
385.40	40.248
385.76	40.233
386.12	40.544
386.48	41.158
386.83	42.335
387.19	41.806
387.55	41.311
387.91	41.657
388.27	39.485
388.62	41.979
388.98	40.786
389.34	41.051
389.70	39.546
390.06	40.811
390.42	40.856
390.77	39.567
391.13	41.161
391.49	41.688
391.85	41.566
392.20	39.748
392.56	40.215
392.92	40.024
393.28	39.822
393.64	40.887
393.99	39.462
394.35	38.896
394.71	39.900
395.07	38.816
395.42	39.493
395.78	39.631
396.14	39.230
396.50	40.100
396.85	40.877
397.21	39.827
397.57	39.678
397.92	40.445
398.28	38.957
398.64	39.486
399.00	38.836
399.35	38.973
399.71	39.699
400.07	38.675
400.42	39.509
400.78	38.661
401.14	38.293
401.49	38.746
401.85	37.931
402.21	37.665
402.57	38.680
402.92	38.588
403.28	38.289
403.63	37.314
403.99	37.643
404.35	38.545
404.70	37.290
405.06	38.148
405.42	38.303
405.77	37.714
406.13	36.964
406.49	38.321
406.84	37.507
407.20	36.643
407.55	37.013
407.91	38.067
408.27	38.034
408.62	37.207
408.98	37.561
409.34	37.577
409.69	36.839
410.05	36.059
410.40	36.636
410.76	37.933
411.11	37.394
411.47	36.294
411.83	35.858
412.18	37.291
412.54	37.049
412.89	35.843
413.25	35.832
413.60	36.442
413.96	35.944
414.31	36.391
414.67	35.995
415.03	35.364
415.38	36.534
415.74	37.170
416.09	36.316
416.45	35.676
416.80	36.021
417.16	36.930
417.51	36.629
417.87	35.324
418.22	35.773
418.58	35.507
418.93	36.179
419.29	35.901
419.64	37.531
420.00	35.610
420.35	35.652
420.71	36.641
421.06	35.442
421.42	35.029
421.77	35.314
422.12	35.205
422.48	34.647
422.83	34.770
423.19	34.917
423.54	35.403
423.90	34.551
424.25	34.841
424.61	34.524
424.96	34.636
425.31	34.330
425.67	34.213
426.02	34.514
426.38	35.409
426.73	34.231
427.09	34.468
427.44	34.675
427.79	34.273
428.15	34.643
428.50	34.523
428.85	35.101
429.21	33.959
429.56	34.318
429.92	33.669
430.27	33.863
430.62	33.129
430.98	33.627
431.33	33.918
431.68	33.455
432.04	33.174
432.39	34.209
432.74	34.171
433.10	33.843
433.45	34.111
433.80	33.259
434.16	33.761
434.51	33.737
434.86	33.295
435.22	33.296
435.57	34.347
435.92	33.236
436.28	34.223
436.63	33.499
436.98	32.570
437.34	33.572
437.69	34.364
438.04	34.177
438.39	33.373
438.75	33.934
439.10	32.793
439.45	33.294
439.81	33.414
440.16	32.976
440.51	32.689
440.86	33.295
441.22	33.704
441.57	33.705
441.92	32.600
442.27	33.477
442.63	31.964
442.98	33.746
443.33	32.717
443.68	32.163
444.03	32.845
444.39	32.571
444.74	32.846
445.09	32.075
445.44	31.821
445.79	32.212
446.15	32.292
446.50	31.933
446.85	32.682
447.20	32.432
447.55	32.831
447.91	32.763
448.26	32.387
448.61	31.769
448.96	32.171
449.31	33.352
449.66	31.908
450.02	32.813
450.37	31.803
450.72	31.923
451.07	32.297
451.42	32.462
451.77	32.942
452.12	32.448
452.47	31.903
452.83	33.625
453.18	32.090
453.53	32.282
453.88	30.951
454.23	31.022
454.58	32.526
454.93	33.121
455.28	31.297
455.63	31.917
455.98	32.262
456.34	32.286
456.69	31.559
457.04	31.207
457.39	31.911
457.74	30.528
458.09	31.167
458.44	32.326
458.79	30.586
459.14	31.772
459.49	31.349
459.84	31.080
460.19	31.055
460.54	31.019
460.89	30.883
461.24	30.905
461.59	31.784
461.94	30.580
462.29	31.454
462.64	31.206
462.99	30.254
463.34	31.533
463.69	31.207
464.04	30.899
464.39	30.145
464.74	30.541
465.09	30.881
465.44	29.917
465.79	29.698
466.14	30.213
466.49	29.477
466.84	29.539
467.19	29.753
467.54	30.812
467.89	29.232
468.24	29.145
468.59	30.342
468.94	30.116
469.29	30.270
469.64	31.191
469.99	29.838
470.34	30.647
470.68	30.963
471.03	30.136
471.38	29.812
471.73	30.247
472.08	30.592
472.43	29.523
472.78	29.756
473.13	30.039
473.48	29.900
473.83	29.756
474.17	29.745
474.52	30.025
474.87	30.356
475.22	28.613
475.57	28.855
475.92	28.943
476.27	27.847
476.61	29.785
476.96	29.632
477.31	28.153
477.66	28.556
478.01	28.489
478.36	28.768
478.70	28.764
479.05	28.435
479.40	28.813
479.75	28.622
480.10	28.330
480.45	28.367
480.79	27.903
481.14	29.012
481.49	27.527
481.84	28.624
482.19	27.987
482.53	28.257
482.88	28.525
483.23	28.318
483.58	28.344
483.92	28.257
484.27	26.928
484.62	27.845
484.97	27.276
485.31	28.082
485.66	25.885
486.01	25.645
486.36	25.346
486.70	25.714
487.05	26.004
487.40	25.970
487.75	26.862
488.09	27.025
488.44	26.918
488.79	26.908
489.13	27.502
489.48	26.713
489.83	27.579
490.17	27.225
490.52	27.325
490.87	27.906
491.22	27.558
491.56	26.560
491.91	26.850
492.26	26.780
492.60	26.959
492.95	26.286
493.30	27.009
493.64	27.065
493.99	26.462
494.34	26.364
494.68	27.289
495.03	26.974
495.37	26.803
495.72	27.778
496.07	27.053
496.41	26.814
496.76	26.737
497.11	26.475
497.45	26.269
497.80	27.207
498.14	26.329
498.49	26.293
498.84	26.894
499.18	25.857
499.53	26.971
499.87	26.514
500.22	26.472
500.56	26.893
500.91	26.058
501.26	26.221
501.60	26.958
501.95	26.123
502.29	27.038
502.64	25.838
502.98	25.292
503.33	25.503
503.67	25.893
504.02	26.239
504.36	26.626
504.71	26.234
505.06	26.361
505.40	25.960
505.75	25.265
506.09	26.045
506.44	26.591
506.78	26.303
507.13	26.148
507.47	26.061
507.82	25.988
508.16	25.735
508.51	25.774
508.85	26.266
509.19	25.765
509.54	24.949
509.88	25.708
510.23	25.553
510.57	26.574
510.92	26.049
511.26	26.362
511.61	26.037
511.95	25.626
512.30	25.610
512.64	26.115
512.98	25.938
513.33	25.803
513.67	25.507
514.02	25.487
514.36	25.833
514.70	26.563
515.05	24.986
515.39	25.911
515.74	25.619
516.08	25.489
516.42	25.971
516.77	25.474
517.11	24.861
517.46	25.508
517.80	25.784
518.14	24.320
518.49	26.079
518.83	25.511
519.17	25.751
519.52	25.071
519.86	25.556
520.20	26.127
520.55	25.913
520.89	25.608
521.23	26.176
521.58	26.050
521.92	26.209
522.26	25.259
522.61	25.483
522.95	25.660
523.29	25.015
523.64	26.037
523.98	25.323
524.32	25.513
524.66	25.316
525.01	25.000
525.35	25.960
525.69	24.384
526.04	25.171
526.38	24.466
526.72	25.153
527.06	25.047
527.41	24.443
527.75	25.016
528.09	25.755
528.43	25.112
528.78	25.691
529.12	25.091
529.46	25.352
529.80	24.752
530.15	25.171
530.49	24.000
530.83	25.063
531.17	25.587
531.51	25.875
531.86	24.452
532.20	24.707
532.54	25.945
532.88	24.904
533.22	24.110
533.57	25.062
533.91	24.503
534.25	24.787
534.59	25.198
534.93	23.974
535.27	24.623
535.62	25.153
535.96	24.608
536.30	24.539
536.64	24.018
536.98	23.424
537.32	23.700
537.66	25.533
538.01	23.831
538.35	24.628
538.69	25.271
539.03	23.522
539.37	23.898
539.71	23.007
540.05	23.856
540.39	24.518
540.73	23.868
541.07	25.438
541.42	24.592
541.76	25.226
542.10	25.356
542.44	25.166
542.78	25.099
543.12	23.736
543.46	25.115
543.80	24.398
544.14	24.069
544.48	24.317
544.82	24.246
545.16	23.813
545.50	23.907
545.84	23.925
546.18	24.242
546.52	24.501
546.86	24.880
547.20	25.354
547.54	22.645
547.88	23.724
548.22	23.288
548.56	24.214
548.90	22.599
549.24	22.222
549.58	24.488
549.92	23.764
550.26	23.935
550.60	23.651
550.94	23.310
551.28	23.043
551.62	23.364
551.96	22.947
552.30	24.369
552.64	24.206
552.98	22.847
553.32	23.938
553.66	23.926
554.00	24.091
554.34	23.188
554.68	23.963
555.02	23.625
555.36	23.243
555.69	22.869
556.03	22.880
556.37	23.670
556.71	22.442
557.05	22.339
557.39	23.653
557.73	23.641
558.07	23.785
558.41	23.227
558.75	23.439
559.08	23.043
559.42	23.507
559.76	23.456
560.10	23.269
560.44	23.340
560.78	22.023
561.12	22.427
561.45	23.598
561.79	22.940
562.13	23.139
562.47	23.156
562.81	23.152
563.15	23.077
563.48	22.944
563.82	23.157
564.16	22.433
564.50	21.484
564.84	21.302
565.17	22.651
565.51	23.514
565.85	22.652
566.19	21.916
566.52	22.926
566.86	21.519
567.20	22.406
567.54	22.317
567.88	21.021
568.21	22.328
568.55	22.447
568.89	21.449
569.23	21.301
569.56	20.972
569.90	20.528
570.24	20.344
570.57	20.469
570.91	20.588
571.25	20.167
571.59	20.295
571.92	20.449
572.26	19.988
572.60	19.640
572.93	19.550
573.27	19.580
573.61	19.877
573.95	19.819
574.28	19.623
574.62	19.898
574.96	19.307
575.29	19.374
575.63	19.639
575.97	19.214
576.30	19.384
576.64	19.737
576.98	19.616
577.31	19.224
577.65	19.587
577.98	19.099
578.32	19.559
578.66	19.497
578.99	19.311
579.33	19.826
579.67	18.803
580.00	19.036
580.34	19.578
580.67	19.263
581.01	19.294
581.35	19.186
581.68	19.081
582.02	19.031
582.35	19.259
582.69	19.083
583.02	18.791
583.36	19.714
583.70	19.156
584.03	19.357
584.37	19.209
584.70	19.122
585.04	19.496
585.37	19.059
585.71	19.502
586.04	18.990
586.38	19.175
586.72	19.829
587.05	18.826
587.39	18.945
587.72	18.990
588.06	19.184
588.39	19.177
588.73	19.566
589.06	19.788
589.40	20.000
589.73	20.099
590.07	19.537
590.40	19.730
590.73	19.594
591.07	20.391
591.40	20.202
591.74	20.476
592.07	19.503
592.41	20.256
592.74	19.588
593.08	19.520
593.41	19.646
593.75	18.988
594.08	19.645
594.41	19.406
594.75	19.409
595.08	19.470
595.42	19.475
595.75	19.302
596.09	19.527
596.42	19.607
596.75	20.051
597.09	20.346
597.42	18.381
597.75	19.621
598.09	19.826
598.42	19.716
598.76	19.295
599.09	18.966
599.42	18.850
599.76	19.327
600.09	18.725
600.42	18.663
600.76	18.536
601.09	19.089
601.42	18.988
601.76	19.127
602.09	18.893
602.42	19.148
602.76	19.428
603.09	18.843
603.42	19.367
603.76	19.169
604.09	19.581
604.42	19.405
604.76	19.739
605.09	19.353
605.42	19.239
605.75	18.791
606.09	19.520
606.42	18.635
606.75	19.079
607.09	19.213
607.42	18.656
607.75	18.945
608.08	18.845
608.42	19.274
608.75	18.350
609.08	19.149
609.41	19.134
609.75	18.961
610.08	19.086
610.41	18.948
610.74	19.726
611.07	19.269
611.41	19.185
611.74	19.759
612.07	19.772
612.40	19.727
612.73	18.947
613.07	19.720
613.40	20.642
613.73	18.825
614.06	19.247
614.39	19.035
614.72	19.737
615.06	19.275
615.39	19.427
615.72	19.734
616.05	19.351
616.38	19.678
616.71	18.765
617.05	20.377
617.38	18.882
617.71	19.039
618.04	19.471
618.37	19.870
618.70	19.788
619.03	20.461
619.36	20.095
619.69	19.718
620.03	19.643
620.36	20.922
620.69	19.384
621.02	20.723
621.35	19.264
621.68	19.548
622.01	19.659
622.34	20.726
622.67	20.380
623.00	19.809
623.33	18.871
623.66	20.157
623.99	19.661
624.32	19.900
624.65	20.339
624.99	18.909
625.32	19.044
625.65	19.835
625.98	21.138
626.31	19.751
626.64	20.490
626.97	20.366
627.30	20.200
627.63	19.278
627.96	20.521
628.29	19.598
628.62	21.866
628.95	22.358
629.28	20.620
629.61	20.532
629.94	21.333
630.26	20.496
630.59	21.068
630.92	20.690
631.25	18.756
