SpectraSuite Data File
++++++++++++++++++++++++++++++++++++
Date: Wed May 13 20:30:39 PDT 2015
User: schluterlab
Dark Spectrum Present: Yes
Reference Spectrum Present: Yes
Number of Sampled Component Spectra: 1
Spectrometers: USB2E3373
Integration Time (usec): 3000 (USB2E3373)
Spectra Averaged: 3 (USB2E3373)
Boxcar Smoothing: 0 (USB2E3373)
Correct for Electrical Dark: No (USB2E3373)
Strobe/Lamp Enabled: No (USB2E3373)
Correct for Detector Non-linearity: No (USB2E3373)
Correct for Stray Light: No (USB2E3373)
Number of Pixels in Processed Spectrum: 2048
>>>>>Begin Processed Spectral Data<<<<<
178.53	0.000
178.91	-1250.000
179.29	-1150.000
179.67	-155.556
180.04	-1125.000
180.42	2100.000
180.80	1020.000
181.18	-475.000
181.56	628.571
181.94	0.000
182.31	-371.429
182.69	1066.667
183.07	-400.000
183.45	-288.889
183.83	427.273
184.20	-320.000
184.58	1650.000
184.96	4800.000
185.34	-660.000
185.72	-437.500
186.09	-1400.000
186.47	1650.000
186.85	1750.000
187.23	3500.000
187.61	-1366.667
187.98	950.000
188.36	409.091
188.74	409.091
189.12	-760.000
189.49	380.000
189.87	-3900.000
190.25	-1150.000
190.63	300.000
191.00	346.154
191.38	666.667
191.76	-975.000
192.14	1225.000
192.51	500.000
192.89	700.000
193.27	450.000
193.65	-975.000
194.02	470.000
194.40	600.000
194.78	350.000
195.15	450.000
195.53	460.000
195.91	-1900.000
196.29	318.750
196.66	273.684
197.04	-310.000
197.42	0.000
197.79	570.000
198.17	-3300.000
198.55	357.143
198.92	587.500
199.30	880.000
199.68	0.000
200.05	305.556
200.43	685.714
200.81	3100.000
201.18	1133.333
201.56	-966.667
201.94	466.667
202.31	444.444
202.69	341.667
203.07	480.000
203.44	0.000
203.82	1150.000
204.19	471.429
204.57	278.571
204.95	400.000
205.32	1500.000
205.70	427.273
206.08	342.857
206.45	2400.000
206.83	375.000
207.20	666.667
207.58	680.000
207.96	205.556
208.33	637.500
208.71	-783.333
209.08	657.143
209.46	544.444
209.84	381.818
210.21	-1300.000
210.59	1225.000
210.96	-312.500
211.34	2350.000
211.71	410.000
212.09	600.000
212.46	0.000
212.84	1366.667
213.22	1000.000
213.59	-3600.000
213.97	783.333
214.34	642.857
214.72	463.636
215.09	880.000
215.47	-1900.000
215.84	-1850.000
216.22	1333.333
216.59	321.429
216.97	1075.000
217.34	309.091
217.72	-583.333
218.09	0.000
218.47	-3300.000
218.84	544.444
219.22	514.286
219.59	1366.667
219.97	-514.286
220.34	760.000
220.72	-1500.000
221.09	357.143
221.47	1000.000
221.84	-750.000
222.22	0.000
222.59	1200.000
222.97	-2000.000
223.34	1060.000
223.72	361.538
224.09	780.000
224.46	1850.000
224.84	-4300.000
225.21	-780.000
225.59	-4400.000
225.96	380.000
226.34	275.000
226.71	1700.000
227.08	562.500
227.46	450.000
227.83	-925.000
228.21	-1550.000
228.58	500.000
228.95	-2050.000
229.33	-1900.000
229.70	1666.667
230.08	614.286
230.45	-820.000
230.82	366.667
231.20	683.333
231.57	542.857
231.95	441.667
232.32	200.000
232.69	290.909
233.07	514.286
233.44	269.231
233.81	-1600.000
234.19	236.842
234.56	391.667
234.93	358.333
235.31	390.909
235.68	276.923
236.05	335.714
236.43	136.364
236.80	221.053
237.17	3700.000
237.55	209.524
237.92	200.000
238.29	190.476
238.67	177.419
239.04	179.310
239.41	127.778
239.79	110.870
240.16	150.000
240.53	122.727
240.91	96.078
241.28	132.000
241.65	104.000
242.02	95.652
242.40	88.710
242.77	85.000
243.14	67.742
243.51	76.404
243.89	76.471
244.26	81.111
244.63	72.043
245.00	71.277
245.38	58.416
245.75	57.944
246.12	60.550
246.49	64.964
246.87	65.600
247.24	63.077
247.61	62.143
247.98	54.248
248.36	49.324
248.73	50.955
249.10	60.510
249.47	48.023
249.84	57.219
250.22	49.198
250.59	50.888
250.96	51.515
251.33	49.763
251.70	52.970
252.08	48.095
252.45	45.740
252.82	46.087
253.19	48.511
253.56	44.706
253.94	47.303
254.31	43.359
254.68	48.077
255.05	45.387
255.42	45.935
255.79	48.529
256.16	46.931
256.54	40.989
256.91	43.416
257.28	35.612
257.65	44.884
258.02	41.925
258.39	43.533
258.76	45.151
259.14	44.643
259.51	38.602
259.88	40.683
260.25	44.109
260.62	38.150
260.99	40.062
261.36	39.640
261.73	43.840
262.10	39.244
262.47	40.563
262.85	40.669
263.22	37.607
263.59	41.595
263.96	37.637
264.33	38.642
264.70	38.947
265.07	44.757
265.44	38.636
265.81	39.659
266.18	38.945
266.55	38.293
266.92	37.592
267.29	39.583
267.66	37.615
268.03	40.000
268.40	36.682
268.77	36.993
269.14	37.162
269.51	39.729
269.88	41.725
270.25	38.149
270.62	39.101
270.99	38.065
271.36	38.197
271.73	38.084
272.10	36.739
272.47	37.634
272.84	37.446
273.21	38.784
273.58	33.843
273.95	36.478
274.32	35.744
274.69	40.471
275.06	35.039
275.43	37.447
275.80	35.872
276.17	38.697
276.54	36.383
276.91	34.980
277.28	34.180
277.65	34.623
278.02	36.439
278.39	35.547
278.76	35.636
279.13	34.717
279.50	35.196
279.87	33.267
280.23	36.727
280.60	34.043
280.97	36.599
281.34	35.575
281.71	36.545
282.08	37.428
282.45	34.545
282.82	33.748
283.19	37.255
283.56	31.754
283.92	36.379
284.29	35.802
284.66	33.394
285.03	34.720
285.40	35.563
285.77	34.512
286.14	32.815
286.51	33.667
286.87	35.897
287.24	31.433
287.61	31.140
287.98	32.955
288.35	32.488
288.72	31.776
289.08	31.925
289.45	32.619
289.82	33.333
290.19	29.199
290.56	28.790
290.93	29.154
291.29	30.215
291.66	31.121
292.03	31.541
292.40	32.305
292.77	29.882
293.13	28.806
293.50	30.612
293.87	29.778
294.24	28.296
294.60	29.840
294.97	27.326
295.34	29.760
295.71	29.830
296.08	28.063
296.44	29.023
296.81	26.816
297.18	28.862
297.55	25.989
297.91	28.100
298.28	27.443
298.65	27.546
299.02	27.800
299.38	28.287
299.75	26.415
300.12	24.649
300.48	24.125
300.85	26.387
301.22	26.497
301.59	25.758
301.95	27.330
302.32	26.444
302.69	25.687
303.05	26.424
303.42	25.679
303.79	25.708
304.15	24.592
304.52	24.450
304.89	25.784
305.25	24.130
305.62	25.028
305.99	25.620
306.35	25.280
306.72	24.776
307.09	24.972
307.45	25.901
307.82	24.442
308.19	26.711
308.55	24.272
308.92	24.812
309.29	24.076
309.65	25.239
310.02	24.841
310.38	23.656
310.75	24.076
311.12	24.872
311.48	26.437
311.85	24.004
312.22	24.662
312.58	25.052
312.95	24.815
313.31	23.883
313.68	25.572
314.05	26.233
314.41	24.322
314.78	24.975
315.14	24.528
315.51	25.953
315.87	24.653
316.24	24.727
316.61	23.294
316.97	24.364
317.34	24.853
317.70	24.379
318.07	25.987
318.43	25.245
318.80	25.492
319.16	26.271
319.53	26.079
319.89	26.190
320.26	27.700
320.62	27.381
320.99	26.970
321.35	26.364
321.72	27.515
322.08	27.345
322.45	29.154
322.81	28.101
323.18	27.168
323.54	28.386
323.91	28.868
324.27	28.298
324.64	27.120
325.00	27.232
325.37	28.753
325.73	29.354
326.10	29.568
326.46	28.943
326.83	29.077
327.19	30.060
327.56	29.530
327.92	30.534
328.29	30.346
328.65	31.584
329.01	30.686
329.38	31.360
329.74	30.748
330.11	30.443
330.47	32.231
330.84	32.445
331.20	32.332
331.56	30.826
331.93	31.204
332.29	32.476
332.66	31.681
333.02	31.993
333.38	33.333
333.75	31.640
334.11	31.228
334.48	31.943
334.84	33.088
335.20	32.818
335.57	31.822
335.93	31.786
336.29	32.509
336.66	33.093
337.02	32.036
337.38	32.685
337.75	33.066
338.11	32.677
338.47	32.873
338.84	33.364
339.20	33.211
339.56	33.029
339.93	31.545
340.29	32.428
340.65	32.442
341.02	34.555
341.38	32.295
341.74	31.930
342.11	32.926
342.47	34.009
342.83	32.277
343.20	34.113
343.56	31.845
343.92	33.860
344.28	31.973
344.65	34.308
345.01	32.071
345.37	32.419
345.73	32.995
346.10	33.078
346.46	32.119
346.82	33.361
347.19	32.164
347.55	31.938
347.91	32.443
348.27	33.854
348.63	33.361
349.00	31.958
349.36	32.512
349.72	33.841
350.08	31.929
350.45	33.360
350.81	33.063
351.17	33.306
351.53	32.924
351.89	32.261
352.26	33.307
352.62	34.082
352.98	32.739
353.34	32.703
353.70	31.833
354.07	33.468
354.43	33.095
354.79	33.467
355.15	33.041
355.51	33.973
355.87	33.143
356.24	34.528
356.60	32.959
356.96	33.950
357.32	34.015
357.68	34.094
358.04	33.175
358.40	34.917
358.77	33.646
359.13	32.439
359.49	33.333
359.85	31.905
360.21	33.094
360.57	33.852
360.93	34.154
361.29	34.543
361.66	33.282
362.02	33.433
362.38	33.536
362.74	35.565
363.10	33.235
363.46	33.089
363.82	33.333
364.18	33.847
364.54	35.290
364.90	34.278
365.26	35.147
365.62	35.062
365.98	34.405
366.35	33.524
366.71	33.984
367.07	33.940
367.43	34.107
367.79	35.189
368.15	34.986
368.51	34.157
368.87	35.189
369.23	35.113
369.59	35.916
369.95	35.662
370.31	35.470
370.67	35.072
371.03	35.581
371.39	35.787
371.75	36.029
372.11	34.566
372.47	36.584
372.83	36.671
373.19	35.405
373.55	37.546
373.91	37.334
374.27	35.670
374.63	35.855
374.99	35.946
375.35	36.567
375.71	35.709
376.07	35.871
376.42	37.070
376.78	36.779
377.14	36.499
377.50	36.093
377.86	35.705
378.22	34.829
378.58	36.591
378.94	35.512
379.30	36.705
379.66	37.056
380.02	36.364
380.38	36.794
380.74	36.675
381.09	36.491
381.45	37.369
381.81	37.408
382.17	38.217
382.53	37.673
382.89	36.852
383.25	38.024
383.61	38.166
383.97	38.211
384.32	38.303
384.68	37.980
385.04	37.369
385.40	37.152
385.76	37.285
386.12	38.083
386.48	39.144
386.83	38.358
387.19	38.776
387.55	38.404
387.91	37.606
388.27	38.504
388.62	39.090
388.98	38.698
389.34	39.925
389.70	38.627
390.06	39.544
390.42	39.105
390.77	39.695
391.13	39.502
391.49	40.609
391.85	39.083
392.20	37.792
392.56	39.331
392.92	38.434
393.28	38.284
393.64	39.209
393.99	39.585
394.35	39.826
394.71	38.519
395.07	38.131
395.42	40.606
395.78	39.440
396.14	39.168
396.50	39.724
396.85	40.178
397.21	37.855
397.57	38.686
397.92	39.844
398.28	38.004
398.64	39.367
399.00	39.060
399.35	40.158
399.71	39.757
400.07	39.148
400.42	40.061
400.78	38.902
401.14	40.000
401.49	39.224
401.85	39.988
402.21	38.623
402.57	40.284
402.92	40.542
403.28	40.037
403.63	40.532
403.99	40.892
404.35	40.303
404.70	40.108
405.06	39.953
405.42	41.110
405.77	39.257
406.13	39.391
406.49	41.277
406.84	39.929
407.20	40.130
407.55	40.779
407.91	40.000
408.27	40.013
408.62	40.096
408.98	39.890
409.34	40.037
409.69	40.452
410.05	40.025
410.40	40.122
410.76	40.621
411.11	40.772
411.47	40.575
411.83	41.051
412.18	39.765
412.54	40.847
412.89	39.398
413.25	40.083
413.60	40.395
413.96	40.255
414.31	39.976
414.67	41.001
415.03	40.662
415.38	40.206
415.74	39.743
416.09	40.496
416.45	41.031
416.80	39.921
417.16	40.617
417.51	40.478
417.87	39.884
418.22	41.073
418.58	40.865
418.93	41.523
419.29	41.375
419.64	40.932
420.00	41.098
420.35	40.116
420.71	41.602
421.06	40.453
421.42	40.409
421.77	40.359
422.12	39.697
422.48	40.097
422.83	41.875
423.19	40.497
423.54	40.917
423.90	41.681
424.25	40.704
424.61	41.012
424.96	41.050
425.31	41.417
425.67	40.730
426.02	40.400
426.38	41.758
426.73	40.492
427.09	41.216
427.44	40.771
427.79	41.461
428.15	40.833
428.50	40.550
428.85	42.431
429.21	41.634
429.56	41.369
429.92	41.168
430.27	41.261
430.62	40.809
430.98	40.477
431.33	41.701
431.68	41.309
432.04	41.374
432.39	42.090
432.74	41.053
433.10	41.653
433.45	42.157
433.80	42.517
434.16	40.491
434.51	41.368
434.86	42.474
435.22	42.412
435.57	42.736
435.92	41.428
436.28	43.357
436.63	42.384
436.98	41.786
437.34	42.397
437.69	42.590
438.04	42.440
438.39	42.507
438.75	43.056
439.10	42.291
439.45	43.093
439.81	43.082
440.16	41.502
440.51	42.121
440.86	42.617
441.22	42.881
441.57	42.622
441.92	42.784
442.27	42.896
442.63	43.181
442.98	42.592
443.33	42.717
443.68	42.901
444.03	42.020
444.39	42.210
444.74	43.452
445.09	42.749
445.44	41.717
445.79	41.860
446.15	41.715
446.50	41.626
446.85	42.292
447.20	43.549
447.55	43.272
447.91	42.967
448.26	42.571
448.61	42.679
448.96	43.688
449.31	43.251
449.66	43.106
450.02	43.565
450.37	42.914
450.72	42.245
451.07	42.474
451.42	41.945
451.77	42.161
452.12	41.513
452.47	44.465
452.83	43.765
453.18	42.359
453.53	43.105
453.88	42.646
454.23	42.678
454.58	43.186
454.93	44.120
455.28	43.080
455.63	42.840
455.98	44.286
456.34	42.085
456.69	42.830
457.04	42.848
457.39	41.672
457.74	42.600
458.09	42.036
458.44	42.474
458.79	41.215
459.14	42.325
459.49	43.783
459.84	42.105
460.19	42.310
460.54	41.493
460.89	41.964
461.24	42.380
461.59	42.998
461.94	41.862
462.29	42.552
462.64	42.055
462.99	41.900
463.34	42.800
463.69	41.839
464.04	41.623
464.39	42.725
464.74	41.414
465.09	40.712
465.44	41.994
465.79	41.275
466.14	40.941
466.49	41.991
466.84	42.265
467.19	42.305
467.54	43.188
467.89	41.717
468.24	40.896
468.59	42.796
468.94	40.990
469.29	41.838
469.64	41.499
469.99	43.166
470.34	42.668
470.68	42.241
471.03	42.449
471.38	42.738
471.73	40.906
472.08	42.434
472.43	42.965
472.78	42.265
473.13	42.105
473.48	42.572
473.83	42.134
474.17	41.755
474.52	42.432
474.87	42.440
475.22	42.716
475.57	40.570
475.92	41.689
476.27	41.037
476.61	41.699
476.96	42.056
477.31	40.607
477.66	42.013
478.01	41.610
478.36	41.830
478.70	41.381
479.05	41.427
479.40	41.658
479.75	41.383
480.10	41.153
480.45	41.266
480.79	40.707
481.14	40.851
481.49	40.342
481.84	40.832
482.19	41.072
482.53	40.826
482.88	41.694
483.23	40.981
483.58	41.128
483.92	40.722
484.27	39.085
484.62	40.603
484.97	39.850
485.31	39.829
485.66	38.668
486.01	38.338
486.36	38.237
486.70	38.342
487.05	38.926
487.40	39.147
487.75	39.294
488.09	40.340
488.44	39.993
488.79	40.253
489.13	39.954
489.48	39.886
489.83	40.009
490.17	40.377
490.52	39.593
490.87	39.213
491.22	39.836
491.56	39.043
491.91	39.646
492.26	39.504
492.60	40.092
492.95	39.383
493.30	39.252
493.64	38.964
493.99	39.276
494.34	39.963
494.68	40.110
495.03	40.038
495.37	39.367
495.72	39.620
496.07	40.882
496.41	38.717
496.76	38.962
497.11	39.307
497.45	39.124
497.80	40.259
498.14	39.082
498.49	39.659
498.84	39.310
499.18	38.714
499.53	39.554
499.87	39.003
500.22	39.284
500.56	40.388
500.91	39.375
501.26	39.165
501.60	40.484
501.95	39.047
502.29	40.347
502.64	39.804
502.98	39.177
503.33	39.351
503.67	38.840
504.02	38.915
504.36	39.120
504.71	40.059
505.06	39.181
505.40	40.204
505.75	39.007
506.09	39.504
506.44	39.369
506.78	39.308
507.13	39.879
507.47	39.343
507.82	39.868
508.16	40.122
508.51	40.487
508.85	39.076
509.19	40.204
509.54	39.847
509.88	38.949
510.23	39.897
510.57	40.144
510.92	40.394
511.26	40.031
511.61	39.263
511.95	38.935
512.30	38.865
512.64	39.764
512.98	40.247
513.33	39.882
513.67	39.915
514.02	40.368
514.36	40.251
514.70	40.897
515.05	39.710
515.39	40.662
515.74	40.034
516.08	40.861
516.42	40.511
516.77	40.524
517.11	40.622
517.46	40.745
517.80	40.999
518.14	38.738
518.49	40.665
518.83	40.227
519.17	40.820
519.52	41.143
519.86	40.787
520.20	40.347
520.55	40.634
520.89	40.389
521.23	42.159
521.58	39.856
521.92	40.171
522.26	40.268
522.61	41.059
522.95	40.516
523.29	39.866
523.64	41.951
523.98	41.035
524.32	41.194
524.66	40.108
525.01	41.054
525.35	40.954
525.69	40.764
526.04	40.187
526.38	39.963
526.72	40.000
527.06	40.929
527.41	39.233
527.75	41.158
528.09	40.591
528.43	41.173
528.78	40.012
529.12	39.636
529.46	40.294
529.80	42.017
530.15	40.312
530.49	40.000
530.83	40.063
531.17	41.057
531.51	41.764
531.86	40.710
532.20	41.134
532.54	41.192
532.88	40.372
533.22	38.413
533.57	40.679
533.91	40.939
534.25	39.186
534.59	39.780
534.93	39.738
535.27	39.288
535.62	40.354
535.96	40.050
536.30	39.224
536.64	40.631
536.98	39.549
537.32	39.566
537.66	40.333
538.01	40.553
538.35	39.690
538.69	40.077
539.03	39.246
539.37	39.297
539.71	39.145
540.05	40.000
540.39	39.336
540.73	38.551
541.07	39.844
541.42	40.313
541.76	39.935
542.10	39.327
542.44	39.603
542.78	40.250
543.12	37.492
543.46	38.885
543.80	38.907
544.14	38.896
544.48	39.810
544.82	38.871
545.16	39.753
545.50	38.303
545.84	39.046
546.18	39.529
546.52	39.092
546.86	39.038
547.20	39.514
547.54	38.477
547.88	38.967
548.22	39.228
548.56	38.868
548.90	37.708
549.24	37.845
549.58	39.154
549.92	38.255
550.26	40.767
550.60	39.903
550.94	39.366
551.28	39.576
551.62	39.612
551.96	38.596
552.30	38.771
552.64	38.810
552.98	38.983
553.32	38.503
553.66	38.855
554.00	38.641
554.34	38.095
554.68	38.627
555.02	38.364
555.36	38.065
555.69	38.498
556.03	37.012
556.37	38.404
556.71	37.653
557.05	37.885
557.39	39.258
557.73	37.262
558.07	39.231
558.41	38.061
558.75	39.603
559.08	38.702
559.42	39.531
559.76	38.015
560.10	37.616
560.44	37.177
560.78	36.860
561.12	37.599
561.45	37.419
561.79	37.574
562.13	38.028
562.47	38.456
562.81	38.633
563.15	38.528
563.48	38.594
563.82	37.182
564.16	37.737
564.50	37.109
564.84	37.421
565.17	36.551
565.51	37.125
565.85	37.627
566.19	36.944
566.52	36.732
566.86	37.131
567.20	37.854
567.54	37.785
567.88	35.904
568.21	36.984
568.55	36.603
568.89	36.673
569.23	35.740
569.56	36.235
569.90	35.509
570.24	35.056
570.57	34.818
570.91	33.743
571.25	34.188
571.59	34.757
571.92	34.793
572.26	34.373
572.60	34.264
572.93	34.393
573.27	34.516
573.61	34.031
573.95	34.341
574.28	34.095
574.62	34.257
574.96	33.835
575.29	33.754
575.63	33.740
575.97	34.132
576.30	34.121
576.64	33.359
576.98	33.252
577.31	33.826
577.65	33.572
577.98	33.615
578.32	32.784
578.66	33.878
578.99	33.965
579.33	33.721
579.67	33.568
580.00	33.709
580.34	33.935
580.67	32.971
581.01	33.281
581.35	33.136
581.68	32.899
582.02	32.884
582.35	33.707
582.69	33.314
583.02	33.668
583.36	34.263
583.70	33.741
584.03	33.830
584.37	34.203
584.70	34.222
585.04	33.611
585.37	33.108
585.71	33.788
586.04	33.704
586.38	33.908
586.72	33.803
587.05	33.116
587.39	33.113
587.72	33.806
588.06	33.111
588.39	33.964
588.73	33.676
589.06	34.154
589.40	34.613
589.73	34.671
590.07	34.306
590.40	33.613
590.73	34.192
591.07	34.961
591.40	34.880
591.74	35.844
592.07	34.468
592.41	33.609
592.74	33.895
593.08	33.045
593.41	33.407
593.75	32.667
594.08	33.959
594.41	33.687
594.75	34.529
595.08	34.001
595.42	34.641
595.75	33.333
596.09	33.684
596.42	34.695
596.75	34.740
597.09	34.632
597.42	33.600
597.75	33.765
598.09	35.217
598.42	34.149
598.76	33.239
599.09	33.409
599.42	33.261
599.76	33.565
600.09	32.823
600.42	33.492
600.76	33.107
601.09	33.515
601.42	33.447
601.76	33.472
602.09	34.032
602.42	34.395
602.76	33.817
603.09	33.281
603.42	33.581
603.76	33.270
604.09	33.618
604.42	34.244
604.76	34.332
605.09	34.426
605.42	33.561
605.75	33.402
606.09	33.713
606.42	33.592
606.75	32.891
607.09	33.864
607.42	33.419
607.75	32.236
608.08	33.652
608.42	33.797
608.75	33.228
609.08	33.580
609.41	34.031
609.75	33.397
610.08	33.930
610.41	33.007
610.74	34.059
611.07	34.091
611.41	34.691
611.74	34.540
612.07	34.265
612.40	34.208
612.73	32.789
613.07	34.213
613.40	33.913
613.73	33.508
614.06	34.086
614.39	33.036
614.72	33.579
615.06	33.036
615.39	33.652
615.72	33.027
616.05	33.014
616.38	33.407
616.71	33.610
617.05	34.747
617.38	33.794
617.71	33.994
618.04	33.894
618.37	33.057
618.70	34.225
619.03	34.474
619.36	34.555
619.69	34.225
620.03	35.234
620.36	33.623
620.69	34.041
621.02	34.882
621.35	34.377
621.68	33.801
622.01	34.520
622.34	34.342
622.67	35.285
623.00	34.776
623.33	34.382
623.66	35.025
623.99	35.199
624.32	34.165
624.65	33.686
624.99	34.348
625.32	33.888
625.65	34.711
625.98	35.665
626.31	34.526
626.64	35.102
626.97	34.830
627.30	33.998
627.63	34.619
627.96	35.660
628.29	35.783
628.62	35.041
628.95	35.849
629.28	34.307
629.61	36.755
629.94	37.238
630.26	35.748
630.59	35.844
630.92	35.345
631.25	33.860
