SpectraSuite Data File
++++++++++++++++++++++++++++++++++++
Date: Wed May 13 20:23:33 PDT 2015
User: schluterlab
Dark Spectrum Present: Yes
Reference Spectrum Present: Yes
Number of Sampled Component Spectra: 1
Spectrometers: USB2E3373
Integration Time (usec): 3000 (USB2E3373)
Spectra Averaged: 3 (USB2E3373)
Boxcar Smoothing: 0 (USB2E3373)
Correct for Electrical Dark: No (USB2E3373)
Strobe/Lamp Enabled: No (USB2E3373)
Correct for Detector Non-linearity: No (USB2E3373)
Correct for Stray Light: No (USB2E3373)
Number of Pixels in Processed Spectrum: 2048
>>>>>Begin Processed Spectral Data<<<<<
178.53	0.000
178.91	-1075.000
179.29	-1150.000
179.67	-227.778
180.04	-1100.000
180.42	3250.000
180.80	920.000
181.18	-1150.000
181.56	728.571
181.94	0.000
182.31	-700.000
182.69	1700.000
183.07	-525.000
183.45	-500.000
183.83	490.909
184.20	-370.000
184.58	2400.000
184.96	5600.000
185.34	-900.000
185.72	-700.000
186.09	-1950.000
186.47	2600.000
186.85	2350.000
187.23	4700.000
187.61	-1500.000
187.98	1525.000
188.36	581.818
188.74	490.909
189.12	-900.000
189.49	550.000
189.87	-4700.000
190.25	-1000.000
190.63	400.000
191.00	415.385
191.38	833.333
191.76	-1275.000
192.14	1425.000
192.51	675.000
192.89	1050.000
193.27	550.000
193.65	-900.000
194.02	520.000
194.40	900.000
194.78	570.000
195.15	558.333
195.53	500.000
195.91	-2050.000
196.29	350.000
196.66	305.263
197.04	-180.000
197.42	0.000
197.79	620.000
198.17	-5500.000
198.55	714.286
198.92	687.500
199.30	700.000
199.68	0.000
200.05	350.000
200.43	814.286
200.81	4800.000
201.18	1666.667
201.56	-1666.667
201.94	544.444
202.31	533.333
202.69	450.000
203.07	500.000
203.44	0.000
203.82	1175.000
204.19	757.143
204.57	435.714
204.95	600.000
205.32	1500.000
205.70	590.909
206.08	321.429
206.45	3200.000
206.83	393.750
207.20	1016.667
207.58	720.000
207.96	288.889
208.33	737.500
208.71	-733.333
209.08	814.286
209.46	644.444
209.84	436.364
210.21	-1600.000
210.59	1400.000
210.96	-537.500
211.34	2500.000
211.71	580.000
212.09	966.667
212.46	0.000
212.84	1666.667
213.22	1300.000
213.59	-4300.000
213.97	750.000
214.34	685.714
214.72	545.455
215.09	1020.000
215.47	-1900.000
215.84	-2500.000
216.22	1666.667
216.59	371.429
216.97	1375.000
217.34	436.364
217.72	-733.333
218.09	0.000
218.47	-4500.000
218.84	588.889
219.22	757.143
219.59	1533.333
219.97	-671.429
220.34	1100.000
220.72	-1900.000
221.09	392.857
221.47	1425.000
221.84	-683.333
222.22	0.000
222.59	1600.000
222.97	-2400.000
223.34	960.000
223.72	392.308
224.09	1160.000
224.46	2100.000
224.84	-4500.000
225.21	-960.000
225.59	-6200.000
225.96	560.000
226.34	315.000
226.71	2050.000
227.08	625.000
227.46	510.000
227.83	-925.000
228.21	-2850.000
228.58	711.111
228.95	-2150.000
229.33	-2100.000
229.70	1633.333
230.08	771.429
230.45	-920.000
230.82	383.333
231.20	800.000
231.57	685.714
231.95	400.000
232.32	236.364
232.69	381.818
233.07	700.000
233.44	400.000
233.81	-1666.667
234.19	300.000
234.56	541.667
234.93	366.667
235.31	481.818
235.68	330.769
236.05	392.857
236.43	184.848
236.80	247.368
237.17	4700.000
237.55	238.095
237.92	189.286
238.29	219.048
238.67	190.323
239.04	213.793
239.41	163.889
239.79	106.522
240.16	166.667
240.53	125.000
240.91	117.647
241.28	118.000
241.65	104.000
242.02	92.754
242.40	106.452
242.77	96.667
243.14	79.570
243.51	80.899
243.89	80.000
244.26	82.222
244.63	75.269
245.00	79.787
245.38	73.267
245.75	67.290
246.12	64.220
246.49	64.234
246.87	80.000
247.24	76.154
247.61	67.143
247.98	58.824
248.36	57.432
248.73	53.503
249.10	64.968
249.47	51.977
249.84	55.080
250.22	51.872
250.59	55.030
250.96	52.020
251.33	46.445
251.70	56.931
252.08	53.810
252.45	49.776
252.82	45.652
253.19	45.106
253.56	43.529
253.94	48.133
254.31	48.438
254.68	48.846
255.05	46.494
255.42	50.000
255.79	45.588
256.16	50.903
256.54	41.696
256.91	46.975
257.28	43.525
257.65	42.904
258.02	39.441
258.39	43.533
258.76	41.137
259.14	41.667
259.51	40.426
259.88	41.925
260.25	44.411
260.62	41.040
260.99	40.994
261.36	41.441
261.73	40.974
262.10	41.570
262.47	41.127
262.85	42.061
263.22	37.892
263.59	41.595
263.96	38.462
264.33	41.253
264.70	37.895
265.07	42.199
265.44	37.374
265.81	34.793
266.18	37.437
266.55	38.293
266.92	38.084
267.29	36.574
267.66	36.697
268.03	36.364
268.40	36.916
268.77	35.561
269.14	34.910
269.51	37.020
269.88	35.431
270.25	36.117
270.62	35.730
270.99	37.204
271.36	35.193
271.73	35.748
272.10	37.174
272.47	38.065
272.84	36.580
273.21	33.962
273.58	34.061
273.95	34.172
274.32	32.851
274.69	35.118
275.06	33.465
275.43	35.106
275.80	35.471
276.17	34.623
276.54	35.343
276.91	35.771
277.28	34.180
277.65	35.397
278.02	35.818
278.39	36.523
278.76	32.364
279.13	34.906
279.50	34.637
279.87	33.068
280.23	35.529
280.60	32.495
280.97	34.935
281.34	34.867
281.71	33.818
282.08	37.044
282.45	32.364
282.82	33.037
283.19	31.907
283.56	34.737
283.92	33.672
284.29	34.568
284.66	34.483
285.03	31.646
285.40	34.507
285.77	32.997
286.14	32.470
286.51	31.333
286.87	34.359
287.24	34.039
287.61	30.819
287.98	31.981
288.35	32.488
288.72	29.439
289.08	30.829
289.45	30.643
289.82	31.382
290.19	27.630
290.56	28.943
290.93	28.248
291.29	31.135
291.66	29.351
292.03	29.942
292.40	29.662
292.77	28.846
293.13	27.313
293.50	27.405
293.87	28.148
294.24	27.259
294.60	25.764
294.97	27.180
295.34	28.773
295.71	25.994
296.08	25.926
296.44	27.373
296.81	26.024
297.18	27.100
297.55	24.274
297.91	25.726
298.28	25.569
298.65	26.240
299.02	25.560
299.38	26.826
299.75	23.989
300.12	25.798
300.48	25.000
300.85	24.538
301.22	25.350
301.59	22.222
301.95	25.441
302.32	25.160
302.69	24.492
303.05	24.242
303.42	24.815
303.79	23.103
304.15	22.844
304.52	23.754
304.89	23.926
305.25	22.738
305.62	23.556
305.99	24.911
306.35	23.714
306.72	24.552
307.09	23.418
307.45	25.000
307.82	21.429
308.19	23.620
308.55	23.948
308.92	24.168
309.29	21.542
309.65	22.906
310.02	22.622
310.38	23.548
310.75	23.337
311.12	22.825
311.48	24.033
311.85	22.327
312.22	23.309
312.58	21.206
312.95	23.548
313.31	21.165
313.68	23.493
314.05	25.345
314.41	23.920
314.78	23.061
315.14	23.237
315.51	25.335
315.87	24.455
316.24	24.032
316.61	23.879
316.97	23.190
317.34	23.092
317.70	24.761
318.07	25.409
318.43	25.636
318.80	26.336
319.16	26.365
319.53	25.891
319.89	25.905
320.26	27.500
320.62	25.893
320.99	28.182
321.35	26.869
321.72	26.899
322.08	29.220
322.45	31.741
322.81	29.748
323.18	31.021
323.54	31.911
323.91	32.642
324.27	32.218
324.64	30.662
325.00	30.929
325.37	33.121
325.73	33.752
326.10	33.363
326.46	33.333
326.83	33.909
327.19	34.927
327.56	34.756
327.92	35.783
328.29	37.799
328.65	36.372
329.01	35.289
329.38	36.540
329.74	37.581
330.11	37.418
330.47	37.833
330.84	39.430
331.20	37.705
331.56	38.440
331.93	39.259
332.29	39.130
332.66	38.761
333.02	38.574
333.38	40.379
333.75	41.355
334.11	39.235
334.48	39.752
334.84	39.430
335.20	40.545
335.57	40.073
335.93	38.929
336.29	39.469
336.66	39.675
337.02	39.548
337.38	39.907
337.75	39.394
338.11	40.286
338.47	40.884
338.84	40.330
339.20	40.642
339.56	42.153
339.93	41.182
340.29	40.851
340.65	39.840
341.02	41.361
341.38	41.904
341.74	40.877
342.11	41.747
342.47	40.969
342.83	41.353
343.20	42.251
343.56	40.607
343.92	41.140
344.28	41.667
344.65	42.046
345.01	40.909
345.37	40.909
345.73	41.878
346.10	41.944
346.46	40.254
346.82	42.586
347.19	41.437
347.55	40.476
347.91	42.557
348.27	42.482
348.63	42.224
349.00	40.858
349.36	41.708
349.72	40.176
350.08	41.896
350.45	43.043
350.81	42.892
351.17	42.707
351.53	42.179
351.89	41.419
352.26	43.410
352.62	43.304
352.98	42.707
353.34	42.399
353.70	43.126
354.07	42.581
354.43	41.190
354.79	43.121
355.15	41.580
355.51	44.365
355.87	43.265
356.24	43.893
356.60	41.941
356.96	43.926
357.32	44.317
357.68	45.354
358.04	42.993
358.40	42.597
358.77	42.645
359.13	42.857
359.49	42.745
359.85	43.254
360.21	43.780
360.57	44.436
360.93	44.769
361.29	42.782
361.66	43.963
362.02	44.104
362.38	44.030
362.74	43.676
363.10	43.153
363.46	44.754
363.82	44.747
364.18	43.245
364.54	45.617
364.90	45.467
365.26	45.221
365.62	45.946
365.98	44.923
366.35	43.840
366.71	44.469
367.07	45.302
367.43	45.428
367.79	45.253
368.15	46.480
368.51	45.567
368.87	45.539
369.23	47.037
369.59	45.619
369.95	45.294
370.31	45.513
370.67	44.710
371.03	46.816
371.39	46.064
371.75	46.618
372.11	46.017
372.47	46.554
372.83	47.478
373.19	45.737
373.55	46.859
373.91	48.454
374.27	46.117
374.63	47.927
374.99	47.952
375.35	47.104
375.71	46.744
376.07	48.011
376.42	48.006
376.78	47.515
377.14	48.168
377.50	47.947
377.86	47.673
378.22	47.598
378.58	46.867
378.94	48.146
379.30	47.455
379.66	49.492
380.02	47.727
380.38	46.995
380.74	49.220
381.09	48.594
381.45	48.986
381.81	48.403
382.17	47.643
382.53	48.239
382.89	48.951
383.25	49.343
383.61	49.195
383.97	49.906
384.32	47.973
384.68	48.141
385.04	49.478
385.40	48.050
385.76	48.894
386.12	49.028
386.48	49.717
386.83	49.711
387.19	49.536
387.55	49.103
387.91	49.879
388.27	49.295
388.62	49.846
388.98	49.263
389.34	49.374
389.70	48.743
390.06	49.556
390.42	50.324
390.77	49.809
391.13	50.351
391.49	49.302
391.85	49.077
392.20	49.464
392.56	49.747
392.92	50.206
393.28	48.521
393.64	50.779
393.99	48.809
394.35	49.566
394.71	49.686
395.07	48.100
395.42	50.247
395.78	49.746
396.14	49.348
396.50	50.815
396.85	48.887
397.21	48.459
397.57	48.915
397.92	48.618
398.28	48.487
398.64	49.821
399.00	48.797
399.35	48.787
399.71	50.116
400.07	49.793
400.42	49.080
400.78	50.060
401.14	49.939
401.49	49.373
401.85	49.365
402.21	47.425
402.57	47.995
402.92	49.622
403.28	47.720
403.63	48.762
403.99	49.554
404.35	49.758
404.70	48.561
405.06	48.631
405.42	48.846
405.77	48.000
406.13	49.097
406.49	47.960
406.84	48.139
407.20	47.400
407.55	48.309
407.91	50.200
408.27	49.521
408.62	47.682
408.98	48.958
409.34	48.401
409.69	48.968
410.05	47.770
410.40	49.174
410.76	47.611
411.11	48.492
411.47	47.796
411.83	47.892
412.18	47.186
412.54	48.007
412.89	48.133
413.25	46.458
413.60	48.240
413.96	47.177
414.31	48.603
414.67	47.338
415.03	47.550
415.38	48.003
415.74	48.682
416.09	48.661
416.45	48.193
416.80	47.852
417.16	47.654
417.51	48.772
417.87	46.564
418.22	47.129
418.58	47.966
418.93	47.912
419.29	49.013
419.64	46.285
420.00	46.585
420.35	45.449
420.71	48.595
421.06	47.494
421.42	47.018
421.77	46.020
422.12	45.424
422.48	45.818
422.83	47.175
423.19	46.409
423.54	47.940
423.90	47.130
424.25	46.622
424.61	45.833
424.96	46.414
425.31	46.456
425.67	45.281
426.02	47.029
426.38	47.375
426.73	46.050
427.09	46.444
427.44	45.946
427.79	46.118
428.15	45.357
428.50	46.343
428.85	46.186
429.21	45.224
429.56	45.205
429.92	45.949
430.27	45.482
430.62	45.008
430.98	44.525
431.33	44.588
431.68	45.916
432.04	44.409
432.39	45.174
432.74	45.482
433.10	46.237
433.45	45.539
433.80	45.787
434.16	45.513
434.51	44.737
434.86	44.527
435.22	45.025
435.57	44.195
435.92	44.763
436.28	45.492
436.63	44.978
436.98	44.533
437.34	45.558
437.69	45.449
438.04	44.744
438.39	44.478
438.75	45.729
439.10	45.363
439.45	44.687
439.81	45.196
440.16	44.720
440.51	45.929
440.86	44.239
441.22	44.994
441.57	44.427
441.92	44.268
442.27	44.187
442.63	43.391
442.98	44.901
443.33	43.478
443.68	43.108
444.03	43.631
444.39	43.135
444.74	43.669
445.09	43.720
445.44	43.084
445.79	42.999
446.15	43.409
446.50	43.942
446.85	43.165
447.20	43.192
447.55	43.495
447.91	42.802
448.26	42.738
448.61	42.793
448.96	43.466
449.31	43.532
449.66	42.431
450.02	43.120
450.37	42.460
450.72	42.245
451.07	42.169
451.42	41.884
451.77	42.513
452.12	42.436
452.47	41.978
452.83	42.890
453.18	43.337
453.53	42.919
453.88	42.942
454.23	42.140
454.58	41.975
454.93	43.166
455.28	41.521
455.63	42.840
455.98	43.155
456.34	41.834
456.69	42.642
457.04	42.477
457.39	41.438
457.74	41.672
458.09	41.978
458.44	41.676
458.79	40.510
459.14	41.704
459.49	41.681
459.84	41.108
460.19	42.074
460.54	40.046
460.89	41.690
461.24	41.409
461.59	42.533
461.94	41.060
462.29	43.027
462.64	42.183
462.99	40.859
463.34	41.933
463.69	40.901
464.04	40.696
464.39	40.580
464.74	40.879
465.09	39.566
465.44	39.945
465.79	39.374
466.14	40.011
466.49	39.155
466.84	40.397
467.19	40.616
467.54	41.062
467.89	40.456
468.24	41.070
468.59	41.331
468.94	39.401
469.29	40.810
469.64	41.031
469.99	40.189
470.34	40.423
470.68	40.805
471.03	40.136
471.38	41.904
471.73	40.040
472.08	40.592
472.43	39.008
472.78	39.895
473.13	39.217
473.48	40.137
473.83	40.000
474.17	38.146
474.52	39.826
474.87	39.171
475.22	38.712
475.57	38.796
475.92	39.299
476.27	38.670
476.61	38.445
476.96	39.637
477.31	39.142
477.66	39.880
478.01	38.003
478.36	38.815
478.70	38.370
479.05	39.084
479.40	38.946
479.75	38.434
480.10	38.022
480.45	37.125
480.79	36.646
481.14	37.671
481.49	37.684
481.84	37.631
482.19	37.256
482.53	37.156
482.88	38.204
483.23	37.804
483.58	37.079
483.92	37.395
484.27	37.124
484.62	36.767
484.97	36.303
485.31	36.678
485.66	34.440
486.01	34.340
486.36	33.419
486.70	33.364
487.05	34.055
487.40	34.959
487.75	35.186
488.09	35.578
488.44	35.857
488.79	37.071
489.13	36.555
489.48	35.237
489.83	35.779
490.17	36.782
490.52	35.252
490.87	36.454
491.22	35.425
491.56	35.399
491.91	36.342
492.26	35.599
492.60	35.899
492.95	34.471
493.30	35.841
493.64	35.091
493.99	35.515
494.34	35.338
494.68	37.179
495.03	35.526
495.37	34.760
495.72	35.819
496.07	35.963
496.41	33.938
496.76	35.356
497.11	35.164
497.45	35.119
497.80	35.125
498.14	34.879
498.49	35.659
498.84	35.043
499.18	35.095
499.53	35.233
499.87	34.623
500.22	33.961
500.56	35.631
500.91	34.375
501.26	35.183
501.60	35.596
501.95	34.143
502.29	35.052
502.64	34.963
502.98	34.315
503.33	33.181
503.67	34.896
504.02	34.051
504.36	34.628
504.71	34.294
505.06	35.084
505.40	33.884
505.75	33.992
506.09	34.742
506.44	33.498
506.78	34.584
507.13	34.124
507.47	34.646
507.82	34.752
508.16	34.650
508.51	35.464
508.85	33.664
509.19	34.694
509.54	34.031
509.88	34.209
510.23	33.470
510.57	35.604
510.92	34.283
511.26	34.738
511.61	33.817
511.95	33.820
512.30	34.305
512.64	33.745
512.98	34.191
513.33	34.529
513.67	34.205
514.02	33.712
514.36	33.643
514.70	34.588
515.05	34.244
515.39	33.988
515.74	33.896
516.08	33.594
516.42	34.517
516.77	35.284
517.11	34.129
517.46	34.368
517.80	33.740
518.14	33.526
518.49	35.006
518.83	34.148
519.17	34.007
519.52	34.861
519.86	34.056
520.20	33.815
520.55	35.129
520.89	35.341
521.23	34.801
521.58	33.914
521.92	34.783
522.26	33.740
522.61	34.517
522.95	33.640
523.29	33.597
523.64	33.780
523.98	34.689
524.32	33.052
524.66	32.772
525.01	33.578
525.35	33.395
525.69	34.667
526.04	33.956
526.38	33.740
526.72	32.761
527.06	34.463
527.41	31.683
527.75	34.662
528.09	34.746
528.43	34.162
528.78	33.128
529.12	34.364
529.46	33.068
529.80	33.416
530.15	33.583
530.49	33.108
530.83	33.671
531.17	34.465
531.51	34.760
531.86	33.032
532.20	33.703
532.54	32.735
532.88	32.863
533.22	32.417
533.57	32.407
533.91	32.270
534.25	32.685
534.59	32.825
534.93	32.600
535.27	32.227
535.62	32.723
535.96	32.015
536.30	32.359
536.64	32.904
536.98	32.847
537.32	32.192
537.66	33.200
538.01	32.785
538.35	32.450
538.69	32.419
539.03	33.073
539.37	31.949
539.71	30.784
540.05	32.680
540.39	32.625
540.73	32.471
541.07	33.550
541.42	32.746
541.76	32.452
542.10	32.018
542.44	32.119
542.78	33.794
543.12	31.158
543.46	31.869
543.80	32.336
544.14	31.065
544.48	31.683
544.82	31.110
545.16	31.490
545.50	31.105
545.84	31.183
546.18	31.717
546.52	33.448
546.86	31.271
547.20	31.827
547.54	32.532
547.88	31.633
548.22	30.760
548.56	31.195
548.90	31.434
549.24	31.650
549.58	32.196
549.92	31.250
550.26	32.173
550.60	30.775
550.94	32.113
551.28	31.163
551.62	30.769
551.96	31.158
552.30	32.218
552.64	32.319
552.98	32.271
553.32	31.490
553.66	31.902
554.00	31.572
554.34	31.332
554.68	32.475
555.02	31.453
555.36	31.524
555.69	30.311
556.03	31.629
556.37	30.900
556.71	30.764
557.05	31.303
557.39	30.861
557.73	31.052
558.07	31.907
558.41	30.753
558.75	30.786
559.08	32.289
559.42	32.653
559.76	31.691
560.10	30.407
560.44	31.586
560.78	31.071
561.12	30.079
561.45	30.052
561.79	29.730
562.13	30.986
562.47	31.148
562.81	31.172
563.15	29.833
563.48	29.973
563.82	30.137
564.16	30.477
564.50	30.469
564.84	29.456
565.17	30.824
565.51	30.735
565.85	30.203
566.19	29.242
566.52	30.272
566.86	29.596
567.20	29.835
567.54	29.566
567.88	29.115
568.21	28.677
568.55	28.817
568.89	28.356
569.23	27.941
569.56	28.138
569.90	27.019
570.24	27.628
570.57	27.032
570.91	26.632
571.25	26.498
571.59	26.834
571.92	27.304
572.26	26.950
572.60	27.147
572.93	27.196
573.27	27.240
573.61	26.884
573.95	27.209
574.28	26.508
574.62	26.531
574.96	26.714
575.29	26.237
575.63	26.778
575.97	26.738
576.30	27.483
576.64	26.459
576.98	26.641
577.31	26.340
577.65	25.885
577.98	25.895
578.32	26.092
578.66	26.289
578.99	26.615
579.33	26.943
579.67	26.466
580.00	26.349
580.34	26.649
580.67	26.306
581.01	26.040
581.35	25.936
581.68	25.776
582.02	25.765
582.35	25.461
582.69	25.848
583.02	25.926
583.36	26.631
583.70	27.073
584.03	26.829
584.37	26.798
584.70	26.620
585.04	26.027
585.37	26.235
585.71	26.527
586.04	26.190
586.38	26.620
586.72	26.678
587.05	26.324
587.39	25.251
587.72	26.205
588.06	26.147
588.39	26.475
588.73	26.577
589.06	26.831
589.40	27.071
589.73	26.892
590.07	26.690
590.40	26.416
590.73	27.518
591.07	27.513
591.40	27.457
591.74	28.268
592.07	26.963
592.41	26.995
592.74	26.891
593.08	26.216
593.41	26.511
593.75	25.671
594.08	26.517
594.41	26.688
594.75	26.433
595.08	26.127
595.42	26.795
595.75	26.318
596.09	26.962
596.42	26.523
596.75	27.269
597.09	27.879
597.42	26.391
597.75	26.822
598.09	26.913
598.42	26.804
598.76	26.024
599.09	25.618
599.42	26.710
599.76	25.988
600.09	26.084
600.42	26.041
600.76	25.679
601.09	25.719
601.42	26.332
601.76	26.376
602.09	26.245
602.42	26.592
602.76	26.642
603.09	26.279
603.42	26.982
603.76	25.953
604.09	25.902
604.42	26.131
604.76	26.276
605.09	26.387
605.42	26.635
605.75	26.076
606.09	25.783
606.42	26.073
606.75	26.296
607.09	26.873
607.42	26.829
607.75	26.203
608.08	26.704
608.42	26.625
608.75	26.826
609.08	26.642
609.41	25.892
609.75	26.632
610.08	26.673
610.41	25.559
610.74	26.774
611.07	26.581
611.41	26.055
611.74	26.848
612.07	26.708
612.40	27.387
612.73	26.579
613.07	27.425
613.40	26.488
613.73	25.800
614.06	26.452
614.39	26.062
614.72	26.684
615.06	26.681
615.39	26.699
615.72	25.665
616.05	25.890
616.38	26.793
616.71	27.138
617.05	27.032
617.38	26.458
617.71	27.087
618.04	26.743
618.37	26.079
618.70	26.260
619.03	27.763
619.36	27.970
619.69	27.676
620.03	27.953
620.36	26.872
620.69	27.877
621.02	27.802
621.35	28.896
621.68	27.726
622.01	26.858
622.34	27.761
622.67	27.148
623.00	26.999
623.33	26.233
623.66	27.448
623.99	27.320
624.32	27.104
624.65	27.119
624.99	26.487
625.32	26.068
625.65	28.024
625.98	27.364
626.31	28.072
626.64	28.653
626.97	28.180
627.30	26.850
627.63	27.400
627.96	28.175
628.29	28.084
628.62	28.179
628.95	29.811
629.28	28.193
629.61	28.414
629.94	27.810
630.26	28.408
630.59	29.457
630.92	28.831
