SpectraSuite Data File
++++++++++++++++++++++++++++++++++++
Date: Wed May 13 20:37:05 PDT 2015
User: schluterlab
Dark Spectrum Present: Yes
Reference Spectrum Present: Yes
Number of Sampled Component Spectra: 1
Spectrometers: USB2E3373
Integration Time (usec): 3000 (USB2E3373)
Spectra Averaged: 3 (USB2E3373)
Boxcar Smoothing: 0 (USB2E3373)
Correct for Electrical Dark: No (USB2E3373)
Strobe/Lamp Enabled: No (USB2E3373)
Correct for Detector Non-linearity: No (USB2E3373)
Correct for Stray Light: No (USB2E3373)
Number of Pixels in Processed Spectrum: 2048
>>>>>Begin Processed Spectral Data<<<<<
178.53	0.000
178.91	-1050.000
179.29	-1050.000
179.67	-122.222
180.04	-1025.000
180.42	2350.000
180.80	840.000
181.18	-750.000
181.56	557.143
181.94	0.000
182.31	-471.429
182.69	1366.667
183.07	-550.000
183.45	-277.778
183.83	363.636
184.20	-230.000
184.58	1550.000
184.96	4400.000
185.34	-460.000
185.72	-462.500
186.09	-1400.000
186.47	1800.000
186.85	1900.000
187.23	3000.000
187.61	-1200.000
187.98	1225.000
188.36	454.545
188.74	300.000
189.12	-480.000
189.49	460.000
189.87	-3700.000
190.25	-775.000
190.63	278.571
191.00	315.385
191.38	616.667
191.76	-925.000
192.14	1000.000
192.51	437.500
192.89	733.333
193.27	350.000
193.65	-975.000
194.02	410.000
194.40	520.000
194.78	510.000
195.15	366.667
195.53	490.000
195.91	-1500.000
196.29	275.000
196.66	252.632
197.04	-170.000
197.42	0.000
197.79	450.000
198.17	-3600.000
198.55	414.286
198.92	500.000
199.30	600.000
199.68	0.000
200.05	233.333
200.43	414.286
200.81	2600.000
201.18	1100.000
201.56	-1066.667
201.94	366.667
202.31	400.000
202.69	283.333
203.07	410.000
203.44	0.000
203.82	1100.000
204.19	614.286
204.57	378.571
204.95	525.000
205.32	1233.333
205.70	381.818
206.08	278.571
206.45	2150.000
206.83	243.750
207.20	616.667
207.58	420.000
207.96	238.889
208.33	487.500
208.71	-533.333
209.08	542.857
209.46	411.111
209.84	254.545
210.21	-1000.000
210.59	1025.000
210.96	-350.000
211.34	1900.000
211.71	520.000
212.09	716.667
212.46	0.000
212.84	1400.000
213.22	1125.000
213.59	-4000.000
213.97	733.333
214.34	600.000
214.72	481.818
215.09	760.000
215.47	-1800.000
215.84	-1950.000
216.22	1166.667
216.59	300.000
216.97	1050.000
217.34	336.364
217.72	-433.333
218.09	0.000
218.47	-3000.000
218.84	511.111
219.22	457.143
219.59	1400.000
219.97	-400.000
220.34	700.000
220.72	-1133.333
221.09	300.000
221.47	1000.000
221.84	-750.000
222.22	0.000
222.59	1100.000
222.97	-2350.000
223.34	740.000
223.72	338.462
224.09	920.000
224.46	1550.000
224.84	-3600.000
225.21	-580.000
225.59	-3600.000
225.96	430.000
226.34	210.000
226.71	2300.000
227.08	562.500
227.46	460.000
227.83	-825.000
228.21	-1650.000
228.58	411.111
228.95	-2100.000
229.33	-2000.000
229.70	1400.000
230.08	642.857
230.45	-540.000
230.82	308.333
231.20	566.667
231.57	542.857
231.95	366.667
232.32	254.545
232.69	272.727
233.07	342.857
233.44	176.923
233.81	-1100.000
234.19	200.000
234.56	266.667
234.93	250.000
235.31	245.455
235.68	207.692
236.05	235.714
236.43	160.606
236.80	184.211
237.17	2500.000
237.55	190.476
237.92	146.429
238.29	219.048
238.67	116.129
239.04	144.828
239.41	100.000
239.79	93.478
240.16	107.143
240.53	90.909
240.91	74.510
241.28	90.000
241.65	92.000
242.02	85.507
242.40	48.387
242.77	70.000
243.14	63.441
243.51	64.045
243.89	57.647
244.26	50.000
244.63	46.237
245.00	45.745
245.38	57.426
245.75	48.598
246.12	32.110
246.49	48.905
246.87	46.400
247.24	49.231
247.61	37.857
247.98	37.255
248.36	33.108
248.73	44.586
249.10	40.764
249.47	38.418
249.84	40.642
250.22	35.829
250.59	33.136
250.96	39.394
251.33	30.806
251.70	35.149
252.08	35.714
252.45	32.735
252.82	33.043
253.19	32.340
253.56	36.863
253.94	31.950
254.31	26.953
254.68	31.923
255.05	31.365
255.42	30.894
255.79	29.412
256.16	31.408
256.54	27.562
256.91	32.384
257.28	25.180
257.65	31.353
258.02	29.814
258.39	29.338
258.76	26.756
259.14	29.464
259.51	26.444
259.88	26.087
260.25	26.586
260.62	26.879
260.99	24.224
261.36	28.529
261.73	25.215
262.10	26.744
262.47	25.634
262.85	27.298
263.22	25.071
263.59	29.060
263.96	25.275
264.33	23.499
264.70	23.947
265.07	29.668
265.44	25.253
265.81	24.331
266.18	25.628
266.55	24.146
266.92	23.587
267.29	25.000
267.66	25.688
268.03	23.864
268.40	24.533
268.77	23.389
269.14	22.748
269.51	25.508
269.88	25.641
270.25	24.831
270.62	26.742
270.99	26.452
271.36	26.180
271.73	25.234
272.10	24.348
272.47	24.946
272.84	23.160
273.21	25.367
273.58	20.087
273.95	22.432
274.32	21.281
274.69	23.555
275.06	20.472
275.43	24.255
275.80	22.846
276.17	24.033
276.54	23.493
276.91	24.308
277.28	22.070
277.65	23.017
278.02	22.981
278.39	25.195
278.76	24.727
279.13	21.887
279.50	22.160
279.87	20.120
280.23	22.754
280.60	21.277
280.97	19.963
281.34	23.894
281.71	23.818
282.08	21.305
282.45	22.000
282.82	21.137
283.19	18.360
283.56	22.456
283.92	20.135
284.29	20.282
284.66	20.508
285.03	22.966
285.40	19.718
285.77	20.034
286.14	22.625
286.51	21.833
286.87	19.829
287.24	20.684
287.61	20.385
287.98	19.968
288.35	20.444
288.72	19.315
289.08	18.936
289.45	20.099
289.82	19.675
290.19	19.466
290.56	19.449
290.93	17.372
291.29	20.245
291.66	17.847
292.03	19.041
292.40	20.117
292.77	18.639
293.13	20.448
293.50	17.493
293.87	17.185
294.24	18.074
294.60	16.448
294.97	17.297
295.34	18.477
295.71	19.318
296.08	16.097
296.44	17.607
296.81	17.701
297.18	18.157
297.55	14.644
297.91	16.491
298.28	17.938
298.65	18.538
299.02	16.469
299.38	17.264
299.75	13.881
300.12	15.453
300.48	15.750
300.85	15.413
301.22	15.159
301.59	15.530
301.95	18.010
302.32	16.431
302.69	13.740
303.05	16.000
303.42	14.198
303.79	15.629
304.15	14.103
304.52	14.716
304.89	15.563
305.25	14.269
305.62	14.949
305.99	16.175
306.35	14.653
306.72	14.798
307.09	15.871
307.45	15.991
307.82	14.844
308.19	15.894
308.55	15.965
308.92	15.897
309.29	14.256
309.65	13.998
310.02	14.799
310.38	15.054
310.75	14.995
311.12	15.251
311.48	14.525
311.85	15.514
312.22	15.401
312.58	14.865
312.95	16.790
313.31	14.563
313.68	15.593
314.05	16.568
314.41	14.874
314.78	15.005
315.14	15.690
315.51	16.066
315.87	16.733
316.24	15.094
316.61	15.595
316.97	16.047
317.34	14.971
317.70	16.922
318.07	16.458
318.43	17.319
318.80	18.369
319.16	18.362
319.53	18.386
319.89	18.571
320.26	18.800
320.62	19.544
320.99	19.293
321.35	20.404
321.72	19.405
322.08	20.039
322.45	20.697
322.81	20.446
323.18	21.869
323.54	21.150
323.91	22.642
324.27	22.371
324.64	21.156
325.00	21.371
325.37	22.839
325.73	23.788
326.10	24.184
326.46	24.821
326.83	23.986
327.19	25.534
327.56	24.826
327.92	25.809
328.29	26.531
328.65	25.506
329.01	25.993
329.38	26.920
329.74	27.886
330.11	27.238
330.47	27.640
330.84	28.493
331.20	27.869
331.56	29.174
331.93	29.074
332.29	29.193
332.66	30.265
333.02	29.799
333.38	30.894
333.75	30.303
334.11	30.338
334.48	30.257
334.84	30.607
335.20	29.909
335.57	30.553
335.93	29.107
336.29	29.762
336.66	29.576
337.02	29.955
337.38	31.574
337.75	30.481
338.11	31.692
338.47	32.597
338.84	32.356
339.20	31.009
339.56	33.212
339.93	32.091
340.29	32.065
340.65	31.640
341.02	33.682
341.38	33.363
341.74	32.982
342.11	35.022
342.47	32.775
342.83	32.363
343.20	34.026
343.56	33.951
343.92	32.982
344.28	33.418
344.65	34.308
345.01	33.586
345.37	33.190
345.73	34.010
346.10	35.891
346.46	34.915
346.82	34.349
347.19	34.503
347.55	33.826
347.91	35.275
348.27	35.168
348.63	35.284
349.00	34.304
349.36	35.057
349.72	35.605
350.08	34.441
350.45	36.452
350.81	35.093
351.17	35.981
351.53	35.381
351.89	35.561
352.26	36.306
352.62	34.964
352.98	35.008
353.34	36.565
353.70	36.088
354.07	36.371
354.43	35.556
354.79	36.122
355.15	36.712
355.51	38.050
355.87	37.388
356.24	37.378
356.60	37.530
356.96	37.490
357.32	37.040
357.68	37.480
358.04	37.530
358.40	37.292
358.77	36.620
359.13	38.674
359.49	38.118
359.85	37.063
360.21	38.596
360.57	39.066
360.93	37.692
361.29	37.188
361.66	38.003
362.02	38.955
362.38	37.643
362.74	38.839
363.10	37.602
363.46	37.271
363.82	39.531
364.18	36.784
364.54	38.707
364.90	38.810
365.26	39.485
365.62	40.394
365.98	39.956
366.35	37.249
366.71	37.889
367.07	38.674
367.43	40.203
367.79	39.400
368.15	39.871
368.51	38.517
368.87	40.328
369.23	39.064
369.59	40.478
369.95	39.265
370.31	38.889
370.67	39.928
371.03	40.974
371.39	39.577
371.75	40.074
372.11	38.265
372.47	40.396
372.83	41.427
373.19	39.017
373.55	40.503
373.91	41.163
374.27	39.863
374.63	40.364
374.99	39.972
375.35	38.172
375.71	40.164
376.07	40.672
376.42	40.371
376.78	40.358
377.14	40.163
377.50	40.331
377.86	39.561
378.22	41.087
378.58	39.098
378.94	40.415
379.30	38.613
379.66	40.609
380.02	40.602
380.38	39.951
380.74	40.816
381.09	40.220
381.45	40.811
381.81	39.926
382.17	40.255
382.53	40.000
382.89	40.741
383.25	40.775
383.61	41.388
383.97	40.713
384.32	39.863
384.68	40.458
385.04	40.750
385.40	40.124
385.76	39.312
386.12	40.609
386.48	42.102
386.83	41.244
387.19	41.682
387.55	40.816
387.91	41.052
388.27	40.834
388.62	40.750
388.98	40.663
389.34	41.427
389.70	41.018
390.06	40.748
390.42	41.310
390.77	39.631
391.13	40.715
391.49	39.657
391.85	40.165
392.20	39.495
392.56	39.962
392.92	40.906
393.28	39.231
393.64	39.628
393.99	40.684
394.35	39.888
394.71	39.272
395.07	39.439
395.42	41.780
395.78	40.204
396.14	38.982
396.50	41.165
396.85	40.178
397.21	40.382
397.57	39.740
397.92	39.543
398.28	38.789
398.64	39.188
399.00	40.515
399.35	38.691
399.71	38.368
400.07	38.971
400.42	38.957
400.78	38.540
401.14	38.659
401.49	39.403
401.85	39.564
402.21	37.904
402.57	37.261
402.92	38.840
403.28	37.789
403.63	38.490
403.99	38.726
404.35	38.364
404.70	38.669
405.06	37.857
405.42	38.428
405.77	37.829
406.13	36.456
406.49	37.079
406.84	37.685
407.20	35.520
407.55	36.950
407.91	37.867
408.27	37.652
408.62	36.364
408.98	36.336
409.34	36.839
409.69	36.516
410.05	36.555
410.40	36.697
410.76	36.738
411.11	36.369
411.47	36.038
411.83	36.591
412.18	36.364
412.54	34.932
412.89	35.663
413.25	36.128
413.60	35.578
413.96	35.398
414.31	35.419
414.67	35.551
415.03	35.762
415.38	35.503
415.74	34.855
416.09	35.924
416.45	35.074
416.80	35.757
417.16	35.992
417.51	35.103
417.87	33.269
418.22	35.521
418.58	35.442
418.93	34.582
419.29	34.755
419.64	34.950
420.00	33.720
420.35	33.797
420.71	33.951
421.06	33.950
421.42	33.099
421.77	34.305
422.12	33.240
422.48	33.189
422.83	33.780
423.19	32.431
423.54	34.185
423.90	34.319
424.25	32.663
424.61	32.321
424.96	33.469
425.31	33.278
425.67	32.303
426.02	32.286
426.38	33.822
426.73	33.177
427.09	33.131
427.44	32.375
427.79	32.432
428.15	33.214
428.50	31.539
428.85	32.420
429.21	31.033
429.56	32.608
429.92	31.605
430.27	32.026
430.62	30.876
430.98	31.292
431.33	31.598
431.68	31.675
432.04	30.937
432.39	31.296
432.74	31.418
433.10	30.673
433.45	31.603
433.80	32.095
434.16	30.235
434.51	31.105
434.86	30.730
435.22	31.073
435.57	30.699
435.92	30.837
436.28	31.079
436.63	30.464
436.98	29.536
437.34	31.246
437.69	30.338
438.04	29.961
438.39	30.209
438.75	31.377
439.10	30.726
439.45	31.287
439.81	30.272
440.16	29.249
440.51	29.233
440.86	29.415
441.22	29.477
441.57	29.671
441.92	29.734
442.27	29.010
442.63	28.805
442.98	30.366
443.33	29.239
443.68	28.601
444.03	29.283
444.39	28.286
444.74	29.600
445.09	28.949
445.44	28.868
445.79	28.600
446.15	28.904
446.50	28.379
446.85	28.366
447.20	28.302
447.55	28.476
447.91	28.240
448.26	28.158
448.61	28.547
448.96	28.682
449.31	28.628
449.66	27.631
450.02	27.744
450.37	27.834
450.72	27.975
451.07	26.996
451.42	26.565
451.77	27.716
452.12	27.136
452.47	27.363
452.83	26.632
453.18	27.384
453.53	27.767
453.88	26.167
454.23	26.958
454.58	26.590
454.93	27.845
455.28	26.060
455.63	26.760
455.98	27.679
456.34	27.387
456.69	27.176
457.04	26.254
457.39	25.833
457.74	26.465
458.09	26.222
458.44	26.112
458.79	25.759
459.14	25.508
459.49	26.036
459.84	25.319
460.19	25.751
460.54	24.479
460.89	25.178
461.24	25.562
461.59	25.625
461.94	24.969
462.29	26.053
462.64	25.080
462.99	24.528
463.34	25.067
463.69	24.578
464.04	24.812
464.39	24.870
464.74	24.599
465.09	24.487
465.44	23.490
465.79	24.329
466.14	23.919
466.49	23.860
466.84	23.935
467.19	24.200
467.54	23.625
467.89	23.049
468.24	24.200
468.59	24.115
468.94	23.152
469.29	23.843
469.64	23.494
469.99	23.613
470.34	23.910
470.68	23.348
471.03	21.905
471.38	23.697
471.73	24.051
472.08	24.211
472.43	23.116
472.78	22.383
473.13	23.171
473.48	22.784
473.83	22.988
474.17	22.402
474.52	23.387
474.87	22.709
475.22	22.867
475.57	22.676
475.92	22.623
476.27	22.041
476.61	22.504
476.96	22.320
477.31	22.397
477.66	22.757
478.01	21.380
478.36	21.946
478.70	21.547
479.05	21.832
479.40	22.671
479.75	22.064
480.10	21.720
480.45	21.180
480.79	20.210
481.14	21.135
481.49	20.883
481.84	21.125
482.19	20.309
482.53	21.239
482.88	20.847
483.23	21.075
483.58	21.474
483.92	20.150
484.27	19.695
484.62	20.000
484.97	19.511
485.31	19.760
485.66	19.149
486.01	18.552
486.36	18.563
486.70	19.052
487.05	18.629
487.40	18.973
487.75	19.633
488.09	19.017
488.44	19.079
488.79	19.168
489.13	19.290
489.48	19.209
489.83	19.249
490.17	19.772
490.52	19.132
490.87	19.132
491.22	19.600
491.56	18.952
491.91	19.218
492.26	19.247
492.60	19.078
492.95	18.990
493.30	19.065
493.64	18.292
493.99	18.431
494.34	19.241
494.68	19.322
495.03	20.113
495.37	18.986
495.72	19.152
496.07	19.722
496.41	18.717
496.76	18.865
497.11	18.685
497.45	18.817
497.80	19.338
498.14	18.744
498.49	18.585
498.84	18.648
499.18	18.381
499.53	18.898
499.87	18.267
500.22	18.512
500.56	19.029
500.91	18.413
501.26	18.255
501.60	19.032
501.95	18.653
502.29	18.885
502.64	18.482
502.98	18.326
503.33	17.962
503.67	18.422
504.02	18.288
504.36	18.577
504.71	17.733
505.06	17.831
505.40	17.647
505.75	17.551
506.09	17.979
506.44	18.747
506.78	17.925
507.13	18.324
507.47	18.535
507.82	18.186
508.16	17.275
508.51	18.316
508.85	18.073
509.19	18.010
509.54	17.755
509.88	17.774
510.23	18.098
510.57	19.040
510.92	18.022
511.26	18.345
511.61	18.672
511.95	17.589
512.30	18.187
512.64	18.109
512.98	18.757
513.33	18.630
513.67	18.356
514.02	17.532
514.36	18.296
514.70	17.764
515.05	17.066
515.39	18.172
515.74	18.694
516.08	19.285
516.42	18.036
516.77	18.673
517.11	18.368
517.46	18.736
517.80	18.757
518.14	16.966
518.49	18.145
518.83	17.784
519.17	18.072
519.52	18.166
519.86	17.513
520.20	18.497
520.55	18.312
520.89	17.944
521.23	17.973
521.58	18.307
521.92	17.942
522.26	17.999
522.61	17.882
522.95	17.557
523.29	18.624
523.64	18.415
523.98	17.807
524.32	18.335
524.66	18.400
525.01	17.831
525.35	17.162
525.69	17.488
526.04	18.505
526.38	18.182
526.72	17.853
527.06	18.267
527.41	16.770
527.75	17.621
528.09	17.662
528.43	18.101
528.78	18.009
529.12	17.879
529.46	17.514
529.80	18.317
530.15	18.069
530.49	16.492
530.83	18.165
531.17	18.081
531.51	18.223
531.86	17.806
532.20	18.318
532.54	17.873
532.88	17.651
533.22	18.114
533.57	17.346
533.91	17.219
534.25	17.801
534.59	16.901
534.93	16.954
535.27	17.260
535.62	17.766
535.96	18.393
536.30	16.402
536.64	17.836
536.98	17.850
537.32	17.248
537.66	17.267
538.01	18.170
538.35	17.259
538.69	17.932
539.03	16.894
539.37	16.550
539.71	15.684
540.05	17.386
540.39	16.811
540.73	16.559
541.07	17.521
541.42	17.547
541.76	16.839
542.10	17.723
542.44	17.086
542.78	17.984
543.12	16.891
543.46	17.115
543.80	17.372
544.14	15.725
544.48	17.206
544.82	16.549
545.16	17.632
545.50	16.902
545.84	17.137
546.18	17.778
546.52	17.894
546.86	16.838
547.20	17.532
547.54	16.700
547.88	17.985
548.22	17.621
548.56	17.107
548.90	16.389
549.24	16.633
549.58	16.849
549.92	16.277
550.26	16.264
550.60	16.113
550.94	16.901
551.28	16.825
551.62	16.966
551.96	16.140
552.30	18.294
552.64	17.444
552.98	17.627
553.32	17.599
553.66	16.701
554.00	17.021
554.34	17.322
554.68	16.667
555.02	16.784
555.36	17.258
555.69	16.712
556.03	16.891
556.37	16.439
556.71	15.757
557.05	16.597
557.39	16.235
557.73	15.667
558.07	16.824
558.41	17.077
558.75	16.458
559.08	18.046
559.42	16.780
559.76	16.324
560.10	15.917
560.44	16.422
560.78	16.567
561.12	17.084
561.45	16.362
561.79	17.073
562.13	16.164
562.47	17.077
562.81	16.527
563.15	15.920
563.48	17.175
563.82	16.177
564.16	16.220
564.50	16.016
564.84	16.877
565.17	16.667
565.51	15.974
565.85	15.990
566.19	15.341
566.52	15.643
566.86	15.250
567.20	16.509
567.54	15.868
567.88	15.046
568.21	16.296
568.55	15.066
568.89	15.467
569.23	14.929
569.56	14.899
569.90	15.358
570.24	14.783
570.57	14.723
570.91	14.027
571.25	14.021
571.59	14.256
571.92	14.487
572.26	14.009
572.60	14.444
572.93	14.183
573.27	14.789
573.61	14.545
573.95	14.238
574.28	13.945
574.62	13.970
574.96	13.668
575.29	14.113
575.63	14.050
575.97	14.189
576.30	13.941
576.64	13.697
576.98	13.904
577.31	13.909
577.65	14.093
577.98	13.812
578.32	13.423
578.66	14.025
578.99	13.696
579.33	13.774
579.67	13.306
580.00	14.025
580.34	13.787
580.67	13.803
581.01	13.897
581.35	13.582
581.68	13.316
582.02	13.329
582.35	13.599
582.69	13.947
583.02	13.413
583.36	14.065
583.70	13.462
584.03	13.767
584.37	14.150
584.70	13.689
585.04	13.919
585.37	13.863
585.71	13.886
586.04	13.892
586.38	14.107
586.72	14.250
587.05	13.909
587.39	13.588
587.72	13.862
588.06	13.794
588.39	14.239
588.73	14.080
589.06	14.117
589.40	13.838
589.73	14.185
590.07	14.270
590.40	13.738
590.73	14.637
591.07	15.059
591.40	14.466
591.74	15.065
592.07	14.791
592.41	14.841
592.74	14.157
593.08	13.924
593.41	13.920
593.75	13.835
594.08	13.644
594.41	14.104
594.75	14.048
595.08	14.316
595.42	14.431
595.75	14.138
596.09	14.532
596.42	14.617
596.75	14.268
597.09	14.848
597.42	13.617
597.75	13.842
598.09	14.435
598.42	14.046
598.76	13.620
599.09	14.139
599.42	14.483
599.76	13.799
600.09	14.026
600.42	13.988
600.76	13.321
601.09	14.208
601.42	14.041
601.76	14.459
602.09	13.715
602.42	14.729
602.76	14.470
603.09	14.398
603.42	14.799
603.76	13.948
604.09	13.920
604.42	14.187
604.76	14.256
605.09	14.417
605.42	13.938
605.75	14.487
606.09	13.542
606.42	14.221
606.75	14.019
607.09	14.190
607.42	13.479
607.75	13.924
608.08	13.634
608.42	14.254
608.75	14.518
609.08	14.061
609.41	14.898
609.75	13.959
610.08	14.420
610.41	13.873
610.74	13.718
611.07	14.526
611.41	14.917
611.74	14.379
612.07	14.337
612.40	14.690
612.73	13.947
613.07	14.547
613.40	14.587
613.73	14.106
614.06	15.484
614.39	14.945
614.72	14.474
615.06	14.758
615.39	14.862
615.72	14.673
616.05	13.663
616.38	14.564
616.71	14.964
617.05	15.312
617.38	14.552
617.71	14.835
618.04	14.784
618.37	14.134
618.70	14.686
619.03	15.329
619.36	14.936
619.69	15.141
620.03	15.591
620.36	15.642
620.69	15.890
621.02	15.560
621.35	15.348
621.68	14.953
622.01	15.015
622.34	15.658
622.67	15.741
623.00	15.407
623.33	14.582
623.66	14.939
623.99	15.169
624.32	15.621
624.65	15.819
624.99	14.518
625.32	14.627
625.65	14.726
625.98	14.988
626.31	16.019
626.64	15.510
626.97	14.464
627.30	15.212
627.63	16.079
627.96	16.569
628.29	15.311
628.62	16.011
628.95	16.981
629.28	15.967
629.61	15.765
629.94	15.714
630.26	16.206
630.59	15.729
630.92	16.475
631.25	14.610
