SpectraSuite Data File
++++++++++++++++++++++++++++++++++++
Date: Wed May 13 20:31:26 PDT 2015
User: schluterlab
Dark Spectrum Present: Yes
Reference Spectrum Present: Yes
Number of Sampled Component Spectra: 1
Spectrometers: USB2E3373
Integration Time (usec): 3000 (USB2E3373)
Spectra Averaged: 3 (USB2E3373)
Boxcar Smoothing: 0 (USB2E3373)
Correct for Electrical Dark: No (USB2E3373)
Strobe/Lamp Enabled: No (USB2E3373)
Correct for Detector Non-linearity: No (USB2E3373)
Correct for Stray Light: No (USB2E3373)
Number of Pixels in Processed Spectrum: 2048
>>>>>Begin Processed Spectral Data<<<<<
178.53	0.000
178.91	-1175.000
179.29	-1075.000
179.67	-177.778
180.04	-950.000
180.42	1650.000
180.80	820.000
181.18	-725.000
181.56	585.714
181.94	0.000
182.31	-500.000
182.69	1233.333
183.07	-400.000
183.45	-444.444
183.83	400.000
184.20	-300.000
184.58	1850.000
184.96	4100.000
185.34	-620.000
185.72	-500.000
186.09	-1800.000
186.47	2050.000
186.85	1800.000
187.23	4300.000
187.61	-1366.667
187.98	1150.000
188.36	427.273
188.74	336.364
189.12	-620.000
189.49	360.000
189.87	-3600.000
190.25	-675.000
190.63	292.857
191.00	384.615
191.38	650.000
191.76	-850.000
192.14	1100.000
192.51	387.500
192.89	933.333
193.27	475.000
193.65	-750.000
194.02	370.000
194.40	780.000
194.78	430.000
195.15	400.000
195.53	490.000
195.91	-1700.000
196.29	275.000
196.66	257.895
197.04	-190.000
197.42	0.000
197.79	480.000
198.17	-4500.000
198.55	542.857
198.92	512.500
199.30	560.000
199.68	0.000
200.05	272.222
200.43	514.286
200.81	3700.000
201.18	1233.333
201.56	-1300.000
201.94	444.444
202.31	444.444
202.69	358.333
203.07	500.000
203.44	0.000
203.82	1025.000
204.19	657.143
204.57	364.286
204.95	537.500
205.32	966.667
205.70	418.182
206.08	278.571
206.45	2300.000
206.83	256.250
207.20	733.333
207.58	500.000
207.96	283.333
208.33	525.000
208.71	-650.000
209.08	600.000
209.46	488.889
209.84	372.727
210.21	-1133.333
210.59	1000.000
210.96	-412.500
211.34	1900.000
211.71	500.000
212.09	650.000
212.46	0.000
212.84	1333.333
213.22	975.000
213.59	-3700.000
213.97	650.000
214.34	585.714
214.72	490.909
215.09	640.000
215.47	-1600.000
215.84	-1700.000
216.22	1033.333
216.59	314.286
216.97	1050.000
217.34	363.636
217.72	-466.667
218.09	0.000
218.47	-4300.000
218.84	500.000
219.22	657.143
219.59	1033.333
219.97	-385.714
220.34	740.000
220.72	-966.667
221.09	314.286
221.47	1025.000
221.84	-783.333
222.22	0.000
222.59	975.000
222.97	-1950.000
223.34	900.000
223.72	330.769
224.09	980.000
224.46	1800.000
224.84	-2900.000
225.21	-860.000
225.59	-3300.000
225.96	450.000
226.34	285.000
226.71	1900.000
227.08	487.500
227.46	470.000
227.83	-775.000
228.21	-1550.000
228.58	433.333
228.95	-1950.000
229.33	-1500.000
229.70	1200.000
230.08	571.429
230.45	-720.000
230.82	291.667
231.20	500.000
231.57	642.857
231.95	391.667
232.32	181.818
232.69	345.455
233.07	514.286
233.44	300.000
233.81	-1200.000
234.19	268.421
234.56	375.000
234.93	258.333
235.31	309.091
235.68	269.231
236.05	292.857
236.43	121.212
236.80	178.947
237.17	3000.000
237.55	152.381
237.92	167.857
238.29	204.762
238.67	135.484
239.04	175.862
239.41	136.111
239.79	108.696
240.16	121.429
240.53	93.182
240.91	80.392
241.28	88.000
241.65	86.000
242.02	81.159
242.40	75.806
242.77	83.333
243.14	72.043
243.51	66.292
243.89	61.176
244.26	56.667
244.63	59.140
245.00	58.511
245.38	56.436
245.75	56.075
246.12	44.037
246.49	57.664
246.87	55.200
247.24	53.846
247.61	52.143
247.98	48.366
248.36	35.135
248.73	44.586
249.10	49.682
249.47	41.243
249.84	45.455
250.22	42.246
250.59	39.053
250.96	43.434
251.33	43.128
251.70	44.059
252.08	40.476
252.45	37.220
252.82	33.478
253.19	40.851
253.56	33.725
253.94	37.344
254.31	34.375
254.68	35.000
255.05	35.793
255.42	34.959
255.79	37.500
256.16	35.018
256.54	33.922
256.91	36.655
257.28	35.612
257.65	33.333
258.02	32.298
258.39	35.016
258.76	30.769
259.14	34.821
259.51	32.219
259.88	29.503
260.25	34.743
260.62	29.480
260.99	29.193
261.36	33.634
261.73	31.805
262.10	26.744
262.47	34.085
262.85	30.919
263.22	28.205
263.59	35.613
263.96	26.374
264.33	27.676
264.70	31.053
265.07	33.248
265.44	29.545
265.81	28.710
266.18	29.397
266.55	30.000
266.92	27.027
267.29	29.167
267.66	29.587
268.03	28.636
268.40	31.308
268.77	26.730
269.14	27.928
269.51	27.540
269.88	31.002
270.25	27.088
270.62	26.966
270.99	31.613
271.36	27.682
271.73	30.841
272.10	28.478
272.47	29.247
272.84	29.654
273.21	31.237
273.58	26.201
273.95	24.109
274.32	25.413
274.69	27.837
275.06	24.606
275.43	27.872
275.80	28.056
276.17	25.866
276.54	28.274
276.91	27.273
277.28	29.297
277.65	26.112
278.02	27.122
278.39	27.930
278.76	24.545
279.13	26.604
279.50	27.933
279.87	28.486
280.23	25.349
280.60	25.145
280.97	25.693
281.34	24.425
281.71	28.727
282.08	26.679
282.45	26.909
282.82	26.998
283.19	26.025
283.56	25.789
283.92	26.058
284.29	23.104
284.66	25.590
285.03	25.859
285.40	23.592
285.77	24.411
286.14	24.525
286.51	26.000
286.87	26.154
287.24	27.199
287.61	23.917
287.98	24.351
288.35	24.406
288.72	24.143
289.08	25.039
289.45	23.394
289.82	23.089
290.19	20.408
290.56	22.818
290.93	22.356
291.29	23.313
291.66	23.009
292.03	25.145
292.40	24.229
292.77	23.077
293.13	22.388
293.50	22.157
293.87	20.593
294.24	21.333
294.60	19.942
294.97	22.674
295.34	23.695
295.71	21.733
296.08	20.228
296.44	22.008
296.81	19.947
297.18	20.867
297.55	18.997
297.91	19.393
298.28	22.490
298.65	20.888
299.02	22.134
299.38	20.584
299.75	19.137
300.12	20.562
300.48	20.375
300.85	20.099
301.22	19.236
301.59	17.677
301.95	20.151
302.32	20.154
302.69	19.713
303.05	19.273
303.42	19.259
303.79	20.385
304.15	17.483
304.52	18.076
304.89	18.235
305.25	18.794
305.62	19.932
305.99	19.362
306.35	18.904
306.72	19.170
307.09	20.089
307.45	18.919
307.82	18.192
308.19	19.647
308.55	19.094
308.92	18.690
309.29	19.007
309.65	18.346
310.02	18.816
310.38	18.925
310.75	18.691
311.12	19.038
311.48	19.122
311.85	19.602
312.22	19.563
312.58	20.270
312.95	21.119
313.31	19.903
313.68	20.478
314.05	22.387
314.41	19.598
314.78	20.745
315.14	20.655
315.51	20.803
315.87	20.891
316.24	21.351
316.61	21.248
316.97	20.939
317.34	22.114
317.70	21.893
318.07	22.329
318.43	23.190
318.80	22.399
319.16	23.635
319.53	23.358
319.89	23.905
320.26	24.100
320.62	24.008
320.99	24.646
321.35	23.737
321.72	24.230
322.08	25.568
322.45	28.856
322.81	27.616
323.18	28.227
323.54	25.603
323.91	27.453
324.27	26.864
324.64	27.027
325.00	26.871
325.37	28.207
325.73	28.995
326.10	28.685
326.46	28.584
326.83	30.112
327.19	29.633
327.56	29.530
327.92	31.234
328.29	30.080
328.65	30.110
329.01	31.318
329.38	31.822
329.74	31.210
330.11	31.574
330.47	31.497
330.84	31.526
331.20	31.512
331.56	32.844
331.93	31.667
332.29	32.032
332.66	31.593
333.02	31.170
333.38	32.159
333.75	31.462
334.11	32.295
334.48	31.766
334.84	31.801
335.20	32.727
335.57	33.182
335.93	31.607
336.29	32.326
336.66	33.454
337.02	30.407
337.38	32.593
337.75	31.462
338.11	32.229
338.47	33.149
338.84	32.997
339.20	30.917
339.56	34.489
339.93	31.909
340.29	32.428
340.65	33.066
341.02	31.937
341.38	33.185
341.74	33.070
342.11	33.974
342.47	33.040
342.83	33.390
343.20	32.468
343.56	33.193
343.92	32.281
344.28	33.078
344.65	33.706
345.01	32.576
345.37	32.333
345.73	34.349
346.10	33.248
346.46	32.966
346.82	32.290
347.19	32.749
347.55	33.169
347.91	33.010
348.27	34.511
348.63	34.114
349.00	32.362
349.36	31.609
349.72	32.157
350.08	32.577
350.45	33.360
350.81	32.088
351.17	33.468
351.53	32.105
351.89	32.591
352.26	32.202
352.62	32.799
352.98	32.982
353.34	32.703
353.70	31.669
354.07	34.032
354.43	32.619
354.79	32.743
355.15	33.599
355.51	33.893
355.87	34.286
356.24	32.899
356.60	33.440
356.96	33.548
357.32	33.197
357.68	33.543
358.04	33.096
358.40	33.333
358.77	33.099
359.13	33.465
359.49	34.824
359.85	31.587
360.21	33.413
360.57	33.541
360.93	34.462
361.29	33.711
361.66	34.830
362.02	33.955
362.38	34.525
362.74	34.673
363.10	32.568
363.46	33.089
363.82	34.769
364.18	33.554
364.54	35.438
364.90	33.215
365.26	34.926
365.62	34.770
365.98	34.112
366.35	34.384
366.71	34.201
367.07	34.232
367.43	34.470
367.79	35.546
368.15	35.991
368.51	34.593
368.87	35.403
369.23	34.967
369.59	35.844
369.95	35.221
370.31	34.402
370.67	34.855
371.03	35.805
371.39	36.735
371.75	36.103
372.11	35.135
372.47	35.630
372.83	35.231
373.19	36.199
373.55	35.477
373.91	37.040
374.27	36.495
374.63	34.909
374.99	36.864
375.35	35.450
375.71	35.093
376.07	36.145
376.42	37.070
376.78	36.183
377.14	36.228
377.50	36.623
377.86	36.104
378.22	36.346
378.58	35.213
378.94	36.392
379.30	36.832
379.66	36.485
380.02	36.671
380.38	35.823
380.74	36.675
381.09	37.531
381.45	37.308
381.81	37.776
382.17	35.987
382.53	37.736
382.89	37.593
383.25	36.836
383.61	37.051
383.97	37.461
384.32	36.182
384.68	36.927
385.04	36.878
385.40	37.523
385.76	37.039
386.12	37.694
386.48	37.571
386.83	38.358
387.19	37.477
387.55	37.724
387.91	36.941
388.27	36.971
388.62	38.353
388.98	36.671
389.34	37.985
389.70	37.830
390.06	38.657
390.42	37.678
390.77	38.295
391.13	39.566
391.49	38.008
391.85	38.001
392.20	37.792
392.56	38.005
392.92	37.964
393.28	37.692
393.64	37.710
393.99	37.141
394.35	38.089
394.71	37.829
395.07	37.508
395.42	38.319
395.78	37.786
396.14	37.368
396.50	38.534
396.85	39.224
397.21	38.348
397.57	38.376
397.92	37.740
398.28	37.388
398.64	37.097
399.00	37.717
399.35	37.056
399.71	37.326
400.07	37.788
400.42	38.037
400.78	38.299
401.14	37.866
401.49	37.970
401.85	37.750
402.21	37.485
402.57	38.742
402.92	38.651
403.28	38.976
403.63	38.181
403.99	37.707
404.35	37.333
404.70	38.249
405.06	38.847
405.42	38.553
405.77	36.971
406.13	37.698
406.49	37.907
406.84	37.685
407.20	37.825
407.55	38.098
407.91	38.467
408.27	38.609
408.62	37.929
408.98	38.603
409.34	37.700
409.69	37.484
410.05	36.245
410.40	37.615
410.76	38.232
411.11	37.515
411.47	38.083
411.83	37.813
412.18	37.972
412.54	37.796
412.89	37.651
413.25	37.662
413.60	37.863
413.96	36.916
414.31	37.971
414.67	36.375
415.03	38.079
415.38	37.758
415.74	37.685
416.09	39.386
416.45	37.684
416.80	37.409
417.16	39.678
417.51	38.686
417.87	37.893
418.22	37.981
418.58	38.218
418.93	38.022
419.29	36.792
419.64	38.098
420.00	38.841
420.35	37.797
420.71	37.956
421.06	37.947
421.42	37.836
421.77	38.341
422.12	37.395
422.48	37.345
422.83	37.682
423.19	38.287
423.54	37.899
423.90	37.507
424.25	38.693
424.61	37.560
424.96	38.367
425.31	37.486
425.67	36.742
426.02	36.629
426.38	38.523
426.73	37.039
427.09	37.325
427.44	37.320
427.79	37.033
428.15	36.786
428.50	37.273
428.85	37.485
429.21	38.045
429.56	36.703
429.92	37.242
430.27	36.792
430.62	37.122
430.98	37.935
431.33	37.474
431.68	38.063
432.04	37.433
432.39	38.321
432.74	37.283
433.10	37.521
433.45	37.843
433.80	37.472
434.16	37.767
434.51	37.947
434.86	38.540
435.22	37.076
435.57	37.386
435.92	37.858
436.28	37.841
436.63	37.748
436.98	38.122
437.34	39.237
437.69	38.798
438.04	37.662
438.39	37.552
438.75	37.130
439.10	37.207
439.45	38.253
439.81	37.583
440.16	37.549
440.51	37.376
440.86	37.753
441.22	36.986
441.57	37.102
441.92	38.792
442.27	37.567
442.63	37.757
442.98	38.592
443.33	36.739
443.68	37.894
444.03	37.482
444.39	36.076
444.74	37.500
445.09	37.412
445.44	38.436
445.79	37.704
446.15	37.692
446.50	37.588
446.85	36.948
447.20	37.022
447.55	38.470
447.91	37.783
448.26	37.229
448.61	37.592
448.96	37.597
449.31	37.514
449.66	36.410
450.02	36.992
450.37	36.508
450.72	36.266
451.07	37.416
451.42	35.866
451.77	37.346
452.12	36.952
452.47	36.878
452.83	38.054
453.18	37.103
453.53	37.662
453.88	37.448
454.23	36.760
454.58	37.008
454.93	37.508
455.28	38.279
455.63	38.350
455.98	38.512
456.34	38.003
456.69	37.758
457.04	37.585
457.39	37.463
457.74	37.667
458.09	36.975
458.44	37.286
458.79	35.900
459.14	36.964
459.49	37.186
459.84	36.565
460.19	36.771
460.54	35.475
460.89	37.191
461.24	37.523
461.59	37.653
461.94	37.423
462.29	38.457
462.64	37.013
462.99	36.630
463.34	36.400
463.69	36.585
464.04	37.159
464.39	36.696
464.74	36.364
465.09	36.610
465.44	36.288
465.79	35.626
466.14	36.672
466.49	34.872
466.84	36.544
467.19	35.486
467.54	37.062
467.89	36.555
468.24	36.126
468.59	36.874
468.94	35.247
469.29	36.440
469.64	37.483
469.99	37.145
470.34	36.262
470.68	36.638
471.03	36.599
471.38	36.831
471.73	36.909
472.08	36.711
472.43	35.930
472.78	37.656
473.13	36.008
473.48	35.518
473.83	36.280
474.17	36.092
474.52	36.290
474.87	36.194
475.22	35.287
475.57	34.551
475.92	35.157
476.27	35.569
476.61	35.135
476.96	35.569
477.31	35.583
477.66	35.120
478.01	34.553
478.36	35.325
478.70	36.345
479.05	35.676
479.40	34.340
479.75	35.435
480.10	34.294
480.45	34.079
480.79	34.257
481.14	34.589
481.49	34.884
481.84	34.294
482.19	34.212
482.53	35.229
482.88	34.853
483.23	34.019
483.58	34.668
483.92	34.396
484.27	33.028
484.62	33.190
484.97	33.544
485.31	32.842
485.66	30.973
486.01	30.103
486.36	30.712
486.70	31.314
487.05	32.431
487.40	32.712
487.75	32.585
488.09	34.122
488.44	33.622
488.79	34.322
489.13	34.186
489.48	33.320
489.83	33.060
490.17	33.406
490.52	33.658
490.87	33.062
491.22	32.924
491.56	31.617
491.91	33.411
492.26	32.889
492.60	32.673
492.95	32.928
493.30	32.850
493.64	32.571
493.99	31.848
494.34	33.256
494.68	33.013
495.03	32.002
495.37	33.039
495.72	33.382
496.07	33.364
496.41	31.327
496.76	32.058
497.11	31.878
497.45	31.719
497.80	32.342
498.14	32.367
498.49	32.927
498.84	32.502
499.18	32.333
499.53	32.289
499.87	31.780
500.22	32.077
500.56	33.252
500.91	31.779
501.26	31.437
501.60	32.368
501.95	31.714
502.29	32.193
502.64	32.309
502.98	30.715
503.33	31.764
503.67	31.137
504.02	31.478
504.36	31.025
504.71	32.145
505.06	32.771
505.40	31.794
505.75	31.485
506.09	30.758
506.44	31.179
506.78	32.002
507.13	31.146
507.47	32.273
507.82	32.067
508.16	31.510
508.51	31.811
508.85	30.636
509.19	31.173
509.54	30.918
509.88	30.191
510.23	31.620
510.57	32.301
510.92	31.072
511.26	31.244
511.61	31.328
511.95	29.958
512.30	30.541
512.64	31.381
512.98	30.975
513.33	31.049
513.67	31.430
514.02	31.061
514.36	31.458
514.70	30.935
515.05	30.898
515.39	31.632
515.74	31.700
516.08	31.470
516.42	31.188
516.77	31.438
517.11	30.300
517.46	30.418
517.80	31.707
518.14	30.805
518.49	30.805
518.83	30.227
519.17	31.178
519.52	30.334
519.86	30.633
520.20	31.908
520.55	31.358
520.89	32.056
521.23	32.027
521.58	30.852
521.92	31.660
522.26	29.713
522.61	30.280
522.95	30.448
523.29	31.102
523.64	30.732
523.98	30.561
524.32	30.700
524.66	30.667
525.01	30.821
525.35	29.430
525.69	30.911
526.04	31.526
526.38	30.750
526.72	30.245
527.06	30.320
527.41	28.837
527.75	29.968
528.09	31.214
528.43	30.274
528.78	29.871
529.12	29.879
529.46	30.618
529.80	29.889
530.15	31.153
530.49	30.462
530.83	31.076
531.17	30.483
531.51	31.128
531.86	30.452
532.20	30.313
532.54	31.518
532.88	29.718
533.22	29.919
533.57	30.000
533.91	29.320
534.25	28.858
534.59	29.225
534.93	28.852
535.27	29.209
535.62	29.609
535.96	29.755
536.30	29.371
536.64	29.749
536.98	29.728
537.32	28.637
537.66	29.867
538.01	30.151
538.35	30.317
538.69	29.738
539.03	28.850
539.37	28.818
539.71	28.516
540.05	28.889
540.39	29.900
540.73	29.237
541.07	29.851
541.42	29.289
541.76	30.323
542.10	28.590
542.44	29.007
542.78	29.842
543.12	27.767
543.46	29.180
543.80	28.757
544.14	27.407
544.48	28.889
544.82	28.287
545.16	28.692
545.50	28.021
545.84	28.427
546.18	28.620
546.52	28.975
546.86	28.454
547.20	28.591
547.54	28.858
547.88	28.827
548.22	27.273
548.56	27.673
548.90	27.465
549.24	28.283
549.58	28.786
549.92	28.503
550.26	28.764
550.60	28.008
550.94	27.535
551.28	28.164
551.62	28.253
551.96	27.018
552.30	28.259
552.64	28.803
552.98	28.136
553.32	27.579
553.66	27.062
554.00	27.797
554.34	27.674
554.68	28.684
555.02	27.645
555.36	27.209
555.69	26.522
556.03	27.254
556.37	27.217
556.71	26.603
557.05	27.171
557.39	26.872
557.73	27.594
558.07	27.556
558.41	27.496
558.75	27.847
559.08	28.039
559.42	27.816
559.76	28.015
560.10	26.695
560.44	27.184
560.78	25.948
561.12	27.243
561.45	27.119
561.79	26.236
562.13	26.358
562.47	27.527
562.81	27.197
563.15	26.355
563.48	27.188
563.82	27.006
564.16	27.011
564.50	26.042
564.84	25.980
565.17	25.547
565.51	26.581
565.85	25.888
566.19	26.425
566.52	25.776
566.86	25.136
567.20	26.474
567.54	26.084
567.88	24.823
568.21	26.085
568.55	25.581
568.89	25.243
569.23	24.421
569.56	24.291
569.90	24.113
570.24	23.825
570.57	23.801
570.91	23.626
571.25	23.286
571.59	23.417
571.92	23.185
572.26	23.628
572.60	24.084
572.93	23.838
573.27	23.602
573.61	23.702
573.95	23.798
574.28	23.141
574.62	22.983
574.96	22.318
575.29	22.333
575.63	23.044
575.97	23.353
576.30	23.420
576.64	22.795
576.98	22.363
577.31	23.128
577.65	22.714
577.98	22.598
578.32	22.260
578.66	22.767
578.99	22.826
579.33	22.876
579.67	22.720
580.00	22.632
580.34	23.161
580.67	22.264
581.01	22.712
581.35	21.763
581.68	21.592
582.02	21.497
582.35	22.224
582.69	22.608
583.02	22.348
583.36	23.127
583.70	23.726
584.03	22.701
584.37	23.241
584.70	23.145
585.04	22.334
585.37	22.204
585.71	22.039
586.04	22.566
586.38	22.727
586.72	23.308
587.05	22.141
587.39	22.401
587.72	22.443
588.06	22.759
588.39	22.963
588.73	22.558
589.06	23.247
589.40	23.199
589.73	22.809
590.07	22.847
590.40	22.981
590.73	23.653
591.07	23.362
591.40	23.366
591.74	23.723
592.07	22.949
592.41	22.985
592.74	22.022
593.08	21.652
593.41	21.702
593.75	21.424
594.08	22.159
594.41	22.552
594.75	22.329
595.08	22.620
595.42	22.067
595.75	22.222
596.09	23.395
596.42	23.340
596.75	22.794
597.09	23.983
597.42	22.091
597.75	22.467
598.09	22.826
598.42	22.036
598.76	21.727
599.09	21.171
599.42	21.798
599.76	21.523
600.09	21.311
600.42	21.622
600.76	21.679
601.09	21.530
601.42	22.146
601.76	22.087
602.09	22.451
602.42	22.970
602.76	22.249
603.09	22.069
603.42	22.023
603.76	21.723
604.09	22.218
604.42	21.973
604.76	22.817
605.09	22.237
605.42	22.189
605.75	22.558
606.09	21.675
606.42	21.414
606.75	21.734
607.09	22.269
607.42	21.737
607.75	22.025
608.08	21.363
608.42	22.277
608.75	21.686
609.08	22.340
609.41	22.561
609.75	22.010
610.08	22.102
610.41	21.322
610.74	21.949
611.07	22.036
611.41	22.031
611.74	22.122
612.07	22.774
612.40	23.033
612.73	22.105
613.07	22.629
613.40	22.380
613.73	21.238
614.06	21.882
614.39	21.919
614.72	22.421
615.06	22.374
615.39	21.868
615.72	21.830
616.05	21.744
616.38	21.957
616.71	22.625
617.05	22.792
617.38	22.309
617.71	22.462
618.04	22.716
618.37	21.762
618.70	23.086
619.03	24.013
619.36	23.082
619.69	22.817
620.03	23.420
620.36	23.596
620.69	23.014
621.02	23.525
621.35	23.414
621.68	22.508
622.01	22.291
622.34	23.752
622.67	21.977
623.00	22.964
623.33	22.016
623.66	22.302
623.99	23.049
624.32	22.468
624.65	22.105
624.99	22.380
625.32	21.072
625.65	22.690
625.98	23.213
626.31	23.484
626.64	23.837
626.97	22.943
627.30	23.940
627.63	23.462
627.96	23.465
628.29	22.747
628.62	23.513
628.95	24.057
629.28	23.540
629.61	24.656
629.94	24.286
630.26	23.737
630.59	23.642
630.92	23.084
631.25	24.284
