SpectraSuite Data File
++++++++++++++++++++++++++++++++++++
Date: Wed May 13 20:31:02 PDT 2015
User: schluterlab
Dark Spectrum Present: Yes
Reference Spectrum Present: Yes
Number of Sampled Component Spectra: 1
Spectrometers: USB2E3373
Integration Time (usec): 3000 (USB2E3373)
Spectra Averaged: 3 (USB2E3373)
Boxcar Smoothing: 0 (USB2E3373)
Correct for Electrical Dark: No (USB2E3373)
Strobe/Lamp Enabled: No (USB2E3373)
Correct for Detector Non-linearity: No (USB2E3373)
Correct for Stray Light: No (USB2E3373)
Number of Pixels in Processed Spectrum: 2048
>>>>>Begin Processed Spectral Data<<<<<
178.53	0.000
178.91	-1125.000
179.29	-950.000
179.67	-155.556
180.04	-1125.000
180.42	1750.000
180.80	880.000
181.18	-750.000
181.56	485.714
181.94	0.000
182.31	-414.286
182.69	1400.000
183.07	-400.000
183.45	-388.889
183.83	400.000
184.20	-220.000
184.58	1900.000
184.96	4300.000
185.34	-720.000
185.72	-475.000
186.09	-1600.000
186.47	2200.000
186.85	1800.000
187.23	3700.000
187.61	-1466.667
187.98	1100.000
188.36	418.182
188.74	445.455
189.12	-720.000
189.49	480.000
189.87	-4100.000
190.25	-925.000
190.63	292.857
191.00	384.615
191.38	750.000
191.76	-800.000
192.14	1075.000
192.51	487.500
192.89	666.667
193.27	425.000
193.65	-600.000
194.02	400.000
194.40	680.000
194.78	390.000
195.15	333.333
195.53	500.000
195.91	-1800.000
196.29	318.750
196.66	263.158
197.04	-270.000
197.42	0.000
197.79	540.000
198.17	-3800.000
198.55	542.857
198.92	575.000
199.30	1000.000
199.68	0.000
200.05	244.444
200.43	600.000
200.81	3200.000
201.18	1266.667
201.56	-1033.333
201.94	422.222
202.31	477.778
202.69	316.667
203.07	420.000
203.44	0.000
203.82	1050.000
204.19	671.429
204.57	364.286
204.95	387.500
205.32	1300.000
205.70	318.182
206.08	300.000
206.45	1800.000
206.83	256.250
207.20	783.333
207.58	520.000
207.96	233.333
208.33	575.000
208.71	-650.000
209.08	728.571
209.46	422.222
209.84	436.364
210.21	-1366.667
210.59	1350.000
210.96	-325.000
211.34	2100.000
211.71	420.000
212.09	683.333
212.46	0.000
212.84	1200.000
213.22	1150.000
213.59	-2600.000
213.97	616.667
214.34	428.571
214.72	418.182
215.09	920.000
215.47	-1500.000
215.84	-1650.000
216.22	1233.333
216.59	350.000
216.97	975.000
217.34	336.364
217.72	-566.667
218.09	0.000
218.47	-4500.000
218.84	544.444
219.22	457.143
219.59	1133.333
219.97	-371.429
220.34	820.000
220.72	-1333.333
221.09	285.714
221.47	1425.000
221.84	-683.333
222.22	0.000
222.59	1100.000
222.97	-1900.000
223.34	720.000
223.72	315.385
224.09	780.000
224.46	1550.000
224.84	-4000.000
225.21	-900.000
225.59	-3800.000
225.96	350.000
226.34	240.000
226.71	1900.000
227.08	512.500
227.46	440.000
227.83	-550.000
228.21	-1550.000
228.58	511.111
228.95	-1300.000
229.33	-1550.000
229.70	1200.000
230.08	557.143
230.45	-540.000
230.82	350.000
231.20	633.333
231.57	557.143
231.95	366.667
232.32	200.000
232.69	290.909
233.07	500.000
233.44	300.000
233.81	-1300.000
234.19	273.684
234.56	366.667
234.93	283.333
235.31	354.545
235.68	238.462
236.05	271.429
236.43	142.424
236.80	205.263
237.17	3100.000
237.55	171.429
237.92	167.857
238.29	242.857
238.67	138.710
239.04	124.138
239.41	130.556
239.79	93.478
240.16	119.048
240.53	118.182
240.91	92.157
241.28	98.000
241.65	76.000
242.02	73.913
242.40	80.645
242.77	81.667
243.14	60.215
243.51	67.416
243.89	64.706
244.26	54.444
244.63	51.613
245.00	58.511
245.38	59.406
245.75	44.860
246.12	43.119
246.49	58.394
246.87	60.800
247.24	55.385
247.61	50.714
247.98	49.673
248.36	35.811
248.73	43.312
249.10	49.045
249.47	42.373
249.84	44.385
250.22	41.711
250.59	42.604
250.96	41.414
251.33	36.967
251.70	39.604
252.08	33.333
252.45	39.013
252.82	40.435
253.19	33.617
253.56	35.294
253.94	38.589
254.31	38.672
254.68	38.077
255.05	36.531
255.42	36.992
255.79	35.662
256.16	33.935
256.54	35.689
256.91	37.367
257.28	33.453
257.65	32.013
258.02	31.988
258.39	32.808
258.76	31.104
259.14	29.762
259.51	31.611
259.88	28.882
260.25	31.420
260.62	32.659
260.99	29.814
261.36	32.132
261.73	30.372
262.10	31.395
262.47	31.268
262.85	31.476
263.22	27.350
263.59	30.484
263.96	33.791
264.33	30.548
264.70	29.474
265.07	32.481
265.44	29.545
265.81	27.007
266.18	31.407
266.55	27.805
266.92	30.467
267.29	29.861
267.66	29.817
268.03	31.591
268.40	28.738
268.77	26.730
269.14	32.432
269.51	30.023
269.88	29.604
270.25	28.442
270.62	29.663
270.99	30.538
271.36	28.326
271.73	28.037
272.10	28.478
272.47	29.247
272.84	29.221
273.21	27.463
273.58	25.764
273.95	26.625
274.32	28.099
274.69	29.336
275.06	26.575
275.43	28.723
275.80	26.653
276.17	28.513
276.54	27.443
276.91	29.644
277.28	28.906
277.65	27.660
278.02	27.122
278.39	29.297
278.76	27.273
279.13	26.415
279.50	29.050
279.87	27.490
280.23	26.148
280.60	27.466
280.97	26.063
281.34	28.319
281.71	28.727
282.08	28.215
282.45	27.273
282.82	26.110
283.19	25.668
283.56	24.211
283.92	26.227
284.29	24.868
284.66	26.497
285.03	25.136
285.40	24.824
285.77	24.074
286.14	22.971
286.51	24.833
286.87	27.350
287.24	23.779
287.61	25.201
287.98	24.351
288.35	23.296
288.72	24.455
289.08	23.631
289.45	25.371
289.82	24.065
290.19	23.548
290.56	24.809
290.93	23.414
291.29	23.160
291.66	22.566
292.03	25.436
292.40	23.201
292.77	22.633
293.13	23.582
293.50	23.907
293.87	21.926
294.24	22.519
294.60	21.689
294.97	22.384
295.34	21.721
295.71	22.301
296.08	20.798
296.44	21.733
296.81	21.797
297.18	21.680
297.55	19.261
297.91	20.317
298.28	21.553
298.65	21.018
299.02	21.344
299.38	21.514
299.75	18.868
300.12	20.179
300.48	19.125
300.85	20.222
301.22	19.745
301.59	20.076
301.95	18.640
302.32	18.999
302.69	19.235
303.05	19.152
303.42	19.259
303.79	19.819
304.15	19.580
304.52	18.192
304.89	18.931
305.25	18.097
305.62	18.913
305.99	18.772
306.35	18.121
306.72	19.058
307.09	19.645
307.45	19.032
307.82	16.183
308.19	19.205
308.55	19.094
308.92	19.119
309.29	17.318
309.65	18.346
310.02	18.605
310.38	18.817
310.75	18.479
311.12	18.321
311.48	18.391
311.85	17.715
312.22	17.586
312.58	17.983
312.95	18.902
313.31	18.835
313.68	17.983
314.05	21.400
314.41	20.101
314.78	17.321
315.14	18.371
315.51	19.156
315.87	19.604
316.24	19.960
316.61	20.273
316.97	19.569
317.34	19.276
317.70	20.746
318.07	19.731
318.43	21.918
318.80	21.275
319.16	20.245
319.53	20.450
319.89	22.857
320.26	21.600
320.62	21.825
320.99	23.030
321.35	23.434
321.72	23.511
322.08	23.988
322.45	25.970
322.81	24.031
323.18	26.108
323.54	25.696
323.91	25.000
324.27	26.291
324.64	25.536
325.00	25.789
325.37	27.116
325.73	28.187
326.10	27.096
326.46	28.136
326.83	28.559
327.19	28.693
327.56	29.791
327.92	28.784
328.29	29.547
328.65	29.650
329.01	29.332
329.38	28.955
329.74	29.086
330.11	31.480
330.47	30.670
330.84	31.434
331.20	30.783
331.56	31.651
331.93	30.741
332.29	31.145
332.66	31.062
333.02	30.622
333.38	30.985
333.75	32.620
334.11	31.851
334.48	31.766
334.84	32.353
335.20	31.091
335.57	31.278
335.93	31.518
336.29	32.601
336.66	31.380
337.02	31.131
337.38	32.407
337.75	31.551
338.11	31.155
338.47	32.689
338.84	32.631
339.20	31.468
339.56	33.577
339.93	31.636
340.29	31.884
340.65	33.690
341.02	34.293
341.38	33.541
341.74	31.316
342.11	33.275
342.47	32.687
342.83	31.079
343.20	33.247
343.56	31.676
343.92	32.456
344.28	32.483
344.65	32.158
345.01	32.407
345.37	32.590
345.73	32.403
346.10	32.566
346.46	33.220
346.82	33.361
347.19	33.166
347.55	32.594
347.91	33.495
348.27	33.689
348.63	33.278
349.00	32.443
349.36	32.841
349.72	32.799
350.08	33.063
350.45	32.303
350.81	32.981
351.17	32.658
351.53	32.678
351.89	30.858
352.26	33.781
352.62	32.157
352.98	32.577
353.34	32.786
353.70	33.470
354.07	33.468
354.43	33.254
354.79	33.307
355.15	32.721
355.51	34.053
355.87	33.306
356.24	32.248
356.60	33.039
356.96	33.628
357.32	33.442
357.68	34.488
358.04	32.700
358.40	33.967
358.77	33.177
359.13	32.833
359.49	33.647
359.85	33.651
360.21	33.413
360.57	34.630
360.93	34.769
361.29	33.862
361.66	33.050
362.02	33.134
362.38	34.068
362.74	34.375
363.10	33.235
363.46	34.703
363.82	33.938
364.18	34.141
364.54	35.661
364.90	34.419
365.26	33.750
365.62	36.085
365.98	34.405
366.35	35.100
366.71	35.141
367.07	34.887
367.43	35.486
367.79	34.975
368.15	35.848
368.51	33.576
368.87	36.188
369.23	34.236
369.59	35.916
369.95	35.515
370.31	34.544
370.67	34.565
371.03	36.180
371.39	35.277
371.75	35.441
372.11	35.562
372.47	35.557
372.83	36.599
373.19	34.176
373.55	36.438
373.91	36.303
374.27	34.983
374.63	35.345
374.99	35.169
375.35	34.194
375.71	35.504
376.07	35.528
376.42	35.213
376.78	35.388
377.14	36.635
377.50	36.093
377.86	33.910
378.22	36.283
378.58	34.461
378.94	36.329
379.30	35.751
379.66	36.104
380.02	35.872
380.38	35.458
380.74	36.495
381.09	35.636
381.45	36.693
381.81	36.609
382.17	37.580
382.53	35.723
382.89	36.111
383.25	35.460
383.61	36.927
383.97	35.897
384.32	36.057
384.68	34.696
385.04	35.956
385.40	35.170
385.76	35.442
386.12	35.946
386.48	36.249
386.83	37.267
387.19	36.735
387.55	36.302
387.91	36.215
388.27	35.929
388.62	37.062
388.98	36.057
389.34	35.982
389.70	35.990
390.06	36.375
390.42	35.863
390.77	36.132
391.13	35.099
391.49	36.421
391.85	36.537
392.20	35.079
392.56	36.048
392.92	35.491
393.28	34.793
393.64	35.671
393.99	35.186
394.35	35.794
394.71	35.508
395.07	34.829
395.42	36.279
395.78	36.196
396.14	35.382
396.50	36.028
396.85	36.427
397.21	35.388
397.57	35.896
397.92	35.096
398.28	35.482
398.64	35.424
399.00	34.359
399.35	35.195
399.71	35.590
400.07	35.068
400.42	34.663
400.78	35.404
401.14	36.037
401.49	35.104
401.85	35.209
402.21	34.132
402.57	35.410
402.92	35.183
403.28	34.541
403.63	34.282
403.99	34.268
404.35	34.303
404.70	34.412
405.06	33.489
405.42	34.560
405.77	33.886
406.13	34.029
406.49	33.530
406.84	33.018
407.20	34.397
407.55	34.205
407.91	34.333
408.27	33.631
408.62	32.932
408.98	34.314
409.34	33.764
409.69	34.065
410.05	33.147
410.40	34.128
410.76	32.975
411.11	33.474
411.47	32.971
411.83	33.415
412.18	33.148
412.54	33.624
412.89	33.735
413.25	33.176
413.60	33.539
413.96	32.058
414.31	32.989
414.67	33.650
415.03	32.781
415.38	33.183
415.74	33.441
416.09	33.638
416.45	32.999
416.80	33.510
417.16	34.584
417.51	33.577
417.87	32.691
418.22	32.114
418.58	34.280
418.93	32.678
419.29	32.909
419.64	33.375
420.00	33.232
420.35	32.522
420.71	33.234
421.06	32.279
421.42	31.988
421.77	32.960
422.12	32.173
422.48	30.815
422.83	32.557
423.19	32.320
423.54	32.559
423.90	32.754
424.25	31.714
424.61	31.726
424.96	33.178
425.31	31.506
425.67	31.854
426.02	30.971
426.38	32.662
426.73	32.066
427.09	32.097
427.44	32.202
427.79	31.167
428.15	32.798
428.50	31.831
428.85	31.704
429.21	32.082
429.56	31.208
429.92	30.750
430.27	30.040
430.62	30.620
430.98	31.085
431.33	31.753
431.68	31.990
432.04	30.831
432.39	31.925
432.74	31.299
433.10	31.353
433.45	31.429
433.80	30.765
434.16	31.571
434.51	30.947
434.86	31.471
435.22	31.740
435.57	31.064
435.92	31.129
436.28	31.257
436.63	31.347
436.98	31.254
437.34	31.783
437.69	31.564
438.04	31.310
438.39	30.746
438.75	32.074
439.10	30.894
439.45	31.995
439.81	31.420
440.16	31.112
440.51	31.810
440.86	31.384
441.22	31.535
441.57	31.051
441.92	30.655
442.27	30.893
442.63	31.280
442.98	31.718
443.33	30.598
443.68	30.924
444.03	31.137
444.39	30.234
444.74	30.465
445.09	30.458
445.44	31.055
445.79	30.430
446.15	31.604
446.50	30.695
446.85	30.164
447.20	30.546
447.55	31.435
447.91	29.288
448.26	31.274
448.61	30.413
448.96	30.454
449.31	31.215
449.66	31.007
450.02	31.198
450.37	30.726
450.72	30.006
451.07	31.261
451.42	30.030
451.77	29.888
452.12	29.503
452.47	30.473
452.83	31.235
453.18	29.890
453.53	31.045
453.88	30.419
454.23	29.707
454.58	30.285
454.93	30.579
455.28	29.364
455.63	29.126
455.98	31.131
456.34	30.276
456.69	30.620
457.04	30.155
457.39	30.099
457.74	29.716
458.09	29.327
458.44	30.217
458.79	29.338
459.14	29.571
459.49	29.013
459.84	29.695
460.19	28.816
460.54	28.993
460.89	29.676
461.24	29.508
461.59	30.447
461.94	29.655
462.29	29.852
462.64	29.419
462.99	29.668
463.34	29.867
463.69	28.455
464.04	29.855
464.39	29.159
464.74	28.461
465.09	28.589
465.44	28.975
465.79	28.747
466.14	29.447
466.49	28.476
466.84	28.488
467.19	29.390
467.54	29.187
467.89	29.412
468.24	28.563
468.59	29.915
468.94	28.894
469.29	28.792
469.64	29.317
469.99	29.973
470.34	29.062
470.68	29.454
471.03	28.776
471.38	28.562
471.73	28.381
472.08	28.816
472.43	27.575
472.78	28.769
473.13	28.498
473.48	28.839
473.83	28.110
474.17	28.002
474.52	28.474
474.87	28.138
475.22	28.033
475.57	27.297
475.92	27.669
476.27	27.508
476.61	27.248
476.96	27.982
477.31	27.577
477.66	28.173
478.01	27.235
478.36	28.186
478.70	26.999
479.05	27.742
479.40	28.250
479.75	27.250
480.10	26.988
480.45	26.749
480.79	27.329
481.14	27.250
481.49	27.480
481.84	26.383
482.19	26.443
482.53	27.018
482.88	26.524
483.23	27.056
483.58	26.661
483.92	27.320
484.27	24.967
484.62	25.431
484.97	25.424
485.31	26.062
485.66	24.090
486.01	24.816
486.36	24.557
486.70	24.908
487.05	25.056
487.40	25.485
487.75	25.192
488.09	25.811
488.44	25.817
488.79	25.606
489.13	25.936
489.48	24.715
489.83	25.723
490.17	25.296
490.52	25.199
490.87	24.966
491.22	24.920
491.56	25.148
491.91	25.314
492.26	23.978
492.60	25.253
492.95	24.790
493.30	25.047
493.64	24.638
493.99	24.745
494.34	25.717
494.68	25.092
495.03	25.329
495.37	23.825
495.72	25.390
496.07	25.244
496.41	23.584
496.76	25.154
497.11	24.674
497.45	24.686
497.80	25.096
498.14	24.734
498.49	24.780
498.84	24.545
499.18	24.524
499.53	24.691
499.87	24.185
500.22	24.352
500.56	24.854
500.91	23.894
501.26	24.656
501.60	24.347
501.95	24.015
502.29	25.023
502.64	24.395
502.98	24.778
503.33	23.492
503.67	23.852
504.02	24.088
504.36	24.193
504.71	24.817
505.06	24.434
505.40	23.967
505.75	23.867
506.09	23.761
506.44	23.779
506.78	24.160
507.13	24.079
507.47	24.242
507.82	23.607
508.16	23.506
508.51	24.759
508.85	23.585
509.19	24.694
509.54	23.878
509.88	23.648
510.23	23.650
510.57	24.613
510.92	23.874
511.26	23.587
511.61	24.533
511.95	23.278
512.30	24.072
512.64	23.589
512.98	23.741
513.33	24.036
513.67	23.479
514.02	23.593
514.36	24.850
514.70	24.184
515.05	22.922
515.39	23.724
515.74	23.592
516.08	23.812
516.42	23.696
516.77	24.638
517.11	23.418
517.46	23.476
517.80	23.345
518.14	22.814
518.49	22.929
518.83	23.750
519.17	23.730
519.52	24.052
519.86	24.643
520.20	24.104
520.55	24.895
520.89	24.392
521.23	24.487
521.58	23.950
521.92	23.882
522.26	23.734
522.61	23.925
522.95	23.389
523.29	23.920
523.64	24.268
523.98	24.030
524.32	23.462
524.66	24.293
525.01	24.142
525.35	23.172
525.69	23.214
526.04	24.424
526.38	23.917
526.72	23.620
527.06	23.540
527.41	23.082
527.75	24.051
528.09	23.378
528.43	23.199
528.78	23.233
529.12	23.515
529.46	23.637
529.80	23.082
530.15	23.925
530.49	23.138
530.83	23.924
531.17	23.629
531.51	24.125
531.86	23.032
532.20	24.250
532.54	24.151
532.88	23.299
533.22	22.361
533.57	23.395
533.91	22.396
534.25	22.053
534.59	23.124
534.93	23.617
535.27	22.933
535.62	23.199
535.96	23.666
536.30	23.395
536.64	22.666
536.98	22.827
537.32	23.173
537.66	23.867
538.01	23.634
538.35	23.077
538.69	23.101
539.03	22.157
539.37	22.556
539.71	21.646
540.05	23.137
540.39	22.857
540.73	22.898
541.07	21.739
541.42	22.179
541.76	23.290
542.10	23.351
542.44	22.781
542.78	22.991
543.12	21.881
543.46	23.279
543.80	23.162
544.14	22.080
544.48	21.714
544.82	22.643
545.16	22.251
545.50	21.851
545.84	22.446
546.18	22.559
546.52	22.436
546.86	21.856
547.20	22.994
547.54	22.846
547.88	23.278
548.22	22.354
548.56	21.824
548.90	22.599
549.24	21.818
549.58	21.760
549.92	22.596
550.26	22.159
550.60	21.438
550.94	22.746
551.28	21.507
551.62	22.142
551.96	21.825
552.30	23.345
552.64	22.583
552.98	22.644
553.32	22.320
553.66	22.427
554.00	21.620
554.34	22.291
554.68	21.960
555.02	22.073
555.36	21.712
555.69	20.771
556.03	22.140
556.37	21.828
556.71	21.692
557.05	21.499
557.39	22.113
557.73	22.371
558.07	23.060
558.41	20.188
558.75	21.602
559.08	21.029
559.42	21.013
559.76	22.721
560.10	21.556
560.44	22.013
560.78	20.625
561.12	22.230
561.45	22.034
561.79	21.622
562.13	21.999
562.47	22.404
562.81	21.060
563.15	21.003
563.48	21.286
563.82	21.526
564.16	20.536
564.50	20.768
564.84	20.228
565.17	21.429
565.51	20.895
565.85	21.637
566.19	20.163
566.52	21.216
566.86	21.579
567.20	21.167
567.54	21.233
567.88	21.347
568.21	21.587
568.55	21.183
568.89	20.574
569.23	20.766
569.56	20.040
569.90	20.340
570.24	20.129
570.57	20.231
570.91	19.425
571.25	19.704
571.59	19.971
571.92	19.672
572.26	20.220
572.60	20.210
572.93	19.550
573.27	19.728
573.61	19.877
573.95	20.103
574.28	19.221
574.62	19.436
574.96	19.665
575.29	19.253
575.63	19.563
575.97	19.865
576.30	20.048
576.64	19.636
576.98	19.494
577.31	19.339
577.65	19.131
577.98	19.320
578.32	18.983
578.66	19.455
578.99	19.767
579.33	19.221
579.67	18.901
580.00	19.084
580.34	19.791
580.67	19.192
581.01	19.406
581.35	19.186
581.68	19.230
582.02	18.856
582.35	19.204
582.69	19.083
583.02	19.669
583.36	19.484
583.70	19.156
584.03	18.809
584.37	19.736
584.70	18.783
585.04	19.227
585.37	19.152
585.71	19.290
586.04	19.232
586.38	19.540
586.72	19.635
587.05	19.152
587.39	18.734
587.72	19.016
588.06	19.584
588.39	19.342
588.73	19.273
589.06	19.819
589.40	19.226
589.73	19.465
590.07	19.359
590.40	19.218
590.73	20.023
591.07	19.617
591.40	19.443
591.74	20.909
592.07	20.201
592.41	19.388
592.74	18.502
593.08	19.420
593.41	19.329
593.75	19.113
594.08	19.511
594.41	19.265
594.75	19.482
595.08	19.291
595.42	19.790
595.75	19.053
596.09	19.902
596.42	20.118
596.75	19.291
597.09	20.303
597.42	18.887
597.75	19.319
598.09	19.435
598.42	18.943
598.76	18.403
599.09	18.700
599.42	18.668
599.76	19.143
600.09	19.053
600.42	19.065
600.76	18.643
601.09	18.907
601.42	19.216
601.76	19.317
602.09	18.854
602.42	19.427
602.76	19.266
603.09	19.001
603.42	19.289
603.76	19.169
604.09	18.845
604.42	19.323
604.76	18.853
605.09	19.004
605.42	18.854
605.75	19.536
606.09	19.235
606.42	19.125
606.75	18.955
607.09	19.422
607.42	18.656
607.75	18.270
608.08	18.063
608.42	19.408
608.75	18.620
609.08	18.224
609.41	18.420
609.75	19.295
610.08	18.615
610.41	18.622
610.74	19.158
611.07	19.516
611.41	19.038
611.74	19.910
612.07	18.892
612.40	19.727
612.73	18.632
613.07	19.666
613.40	19.589
613.73	18.773
614.06	18.925
614.39	19.927
614.72	19.158
615.06	19.013
615.39	18.737
615.72	18.609
616.05	19.086
616.38	18.733
616.71	19.299
617.05	19.494
617.38	19.002
617.71	18.919
618.04	19.111
618.37	19.456
618.70	19.975
619.03	20.395
619.36	19.620
619.69	18.944
620.03	19.574
620.36	19.987
620.69	19.795
621.02	19.395
621.35	18.168
621.68	19.003
622.01	19.272
622.34	18.533
622.67	19.924
623.00	19.002
623.33	18.370
623.66	19.014
623.99	18.999
624.32	19.187
624.65	19.492
624.99	19.618
625.32	18.320
625.65	19.083
625.98	19.985
626.31	20.529
626.64	18.531
626.97	19.119
627.30	19.451
627.63	20.180
627.96	20.858
628.29	19.773
628.62	20.403
628.95	21.415
629.28	19.982
629.61	20.348
629.94	19.714
630.26	20.210
630.59	18.494
630.92	20.402
631.25	19.151
