SpectraSuite Data File
++++++++++++++++++++++++++++++++++++
Date: Wed May 13 20:36:56 PDT 2015
User: schluterlab
Dark Spectrum Present: Yes
Reference Spectrum Present: Yes
Number of Sampled Component Spectra: 1
Spectrometers: USB2E3373
Integration Time (usec): 3000 (USB2E3373)
Spectra Averaged: 3 (USB2E3373)
Boxcar Smoothing: 0 (USB2E3373)
Correct for Electrical Dark: No (USB2E3373)
Strobe/Lamp Enabled: No (USB2E3373)
Correct for Detector Non-linearity: No (USB2E3373)
Correct for Stray Light: No (USB2E3373)
Number of Pixels in Processed Spectrum: 2048
>>>>>Begin Processed Spectral Data<<<<<
178.53	0.000
178.91	-1050.000
179.29	-925.000
179.67	-144.444
180.04	-1100.000
180.42	1900.000
180.80	960.000
181.18	-650.000
181.56	400.000
181.94	0.000
182.31	-371.429
182.69	1400.000
183.07	-387.500
183.45	-355.556
183.83	372.727
184.20	-300.000
184.58	1400.000
184.96	4600.000
185.34	-640.000
185.72	-325.000
186.09	-1800.000
186.47	1950.000
186.85	1550.000
187.23	4600.000
187.61	-1533.333
187.98	1025.000
188.36	400.000
188.74	336.364
189.12	-620.000
189.49	380.000
189.87	-2700.000
190.25	-700.000
190.63	285.714
191.00	415.385
191.38	566.667
191.76	-1000.000
192.14	1325.000
192.51	587.500
192.89	683.333
193.27	475.000
193.65	-1000.000
194.02	420.000
194.40	720.000
194.78	410.000
195.15	358.333
195.53	420.000
195.91	-1750.000
196.29	256.250
196.66	221.053
197.04	-200.000
197.42	0.000
197.79	420.000
198.17	-3100.000
198.55	442.857
198.92	425.000
199.30	740.000
199.68	0.000
200.05	300.000
200.43	585.714
200.81	3100.000
201.18	1500.000
201.56	-1300.000
201.94	388.889
202.31	400.000
202.69	316.667
203.07	440.000
203.44	0.000
203.82	875.000
204.19	542.857
204.57	328.571
204.95	475.000
205.32	1133.333
205.70	400.000
206.08	335.714
206.45	2400.000
206.83	231.250
207.20	600.000
207.58	380.000
207.96	244.444
208.33	500.000
208.71	-666.667
209.08	614.286
209.46	344.444
209.84	281.818
210.21	-1000.000
210.59	1175.000
210.96	-400.000
211.34	1900.000
211.71	410.000
212.09	516.667
212.46	0.000
212.84	1166.667
213.22	1150.000
213.59	-3300.000
213.97	733.333
214.34	471.429
214.72	436.364
215.09	820.000
215.47	-1500.000
215.84	-1800.000
216.22	1066.667
216.59	350.000
216.97	950.000
217.34	363.636
217.72	-566.667
218.09	0.000
218.47	-3100.000
218.84	411.111
219.22	528.571
219.59	866.667
219.97	-514.286
220.34	660.000
220.72	-966.667
221.09	335.714
221.47	1100.000
221.84	-550.000
222.22	0.000
222.59	1050.000
222.97	-2000.000
223.34	740.000
223.72	315.385
224.09	740.000
224.46	1400.000
224.84	-3300.000
225.21	-840.000
225.59	-2800.000
225.96	480.000
226.34	190.000
226.71	2100.000
227.08	475.000
227.46	360.000
227.83	-825.000
228.21	-1750.000
228.58	377.778
228.95	-1650.000
229.33	-1700.000
229.70	1166.667
230.08	542.857
230.45	-580.000
230.82	366.667
231.20	516.667
231.57	585.714
231.95	391.667
232.32	181.818
232.69	281.818
233.07	600.000
233.44	215.385
233.81	-1533.333
234.19	236.842
234.56	350.000
234.93	275.000
235.31	400.000
235.68	215.385
236.05	350.000
236.43	151.515
236.80	194.737
237.17	3800.000
237.55	214.286
237.92	182.143
238.29	242.857
238.67	154.839
239.04	189.655
239.41	136.111
239.79	104.348
240.16	147.619
240.53	129.545
240.91	109.804
241.28	116.000
241.65	120.000
242.02	101.449
242.40	80.645
242.77	113.333
243.14	83.871
243.51	86.517
243.89	76.471
244.26	75.556
244.63	82.796
245.00	64.894
245.38	84.158
245.75	68.224
246.12	69.725
246.49	76.642
246.87	76.000
247.24	74.615
247.61	66.429
247.98	67.320
248.36	62.162
248.73	63.057
249.10	65.605
249.47	63.277
249.84	68.449
250.22	63.636
250.59	64.497
250.96	60.606
251.33	58.294
251.70	64.851
252.08	60.952
252.45	56.502
252.82	60.870
253.19	54.894
253.56	54.902
253.94	58.091
254.31	62.891
254.68	56.923
255.05	56.458
255.42	60.569
255.79	56.250
256.16	60.289
256.54	56.890
256.91	58.363
257.28	51.079
257.65	52.475
258.02	54.348
258.39	54.574
258.76	50.502
259.14	51.488
259.51	52.888
259.88	55.280
260.25	51.964
260.62	50.867
260.99	51.553
261.36	52.252
261.73	55.587
262.10	51.744
262.47	54.648
262.85	53.482
263.22	50.997
263.59	54.131
263.96	53.846
264.33	49.347
264.70	53.158
265.07	50.895
265.44	52.020
265.81	49.878
266.18	50.251
266.55	50.244
266.92	51.351
267.29	50.000
267.66	48.853
268.03	50.455
268.40	47.664
268.77	49.165
269.14	47.297
269.51	49.661
269.88	46.620
270.25	47.404
270.62	50.562
270.99	50.323
271.36	46.781
271.73	50.701
272.10	50.870
272.47	48.817
272.84	48.052
273.21	46.960
273.58	47.380
273.95	46.751
274.32	49.587
274.69	49.893
275.06	43.898
275.43	52.128
275.80	46.493
276.17	49.695
276.54	48.233
276.91	48.221
277.28	45.313
277.65	46.035
278.02	46.791
278.39	49.414
278.76	44.727
279.13	47.925
279.50	46.555
279.87	46.813
280.23	49.900
280.60	48.936
280.97	45.471
281.34	44.956
281.71	46.364
282.08	45.681
282.45	43.455
282.82	46.536
283.19	44.207
283.56	44.561
283.92	45.685
284.29	43.739
284.66	44.283
285.03	46.835
285.40	43.662
285.77	44.613
286.14	44.560
286.51	44.667
286.87	43.590
287.24	44.137
287.61	42.857
287.98	44.156
288.35	42.472
288.72	40.498
289.08	41.315
289.45	42.339
289.82	42.764
290.19	39.089
290.56	41.194
290.93	38.671
291.29	41.411
291.66	40.855
292.03	41.715
292.40	39.354
292.77	38.314
293.13	40.299
293.50	39.650
293.87	37.926
294.24	37.481
294.60	36.681
294.97	39.099
295.34	39.633
295.71	37.784
296.08	37.464
296.44	35.351
296.81	35.799
297.18	38.211
297.55	34.301
297.91	35.620
298.28	35.341
298.65	35.901
299.02	35.705
299.38	35.591
299.75	33.693
300.12	33.589
300.48	33.750
300.85	34.895
301.22	34.395
301.59	33.712
301.95	34.131
302.32	32.478
302.69	32.616
303.05	33.455
303.42	32.840
303.79	32.276
304.15	31.935
304.52	32.793
304.89	31.940
305.25	31.671
305.62	34.881
305.99	33.294
306.35	31.544
306.72	32.511
307.09	32.852
307.45	33.671
307.82	30.915
308.19	31.898
308.55	32.039
308.92	32.438
309.29	31.573
309.65	32.025
310.02	31.078
310.38	32.151
310.75	33.580
311.12	31.627
311.48	31.870
311.85	32.285
312.22	34.131
312.58	34.304
312.95	33.474
313.31	30.874
313.68	33.368
314.05	34.418
314.41	32.663
314.78	32.024
315.14	34.955
315.51	32.750
315.87	33.663
316.24	32.075
316.61	34.795
316.97	32.779
317.34	34.149
317.70	35.851
318.07	36.092
318.43	35.910
318.80	35.801
319.16	36.911
319.53	35.929
319.89	38.857
320.26	41.200
320.62	40.774
320.99	38.687
321.35	40.404
321.72	42.197
322.08	40.178
322.45	42.289
322.81	42.151
323.18	42.389
323.54	41.929
323.91	43.302
324.27	46.367
324.64	47.810
325.00	45.446
325.37	47.862
325.73	49.102
326.10	50.221
326.46	50.627
326.83	52.114
327.19	52.092
327.56	53.049
327.92	53.193
328.29	55.546
328.65	56.446
329.01	53.520
329.38	55.597
329.74	56.971
330.11	57.776
330.47	57.208
330.84	56.434
331.20	58.015
331.56	59.266
331.93	61.574
332.29	58.917
332.66	60.973
333.02	60.238
333.38	59.621
333.75	61.765
334.11	61.922
334.48	62.023
334.84	62.684
335.20	64.455
335.57	60.834
335.93	62.946
336.29	63.095
336.66	64.563
337.02	63.439
337.38	64.352
337.75	62.210
338.11	63.026
338.47	64.733
338.84	64.161
339.20	64.404
339.56	65.328
339.93	65.455
340.29	63.315
340.65	64.082
341.02	65.620
341.38	64.769
341.74	65.614
342.11	64.803
342.47	66.079
342.83	65.668
343.20	63.810
343.56	63.606
343.92	65.789
344.28	65.646
344.65	66.208
345.01	64.394
345.37	64.837
345.73	64.382
346.10	65.132
346.46	65.169
346.82	63.509
347.19	64.411
347.55	63.875
347.91	65.858
348.27	66.146
348.63	65.468
349.00	65.129
349.36	66.420
349.72	66.399
350.08	63.857
350.45	65.175
350.81	64.338
351.17	65.721
351.53	65.684
351.89	64.934
352.26	65.904
352.62	64.876
352.98	66.126
353.34	65.571
353.70	65.712
354.07	64.274
354.43	63.968
354.79	64.843
355.15	65.044
355.51	66.267
355.87	65.878
356.24	66.694
356.60	65.357
356.96	66.533
357.32	68.438
357.68	66.063
358.04	64.371
358.40	64.925
358.77	63.224
359.13	65.509
359.49	64.471
359.85	65.000
360.21	65.470
360.57	64.747
360.93	65.154
361.29	65.231
361.66	64.241
362.02	65.522
362.38	65.779
362.74	65.104
363.10	64.101
363.46	64.784
363.82	65.760
364.18	63.803
364.54	66.048
364.90	64.660
365.26	64.926
365.62	65.595
365.98	64.427
366.35	64.112
366.71	66.233
367.07	64.312
367.43	64.586
367.79	64.954
368.15	65.302
368.51	64.608
368.87	63.883
369.23	65.399
369.59	64.301
369.95	63.971
370.31	64.886
370.67	63.261
371.03	65.318
371.39	65.889
371.75	65.147
372.11	63.869
372.47	65.982
372.83	64.553
373.19	62.066
373.55	64.154
373.91	67.084
374.27	63.436
374.63	65.091
374.99	65.254
375.35	63.364
375.71	63.468
376.07	63.923
376.42	65.062
376.78	65.010
377.14	64.247
377.50	65.629
377.86	63.298
378.22	64.033
378.58	62.469
378.94	63.985
379.30	65.267
379.66	64.086
380.02	63.206
380.38	63.267
380.74	63.866
381.09	63.081
381.45	64.536
381.81	63.145
382.17	64.331
382.53	63.396
382.89	64.198
383.25	62.914
383.61	64.870
383.97	63.102
384.32	61.510
384.68	62.454
385.04	62.999
385.40	62.910
385.76	62.101
386.12	62.565
386.48	62.366
386.83	65.234
387.19	63.822
387.55	63.389
387.91	61.125
388.27	61.864
388.62	62.569
388.98	61.978
389.34	62.641
389.70	62.293
390.06	62.674
390.42	62.322
390.77	61.387
391.13	62.987
391.49	62.056
391.85	61.744
392.20	61.451
392.56	61.553
392.92	63.037
393.28	61.598
393.64	61.031
393.99	61.026
394.35	62.221
394.71	62.359
395.07	60.000
395.42	62.237
395.78	61.705
396.14	60.273
396.50	61.341
396.85	62.556
397.21	60.358
397.57	61.066
397.92	61.298
398.28	59.641
398.64	58.662
399.00	61.108
399.35	60.575
399.71	60.995
400.07	59.905
400.42	60.613
400.78	60.133
401.14	59.573
401.49	60.597
401.85	60.073
402.21	58.503
402.57	59.963
402.92	60.908
403.28	60.150
403.63	59.406
403.99	59.936
404.35	59.576
404.70	59.712
405.06	58.183
405.42	59.701
405.77	58.229
406.13	58.014
406.49	58.900
406.84	58.712
407.20	57.506
407.55	58.009
407.91	59.133
408.27	59.477
408.62	58.399
408.98	58.456
409.34	57.319
409.69	59.032
410.05	57.931
410.40	57.859
410.76	59.080
411.11	57.539
411.47	58.403
411.83	56.323
412.18	56.153
412.54	57.534
412.89	56.747
413.25	57.084
413.60	57.011
413.96	56.102
414.31	56.561
414.67	56.844
415.03	56.954
415.38	55.155
415.74	57.685
416.09	57.152
416.45	55.823
416.80	55.585
417.16	56.300
417.51	58.261
417.87	55.748
418.22	56.719
418.58	56.553
418.93	56.020
419.29	56.206
419.64	56.297
420.00	56.585
420.35	54.087
420.71	55.828
421.06	54.057
421.42	54.444
421.77	55.774
422.12	55.081
422.48	53.751
422.83	55.387
423.19	53.646
423.54	54.730
423.90	54.899
424.25	54.606
424.61	54.524
424.96	54.927
425.31	53.378
425.67	53.764
426.02	53.829
426.38	54.090
426.73	53.072
427.09	53.313
427.44	53.191
427.79	52.904
428.15	52.262
428.50	53.189
428.85	53.754
429.21	52.015
429.56	53.758
429.92	53.196
430.27	51.787
430.62	52.227
430.98	52.621
431.33	50.928
431.68	52.513
432.04	51.757
432.39	51.399
432.74	52.184
433.10	52.292
433.45	51.603
433.80	51.552
434.16	52.137
434.51	51.895
434.86	52.223
435.22	52.362
435.57	52.766
435.92	51.258
436.28	52.847
436.63	52.539
436.98	51.631
437.34	53.250
437.69	53.151
438.04	51.883
438.39	51.045
438.75	52.876
439.10	50.335
439.45	51.122
439.81	51.480
440.16	50.311
440.51	50.498
440.86	50.955
441.22	50.779
441.57	50.955
441.92	50.256
442.27	50.807
442.63	51.132
442.98	51.155
443.33	50.543
443.68	49.974
444.03	50.366
444.39	48.978
444.74	50.433
445.09	50.458
445.44	49.481
445.79	50.322
446.15	49.603
446.50	49.973
446.85	49.126
447.20	49.108
447.55	50.140
447.91	49.035
448.26	49.861
448.61	48.954
448.96	49.834
449.31	51.462
449.66	49.578
450.02	49.192
450.37	49.150
450.72	48.618
451.07	48.751
451.42	47.903
451.77	49.031
452.12	47.171
452.47	48.694
452.83	49.709
453.18	48.839
453.53	49.474
453.88	48.317
454.23	49.851
454.58	49.122
454.93	49.460
455.28	48.878
455.63	47.755
455.98	49.762
456.34	49.937
456.69	49.468
457.04	49.598
457.39	47.691
457.74	47.649
458.09	47.269
458.44	48.518
458.79	46.800
459.14	48.363
459.49	47.636
459.84	48.033
460.19	46.671
460.54	45.197
460.89	46.626
461.24	48.087
461.59	48.576
461.94	47.411
462.29	47.418
462.64	46.394
462.99	46.584
463.34	47.533
463.69	47.092
464.04	46.841
464.39	46.377
464.74	46.524
465.09	46.321
465.44	45.651
465.79	45.805
466.14	46.032
466.49	45.717
466.84	46.293
467.19	46.047
467.54	46.437
467.89	45.018
468.24	45.433
468.59	46.337
468.94	44.594
469.29	45.501
469.64	45.716
469.99	45.670
470.34	46.103
470.68	45.905
471.03	45.578
471.38	46.352
471.73	45.503
472.08	46.316
472.43	46.043
472.78	46.478
473.13	44.480
473.48	44.819
473.83	45.427
474.17	45.364
474.52	44.293
474.87	44.950
475.22	44.864
475.57	44.116
475.92	44.928
476.27	44.419
476.61	43.905
476.96	44.420
477.31	44.375
477.66	44.475
478.01	44.067
478.36	44.315
478.70	44.081
479.05	44.089
479.40	43.654
479.75	44.230
480.10	43.390
480.45	43.551
480.79	42.236
481.14	43.053
481.49	43.806
481.84	42.890
482.19	43.162
482.53	43.211
482.88	42.997
483.23	42.991
483.58	43.039
483.92	42.924
484.27	42.048
484.62	42.500
484.97	40.678
485.31	41.541
485.66	40.511
486.01	40.070
486.36	39.430
486.70	38.928
487.05	39.400
487.40	39.581
487.75	39.157
488.09	39.430
488.44	39.326
488.79	40.072
489.13	40.642
489.48	40.742
489.83	41.260
490.17	41.561
490.52	40.788
490.87	40.932
491.22	41.246
491.56	40.547
491.91	41.740
492.26	40.928
492.60	41.060
492.95	41.254
493.30	41.729
493.64	41.017
493.99	40.761
494.34	40.749
494.68	42.216
495.03	41.306
495.37	40.577
495.72	41.520
496.07	41.995
496.41	39.690
496.76	40.721
497.11	40.837
497.45	40.615
497.80	40.595
498.14	40.193
498.49	41.024
498.84	41.467
499.18	40.190
499.53	40.788
499.87	40.168
500.22	40.132
500.56	41.214
500.91	39.663
501.26	40.019
501.60	40.626
501.95	39.001
502.29	39.456
502.64	40.922
502.98	39.691
503.33	40.082
503.67	39.304
504.02	39.663
504.36	40.150
504.71	40.010
505.06	39.084
505.40	38.746
505.75	39.585
506.09	40.039
506.44	40.602
506.78	39.065
507.13	40.888
507.47	39.293
507.82	40.628
508.16	40.020
508.51	40.639
508.85	40.119
509.19	40.663
509.54	39.847
509.88	39.516
510.23	38.869
510.57	39.990
510.92	39.617
511.26	39.671
511.61	40.249
511.95	39.614
512.30	39.236
512.64	39.764
512.98	41.050
513.33	39.347
513.67	39.488
514.02	39.773
514.36	39.978
514.70	39.181
515.05	38.762
515.39	38.923
515.74	39.471
516.08	39.631
516.42	40.622
516.77	41.137
517.11	39.179
517.46	40.011
517.80	40.534
518.14	39.896
518.49	39.090
518.83	39.602
519.17	39.550
519.52	39.049
519.86	40.046
520.20	40.058
520.55	40.395
520.89	39.720
521.23	40.712
521.58	39.496
521.92	39.069
522.26	38.316
522.61	39.439
522.95	40.147
523.29	40.170
523.64	39.634
523.98	39.926
524.32	38.540
524.66	38.425
525.01	40.196
525.35	39.281
525.69	39.286
526.04	38.131
526.38	39.109
526.72	38.712
527.06	39.736
527.41	38.181
527.75	40.450
528.09	39.242
528.43	39.707
528.78	38.660
529.12	38.364
529.46	39.559
529.80	38.676
530.15	39.439
530.49	37.785
530.83	39.241
531.17	40.209
531.51	40.208
531.86	38.323
532.20	40.352
532.54	39.206
532.88	38.703
533.22	37.414
533.57	37.037
533.91	38.049
534.25	37.971
534.59	38.255
534.93	37.954
535.27	38.141
535.62	38.034
535.96	37.539
536.30	37.508
536.64	38.184
536.98	37.890
537.32	37.393
537.66	38.067
538.01	38.315
538.35	38.397
538.69	39.056
539.03	37.687
539.37	37.764
539.71	36.617
540.05	38.301
540.39	37.608
540.73	36.999
541.07	37.703
541.42	38.226
541.76	37.613
542.10	38.422
542.44	38.411
542.78	38.142
543.12	36.852
543.46	37.902
543.80	37.541
544.14	36.970
544.48	38.603
544.82	37.524
545.16	38.126
545.50	36.761
545.84	37.231
546.18	37.912
546.52	38.266
546.86	36.495
547.20	36.750
547.54	37.275
547.88	36.926
548.22	36.862
548.56	36.792
548.90	36.236
549.24	36.431
549.58	37.790
549.92	37.500
550.26	37.571
550.60	37.275
550.94	37.254
551.28	36.576
551.62	37.958
551.96	37.474
552.30	36.928
552.64	37.863
552.98	37.288
553.32	37.222
553.66	37.287
554.00	37.337
554.34	36.922
554.68	37.768
555.02	37.518
555.36	36.465
555.69	35.589
556.03	36.608
556.37	36.494
556.71	36.562
557.05	36.064
557.39	37.299
557.73	37.121
558.07	37.781
558.41	36.035
558.75	36.150
559.08	37.584
559.42	36.508
559.76	37.059
560.10	35.617
560.44	36.478
560.78	36.327
561.12	36.346
561.45	35.789
561.79	35.531
562.13	34.876
562.47	36.407
562.81	36.262
563.15	35.719
563.48	36.207
563.82	35.421
564.16	36.298
564.50	36.133
564.84	35.209
565.17	34.878
565.51	35.208
565.85	36.104
566.19	34.126
566.52	35.339
566.86	33.996
567.20	35.142
567.54	35.103
567.88	34.166
568.21	33.862
568.55	34.125
568.89	34.484
569.23	34.002
569.56	33.279
569.90	33.509
570.24	33.118
570.57	32.030
570.91	31.545
571.25	31.624
571.59	31.311
571.92	31.221
572.26	31.167
572.60	31.231
572.93	30.915
573.27	31.352
573.61	31.156
573.95	31.240
574.28	30.854
574.62	30.709
574.96	30.203
575.29	30.044
575.63	30.742
575.97	30.253
576.30	30.722
576.64	30.478
576.98	30.360
577.31	30.453
577.65	30.228
577.98	30.499
578.32	30.004
578.66	29.937
578.99	30.062
579.33	29.872
579.67	29.774
580.00	30.089
580.34	30.185
580.67	30.395
581.01	29.638
581.35	30.333
581.68	30.035
582.02	29.718
582.35	29.476
582.69	29.714
583.02	29.211
583.36	29.929
583.70	29.645
584.03	29.127
584.37	29.671
584.70	29.363
585.04	29.574
585.37	29.613
585.71	30.005
586.04	29.766
586.38	29.728
586.72	30.075
587.05	29.992
587.39	28.918
587.72	29.915
588.06	29.989
588.39	29.547
588.73	29.774
589.06	30.227
589.40	30.539
589.73	30.975
590.07	30.036
590.40	30.106
590.73	30.835
591.07	30.281
591.40	30.915
591.74	30.952
592.07	30.628
592.41	31.087
592.74	29.775
593.08	30.879
593.41	30.307
593.75	29.981
594.08	30.339
594.41	30.470
594.75	30.758
595.08	30.422
595.42	30.508
595.75	30.021
596.09	30.680
596.42	31.002
596.75	30.350
597.09	30.823
597.42	29.216
597.75	30.574
598.09	30.435
598.42	30.498
598.76	29.996
599.09	29.723
599.42	30.240
599.76	30.051
600.09	29.727
600.42	29.949
600.76	29.750
601.09	29.290
601.42	29.642
601.76	29.715
602.09	29.407
602.42	29.896
602.76	30.109
603.09	29.504
603.42	30.457
603.76	30.107
604.09	29.624
604.42	29.678
604.76	30.114
605.09	31.105
605.42	30.312
605.75	30.050
606.09	30.094
606.42	30.364
606.75	30.112
607.09	30.264
607.42	29.568
607.75	30.084
608.08	30.525
608.42	30.480
608.75	29.531
609.08	29.510
609.41	29.795
609.75	29.967
610.08	30.631
610.41	29.888
610.74	31.126
611.07	31.522
611.41	31.452
611.74	31.171
612.07	31.936
612.40	30.955
612.73	30.421
613.07	31.573
613.40	29.542
613.73	29.733
614.06	30.699
614.39	30.624
614.72	30.632
615.06	30.672
615.39	30.361
615.72	30.726
616.05	30.675
616.38	30.517
616.71	31.116
617.05	31.272
617.38	30.788
617.71	31.652
618.04	31.851
618.37	31.993
618.70	30.927
619.03	31.842
619.36	31.704
619.69	32.042
620.03	31.799
620.36	32.019
620.69	32.603
621.02	32.522
621.35	31.950
621.68	31.075
622.01	31.889
622.34	32.451
622.67	31.787
623.00	31.695
623.33	32.023
623.66	32.023
623.99	31.885
624.32	31.241
624.65	31.285
624.99	30.524
625.32	31.571
625.65	30.729
625.98	32.975
626.31	32.970
626.64	31.673
626.97	32.918
627.30	32.585
627.63	32.814
627.96	33.389
628.29	32.633
628.62	34.126
628.95	32.358
629.28	32.208
629.61	34.097
629.94	34.190
630.26	33.842
630.59	31.459
630.92	33.429
631.25	32.774
