SpectraSuite Data File
++++++++++++++++++++++++++++++++++++
Date: Wed May 13 20:32:18 PDT 2015
User: schluterlab
Dark Spectrum Present: Yes
Reference Spectrum Present: Yes
Number of Sampled Component Spectra: 1
Spectrometers: USB2E3373
Integration Time (usec): 3000 (USB2E3373)
Spectra Averaged: 3 (USB2E3373)
Boxcar Smoothing: 0 (USB2E3373)
Correct for Electrical Dark: No (USB2E3373)
Strobe/Lamp Enabled: No (USB2E3373)
Correct for Detector Non-linearity: No (USB2E3373)
Correct for Stray Light: No (USB2E3373)
Number of Pixels in Processed Spectrum: 2048
>>>>>Begin Processed Spectral Data<<<<<
178.53	0.000
178.91	-750.000
179.29	-975.000
179.67	-144.444
180.04	-975.000
180.42	1850.000
180.80	880.000
181.18	-575.000
181.56	500.000
181.94	0.000
182.31	-557.143
182.69	966.667
183.07	-425.000
183.45	-366.667
183.83	390.909
184.20	-350.000
184.58	1500.000
184.96	3200.000
185.34	-520.000
185.72	-412.500
186.09	-1900.000
186.47	2300.000
186.85	2000.000
187.23	2900.000
187.61	-1133.333
187.98	1025.000
188.36	409.091
188.74	390.909
189.12	-680.000
189.49	530.000
189.87	-3900.000
190.25	-975.000
190.63	335.714
191.00	338.462
191.38	600.000
191.76	-775.000
192.14	1025.000
192.51	537.500
192.89	733.333
193.27	425.000
193.65	-925.000
194.02	460.000
194.40	840.000
194.78	370.000
195.15	416.667
195.53	500.000
195.91	-1450.000
196.29	225.000
196.66	247.368
197.04	-280.000
197.42	0.000
197.79	570.000
198.17	-3600.000
198.55	585.714
198.92	637.500
199.30	640.000
199.68	0.000
200.05	238.889
200.43	600.000
200.81	3600.000
201.18	1600.000
201.56	-900.000
201.94	355.556
202.31	422.222
202.69	366.667
203.07	420.000
203.44	0.000
203.82	1025.000
204.19	657.143
204.57	321.429
204.95	475.000
205.32	1100.000
205.70	418.182
206.08	292.857
206.45	1800.000
206.83	268.750
207.20	733.333
207.58	580.000
207.96	250.000
208.33	600.000
208.71	-683.333
209.08	528.571
209.46	444.444
209.84	454.545
210.21	-1233.333
210.59	1225.000
210.96	-350.000
211.34	1500.000
211.71	330.000
212.09	500.000
212.46	0.000
212.84	1166.667
213.22	825.000
213.59	-3600.000
213.97	533.333
214.34	528.571
214.72	527.273
215.09	860.000
215.47	-1550.000
215.84	-2100.000
216.22	1233.333
216.59	335.714
216.97	1050.000
217.34	363.636
217.72	-583.333
218.09	0.000
218.47	-3800.000
218.84	566.667
219.22	671.429
219.59	1366.667
219.97	-471.429
220.34	720.000
220.72	-1366.667
221.09	321.429
221.47	850.000
221.84	-733.333
222.22	0.000
222.59	950.000
222.97	-2200.000
223.34	900.000
223.72	292.308
224.09	740.000
224.46	2150.000
224.84	-3100.000
225.21	-680.000
225.59	-3600.000
225.96	530.000
226.34	270.000
226.71	2400.000
227.08	525.000
227.46	400.000
227.83	-850.000
228.21	-1300.000
228.58	455.556
228.95	-1800.000
229.33	-1450.000
229.70	1466.667
230.08	600.000
230.45	-600.000
230.82	375.000
231.20	533.333
231.57	542.857
231.95	383.333
232.32	186.364
232.69	263.636
233.07	557.143
233.44	215.385
233.81	-1233.333
234.19	257.895
234.56	341.667
234.93	283.333
235.31	390.909
235.68	261.538
236.05	285.714
236.43	139.394
236.80	194.737
237.17	4600.000
237.55	214.286
237.92	146.429
238.29	190.476
238.67	154.839
239.04	155.172
239.41	119.444
239.79	117.391
240.16	109.524
240.53	104.545
240.91	107.843
241.28	94.000
241.65	96.000
242.02	82.609
242.40	82.258
242.77	88.333
243.14	62.366
243.51	74.157
243.89	58.824
244.26	58.889
244.63	54.839
245.00	69.149
245.38	49.505
245.75	46.729
246.12	50.459
246.49	59.124
246.87	58.400
247.24	53.846
247.61	50.714
247.98	47.712
248.36	41.892
248.73	45.860
249.10	42.675
249.47	41.243
249.84	40.642
250.22	44.920
250.59	41.420
250.96	41.919
251.33	42.180
251.70	40.594
252.08	40.952
252.45	41.704
252.82	37.826
253.19	41.277
253.56	34.510
253.94	38.174
254.31	37.109
254.68	42.692
255.05	39.852
255.42	34.959
255.79	38.971
256.16	37.906
256.54	33.216
256.91	38.790
257.28	33.453
257.65	35.644
258.02	33.230
258.39	31.230
258.76	31.773
259.14	34.821
259.51	32.523
259.88	30.745
260.25	33.233
260.62	32.370
260.99	31.056
261.36	33.033
261.73	33.238
262.10	29.942
262.47	34.366
262.85	31.198
263.22	31.054
263.59	33.903
263.96	28.846
264.33	32.898
264.70	32.105
265.07	30.435
265.44	31.818
265.81	27.981
266.18	32.412
266.55	30.244
266.92	28.256
267.29	29.167
267.66	28.440
268.03	30.000
268.40	30.140
268.77	29.356
269.14	27.928
269.51	29.120
269.88	31.235
270.25	29.797
270.62	26.292
270.99	30.538
271.36	30.043
271.73	26.636
272.10	29.565
272.47	30.753
272.84	29.654
273.21	31.237
273.58	29.039
273.95	26.205
274.32	26.860
274.69	29.336
275.06	26.969
275.43	28.298
275.80	26.653
276.17	27.699
276.54	29.314
276.91	27.668
277.28	27.734
277.65	27.466
278.02	29.193
278.39	28.906
278.76	27.636
279.13	28.868
279.50	25.698
279.87	28.287
280.23	27.146
280.60	27.079
280.97	24.214
281.34	26.549
281.71	27.455
282.08	27.639
282.45	26.545
282.82	28.419
283.19	24.777
283.56	24.386
283.92	27.073
284.29	25.926
284.66	26.316
285.03	26.401
285.40	28.521
285.77	25.421
286.14	23.834
286.51	26.500
286.87	26.325
287.24	26.384
287.61	24.880
287.98	25.325
288.35	24.881
288.72	24.611
289.08	25.665
289.45	22.900
289.82	22.276
290.19	23.862
290.56	24.809
290.93	22.961
291.29	23.620
291.66	24.041
292.03	25.291
292.40	23.201
292.77	22.633
293.13	22.836
293.50	23.178
293.87	21.481
294.24	21.037
294.60	21.106
294.97	21.512
295.34	24.401
295.71	21.023
296.08	19.373
296.44	21.320
296.81	19.419
297.18	22.087
297.55	19.789
297.91	20.976
298.28	22.088
298.65	21.932
299.02	20.553
299.38	20.053
299.75	20.485
300.12	19.796
300.48	20.125
300.85	18.619
301.22	19.745
301.59	19.949
301.95	19.144
302.32	20.539
302.69	20.072
303.05	19.515
303.42	17.654
303.79	19.932
304.15	18.998
304.52	18.424
304.89	19.396
305.25	19.374
305.62	20.045
305.99	20.071
306.35	19.463
306.72	18.722
307.09	18.202
307.45	20.608
307.82	17.746
308.19	18.764
308.55	19.741
308.92	18.153
309.29	17.423
309.65	18.346
310.02	18.605
310.38	19.785
310.75	18.479
311.12	18.833
311.48	19.645
311.85	19.811
312.22	19.251
312.58	17.360
312.95	19.113
313.31	19.320
313.68	19.543
314.05	19.724
314.41	20.101
314.78	20.242
315.14	19.265
315.51	20.597
315.87	21.287
316.24	20.556
316.61	21.345
316.97	19.863
317.34	20.352
317.70	21.033
318.07	21.655
318.43	22.505
318.80	20.806
319.16	22.316
319.53	21.388
319.89	22.857
320.26	23.300
320.62	23.512
320.99	24.242
321.35	24.242
321.72	23.922
322.08	23.889
322.45	26.269
322.81	24.806
323.18	25.241
323.54	26.067
323.91	26.226
324.27	26.482
324.64	27.027
325.00	26.510
325.37	27.298
325.73	29.803
326.10	27.096
326.46	28.136
326.83	29.508
327.19	30.658
327.56	30.052
327.92	30.621
328.29	30.878
328.65	32.044
329.01	31.588
329.38	32.562
329.74	29.548
330.11	31.857
330.47	32.507
330.84	34.559
331.20	32.240
331.56	34.220
331.93	32.593
332.29	33.540
332.66	34.867
333.02	32.815
333.38	33.966
333.75	34.225
334.11	33.808
334.48	34.339
334.84	35.478
335.20	35.000
335.57	34.814
335.93	34.286
336.29	34.982
336.66	35.528
337.02	34.389
337.38	34.537
337.75	33.333
338.11	35.989
338.47	37.109
338.84	37.030
339.20	34.862
339.56	36.770
339.93	35.000
340.29	35.598
340.65	35.383
341.02	37.609
341.38	37.633
341.74	36.404
342.11	35.546
342.47	37.533
342.83	36.473
343.20	37.835
343.56	36.394
343.92	36.754
344.28	37.075
344.65	35.770
345.01	35.943
345.37	35.849
345.73	38.494
346.10	36.743
346.46	37.627
346.82	36.079
347.19	35.505
347.55	35.714
347.91	37.136
348.27	37.880
348.63	37.124
349.00	37.379
349.36	36.782
349.72	37.370
350.08	36.953
350.45	37.754
350.81	37.693
351.17	37.115
351.53	37.920
351.89	37.211
352.26	38.043
352.62	37.690
352.98	37.520
353.34	37.387
353.70	37.725
354.07	37.339
354.43	38.254
354.79	36.766
355.15	37.350
355.51	38.209
355.87	38.449
356.24	38.111
356.60	37.289
356.96	38.697
357.32	38.839
357.68	38.898
358.04	38.876
358.40	38.797
358.77	39.045
359.13	38.200
359.49	38.824
359.85	37.222
360.21	39.075
360.57	40.000
360.93	40.538
361.29	38.322
361.66	38.235
362.02	38.358
362.38	39.696
362.74	40.699
363.10	39.526
363.46	39.252
363.82	40.287
364.18	39.280
364.54	41.159
364.90	40.368
365.26	41.176
365.62	41.271
365.98	39.226
366.35	39.327
366.71	39.407
367.07	40.058
367.43	41.001
367.79	41.542
368.15	42.098
368.51	40.480
368.87	41.328
369.23	40.966
369.59	41.492
369.95	41.029
370.31	40.812
370.67	41.522
371.03	42.772
371.39	43.513
371.75	42.868
372.11	41.892
372.47	43.182
372.83	43.516
373.19	41.980
373.55	42.720
373.91	44.256
374.27	42.612
374.63	42.691
374.99	43.785
375.35	42.498
375.71	42.289
376.07	44.170
376.42	43.054
376.78	44.400
377.14	43.826
377.50	44.305
377.86	43.883
378.22	44.501
378.58	43.170
378.94	43.809
379.30	44.656
379.66	45.114
380.02	44.226
380.38	44.809
380.74	44.958
381.09	45.721
381.45	46.036
381.81	46.560
382.17	46.624
382.53	45.723
382.89	46.481
383.25	45.841
383.61	47.460
383.97	46.467
384.32	46.163
384.68	45.725
385.04	45.790
385.40	46.378
385.76	47.482
386.12	47.604
386.48	46.948
386.83	47.979
387.19	48.670
387.55	47.805
387.91	47.279
388.27	48.437
388.62	48.248
388.98	47.482
389.34	49.562
389.70	47.823
390.06	50.317
390.42	49.546
390.77	49.427
391.13	50.223
391.49	49.175
391.85	49.841
392.20	49.211
392.56	49.747
392.92	51.383
393.28	50.000
393.64	49.880
393.99	50.092
394.35	49.318
394.71	50.565
395.07	50.779
395.42	50.742
395.78	51.463
396.14	50.341
396.50	52.694
396.85	51.812
397.21	50.678
397.57	50.837
397.92	52.163
398.28	50.673
398.64	51.732
399.00	51.763
399.35	50.761
399.71	52.257
400.07	52.099
400.42	52.945
400.78	52.051
401.14	53.354
401.49	52.537
401.85	52.995
402.21	51.617
402.57	53.424
402.92	54.035
403.28	54.591
403.63	54.517
403.99	53.822
404.35	53.152
404.70	52.938
405.06	53.524
405.42	54.086
405.77	54.800
406.13	55.418
406.49	55.470
406.84	55.109
407.20	54.728
407.55	54.882
407.91	55.600
408.27	56.158
408.62	54.244
408.98	56.005
409.34	54.982
409.69	55.419
410.05	55.204
410.40	56.086
410.76	55.795
411.11	55.247
411.47	55.144
411.83	56.506
412.18	57.019
412.54	57.846
412.89	56.205
413.25	56.375
413.60	57.813
413.96	55.313
414.31	56.501
414.67	56.971
415.03	57.616
415.38	57.281
415.74	57.814
416.09	58.981
416.45	58.032
416.80	59.683
417.16	58.981
417.51	58.593
417.87	57.932
418.22	57.792
418.58	57.844
418.93	57.187
419.29	58.052
419.64	59.446
420.00	57.561
420.35	56.986
420.71	58.219
421.06	57.816
421.42	58.421
421.77	59.922
422.12	58.450
422.48	57.960
422.83	59.289
423.19	57.238
423.54	59.489
423.90	57.739
424.25	58.124
424.61	59.762
424.96	59.242
425.31	58.859
425.67	57.697
426.02	58.457
426.38	60.562
426.73	58.397
427.09	59.453
427.44	58.654
427.79	58.194
428.15	59.583
428.50	58.806
428.85	59.714
429.21	59.525
429.56	58.683
429.92	58.430
430.27	58.987
430.62	58.884
430.98	59.990
431.33	58.196
431.68	59.476
432.04	58.839
432.39	59.680
432.74	59.066
433.10	59.649
433.45	60.875
433.80	59.424
434.16	59.295
434.51	59.526
434.86	60.775
435.22	61.089
435.57	60.608
435.92	59.099
436.28	60.439
436.63	60.541
436.98	61.534
437.34	61.479
437.69	61.202
438.04	61.439
438.39	61.015
438.75	61.127
439.10	60.726
439.45	60.921
439.81	61.994
440.16	59.684
440.51	61.863
440.86	60.452
441.22	60.289
441.57	61.359
441.92	62.794
442.27	62.110
442.63	60.927
442.98	62.479
443.33	60.707
443.68	61.280
444.03	62.372
444.39	60.565
444.74	61.905
445.09	61.078
445.44	60.197
445.79	60.020
446.15	60.932
446.50	61.120
446.85	61.511
447.20	61.142
447.55	61.586
447.91	61.390
448.26	61.603
448.61	61.504
448.96	61.683
449.31	61.699
449.66	61.002
450.02	61.504
450.37	61.395
450.72	62.042
451.07	62.035
451.42	61.824
451.77	61.773
452.12	60.681
452.47	61.567
452.83	62.704
453.18	61.002
453.53	63.203
453.88	61.134
454.23	61.865
454.58	62.689
454.93	62.238
455.28	62.718
455.63	62.015
455.98	62.500
456.34	62.437
456.69	62.993
457.04	63.282
457.39	61.075
457.74	61.172
458.09	61.472
458.44	62.714
458.79	60.954
459.14	61.907
459.49	61.296
459.84	61.108
460.19	62.110
460.54	60.301
460.89	61.821
461.24	63.327
461.59	63.858
461.94	62.022
462.29	63.561
462.64	63.242
462.99	61.614
463.34	62.933
463.69	62.914
464.04	62.319
464.39	62.551
464.74	61.854
465.09	62.123
465.44	62.438
465.79	62.752
466.14	61.741
466.49	62.458
466.84	62.405
467.19	62.342
467.54	63.250
467.89	62.365
468.24	62.536
468.59	64.957
468.94	62.553
469.29	63.882
469.64	62.316
469.99	64.750
470.34	64.333
470.68	64.152
471.03	62.721
471.38	64.489
471.73	63.558
472.08	64.145
472.43	63.756
472.78	64.714
473.13	63.543
473.48	63.608
473.83	64.207
474.17	63.535
474.52	63.896
474.87	65.324
475.22	64.364
475.57	63.407
475.92	63.834
476.27	63.811
476.61	64.699
476.96	64.541
477.31	65.463
477.66	65.372
478.01	64.401
478.36	64.992
478.70	62.980
479.05	64.217
479.40	64.278
479.75	64.718
480.10	64.662
480.45	63.922
480.79	63.402
481.14	64.530
481.49	64.357
481.84	64.335
482.19	63.971
482.53	63.486
482.88	64.867
483.23	64.720
483.58	64.377
483.92	64.386
484.27	62.309
484.62	63.103
484.97	62.160
485.31	62.877
485.66	59.857
486.01	59.525
486.36	59.942
486.70	60.999
487.05	60.916
487.40	61.440
487.75	62.568
488.09	61.753
488.44	62.108
488.79	62.857
489.13	63.293
489.48	62.520
489.83	63.703
490.17	64.270
490.52	63.773
490.87	63.863
491.22	63.256
491.56	63.007
491.91	63.611
492.26	62.793
492.60	63.410
492.95	64.219
493.30	64.159
493.64	64.629
493.99	63.045
494.34	63.136
494.68	63.690
495.03	64.615
495.37	64.123
495.72	64.620
496.07	64.640
496.41	62.655
496.76	64.116
497.11	63.035
497.45	65.347
497.80	64.731
498.14	64.638
498.49	65.415
498.84	64.765
499.18	64.762
499.53	65.005
499.87	65.005
500.22	64.767
500.56	65.000
500.91	64.615
501.26	64.865
501.60	66.303
501.95	64.620
502.29	65.839
502.64	66.434
502.98	65.825
503.33	65.951
503.67	65.615
504.02	65.856
504.36	66.401
504.71	66.732
505.06	65.494
505.40	66.796
505.75	66.056
506.09	66.181
506.44	67.686
506.78	67.511
507.13	68.198
507.47	66.970
507.82	68.034
508.16	68.642
508.51	69.457
508.85	68.272
509.19	68.571
509.54	68.827
509.88	69.397
510.23	68.483
510.57	70.124
510.92	70.119
511.26	69.013
511.61	69.502
511.95	68.058
512.30	70.148
512.64	70.285
512.98	70.740
513.33	70.664
513.67	69.050
514.02	70.563
514.36	70.945
514.70	72.441
515.05	70.664
515.39	70.219
515.74	72.241
516.08	71.884
516.42	72.253
516.77	73.077
517.11	71.920
517.46	73.702
517.80	74.564
518.14	71.801
518.49	74.387
518.83	73.523
519.17	73.037
519.52	72.949
519.86	73.873
520.20	74.682
520.55	75.643
520.89	73.783
521.23	75.392
521.58	72.749
521.92	74.832
522.26	74.558
522.61	76.324
522.95	73.910
523.29	75.107
523.64	75.488
523.98	77.018
524.32	75.332
524.66	74.925
525.01	74.939
525.35	76.642
525.69	74.138
526.04	76.511
526.38	75.778
526.72	75.215
527.06	76.899
527.41	73.700
527.75	79.164
528.09	76.879
528.43	77.247
528.78	76.706
529.12	75.152
529.46	77.036
529.80	77.413
530.15	76.137
530.49	74.277
530.83	76.835
531.17	78.916
531.51	78.016
531.86	77.484
532.20	77.184
532.54	77.002
532.88	78.113
533.22	75.703
533.57	75.432
533.91	74.473
534.25	76.914
534.59	76.449
534.93	74.955
535.27	75.981
535.62	76.190
535.96	78.280
536.30	76.669
536.64	76.497
536.98	76.974
537.32	75.444
537.66	77.400
538.01	79.329
538.35	75.695
538.69	78.175
539.03	77.323
539.37	76.613
539.71	75.437
540.05	77.516
540.39	77.542
540.73	76.391
541.07	76.184
541.42	78.930
541.76	76.516
542.10	76.132
542.44	77.550
542.78	77.536
543.12	76.456
543.46	76.590
543.80	76.708
544.14	74.583
544.48	77.397
544.82	75.946
545.16	76.513
545.50	75.321
545.84	77.083
546.18	77.643
546.52	74.948
546.86	76.976
547.20	76.804
547.54	75.551
547.88	76.786
548.22	74.097
548.56	74.843
548.90	75.224
549.24	77.576
549.58	76.194
549.92	77.610
550.26	79.190
550.60	76.003
550.94	76.620
551.28	77.030
551.62	77.139
551.96	76.421
552.30	76.997
552.64	77.079
552.98	77.695
553.32	75.927
553.66	76.278
554.00	76.596
554.34	74.948
554.68	76.466
555.02	75.952
555.36	75.296
555.69	75.034
556.03	75.908
556.37	76.467
556.71	76.535
557.05	76.471
557.39	74.668
557.73	76.006
558.07	77.230
558.41	76.773
558.75	76.488
559.08	76.063
559.42	75.813
559.76	76.912
560.10	74.946
560.44	74.493
560.78	75.516
561.12	75.000
561.45	75.684
561.79	73.896
562.13	75.117
562.47	75.068
562.81	74.686
563.15	72.642
563.48	73.674
563.82	74.560
564.16	73.774
564.50	73.893
564.84	74.147
565.17	74.839
565.51	74.633
565.85	74.937
566.19	73.137
566.52	75.427
566.86	72.755
567.20	73.998
567.54	74.144
567.88	73.004
568.21	72.963
568.55	71.941
568.89	71.887
569.23	70.365
569.56	69.555
569.90	69.547
570.24	69.609
570.57	68.412
570.91	67.712
571.25	67.202
571.59	67.334
571.92	67.627
572.26	67.793
572.60	67.538
572.93	67.166
573.27	67.022
573.61	67.030
573.95	66.718
574.28	65.829
574.62	66.521
574.96	65.687
575.29	65.470
575.63	65.854
575.97	66.103
576.30	65.959
576.64	66.288
576.98	65.557
577.31	66.405
577.65	65.950
577.98	65.219
578.32	65.052
578.66	65.136
578.99	65.579
579.33	64.657
579.67	64.631
580.00	65.572
580.34	66.421
580.67	64.713
581.01	64.605
581.35	64.574
581.68	64.478
582.02	63.897
582.35	65.371
582.69	65.056
583.02	65.390
583.36	66.244
583.70	66.159
584.03	65.021
584.37	65.507
584.70	66.118
585.04	64.481
585.37	64.655
585.71	65.085
586.04	64.726
586.38	65.674
586.72	65.148
587.05	64.738
587.39	64.327
587.72	64.854
588.06	65.368
588.39	64.664
588.73	66.178
589.06	65.846
589.40	66.768
589.73	65.611
590.07	65.730
590.40	64.304
590.73	66.550
591.07	66.260
591.40	66.385
591.74	68.701
592.07	66.710
592.41	65.978
592.74	65.169
593.08	64.890
593.41	65.233
593.75	64.116
594.08	64.968
594.41	65.076
594.75	66.248
595.08	65.104
595.42	65.219
595.75	64.245
596.09	65.640
596.42	65.422
596.75	66.484
597.09	65.801
597.42	64.629
597.75	66.149
598.09	66.043
598.42	65.421
598.76	65.099
599.09	63.550
599.42	64.665
599.76	64.714
600.09	63.934
600.42	63.915
600.76	63.393
601.09	64.444
601.42	64.346
601.76	64.554
602.09	64.743
602.42	64.610
602.76	65.941
603.09	64.359
603.42	65.795
603.76	64.367
604.09	65.529
604.42	65.756
604.76	64.951
605.09	64.657
605.42	64.985
605.75	64.321
606.09	64.010
606.42	64.732
606.75	63.998
607.09	63.960
607.42	65.041
607.75	63.460
608.08	64.438
608.42	65.038
608.75	63.886
609.08	63.552
609.41	63.446
609.75	64.840
610.08	65.127
610.41	63.315
610.74	65.374
611.07	65.613
611.41	64.769
611.74	65.108
612.07	65.735
612.40	65.373
612.73	65.737
613.07	65.517
613.40	65.245
613.73	62.926
614.06	65.269
614.39	63.765
614.72	63.789
615.06	64.811
615.39	64.915
615.72	63.753
616.05	63.955
616.38	65.536
616.71	66.865
617.05	65.430
617.38	64.943
617.71	65.826
618.04	66.647
618.37	65.228
618.70	65.588
619.03	67.632
619.36	67.142
619.69	66.056
620.03	67.788
620.36	65.709
620.69	66.712
621.02	68.142
621.35	67.972
621.68	65.810
622.01	66.873
622.34	67.322
622.67	67.605
623.00	66.691
623.33	66.905
623.66	66.190
623.99	67.305
624.32	65.977
624.65	66.314
624.99	65.297
625.32	66.618
625.65	66.867
625.98	67.871
626.31	67.496
626.64	68.816
626.97	69.410
627.30	67.082
627.63	66.858
627.96	67.788
628.29	67.892
628.62	68.893
628.95	68.774
629.28	68.248
629.61	68.653
629.94	70.667
630.26	69.876
630.59	68.923
630.92	67.816
631.25	69.990
