SpectraSuite Data File
++++++++++++++++++++++++++++++++++++
Date: Wed May 13 20:37:07 PDT 2015
User: schluterlab
Dark Spectrum Present: Yes
Reference Spectrum Present: Yes
Number of Sampled Component Spectra: 1
Spectrometers: USB2E3373
Integration Time (usec): 3000 (USB2E3373)
Spectra Averaged: 3 (USB2E3373)
Boxcar Smoothing: 0 (USB2E3373)
Correct for Electrical Dark: No (USB2E3373)
Strobe/Lamp Enabled: No (USB2E3373)
Correct for Detector Non-linearity: No (USB2E3373)
Correct for Stray Light: No (USB2E3373)
Number of Pixels in Processed Spectrum: 2048
>>>>>Begin Processed Spectral Data<<<<<
178.53	0.000
178.91	-1100.000
179.29	-900.000
179.67	-144.444
180.04	-1075.000
180.42	1950.000
180.80	820.000
181.18	-875.000
181.56	614.286
181.94	0.000
182.31	-400.000
182.69	933.333
183.07	-325.000
183.45	-344.444
183.83	463.636
184.20	-390.000
184.58	1900.000
184.96	3900.000
185.34	-520.000
185.72	-437.500
186.09	-1850.000
186.47	1950.000
186.85	1750.000
187.23	4000.000
187.61	-1333.333
187.98	825.000
188.36	354.545
188.74	336.364
189.12	-640.000
189.49	410.000
189.87	-3600.000
190.25	-950.000
190.63	307.143
191.00	330.769
191.38	483.333
191.76	-700.000
192.14	975.000
192.51	375.000
192.89	700.000
193.27	537.500
193.65	-875.000
194.02	450.000
194.40	720.000
194.78	400.000
195.15	375.000
195.53	480.000
195.91	-1750.000
196.29	287.500
196.66	252.632
197.04	-230.000
197.42	0.000
197.79	400.000
198.17	-3600.000
198.55	485.714
198.92	400.000
199.30	580.000
199.68	0.000
200.05	266.667
200.43	500.000
200.81	4200.000
201.18	1133.333
201.56	-1300.000
201.94	322.222
202.31	377.778
202.69	316.667
203.07	400.000
203.44	0.000
203.82	825.000
204.19	614.286
204.57	357.143
204.95	425.000
205.32	1133.333
205.70	345.455
206.08	321.429
206.45	1900.000
206.83	312.500
207.20	816.667
207.58	580.000
207.96	244.444
208.33	575.000
208.71	-516.667
209.08	585.714
209.46	455.556
209.84	363.636
210.21	-1333.333
210.59	1325.000
210.96	-312.500
211.34	1850.000
211.71	450.000
212.09	566.667
212.46	0.000
212.84	1200.000
213.22	750.000
213.59	-3400.000
213.97	516.667
214.34	514.286
214.72	454.545
215.09	780.000
215.47	-1900.000
215.84	-1700.000
216.22	1233.333
216.59	257.143
216.97	750.000
217.34	345.455
217.72	-583.333
218.09	0.000
218.47	-3700.000
218.84	522.222
219.22	528.571
219.59	1166.667
219.97	-328.571
220.34	560.000
220.72	-1366.667
221.09	321.429
221.47	1000.000
221.84	-616.667
222.22	0.000
222.59	1050.000
222.97	-1550.000
223.34	900.000
223.72	238.462
224.09	660.000
224.46	1850.000
224.84	-3500.000
225.21	-540.000
225.59	-3400.000
225.96	440.000
226.34	265.000
226.71	1800.000
227.08	462.500
227.46	370.000
227.83	-750.000
228.21	-1650.000
228.58	366.667
228.95	-1750.000
229.33	-2000.000
229.70	1200.000
230.08	642.857
230.45	-620.000
230.82	350.000
231.20	533.333
231.57	528.571
231.95	383.333
232.32	159.091
232.69	254.545
233.07	485.714
233.44	246.154
233.81	-1333.333
234.19	236.842
234.56	308.333
234.93	325.000
235.31	336.364
235.68	253.846
236.05	235.714
236.43	121.212
236.80	200.000
237.17	2700.000
237.55	166.667
237.92	182.143
238.29	209.524
238.67	138.710
239.04	175.862
239.41	111.111
239.79	84.783
240.16	102.381
240.53	93.182
240.91	94.118
241.28	88.000
241.65	104.000
242.02	75.362
242.40	69.355
242.77	75.000
243.14	65.591
243.51	64.045
243.89	65.882
244.26	53.333
244.63	60.215
245.00	55.319
245.38	68.317
245.75	48.598
246.12	49.541
246.49	55.474
246.87	54.400
247.24	54.615
247.61	45.000
247.98	50.327
248.36	41.892
248.73	52.229
249.10	45.860
249.47	36.723
249.84	43.316
250.22	39.572
250.59	41.420
250.96	40.404
251.33	44.550
251.70	45.050
252.08	42.857
252.45	35.874
252.82	37.391
253.19	40.426
253.56	38.039
253.94	39.834
254.31	39.453
254.68	38.077
255.05	36.900
255.42	37.805
255.79	38.235
256.16	35.740
256.54	33.569
256.91	37.722
257.28	31.655
257.65	35.974
258.02	32.609
258.39	31.861
258.76	31.773
259.14	32.738
259.51	35.258
259.88	31.366
260.25	33.837
260.62	32.659
260.99	35.714
261.36	34.234
261.73	32.378
262.10	31.395
262.47	31.268
262.85	32.591
263.22	28.490
263.59	34.473
263.96	32.143
264.33	31.593
264.70	33.421
265.07	31.458
265.44	33.333
265.81	31.630
266.18	31.910
266.55	30.244
266.92	31.695
267.29	30.556
267.66	31.881
268.03	31.364
268.40	31.075
268.77	26.969
269.14	29.505
269.51	30.926
269.88	30.303
270.25	29.571
270.62	28.090
270.99	33.333
271.36	30.043
271.73	29.206
272.10	30.652
272.47	31.183
272.84	30.087
273.21	29.350
273.58	28.166
273.95	27.254
274.32	28.306
274.69	30.193
275.06	25.394
275.43	30.426
275.80	26.052
276.17	28.106
276.54	30.146
276.91	29.644
277.28	29.688
277.65	28.820
278.02	25.673
278.39	29.492
278.76	29.636
279.13	27.547
279.50	27.374
279.87	27.888
280.23	29.541
280.60	26.112
280.97	27.726
281.34	24.779
281.71	28.545
282.08	27.639
282.45	28.000
282.82	29.307
283.19	25.668
283.56	26.667
283.92	28.088
284.29	27.513
284.66	25.771
285.03	26.040
285.40	25.528
285.77	26.936
286.14	25.216
286.51	27.667
286.87	26.667
287.24	27.850
287.61	24.719
287.98	25.162
288.35	25.515
288.72	23.832
289.08	25.822
289.45	25.371
289.82	26.016
290.19	23.077
290.56	23.124
290.93	22.356
291.29	22.853
291.66	22.124
292.03	25.581
292.40	25.991
292.77	23.077
293.13	22.090
293.50	24.636
293.87	23.852
294.24	22.963
294.60	21.689
294.97	22.965
295.34	24.260
295.71	22.727
296.08	21.795
296.44	21.596
296.81	21.400
297.18	22.087
297.55	19.657
297.91	20.712
298.28	20.348
298.65	23.499
299.02	22.398
299.38	20.983
299.75	19.407
300.12	21.839
300.48	20.750
300.85	20.222
301.22	20.127
301.59	21.465
301.95	20.907
302.32	20.924
302.69	18.996
303.05	19.636
303.42	18.889
303.79	18.347
304.15	19.114
304.52	19.467
304.89	19.744
305.25	20.186
305.62	19.592
305.99	19.362
306.35	18.345
306.72	19.507
307.09	18.535
307.45	20.495
307.82	18.304
308.19	18.433
308.55	20.065
308.92	19.012
309.29	18.057
309.65	18.982
310.02	19.345
310.38	19.570
310.75	19.324
311.12	18.219
311.48	19.749
311.85	19.287
312.22	19.979
312.58	19.751
312.95	19.430
313.31	17.282
313.68	19.439
314.05	20.907
314.41	20.704
314.78	19.940
315.14	19.762
315.51	21.009
315.87	21.485
316.24	19.662
316.61	19.103
316.97	19.863
317.34	20.744
317.70	21.319
318.07	20.500
318.43	21.331
318.80	21.743
319.16	20.998
319.53	21.107
319.89	22.476
320.26	23.100
320.62	22.421
320.99	22.525
321.35	22.525
321.72	24.435
322.08	24.877
322.45	26.468
322.81	24.612
323.18	25.241
323.54	25.139
323.91	26.887
324.27	24.952
324.64	23.952
325.00	24.436
325.37	27.116
325.73	27.020
326.10	27.802
326.46	26.792
326.83	28.300
327.19	27.327
327.56	28.397
327.92	29.396
328.29	28.128
328.65	29.558
329.01	29.603
329.38	28.862
329.74	29.455
330.11	31.103
330.47	30.211
330.84	30.331
331.20	30.601
331.56	29.908
331.93	31.204
332.29	31.411
332.66	32.124
333.02	31.261
333.38	31.436
333.75	32.977
334.11	32.295
334.48	31.588
334.84	32.537
335.20	32.273
335.57	31.278
335.93	31.071
336.29	31.868
336.66	33.273
337.02	31.855
337.38	33.056
337.75	32.620
338.11	33.035
338.47	33.057
338.84	33.547
339.20	32.202
339.56	34.124
339.93	33.182
340.29	33.786
340.65	34.225
341.02	33.944
341.38	33.452
341.74	32.982
342.11	33.275
342.47	34.449
342.83	33.647
343.20	35.065
343.56	33.024
343.92	32.632
344.28	34.439
344.65	33.792
345.01	33.754
345.37	33.791
345.73	33.080
346.10	33.674
346.46	33.475
346.82	33.443
347.19	33.751
347.55	32.677
347.91	33.414
348.27	33.443
348.63	33.445
349.00	33.981
349.36	33.662
349.72	34.162
350.08	33.549
350.45	34.418
350.81	33.469
351.17	33.874
351.53	33.088
351.89	34.323
352.26	35.201
352.62	33.039
352.98	34.603
353.34	34.758
353.70	34.370
354.07	34.355
354.43	33.254
354.79	34.031
355.15	34.796
355.51	35.012
355.87	34.449
356.24	34.691
356.60	33.761
356.96	34.352
357.32	34.996
357.68	34.882
358.04	35.550
358.40	34.759
358.77	36.072
359.13	34.807
359.49	35.137
359.85	33.889
360.21	34.689
360.57	36.265
360.93	35.462
361.29	33.787
361.66	34.520
362.02	34.552
362.38	35.741
362.74	34.673
363.10	34.937
363.46	35.363
363.82	35.072
364.18	34.361
364.54	36.776
364.90	35.340
365.26	34.118
365.62	36.158
365.98	35.354
366.35	35.029
366.71	35.213
367.07	35.688
367.43	36.938
367.79	35.974
368.15	37.356
368.51	35.828
368.87	35.689
369.23	35.625
369.59	37.509
369.95	36.985
370.31	36.040
370.67	35.072
371.03	36.854
371.39	35.714
371.75	35.221
372.11	34.993
372.47	36.437
372.83	37.320
373.19	35.477
373.55	36.511
373.91	37.113
374.27	35.258
374.63	36.582
374.99	36.723
375.35	36.148
375.71	36.326
376.07	36.077
376.42	36.933
376.78	36.647
377.14	35.821
377.50	36.887
377.86	34.907
378.22	36.157
378.58	35.213
378.94	36.455
379.30	35.814
379.66	36.865
380.02	35.811
380.38	35.216
380.74	36.975
381.09	36.369
381.45	36.202
381.81	36.486
382.17	36.242
382.53	35.786
382.89	37.222
383.25	35.960
383.61	35.812
383.97	36.210
384.32	36.556
384.68	35.440
385.04	36.632
385.40	35.913
385.76	36.425
386.12	35.557
386.48	36.753
386.83	36.818
387.19	37.168
387.55	36.549
387.91	35.913
388.27	35.377
388.62	36.140
388.98	35.319
389.34	35.169
389.70	36.542
390.06	37.262
390.42	37.224
390.77	35.814
391.13	36.758
391.49	36.358
391.85	35.073
392.20	35.142
392.56	35.290
392.92	36.433
393.28	34.201
393.64	34.472
393.99	34.820
394.35	35.546
394.71	35.069
395.07	33.832
395.42	36.279
395.78	35.687
396.14	34.823
396.50	35.401
396.85	35.219
397.21	34.032
397.57	34.780
397.92	34.315
398.28	34.193
398.64	33.990
399.00	34.695
399.35	33.954
399.71	34.086
400.07	34.004
400.42	33.558
400.78	34.198
401.14	33.963
401.49	34.030
401.85	33.878
402.21	33.234
402.57	33.745
402.92	34.552
403.28	34.416
403.63	32.859
403.99	32.739
404.35	32.606
404.70	33.753
405.06	32.615
405.42	32.689
405.77	32.743
406.13	31.546
406.49	33.116
406.84	32.605
407.20	30.615
407.55	32.993
407.91	31.867
408.27	31.589
408.62	31.427
408.98	30.760
409.34	31.550
409.69	31.935
410.05	31.041
410.40	31.437
410.76	30.585
411.11	31.363
411.47	30.799
411.83	31.093
412.18	30.489
412.54	31.569
412.89	31.566
413.25	30.401
413.60	30.698
413.96	29.751
414.31	29.891
414.67	31.305
415.03	30.596
415.38	30.735
415.74	30.804
416.09	31.091
416.45	30.857
416.80	30.007
417.16	31.032
417.51	30.657
417.87	29.544
418.22	30.158
418.58	29.567
418.93	30.344
419.29	29.726
419.64	30.542
420.00	29.695
420.35	29.159
420.71	30.185
421.06	29.296
421.42	30.058
421.77	29.484
422.12	28.186
422.48	28.494
422.83	28.946
423.19	30.276
423.54	29.832
423.90	29.043
424.25	29.257
424.61	28.988
424.96	29.621
425.31	29.236
425.67	28.371
426.02	29.143
426.38	28.999
426.73	29.023
427.09	28.693
427.44	28.925
427.79	28.925
428.15	28.690
428.50	28.204
428.85	29.023
429.21	28.382
429.56	28.460
429.92	28.485
430.27	27.855
430.62	27.701
430.98	28.801
431.33	27.938
431.68	27.592
432.04	27.796
432.39	27.927
432.74	27.528
433.10	27.674
433.45	28.921
433.80	26.663
434.16	27.671
434.51	28.105
434.86	29.076
435.22	28.238
435.57	28.511
435.92	26.975
436.28	28.233
436.63	28.422
436.98	28.449
437.34	28.145
437.69	28.121
438.04	27.712
438.39	27.881
438.75	26.961
439.10	27.598
439.45	27.804
439.81	27.432
440.16	27.216
440.51	27.475
440.86	27.736
441.22	27.086
441.57	26.964
441.92	27.482
442.27	27.449
442.63	27.014
442.98	28.169
443.33	27.174
443.68	26.691
444.03	26.842
444.39	26.680
444.74	27.814
445.09	26.469
445.44	26.955
445.79	26.868
446.15	26.734
446.50	26.387
446.85	25.797
447.20	26.976
447.55	26.745
447.91	26.475
448.26	26.544
448.61	26.456
448.96	27.353
449.31	26.547
449.66	25.999
450.02	26.240
450.37	26.417
450.72	26.340
451.07	25.472
451.42	25.350
451.77	25.661
452.12	26.559
452.47	26.182
452.83	26.399
453.18	25.917
453.53	26.964
453.88	25.989
454.23	26.061
454.58	26.045
454.93	26.001
455.28	24.875
455.63	25.485
455.98	25.893
456.34	25.565
456.69	25.798
457.04	26.068
457.39	25.482
457.74	25.827
458.09	24.957
458.44	24.743
458.79	24.620
459.14	25.564
459.49	26.095
459.84	24.432
460.19	24.750
460.54	24.826
460.89	24.301
461.24	25.622
461.59	25.567
461.94	25.216
462.29	24.451
462.64	24.888
462.99	23.943
463.34	25.733
463.69	24.203
464.04	23.884
464.39	24.986
464.74	23.529
465.09	23.703
465.44	23.380
465.79	23.937
466.14	24.028
466.49	23.860
466.84	24.402
467.19	23.537
467.54	25.062
467.89	23.709
468.24	23.793
468.59	24.054
468.94	24.191
469.29	23.779
469.64	24.029
469.99	24.154
470.34	23.052
470.68	23.851
471.03	22.517
471.38	23.350
471.73	24.450
472.08	23.882
472.43	23.116
472.78	22.712
473.13	23.235
473.48	23.408
473.83	22.866
474.17	22.340
474.52	23.201
474.87	22.475
475.22	23.331
475.57	22.031
475.92	22.570
476.27	22.661
476.61	22.284
476.96	22.045
477.31	21.769
477.66	22.648
478.01	21.328
478.36	21.576
478.70	21.755
479.05	22.524
479.40	22.876
479.75	21.962
480.10	21.322
480.45	21.276
480.79	21.261
481.14	21.673
481.49	21.927
481.84	20.668
482.19	22.126
482.53	20.688
482.88	22.057
483.23	21.589
483.58	21.884
483.92	21.743
484.27	20.218
484.62	20.948
484.97	20.260
485.31	20.479
485.66	19.371
486.01	19.270
486.36	19.288
486.70	19.107
487.05	20.072
487.40	20.531
487.75	20.455
488.09	20.564
488.44	20.047
488.79	21.157
489.13	20.779
489.48	20.595
489.83	20.242
490.17	19.728
490.52	20.106
490.87	20.036
491.22	20.009
491.56	19.362
491.91	20.289
492.26	19.201
492.60	20.092
492.95	19.457
493.30	19.953
493.64	20.719
493.99	18.988
494.34	19.658
494.68	19.643
495.03	20.207
495.37	19.544
495.72	19.786
496.07	19.768
496.41	19.027
496.76	19.393
497.11	19.676
497.45	20.307
497.80	19.770
498.14	19.758
498.49	19.610
498.84	19.990
499.18	19.190
499.53	19.706
499.87	19.199
500.22	19.077
500.56	20.728
500.91	18.606
501.26	19.298
501.60	19.317
501.95	19.478
502.29	20.619
502.64	19.507
502.98	19.635
503.33	18.784
503.67	19.258
504.02	19.457
504.36	19.888
504.71	19.345
505.06	19.181
505.40	18.960
505.75	18.708
506.09	19.485
506.44	19.191
506.78	19.338
507.13	19.283
507.47	19.495
507.82	19.250
508.16	19.554
508.51	18.874
508.85	19.464
509.19	19.082
509.54	18.673
509.88	18.908
510.23	18.869
510.57	19.659
510.92	18.799
511.26	18.191
511.61	19.813
511.95	18.946
512.30	18.823
512.64	19.183
512.98	19.239
513.33	18.683
513.67	18.463
514.02	17.803
514.36	18.897
514.70	18.594
515.05	19.130
515.39	19.237
515.74	18.919
516.08	19.620
516.42	18.979
516.77	19.565
517.11	18.979
517.46	19.131
517.80	19.396
518.14	18.240
518.49	19.428
518.83	19.148
519.17	18.245
519.52	18.902
519.86	19.281
520.20	19.306
520.55	19.808
520.89	18.917
521.23	19.059
521.58	18.247
521.92	19.228
522.26	18.609
522.61	18.380
522.95	18.723
523.29	18.564
523.64	18.476
523.98	19.039
524.32	19.180
524.66	18.220
525.01	18.505
525.35	18.897
525.69	18.165
526.04	18.754
526.38	18.853
526.72	18.221
527.06	18.581
527.41	17.389
527.75	19.486
528.09	18.947
528.43	18.228
528.78	18.746
529.12	18.242
529.46	18.004
529.80	19.183
530.15	19.252
530.49	17.846
530.83	17.658
531.17	19.321
531.51	19.585
531.86	18.452
532.20	18.514
532.54	18.450
532.88	18.357
533.22	17.552
533.57	18.148
533.91	17.640
534.25	19.077
534.59	18.182
534.93	17.906
535.27	18.588
535.62	18.071
535.96	18.456
536.30	18.118
536.64	19.189
536.98	18.514
537.32	18.302
537.66	19.067
538.01	18.697
538.35	18.035
538.69	18.698
539.03	17.739
539.37	17.444
539.71	18.017
540.05	17.582
540.39	18.140
540.73	17.400
541.07	18.365
541.42	18.982
541.76	18.645
542.10	17.723
542.44	17.020
542.78	17.852
543.12	17.530
543.46	18.689
543.80	17.762
544.14	17.522
544.48	17.778
544.82	18.024
545.16	18.478
545.50	18.188
545.84	18.280
546.18	17.643
546.52	17.688
546.86	17.801
547.20	18.746
547.54	17.902
547.88	18.495
548.22	17.621
548.56	17.673
548.90	17.670
549.24	17.710
549.58	18.008
549.92	18.132
550.26	18.324
550.60	17.427
550.94	18.099
551.28	17.776
551.62	17.829
551.96	17.614
552.30	17.747
552.64	17.647
552.98	17.966
553.32	18.678
553.66	19.087
554.00	18.051
554.34	18.357
554.68	17.811
555.02	17.913
555.36	16.771
555.69	16.373
556.03	17.497
556.37	17.462
556.71	16.917
557.05	17.717
557.39	17.425
557.73	17.219
558.07	18.637
558.41	17.149
558.75	17.781
559.08	18.792
559.42	17.763
559.76	17.206
560.10	17.702
560.44	17.331
560.78	17.831
561.12	16.557
561.45	18.057
561.79	18.128
562.13	18.310
562.47	17.760
562.81	16.806
563.15	16.856
563.48	17.706
563.82	16.438
564.16	17.528
564.50	17.122
564.84	17.067
565.17	16.860
565.51	16.805
565.85	16.942
566.19	17.095
566.52	18.176
566.86	16.757
567.20	17.158
567.54	17.352
567.88	16.947
568.21	17.778
568.55	17.594
568.89	17.218
569.23	16.399
569.56	17.126
569.90	16.340
570.24	16.003
570.57	16.287
570.91	16.290
571.25	15.781
571.59	16.112
571.92	16.273
572.26	16.291
572.60	16.156
572.93	16.042
573.27	16.681
573.61	15.773
573.95	16.072
574.28	16.156
574.62	15.743
574.96	15.699
575.29	15.883
575.63	16.184
575.97	15.803
576.30	16.038
576.64	15.618
576.98	15.727
577.31	15.481
577.65	15.592
577.98	15.340
578.32	15.310
578.66	15.535
578.99	15.795
579.33	15.517
579.67	15.641
580.00	15.943
580.34	15.923
580.67	16.025
581.01	15.673
581.35	15.341
581.68	15.418
582.02	15.113
582.35	15.533
582.69	15.785
583.02	15.736
583.36	16.186
583.70	16.384
584.03	15.648
584.37	16.601
584.70	16.275
585.04	15.925
585.37	15.564
585.71	16.283
586.04	16.139
586.38	16.196
586.72	16.625
587.05	15.621
587.39	15.673
587.72	16.001
588.06	15.662
588.39	15.967
588.73	16.163
589.06	16.765
589.40	16.599
589.73	16.755
590.07	16.548
590.40	15.857
590.73	16.198
591.07	17.257
591.40	16.364
591.74	16.926
592.07	16.710
592.41	16.536
592.74	15.431
593.08	15.856
593.41	15.944
593.75	15.428
594.08	16.125
594.41	15.977
594.75	15.860
595.08	15.676
595.42	16.357
595.75	16.026
596.09	16.448
596.42	16.817
596.75	16.885
597.09	16.797
597.42	15.219
597.75	16.516
598.09	16.696
598.42	16.194
598.76	15.809
599.09	15.621
599.42	15.830
599.76	15.849
600.09	15.592
600.42	16.034
600.76	15.571
601.09	15.701
601.42	15.715
601.76	16.091
602.09	15.810
602.42	16.879
602.76	17.090
603.09	16.286
603.42	16.673
603.76	15.320
604.09	16.014
604.42	16.714
604.76	16.744
605.09	16.077
605.42	15.306
605.75	16.060
606.09	15.413
606.42	16.020
606.75	16.093
607.09	16.157
607.42	15.576
607.75	15.738
608.08	15.588
608.42	16.450
608.75	16.411
609.08	16.004
609.41	15.897
609.75	16.008
610.08	16.352
610.41	15.084
610.74	16.083
611.07	15.761
611.41	15.800
611.74	16.742
612.07	16.822
612.40	16.946
612.73	16.421
613.07	16.110
613.40	17.009
613.73	15.522
614.06	16.667
614.39	16.728
614.72	15.632
615.06	16.387
615.39	16.136
615.72	16.309
616.05	15.843
616.38	16.176
616.71	16.033
617.05	16.549
617.38	16.296
617.71	16.757
618.04	16.767
618.37	16.440
618.70	17.113
619.03	17.303
619.36	17.244
619.69	16.056
620.03	17.582
620.36	17.313
620.69	16.644
621.02	17.773
621.35	16.210
621.68	16.121
622.01	16.486
622.34	17.700
622.67	16.198
623.00	15.774
623.33	16.154
623.66	16.297
623.99	16.348
624.32	16.405
624.65	16.525
624.99	15.864
625.32	16.727
625.65	17.581
625.98	16.987
626.31	16.874
626.64	16.653
626.97	17.207
627.30	18.204
627.63	17.637
627.96	16.905
628.29	16.448
628.62	16.377
628.95	18.868
629.28	17.336
629.61	18.515
629.94	16.667
630.26	16.015
630.59	17.445
630.92	16.379
631.25	17.374
