SpectraSuite Data File
++++++++++++++++++++++++++++++++++++
Date: Wed May 13 20:30:36 PDT 2015
User: schluterlab
Dark Spectrum Present: Yes
Reference Spectrum Present: Yes
Number of Sampled Component Spectra: 1
Spectrometers: USB2E3373
Integration Time (usec): 3000 (USB2E3373)
Spectra Averaged: 3 (USB2E3373)
Boxcar Smoothing: 0 (USB2E3373)
Correct for Electrical Dark: No (USB2E3373)
Strobe/Lamp Enabled: No (USB2E3373)
Correct for Detector Non-linearity: No (USB2E3373)
Correct for Stray Light: No (USB2E3373)
Number of Pixels in Processed Spectrum: 2048
>>>>>Begin Processed Spectral Data<<<<<
178.53	0.000
178.91	-875.000
179.29	-1075.000
179.67	-166.667
180.04	-1100.000
180.42	2100.000
180.80	820.000
181.18	-725.000
181.56	642.857
181.94	0.000
182.31	-514.286
182.69	1466.667
183.07	-312.500
183.45	-433.333
183.83	409.091
184.20	-260.000
184.58	1700.000
184.96	2900.000
185.34	-780.000
185.72	-500.000
186.09	-2300.000
186.47	1850.000
186.85	1950.000
187.23	3600.000
187.61	-1266.667
187.98	1175.000
188.36	300.000
188.74	336.364
189.12	-580.000
189.49	440.000
189.87	-4000.000
190.25	-875.000
190.63	371.429
191.00	353.846
191.38	650.000
191.76	-1050.000
192.14	1175.000
192.51	412.500
192.89	716.667
193.27	450.000
193.65	-800.000
194.02	470.000
194.40	480.000
194.78	470.000
195.15	450.000
195.53	490.000
195.91	-1500.000
196.29	275.000
196.66	300.000
197.04	-270.000
197.42	0.000
197.79	470.000
198.17	-3000.000
198.55	414.286
198.92	525.000
199.30	680.000
199.68	0.000
200.05	316.667
200.43	514.286
200.81	4100.000
201.18	1366.667
201.56	-1066.667
201.94	366.667
202.31	500.000
202.69	375.000
203.07	360.000
203.44	0.000
203.82	750.000
204.19	714.286
204.57	342.857
204.95	400.000
205.32	1100.000
205.70	418.182
206.08	307.143
206.45	2400.000
206.83	262.500
207.20	583.333
207.58	620.000
207.96	233.333
208.33	550.000
208.71	-616.667
209.08	642.857
209.46	433.333
209.84	409.091
210.21	-1200.000
210.59	1050.000
210.96	-425.000
211.34	1950.000
211.71	500.000
212.09	683.333
212.46	0.000
212.84	1166.667
213.22	1025.000
213.59	-3000.000
213.97	516.667
214.34	700.000
214.72	463.636
215.09	800.000
215.47	-1500.000
215.84	-2050.000
216.22	1100.000
216.59	321.429
216.97	875.000
217.34	463.636
217.72	-633.333
218.09	0.000
218.47	-2700.000
218.84	544.444
219.22	657.143
219.59	1366.667
219.97	-357.143
220.34	700.000
220.72	-1600.000
221.09	285.714
221.47	1225.000
221.84	-650.000
222.22	0.000
222.59	1250.000
222.97	-1950.000
223.34	780.000
223.72	415.385
224.09	740.000
224.46	1350.000
224.84	-4300.000
225.21	-780.000
225.59	-3900.000
225.96	500.000
226.34	220.000
226.71	1650.000
227.08	525.000
227.46	410.000
227.83	-750.000
228.21	-1400.000
228.58	355.556
228.95	-1750.000
229.33	-1900.000
229.70	1266.667
230.08	700.000
230.45	-720.000
230.82	333.333
231.20	616.667
231.57	500.000
231.95	325.000
232.32	181.818
232.69	345.455
233.07	442.857
233.44	284.615
233.81	-1400.000
234.19	289.474
234.56	333.333
234.93	216.667
235.31	436.364
235.68	223.077
236.05	278.571
236.43	118.182
236.80	210.526
237.17	3100.000
237.55	204.762
237.92	178.571
238.29	176.190
238.67	145.161
239.04	213.793
239.41	100.000
239.79	80.435
240.16	133.333
240.53	118.182
240.91	86.275
241.28	86.000
241.65	82.000
242.02	75.362
242.40	66.129
242.77	66.667
243.14	68.817
243.51	75.281
243.89	67.059
244.26	63.333
244.63	60.215
245.00	45.745
245.38	56.436
245.75	52.336
246.12	44.037
246.49	51.825
246.87	49.600
247.24	46.154
247.61	46.429
247.98	47.712
248.36	31.757
248.73	38.854
249.10	42.675
249.47	39.548
249.84	44.920
250.22	33.155
250.59	39.053
250.96	37.374
251.33	37.441
251.70	44.554
252.08	35.714
252.45	31.839
252.82	36.957
253.19	36.596
253.56	36.863
253.94	36.929
254.31	32.812
254.68	33.462
255.05	35.793
255.42	27.236
255.79	33.824
256.16	31.769
256.54	32.509
256.91	32.740
257.28	26.978
257.65	33.333
258.02	30.435
258.39	29.338
258.76	31.104
259.14	28.571
259.51	29.483
259.88	25.155
260.25	30.211
260.62	28.324
260.99	31.056
261.36	27.628
261.73	29.513
262.10	27.907
262.47	29.577
262.85	27.855
263.22	23.647
263.59	29.630
263.96	25.824
264.33	30.287
264.70	23.421
265.07	26.598
265.44	27.778
265.81	28.710
266.18	30.653
266.55	27.561
266.92	31.204
267.29	28.704
267.66	25.917
268.03	25.909
268.40	27.336
268.77	24.582
269.14	25.225
269.51	26.185
269.88	26.107
270.25	26.411
270.62	27.640
270.99	25.806
271.36	26.609
271.73	23.598
272.10	25.217
272.47	26.667
272.84	24.892
273.21	26.625
273.58	24.454
273.95	24.319
274.32	23.760
274.69	24.411
275.06	25.000
275.43	25.957
275.80	24.649
276.17	25.051
276.54	25.364
276.91	24.901
277.28	22.461
277.65	20.890
278.02	24.845
278.39	25.781
278.76	22.182
279.13	24.717
279.50	23.836
279.87	25.100
280.23	22.754
280.60	23.791
280.97	22.181
281.34	24.248
281.71	24.182
282.08	24.184
282.45	22.000
282.82	22.025
283.19	21.390
283.56	23.860
283.92	23.519
284.29	23.457
284.66	23.049
285.03	23.327
285.40	22.711
285.77	22.896
286.14	20.553
286.51	24.000
286.87	23.761
287.24	22.638
287.61	21.509
287.98	20.942
288.35	20.285
288.72	21.495
289.08	21.283
289.45	20.923
289.82	22.114
290.19	20.722
290.56	19.296
290.93	19.033
291.29	20.092
291.66	18.879
292.03	21.221
292.40	22.614
292.77	18.343
293.13	19.701
293.50	19.096
293.87	18.222
294.24	20.741
294.60	17.904
294.97	18.750
295.34	20.451
295.71	19.034
296.08	19.088
296.44	17.607
296.81	17.834
297.18	20.596
297.55	16.095
297.91	17.150
298.28	19.143
298.65	20.235
299.02	18.182
299.38	17.131
299.75	15.633
300.12	17.497
300.48	17.875
300.85	17.509
301.22	16.178
301.59	18.182
301.95	16.625
302.32	16.046
302.69	16.368
303.05	16.242
303.42	16.420
303.79	16.648
304.15	14.569
304.52	14.137
304.89	16.144
305.25	14.617
305.62	15.742
305.99	16.057
306.35	16.219
306.72	15.919
307.09	16.426
307.45	17.455
307.82	14.397
308.19	16.887
308.55	16.613
308.92	15.252
309.29	15.312
309.65	14.316
310.02	16.596
310.38	16.344
310.75	14.995
311.12	15.660
311.48	14.629
311.85	16.352
312.22	16.129
312.58	15.073
312.95	16.262
313.31	14.854
313.68	16.008
314.05	16.864
314.41	15.276
314.78	16.818
315.14	14.995
315.51	15.448
315.87	15.347
316.24	15.690
316.61	15.302
316.97	14.188
317.34	15.068
317.70	15.010
318.07	15.399
318.43	15.656
318.80	15.464
319.16	16.008
319.53	14.634
319.89	14.952
320.26	16.500
320.62	16.667
320.99	15.455
321.35	15.960
321.72	16.940
322.08	15.400
322.45	16.219
322.81	15.795
323.18	15.029
323.54	16.883
323.91	17.170
324.27	15.966
324.64	15.191
325.00	15.059
325.37	17.106
325.73	16.248
326.10	16.770
326.46	15.502
326.83	15.531
327.19	16.567
327.56	15.941
327.92	15.836
328.29	17.480
328.65	17.587
329.01	15.704
329.38	15.819
329.74	15.789
330.11	16.117
330.47	16.804
330.84	17.004
331.20	15.574
331.56	16.330
331.93	17.407
332.29	16.415
332.66	18.319
333.02	16.728
333.38	17.796
333.75	17.825
334.11	16.904
334.48	16.948
334.84	17.555
335.20	17.364
335.57	15.956
335.93	16.518
336.29	16.850
336.66	17.313
337.02	16.833
337.38	17.315
337.75	16.845
338.11	17.278
338.47	16.390
338.84	18.240
339.20	16.881
339.56	17.336
339.93	16.636
340.29	17.572
340.65	17.201
341.02	17.714
341.38	16.726
341.74	16.667
342.11	17.205
342.47	16.388
342.83	16.353
343.20	17.316
343.56	16.091
343.92	17.193
344.28	17.177
344.65	18.057
345.01	17.088
345.37	16.123
345.73	16.667
346.10	16.880
346.46	17.203
346.82	16.557
347.19	16.541
347.55	16.831
347.91	17.152
348.27	17.502
348.63	16.555
349.00	16.100
349.36	16.667
349.72	16.038
350.08	14.911
350.45	16.436
350.81	16.328
351.17	16.856
351.53	16.544
351.89	16.337
352.26	17.048
352.62	16.921
352.98	16.613
353.34	16.270
353.70	14.321
354.07	15.806
354.43	16.270
354.79	16.171
355.15	15.563
355.51	16.946
355.87	16.653
356.24	15.554
356.60	15.156
356.96	15.607
357.32	16.353
357.68	16.535
358.04	15.914
358.40	16.627
358.77	16.588
359.13	15.470
359.49	16.078
359.85	14.206
360.21	15.231
360.57	16.887
360.93	15.692
361.29	15.873
361.66	14.706
362.02	15.896
362.38	15.513
362.74	16.220
363.10	14.878
363.46	15.187
363.82	15.420
364.18	15.051
364.54	16.939
364.90	15.652
365.26	15.515
365.62	15.413
365.98	14.755
366.35	15.186
366.71	16.341
367.07	14.712
367.43	15.385
367.79	16.702
368.15	16.092
368.51	15.625
368.87	15.703
369.23	15.069
369.59	14.989
369.95	14.926
370.31	15.954
370.67	15.362
371.03	16.479
371.39	14.942
371.75	14.559
372.11	14.438
372.47	15.103
372.83	16.066
373.19	15.246
373.55	15.521
373.91	15.906
374.27	14.777
374.63	14.691
374.99	15.395
375.35	14.864
375.71	15.696
376.07	16.529
376.42	15.131
376.78	16.302
377.14	14.925
377.50	15.430
377.86	14.694
378.22	15.360
378.58	14.599
378.94	14.959
379.30	15.331
379.66	15.609
380.02	15.541
380.38	14.026
380.74	15.666
381.09	15.770
381.45	16.042
381.81	15.111
382.17	15.032
382.53	14.717
382.89	15.617
383.25	15.134
383.61	15.180
383.97	15.385
384.32	15.721
384.68	14.312
385.04	15.243
385.40	15.170
385.76	14.435
386.12	15.155
386.48	15.481
386.83	15.074
387.19	15.832
387.55	15.708
387.91	15.115
388.27	14.654
388.62	15.734
388.98	14.312
389.34	16.521
389.70	15.083
390.06	16.350
390.42	15.824
390.77	15.712
391.13	16.018
391.49	15.482
391.85	14.449
392.20	14.700
392.56	14.899
392.92	15.715
393.28	13.905
393.64	15.887
393.99	15.699
394.35	15.074
394.71	14.492
395.07	14.330
395.42	15.266
395.78	15.140
396.14	14.960
396.50	15.727
396.85	15.766
397.21	14.982
397.57	15.251
397.92	15.325
398.28	14.854
398.64	16.069
399.00	15.501
399.35	15.116
399.71	15.394
400.07	15.789
400.42	15.583
400.78	15.320
401.14	14.939
401.49	15.403
401.85	15.729
402.21	16.228
402.57	15.176
402.92	15.385
403.28	15.365
403.63	15.037
403.99	15.478
404.35	15.939
404.70	15.528
405.06	14.793
405.42	14.785
405.77	14.743
406.13	15.463
406.49	15.494
406.84	15.121
407.20	14.953
407.55	15.124
407.91	16.267
408.27	14.933
408.62	15.653
408.98	15.748
409.34	16.175
409.69	16.000
410.05	15.551
410.40	15.413
410.76	15.173
411.11	15.923
411.47	14.888
411.83	15.883
412.18	15.337
412.54	15.629
412.89	16.024
413.25	15.348
413.60	15.998
413.96	15.179
414.31	15.857
414.67	16.603
415.03	15.629
415.38	16.366
415.74	15.627
416.09	15.415
416.45	15.462
416.80	16.722
417.16	16.890
417.51	15.660
417.87	15.478
418.22	16.151
418.58	16.075
418.93	15.848
419.29	15.532
419.64	16.373
420.00	16.402
420.35	15.710
420.71	16.318
421.06	15.692
421.42	15.205
421.77	17.096
422.12	15.834
422.48	15.219
422.83	15.958
423.19	15.691
423.54	16.309
423.90	16.522
424.25	15.969
424.61	15.833
424.96	15.510
425.31	16.058
425.67	15.000
426.02	15.029
426.38	16.300
426.73	15.799
427.09	16.170
427.44	15.699
427.79	15.929
428.15	16.548
428.50	16.033
428.85	16.210
429.21	16.013
429.56	14.774
429.92	15.148
430.27	15.392
430.62	15.310
430.98	15.153
431.33	15.876
431.68	16.597
432.04	15.548
432.39	15.363
432.74	15.260
433.10	15.676
433.45	16.501
433.80	15.521
434.16	15.438
434.51	15.632
434.86	16.249
435.22	15.898
435.57	15.441
435.92	16.150
436.28	15.362
436.63	16.280
436.98	15.398
437.34	16.100
437.69	16.103
438.04	15.627
438.39	16.060
438.75	15.630
439.10	15.922
439.45	16.057
439.81	16.133
440.16	15.867
440.51	15.700
440.86	15.692
441.22	16.073
441.57	15.180
441.92	16.172
442.27	15.554
442.63	16.166
442.98	16.620
443.33	15.217
443.68	15.798
444.03	16.203
444.39	15.628
444.74	16.126
445.09	15.957
445.44	16.074
445.79	15.289
446.15	16.199
446.50	15.670
446.85	15.519
447.20	15.757
447.55	16.304
447.91	15.885
448.26	15.637
448.61	15.602
448.96	16.058
449.31	17.042
449.66	16.545
450.02	15.097
450.37	14.683
450.72	15.341
451.07	15.478
451.42	15.076
451.77	16.970
452.12	15.993
452.47	15.983
452.83	15.326
453.18	16.015
453.53	16.388
453.88	15.535
454.23	16.019
454.58	16.111
454.93	15.702
455.28	16.209
455.63	16.080
455.98	16.548
456.34	15.829
456.69	15.466
457.04	16.409
457.39	15.897
457.74	15.902
458.09	16.389
458.44	16.021
458.79	15.239
459.14	15.745
459.49	16.170
459.84	15.512
460.19	15.203
460.54	15.220
460.89	15.634
461.24	16.029
461.59	16.444
461.94	15.598
462.29	16.142
462.64	15.954
462.99	16.786
463.34	16.400
463.69	16.135
464.04	15.942
464.39	15.768
464.74	16.102
465.09	16.224
465.44	15.235
465.79	15.268
466.14	15.435
466.49	15.740
466.84	16.521
467.19	15.872
467.54	15.750
467.89	15.666
468.24	16.230
468.59	15.873
468.94	15.638
469.29	16.131
469.64	16.867
469.99	16.576
470.34	15.456
470.68	16.523
471.03	16.190
471.38	15.914
471.73	16.855
472.08	16.118
472.43	15.641
472.78	16.261
473.13	15.982
473.48	16.854
473.83	16.646
474.17	15.432
474.52	16.625
474.87	16.871
475.22	16.251
475.57	15.690
475.92	16.038
476.27	16.065
476.61	15.389
476.96	15.173
477.31	16.013
477.66	15.481
478.01	15.316
478.36	15.600
478.70	15.732
479.05	15.815
479.40	15.967
479.75	15.963
480.10	15.258
480.45	15.326
480.79	15.146
481.14	15.264
481.49	15.757
481.84	15.226
482.19	15.902
482.53	15.183
482.88	15.356
483.23	16.121
483.58	16.106
483.92	15.604
484.27	14.423
484.62	14.655
484.97	15.254
485.31	14.897
485.66	13.938
486.01	13.891
486.36	13.551
486.70	13.433
487.05	13.667
487.40	13.994
487.75	13.691
488.09	13.740
488.44	14.343
488.79	14.720
489.13	14.706
489.48	14.804
489.83	14.502
490.17	15.300
490.52	14.836
490.87	14.880
491.22	14.961
491.56	14.989
491.91	15.123
492.26	14.607
492.60	15.438
492.95	14.079
493.30	15.561
493.64	14.792
493.99	14.717
494.34	15.264
494.68	15.797
495.03	15.367
495.37	15.170
495.72	15.156
496.07	15.220
496.41	14.912
496.76	14.996
497.11	15.534
497.45	15.370
497.80	14.683
498.14	14.783
498.49	14.683
498.84	15.292
499.18	15.048
499.53	15.195
499.87	15.377
500.22	15.732
500.56	15.097
500.91	15.433
501.26	14.841
501.60	15.947
501.95	14.986
502.29	15.745
502.64	15.503
502.98	15.147
503.33	15.356
503.67	15.313
504.02	15.529
504.36	15.723
504.71	14.998
505.06	15.277
505.40	14.827
505.75	14.706
506.09	15.258
506.44	14.998
506.78	15.733
507.13	15.245
507.47	15.202
507.82	15.350
508.16	15.653
508.51	15.779
508.85	15.442
509.19	15.510
509.54	15.255
509.88	15.559
510.23	15.167
510.57	16.873
510.92	16.209
511.26	15.468
511.61	16.079
511.95	15.031
512.30	16.013
512.64	15.744
512.98	15.809
513.33	16.274
513.67	14.621
514.02	15.152
514.36	16.166
514.70	16.325
515.05	14.891
515.39	16.433
515.74	15.935
516.08	16.098
516.42	16.204
516.77	15.998
517.11	15.538
517.46	16.817
517.80	16.551
518.14	14.881
518.49	16.453
518.83	15.795
519.17	15.878
519.52	15.393
519.86	15.916
520.20	16.647
520.55	16.876
520.89	16.423
521.23	16.526
521.58	16.507
521.92	16.656
522.26	15.802
522.61	16.822
522.95	16.022
523.29	16.007
523.64	15.732
523.98	16.205
524.32	17.069
524.66	16.777
525.01	15.931
525.35	16.605
525.69	15.764
526.04	16.947
526.38	16.718
526.72	15.828
527.06	16.196
527.41	15.099
527.75	16.399
528.09	17.084
528.43	16.699
528.78	16.656
529.12	16.545
529.46	17.391
529.80	16.027
530.15	17.632
530.49	16.123
530.83	16.646
531.17	16.710
531.51	17.575
531.86	16.452
532.20	16.297
532.54	17.233
532.88	16.752
533.22	16.240
533.57	16.605
533.91	16.376
534.25	16.039
534.59	15.924
534.93	16.895
535.27	15.872
535.62	16.972
535.96	16.384
536.30	16.084
536.64	16.291
536.98	16.589
537.32	16.063
537.66	16.133
538.01	16.524
538.35	16.354
538.69	17.230
539.03	16.504
539.37	15.144
539.71	15.230
540.05	16.013
540.39	16.346
540.73	16.300
541.07	16.677
541.42	15.656
541.76	16.968
542.10	16.300
542.44	16.424
542.78	16.667
543.12	15.867
543.46	16.984
543.80	16.135
544.14	15.533
544.48	16.317
544.82	16.357
545.16	16.981
545.50	16.710
545.84	15.860
546.18	17.239
546.52	17.068
546.86	16.220
547.20	16.925
547.54	16.366
547.88	17.602
548.22	16.314
548.56	16.918
548.90	15.493
549.24	15.758
549.58	17.258
549.92	16.415
550.26	15.909
550.60	17.566
550.94	17.254
551.28	16.606
551.62	17.038
551.96	16.632
552.30	17.338
552.64	17.444
552.98	17.492
553.32	16.251
553.66	16.837
554.00	16.060
554.34	17.253
554.68	17.310
555.02	16.714
555.36	16.423
555.69	16.644
556.03	17.026
556.37	17.053
556.71	15.962
557.05	15.966
557.39	17.075
557.73	16.584
558.07	16.896
558.41	16.715
558.75	17.340
559.08	16.928
559.42	16.402
559.76	17.794
560.10	16.274
560.44	15.933
560.78	16.168
561.12	17.084
561.45	17.080
561.79	16.018
562.13	16.499
562.47	17.486
562.81	15.969
563.15	16.254
563.48	16.313
563.82	16.438
564.16	16.351
564.50	15.820
564.84	15.297
565.17	15.251
565.51	15.719
565.85	16.624
566.19	15.529
566.52	17.289
566.86	15.371
567.20	15.979
567.54	15.297
567.88	15.426
568.21	16.085
568.55	15.571
568.89	16.002
569.23	14.706
569.56	14.858
569.90	14.830
570.24	14.424
570.57	14.417
570.91	14.124
571.25	13.620
571.59	13.873
571.92	13.681
572.26	13.894
572.60	13.814
572.93	14.033
573.27	13.872
573.61	14.070
573.95	14.031
574.28	13.266
574.62	13.776
574.96	13.333
575.29	13.215
575.63	13.288
575.97	13.590
576.30	13.728
576.64	13.293
576.98	13.223
577.31	13.193
577.65	13.550
577.98	13.390
578.32	13.205
578.66	13.522
578.99	13.330
579.33	13.290
579.67	12.819
580.00	12.923
580.34	13.028
580.67	12.834
581.01	13.492
581.35	12.927
581.68	13.074
582.02	13.101
582.35	12.911
582.69	13.095
583.02	13.266
583.36	12.451
583.70	13.262
584.03	13.166
584.37	13.570
584.70	13.114
585.04	13.381
585.37	13.048
585.71	13.134
586.04	13.699
586.38	13.088
586.72	13.891
587.05	13.040
587.39	13.456
587.72	13.270
588.06	13.474
588.39	13.498
588.73	13.318
589.06	14.179
589.40	14.175
589.73	13.939
590.07	14.306
590.40	14.213
590.73	14.208
591.07	14.408
591.40	14.298
591.74	14.675
592.07	14.703
592.41	14.551
592.74	14.232
593.08	13.924
593.41	13.825
593.75	13.741
594.08	13.912
594.41	13.963
594.75	14.011
595.08	14.209
595.42	14.396
595.75	14.103
596.09	13.969
596.42	14.420
596.75	14.141
597.09	15.455
597.42	14.334
597.75	14.834
598.09	14.826
598.42	14.991
598.76	14.512
599.09	13.797
599.42	14.301
599.76	13.763
600.09	14.353
600.42	13.733
600.76	13.714
601.09	13.880
601.42	13.737
601.76	14.080
602.09	14.032
602.42	15.207
602.76	14.833
603.09	13.926
603.42	14.760
603.76	15.015
604.09	14.114
604.42	13.779
604.76	14.762
605.09	14.723
605.42	14.664
605.75	14.528
606.09	13.908
606.42	14.221
606.75	14.724
607.09	14.860
607.42	14.463
607.75	14.388
608.08	14.416
608.42	15.105
608.75	14.472
609.08	14.570
609.41	14.422
609.75	14.769
610.08	15.740
610.41	13.920
610.74	15.137
611.07	14.872
611.41	14.524
611.74	15.435
612.07	14.855
612.40	15.163
612.73	15.000
613.07	16.379
613.40	15.166
613.73	14.473
614.06	15.161
614.39	15.836
614.72	15.579
615.06	15.756
615.39	14.862
615.72	15.389
616.05	15.364
616.38	15.842
616.71	15.321
617.05	15.901
617.38	15.093
617.71	15.796
618.04	15.625
618.37	15.553
618.70	15.557
619.03	16.316
619.36	16.565
619.69	16.620
620.03	16.690
620.36	16.778
620.69	16.301
621.02	16.150
621.35	16.053
621.68	15.810
622.01	16.099
622.34	17.398
622.67	17.795
623.00	16.361
623.33	16.154
623.66	16.512
623.99	15.464
624.32	16.334
624.65	16.243
624.99	15.722
625.32	16.148
625.65	16.454
625.98	16.910
626.31	17.496
626.64	17.224
626.97	16.791
627.30	16.874
627.63	17.473
627.96	17.578
628.29	17.848
628.62	18.207
628.95	18.585
629.28	18.431
629.61	19.065
629.94	17.810
630.26	16.778
630.59	18.875
630.92	18.678
631.25	17.177
