SpectraSuite Data File
++++++++++++++++++++++++++++++++++++
Date: Wed May 13 20:29:03 PDT 2015
User: schluterlab
Dark Spectrum Present: Yes
Reference Spectrum Present: Yes
Number of Sampled Component Spectra: 1
Spectrometers: USB2E3373
Integration Time (usec): 3000 (USB2E3373)
Spectra Averaged: 3 (USB2E3373)
Boxcar Smoothing: 0 (USB2E3373)
Correct for Electrical Dark: No (USB2E3373)
Strobe/Lamp Enabled: No (USB2E3373)
Correct for Detector Non-linearity: No (USB2E3373)
Correct for Stray Light: No (USB2E3373)
Number of Pixels in Processed Spectrum: 2048
>>>>>Begin Processed Spectral Data<<<<<
178.53	0.000
178.91	-1175.000
179.29	-1200.000
179.67	-211.111
180.04	-1125.000
180.42	2200.000
180.80	800.000
181.18	-750.000
181.56	557.143
181.94	0.000
182.31	-571.429
182.69	1333.333
183.07	-425.000
183.45	-477.778
183.83	454.545
184.20	-280.000
184.58	2000.000
184.96	5100.000
185.34	-760.000
185.72	-612.500
186.09	-1550.000
186.47	2000.000
186.85	1400.000
187.23	4100.000
187.61	-1100.000
187.98	1175.000
188.36	500.000
188.74	481.818
189.12	-680.000
189.49	420.000
189.87	-3300.000
190.25	-975.000
190.63	350.000
191.00	376.923
191.38	783.333
191.76	-850.000
192.14	1175.000
192.51	562.500
192.89	733.333
193.27	450.000
193.65	-750.000
194.02	500.000
194.40	800.000
194.78	500.000
195.15	466.667
195.53	500.000
195.91	-1850.000
196.29	275.000
196.66	252.632
197.04	-270.000
197.42	0.000
197.79	470.000
198.17	-3900.000
198.55	442.857
198.92	475.000
199.30	780.000
199.68	0.000
200.05	272.222
200.43	671.429
200.81	3600.000
201.18	1466.667
201.56	-1066.667
201.94	444.444
202.31	511.111
202.69	350.000
203.07	550.000
203.44	0.000
203.82	1200.000
204.19	514.286
204.57	407.143
204.95	637.500
205.32	1500.000
205.70	454.545
206.08	350.000
206.45	2150.000
206.83	331.250
207.20	916.667
207.58	620.000
207.96	255.556
208.33	525.000
208.71	-683.333
209.08	571.429
209.46	455.556
209.84	427.273
210.21	-1100.000
210.59	1225.000
210.96	-350.000
211.34	1950.000
211.71	510.000
212.09	650.000
212.46	0.000
212.84	1433.333
213.22	1100.000
213.59	-4100.000
213.97	666.667
214.34	757.143
214.72	509.091
215.09	900.000
215.47	-2150.000
215.84	-2150.000
216.22	1566.667
216.59	300.000
216.97	1050.000
217.34	463.636
217.72	-633.333
218.09	0.000
218.47	-3000.000
218.84	611.111
219.22	757.143
219.59	1300.000
219.97	-585.714
220.34	760.000
220.72	-1366.667
221.09	350.000
221.47	1100.000
221.84	-850.000
222.22	0.000
222.59	1250.000
222.97	-1950.000
223.34	940.000
223.72	392.308
224.09	960.000
224.46	1600.000
224.84	-4400.000
225.21	-660.000
225.59	-4000.000
225.96	520.000
226.34	215.000
226.71	2100.000
227.08	625.000
227.46	570.000
227.83	-700.000
228.21	-1950.000
228.58	377.778
228.95	-1850.000
229.33	-1850.000
229.70	1533.333
230.08	628.571
230.45	-740.000
230.82	350.000
231.20	516.667
231.57	471.429
231.95	475.000
232.32	177.273
232.69	245.455
233.07	600.000
233.44	400.000
233.81	-1433.333
234.19	252.632
234.56	400.000
234.93	291.667
235.31	336.364
235.68	369.231
236.05	335.714
236.43	175.758
236.80	215.789
237.17	4400.000
237.55	223.810
237.92	192.857
238.29	242.857
238.67	158.065
239.04	182.759
239.41	158.333
239.79	108.696
240.16	152.381
240.53	122.727
240.91	113.725
241.28	126.000
241.65	112.000
242.02	102.899
242.40	96.774
242.77	113.333
243.14	84.946
243.51	89.888
243.89	78.824
244.26	80.000
244.63	76.344
245.00	77.660
245.38	84.158
245.75	74.766
246.12	65.138
246.49	72.993
246.87	81.600
247.24	70.000
247.61	70.000
247.98	66.013
248.36	62.838
248.73	62.420
249.10	61.783
249.47	58.757
249.84	62.567
250.22	54.545
250.59	65.680
250.96	61.616
251.33	58.294
251.70	55.446
252.08	59.524
252.45	56.951
252.82	56.087
253.19	59.149
253.56	54.510
253.94	54.772
254.31	53.906
254.68	59.615
255.05	55.720
255.42	49.593
255.79	53.309
256.16	54.152
256.54	48.057
256.91	54.448
257.28	52.158
257.65	50.825
258.02	50.621
258.39	47.950
258.76	51.505
259.14	48.810
259.51	50.152
259.88	48.758
260.25	48.640
260.62	50.289
260.99	50.311
261.36	50.450
261.73	50.143
262.10	50.872
262.47	51.549
262.85	48.468
263.22	50.427
263.59	51.852
263.96	48.626
264.33	48.303
264.70	49.737
265.07	49.616
265.44	48.232
265.81	46.715
266.18	48.241
266.55	49.268
266.92	48.894
267.29	48.843
267.66	47.018
268.03	48.182
268.40	45.794
268.77	49.881
269.14	45.495
269.51	46.953
269.88	48.485
270.25	44.018
270.62	47.416
270.99	47.312
271.36	46.781
271.73	50.234
272.10	46.739
272.47	52.258
272.84	43.939
273.21	46.541
273.58	43.668
273.95	46.541
274.32	46.488
274.69	48.180
275.06	44.685
275.43	45.532
275.80	45.691
276.17	47.454
276.54	46.985
276.91	46.443
277.28	43.945
277.65	45.068
278.02	42.857
278.39	43.164
278.76	42.727
279.13	46.415
279.50	43.389
279.87	44.024
280.23	44.711
280.60	43.907
280.97	44.547
281.34	43.009
281.71	43.091
282.08	43.954
282.45	43.091
282.82	42.274
283.19	41.355
283.56	41.930
283.92	45.854
284.29	42.681
284.66	42.105
285.03	43.219
285.40	42.958
285.77	41.919
286.14	40.242
286.51	43.667
286.87	41.538
287.24	42.508
287.61	40.931
287.98	39.773
288.35	39.937
288.72	38.629
289.08	39.906
289.45	41.021
289.82	40.488
290.19	40.188
290.56	40.429
290.93	37.915
291.29	38.190
291.66	37.316
292.03	38.372
292.40	41.410
292.77	36.243
293.13	36.418
293.50	36.735
293.87	36.741
294.24	37.037
294.60	34.061
294.97	36.628
295.34	36.107
295.71	36.506
296.08	35.470
296.44	34.801
296.81	34.742
297.18	34.146
297.55	32.850
297.91	33.773
298.28	34.806
298.65	35.379
299.02	35.441
299.38	34.927
299.75	29.245
300.12	32.439
300.48	32.875
300.85	32.182
301.22	32.229
301.59	31.313
301.95	32.242
302.32	33.376
302.69	30.227
303.05	31.030
303.42	32.099
303.79	31.370
304.15	31.469
304.52	30.359
304.89	30.662
305.25	29.350
305.62	29.672
305.99	30.933
306.35	31.432
306.72	31.054
307.09	30.855
307.45	29.505
307.82	29.353
308.19	30.022
308.55	30.744
308.92	29.431
309.29	29.356
309.65	29.374
310.02	29.175
310.38	30.753
310.75	31.045
311.12	29.478
311.48	30.721
311.85	29.560
312.22	30.073
312.58	29.210
312.95	30.306
313.31	27.476
313.68	29.834
314.05	29.684
314.41	29.749
314.78	28.802
315.14	28.997
315.51	28.939
315.87	28.713
316.24	28.997
316.61	28.655
316.97	30.528
317.34	29.159
317.70	31.453
318.07	28.200
318.43	30.137
318.80	30.740
319.16	28.908
319.53	28.893
319.89	30.667
320.26	30.500
320.62	30.754
320.99	30.101
321.35	28.889
321.72	29.466
322.08	30.898
322.45	33.532
322.81	32.267
323.18	32.852
323.54	31.725
323.91	32.547
324.27	32.218
324.64	32.246
325.00	29.937
325.37	33.485
325.73	32.675
326.10	32.480
326.46	32.079
326.83	33.391
327.19	32.195
327.56	32.840
327.92	34.121
328.29	35.049
328.65	34.715
329.01	34.206
329.38	34.690
329.74	34.257
330.11	35.061
330.47	35.354
330.84	35.754
331.20	34.062
331.56	35.046
331.93	35.370
332.29	34.605
332.66	34.248
333.02	34.826
333.38	36.043
333.75	34.759
334.11	35.587
334.48	33.718
334.84	34.926
335.20	35.545
335.57	36.990
335.93	34.643
336.29	34.707
336.66	36.519
337.02	34.208
337.38	35.833
337.75	34.403
338.11	34.109
338.47	36.004
338.84	36.572
339.20	34.771
339.56	35.949
339.93	36.091
340.29	34.149
340.65	35.383
341.02	35.428
341.38	36.655
341.74	34.737
342.11	35.109
342.47	35.947
342.83	35.274
343.20	35.584
343.56	35.889
343.92	35.351
344.28	34.354
344.65	35.340
345.01	33.923
345.37	33.533
345.73	34.602
346.10	34.953
346.46	34.576
346.82	35.832
347.19	34.586
347.55	33.662
347.91	35.922
348.27	35.168
348.63	33.863
349.00	34.061
349.36	35.550
349.72	34.242
350.08	33.793
350.45	35.476
350.81	34.362
351.17	34.684
351.53	34.316
351.89	34.241
352.26	34.017
352.62	35.204
352.98	34.846
353.34	34.100
353.70	34.206
354.07	34.032
354.43	35.079
354.79	35.157
355.15	34.557
355.51	35.891
355.87	34.612
356.24	33.876
356.60	33.520
356.96	34.352
357.32	34.178
357.68	34.173
358.04	33.096
358.40	34.283
358.77	32.786
359.13	33.544
359.49	34.275
359.85	33.968
360.21	34.928
360.57	34.708
360.93	35.000
361.29	34.165
361.66	33.437
362.02	34.925
362.38	34.601
362.74	34.747
363.10	34.641
363.46	33.896
363.82	34.089
364.18	33.774
364.54	34.175
364.90	34.703
365.26	34.191
365.62	34.916
365.98	34.112
366.35	33.811
366.71	34.418
367.07	34.669
367.43	34.325
367.79	34.190
368.15	34.052
368.51	33.794
368.87	34.761
369.23	34.016
369.59	35.554
369.95	33.088
370.31	34.544
370.67	33.623
371.03	35.281
371.39	34.257
371.75	34.338
372.11	33.997
372.47	35.117
372.83	34.222
373.19	34.176
373.55	34.959
373.91	36.009
374.27	33.471
374.63	35.273
374.99	34.958
375.35	33.915
375.71	34.339
376.07	34.842
376.42	34.250
376.78	33.930
377.14	34.125
377.50	34.768
377.86	34.508
378.22	35.209
378.58	33.271
378.94	34.947
379.30	34.860
379.66	34.645
380.02	35.012
380.38	34.730
380.74	34.394
381.09	34.841
381.45	35.157
381.81	35.504
382.17	35.796
382.53	34.654
382.89	35.309
383.25	35.022
383.61	35.688
383.97	35.084
384.32	34.623
384.68	34.449
385.04	35.218
385.40	34.551
385.76	34.767
386.12	34.974
386.48	35.242
386.83	34.894
387.19	35.807
387.55	34.261
387.91	34.462
388.27	35.193
388.62	36.017
388.98	35.504
389.34	36.045
389.70	36.603
390.06	36.946
390.42	35.863
390.77	36.705
391.13	37.077
391.49	37.056
391.85	35.137
392.20	35.268
392.56	36.364
392.92	36.257
393.28	34.793
393.64	36.391
393.99	35.186
394.35	35.422
394.71	35.947
395.07	35.140
395.42	36.403
395.78	37.150
396.14	36.189
396.50	37.281
396.85	35.855
397.21	35.203
397.57	35.772
397.92	36.899
398.28	35.930
398.64	36.201
399.00	36.318
399.35	36.210
399.71	36.748
400.07	37.138
400.42	35.767
400.78	37.937
401.14	36.768
401.49	36.179
401.85	36.963
402.21	35.629
402.57	36.644
402.92	37.074
403.28	36.352
403.63	36.386
403.99	37.006
404.35	37.697
404.70	36.451
405.06	36.459
405.42	36.744
405.77	35.314
406.13	36.230
406.49	36.487
406.84	37.744
407.20	36.939
407.55	36.822
407.91	37.067
408.27	37.460
408.62	36.484
408.98	38.235
409.34	36.962
409.69	36.968
410.05	37.113
410.40	37.125
410.76	36.679
411.11	37.334
411.47	36.741
411.83	36.897
412.18	35.622
412.54	36.737
412.89	37.470
413.25	37.721
413.60	37.801
413.96	37.158
414.31	37.667
414.67	37.262
415.03	38.344
415.38	38.531
415.74	38.264
416.09	38.733
416.45	37.015
416.80	38.401
417.16	38.740
417.51	37.823
417.87	37.380
418.22	38.991
418.58	38.476
418.93	38.145
419.29	37.874
419.64	37.909
420.00	37.256
420.35	37.855
420.71	38.314
421.06	37.232
421.42	38.070
421.77	38.565
422.12	37.619
422.48	37.453
422.83	38.905
423.19	37.735
423.54	38.828
423.90	38.493
424.25	39.140
424.61	38.750
424.96	39.592
425.31	38.926
425.67	38.258
426.02	38.457
426.38	39.438
426.73	38.853
427.09	38.663
427.44	38.815
427.79	39.908
428.15	39.821
428.50	39.204
428.85	39.094
429.21	39.150
429.56	38.984
429.92	38.903
430.27	38.133
430.62	38.658
430.98	38.298
431.33	38.299
431.68	39.791
432.04	39.563
432.39	39.634
432.74	39.378
433.10	39.842
433.45	39.534
433.80	38.969
434.16	39.316
434.51	39.632
434.86	40.764
435.22	41.523
435.57	39.757
435.92	40.667
436.28	40.391
436.63	40.287
436.98	39.439
437.34	41.383
437.69	41.190
438.04	40.585
438.39	39.761
438.75	41.371
439.10	41.173
439.45	40.319
439.81	40.665
440.16	40.711
440.51	40.949
440.86	41.401
441.22	41.435
441.57	41.030
441.92	40.993
442.27	41.173
442.63	42.022
442.98	42.479
443.33	41.141
443.68	41.043
444.03	42.167
444.39	42.259
444.74	42.478
445.09	41.887
445.44	41.279
445.79	42.157
446.15	42.827
446.50	42.003
446.85	41.624
447.20	42.427
447.55	42.434
447.91	41.975
448.26	42.348
448.61	42.793
448.96	42.580
449.31	42.745
449.66	42.656
450.02	41.783
450.37	42.347
450.72	42.865
451.07	41.926
451.42	41.702
451.77	42.866
452.12	43.187
452.47	42.413
452.83	42.949
453.18	42.543
453.53	43.166
453.88	41.524
454.23	42.379
454.58	43.731
454.93	44.183
455.28	43.267
455.63	43.750
455.98	44.226
456.34	44.095
456.69	44.521
457.04	43.034
457.39	42.314
457.74	42.252
458.09	43.588
458.44	43.101
458.79	41.377
459.14	42.607
459.49	42.790
459.84	42.825
460.19	42.722
460.54	43.056
460.89	43.774
461.24	43.473
461.59	43.928
461.94	43.835
462.29	43.264
462.64	42.310
462.99	42.290
463.34	42.533
463.69	43.777
464.04	44.000
464.39	42.377
464.74	41.652
465.09	43.004
465.44	43.490
465.79	42.729
466.14	42.091
466.49	42.770
466.84	42.966
467.19	43.452
467.54	43.313
467.89	43.818
468.24	42.874
468.59	43.773
468.94	41.906
469.29	44.344
469.64	44.712
469.99	45.535
470.34	44.650
470.68	44.612
471.03	43.605
471.38	43.919
471.73	43.438
472.08	44.934
472.43	43.656
472.78	43.779
473.13	44.480
473.48	43.571
473.83	43.780
474.17	43.871
474.52	43.486
474.87	44.308
475.22	43.935
475.57	42.880
475.92	43.441
476.27	43.010
476.61	43.795
476.96	43.540
477.31	44.322
477.66	43.873
478.01	42.865
478.36	43.258
478.70	43.614
479.05	43.504
479.40	42.886
479.75	43.671
480.10	42.992
480.45	42.742
480.79	42.284
481.14	43.444
481.49	44.376
481.84	42.112
482.19	43.026
482.53	43.349
482.88	42.764
483.23	43.411
483.58	42.812
483.92	43.112
484.27	41.351
484.62	42.241
484.97	41.742
485.31	42.089
485.66	38.618
486.01	38.467
486.36	38.559
486.70	39.696
487.05	40.776
487.40	40.960
487.75	41.648
488.09	43.130
488.44	42.628
488.79	43.327
489.13	43.239
489.48	43.271
489.83	42.771
490.17	43.446
490.52	42.737
490.87	43.284
491.22	42.610
491.56	42.323
491.91	43.229
492.26	41.525
492.60	42.258
492.95	42.657
493.30	42.523
493.64	43.070
493.99	42.061
494.34	43.062
494.68	43.544
495.03	43.562
495.37	43.136
495.72	44.055
496.07	43.712
496.41	42.345
496.76	43.668
497.11	42.143
497.45	44.061
497.80	43.570
498.14	42.657
498.49	42.780
498.84	42.665
499.18	43.238
499.53	42.877
499.87	43.430
500.22	43.476
500.56	44.612
500.91	43.365
501.26	43.385
501.60	44.328
501.95	42.667
502.29	43.627
502.64	43.622
502.98	43.665
503.33	42.824
503.67	42.877
504.02	43.358
504.36	42.583
504.71	43.429
505.06	42.747
505.40	42.927
505.75	42.575
506.09	43.246
506.44	44.647
506.78	43.838
507.13	44.372
507.47	44.747
507.82	43.566
508.16	44.934
508.51	44.242
508.85	43.496
509.19	44.031
509.54	43.418
509.88	44.101
510.23	43.959
510.57	44.634
510.92	44.899
511.26	45.170
511.61	44.450
511.95	43.789
512.30	44.327
512.64	45.244
512.98	44.695
513.33	44.111
513.67	43.650
514.02	43.994
514.36	45.167
514.70	44.881
515.05	45.008
515.39	45.036
515.74	44.595
516.08	45.500
516.42	46.171
516.77	45.652
517.11	45.006
517.46	45.767
517.80	45.935
518.14	45.628
518.49	45.916
518.83	46.136
519.17	45.208
519.52	44.822
519.86	46.149
520.20	46.879
520.55	46.140
520.89	46.655
521.23	46.381
521.58	45.498
521.92	45.560
522.26	45.027
522.61	46.231
522.95	45.611
523.29	46.257
523.64	45.915
523.98	46.457
524.32	46.261
524.66	46.121
525.01	47.243
525.35	45.973
525.69	46.182
526.04	45.919
526.38	46.126
526.72	46.258
527.06	45.825
527.41	45.297
527.75	47.203
528.09	47.078
528.43	46.654
528.78	45.421
529.12	45.273
529.46	46.724
529.80	46.720
530.15	45.607
530.49	45.662
530.83	46.646
531.17	49.086
531.51	47.795
531.86	46.452
532.20	46.349
532.54	47.149
532.88	46.534
533.22	45.034
533.57	45.679
533.91	46.057
534.25	44.471
534.59	45.027
534.93	44.914
535.27	46.409
535.62	45.543
535.96	45.825
536.30	45.772
536.64	46.233
536.98	46.782
537.32	45.556
537.66	46.533
538.01	45.951
538.35	45.184
538.69	45.948
539.03	44.509
539.37	45.623
539.71	43.616
540.05	46.275
540.39	46.113
540.73	44.890
541.07	47.242
541.42	45.271
541.76	45.226
542.10	45.472
542.44	45.828
542.78	45.455
543.12	43.954
543.46	45.049
543.80	45.218
544.14	44.288
544.48	44.889
544.82	45.285
545.16	44.242
545.50	44.794
545.84	45.766
546.18	46.667
546.52	45.974
546.86	45.773
547.20	46.325
547.54	45.023
547.88	46.046
548.22	44.085
548.56	44.591
548.90	44.238
549.24	45.185
549.58	45.498
549.92	45.192
550.26	45.668
550.60	44.882
550.94	45.634
551.28	44.989
551.62	45.938
551.96	44.772
552.30	45.870
552.64	45.842
552.98	45.763
553.32	44.235
553.66	45.399
554.00	44.681
554.34	44.997
554.68	47.496
555.02	45.628
555.36	44.120
555.69	44.249
556.03	44.145
556.37	45.157
556.71	43.861
557.05	44.818
557.39	44.927
557.73	44.178
558.07	46.193
558.41	45.441
558.75	45.261
559.08	46.607
559.42	46.107
559.76	44.853
560.10	44.397
560.44	43.676
560.78	42.781
561.12	44.459
561.45	43.937
561.79	44.693
562.13	43.729
562.47	44.262
562.81	45.676
563.15	44.080
563.48	44.496
563.82	45.662
564.16	43.100
564.50	43.620
564.84	43.363
565.17	43.436
565.51	43.131
565.85	43.528
566.19	42.267
566.52	44.015
566.86	43.761
567.20	43.396
567.54	42.694
567.88	40.684
568.21	42.222
568.55	42.012
568.89	41.002
569.23	40.820
569.56	41.093
569.90	38.981
570.24	39.182
570.57	39.306
570.91	38.688
571.25	38.820
571.59	38.940
571.92	37.990
572.26	38.908
572.60	38.709
572.93	38.381
573.27	38.953
573.61	38.554
573.95	38.734
574.28	37.764
574.62	37.852
574.96	36.846
575.29	37.633
575.63	38.465
575.97	37.777
576.30	38.449
576.64	37.124
576.98	37.773
577.31	37.777
577.65	37.763
577.98	36.992
578.32	36.239
578.66	37.254
578.99	37.822
579.33	37.376
579.67	37.387
580.00	37.377
580.34	37.233
580.67	37.792
581.01	37.666
581.35	36.940
581.68	36.173
582.02	36.470
582.35	36.944
582.69	37.370
583.02	37.665
583.36	37.999
583.70	38.561
584.03	38.245
584.37	38.762
584.70	37.983
585.04	37.794
585.37	37.349
585.71	37.218
586.04	37.110
586.38	38.558
586.72	37.780
587.05	37.055
587.39	36.807
587.72	37.722
588.06	37.780
588.39	38.107
588.73	37.812
589.06	38.018
589.40	39.461
589.73	38.824
590.07	38.968
590.40	38.254
590.73	40.047
591.07	40.090
591.40	40.742
591.74	39.610
592.07	39.398
592.41	38.487
592.74	37.978
593.08	37.542
593.41	37.393
593.75	37.164
594.08	37.378
594.41	37.929
594.75	37.967
595.08	38.475
595.42	38.214
595.75	37.785
596.09	39.166
596.42	38.664
596.75	39.004
597.09	39.264
597.42	38.153
597.75	39.327
598.09	39.391
598.42	38.359
598.76	37.900
599.09	36.906
599.42	37.045
599.76	37.848
600.09	36.940
600.42	36.998
600.76	37.607
601.09	37.450
601.42	38.356
601.76	38.710
602.09	38.340
602.42	38.774
602.76	39.339
603.09	38.356
603.42	38.501
603.76	37.919
604.09	37.728
604.42	37.587
604.76	38.296
605.09	38.052
605.42	37.495
605.75	37.624
606.09	37.414
606.42	38.128
606.75	37.951
607.09	37.798
607.42	38.083
607.75	37.722
608.08	36.344
608.42	38.458
608.75	37.511
609.08	37.512
609.41	38.030
609.75	37.970
610.08	38.360
610.41	37.570
610.74	38.221
611.07	38.883
611.41	38.077
611.74	39.015
612.07	39.027
612.40	38.248
612.73	38.211
613.07	39.871
613.40	38.757
613.73	37.861
614.06	38.763
614.39	38.595
614.72	38.316
615.06	37.973
615.39	37.155
615.72	37.883
616.05	37.852
616.38	38.021
616.71	39.608
617.05	39.340
617.38	38.004
617.71	38.739
618.04	38.882
618.37	38.971
618.70	39.452
619.03	38.816
619.36	39.172
619.69	40.141
620.03	39.904
620.36	39.906
620.69	40.479
621.02	41.593
621.35	39.389
621.68	39.953
622.01	39.861
622.34	39.713
622.67	40.380
623.00	40.059
623.33	38.885
623.66	40.315
623.99	40.280
624.32	40.371
624.65	38.630
624.99	39.164
625.32	38.957
625.65	40.120
625.98	39.124
626.31	39.347
626.64	40.898
626.97	40.648
627.30	41.313
627.63	40.689
627.96	41.463
628.29	39.633
628.62	40.256
628.95	42.264
629.28	41.788
629.61	41.613
629.94	42.000
630.26	39.561
630.59	41.087
630.92	40.900
