SpectraSuite Data File
++++++++++++++++++++++++++++++++++++
Date: Wed May 13 20:32:49 PDT 2015
User: schluterlab
Dark Spectrum Present: Yes
Reference Spectrum Present: Yes
Number of Sampled Component Spectra: 1
Spectrometers: USB2E3373
Integration Time (usec): 3000 (USB2E3373)
Spectra Averaged: 3 (USB2E3373)
Boxcar Smoothing: 0 (USB2E3373)
Correct for Electrical Dark: No (USB2E3373)
Strobe/Lamp Enabled: No (USB2E3373)
Correct for Detector Non-linearity: No (USB2E3373)
Correct for Stray Light: No (USB2E3373)
Number of Pixels in Processed Spectrum: 2048
>>>>>Begin Processed Spectral Data<<<<<
178.53	0.000
178.91	-1150.000
179.29	-900.000
179.67	-138.889
180.04	-1075.000
180.42	1850.000
180.80	700.000
181.18	-675.000
181.56	485.714
181.94	0.000
182.31	-614.286
182.69	1466.667
183.07	-462.500
183.45	-388.889
183.83	363.636
184.20	-230.000
184.58	1850.000
184.96	3300.000
185.34	-640.000
185.72	-550.000
186.09	-1750.000
186.47	2100.000
186.85	1500.000
187.23	2800.000
187.61	-1233.333
187.98	1175.000
188.36	390.909
188.74	336.364
189.12	-600.000
189.49	380.000
189.87	-3200.000
190.25	-925.000
190.63	335.714
191.00	346.154
191.38	666.667
191.76	-675.000
192.14	1125.000
192.51	537.500
192.89	783.333
193.27	487.500
193.65	-850.000
194.02	370.000
194.40	700.000
194.78	400.000
195.15	391.667
195.53	550.000
195.91	-1600.000
196.29	237.500
196.66	257.895
197.04	-160.000
197.42	0.000
197.79	450.000
198.17	-3300.000
198.55	600.000
198.92	525.000
199.30	660.000
199.68	0.000
200.05	266.667
200.43	671.429
200.81	3200.000
201.18	1000.000
201.56	-1133.333
201.94	555.556
202.31	455.556
202.69	275.000
203.07	410.000
203.44	0.000
203.82	1025.000
204.19	642.857
204.57	328.571
204.95	512.500
205.32	1100.000
205.70	400.000
206.08	192.857
206.45	2000.000
206.83	231.250
207.20	783.333
207.58	500.000
207.96	244.444
208.33	675.000
208.71	-600.000
209.08	571.429
209.46	544.444
209.84	372.727
210.21	-1100.000
210.59	975.000
210.96	-337.500
211.34	1800.000
211.71	520.000
212.09	466.667
212.46	0.000
212.84	1466.667
213.22	1150.000
213.59	-4100.000
213.97	733.333
214.34	514.286
214.72	472.727
215.09	620.000
215.47	-1700.000
215.84	-1650.000
216.22	1233.333
216.59	364.286
216.97	950.000
217.34	318.182
217.72	-533.333
218.09	0.000
218.47	-3700.000
218.84	500.000
219.22	628.571
219.59	1033.333
219.97	-457.143
220.34	740.000
220.72	-1066.667
221.09	321.429
221.47	1350.000
221.84	-650.000
222.22	0.000
222.59	1025.000
222.97	-2000.000
223.34	800.000
223.72	353.846
224.09	780.000
224.46	1800.000
224.84	-3100.000
225.21	-780.000
225.59	-3800.000
225.96	540.000
226.34	225.000
226.71	2000.000
227.08	362.500
227.46	440.000
227.83	-1100.000
228.21	-1650.000
228.58	466.667
228.95	-1900.000
229.33	-1600.000
229.70	1100.000
230.08	671.429
230.45	-620.000
230.82	316.667
231.20	650.000
231.57	500.000
231.95	358.333
232.32	213.636
232.69	254.545
233.07	442.857
233.44	346.154
233.81	-1400.000
234.19	242.105
234.56	366.667
234.93	341.667
235.31	327.273
235.68	300.000
236.05	314.286
236.43	142.424
236.80	263.158
237.17	4400.000
237.55	233.333
237.92	235.714
238.29	228.571
238.67	151.613
239.04	203.448
239.41	150.000
239.79	100.000
240.16	169.048
240.53	161.364
240.91	98.039
241.28	126.000
241.65	114.000
242.02	108.696
242.40	90.323
242.77	121.667
243.14	86.022
243.51	97.753
243.89	94.118
244.26	86.667
244.63	84.946
245.00	79.787
245.38	81.188
245.75	82.243
246.12	85.321
246.49	79.562
246.87	82.400
247.24	77.692
247.61	73.571
247.98	77.124
248.36	73.649
248.73	73.248
249.10	74.522
249.47	70.056
249.84	71.658
250.22	64.171
250.59	73.373
250.96	66.162
251.33	69.668
251.70	71.287
252.08	68.095
252.45	63.229
252.82	70.000
253.19	66.809
253.56	66.275
253.94	60.581
254.31	66.797
254.68	65.769
255.05	67.528
255.42	63.008
255.79	63.971
256.16	66.426
256.54	57.597
256.91	66.192
257.28	64.029
257.65	64.026
258.02	61.491
258.39	55.521
258.76	59.866
259.14	56.845
259.51	56.231
259.88	61.491
260.25	64.350
260.62	61.561
260.99	60.559
261.36	58.559
261.73	61.032
262.10	61.337
262.47	61.127
262.85	56.267
263.22	58.974
263.59	63.533
263.96	54.945
264.33	59.269
264.70	59.474
265.07	58.568
265.44	59.091
265.81	57.178
266.18	61.055
266.55	60.244
266.92	58.231
267.29	56.019
267.66	56.651
268.03	56.364
268.40	57.477
268.77	53.699
269.14	57.432
269.51	56.659
269.88	57.576
270.25	53.273
270.62	60.449
270.99	56.989
271.36	54.077
271.73	60.047
272.10	54.783
272.47	56.774
272.84	56.926
273.21	56.813
273.58	55.895
273.95	51.992
274.32	53.306
274.69	55.460
275.06	53.346
275.43	55.106
275.80	56.313
276.17	56.823
276.54	54.886
276.91	54.545
277.28	53.125
277.65	52.998
278.02	52.588
278.39	54.492
278.76	52.182
279.13	52.453
279.50	51.955
279.87	51.992
280.23	52.695
280.60	55.513
280.97	53.420
281.34	50.973
281.71	53.273
282.08	55.662
282.45	52.727
282.82	51.332
283.19	53.654
283.56	52.632
283.92	52.115
284.29	52.028
284.66	52.269
285.03	51.537
285.40	51.408
285.77	50.673
286.14	50.259
286.51	51.667
286.87	50.598
287.24	51.303
287.61	48.315
287.98	52.273
288.35	47.544
288.72	46.885
289.08	48.513
289.45	48.105
289.82	50.407
290.19	47.567
290.56	45.023
290.93	46.979
291.29	47.393
291.66	47.640
292.03	46.802
292.40	47.577
292.77	43.935
293.13	43.881
293.50	45.773
293.87	46.370
294.24	44.593
294.60	42.940
294.97	42.878
295.34	43.583
295.71	43.182
296.08	43.590
296.44	41.403
296.81	40.423
297.18	42.547
297.55	41.029
297.91	41.293
298.28	41.365
298.65	39.687
299.02	41.634
299.38	40.637
299.75	38.275
300.12	38.442
300.48	39.250
300.85	38.101
301.22	38.854
301.59	39.899
301.95	41.184
302.32	38.896
302.69	37.157
303.05	38.788
303.42	38.025
303.79	38.165
304.15	36.131
304.52	37.428
304.89	35.772
305.25	37.123
305.62	36.580
305.99	37.898
306.35	36.689
306.72	39.462
307.09	38.957
307.45	39.752
307.82	37.054
308.19	37.196
308.55	38.188
308.92	37.057
309.29	34.741
309.65	35.843
310.02	37.315
310.38	35.269
310.75	36.853
311.12	36.950
311.48	37.304
311.85	37.317
312.22	36.733
312.58	37.110
312.95	37.381
313.31	35.631
313.68	37.838
314.05	37.968
314.41	37.688
314.78	37.664
315.14	36.743
315.51	37.796
315.87	39.307
316.24	39.821
316.61	39.279
316.97	39.824
317.34	39.237
317.70	41.396
318.07	41.290
318.43	41.585
318.80	41.237
319.16	41.525
319.53	42.026
319.89	42.762
320.26	46.000
320.62	44.544
320.99	45.859
321.35	46.768
321.72	47.433
322.08	49.358
322.45	49.851
322.81	49.031
323.18	50.385
323.54	50.000
323.91	50.566
324.27	52.103
324.64	53.402
325.00	51.398
325.37	53.412
325.73	53.950
326.10	54.016
326.46	53.853
326.83	56.514
327.19	55.594
327.56	57.578
327.92	59.143
328.29	57.232
328.65	59.761
329.01	58.664
329.38	60.592
329.74	60.203
330.11	63.054
330.47	60.422
330.84	60.662
331.20	62.204
331.56	61.560
331.93	63.241
332.29	62.378
332.66	61.239
333.02	60.969
333.38	61.698
333.75	62.478
334.11	62.633
334.48	62.201
334.84	62.592
335.20	63.182
335.57	62.919
335.93	61.786
336.29	63.187
336.66	63.390
337.02	63.348
337.38	63.889
337.75	63.993
338.11	61.594
338.47	64.273
338.84	65.628
339.20	64.312
339.56	64.325
339.93	65.455
340.29	64.583
340.65	63.636
341.02	64.485
341.38	63.968
341.74	64.211
342.11	66.114
342.47	64.846
342.83	64.384
343.20	65.368
343.56	63.353
343.92	64.649
344.28	63.776
344.65	64.402
345.01	63.973
345.37	64.065
345.73	64.382
346.10	64.535
346.46	63.898
346.82	63.921
347.19	65.330
347.55	63.547
347.91	64.563
348.27	65.242
348.63	63.963
349.00	64.078
349.36	63.383
349.72	64.395
350.08	63.614
350.45	65.338
350.81	63.607
351.17	64.506
351.53	64.619
351.89	63.036
352.26	63.852
352.62	65.196
352.98	64.587
353.34	64.832
353.70	63.666
354.07	63.145
354.43	63.492
354.79	64.360
355.15	64.166
355.51	67.466
355.87	64.980
356.24	65.961
356.60	64.555
356.96	65.889
357.32	66.394
357.68	66.929
358.04	65.321
358.40	65.637
358.77	64.867
359.13	65.588
359.49	65.176
359.85	64.841
360.21	65.550
360.57	66.848
360.93	66.538
361.29	64.021
361.66	65.093
362.02	64.851
362.38	67.224
362.74	65.476
363.10	65.359
363.46	65.150
363.82	66.138
364.18	66.446
364.54	67.979
364.90	65.156
365.26	67.353
365.62	68.152
365.98	65.449
366.35	65.473
366.71	66.377
367.07	67.444
367.43	68.433
367.79	68.237
368.15	68.247
368.51	67.297
368.87	67.737
369.23	67.666
369.59	67.053
369.95	67.721
370.31	67.379
370.67	66.812
371.03	68.989
371.39	67.128
371.75	68.162
372.11	65.718
372.47	68.255
372.83	68.876
373.19	68.858
373.55	69.106
373.91	70.619
374.27	68.179
374.63	68.509
374.99	68.644
375.35	68.179
375.71	68.266
376.07	68.381
376.42	69.326
376.78	69.516
377.14	67.707
377.50	69.536
377.86	67.021
378.22	69.785
378.58	68.609
378.94	69.705
379.30	69.593
379.66	69.924
380.02	69.595
380.38	69.520
380.74	70.168
381.09	70.416
381.45	70.990
381.81	70.762
382.17	69.809
382.53	70.566
382.89	70.556
383.25	70.794
383.61	71.561
383.97	70.857
384.32	70.805
384.68	69.703
385.04	70.068
385.40	70.898
385.76	71.253
386.12	72.021
386.48	70.862
386.83	71.905
387.19	72.356
387.55	70.006
387.91	70.919
388.27	71.122
388.62	71.911
388.98	70.823
389.34	70.901
389.70	71.551
390.06	72.180
390.42	72.309
390.77	73.092
391.13	72.623
391.49	70.812
391.85	72.947
392.20	71.483
392.56	72.854
392.92	71.807
393.28	71.006
393.64	71.643
393.99	71.533
394.35	71.588
394.71	70.703
395.07	70.903
395.42	73.671
395.78	72.710
396.14	70.205
396.50	72.619
396.85	74.126
397.21	71.887
397.57	72.040
397.92	71.394
398.28	71.244
398.64	70.848
399.00	72.076
399.35	72.025
399.71	71.875
400.07	71.082
400.42	71.902
400.78	72.316
401.14	72.622
401.49	73.075
401.85	71.688
402.21	71.317
402.57	73.041
402.92	72.131
403.28	71.893
403.63	73.391
403.99	72.675
404.35	71.455
404.70	70.923
405.06	72.685
405.42	72.302
405.77	73.257
406.13	71.783
406.49	73.211
406.84	72.475
407.20	71.395
407.55	72.431
407.91	72.333
408.27	73.325
408.62	71.644
408.98	71.017
409.34	72.386
409.69	72.516
410.05	73.234
410.40	71.988
410.76	72.461
411.11	71.773
411.47	72.077
411.83	71.167
412.18	70.439
412.54	73.910
412.89	70.482
413.25	71.547
413.60	72.082
413.96	70.188
414.31	70.474
414.67	73.447
415.03	73.046
415.38	71.585
415.74	72.347
416.09	71.979
416.45	71.084
416.80	73.496
417.16	72.721
417.51	71.865
417.87	70.584
418.22	72.871
418.58	72.821
418.93	70.885
419.29	72.502
419.64	72.607
420.00	70.732
420.35	71.884
420.71	73.222
421.06	71.599
421.42	72.047
421.77	71.188
422.12	71.926
422.48	70.750
422.83	73.093
423.19	71.215
423.54	70.807
423.90	70.203
424.25	70.687
424.61	69.940
424.96	71.603
425.31	71.262
425.67	69.157
426.02	70.857
426.38	73.871
426.73	70.392
427.09	71.307
427.44	70.558
427.79	69.983
428.15	71.964
428.50	70.099
428.85	70.560
429.21	70.127
429.56	71.073
429.92	70.106
430.27	70.556
430.62	68.971
430.98	70.213
431.33	69.691
431.68	71.204
432.04	69.702
432.39	71.388
432.74	71.035
433.10	71.703
433.45	70.787
433.80	70.676
434.16	70.994
434.51	70.368
434.86	71.266
435.22	69.928
435.57	71.915
435.92	69.631
436.28	71.293
436.63	70.695
436.98	71.437
437.34	72.153
437.69	70.945
438.04	70.601
438.39	70.388
438.75	71.063
439.10	70.615
439.45	70.897
439.81	72.387
440.16	70.243
440.51	70.709
440.86	70.585
441.22	71.246
441.57	70.488
441.92	71.136
442.27	70.560
442.63	70.300
442.98	70.592
443.33	69.348
443.68	70.212
444.03	70.327
444.39	70.204
444.74	70.509
445.09	70.620
445.44	69.492
445.79	69.421
446.15	69.296
446.50	69.521
446.85	69.373
447.20	70.423
447.55	70.519
447.91	70.215
448.26	70.006
448.61	71.227
448.96	71.262
449.31	70.585
449.66	68.542
450.02	68.858
450.37	69.615
450.72	69.374
451.07	69.409
451.42	69.301
451.77	69.113
452.12	68.938
452.47	68.408
452.83	70.629
453.18	68.643
453.53	71.058
453.88	69.522
454.23	67.484
454.58	70.200
454.93	71.265
455.28	68.766
455.63	68.386
455.98	70.357
456.34	69.095
456.69	70.257
457.04	69.350
457.39	69.667
457.74	68.543
458.09	68.028
458.44	69.042
458.79	66.811
459.14	68.510
459.49	68.184
459.84	68.643
460.19	68.002
460.54	65.972
460.89	67.965
461.24	68.549
461.59	69.494
461.94	67.633
462.29	68.724
462.64	68.156
462.99	65.908
463.34	68.933
463.69	66.417
464.04	67.536
464.39	66.957
464.74	67.142
465.09	67.069
465.44	67.479
465.79	66.834
466.14	67.269
466.49	65.740
466.84	67.717
467.19	67.230
467.54	65.875
467.89	65.366
468.24	67.597
468.59	66.972
468.94	64.447
469.29	65.938
469.64	67.001
469.99	66.847
470.34	66.975
470.68	67.672
471.03	65.578
471.38	68.172
471.73	65.290
472.08	66.711
472.43	64.950
472.78	66.096
473.13	65.148
473.48	64.732
473.83	65.305
474.17	65.090
474.52	66.005
474.87	66.258
475.22	64.597
475.57	64.535
475.92	64.312
476.27	63.811
476.61	64.534
476.96	64.486
477.31	65.411
477.66	63.621
478.01	62.676
478.36	65.680
478.70	63.967
479.05	64.217
479.40	64.227
479.75	63.803
480.10	63.618
480.45	62.637
480.79	64.214
481.14	62.622
481.49	63.740
481.84	62.917
482.19	63.380
482.53	61.927
482.88	62.913
483.23	62.710
483.58	62.602
483.92	63.402
484.27	61.699
484.62	60.948
484.97	60.623
485.31	61.062
485.66	59.562
486.01	59.525
486.36	59.459
486.70	60.761
487.05	61.479
487.40	60.240
487.75	60.487
488.09	61.389
488.44	61.007
488.79	61.049
489.13	61.077
489.48	60.073
489.83	59.560
490.17	60.237
490.52	60.363
490.87	61.058
491.22	60.255
491.56	59.909
491.91	60.168
492.26	58.245
492.60	59.539
492.95	58.887
493.30	59.065
493.64	59.449
493.99	59.610
494.34	59.066
494.68	59.570
495.03	59.258
495.37	58.632
495.72	60.819
496.07	59.211
496.41	57.301
496.76	58.927
497.11	58.667
497.45	59.106
497.80	58.157
498.14	57.826
498.49	57.805
498.84	58.917
499.18	58.667
499.53	58.689
499.87	56.990
500.22	57.419
500.56	59.223
500.91	58.221
501.26	57.563
501.60	58.472
501.95	56.737
502.29	57.685
502.64	58.240
502.98	56.709
503.33	55.987
503.67	57.077
504.02	56.922
504.36	56.996
504.71	57.499
505.06	57.253
505.40	57.365
505.75	55.111
506.09	56.074
506.44	57.326
506.78	56.162
507.13	57.193
507.47	57.424
507.82	56.180
508.16	57.042
508.51	56.824
508.85	56.405
509.19	55.510
509.54	55.816
509.88	56.157
510.23	56.350
510.57	55.986
510.92	54.997
511.26	56.578
511.61	54.616
511.95	55.167
512.30	55.620
512.64	56.206
512.98	54.823
513.33	55.621
513.67	54.909
514.02	53.896
514.36	56.854
514.70	55.064
515.05	55.326
515.39	54.459
515.74	53.885
516.08	55.897
516.42	54.717
516.77	55.295
517.11	54.606
517.46	54.797
517.80	55.517
518.14	53.966
518.49	55.251
518.83	54.205
519.17	53.695
519.52	54.386
519.86	54.592
520.20	55.376
520.55	54.219
520.89	55.049
521.23	54.704
521.58	53.842
521.92	54.256
522.26	54.606
522.61	55.202
522.95	52.732
523.29	53.074
523.64	54.512
523.98	53.235
524.32	53.619
524.66	53.217
525.01	51.961
525.35	53.717
525.69	51.970
526.04	52.773
526.38	52.532
526.72	51.411
527.06	53.421
527.41	50.309
527.75	53.826
528.09	53.757
528.43	51.689
528.78	52.551
529.12	50.788
529.46	53.582
529.80	53.342
530.15	52.025
530.49	50.831
530.83	51.266
531.17	53.590
531.51	53.761
531.86	52.581
532.20	52.412
532.54	52.466
532.88	51.476
533.22	50.281
533.57	50.864
533.91	51.174
534.25	51.276
534.59	51.495
534.93	51.338
535.27	50.573
535.62	51.343
535.96	51.161
536.30	51.621
536.64	51.771
536.98	50.763
537.32	51.942
537.66	50.667
538.01	51.745
538.35	50.162
538.69	51.181
539.03	49.708
539.37	50.224
539.71	49.903
540.05	50.588
540.39	49.103
540.73	49.612
541.07	51.136
541.42	49.967
541.76	50.258
542.10	50.582
542.44	49.801
542.78	50.132
543.12	47.857
543.46	50.557
543.80	50.683
544.14	48.010
544.48	49.778
544.82	49.711
545.16	49.252
545.50	48.907
545.84	48.925
546.18	49.158
546.52	49.828
546.86	49.210
547.20	48.820
547.54	49.165
547.88	49.043
548.22	48.381
548.56	47.799
548.90	48.271
549.24	48.822
549.58	48.499
549.92	48.764
550.26	49.006
550.60	47.510
550.94	49.085
551.28	48.281
551.62	49.676
551.96	48.211
552.30	48.737
552.64	49.358
552.98	48.000
553.32	48.146
553.66	47.376
554.00	48.456
554.34	47.343
554.68	49.356
555.02	47.884
555.36	47.599
555.69	47.226
556.03	48.452
556.37	48.363
556.71	46.180
557.05	46.429
557.39	47.026
557.73	47.565
558.07	48.949
558.41	48.480
558.75	46.730
559.08	48.471
559.42	47.166
559.76	46.765
560.10	45.539
560.44	47.030
560.78	46.041
561.12	47.230
561.45	47.588
561.79	46.012
562.13	46.747
562.47	48.224
562.81	46.932
563.15	45.886
563.48	45.955
563.82	46.510
564.16	46.370
564.50	46.680
564.84	45.891
565.17	46.525
565.51	47.412
565.85	45.749
566.19	44.834
566.52	45.915
566.86	45.389
567.20	46.403
567.54	45.947
567.88	46.388
568.21	46.349
568.55	46.107
568.89	46.255
569.23	44.920
569.56	44.332
569.90	44.981
570.24	45.497
570.57	44.577
570.91	44.279
571.25	44.132
571.59	44.948
571.92	44.470
572.26	44.223
572.60	45.225
572.93	44.258
573.27	44.306
573.61	44.249
573.95	44.910
574.28	44.271
574.62	44.485
574.96	43.560
575.29	43.720
575.63	44.207
575.97	43.556
576.30	43.548
576.64	43.846
576.98	43.632
577.31	43.669
577.65	44.235
577.98	44.009
578.32	43.527
578.66	44.109
578.99	43.164
579.33	43.767
579.67	43.639
580.00	44.282
580.34	44.566
580.67	43.654
581.01	43.512
581.35	43.629
581.68	44.002
582.02	43.712
582.35	44.286
582.69	43.642
583.02	43.879
583.36	44.478
583.70	43.981
584.03	43.966
584.37	43.926
584.70	44.201
585.04	42.931
585.37	43.336
585.71	43.210
586.04	42.812
586.38	44.305
586.72	43.745
587.05	42.842
587.39	43.509
587.72	43.211
588.06	43.650
588.39	43.045
588.73	42.916
589.06	43.347
589.40	42.795
589.73	43.576
590.07	42.847
590.40	43.515
590.73	44.418
591.07	44.567
591.40	43.315
591.74	43.377
592.07	43.368
592.41	44.150
592.74	43.333
593.08	42.672
593.41	43.214
593.75	42.536
594.08	42.642
594.41	43.089
594.75	43.031
595.08	42.233
595.42	43.082
595.75	42.557
596.09	42.997
596.42	42.633
596.75	42.550
597.09	41.948
597.42	41.906
597.75	42.820
598.09	42.739
598.42	42.526
598.76	41.832
599.09	42.417
599.42	41.958
599.76	41.947
600.09	41.639
600.42	41.052
600.76	41.429
601.09	41.421
601.42	42.161
601.76	42.770
602.09	42.727
602.42	42.476
602.76	42.362
603.09	42.329
603.42	42.210
603.76	41.692
604.09	41.722
604.42	42.479
604.76	41.839
605.09	41.721
605.42	41.471
605.75	42.136
606.09	41.643
606.42	41.765
606.75	42.182
607.09	42.193
607.42	42.062
607.75	41.308
608.08	40.990
608.42	41.147
608.75	42.065
609.08	40.287
609.41	41.504
609.75	40.972
610.08	41.753
610.41	40.968
610.74	42.384
611.07	41.947
611.41	42.247
611.74	42.383
612.07	42.961
612.40	42.288
612.73	41.737
613.07	42.134
613.40	42.285
613.73	40.640
614.06	41.290
614.39	41.793
614.72	41.263
615.06	41.544
615.39	40.552
615.72	41.155
616.05	41.308
616.38	41.634
616.71	42.458
617.05	42.933
617.38	41.311
617.71	40.901
618.04	42.248
618.37	42.046
618.70	42.937
619.03	42.039
619.36	41.819
619.69	40.845
620.03	42.170
620.36	40.909
620.69	42.534
621.02	41.593
621.35	42.130
621.68	39.720
622.01	41.486
622.34	42.133
622.67	42.738
623.00	41.306
623.33	40.100
623.66	41.387
623.99	41.753
624.32	40.514
624.65	40.678
624.99	40.722
625.32	41.492
625.65	41.548
625.98	42.198
626.31	41.369
626.64	42.449
626.97	41.147
627.30	41.646
627.63	40.935
627.96	40.622
628.29	41.732
628.62	41.080
628.95	42.453
629.28	39.416
629.61	42.346
629.94	43.810
630.26	40.991
630.59	39.943
630.92	40.517
631.25	41.362
