SpectraSuite Data File
++++++++++++++++++++++++++++++++++++
Date: Wed May 13 20:35:20 PDT 2015
User: schluterlab
Dark Spectrum Present: Yes
Reference Spectrum Present: Yes
Number of Sampled Component Spectra: 1
Spectrometers: USB2E3373
Integration Time (usec): 3000 (USB2E3373)
Spectra Averaged: 3 (USB2E3373)
Boxcar Smoothing: 0 (USB2E3373)
Correct for Electrical Dark: No (USB2E3373)
Strobe/Lamp Enabled: No (USB2E3373)
Correct for Detector Non-linearity: No (USB2E3373)
Correct for Stray Light: No (USB2E3373)
Number of Pixels in Processed Spectrum: 2048
>>>>>Begin Processed Spectral Data<<<<<
178.53	0.000
178.91	-900.000
179.29	-1000.000
179.67	-150.000
180.04	-925.000
180.42	1950.000
180.80	820.000
181.18	-725.000
181.56	557.143
181.94	0.000
182.31	-500.000
182.69	1500.000
183.07	-275.000
183.45	-388.889
183.83	463.636
184.20	-260.000
184.58	1550.000
184.96	4600.000
185.34	-520.000
185.72	-350.000
186.09	-1700.000
186.47	2150.000
186.85	1400.000
187.23	3400.000
187.61	-1233.333
187.98	1275.000
188.36	427.273
188.74	318.182
189.12	-680.000
189.49	410.000
189.87	-3500.000
190.25	-1025.000
190.63	300.000
191.00	392.308
191.38	733.333
191.76	-775.000
192.14	1025.000
192.51	500.000
192.89	700.000
193.27	487.500
193.65	-975.000
194.02	390.000
194.40	600.000
194.78	360.000
195.15	358.333
195.53	410.000
195.91	-1650.000
196.29	281.250
196.66	194.737
197.04	-270.000
197.42	0.000
197.79	430.000
198.17	-3600.000
198.55	471.429
198.92	437.500
199.30	780.000
199.68	0.000
200.05	266.667
200.43	585.714
200.81	3300.000
201.18	1266.667
201.56	-1333.333
201.94	322.222
202.31	355.556
202.69	366.667
203.07	370.000
203.44	0.000
203.82	875.000
204.19	557.143
204.57	357.143
204.95	450.000
205.32	1366.667
205.70	354.545
206.08	285.714
206.45	2250.000
206.83	262.500
207.20	750.000
207.58	580.000
207.96	283.333
208.33	512.500
208.71	-666.667
209.08	657.143
209.46	411.111
209.84	400.000
210.21	-1066.667
210.59	900.000
210.96	-550.000
211.34	2100.000
211.71	420.000
212.09	433.333
212.46	0.000
212.84	1100.000
213.22	1100.000
213.59	-2500.000
213.97	616.667
214.34	542.857
214.72	481.818
215.09	840.000
215.47	-1950.000
215.84	-1650.000
216.22	1333.333
216.59	307.143
216.97	1025.000
217.34	300.000
217.72	-433.333
218.09	0.000
218.47	-4700.000
218.84	522.222
219.22	528.571
219.59	1233.333
219.97	-385.714
220.34	780.000
220.72	-1000.000
221.09	271.429
221.47	1175.000
221.84	-850.000
222.22	0.000
222.59	1025.000
222.97	-1800.000
223.34	860.000
223.72	315.385
224.09	980.000
224.46	1500.000
224.84	-3000.000
225.21	-820.000
225.59	-3100.000
225.96	460.000
226.34	210.000
226.71	2100.000
227.08	475.000
227.46	380.000
227.83	-850.000
228.21	-1650.000
228.58	511.111
228.95	-1750.000
229.33	-1750.000
229.70	1500.000
230.08	500.000
230.45	-680.000
230.82	233.333
231.20	733.333
231.57	371.429
231.95	291.667
232.32	204.545
232.69	254.545
233.07	357.143
233.44	215.385
233.81	-1100.000
234.19	178.947
234.56	416.667
234.93	266.667
235.31	309.091
235.68	215.385
236.05	250.000
236.43	127.273
236.80	147.368
237.17	3200.000
237.55	152.381
237.92	135.714
238.29	200.000
238.67	145.161
239.04	127.586
239.41	127.778
239.79	69.565
240.16	92.857
240.53	102.273
240.91	80.392
241.28	64.000
241.65	70.000
242.02	82.609
242.40	74.194
242.77	91.667
243.14	54.839
243.51	60.674
243.89	67.059
244.26	57.778
244.63	49.462
245.00	52.128
245.38	50.495
245.75	58.879
246.12	36.697
246.49	48.175
246.87	53.600
247.24	46.154
247.61	43.571
247.98	39.216
248.36	39.189
248.73	36.306
249.10	49.045
249.47	35.593
249.84	40.107
250.22	32.086
250.59	35.503
250.96	39.899
251.33	37.441
251.70	35.149
252.08	30.000
252.45	30.045
252.82	27.391
253.19	34.043
253.56	31.373
253.94	33.610
254.31	36.328
254.68	38.077
255.05	30.627
255.42	28.455
255.79	29.412
256.16	31.408
256.54	26.502
256.91	32.384
257.28	27.338
257.65	30.693
258.02	31.677
258.39	29.022
258.76	26.421
259.14	30.060
259.51	26.748
259.88	30.124
260.25	25.982
260.62	27.168
260.99	25.776
261.36	26.426
261.73	31.232
262.10	24.128
262.47	29.859
262.85	25.627
263.22	23.647
263.59	27.066
263.96	22.802
264.33	26.632
264.70	24.474
265.07	25.831
265.44	26.010
265.81	22.628
266.18	24.121
266.55	22.439
266.92	26.044
267.29	25.926
267.66	25.688
268.03	23.636
268.40	25.000
268.77	22.434
269.14	24.550
269.51	22.799
269.88	25.408
270.25	24.605
270.62	25.169
270.99	25.806
271.36	23.820
271.73	23.598
272.10	25.217
272.47	24.946
272.84	25.541
273.21	24.948
273.58	23.799
273.95	24.528
274.32	21.281
274.69	22.484
275.06	21.850
275.43	25.745
275.80	24.850
276.17	21.996
276.54	23.909
276.91	24.901
277.28	23.047
277.65	22.244
278.02	23.188
278.39	25.781
278.76	22.182
279.13	23.208
279.50	22.905
279.87	24.701
280.23	23.353
280.60	21.857
280.97	21.811
281.34	22.301
281.71	22.364
282.08	22.841
282.45	22.545
282.82	22.558
283.19	21.212
283.56	21.930
283.92	23.012
284.29	22.046
284.66	21.960
285.03	22.423
285.40	21.479
285.77	20.370
286.14	19.689
286.51	21.667
286.87	20.342
287.24	22.313
287.61	21.830
287.98	21.916
288.35	19.968
288.72	20.405
289.08	21.283
289.45	19.440
289.82	20.976
290.19	19.780
290.56	19.602
290.93	18.429
291.29	18.712
291.66	19.027
292.03	22.093
292.40	21.880
292.77	19.379
293.13	18.507
293.50	18.367
293.87	19.704
294.24	18.963
294.60	18.632
294.97	18.314
295.34	19.041
295.71	19.602
296.08	17.094
296.44	17.882
296.81	16.513
297.18	18.699
297.55	16.623
297.91	16.755
298.28	18.876
298.65	17.232
299.02	16.337
299.38	17.131
299.75	16.038
300.12	14.049
300.48	17.750
300.85	15.783
301.22	16.433
301.59	15.657
301.95	16.499
302.32	16.560
302.69	16.249
303.05	15.636
303.42	14.691
303.79	16.761
304.15	13.869
304.52	15.411
304.89	17.073
305.25	15.661
305.62	15.402
305.99	17.001
306.35	15.660
306.72	16.143
307.09	15.316
307.45	15.090
307.82	14.844
308.19	16.115
308.55	16.397
308.92	15.789
309.29	15.206
309.65	16.543
310.02	14.588
310.38	14.839
310.75	15.945
311.12	16.377
311.48	14.629
311.85	17.505
312.22	15.088
312.58	15.073
312.95	16.262
313.31	13.301
313.68	15.281
314.05	16.075
314.41	14.472
314.78	15.307
315.14	15.492
315.51	15.757
315.87	16.238
316.24	16.385
316.61	14.620
316.97	14.775
317.34	15.166
317.70	14.532
318.07	16.843
318.43	15.166
318.80	16.589
319.16	16.478
319.53	15.666
319.89	16.000
320.26	16.700
320.62	16.369
320.99	16.768
321.35	16.364
321.72	16.838
322.08	17.275
322.45	17.711
322.81	16.667
323.18	17.341
323.54	17.625
323.91	16.698
324.27	17.973
324.64	16.869
325.00	17.493
325.37	18.562
325.73	17.774
326.10	17.387
326.46	17.025
326.83	18.464
327.19	18.702
327.56	17.944
327.92	18.548
328.29	19.166
328.65	18.600
329.01	19.134
329.38	19.426
329.74	18.283
330.11	19.039
330.47	18.549
330.84	21.140
331.20	18.579
331.56	18.624
331.93	19.352
332.29	19.965
332.66	20.000
333.02	19.470
333.38	19.332
333.75	20.410
334.11	19.217
334.48	18.722
334.84	19.669
335.20	20.273
335.57	19.674
335.93	18.214
336.29	20.055
336.66	20.379
337.02	19.457
337.38	20.000
337.75	18.895
338.11	19.875
338.47	20.442
338.84	20.440
339.20	17.248
339.56	20.712
339.93	18.000
340.29	19.746
340.65	19.786
341.02	19.983
341.38	19.039
341.74	19.474
342.11	20.087
342.47	19.295
342.83	19.863
343.20	20.693
343.56	18.366
343.92	19.474
344.28	19.728
344.65	20.034
345.01	19.613
345.37	18.696
345.73	20.135
346.10	18.926
346.46	18.983
346.82	19.440
347.19	18.546
347.55	18.637
347.91	20.065
348.27	19.885
348.63	18.645
349.00	19.013
349.36	19.622
349.72	19.246
350.08	18.558
350.45	19.528
350.81	19.659
351.17	18.720
351.53	18.182
351.89	17.904
352.26	20.205
352.62	19.888
352.98	18.071
353.34	18.488
353.70	19.149
354.07	19.274
354.43	19.365
354.79	18.584
355.15	19.633
355.51	20.783
355.87	19.592
356.24	19.870
356.60	19.246
356.96	19.469
357.32	18.888
357.68	19.291
358.04	19.636
358.40	19.557
358.77	19.484
359.13	18.390
359.49	19.529
359.85	18.254
360.21	19.298
360.57	19.689
360.93	20.154
361.29	19.048
361.66	18.266
362.02	19.403
362.38	20.380
362.74	18.824
363.10	19.171
363.46	18.489
363.82	18.896
364.18	17.915
364.54	20.059
364.90	19.972
365.26	19.191
365.62	19.722
365.98	18.627
366.35	18.410
366.71	19.523
367.07	19.446
367.43	19.013
367.79	19.343
368.15	20.977
368.51	19.622
368.87	19.343
369.23	18.654
369.59	20.203
369.95	19.926
370.31	19.160
370.67	18.841
371.03	19.850
371.39	19.096
371.75	20.147
372.11	18.563
372.47	19.428
372.83	19.885
373.19	18.931
373.55	19.364
373.91	21.649
374.27	18.969
374.63	19.564
374.99	20.480
375.35	19.888
375.71	19.465
376.07	19.959
376.42	19.464
376.78	20.543
377.14	20.624
377.50	20.199
377.86	19.681
378.22	20.228
378.58	18.233
378.94	18.919
379.30	18.702
379.66	19.543
380.02	19.656
380.38	19.126
380.74	20.168
381.09	19.682
381.45	21.082
381.81	20.332
382.17	20.382
382.53	19.560
382.89	20.432
383.25	19.950
383.61	20.322
383.97	19.700
384.32	19.963
384.68	19.145
385.04	19.852
385.40	19.443
385.76	19.902
386.12	19.495
386.48	20.894
386.83	21.296
387.19	21.212
387.55	20.656
387.91	19.831
388.27	19.497
388.62	20.713
388.98	19.103
389.34	20.839
389.70	21.030
390.06	20.152
390.42	19.131
390.77	20.738
391.13	20.868
391.49	20.749
391.85	20.115
392.20	19.306
392.56	20.139
392.92	20.129
393.28	18.817
393.64	19.424
393.99	20.098
394.35	19.975
394.71	20.138
395.07	20.561
395.42	20.272
395.78	20.102
396.14	20.050
396.50	20.927
396.85	21.233
397.21	20.345
397.57	20.149
397.92	19.651
398.28	19.787
398.64	20.131
399.00	19.474
399.35	19.177
399.71	19.676
400.07	20.284
400.42	19.939
400.78	20.567
401.14	20.122
401.49	20.000
401.85	20.327
402.21	19.641
402.57	19.741
402.92	19.798
403.28	19.675
403.63	19.245
403.99	19.236
404.35	19.697
404.70	19.724
405.06	19.802
405.42	20.150
405.77	19.600
406.13	19.582
406.49	20.166
406.84	19.433
407.20	19.326
407.55	19.911
407.91	19.933
408.27	19.017
408.62	19.988
408.98	20.037
409.34	19.680
409.69	20.065
410.05	20.012
410.40	20.061
410.76	19.295
411.11	19.361
411.47	19.681
411.83	20.098
412.18	20.099
412.54	19.863
412.89	19.699
413.25	19.776
413.60	20.568
413.96	18.883
414.31	20.170
414.67	20.279
415.03	19.735
415.38	20.490
415.74	20.579
416.09	20.705
416.45	18.876
416.80	20.093
417.16	20.442
417.51	20.372
417.87	19.974
418.22	19.558
418.58	20.142
418.93	20.209
419.29	19.605
419.64	19.836
420.00	19.634
420.35	19.710
420.71	20.502
421.06	20.764
421.42	19.064
421.77	20.179
422.12	19.034
422.48	18.888
422.83	19.802
423.19	19.613
423.54	19.733
423.90	20.464
424.25	20.715
424.61	18.988
424.96	20.000
425.31	20.155
425.67	19.382
426.02	19.771
426.38	20.452
426.73	19.953
427.09	19.696
427.44	19.436
427.79	19.551
428.15	19.821
428.50	20.012
428.85	20.083
429.21	19.492
429.56	19.181
429.92	19.779
430.27	19.116
430.62	18.638
430.98	19.772
431.33	19.948
431.68	19.738
432.04	20.075
432.39	19.760
432.74	20.407
433.10	20.034
433.45	20.000
433.80	19.401
434.16	19.712
434.51	19.474
434.86	20.639
435.22	19.455
435.57	20.304
435.92	20.246
436.28	20.581
436.63	21.137
436.98	19.634
437.34	20.453
437.69	20.595
438.04	20.236
438.39	19.881
438.75	20.569
439.10	20.335
439.45	21.015
439.81	20.423
440.16	19.650
440.51	20.211
440.86	20.498
441.22	20.356
441.57	20.594
441.92	20.931
442.27	20.452
442.63	20.484
442.98	20.732
443.33	20.000
443.68	20.496
444.03	21.132
444.39	19.620
444.74	20.292
445.09	20.323
445.44	20.667
445.79	20.584
446.15	19.958
446.50	19.817
446.85	20.606
447.20	20.602
447.55	20.547
447.91	20.298
448.26	20.979
448.61	21.029
448.96	20.930
449.31	20.697
449.66	20.315
450.02	20.111
450.37	20.125
450.72	20.305
451.07	19.866
451.42	20.426
451.77	21.080
452.12	20.843
452.47	20.647
452.83	21.096
453.18	20.782
453.53	20.779
453.88	20.673
454.23	20.801
454.58	20.775
454.93	22.060
455.28	20.262
455.63	22.027
455.98	21.726
456.34	20.477
456.69	20.852
457.04	21.300
457.39	20.807
457.74	21.300
458.09	20.702
458.44	20.753
458.79	19.902
459.14	19.752
459.49	20.490
459.84	19.834
460.19	20.153
460.54	20.081
460.89	20.900
461.24	20.765
461.59	21.499
461.94	20.592
462.29	22.018
462.64	21.442
462.99	20.169
463.34	20.733
463.69	21.076
464.04	20.928
464.39	21.043
464.74	21.034
465.09	21.411
465.44	19.723
465.79	19.966
466.14	20.744
466.49	20.467
466.84	21.249
467.19	20.519
467.54	21.938
467.89	20.348
468.24	21.291
468.59	22.344
468.94	20.037
469.29	21.144
469.64	21.084
469.99	21.042
470.34	20.542
470.68	22.198
471.03	21.224
471.38	21.056
471.73	22.518
472.08	21.513
472.43	21.608
472.78	21.396
473.13	21.181
473.48	20.974
473.83	21.585
474.17	20.846
474.52	21.092
474.87	21.191
475.22	21.010
475.57	20.365
475.92	20.712
476.27	20.237
476.61	20.353
476.96	20.561
477.31	20.722
477.66	21.116
478.01	20.439
478.36	21.523
478.70	20.353
479.05	20.873
479.40	21.136
479.75	20.793
480.10	20.278
480.45	20.562
480.79	20.162
481.14	20.793
481.49	21.120
481.84	20.850
482.19	19.991
482.53	20.459
482.88	20.893
483.23	20.888
483.58	20.564
483.92	21.603
484.27	20.131
484.62	19.957
484.97	20.102
485.31	19.486
485.66	18.338
486.01	17.410
486.36	17.548
486.70	17.789
487.05	18.584
487.40	19.254
487.75	19.578
488.09	19.867
488.44	20.080
488.79	20.759
489.13	20.817
489.48	20.759
489.83	20.673
490.17	20.780
490.52	20.328
490.87	20.669
491.22	20.282
491.56	20.137
491.91	20.195
492.26	20.211
492.60	20.000
492.95	20.065
493.30	20.514
493.64	21.232
493.99	21.077
494.34	20.722
494.68	20.238
495.03	20.630
495.37	20.987
495.72	20.565
496.07	20.882
496.41	20.442
496.76	20.185
497.11	20.306
497.45	21.239
497.80	20.729
498.14	20.290
498.49	20.585
498.84	21.189
499.18	21.190
499.53	20.940
499.87	20.969
500.22	21.149
500.56	21.408
500.91	20.048
501.26	20.721
501.60	21.025
501.95	20.394
502.29	20.712
502.64	20.438
502.98	20.851
503.33	19.973
503.67	20.835
504.02	20.627
504.36	21.385
504.71	20.713
505.06	20.964
505.40	21.050
505.75	20.878
506.09	20.554
506.44	20.720
506.78	20.409
507.13	21.302
507.47	21.414
507.82	21.125
508.16	21.378
508.51	22.070
508.85	21.251
509.19	21.327
509.54	21.429
509.88	21.329
510.23	20.617
510.57	22.136
510.92	21.750
511.26	21.377
511.61	21.629
511.95	20.720
512.30	22.004
512.64	21.171
512.98	21.919
513.33	21.467
513.67	21.505
514.02	21.104
514.36	21.955
514.70	22.966
515.05	21.640
515.39	22.154
515.74	22.691
516.08	22.359
516.42	22.087
516.77	22.129
517.11	21.587
517.46	22.856
517.80	22.532
518.14	22.235
518.49	23.221
518.83	22.898
519.17	22.113
519.52	22.637
519.86	22.761
520.20	23.237
520.55	22.801
520.89	23.662
521.23	22.678
521.58	22.269
521.92	22.474
522.26	22.636
522.61	23.489
522.95	22.099
523.29	22.398
523.64	23.049
523.98	23.105
524.32	23.703
524.66	22.429
525.01	22.978
525.35	21.809
525.69	22.537
526.04	23.863
526.38	23.429
526.72	23.067
527.06	23.101
527.41	21.782
527.75	23.087
528.09	24.277
528.43	22.881
528.78	22.434
529.12	23.030
529.46	23.148
529.80	23.639
530.15	22.741
530.49	23.077
530.83	23.101
531.17	23.564
531.51	24.578
531.86	23.419
532.20	23.729
532.54	23.703
532.88	24.069
533.22	23.173
533.57	22.778
533.91	22.577
534.25	22.965
534.59	23.124
534.93	22.546
535.27	22.933
535.62	23.138
535.96	22.662
536.30	22.378
536.64	23.503
536.98	23.557
537.32	23.239
537.66	22.067
538.01	22.646
538.35	21.913
538.69	24.250
539.03	21.962
539.37	22.684
539.71	21.841
540.05	22.418
540.39	22.924
540.73	22.574
541.07	23.945
541.42	22.505
541.76	23.484
542.10	22.574
542.44	22.053
542.78	22.793
543.12	20.729
543.46	23.672
543.80	23.227
544.14	21.951
544.48	22.413
544.82	22.130
545.16	22.902
545.50	22.301
545.84	22.782
546.18	22.088
546.52	22.368
546.86	22.818
547.20	23.196
547.54	22.445
547.88	23.661
548.22	22.914
548.56	21.572
548.90	21.575
549.24	21.751
549.58	22.920
549.92	23.214
550.26	22.372
550.60	21.992
550.94	23.239
551.28	21.800
551.62	22.430
551.96	21.404
552.30	23.686
552.64	23.529
552.98	22.983
553.32	22.522
553.66	23.108
554.00	23.747
554.34	22.636
554.68	23.891
555.02	23.061
555.36	22.408
555.69	22.666
556.03	21.871
556.37	23.465
556.71	22.442
557.05	22.479
557.39	23.583
557.73	23.430
558.07	23.278
558.41	22.721
558.75	23.512
559.08	23.192
559.42	22.827
559.76	23.456
560.10	23.126
560.44	22.711
560.78	22.488
561.12	22.098
561.45	22.621
561.79	22.610
562.13	22.468
562.47	22.951
562.81	22.176
563.15	22.274
563.48	22.480
563.82	22.701
564.16	21.517
564.50	21.289
564.84	21.997
565.17	22.072
565.51	22.556
565.85	21.637
566.19	21.916
566.52	21.849
566.86	21.097
567.20	21.993
567.54	21.233
567.88	20.804
568.21	21.905
568.55	20.324
568.89	20.282
569.23	19.875
569.56	19.636
569.90	19.660
570.24	19.196
570.57	19.007
570.91	18.326
571.25	18.036
571.59	18.380
571.92	17.972
572.26	18.486
572.60	18.769
572.93	18.471
573.27	18.693
573.61	18.090
573.95	18.165
574.28	18.065
574.62	17.979
574.96	17.419
575.29	17.774
575.63	17.861
575.97	17.912
576.30	18.534
576.64	17.134
576.98	17.671
577.31	17.098
577.65	17.090
577.98	16.908
578.32	16.839
578.66	17.338
578.99	17.622
579.33	17.720
579.67	17.490
580.00	18.005
580.34	17.584
580.67	17.679
581.01	18.215
581.35	16.772
581.68	17.147
582.02	16.862
582.35	16.998
582.69	17.017
583.02	17.577
583.36	18.054
583.70	17.982
584.03	18.234
584.37	18.024
584.70	17.659
585.04	17.784
585.37	17.078
585.71	17.834
586.04	17.613
586.38	18.051
586.72	18.172
587.05	17.387
587.39	17.599
587.72	17.650
588.06	17.689
588.39	17.778
588.73	18.011
589.06	18.666
589.40	18.586
589.73	18.972
590.07	18.648
590.40	18.670
590.73	19.126
591.07	19.210
591.40	19.232
591.74	19.307
592.07	19.328
592.41	18.355
592.74	18.764
593.08	18.088
593.41	18.064
593.75	17.614
594.08	18.103
594.41	18.416
594.75	18.632
595.08	17.788
595.42	18.809
595.75	18.661
596.09	18.738
596.42	19.411
596.75	18.869
597.09	19.481
597.42	18.676
597.75	18.801
598.09	19.087
598.42	18.600
598.76	18.241
599.09	18.016
599.42	17.977
599.76	18.009
600.09	18.106
600.42	18.152
600.76	17.786
601.09	18.179
601.42	18.569
601.76	18.027
602.09	18.538
602.42	18.511
602.76	18.783
603.09	18.096
603.42	18.821
603.76	17.912
604.09	18.030
604.42	19.038
604.76	18.853
605.09	18.523
605.42	18.512
605.75	18.626
606.09	18.219
606.42	18.308
606.75	18.250
607.09	18.794
607.42	18.528
607.75	18.312
608.08	18.411
608.42	19.139
608.75	18.936
609.08	18.455
609.41	18.705
609.75	18.914
610.08	19.227
610.41	18.296
610.74	18.543
611.07	19.466
611.41	19.235
611.74	19.608
612.07	19.876
612.40	20.252
612.73	20.000
613.07	19.720
613.40	20.379
613.73	18.511
614.06	19.516
614.39	19.297
614.72	19.789
615.06	18.750
615.39	18.737
615.72	18.814
616.05	19.192
616.38	20.289
616.71	20.309
617.05	19.906
617.38	20.265
617.71	19.279
618.04	20.012
618.37	19.397
618.70	20.162
619.03	20.724
619.36	20.299
619.69	20.493
620.03	21.978
620.36	21.123
620.69	21.164
621.02	21.386
621.35	21.143
621.68	21.106
622.01	21.440
622.34	20.802
622.67	20.760
623.00	20.910
623.33	20.872
623.66	21.015
623.99	20.471
624.32	20.471
624.65	21.822
624.99	19.688
625.32	19.986
625.65	20.586
625.98	21.522
626.31	21.073
626.64	22.531
626.97	21.613
627.30	21.696
627.63	21.001
627.96	21.615
628.29	21.610
628.62	23.422
628.95	24.717
629.28	21.533
629.61	22.365
629.94	23.048
630.26	21.735
630.59	21.735
630.92	22.701
631.25	21.718
