SpectraSuite Data File
++++++++++++++++++++++++++++++++++++
Date: Wed May 13 20:29:16 PDT 2015
User: schluterlab
Dark Spectrum Present: Yes
Reference Spectrum Present: Yes
Number of Sampled Component Spectra: 1
Spectrometers: USB2E3373
Integration Time (usec): 3000 (USB2E3373)
Spectra Averaged: 3 (USB2E3373)
Boxcar Smoothing: 0 (USB2E3373)
Correct for Electrical Dark: No (USB2E3373)
Strobe/Lamp Enabled: No (USB2E3373)
Correct for Detector Non-linearity: No (USB2E3373)
Correct for Stray Light: No (USB2E3373)
Number of Pixels in Processed Spectrum: 2048
>>>>>Begin Processed Spectral Data<<<<<
178.53	0.000
178.91	-1200.000
179.29	-975.000
179.67	-205.556
180.04	-1150.000
180.42	2050.000
180.80	840.000
181.18	-900.000
181.56	571.429
181.94	0.000
182.31	-471.429
182.69	1666.667
183.07	-462.500
183.45	-444.444
183.83	390.909
184.20	-260.000
184.58	1800.000
184.96	3500.000
185.34	-640.000
185.72	-425.000
186.09	-1850.000
186.47	2100.000
186.85	1900.000
187.23	3800.000
187.61	-1400.000
187.98	1175.000
188.36	490.909
188.74	390.909
189.12	-660.000
189.49	440.000
189.87	-4300.000
190.25	-900.000
190.63	400.000
191.00	315.385
191.38	733.333
191.76	-850.000
192.14	1175.000
192.51	550.000
192.89	850.000
193.27	525.000
193.65	-1100.000
194.02	480.000
194.40	820.000
194.78	480.000
195.15	483.333
195.53	520.000
195.91	-1800.000
196.29	281.250
196.66	284.211
197.04	-360.000
197.42	0.000
197.79	500.000
198.17	-3400.000
198.55	585.714
198.92	550.000
199.30	580.000
199.68	0.000
200.05	272.222
200.43	600.000
200.81	4200.000
201.18	1200.000
201.56	-1400.000
201.94	422.222
202.31	522.222
202.69	358.333
203.07	540.000
203.44	0.000
203.82	1050.000
204.19	614.286
204.57	385.714
204.95	562.500
205.32	1100.000
205.70	409.091
206.08	328.571
206.45	1800.000
206.83	337.500
207.20	750.000
207.58	640.000
207.96	288.889
208.33	550.000
208.71	-616.667
209.08	642.857
209.46	422.222
209.84	445.455
210.21	-966.667
210.59	1000.000
210.96	-350.000
211.34	1700.000
211.71	480.000
212.09	616.667
212.46	0.000
212.84	1500.000
213.22	1225.000
213.59	-4200.000
213.97	700.000
214.34	642.857
214.72	563.636
215.09	840.000
215.47	-1550.000
215.84	-2500.000
216.22	1133.333
216.59	335.714
216.97	925.000
217.34	427.273
217.72	-583.333
218.09	0.000
218.47	-4600.000
218.84	533.333
219.22	614.286
219.59	1400.000
219.97	-614.286
220.34	960.000
220.72	-1500.000
221.09	364.286
221.47	1350.000
221.84	-816.667
222.22	0.000
222.59	1300.000
222.97	-2100.000
223.34	980.000
223.72	384.615
224.09	940.000
224.46	1950.000
224.84	-4400.000
225.21	-860.000
225.59	-4200.000
225.96	480.000
226.34	295.000
226.71	2400.000
227.08	462.500
227.46	410.000
227.83	-1000.000
228.21	-1550.000
228.58	555.556
228.95	-2400.000
229.33	-1650.000
229.70	1566.667
230.08	657.143
230.45	-480.000
230.82	350.000
231.20	583.333
231.57	471.429
231.95	391.667
232.32	200.000
232.69	327.273
233.07	514.286
233.44	361.538
233.81	-1600.000
234.19	242.105
234.56	391.667
234.93	366.667
235.31	463.636
235.68	307.692
236.05	335.714
236.43	175.758
236.80	231.579
237.17	3500.000
237.55	228.571
237.92	185.714
238.29	228.571
238.67	177.419
239.04	189.655
239.41	180.556
239.79	113.043
240.16	145.238
240.53	154.545
240.91	101.961
241.28	122.000
241.65	132.000
242.02	108.696
242.40	83.871
242.77	110.000
243.14	93.548
243.51	96.629
243.89	91.765
244.26	94.444
244.63	88.172
245.00	81.915
245.38	77.228
245.75	77.570
246.12	87.156
246.49	89.051
246.87	88.800
247.24	82.308
247.61	69.286
247.98	76.471
248.36	64.189
248.73	77.707
249.10	71.975
249.47	74.576
249.84	71.123
250.22	72.727
250.59	72.781
250.96	69.697
251.33	68.246
251.70	66.832
252.08	69.048
252.45	65.471
252.82	65.652
253.19	71.489
253.56	63.529
253.94	70.954
254.31	63.281
254.68	68.462
255.05	65.683
255.42	65.447
255.79	64.706
256.16	65.704
256.54	64.311
256.91	62.989
257.28	63.669
257.65	61.716
258.02	62.112
258.39	61.830
258.76	61.538
259.14	62.202
259.51	59.271
259.88	58.696
260.25	64.350
260.62	61.561
260.99	62.422
261.36	61.261
261.73	61.032
262.10	61.919
262.47	62.254
262.85	63.788
263.22	56.980
263.59	60.684
263.96	59.341
264.33	58.225
264.70	61.316
265.07	59.079
265.44	59.848
265.81	56.691
266.18	62.060
266.55	56.829
266.92	60.197
267.29	56.713
267.66	57.569
268.03	54.773
268.40	58.178
268.77	55.847
269.14	58.108
269.51	55.530
269.88	56.410
270.25	55.530
270.62	54.157
270.99	56.129
271.36	57.511
271.73	62.617
272.10	54.783
272.47	57.204
272.84	55.411
273.21	52.411
273.58	55.022
273.95	53.878
274.32	53.512
274.69	56.745
275.06	53.150
275.43	57.660
275.80	54.108
276.17	55.193
276.54	53.846
276.91	52.964
277.28	52.734
277.65	52.031
278.02	54.451
278.39	55.664
278.76	52.000
279.13	52.453
279.50	53.818
279.87	55.179
280.23	54.691
280.60	54.932
280.97	54.529
281.34	53.628
281.71	52.545
282.08	56.622
282.45	53.091
282.82	52.220
283.19	52.406
283.56	54.211
283.92	53.469
284.29	51.323
284.66	52.450
285.03	52.080
285.40	51.408
285.77	53.367
286.14	51.986
286.51	51.333
286.87	50.598
287.24	52.117
287.61	50.722
287.98	51.136
288.35	48.019
288.72	48.442
289.08	47.887
289.45	50.741
289.82	47.642
290.19	47.096
290.56	46.248
290.93	48.036
291.29	46.933
291.66	46.608
292.03	46.657
292.40	47.430
292.77	47.189
293.13	44.478
293.50	45.918
293.87	45.926
294.24	44.444
294.60	43.814
294.97	44.186
295.34	46.262
295.71	45.028
296.08	42.308
296.44	42.779
296.81	41.215
297.18	43.360
297.55	40.237
297.91	42.876
298.28	43.106
298.65	41.775
299.02	42.556
299.38	41.169
299.75	41.375
300.12	39.974
300.48	40.875
300.85	39.457
301.22	40.764
301.59	40.657
301.95	40.806
302.32	41.078
302.69	39.307
303.05	40.242
303.42	38.642
303.79	38.618
304.15	38.228
304.52	38.007
304.89	37.863
305.25	37.703
305.62	39.411
305.99	40.850
306.35	37.584
306.72	38.117
307.09	38.180
307.45	40.315
307.82	36.830
308.19	40.397
308.55	38.619
308.92	38.238
309.29	37.909
309.65	38.388
310.02	38.055
310.38	37.957
310.75	37.381
311.12	37.462
311.48	38.767
311.85	38.679
312.22	39.126
312.58	39.189
312.95	39.388
313.31	37.379
313.68	39.189
314.05	39.842
314.41	41.106
314.78	40.685
315.14	39.921
315.51	40.062
315.87	41.188
316.24	40.020
316.61	41.033
316.97	40.411
317.34	41.683
317.70	43.595
318.07	42.156
318.43	43.346
318.80	44.424
319.16	44.727
319.53	43.621
319.89	46.857
320.26	47.600
320.62	46.726
320.99	44.747
321.35	48.182
321.72	48.049
322.08	48.766
322.45	49.652
322.81	49.806
323.18	49.904
323.54	48.516
323.91	49.623
324.27	50.382
324.64	51.258
325.00	50.676
325.37	52.502
325.73	53.052
326.10	52.868
326.46	51.703
326.83	53.926
327.19	54.825
327.56	55.401
327.92	55.206
328.29	56.167
328.65	55.157
329.01	55.144
329.38	58.002
329.74	58.633
330.11	56.645
330.47	58.127
330.84	59.007
331.20	58.106
331.56	58.073
331.93	59.352
332.29	57.853
332.66	57.522
333.02	59.506
333.38	60.072
333.75	59.269
334.11	58.630
334.48	59.627
334.84	59.559
335.20	58.909
335.57	60.199
335.93	58.661
336.29	58.425
336.66	60.234
337.02	58.100
337.38	59.444
337.75	59.626
338.11	60.519
338.47	60.221
338.84	59.487
339.20	57.982
339.56	59.854
339.93	59.091
340.29	59.239
340.65	59.002
341.02	60.820
341.38	60.498
341.74	60.000
342.11	60.873
342.47	59.559
342.83	59.075
343.20	59.740
343.56	57.793
343.92	59.035
344.28	58.078
344.65	58.985
345.01	58.165
345.37	58.062
345.73	57.699
346.10	59.250
346.46	57.119
346.82	56.590
347.19	58.981
347.55	56.076
347.91	58.172
348.27	57.683
348.63	58.779
349.00	56.472
349.36	57.471
349.72	57.658
350.08	56.483
350.45	59.886
350.81	56.864
351.17	57.455
351.53	56.921
351.89	56.518
352.26	57.774
352.62	54.932
352.98	55.592
353.34	57.354
353.70	55.810
354.07	55.081
354.43	56.667
354.79	55.511
355.15	55.946
355.51	57.794
355.87	57.469
356.24	57.085
356.60	54.771
356.96	55.350
357.32	56.010
357.68	55.748
358.04	56.215
358.40	53.840
358.77	54.695
359.13	55.722
359.49	54.510
359.85	55.079
360.21	55.183
360.57	55.331
360.93	55.769
361.29	54.422
361.66	55.263
362.02	54.552
362.38	53.764
362.74	54.390
363.10	53.960
363.46	53.558
363.82	54.195
364.18	53.084
364.54	53.566
364.90	54.037
365.26	53.897
365.62	54.858
365.98	53.981
366.35	51.719
366.71	53.001
367.07	53.605
367.43	53.919
367.79	52.891
368.15	53.879
368.51	52.180
368.87	53.819
369.23	53.036
369.59	54.164
369.95	53.015
370.31	51.781
370.67	52.609
371.03	54.007
371.39	52.624
371.75	53.750
372.11	52.063
372.47	53.446
372.83	53.026
373.19	50.578
373.55	53.511
373.91	51.915
374.27	51.546
374.63	51.418
374.99	51.554
375.35	51.221
375.71	51.748
376.07	51.989
376.42	52.407
376.78	52.021
377.14	51.018
377.50	52.649
377.86	50.532
378.22	52.086
378.58	50.564
378.94	51.351
379.30	51.654
379.66	51.713
380.02	52.027
380.38	51.245
380.74	52.161
381.09	50.733
381.45	51.690
381.81	50.676
382.17	51.465
382.53	49.811
382.89	50.802
383.25	50.969
383.61	50.558
383.97	50.219
384.32	49.657
384.68	48.761
385.04	50.400
385.40	49.845
385.76	49.509
386.12	50.648
386.48	50.913
386.83	50.032
387.19	50.959
387.55	50.155
387.91	49.093
388.27	49.172
388.62	49.785
388.98	48.710
389.34	49.437
389.70	48.498
390.06	49.747
390.42	50.065
390.77	48.664
391.13	50.223
391.49	49.810
391.85	48.504
392.20	49.148
392.56	48.737
392.92	49.323
393.28	48.462
393.64	49.520
393.99	48.870
394.35	49.814
394.71	48.808
395.07	49.782
395.42	49.135
395.78	49.555
396.14	47.858
396.50	49.436
396.85	49.269
397.21	48.027
397.57	48.295
397.92	49.579
398.28	47.646
398.64	48.268
399.00	48.909
399.35	47.998
399.71	47.917
400.07	47.487
400.42	48.528
400.78	48.854
401.14	47.866
401.49	49.015
401.85	47.308
402.21	47.665
402.57	46.946
402.92	47.982
403.28	47.595
403.63	48.639
403.99	47.771
404.35	48.121
404.70	47.542
405.06	47.350
405.42	47.224
405.77	47.600
406.13	46.783
406.49	48.137
406.84	46.722
407.20	47.340
407.55	47.096
407.91	48.133
408.27	47.798
408.62	46.839
408.98	48.162
409.34	47.724
409.69	47.871
410.05	47.212
410.40	47.339
410.76	47.551
411.11	46.381
411.47	45.879
411.83	46.426
412.18	46.691
412.54	47.385
412.89	46.024
413.25	46.753
413.60	48.178
413.96	46.752
414.31	46.719
414.67	47.275
415.03	47.417
415.38	46.714
415.74	47.781
416.09	47.028
416.45	46.787
416.80	46.728
417.16	47.319
417.51	47.313
417.87	45.665
418.22	46.562
418.58	46.094
418.93	46.130
419.29	46.658
419.64	47.544
420.00	45.610
420.35	45.565
420.71	46.324
421.06	45.465
421.42	46.316
421.77	45.516
422.12	44.469
422.48	44.846
422.83	46.069
423.19	45.801
423.54	47.127
423.90	45.681
424.25	45.170
424.61	45.536
424.96	46.414
425.31	45.736
425.67	44.045
426.02	44.971
426.38	45.788
426.73	45.231
427.09	46.322
427.44	45.428
427.79	45.658
428.15	46.012
428.50	45.582
428.85	45.054
429.21	44.892
429.56	44.842
429.92	44.389
430.27	45.084
430.62	44.700
430.98	44.681
431.33	44.175
431.68	45.236
432.04	44.622
432.39	45.003
432.74	44.764
433.10	45.727
433.45	45.539
433.80	45.067
434.16	44.605
434.51	44.895
434.86	45.154
435.22	45.525
435.57	45.228
435.92	45.231
436.28	45.552
436.63	43.764
436.98	45.392
437.34	46.631
437.69	44.982
438.04	45.981
438.39	45.194
438.75	44.916
439.10	44.693
439.45	44.864
439.81	45.619
440.16	44.777
440.51	44.523
440.86	44.933
441.22	44.883
441.57	45.064
441.92	46.111
442.27	44.133
442.63	44.444
442.98	46.310
443.33	44.185
443.68	45.121
444.03	44.461
444.39	44.304
444.74	44.535
445.09	44.852
445.44	44.724
445.79	45.176
446.15	44.944
446.50	44.642
446.85	46.095
447.20	45.334
447.55	44.891
447.91	45.339
448.26	44.797
448.61	45.732
448.96	46.124
449.31	44.319
449.66	45.808
450.02	44.847
450.37	44.785
450.72	45.234
451.07	43.998
451.42	44.559
451.77	45.802
452.12	45.150
452.47	45.958
452.83	45.396
453.18	45.049
453.53	46.135
453.88	45.836
454.23	45.188
454.58	45.851
454.93	47.107
455.28	45.574
455.63	45.388
455.98	46.190
456.34	45.854
456.69	46.337
457.04	45.449
457.39	44.535
457.74	45.560
458.09	45.486
458.44	45.781
458.79	44.794
459.14	45.711
459.49	44.658
459.84	45.208
460.19	44.962
460.54	44.502
460.89	45.584
461.24	46.205
461.59	46.601
461.94	45.931
462.29	46.706
462.64	45.182
462.99	44.372
463.34	46.067
463.69	47.154
464.04	44.812
464.39	45.043
464.74	45.276
465.09	44.391
465.44	45.485
465.79	44.351
466.14	44.882
466.49	44.939
466.84	45.126
467.19	45.745
467.54	45.688
467.89	45.858
468.24	44.677
468.59	45.971
468.94	44.838
469.29	45.694
469.64	46.386
469.99	45.805
470.34	46.367
470.68	45.330
471.03	45.170
471.38	47.255
471.73	45.836
472.08	46.842
472.43	45.415
472.78	45.820
473.13	44.544
473.48	44.944
473.83	44.451
474.17	45.551
474.52	46.030
474.87	45.534
475.22	46.082
475.57	44.492
475.92	45.353
476.27	44.025
476.61	45.063
476.96	45.959
477.31	43.799
477.66	45.624
478.01	44.067
478.36	45.267
478.70	46.054
479.05	44.995
479.40	45.189
479.75	45.552
480.10	44.284
480.45	44.979
480.79	44.673
481.14	45.548
481.49	45.183
481.84	44.490
482.19	44.934
482.53	44.128
482.88	44.765
483.23	45.000
483.58	44.222
483.92	45.173
484.27	43.660
484.62	44.009
484.97	43.477
485.31	44.281
485.66	43.092
486.01	43.589
486.36	43.329
486.70	42.643
487.05	42.512
487.40	42.901
487.75	42.963
488.09	43.312
488.44	42.328
488.79	44.087
489.13	44.041
489.48	43.189
489.83	43.850
490.17	44.980
490.52	44.243
490.87	44.957
491.22	44.702
491.56	43.599
491.91	44.812
492.26	44.327
492.60	43.272
492.95	44.387
493.30	44.112
493.64	44.050
493.99	44.940
494.34	43.571
494.68	45.192
495.03	43.233
495.37	43.276
495.72	44.542
496.07	44.640
496.41	43.274
496.76	44.679
497.11	43.944
497.45	43.968
497.80	44.242
498.14	44.106
498.49	44.976
498.84	43.960
499.18	44.762
499.53	44.397
499.87	45.061
500.22	44.183
500.56	45.825
500.91	44.615
501.26	44.429
501.60	44.756
501.95	43.859
502.29	44.002
502.64	44.786
502.98	44.367
503.33	44.287
503.67	43.527
504.02	43.920
504.36	43.613
504.71	44.797
505.06	43.470
505.40	43.850
505.75	43.587
506.09	43.732
506.44	44.943
506.78	44.715
507.13	44.624
507.47	44.495
507.82	44.022
508.16	45.289
508.51	45.713
508.85	44.588
509.19	44.133
509.54	43.163
509.88	44.359
510.23	43.136
510.57	45.253
510.92	44.847
511.26	44.553
511.61	44.554
511.95	43.998
512.30	44.910
512.64	44.438
512.98	45.177
513.33	45.450
513.67	44.023
514.02	43.561
514.36	44.730
514.70	45.158
515.05	44.841
515.39	45.373
515.74	44.369
516.08	44.662
516.42	44.340
516.77	45.151
517.11	43.840
517.46	44.244
517.80	45.587
518.14	43.891
518.49	45.974
518.83	44.489
519.17	45.035
519.52	45.161
519.86	46.264
520.20	45.029
520.55	44.883
520.89	45.742
521.23	45.838
521.58	46.158
521.92	46.295
522.26	43.868
522.61	44.611
522.95	44.690
523.29	44.857
523.64	45.549
523.98	44.794
524.32	44.511
524.66	45.460
525.01	43.321
525.35	43.866
525.69	44.335
526.04	43.988
526.38	44.783
526.72	44.785
527.06	45.512
527.41	43.255
527.75	45.466
528.09	45.087
528.43	44.742
528.78	44.868
529.12	43.576
529.46	45.683
529.80	44.616
530.15	45.670
530.49	43.569
530.83	45.506
531.17	46.018
531.51	46.239
531.86	45.161
532.20	46.023
532.54	46.188
532.88	44.994
533.22	44.285
533.57	44.568
533.91	43.709
534.25	44.532
534.59	45.088
534.93	44.021
535.27	44.961
535.62	45.665
535.96	45.009
536.30	45.709
536.64	44.237
536.98	44.061
537.32	44.964
537.66	45.333
538.01	45.161
538.35	44.538
538.69	46.841
539.03	44.704
539.37	43.834
539.71	44.070
540.05	44.248
540.39	45.515
540.73	43.984
541.07	45.230
541.42	45.401
541.76	45.097
542.10	44.502
542.44	44.768
542.78	45.784
543.12	43.058
543.46	43.607
543.80	45.999
544.14	44.673
544.48	44.127
544.82	44.836
545.16	45.543
545.50	44.280
545.84	44.691
546.18	46.128
546.52	44.597
546.86	45.430
547.20	44.707
547.54	45.558
547.88	44.452
548.22	44.209
548.56	43.585
548.90	44.366
549.24	45.118
549.58	44.611
549.92	44.437
550.26	45.881
550.60	44.260
550.94	45.352
551.28	43.745
551.62	46.154
551.96	44.351
552.30	45.461
552.64	44.760
552.98	45.153
553.32	45.246
553.66	44.172
554.00	45.436
554.34	45.342
554.68	46.209
555.02	45.134
555.36	44.746
555.69	43.708
556.03	43.001
556.37	44.816
556.71	44.338
557.05	44.188
557.39	44.087
557.73	44.248
558.07	46.193
558.41	45.876
558.75	45.334
559.08	43.699
559.42	44.747
559.76	45.735
560.10	44.754
560.44	45.283
560.78	45.509
561.12	44.789
561.45	44.263
561.79	44.957
562.13	45.540
562.47	44.809
562.81	44.282
563.15	44.482
563.48	44.960
563.82	44.814
564.16	45.782
564.50	45.573
564.84	44.374
565.17	44.981
565.51	45.495
565.85	45.368
566.19	44.271
566.52	44.902
566.86	44.304
567.20	45.460
567.54	44.463
567.88	44.432
568.21	45.344
568.55	43.782
568.89	44.504
569.23	45.009
569.56	43.887
569.90	45.245
570.24	45.246
570.57	44.305
570.91	43.471
571.25	43.020
571.59	43.623
571.92	44.268
572.26	43.328
572.60	44.324
572.93	43.058
573.27	42.916
573.61	43.328
573.95	42.997
574.28	42.563
574.62	42.784
574.96	43.106
575.29	42.459
575.63	43.471
575.97	43.244
576.30	42.963
576.64	42.532
576.98	43.243
577.31	43.115
577.65	43.149
577.98	44.491
578.32	43.308
578.66	43.082
578.99	42.707
579.33	42.556
579.67	42.617
580.00	43.107
580.34	42.952
580.67	43.087
581.01	43.602
581.35	43.506
581.68	43.779
582.02	43.572
582.35	43.635
582.69	43.851
583.02	43.440
583.36	43.648
583.70	43.856
584.03	42.816
584.37	43.794
584.70	43.182
585.04	43.004
585.37	43.010
585.71	43.680
586.04	43.561
586.38	44.775
586.72	43.386
587.05	43.466
587.39	43.404
587.72	44.370
588.06	43.943
588.39	44.143
588.73	43.444
589.06	44.157
589.40	43.939
589.73	44.386
590.07	44.235
590.40	43.588
590.73	44.379
591.07	44.770
591.40	45.340
591.74	44.935
592.07	43.761
592.41	44.440
592.74	44.457
593.08	44.171
593.41	44.480
593.75	44.066
594.08	44.988
594.41	44.821
594.75	44.104
595.08	44.381
595.42	45.044
595.75	45.442
596.09	44.273
596.42	43.969
596.75	44.491
597.09	44.372
597.42	44.098
597.75	44.976
598.09	44.217
598.42	44.459
598.76	43.778
599.09	44.204
599.42	44.178
599.76	44.546
600.09	45.829
600.42	44.449
600.76	44.071
601.09	44.226
601.42	44.292
601.76	44.478
602.09	43.794
602.42	44.467
602.76	44.700
603.09	45.201
603.42	44.514
603.76	44.322
604.09	44.591
604.42	45.047
604.76	45.255
605.09	45.085
605.42	43.993
605.75	45.116
606.09	44.856
606.42	45.157
606.75	44.214
607.09	44.579
607.42	44.245
607.75	44.557
608.08	44.247
608.42	44.151
608.75	45.131
609.08	44.172
609.41	44.931
609.75	44.736
610.08	44.863
610.41	44.693
610.74	44.986
611.07	45.208
611.41	46.124
611.74	45.802
612.07	45.963
612.40	46.590
612.73	45.158
613.07	46.067
613.40	44.708
613.73	44.992
614.06	45.645
614.39	44.835
614.72	44.474
615.06	45.168
615.39	44.798
615.72	44.530
616.05	44.338
616.38	45.803
616.71	46.971
617.05	45.819
617.38	46.663
617.71	45.706
618.04	45.853
618.37	44.589
618.70	45.986
619.03	45.263
619.36	45.485
619.69	46.268
620.03	45.261
620.36	45.989
620.69	46.849
621.02	46.608
621.35	45.732
621.68	46.028
622.01	45.588
622.34	46.747
622.67	46.844
623.00	45.121
623.33	45.461
623.66	45.390
623.99	46.465
624.32	46.576
624.65	47.316
624.99	45.751
625.32	45.619
625.65	46.506
625.98	47.502
626.31	46.345
626.64	46.939
626.97	47.548
627.30	46.301
627.63	46.842
627.96	46.594
628.29	45.669
628.62	48.033
628.95	47.358
629.28	47.993
629.61	48.213
629.94	47.333
630.26	46.711
630.59	47.283
630.92	47.222
