SpectraSuite Data File
++++++++++++++++++++++++++++++++++++
Date: Wed May 13 20:36:53 PDT 2015
User: schluterlab
Dark Spectrum Present: Yes
Reference Spectrum Present: Yes
Number of Sampled Component Spectra: 1
Spectrometers: USB2E3373
Integration Time (usec): 3000 (USB2E3373)
Spectra Averaged: 3 (USB2E3373)
Boxcar Smoothing: 0 (USB2E3373)
Correct for Electrical Dark: No (USB2E3373)
Strobe/Lamp Enabled: No (USB2E3373)
Correct for Detector Non-linearity: No (USB2E3373)
Correct for Stray Light: No (USB2E3373)
Number of Pixels in Processed Spectrum: 2048
>>>>>Begin Processed Spectral Data<<<<<
178.53	0.000
178.91	-900.000
179.29	-775.000
179.67	-161.111
180.04	-825.000
180.42	1800.000
180.80	800.000
181.18	-700.000
181.56	500.000
181.94	0.000
182.31	-471.429
182.69	1066.667
183.07	-350.000
183.45	-388.889
183.83	327.273
184.20	-300.000
184.58	1950.000
184.96	4900.000
185.34	-680.000
185.72	-387.500
186.09	-1400.000
186.47	1900.000
186.85	1850.000
187.23	3300.000
187.61	-966.667
187.98	1075.000
188.36	381.818
188.74	454.545
189.12	-580.000
189.49	480.000
189.87	-3700.000
190.25	-800.000
190.63	278.571
191.00	300.000
191.38	683.333
191.76	-575.000
192.14	1275.000
192.51	462.500
192.89	466.667
193.27	350.000
193.65	-625.000
194.02	350.000
194.40	660.000
194.78	320.000
195.15	375.000
195.53	490.000
195.91	-1700.000
196.29	268.750
196.66	215.789
197.04	-200.000
197.42	0.000
197.79	460.000
198.17	-3800.000
198.55	571.429
198.92	537.500
199.30	700.000
199.68	0.000
200.05	233.333
200.43	628.571
200.81	3500.000
201.18	1100.000
201.56	-933.333
201.94	422.222
202.31	522.222
202.69	316.667
203.07	480.000
203.44	0.000
203.82	975.000
204.19	571.429
204.57	378.571
204.95	512.500
205.32	1100.000
205.70	400.000
206.08	292.857
206.45	1950.000
206.83	268.750
207.20	650.000
207.58	460.000
207.96	227.778
208.33	600.000
208.71	-616.667
209.08	557.143
209.46	411.111
209.84	381.818
210.21	-1200.000
210.59	950.000
210.96	-250.000
211.34	2200.000
211.71	410.000
212.09	550.000
212.46	0.000
212.84	1200.000
213.22	1050.000
213.59	-3400.000
213.97	700.000
214.34	571.429
214.72	481.818
215.09	820.000
215.47	-1800.000
215.84	-1500.000
216.22	1366.667
216.59	314.286
216.97	875.000
217.34	390.909
217.72	-416.667
218.09	0.000
218.47	-3000.000
218.84	377.778
219.22	585.714
219.59	1333.333
219.97	-257.143
220.34	600.000
220.72	-1133.333
221.09	250.000
221.47	1175.000
221.84	-716.667
222.22	0.000
222.59	1150.000
222.97	-1550.000
223.34	1020.000
223.72	330.769
224.09	640.000
224.46	1800.000
224.84	-3900.000
225.21	-860.000
225.59	-3400.000
225.96	500.000
226.34	225.000
226.71	1850.000
227.08	537.500
227.46	360.000
227.83	-900.000
228.21	-1400.000
228.58	555.556
228.95	-2200.000
229.33	-1750.000
229.70	1500.000
230.08	700.000
230.45	-700.000
230.82	383.333
231.20	716.667
231.57	514.286
231.95	341.667
232.32	190.909
232.69	281.818
233.07	642.857
233.44	246.154
233.81	-1000.000
234.19	205.263
234.56	341.667
234.93	241.667
235.31	436.364
235.68	338.462
236.05	242.857
236.43	130.303
236.80	221.053
237.17	3600.000
237.55	209.524
237.92	221.429
238.29	233.333
238.67	145.161
239.04	206.897
239.41	141.667
239.79	108.696
240.16	145.238
240.53	156.818
240.91	109.804
241.28	120.000
241.65	116.000
242.02	102.899
242.40	124.194
242.77	110.000
243.14	91.398
243.51	92.135
243.89	77.647
244.26	83.333
244.63	79.570
245.00	95.745
245.38	83.168
245.75	84.112
246.12	78.899
246.49	82.482
246.87	85.600
247.24	89.231
247.61	70.000
247.98	75.817
248.36	81.081
248.73	73.885
249.10	77.070
249.47	72.316
249.84	72.727
250.22	68.449
250.59	71.006
250.96	73.232
251.33	69.194
251.70	67.327
252.08	67.143
252.45	65.919
252.82	67.391
253.19	63.830
253.56	63.137
253.94	71.369
254.31	67.188
254.68	65.385
255.05	64.945
255.42	65.854
255.79	62.500
256.16	66.787
256.54	61.484
256.91	67.260
257.28	65.108
257.65	60.396
258.02	62.733
258.39	59.937
258.76	65.217
259.14	60.714
259.51	62.614
259.88	60.248
260.25	62.840
260.62	61.272
260.99	62.112
261.36	62.162
261.73	62.464
262.10	60.174
262.47	60.282
262.85	58.496
263.22	55.556
263.59	60.969
263.96	56.868
264.33	60.836
264.70	60.000
265.07	60.870
265.44	62.121
265.81	54.745
266.18	60.804
266.55	56.341
266.92	59.459
267.29	58.333
267.66	58.257
268.03	56.818
268.40	59.112
268.77	60.143
269.14	56.532
269.51	56.208
269.88	58.275
270.25	56.208
270.62	58.652
270.99	54.409
271.36	57.511
271.73	59.813
272.10	59.348
272.47	56.774
272.84	58.225
273.21	55.556
273.58	53.930
273.95	54.507
274.32	52.686
274.69	56.531
275.06	55.315
275.43	58.085
275.80	55.912
276.17	54.990
276.54	52.807
276.91	54.941
277.28	55.078
277.65	57.640
278.02	55.694
278.39	55.469
278.76	53.091
279.13	53.962
279.50	53.259
279.87	55.777
280.23	54.890
280.60	52.611
280.97	55.083
281.34	52.389
281.71	52.909
282.08	53.551
282.45	53.636
282.82	53.286
283.19	53.832
283.56	51.930
283.92	53.638
284.29	50.265
284.66	55.354
285.03	50.452
285.40	53.697
285.77	52.189
286.14	52.159
286.51	53.833
286.87	50.085
287.24	49.186
287.61	47.833
287.98	51.299
288.35	50.713
288.72	50.935
289.08	48.044
289.45	50.741
289.82	48.780
290.19	48.352
290.56	48.851
290.93	47.281
291.29	46.166
291.66	46.903
292.03	47.820
292.40	48.752
292.77	47.337
293.13	44.478
293.50	45.773
293.87	45.333
294.24	43.704
294.60	44.250
294.97	43.459
295.34	43.865
295.71	43.324
296.08	42.593
296.44	44.567
296.81	42.008
297.18	41.463
297.55	40.501
297.91	42.480
298.28	42.838
298.65	40.862
299.02	42.688
299.38	41.567
299.75	39.353
300.12	39.336
300.48	39.625
300.85	41.430
301.22	39.363
301.59	38.636
301.95	41.436
302.32	38.511
302.69	37.873
303.05	39.030
303.42	38.765
303.79	38.279
304.15	37.762
304.52	38.470
304.89	37.747
305.25	38.283
305.62	38.618
305.99	38.725
306.35	37.808
306.72	38.229
307.09	37.847
307.45	38.401
307.82	36.607
308.19	37.307
308.55	37.433
308.92	37.809
309.29	38.332
309.65	36.797
310.02	35.412
310.38	37.312
310.75	36.431
311.12	37.462
311.48	36.677
311.85	38.365
312.22	38.710
312.58	37.318
312.95	38.437
313.31	35.534
313.68	39.085
314.05	38.560
314.41	37.889
314.78	37.664
315.14	38.232
315.51	37.384
315.87	39.109
316.24	39.523
316.61	39.279
316.97	39.922
317.34	38.650
317.70	42.256
318.07	41.290
318.43	41.389
318.80	42.643
319.16	42.844
319.53	41.932
319.89	44.286
320.26	45.300
320.62	44.345
320.99	46.869
321.35	44.646
321.72	47.023
322.08	48.371
322.45	50.448
322.81	52.035
323.18	50.674
323.54	52.597
323.91	51.887
324.27	54.876
324.64	54.427
325.00	54.554
325.37	57.416
325.73	58.887
326.10	59.488
326.46	59.946
326.83	62.899
327.19	62.169
327.56	64.286
327.92	65.442
328.29	66.548
328.65	67.311
329.01	68.502
329.38	68.918
329.74	69.437
330.11	70.500
330.47	69.972
330.84	70.037
331.20	69.945
331.56	71.009
331.93	72.407
332.29	72.050
332.66	71.504
333.02	73.126
333.38	73.803
333.75	73.975
334.11	74.021
334.48	74.800
334.84	76.930
335.20	75.636
335.57	75.340
335.93	74.196
336.29	76.923
336.66	77.277
337.02	76.561
337.38	76.296
337.75	75.668
338.11	78.782
338.47	79.742
338.84	78.918
339.20	77.615
339.56	80.839
339.93	78.364
340.29	77.627
340.65	79.323
341.02	78.534
341.38	80.694
341.74	76.491
342.11	80.437
342.47	78.150
342.83	79.538
343.20	79.048
343.56	76.580
343.92	79.123
344.28	77.721
344.65	79.536
345.01	77.694
345.37	78.645
345.73	79.103
346.10	79.028
346.46	80.000
346.82	78.583
347.19	77.694
347.55	75.698
347.91	79.854
348.27	79.047
348.63	79.682
349.00	77.994
349.36	78.325
349.72	78.829
350.08	78.444
350.45	79.577
350.81	78.716
351.17	77.553
351.53	78.952
351.89	77.805
352.26	79.006
352.62	79.471
352.98	79.417
353.34	78.718
353.70	78.642
354.07	79.194
354.43	77.460
354.79	78.278
355.15	77.334
355.51	78.737
355.87	80.327
356.24	77.850
356.60	76.985
356.96	79.887
357.32	77.760
357.68	77.087
358.04	77.593
358.40	77.593
358.77	77.074
359.13	76.243
359.49	77.412
359.85	77.381
360.21	77.512
360.57	77.276
360.93	77.000
361.29	77.173
361.66	76.316
362.02	77.313
362.38	77.947
362.74	77.902
363.10	76.536
363.46	77.183
363.82	76.342
364.18	76.285
364.54	77.786
364.90	75.354
365.26	75.441
365.62	78.232
365.98	75.457
366.35	74.069
366.71	76.356
367.07	77.640
367.43	76.560
367.79	76.374
368.15	76.580
368.51	75.000
368.87	74.804
369.23	77.249
369.59	78.204
369.95	75.809
370.31	74.359
370.67	74.203
371.03	76.704
371.39	75.729
371.75	76.029
372.11	74.609
372.47	77.126
372.83	77.233
373.19	74.855
373.55	77.088
373.91	75.773
374.27	73.677
374.63	76.000
374.99	74.929
375.35	74.878
375.71	73.818
376.07	74.348
376.42	76.204
376.78	74.751
377.14	74.830
377.50	73.576
377.86	73.471
378.22	74.905
378.58	71.867
378.94	73.162
379.30	74.682
379.66	73.604
380.02	73.833
380.38	73.892
380.74	74.130
381.09	73.533
381.45	73.755
381.81	73.587
382.17	74.841
382.53	73.270
382.89	73.395
383.25	73.796
383.61	74.597
383.97	72.858
384.32	71.803
384.68	72.181
385.04	71.666
385.40	71.827
385.76	71.253
386.12	71.567
386.48	72.687
386.83	74.086
387.19	72.789
387.55	71.861
387.91	71.161
388.27	71.980
388.62	72.034
388.98	71.437
389.34	71.277
389.70	69.957
390.06	72.940
390.42	71.206
390.77	70.293
391.13	71.219
391.49	71.003
391.85	72.247
392.20	69.968
392.56	70.076
392.92	71.454
393.28	70.355
393.64	70.444
393.99	69.640
394.35	68.734
394.71	68.130
395.07	67.103
395.42	71.941
395.78	69.148
396.14	69.274
396.50	69.048
396.85	71.202
397.21	68.126
397.57	69.064
397.92	68.510
398.28	68.274
398.64	67.981
399.00	67.879
399.35	67.625
399.71	68.981
400.07	67.475
400.42	67.423
400.78	68.697
401.14	68.598
401.49	67.940
401.85	67.090
402.21	66.826
402.57	66.934
402.92	68.726
403.28	67.021
403.63	67.203
403.99	67.516
404.35	65.333
404.70	65.468
405.06	66.045
405.42	66.687
405.77	66.114
406.13	65.350
406.49	64.577
406.84	64.442
407.20	64.716
407.55	66.433
407.91	64.467
408.27	65.922
408.62	65.081
408.98	64.583
409.34	64.145
409.69	65.161
410.05	64.560
410.40	64.159
410.76	63.023
411.11	64.053
411.47	62.173
411.83	65.058
412.18	62.709
412.54	63.325
412.89	63.373
413.25	64.109
413.60	63.928
413.96	61.506
414.31	63.062
414.67	61.850
415.03	62.185
415.38	63.273
415.74	62.122
416.09	63.684
416.45	61.580
416.80	62.789
417.16	61.863
417.51	62.707
417.87	61.529
418.22	62.334
418.58	61.911
418.93	61.855
419.29	61.680
419.64	61.524
420.00	61.890
420.35	59.942
420.71	61.148
421.06	60.442
421.42	59.591
421.77	60.818
422.12	59.517
422.48	60.658
422.83	61.503
423.19	59.834
423.54	61.463
423.90	59.536
424.25	58.236
424.61	59.940
424.96	60.058
425.31	58.749
425.67	57.135
426.02	58.571
426.38	60.867
426.73	57.226
427.09	58.967
427.44	59.459
427.79	58.079
428.15	59.643
428.50	58.982
428.85	57.986
429.21	57.924
429.56	58.217
429.92	56.517
430.27	57.398
430.62	56.068
430.98	56.461
431.33	56.701
431.68	57.539
432.04	57.188
432.39	57.681
432.74	56.553
433.10	58.065
433.45	56.735
433.80	57.040
434.16	57.372
434.51	55.842
434.86	56.385
435.22	57.310
435.57	57.508
435.92	56.758
436.28	57.058
436.63	56.347
436.98	56.440
437.34	56.768
437.69	56.534
438.04	56.605
438.39	56.060
438.75	57.176
439.10	55.866
439.45	55.962
439.81	54.924
440.16	55.280
440.51	55.770
440.86	55.819
441.22	54.561
441.57	55.414
441.92	56.397
442.27	54.790
442.63	55.292
442.98	55.155
443.33	54.620
443.68	55.447
444.03	55.442
444.39	54.576
444.74	54.545
445.09	55.202
445.44	54.893
445.79	54.973
446.15	53.573
446.50	54.012
446.85	54.214
447.20	54.666
447.55	56.114
447.91	54.054
448.26	54.647
448.61	54.155
448.96	54.208
449.31	53.937
449.66	54.080
450.02	53.538
450.37	53.855
450.72	54.202
451.07	53.199
451.42	53.252
451.77	54.198
452.12	52.887
452.47	52.861
452.83	54.837
453.18	52.995
453.53	53.618
453.88	52.274
454.23	52.540
454.58	53.846
454.93	53.465
455.28	53.304
455.63	53.519
455.98	53.631
456.34	52.952
456.69	52.724
457.04	53.003
457.39	52.425
457.74	53.627
458.09	51.466
458.44	52.452
458.79	52.495
459.14	52.370
459.49	50.963
459.84	50.471
460.19	52.151
460.54	51.447
460.89	52.660
461.24	52.763
461.59	52.237
461.94	51.726
462.29	52.226
462.64	50.734
462.99	51.008
463.34	52.800
463.69	50.719
464.04	51.130
464.39	51.478
464.74	50.683
465.09	49.517
465.44	50.637
465.79	49.497
466.14	50.356
466.49	50.667
466.84	50.088
467.19	50.030
467.54	51.312
467.89	49.880
468.24	50.669
468.59	49.573
468.94	48.503
469.29	50.064
469.64	50.134
469.99	51.894
470.34	51.453
470.68	50.144
471.03	48.571
471.38	51.077
471.73	50.167
472.08	49.934
472.43	48.178
472.78	48.716
473.13	49.551
473.48	49.750
473.83	49.390
474.17	48.040
474.52	49.442
474.87	49.270
475.22	49.333
475.57	48.361
475.92	49.283
476.27	48.985
476.61	48.869
476.96	48.543
477.31	48.613
477.66	49.070
478.01	48.040
478.36	48.228
478.70	48.287
479.05	49.787
479.40	47.953
479.75	47.178
480.10	48.111
480.45	46.692
480.79	47.348
481.14	47.554
481.49	47.983
481.84	47.142
482.19	47.706
482.53	47.156
482.88	47.743
483.23	47.336
483.58	48.044
483.92	47.423
484.27	45.969
484.62	46.810
484.97	45.447
485.31	46.336
485.66	43.314
486.01	43.920
486.36	43.216
486.70	43.540
487.05	44.542
487.40	45.199
487.75	46.002
488.09	45.617
488.44	45.664
488.79	46.510
489.13	46.371
489.48	45.514
489.83	45.749
490.17	45.857
490.52	45.748
490.87	45.409
491.22	45.884
491.56	44.875
491.91	44.579
492.26	45.062
492.60	45.346
492.95	44.808
493.30	44.766
493.64	45.544
493.99	45.032
494.34	45.652
494.68	46.429
495.03	45.254
495.37	45.230
495.72	45.078
496.07	45.290
496.41	43.894
496.76	45.119
497.11	44.439
497.45	44.760
497.80	44.434
498.14	44.300
498.49	44.293
498.84	44.919
499.18	44.476
499.53	43.637
499.87	43.523
500.22	44.889
500.56	44.612
500.91	44.952
501.26	44.429
501.60	45.657
501.95	43.859
502.29	44.799
502.64	43.529
502.98	43.899
503.33	43.830
503.67	43.573
504.02	44.668
504.36	43.145
504.71	43.918
505.06	43.663
505.40	43.267
505.75	42.527
506.09	43.878
506.44	44.055
506.78	44.082
507.13	45.533
507.47	43.283
507.82	44.174
508.16	44.428
508.51	44.039
508.85	42.552
509.19	44.082
509.54	43.316
509.88	43.740
510.23	43.702
510.57	45.046
510.92	43.604
511.26	42.960
511.61	43.932
511.95	42.589
512.30	43.213
512.64	43.955
512.98	43.248
513.33	43.201
513.67	41.729
514.02	43.182
514.36	44.457
514.70	43.498
515.05	42.666
515.39	42.961
515.74	42.905
516.08	43.432
516.42	42.786
516.77	44.036
517.11	42.453
517.46	42.664
517.80	44.541
518.14	42.328
518.49	43.757
518.83	43.466
519.17	43.995
519.52	43.350
519.86	43.525
520.20	44.046
520.55	43.746
520.89	44.708
521.23	43.064
521.58	43.517
521.92	44.213
522.26	41.916
522.61	43.178
522.95	43.585
523.29	42.970
523.64	43.354
523.98	43.438
524.32	42.521
524.66	43.776
525.01	43.750
525.35	41.884
525.69	42.980
526.04	41.869
526.38	41.977
526.72	42.761
527.06	42.436
527.41	40.470
527.75	42.379
528.09	42.775
528.43	42.894
528.78	43.700
529.12	41.091
529.46	42.131
529.80	42.203
530.15	42.118
530.49	41.969
530.83	42.342
531.17	42.167
531.51	43.256
531.86	42.516
532.20	42.699
532.54	41.256
532.88	42.426
533.22	41.287
533.57	41.049
533.91	41.120
534.25	41.677
534.59	41.611
534.93	41.106
535.27	42.124
535.62	41.941
535.96	41.996
536.30	40.496
536.64	42.048
536.98	41.672
537.32	41.409
537.66	41.667
538.01	41.870
538.35	41.758
538.69	42.310
539.03	39.766
539.37	40.319
539.71	39.533
540.05	40.784
540.39	42.990
540.73	40.298
541.07	42.440
541.42	41.879
541.76	41.226
542.10	42.367
542.44	42.185
542.78	42.622
543.12	40.819
543.46	41.508
543.80	41.900
544.14	40.950
544.48	41.143
544.82	40.603
545.16	40.989
545.50	40.488
545.84	40.054
546.18	41.549
546.52	40.674
546.86	40.206
547.20	41.672
547.54	39.880
547.88	41.709
548.22	39.601
548.56	41.006
548.90	39.885
549.24	40.741
549.58	40.996
549.92	41.484
550.26	41.477
550.60	39.488
550.94	40.352
551.28	40.015
551.62	41.697
551.96	40.140
552.30	41.570
552.64	40.636
552.98	41.017
553.32	39.919
553.66	40.491
554.00	41.112
554.34	40.649
554.68	41.273
555.02	40.197
555.36	39.109
555.69	38.836
556.03	38.627
556.37	40.109
556.71	38.881
557.05	41.036
557.39	40.308
557.73	39.802
558.07	40.899
558.41	40.449
558.75	40.191
559.08	41.536
559.42	40.967
559.76	39.265
560.10	40.114
560.44	38.854
560.78	38.922
561.12	39.380
561.45	39.374
561.79	39.024
562.13	39.638
562.47	39.617
562.81	39.819
563.15	38.997
563.48	40.053
563.82	38.748
564.16	38.784
564.50	38.216
564.84	38.053
565.17	39.575
565.51	39.872
565.85	39.340
566.19	38.071
566.52	39.835
566.86	38.638
567.20	39.033
567.54	39.212
567.88	37.751
568.21	38.254
568.55	38.675
568.89	38.667
569.23	37.433
569.56	37.814
569.90	37.547
570.24	37.424
570.57	36.926
570.91	35.165
571.25	36.257
571.59	36.406
571.92	36.636
572.26	36.540
572.60	36.036
572.93	35.832
573.27	36.764
573.61	36.376
573.95	36.486
574.28	35.603
574.62	36.152
574.96	35.699
575.29	35.669
575.63	35.467
575.97	35.746
576.30	35.980
576.64	35.658
576.98	35.926
577.31	35.305
577.65	36.004
577.98	35.384
578.32	35.425
578.66	35.744
578.99	35.837
579.33	36.311
579.67	35.660
580.00	35.723
580.34	36.165
580.67	35.689
581.01	36.047
581.35	35.692
581.68	35.298
582.02	34.843
582.35	35.497
582.69	35.418
583.02	35.614
583.36	35.716
583.70	36.214
584.03	36.416
584.37	36.179
584.70	36.076
585.04	35.861
585.37	34.762
585.71	35.808
586.04	35.661
586.38	35.946
586.72	36.620
587.05	35.860
587.39	35.567
587.72	35.481
588.06	35.966
588.39	35.775
588.73	36.081
589.06	36.429
589.40	37.374
589.73	36.290
590.07	36.299
590.40	35.586
590.73	36.105
591.07	36.752
591.40	36.525
591.74	36.883
592.07	37.129
592.41	35.883
592.74	35.618
593.08	35.876
593.41	34.546
593.75	35.353
594.08	35.970
594.41	36.373
594.75	36.007
595.08	35.970
595.42	36.532
595.75	36.432
596.09	36.425
596.42	36.464
596.75	36.682
597.09	36.364
597.42	35.582
597.75	36.438
598.09	36.261
598.42	34.923
598.76	35.792
599.09	34.588
599.42	35.480
599.76	35.542
600.09	34.973
600.42	35.610
600.76	34.714
601.09	35.082
601.42	35.350
601.76	35.712
602.09	36.443
602.42	36.306
602.76	36.397
603.09	35.366
603.42	35.689
603.76	35.290
604.09	35.905
604.42	36.038
604.76	36.019
605.09	35.518
605.42	35.614
605.75	36.382
606.09	34.974
606.42	35.840
606.75	35.877
607.09	35.873
607.42	35.473
607.75	34.177
608.08	35.128
608.42	36.217
608.75	35.302
609.08	35.615
609.41	34.841
609.75	35.827
610.08	35.580
610.41	35.475
610.74	35.809
611.07	36.858
611.41	36.310
611.74	36.903
612.07	36.801
612.40	36.674
612.73	36.105
613.07	36.746
613.40	36.019
613.73	36.392
614.06	35.538
614.39	35.239
614.72	35.421
615.06	36.134
615.39	35.403
615.72	35.429
616.05	34.556
616.38	36.354
616.71	36.580
617.05	36.455
617.38	36.140
617.71	36.216
618.04	36.178
618.37	35.068
618.70	36.839
619.03	37.434
619.36	35.777
619.69	37.465
620.03	37.157
620.36	37.166
620.69	37.877
621.02	37.979
621.35	35.395
621.68	37.773
622.01	36.533
622.34	36.914
622.67	37.338
623.00	36.684
623.33	35.811
623.66	36.741
623.99	37.040
624.32	35.877
624.65	37.288
624.99	35.482
625.32	35.337
625.65	37.190
625.98	37.894
626.31	37.325
626.64	37.551
626.97	37.988
627.30	37.739
627.63	37.490
627.96	37.426
628.29	37.358
628.62	38.884
628.95	38.679
629.28	37.774
629.61	37.855
629.94	38.476
630.26	37.369
630.59	36.225
630.92	37.356
631.25	37.315
