SpectraSuite Data File
++++++++++++++++++++++++++++++++++++
Date: Wed May 13 20:33:56 PDT 2015
User: schluterlab
Dark Spectrum Present: Yes
Reference Spectrum Present: Yes
Number of Sampled Component Spectra: 1
Spectrometers: USB2E3373
Integration Time (usec): 3000 (USB2E3373)
Spectra Averaged: 3 (USB2E3373)
Boxcar Smoothing: 0 (USB2E3373)
Correct for Electrical Dark: No (USB2E3373)
Strobe/Lamp Enabled: No (USB2E3373)
Correct for Detector Non-linearity: No (USB2E3373)
Correct for Stray Light: No (USB2E3373)
Number of Pixels in Processed Spectrum: 2048
>>>>>Begin Processed Spectral Data<<<<<
178.53	0.000
178.91	-825.000
179.29	-850.000
179.67	-144.444
180.04	-1050.000
180.42	1550.000
180.80	540.000
181.18	-500.000
181.56	442.857
181.94	0.000
182.31	-557.143
182.69	1333.333
183.07	-412.500
183.45	-433.333
183.83	472.727
184.20	-250.000
184.58	1650.000
184.96	4800.000
185.34	-620.000
185.72	-312.500
186.09	-1450.000
186.47	2000.000
186.85	1800.000
187.23	3800.000
187.61	-1066.667
187.98	1250.000
188.36	409.091
188.74	354.545
189.12	-460.000
189.49	340.000
189.87	-3900.000
190.25	-925.000
190.63	278.571
191.00	261.538
191.38	566.667
191.76	-875.000
192.14	1025.000
192.51	412.500
192.89	816.667
193.27	375.000
193.65	-650.000
194.02	370.000
194.40	540.000
194.78	550.000
195.15	391.667
195.53	470.000
195.91	-1650.000
196.29	231.250
196.66	242.105
197.04	-210.000
197.42	0.000
197.79	420.000
198.17	-3700.000
198.55	385.714
198.92	512.500
199.30	560.000
199.68	0.000
200.05	277.778
200.43	528.571
200.81	3000.000
201.18	1366.667
201.56	-1166.667
201.94	400.000
202.31	400.000
202.69	283.333
203.07	330.000
203.44	0.000
203.82	850.000
204.19	571.429
204.57	335.714
204.95	450.000
205.32	1233.333
205.70	354.545
206.08	314.286
206.45	1900.000
206.83	281.250
207.20	566.667
207.58	460.000
207.96	227.778
208.33	512.500
208.71	-666.667
209.08	614.286
209.46	500.000
209.84	345.455
210.21	-1066.667
210.59	900.000
210.96	-337.500
211.34	1500.000
211.71	390.000
212.09	483.333
212.46	0.000
212.84	1033.333
213.22	1075.000
213.59	-2900.000
213.97	533.333
214.34	685.714
214.72	436.364
215.09	700.000
215.47	-1300.000
215.84	-2100.000
216.22	966.667
216.59	300.000
216.97	800.000
217.34	400.000
217.72	-566.667
218.09	0.000
218.47	-2000.000
218.84	533.333
219.22	528.571
219.59	1266.667
219.97	-271.429
220.34	700.000
220.72	-1100.000
221.09	307.143
221.47	1075.000
221.84	-600.000
222.22	0.000
222.59	975.000
222.97	-1900.000
223.34	880.000
223.72	338.462
224.09	680.000
224.46	1950.000
224.84	-3300.000
225.21	-800.000
225.59	-3000.000
225.96	480.000
226.34	220.000
226.71	2000.000
227.08	537.500
227.46	420.000
227.83	-675.000
228.21	-1650.000
228.58	511.111
228.95	-1250.000
229.33	-1350.000
229.70	1233.333
230.08	471.429
230.45	-580.000
230.82	291.667
231.20	600.000
231.57	571.429
231.95	400.000
232.32	172.727
232.69	354.545
233.07	642.857
233.44	269.231
233.81	-1166.667
234.19	226.316
234.56	325.000
234.93	325.000
235.31	263.636
235.68	269.231
236.05	342.857
236.43	151.515
236.80	263.158
237.17	4700.000
237.55	195.238
237.92	182.143
238.29	252.381
238.67	138.710
239.04	217.241
239.41	125.000
239.79	108.696
240.16	145.238
240.53	131.818
240.91	96.078
241.28	92.000
241.65	110.000
242.02	85.507
242.40	106.452
242.77	95.000
243.14	83.871
243.51	101.124
243.89	82.353
244.26	75.556
244.63	70.968
245.00	77.660
245.38	84.158
245.75	68.224
246.12	66.972
246.49	72.263
246.87	75.200
247.24	66.923
247.61	66.429
247.98	64.706
248.36	55.405
248.73	61.783
249.10	62.420
249.47	59.322
249.84	65.241
250.22	56.150
250.59	62.130
250.96	58.081
251.33	56.398
251.70	60.891
252.08	58.095
252.45	57.848
252.82	50.870
253.19	63.404
253.56	52.941
253.94	56.017
254.31	59.375
254.68	56.538
255.05	52.030
255.42	54.472
255.79	56.250
256.16	54.874
256.54	54.770
256.91	52.313
257.28	53.237
257.65	51.815
258.02	49.068
258.39	47.950
258.76	51.505
259.14	52.083
259.51	54.103
259.88	49.689
260.25	54.079
260.62	49.711
260.99	55.590
261.36	53.754
261.73	52.436
262.10	50.581
262.47	49.014
262.85	48.468
263.22	49.858
263.59	51.567
263.96	50.000
264.33	48.564
264.70	52.105
265.07	49.872
265.44	49.747
265.81	47.689
266.18	45.477
266.55	48.049
266.92	50.614
267.29	47.917
267.66	46.789
268.03	45.909
268.40	48.364
268.77	47.017
269.14	46.171
269.51	49.210
269.88	49.650
270.25	48.307
270.62	48.539
270.99	48.387
271.36	49.356
271.73	47.897
272.10	45.652
272.47	49.247
272.84	45.887
273.21	47.589
273.58	44.978
273.95	44.654
274.32	44.421
274.69	47.537
275.06	43.307
275.43	47.447
275.80	45.892
276.17	44.196
276.54	47.401
276.91	47.431
277.28	44.727
277.65	46.615
278.02	46.377
278.39	47.656
278.76	44.545
279.13	42.830
279.50	45.065
279.87	42.430
280.23	45.509
280.60	44.681
280.97	44.732
281.34	44.602
281.71	45.455
282.08	44.146
282.45	43.818
282.82	44.405
283.19	44.029
283.56	45.088
283.92	46.362
284.29	43.563
284.66	44.283
285.03	44.665
285.40	42.077
285.77	44.781
286.14	42.314
286.51	42.500
286.87	42.222
287.24	41.857
287.61	40.128
287.98	41.883
288.35	40.887
288.72	41.589
289.08	41.158
289.45	40.692
289.82	39.024
290.19	38.776
290.56	40.123
290.93	37.311
291.29	40.491
291.66	39.528
292.03	37.500
292.40	38.473
292.77	36.243
293.13	39.254
293.50	35.714
293.87	37.037
294.24	36.593
294.60	36.827
294.97	36.919
295.34	36.248
295.71	35.227
296.08	34.473
296.44	35.076
296.81	34.875
297.18	35.501
297.55	33.245
297.91	31.926
298.28	36.546
298.65	35.640
299.02	35.310
299.38	34.529
299.75	34.501
300.12	32.567
300.48	32.750
300.85	32.306
301.22	34.140
301.59	31.818
301.95	32.997
302.32	32.349
302.69	31.063
303.05	32.121
303.42	32.963
303.79	32.163
304.15	30.070
304.52	29.896
304.89	30.314
305.25	31.323
305.62	30.351
305.99	31.759
306.35	31.096
306.72	31.614
307.09	31.077
307.45	30.968
307.82	29.353
308.19	31.015
308.55	31.715
308.92	30.720
309.29	28.194
309.65	29.056
310.02	29.598
310.38	28.495
310.75	30.095
311.12	29.887
311.48	28.945
311.85	31.447
312.22	29.761
312.58	29.314
312.95	31.573
313.31	28.350
313.68	30.353
314.05	29.882
314.41	30.352
314.78	29.708
315.14	29.295
315.51	29.351
315.87	28.218
316.24	28.997
316.61	28.168
316.97	28.082
317.34	28.180
317.70	28.489
318.07	29.355
318.43	30.137
318.80	29.522
319.16	30.038
319.53	30.019
319.89	30.381
320.26	30.500
320.62	30.357
320.99	31.010
321.35	31.313
321.72	32.238
322.08	32.675
322.45	31.940
322.81	31.202
323.18	31.214
323.54	32.468
323.91	31.415
324.27	31.262
324.64	31.221
325.00	31.380
325.37	32.939
325.73	33.842
326.10	33.274
326.46	32.616
326.83	33.305
327.19	33.732
327.56	34.321
327.92	33.946
328.29	35.581
328.65	33.702
329.01	35.289
329.38	34.690
329.74	35.457
330.11	35.156
330.47	36.180
330.84	36.673
331.20	35.883
331.56	35.229
331.93	36.019
332.29	34.605
332.66	35.664
333.02	34.918
333.38	36.314
333.75	36.007
334.11	36.833
334.48	36.912
334.84	34.743
335.20	36.364
335.57	34.361
335.93	34.732
336.29	35.073
336.66	35.708
337.02	35.385
337.38	38.148
337.75	35.027
338.11	35.631
338.47	36.372
338.84	36.572
339.20	35.780
339.56	38.595
339.93	34.636
340.29	35.870
340.65	35.918
341.02	34.817
341.38	35.854
341.74	35.351
342.11	34.323
342.47	36.300
342.83	35.103
343.20	35.758
343.56	35.383
343.92	35.439
344.28	35.204
344.65	35.598
345.01	34.596
345.37	34.134
345.73	34.941
346.10	35.294
346.46	33.390
346.82	35.173
347.19	36.675
347.55	35.304
347.91	34.466
348.27	35.579
348.63	36.288
349.00	34.790
349.36	33.826
349.72	34.563
350.08	33.225
350.45	35.964
350.81	34.444
351.17	33.874
351.53	34.234
351.89	33.746
352.26	34.728
352.62	35.766
352.98	34.117
353.34	36.072
353.70	34.534
354.07	34.758
354.43	33.016
354.79	34.352
355.15	34.318
355.51	35.012
355.87	34.939
356.24	34.365
356.60	33.681
356.96	34.755
357.32	35.568
357.68	34.646
358.04	33.967
358.40	34.363
358.77	33.959
359.13	33.307
359.49	33.490
359.85	33.333
360.21	34.131
360.57	33.930
360.93	35.000
361.29	34.618
361.66	33.437
362.02	34.328
362.38	34.221
362.74	33.557
363.10	33.531
363.46	34.483
363.82	34.694
364.18	33.113
364.54	33.878
364.90	33.853
365.26	34.044
365.62	33.747
365.98	33.893
366.35	33.524
366.71	33.623
367.07	34.377
367.43	34.978
367.79	34.190
368.15	35.417
368.51	33.648
368.87	34.761
369.23	35.040
369.59	34.757
369.95	33.897
370.31	33.832
370.67	33.116
371.03	34.682
371.39	34.329
371.75	34.118
372.11	33.428
372.47	34.311
372.83	35.159
373.19	34.032
373.55	35.033
373.91	35.567
374.27	33.540
374.63	34.036
374.99	35.169
375.35	33.636
375.71	33.516
376.07	34.225
376.42	33.150
376.78	34.659
377.14	34.803
377.50	34.305
377.86	33.644
378.22	34.324
378.58	33.709
378.94	34.192
379.30	33.588
379.66	34.518
380.02	34.705
380.38	34.608
380.74	34.454
381.09	34.474
381.45	35.710
381.81	35.197
382.17	35.414
382.53	35.157
382.89	34.815
383.25	34.021
383.61	36.183
383.97	35.147
384.32	34.685
384.68	33.767
385.04	34.849
385.40	34.861
385.76	33.968
386.12	35.492
386.48	34.991
386.83	35.343
387.19	35.869
387.55	34.508
387.91	34.643
388.27	34.335
388.62	34.419
388.98	35.012
389.34	35.044
389.70	35.132
390.06	35.171
390.42	36.122
390.77	35.751
391.13	36.950
391.49	35.660
391.85	34.691
392.20	34.322
392.56	35.227
392.92	35.315
393.28	34.911
393.64	35.791
393.99	35.064
394.35	34.739
394.71	34.630
395.07	34.829
395.42	36.341
395.78	36.323
396.14	35.816
396.50	36.905
396.85	36.491
397.21	36.252
397.57	36.578
397.92	36.418
398.28	35.370
398.64	37.276
399.00	35.758
399.35	35.984
399.71	37.616
400.07	36.665
400.42	37.914
400.78	36.490
401.14	36.890
401.49	36.537
401.85	36.661
402.21	38.084
402.57	36.644
402.92	38.146
403.28	37.726
403.63	37.624
403.99	37.325
404.35	37.939
404.70	37.590
405.06	37.041
405.42	38.241
405.77	37.029
406.13	36.851
406.49	37.020
406.84	38.571
407.20	38.002
407.55	38.800
407.91	39.000
408.27	38.545
408.62	38.411
408.98	38.909
409.34	39.176
409.69	38.839
410.05	38.228
410.40	38.349
410.76	39.427
411.11	38.902
411.47	39.681
411.83	38.790
412.18	38.776
412.54	39.539
412.89	39.398
413.25	39.374
413.60	39.901
413.96	39.830
414.31	39.915
414.67	39.924
415.03	39.735
415.38	39.755
415.74	39.743
416.09	41.084
416.45	39.224
416.80	39.855
417.16	39.678
417.51	39.283
417.87	39.563
418.22	40.883
418.58	40.930
418.93	40.295
419.29	40.484
419.64	40.491
420.00	40.305
420.35	40.348
420.71	40.347
421.06	40.453
421.42	40.643
421.77	40.639
422.12	39.978
422.48	39.234
422.83	41.176
423.19	40.497
423.54	40.627
423.90	40.348
424.25	38.917
424.61	39.524
424.96	40.933
425.31	40.033
425.67	39.157
426.02	40.057
426.38	41.697
426.73	40.550
427.09	40.973
427.44	40.196
427.79	39.908
428.15	39.702
428.50	40.550
428.85	40.763
429.21	39.923
429.56	39.347
429.92	39.607
430.27	40.070
430.62	40.092
430.98	40.737
431.33	40.670
431.68	39.791
432.04	39.563
432.39	39.634
432.74	41.412
433.10	40.351
433.45	41.749
433.80	40.299
434.16	40.331
434.51	40.842
434.86	41.505
435.22	41.023
435.57	41.581
435.92	39.906
436.28	41.637
436.63	41.004
436.98	40.813
437.34	40.250
437.69	40.548
438.04	40.866
438.39	41.433
438.75	41.429
439.10	41.453
439.45	40.614
439.81	40.846
440.16	40.655
440.51	39.719
440.86	40.649
441.22	41.268
441.57	40.817
441.92	40.890
442.27	40.689
442.63	41.601
442.98	41.521
443.33	41.196
443.68	41.404
444.03	41.435
444.39	40.652
444.74	40.963
445.09	40.970
445.44	41.279
445.79	40.772
446.15	39.492
446.50	40.765
446.85	40.596
447.20	42.733
447.55	41.374
447.91	40.982
448.26	40.846
448.61	41.210
448.96	41.251
449.31	40.945
449.66	41.137
450.02	41.560
450.37	41.156
450.72	40.609
451.07	40.829
451.42	41.641
451.77	41.280
452.12	40.531
452.47	40.299
452.83	40.851
453.18	40.770
453.53	41.868
453.88	41.347
454.23	41.064
454.58	41.429
454.93	41.767
455.28	41.397
455.63	41.444
455.98	42.560
456.34	41.018
456.69	41.703
457.04	41.486
457.39	40.444
457.74	40.743
458.09	41.633
458.44	40.650
458.79	40.347
459.14	41.253
459.49	41.097
459.84	40.609
460.19	41.721
460.54	40.914
460.89	39.934
461.24	42.077
461.59	41.371
461.94	42.047
462.29	42.018
462.64	40.715
462.99	40.794
463.34	41.667
463.69	41.964
464.04	42.783
464.39	40.464
464.74	42.246
465.09	41.375
465.44	40.886
465.79	40.604
466.14	42.146
466.49	40.656
466.84	42.148
467.19	41.883
467.54	42.750
467.89	40.996
468.24	40.954
468.59	42.491
468.94	40.318
469.29	42.159
469.64	43.106
469.99	42.152
470.34	42.140
470.68	42.529
471.03	41.565
471.38	43.363
471.73	42.039
472.08	42.105
472.43	41.457
472.78	42.660
473.13	42.362
473.48	42.135
473.83	42.012
474.17	41.630
474.52	41.998
474.87	42.323
475.22	42.542
475.57	41.429
475.92	43.016
476.27	41.939
476.61	42.140
476.96	40.957
477.31	42.386
477.66	41.685
478.01	40.146
478.36	42.253
478.70	40.550
479.05	41.906
479.40	41.812
479.75	41.739
480.10	41.103
480.45	41.361
480.79	41.233
481.14	42.123
481.49	41.576
481.84	41.061
482.19	42.481
482.53	41.147
482.88	42.345
483.23	41.402
483.58	41.674
483.92	41.846
484.27	40.218
484.62	40.647
484.97	40.560
485.31	40.137
485.66	39.798
486.01	39.517
486.36	39.575
486.70	39.330
487.05	39.513
487.40	39.658
487.75	39.102
488.09	39.763
488.44	39.059
488.79	40.181
489.13	40.527
489.48	40.905
489.83	40.268
490.17	42.218
490.52	41.010
490.87	40.886
491.22	41.382
491.56	40.820
491.91	41.601
492.26	40.606
492.60	40.507
492.95	41.347
493.30	41.542
493.64	41.251
493.99	41.504
494.34	41.721
494.68	42.353
495.03	41.494
495.37	41.135
495.72	42.203
496.07	42.181
496.41	40.929
496.76	40.677
497.11	41.558
497.45	40.894
497.80	42.370
498.14	41.401
498.49	41.707
498.84	41.323
499.18	41.381
499.53	41.833
499.87	40.494
500.22	41.121
500.56	43.204
500.91	41.683
501.26	41.536
501.60	41.623
501.95	41.155
502.29	42.643
502.64	42.086
502.98	41.748
503.33	40.448
503.67	41.717
504.02	41.674
504.36	41.554
504.71	41.426
505.06	40.916
505.40	41.711
505.75	41.225
506.09	41.399
506.44	41.539
506.78	41.987
507.13	41.696
507.47	41.364
507.82	42.148
508.16	41.945
508.51	42.212
508.85	42.006
509.19	41.378
509.54	41.531
509.88	41.731
510.23	42.211
510.57	42.157
510.92	42.310
511.26	41.778
511.61	41.183
511.95	42.067
512.30	41.569
512.64	42.558
512.98	42.551
513.33	43.094
513.67	42.689
514.02	43.019
514.36	42.709
514.70	42.889
515.05	41.550
515.39	42.457
515.74	42.399
516.08	42.482
516.42	42.564
516.77	42.531
517.11	42.342
517.46	43.059
517.80	43.670
518.14	42.733
518.49	43.582
518.83	41.989
519.17	43.476
519.52	42.388
519.86	42.727
520.20	42.312
520.55	43.866
520.89	43.613
521.23	43.185
521.58	42.797
521.92	43.417
522.26	41.489
522.61	43.178
522.95	42.910
523.29	42.970
523.64	43.476
523.98	44.732
524.32	42.280
524.66	43.536
525.01	43.934
525.35	42.999
525.69	42.734
526.04	43.240
526.38	43.136
526.72	43.190
527.06	43.691
527.41	41.770
527.75	42.508
528.09	43.288
528.43	43.467
528.78	42.594
529.12	44.242
529.46	43.417
529.80	42.884
530.15	44.486
530.49	42.769
530.83	42.911
531.17	44.256
531.51	44.877
531.86	43.871
532.20	44.720
532.54	43.370
532.88	42.811
533.22	42.786
533.57	42.778
533.91	41.902
534.25	43.378
534.59	43.624
534.93	42.356
535.27	42.849
535.62	42.735
535.96	43.628
536.30	42.975
536.64	42.498
536.98	43.663
537.32	42.857
537.66	43.400
538.01	42.857
538.35	42.922
538.69	43.204
539.03	42.105
539.37	40.447
539.71	41.802
540.05	43.007
540.39	43.389
540.73	41.527
541.07	43.997
541.42	42.792
541.76	43.097
542.10	42.755
542.44	42.649
542.78	43.017
543.12	42.610
543.46	41.967
543.80	42.615
544.14	41.463
544.48	43.238
544.82	41.565
545.16	42.941
545.50	42.416
545.84	42.272
546.18	42.761
546.52	42.670
546.86	42.474
547.20	42.953
547.54	42.685
547.88	43.048
548.22	41.719
548.56	41.635
548.90	41.485
549.24	42.492
549.58	42.292
549.92	43.132
550.26	42.330
550.60	41.770
550.94	42.254
551.28	41.624
551.62	42.559
551.96	41.404
552.30	42.594
552.64	43.002
552.98	42.576
553.32	42.819
553.66	42.945
554.00	43.034
554.34	40.580
554.68	42.704
555.02	41.396
555.36	41.336
555.69	42.490
556.03	40.646
556.37	40.723
556.71	41.473
557.05	41.947
557.39	41.218
557.73	40.438
558.07	41.987
558.41	41.968
558.75	41.293
559.08	42.506
559.42	42.177
559.76	42.500
560.10	42.113
560.44	40.182
560.78	39.854
561.12	41.491
561.45	40.939
561.79	40.804
562.13	41.650
562.47	42.623
562.81	40.865
563.15	41.070
563.48	41.180
563.82	40.900
564.16	40.746
564.50	41.406
564.84	41.277
565.17	40.154
565.51	40.256
565.85	41.307
566.19	39.825
566.52	41.292
566.86	39.904
567.20	41.097
567.54	40.354
567.88	40.521
568.21	40.476
568.55	39.181
568.89	39.154
569.23	38.458
569.56	39.271
569.90	38.491
570.24	38.536
570.57	38.218
570.91	37.201
571.25	37.153
571.59	37.673
571.92	37.500
572.26	37.551
572.60	38.408
572.93	37.181
573.27	37.297
573.61	36.851
573.95	37.442
574.28	36.633
574.62	36.540
574.96	36.583
575.29	36.445
575.63	36.433
575.97	36.241
576.30	36.245
576.64	36.138
576.98	36.607
577.31	36.206
577.65	36.482
577.98	36.188
578.32	35.346
578.66	36.143
578.99	35.951
579.33	35.802
579.67	35.612
580.00	35.435
580.34	35.975
580.67	35.618
581.01	35.417
581.35	36.061
581.68	36.173
582.02	35.648
582.35	35.660
582.69	35.892
583.02	35.510
583.36	35.393
583.70	35.664
584.03	35.711
584.37	35.257
584.70	35.475
585.04	35.250
585.37	35.205
585.71	35.644
586.04	35.540
586.38	35.737
586.72	36.012
587.05	35.099
587.39	35.488
587.72	35.790
588.06	35.592
588.39	35.199
588.73	35.964
589.06	36.179
589.40	36.061
589.73	35.973
590.07	35.907
590.40	35.221
590.73	36.300
591.07	36.508
591.40	36.019
591.74	36.104
592.07	36.038
592.41	36.751
592.74	35.468
593.08	36.076
593.41	36.349
593.75	35.041
594.08	35.568
594.41	35.984
594.75	35.896
595.08	35.397
595.42	35.517
595.75	35.791
596.09	35.411
596.42	35.521
596.75	35.500
597.09	36.147
597.42	35.034
597.75	35.921
598.09	35.783
598.42	35.137
598.76	34.941
599.09	35.272
599.42	35.226
599.76	35.871
600.09	34.608
600.42	34.514
600.76	34.250
601.09	34.718
601.42	34.893
601.76	34.915
602.09	34.466
602.42	35.430
602.76	34.502
603.09	35.208
603.42	35.338
603.76	34.985
604.09	34.471
604.42	35.263
604.76	34.838
605.09	35.387
605.42	34.074
605.75	35.182
606.09	34.567
606.42	35.472
606.75	34.840
607.09	34.533
607.42	34.574
607.75	33.418
608.08	34.607
608.42	35.096
608.75	34.040
609.08	33.811
609.41	34.507
609.75	34.588
610.08	34.354
610.41	34.358
610.74	34.626
611.07	35.128
611.41	35.329
611.74	34.641
612.07	34.834
612.40	36.097
612.73	35.737
613.07	34.860
613.40	35.545
613.73	34.609
614.06	33.871
614.39	33.613
614.72	34.684
615.06	33.771
615.39	33.758
615.72	33.896
616.05	34.078
616.38	35.575
616.71	34.739
617.05	34.688
617.38	34.636
617.71	34.595
618.04	34.675
618.37	34.299
618.70	34.350
619.03	35.000
619.36	34.487
619.69	34.296
620.03	35.371
620.36	35.695
620.69	35.890
621.02	35.546
621.35	34.534
621.68	35.125
622.01	34.675
622.34	35.703
622.67	34.829
623.00	34.996
623.33	34.596
623.66	35.525
623.99	35.935
624.32	34.522
624.65	34.887
624.99	34.419
625.32	34.323
625.65	35.462
625.98	34.896
626.31	34.992
626.64	34.857
626.97	35.661
627.30	34.746
627.63	34.537
627.96	34.819
628.29	35.608
628.62	36.688
628.95	35.943
629.28	35.766
629.61	37.122
629.94	36.000
630.26	35.367
630.59	36.130
630.92	35.057
631.25	33.959
