SpectraSuite Data File
++++++++++++++++++++++++++++++++++++
Date: Wed May 13 20:33:59 PDT 2015
User: schluterlab
Dark Spectrum Present: Yes
Reference Spectrum Present: Yes
Number of Sampled Component Spectra: 1
Spectrometers: USB2E3373
Integration Time (usec): 3000 (USB2E3373)
Spectra Averaged: 3 (USB2E3373)
Boxcar Smoothing: 0 (USB2E3373)
Correct for Electrical Dark: No (USB2E3373)
Strobe/Lamp Enabled: No (USB2E3373)
Correct for Detector Non-linearity: No (USB2E3373)
Correct for Stray Light: No (USB2E3373)
Number of Pixels in Processed Spectrum: 2048
>>>>>Begin Processed Spectral Data<<<<<
178.53	0.000
178.91	-1050.000
179.29	-1075.000
179.67	-161.111
180.04	-975.000
180.42	1400.000
180.80	800.000
181.18	-525.000
181.56	428.571
181.94	0.000
182.31	-542.857
182.69	1566.667
183.07	-400.000
183.45	-322.222
183.83	372.727
184.20	-320.000
184.58	1700.000
184.96	3800.000
185.34	-660.000
185.72	-462.500
186.09	-1300.000
186.47	2150.000
186.85	1850.000
187.23	2600.000
187.61	-1133.333
187.98	900.000
188.36	427.273
188.74	354.545
189.12	-460.000
189.49	540.000
189.87	-2600.000
190.25	-650.000
190.63	314.286
191.00	292.308
191.38	616.667
191.76	-825.000
192.14	1125.000
192.51	412.500
192.89	783.333
193.27	387.500
193.65	-850.000
194.02	400.000
194.40	740.000
194.78	430.000
195.15	425.000
195.53	540.000
195.91	-1250.000
196.29	281.250
196.66	215.789
197.04	-270.000
197.42	0.000
197.79	440.000
198.17	-3100.000
198.55	542.857
198.92	525.000
199.30	660.000
199.68	0.000
200.05	272.222
200.43	642.857
200.81	2900.000
201.18	1233.333
201.56	-933.333
201.94	388.889
202.31	333.333
202.69	308.333
203.07	340.000
203.44	0.000
203.82	700.000
204.19	628.571
204.57	335.714
204.95	475.000
205.32	1233.333
205.70	390.909
206.08	278.571
206.45	2450.000
206.83	250.000
207.20	500.000
207.58	620.000
207.96	238.889
208.33	550.000
208.71	-500.000
209.08	557.143
209.46	466.667
209.84	336.364
210.21	-1066.667
210.59	1100.000
210.96	-312.500
211.34	1650.000
211.71	470.000
212.09	633.333
212.46	0.000
212.84	1366.667
213.22	1000.000
213.59	-3700.000
213.97	600.000
214.34	542.857
214.72	500.000
215.09	820.000
215.47	-1300.000
215.84	-2050.000
216.22	1366.667
216.59	321.429
216.97	775.000
217.34	336.364
217.72	-500.000
218.09	0.000
218.47	-3300.000
218.84	477.778
219.22	628.571
219.59	1300.000
219.97	-485.714
220.34	740.000
220.72	-1033.333
221.09	300.000
221.47	900.000
221.84	-600.000
222.22	0.000
222.59	875.000
222.97	-1850.000
223.34	620.000
223.72	261.538
224.09	820.000
224.46	1200.000
224.84	-3200.000
225.21	-880.000
225.59	-2400.000
225.96	380.000
226.34	220.000
226.71	1600.000
227.08	412.500
227.46	340.000
227.83	-650.000
228.21	-1800.000
228.58	422.222
228.95	-1200.000
229.33	-1850.000
229.70	1233.333
230.08	600.000
230.45	-660.000
230.82	283.333
231.20	750.000
231.57	457.143
231.95	366.667
232.32	190.909
232.69	209.091
233.07	285.714
233.44	300.000
233.81	-1266.667
234.19	247.368
234.56	283.333
234.93	308.333
235.31	309.091
235.68	253.846
236.05	300.000
236.43	136.364
236.80	189.474
237.17	2600.000
237.55	166.667
237.92	157.143
238.29	223.810
238.67	109.677
239.04	151.724
239.41	100.000
239.79	63.043
240.16	121.429
240.53	90.909
240.91	62.745
241.28	72.000
241.65	74.000
242.02	78.261
242.40	61.290
242.77	53.333
243.14	49.462
243.51	69.663
243.89	49.412
244.26	43.333
244.63	51.613
245.00	46.809
245.38	48.515
245.75	42.056
246.12	36.697
246.49	51.825
246.87	42.400
247.24	45.385
247.61	35.714
247.98	37.255
248.36	30.405
248.73	28.662
249.10	36.306
249.47	31.073
249.84	34.225
250.22	28.342
250.59	33.136
250.96	32.323
251.33	24.171
251.70	31.683
252.08	23.810
252.45	30.493
252.82	26.957
253.19	25.532
253.56	27.843
253.94	25.726
254.31	29.688
254.68	29.231
255.05	25.092
255.42	25.203
255.79	27.206
256.16	25.993
256.54	19.435
256.91	24.555
257.28	20.144
257.65	24.092
258.02	24.845
258.39	25.868
258.76	25.084
259.14	25.298
259.51	21.884
259.88	21.118
260.25	21.752
260.62	19.364
260.99	21.739
261.36	21.622
261.73	20.057
262.10	18.605
262.47	21.127
262.85	19.499
263.22	17.949
263.59	21.937
263.96	21.703
264.33	21.410
264.70	22.105
265.07	20.972
265.44	21.465
265.81	19.465
266.18	21.106
266.55	20.244
266.92	20.147
267.29	20.833
267.66	17.661
268.03	20.455
268.40	18.925
268.77	18.854
269.14	19.820
269.51	22.573
269.88	18.881
270.25	21.219
270.62	19.101
270.99	23.656
271.36	18.670
271.73	17.523
272.10	16.739
272.47	18.065
272.84	19.264
273.21	18.449
273.58	17.031
273.95	17.191
274.32	17.355
274.69	20.557
275.06	19.291
275.43	19.362
275.80	19.238
276.17	18.737
276.54	19.751
276.91	19.565
277.28	16.992
277.65	19.729
278.02	19.255
278.39	19.922
278.76	17.636
279.13	18.113
279.50	18.622
279.87	17.928
280.23	18.563
280.60	15.861
280.97	16.451
281.34	18.584
281.71	18.364
282.08	18.618
282.45	16.000
282.82	16.696
283.19	16.043
283.56	16.667
283.92	15.567
284.29	17.460
284.66	15.608
285.03	16.094
285.40	16.901
285.77	15.488
286.14	16.062
286.51	18.667
286.87	16.923
287.24	17.590
287.61	16.372
287.98	17.532
288.35	16.165
288.72	15.888
289.08	16.275
289.45	14.992
289.82	15.772
290.19	15.385
290.56	14.701
290.93	13.897
291.29	15.184
291.66	17.109
292.03	16.424
292.40	15.859
292.77	13.314
293.13	15.373
293.50	14.869
293.87	14.370
294.24	13.481
294.60	13.683
294.97	13.663
295.34	16.643
295.71	13.352
296.08	13.248
296.44	14.443
296.81	13.078
297.18	14.905
297.55	11.873
297.91	13.061
298.28	14.056
298.65	13.708
299.02	13.702
299.38	13.679
299.75	11.051
300.12	13.538
300.48	13.500
300.85	12.700
301.22	11.465
301.59	11.490
301.95	13.980
302.32	12.067
302.69	11.111
303.05	12.364
303.42	12.099
303.79	13.024
304.15	11.655
304.52	12.514
304.89	10.569
305.25	13.225
305.62	13.137
305.99	12.633
306.35	11.521
306.72	13.004
307.09	11.099
307.45	11.824
307.82	11.272
308.19	11.700
308.55	12.082
308.92	11.493
309.29	11.616
309.65	11.771
310.02	11.839
310.38	11.183
310.75	10.982
311.12	12.180
311.48	12.644
311.85	12.159
312.22	11.967
312.58	10.707
312.95	12.355
313.31	10.777
313.68	10.707
314.05	13.905
314.41	11.558
314.78	12.689
315.14	12.115
315.51	11.020
315.87	13.366
316.24	11.817
316.61	11.014
316.97	11.155
317.34	11.155
317.70	12.428
318.07	12.705
318.43	13.112
318.80	13.402
319.16	12.618
319.53	12.195
319.89	13.048
320.26	13.200
320.62	12.302
320.99	12.525
321.35	13.636
321.72	13.142
322.08	12.340
322.45	14.925
322.81	13.953
323.18	13.680
323.54	12.987
323.91	14.434
324.27	13.576
324.64	12.861
325.00	12.894
325.37	13.831
325.73	15.978
326.10	14.828
326.46	14.158
326.83	16.480
327.19	14.176
327.56	14.373
327.92	14.523
328.29	14.729
328.65	16.483
329.01	15.072
329.38	14.524
329.74	14.589
330.11	16.023
330.47	15.519
330.84	16.820
331.20	15.301
331.56	15.963
331.93	15.648
332.29	16.327
332.66	16.814
333.02	15.356
333.38	16.983
333.75	16.132
334.11	15.925
334.48	16.327
334.84	15.165
335.20	16.091
335.57	15.050
335.93	15.268
336.29	15.018
336.66	16.231
337.02	15.656
337.38	16.944
337.75	14.617
338.11	14.861
338.47	14.917
338.84	14.665
339.20	14.220
339.56	15.420
339.93	14.636
340.29	15.399
340.65	15.152
341.02	15.445
341.38	15.658
341.74	14.386
342.11	16.070
342.47	15.771
342.83	12.928
343.20	15.584
343.56	13.732
343.92	15.175
344.28	14.796
344.65	15.735
345.01	14.226
345.37	13.979
345.73	14.721
346.10	14.578
346.46	15.508
346.82	14.415
347.19	13.952
347.55	13.875
347.91	15.534
348.27	14.955
348.63	14.381
349.00	14.401
349.36	14.696
349.72	14.675
350.08	13.938
350.45	13.751
350.81	13.485
351.17	13.695
351.53	14.824
351.89	14.521
352.26	14.759
352.62	13.633
352.98	13.209
353.34	14.215
353.70	12.848
354.07	14.194
354.43	14.683
354.79	13.998
355.15	14.126
355.51	14.388
355.87	13.878
356.24	14.169
356.60	13.873
356.96	13.918
357.32	13.982
357.68	13.150
358.04	14.410
358.40	13.777
358.77	13.772
359.13	12.944
359.49	12.627
359.85	12.698
360.21	12.281
360.57	14.086
360.93	14.077
361.29	13.379
361.66	12.384
362.02	13.358
362.38	13.232
362.74	14.732
363.10	12.065
363.46	12.766
363.82	13.076
364.18	12.775
364.54	13.744
364.90	13.952
365.26	12.426
365.62	13.367
365.98	12.491
366.35	11.963
366.71	12.726
367.07	12.746
367.43	13.135
367.79	13.776
368.15	14.152
368.51	12.573
368.87	12.562
369.23	13.168
369.59	13.251
369.95	12.647
370.31	12.821
370.67	12.536
371.03	13.483
371.39	12.391
371.75	12.941
372.11	13.158
372.47	12.683
372.83	13.833
373.19	13.584
373.55	12.934
373.91	13.623
374.27	12.509
374.63	12.800
374.99	12.429
375.35	12.491
375.71	12.474
376.07	13.169
376.42	11.829
376.78	13.188
377.14	12.415
377.50	12.517
377.86	12.367
378.22	12.579
378.58	11.905
378.94	11.314
379.30	12.150
379.66	12.881
380.02	12.346
380.38	11.840
380.74	12.725
381.09	12.103
381.45	12.600
381.81	12.715
382.17	12.420
382.53	11.572
382.89	12.099
383.25	12.195
383.61	12.515
383.97	12.695
384.32	12.040
384.68	12.144
385.04	10.879
385.40	11.641
385.76	12.654
386.12	12.306
386.48	11.957
386.83	12.508
387.19	12.307
387.55	12.183
387.91	12.092
388.27	11.956
388.62	12.784
388.98	11.671
389.34	13.642
389.70	12.446
390.06	12.167
390.42	12.581
390.77	13.041
391.13	12.253
391.49	12.881
391.85	12.349
392.20	11.924
392.56	11.679
392.92	12.419
393.28	10.651
393.64	11.930
393.99	12.034
394.35	12.965
394.71	11.669
395.07	11.464
395.42	12.485
395.78	12.087
396.14	12.291
396.50	12.907
396.85	11.888
397.21	11.899
397.57	12.213
397.92	12.500
398.28	11.043
398.64	12.545
399.00	12.199
399.35	11.788
399.71	11.458
400.07	12.951
400.42	12.025
400.78	12.786
401.14	11.951
401.49	12.358
401.85	12.099
402.21	11.557
402.57	12.030
402.92	12.232
403.28	11.743
403.63	11.943
403.99	11.847
404.35	12.364
404.70	11.631
405.06	12.289
405.42	12.102
405.77	12.343
406.13	12.133
406.49	11.946
406.84	12.286
407.20	11.939
407.55	13.019
407.91	12.667
408.27	12.572
408.62	12.101
408.98	11.887
409.34	12.423
409.69	12.194
410.05	11.648
410.40	12.171
410.76	11.888
411.11	12.364
411.47	11.885
411.83	12.645
412.18	11.688
412.54	11.893
412.89	12.169
413.25	12.397
413.60	12.662
413.96	12.447
414.31	13.001
414.67	12.548
415.03	12.119
415.38	13.338
415.74	12.347
416.09	12.933
416.45	11.513
416.80	12.227
417.16	13.338
417.51	12.011
417.87	12.588
418.22	12.997
418.58	13.557
418.93	12.899
419.29	12.540
419.64	12.469
420.00	12.500
420.35	12.522
420.71	12.433
421.06	12.112
421.42	12.281
421.77	12.612
422.12	12.016
422.48	11.387
422.83	12.464
423.19	11.713
423.54	12.188
423.90	12.638
424.25	12.451
424.61	12.024
424.96	12.303
425.31	11.905
425.67	12.022
426.02	11.657
426.38	12.027
426.73	12.522
427.09	11.733
427.44	11.501
427.79	11.731
428.15	12.857
428.50	11.703
428.85	12.694
429.21	10.878
429.56	12.131
429.92	11.575
430.27	11.172
430.62	11.214
430.98	11.676
431.33	11.701
431.68	11.885
432.04	12.460
432.39	11.536
432.74	11.849
433.10	12.054
433.45	12.070
433.80	11.475
434.16	11.966
434.51	11.737
434.86	11.745
435.22	11.951
435.57	11.976
435.92	11.176
436.28	11.981
436.63	12.693
436.98	11.677
437.34	11.628
437.69	12.310
438.04	12.479
438.39	12.060
438.75	12.551
439.10	11.397
439.45	11.747
439.81	12.508
440.16	11.688
440.51	11.482
440.86	12.565
441.22	12.180
441.57	11.783
441.92	11.208
442.27	11.787
442.63	11.743
442.98	12.394
443.33	11.413
443.68	11.719
444.03	11.908
444.39	10.857
444.74	11.688
445.09	11.968
445.44	11.263
445.79	11.925
446.15	11.805
446.50	11.416
446.85	11.202
447.20	11.474
447.55	11.781
447.91	11.197
448.26	12.076
448.61	11.419
448.96	13.012
449.31	11.586
449.66	12.268
450.02	11.253
450.37	11.961
450.72	11.337
451.07	10.969
451.42	11.003
451.77	12.625
452.12	12.182
452.47	11.878
452.83	11.422
453.18	11.369
453.53	11.936
453.88	11.045
454.23	11.715
454.58	12.538
454.93	12.460
455.28	11.658
455.63	11.226
455.98	12.024
456.34	11.872
456.69	11.835
457.04	11.950
457.39	11.806
457.74	11.492
458.09	12.018
458.44	12.429
458.79	11.226
459.14	11.512
459.49	11.734
459.84	11.579
460.19	10.902
460.54	11.863
460.89	11.903
461.24	11.961
461.59	12.260
461.94	12.330
462.29	11.929
462.64	11.678
462.99	11.386
463.34	12.333
463.69	11.382
464.04	12.116
464.39	11.884
464.74	12.121
465.09	12.063
465.44	10.970
465.79	11.074
466.14	10.892
466.49	10.957
466.84	12.609
467.19	11.527
467.54	11.812
467.89	11.765
468.24	11.402
468.59	12.882
468.94	11.790
469.29	11.440
469.64	12.784
469.99	11.908
470.34	11.162
470.68	12.213
471.03	10.884
471.38	11.744
471.73	12.592
472.08	12.763
472.43	11.872
472.78	11.850
473.13	11.810
473.48	12.235
473.83	12.439
474.17	11.263
474.52	11.973
474.87	11.675
475.22	11.724
475.57	11.499
475.92	11.683
476.27	11.894
476.61	11.638
476.96	11.545
477.31	11.251
477.66	11.379
478.01	11.762
478.36	12.057
478.70	11.059
479.05	11.981
479.40	12.078
479.75	12.252
480.10	10.984
480.45	11.423
480.79	11.801
481.14	11.644
481.49	11.628
481.84	11.477
482.19	11.177
482.53	12.064
482.88	11.726
483.23	10.935
483.58	12.011
483.92	10.825
484.27	10.632
484.62	10.560
484.97	10.761
485.31	11.096
485.66	9.907
486.01	9.562
486.36	9.620
486.70	9.828
487.05	10.104
487.40	10.393
487.75	10.433
488.09	10.555
488.44	10.474
488.79	10.778
489.13	11.612
489.48	10.726
489.83	10.574
490.17	11.530
490.52	11.205
490.87	11.171
491.22	11.505
491.56	10.569
491.91	11.215
492.26	11.116
492.60	11.613
492.95	10.711
493.30	11.402
493.64	11.479
493.99	10.631
494.34	11.101
494.68	11.996
495.03	11.184
495.37	10.982
495.72	11.306
496.07	11.044
496.41	10.664
496.76	11.478
497.11	11.571
497.45	11.644
497.80	11.276
498.14	10.725
498.49	11.659
498.84	11.985
499.18	11.286
499.53	11.016
499.87	11.743
500.22	11.305
500.56	11.942
500.91	11.250
501.26	11.854
501.60	11.865
501.95	11.641
502.29	12.699
502.64	11.266
502.98	10.986
503.33	11.197
503.67	11.647
504.02	11.646
504.36	11.699
504.71	11.480
505.06	11.470
505.40	11.813
505.75	11.524
506.09	11.759
506.44	12.087
506.78	11.739
507.13	11.762
507.47	11.667
507.82	11.753
508.16	12.107
508.51	12.075
508.85	11.569
509.19	12.194
509.54	11.276
509.88	11.334
510.23	11.620
510.57	12.797
510.92	11.704
511.26	11.922
511.61	11.359
511.95	11.900
512.30	11.824
512.64	12.305
512.98	12.379
513.33	12.580
513.67	11.793
514.02	11.634
514.36	13.053
514.70	12.341
515.05	10.987
515.39	11.946
515.74	12.950
516.08	12.409
516.42	11.931
516.77	12.709
517.11	13.097
517.46	13.036
517.80	12.485
518.14	12.449
518.49	12.135
518.83	13.068
519.17	12.413
519.52	12.450
519.86	12.550
520.20	13.121
520.55	13.585
520.89	13.260
521.23	12.666
521.58	12.905
521.92	13.227
522.26	12.203
522.61	12.835
522.95	12.032
523.29	12.295
523.64	12.622
523.98	12.816
524.32	13.269
524.66	13.049
525.01	12.990
525.35	12.144
525.69	13.177
526.04	12.399
526.38	12.691
526.72	12.883
527.06	12.994
527.41	12.252
527.75	12.605
528.09	12.653
528.43	14.149
528.78	14.075
529.12	13.273
529.46	13.350
529.80	12.624
530.15	13.458
530.49	12.369
530.83	13.671
531.17	13.577
531.51	13.165
531.86	12.839
532.20	14.276
532.54	13.645
532.88	12.901
533.22	13.242
533.57	12.346
533.91	12.101
534.25	13.001
534.59	12.813
534.93	12.612
535.27	13.639
535.62	12.393
535.96	13.245
536.30	12.206
536.64	12.878
536.98	13.072
537.32	12.377
537.66	12.200
538.01	13.101
538.35	12.864
538.69	13.210
539.03	12.671
539.37	12.716
539.71	12.443
540.05	13.791
540.39	13.223
540.73	12.872
541.07	14.147
541.42	13.699
541.76	13.806
542.10	13.583
542.44	13.113
542.78	14.032
543.12	12.604
543.46	13.967
543.80	13.598
544.14	13.350
544.48	13.905
544.82	13.406
545.16	12.687
545.50	12.725
545.84	12.433
546.18	13.401
546.52	13.558
546.86	12.852
547.20	13.891
547.54	13.293
547.88	13.138
548.22	13.574
548.56	13.585
548.90	11.972
549.24	12.525
549.58	13.779
549.92	13.874
550.26	13.352
550.60	12.656
550.94	13.662
551.28	11.997
551.62	13.659
551.96	12.140
552.30	13.447
552.64	13.928
552.98	14.102
553.32	13.284
553.66	14.519
554.00	13.040
554.34	13.320
554.68	13.090
555.02	12.976
555.36	13.083
555.69	12.788
556.03	13.257
556.37	13.165
556.71	12.347
557.05	13.165
557.39	13.856
557.73	14.044
558.07	14.286
558.41	13.386
558.75	13.666
559.08	13.423
559.42	13.832
559.76	13.015
560.10	13.490
560.44	13.277
560.78	12.575
561.12	13.061
561.45	13.690
561.79	13.052
562.13	13.615
562.47	13.661
562.81	13.250
563.15	12.709
563.48	12.931
563.82	12.981
564.16	12.426
564.50	11.654
564.84	13.021
565.17	12.999
565.51	12.780
565.85	12.817
566.19	12.586
566.52	13.616
566.86	12.477
567.20	12.500
567.54	11.929
567.88	11.896
568.21	12.328
568.55	12.892
568.89	11.722
569.23	11.408
569.56	12.065
569.90	11.094
570.24	11.410
570.57	11.255
570.91	10.892
571.25	11.087
571.59	11.370
571.92	10.974
572.26	10.659
572.60	11.351
572.93	10.735
573.27	10.914
573.61	11.111
573.95	10.672
574.28	10.678
574.62	10.423
574.96	10.514
575.29	10.621
575.63	10.442
575.97	10.909
576.30	10.993
576.64	10.564
576.98	10.331
577.31	10.490
577.65	10.445
577.98	10.535
578.32	10.584
578.66	10.629
578.99	10.568
579.33	10.579
579.67	10.192
580.00	10.117
580.34	10.726
580.67	10.659
581.01	10.839
581.35	10.186
581.68	10.545
582.02	10.285
582.35	10.253
582.69	10.612
583.02	10.483
583.36	10.860
583.70	10.864
584.03	10.815
584.37	10.804
584.70	10.423
585.04	10.494
585.37	10.438
585.71	10.761
586.04	10.848
586.38	10.867
586.72	10.991
587.05	10.731
587.39	10.422
587.72	10.616
588.06	10.779
588.39	10.837
588.73	10.824
589.06	10.938
589.40	11.010
589.73	11.123
590.07	11.352
590.40	11.107
590.73	11.358
591.07	11.966
591.40	12.020
591.74	11.861
592.07	11.431
592.41	11.740
592.74	10.599
593.08	11.193
593.41	10.693
593.75	10.400
594.08	11.096
594.41	11.524
594.75	10.832
595.08	11.203
595.42	11.243
595.75	11.182
596.09	11.115
596.42	11.984
596.75	10.848
597.09	11.429
597.42	11.298
597.75	11.341
598.09	11.391
598.42	11.082
598.76	10.580
599.09	11.022
599.42	11.135
599.76	10.944
600.09	10.820
600.42	10.884
600.76	10.393
601.09	10.783
601.42	11.073
601.76	10.778
602.09	10.949
602.42	10.908
602.76	11.487
603.09	11.172
603.42	11.675
603.76	10.861
604.09	10.741
604.42	11.088
604.76	12.020
605.09	11.446
605.42	11.501
605.75	11.175
606.09	10.858
606.42	10.544
606.75	11.074
607.09	11.679
607.42	11.040
607.75	10.844
608.08	11.073
608.42	11.788
608.75	11.136
609.08	11.656
609.41	11.471
609.75	11.386
610.08	11.216
610.41	10.894
610.74	10.785
611.07	11.364
611.41	10.746
611.74	11.714
612.07	11.232
612.40	11.385
612.73	11.368
613.07	12.015
613.40	12.217
613.73	10.383
614.06	11.290
614.39	11.956
614.72	11.947
615.06	12.185
615.39	11.040
615.72	11.145
616.05	11.377
616.38	11.729
616.71	11.876
617.05	12.250
617.38	11.245
617.71	11.291
618.04	12.139
618.37	11.886
618.70	11.388
619.03	13.750
619.36	12.016
619.69	11.901
620.03	12.225
620.36	13.235
620.69	12.055
621.02	13.274
621.35	12.060
621.68	12.617
622.01	12.152
622.34	12.254
622.67	12.091
623.00	12.619
623.33	12.294
623.66	12.509
623.99	12.077
624.32	12.482
624.65	12.147
624.99	10.623
625.32	11.948
625.65	12.322
625.98	12.452
626.31	12.908
626.64	12.490
626.97	13.217
627.30	12.801
627.63	13.700
627.96	13.961
628.29	13.386
628.62	13.907
628.95	14.811
629.28	14.051
629.61	12.924
629.94	13.714
630.26	13.441
630.59	12.965
630.92	13.123
631.25	11.945
631.58	12.713
