SpectraSuite Data File
++++++++++++++++++++++++++++++++++++
Date: Wed May 13 20:32:24 PDT 2015
User: schluterlab
Dark Spectrum Present: Yes
Reference Spectrum Present: Yes
Number of Sampled Component Spectra: 1
Spectrometers: USB2E3373
Integration Time (usec): 3000 (USB2E3373)
Spectra Averaged: 3 (USB2E3373)
Boxcar Smoothing: 0 (USB2E3373)
Correct for Electrical Dark: No (USB2E3373)
Strobe/Lamp Enabled: No (USB2E3373)
Correct for Detector Non-linearity: No (USB2E3373)
Correct for Stray Light: No (USB2E3373)
Number of Pixels in Processed Spectrum: 2048
>>>>>Begin Processed Spectral Data<<<<<
178.53	0.000
178.91	-750.000
179.29	-1050.000
179.67	-177.778
180.04	-975.000
180.42	2050.000
180.80	920.000
181.18	-575.000
181.56	414.286
181.94	0.000
182.31	-514.286
182.69	1100.000
183.07	-350.000
183.45	-400.000
183.83	381.818
184.20	-220.000
184.58	1550.000
184.96	4100.000
185.34	-780.000
185.72	-487.500
186.09	-1950.000
186.47	2150.000
186.85	1900.000
187.23	3900.000
187.61	-1233.333
187.98	1100.000
188.36	518.182
188.74	490.909
189.12	-720.000
189.49	410.000
189.87	-3300.000
190.25	-1100.000
190.63	371.429
191.00	384.615
191.38	616.667
191.76	-975.000
192.14	1225.000
192.51	500.000
192.89	700.000
193.27	412.500
193.65	-750.000
194.02	440.000
194.40	580.000
194.78	300.000
195.15	475.000
195.53	550.000
195.91	-1550.000
196.29	281.250
196.66	252.632
197.04	-220.000
197.42	0.000
197.79	370.000
198.17	-3300.000
198.55	542.857
198.92	612.500
199.30	800.000
199.68	0.000
200.05	266.667
200.43	642.857
200.81	2900.000
201.18	1066.667
201.56	-1333.333
201.94	355.556
202.31	411.111
202.69	341.667
203.07	400.000
203.44	0.000
203.82	975.000
204.19	500.000
204.57	357.143
204.95	462.500
205.32	1000.000
205.70	409.091
206.08	250.000
206.45	1750.000
206.83	293.750
207.20	783.333
207.58	400.000
207.96	238.889
208.33	500.000
208.71	-566.667
209.08	557.143
209.46	400.000
209.84	300.000
210.21	-933.333
210.59	1050.000
210.96	-250.000
211.34	2200.000
211.71	380.000
212.09	600.000
212.46	0.000
212.84	966.667
213.22	1075.000
213.59	-3000.000
213.97	716.667
214.34	614.286
214.72	445.455
215.09	840.000
215.47	-1650.000
215.84	-1550.000
216.22	1033.333
216.59	307.143
216.97	1175.000
217.34	363.636
217.72	-283.333
218.09	0.000
218.47	-3800.000
218.84	555.556
219.22	542.857
219.59	900.000
219.97	-385.714
220.34	640.000
220.72	-1266.667
221.09	292.857
221.47	1050.000
221.84	-633.333
222.22	0.000
222.59	875.000
222.97	-1700.000
223.34	1060.000
223.72	346.154
224.09	600.000
224.46	1450.000
224.84	-3500.000
225.21	-960.000
225.59	-4000.000
225.96	470.000
226.34	215.000
226.71	2150.000
227.08	525.000
227.46	400.000
227.83	-750.000
228.21	-1400.000
228.58	511.111
228.95	-1200.000
229.33	-1750.000
229.70	1066.667
230.08	528.571
230.45	-640.000
230.82	341.667
231.20	833.333
231.57	600.000
231.95	450.000
232.32	177.273
232.69	263.636
233.07	471.429
233.44	200.000
233.81	-1033.333
234.19	242.105
234.56	358.333
234.93	233.333
235.31	354.545
235.68	184.615
236.05	192.857
236.43	124.242
236.80	189.474
237.17	2800.000
237.55	104.762
237.92	132.143
238.29	185.714
238.67	103.226
239.04	131.034
239.41	88.889
239.79	78.261
240.16	73.810
240.53	88.636
240.91	72.549
241.28	82.000
241.65	62.000
242.02	69.565
242.40	45.161
242.77	50.000
243.14	51.613
243.51	47.191
243.89	47.059
244.26	37.778
244.63	33.333
245.00	35.106
245.38	34.653
245.75	34.579
246.12	23.853
246.49	40.876
246.87	31.200
247.24	34.615
247.61	31.429
247.98	27.451
248.36	23.649
248.73	21.656
249.10	21.019
249.47	25.424
249.84	26.203
250.22	19.786
250.59	17.751
250.96	14.141
251.33	19.905
251.70	17.327
252.08	15.714
252.45	15.247
252.82	16.087
253.19	20.851
253.56	16.471
253.94	23.651
254.31	17.578
254.68	19.231
255.05	15.867
255.42	15.854
255.79	15.441
256.16	17.329
256.54	12.721
256.91	17.794
257.28	10.432
257.65	12.211
258.02	13.975
258.39	10.726
258.76	9.699
259.14	14.881
259.51	11.854
259.88	8.385
260.25	11.480
260.62	13.295
260.99	13.043
261.36	12.613
261.73	12.607
262.10	12.791
262.47	13.521
262.85	8.078
263.22	9.117
263.59	15.100
263.96	9.615
264.33	8.616
264.70	9.737
265.07	14.322
265.44	11.869
265.81	10.706
266.18	10.050
266.55	10.488
266.92	9.582
267.29	11.574
267.66	10.092
268.03	12.500
268.40	8.879
268.77	9.547
269.14	9.459
269.51	10.384
269.88	10.956
270.25	9.932
270.62	10.337
270.99	13.763
271.36	10.944
271.73	7.944
272.10	9.348
272.47	9.462
272.84	10.173
273.21	9.434
273.58	7.642
273.95	6.709
274.32	8.058
274.69	9.422
275.06	7.677
275.43	8.936
275.80	7.415
276.17	8.147
276.54	10.603
276.91	9.684
277.28	7.617
277.65	9.478
278.02	6.625
278.39	10.742
278.76	9.091
279.13	8.302
279.50	7.263
279.87	7.570
280.23	8.383
280.60	7.544
280.97	8.872
281.34	8.319
281.71	9.818
282.08	7.678
282.45	7.273
282.82	7.460
283.19	5.882
283.56	8.246
283.92	7.614
284.29	8.818
284.66	7.078
285.03	6.872
285.40	7.218
285.77	7.576
286.14	6.736
286.51	8.833
286.87	8.034
287.24	7.003
287.61	7.544
287.98	6.818
288.35	5.388
288.72	7.944
289.08	8.138
289.45	8.072
289.82	7.805
290.19	5.965
290.56	5.819
290.93	5.740
291.29	6.135
291.66	7.227
292.03	10.465
292.40	7.195
292.77	5.621
293.13	8.209
293.50	5.977
293.87	7.259
294.24	6.074
294.60	4.949
294.97	5.087
295.34	8.181
295.71	6.108
296.08	5.698
296.44	7.153
296.81	5.945
297.18	7.453
297.55	4.354
297.91	5.805
298.28	7.497
298.65	8.094
299.02	7.378
299.38	5.046
299.75	4.852
300.12	6.769
300.48	6.500
300.85	5.919
301.22	4.968
301.59	5.808
301.95	6.171
302.32	5.392
302.69	6.213
303.05	5.212
303.42	5.062
303.79	6.795
304.15	4.429
304.52	5.678
304.89	6.039
305.25	4.988
305.62	5.436
305.99	6.848
306.35	4.474
306.72	6.390
307.09	6.215
307.45	7.320
307.82	5.357
308.19	6.181
308.55	6.580
308.92	6.552
309.29	4.963
309.65	4.242
310.02	5.180
310.38	6.129
310.75	5.702
311.12	5.732
311.48	5.747
311.85	6.184
312.22	5.515
312.58	5.405
312.95	6.125
313.31	5.728
313.68	6.029
314.05	7.199
314.41	6.734
314.78	6.244
315.14	6.256
315.51	5.973
315.87	6.733
316.24	5.859
316.61	5.458
316.97	6.067
317.34	5.088
317.70	7.075
318.07	6.930
318.43	6.262
318.80	7.310
319.16	6.780
319.53	6.379
319.89	7.048
320.26	7.700
320.62	8.631
320.99	7.778
321.35	8.081
321.72	8.522
322.08	8.095
322.45	9.652
322.81	8.527
323.18	9.538
323.54	9.369
323.91	9.151
324.27	8.317
324.64	9.599
325.00	8.115
325.37	9.008
325.73	10.413
326.10	8.826
326.46	10.036
326.83	9.922
327.19	9.650
327.56	9.930
327.92	9.711
328.29	10.382
328.65	10.497
329.01	11.191
329.38	10.731
329.74	10.434
330.11	10.650
330.47	11.478
330.84	11.949
331.20	11.840
331.56	11.284
331.93	10.926
332.29	10.914
332.66	12.743
333.02	12.340
333.38	12.014
333.75	11.765
334.11	13.256
334.48	12.156
334.84	11.949
335.20	12.364
335.57	11.151
335.93	12.500
336.29	11.813
336.66	13.165
337.02	12.670
337.38	13.056
337.75	12.032
338.11	12.623
338.47	11.602
338.84	13.474
339.20	11.101
339.56	13.595
339.93	12.364
340.29	12.591
340.65	12.656
341.02	13.438
341.38	12.456
341.74	12.281
342.11	13.712
342.47	12.599
342.83	12.586
343.20	14.805
343.56	12.384
343.92	12.368
344.28	13.010
344.65	13.242
345.01	12.626
345.37	13.122
345.73	12.860
346.10	13.043
346.46	13.051
346.82	13.262
347.19	13.200
347.55	12.562
347.91	13.107
348.27	14.380
348.63	13.629
349.00	13.673
349.36	12.972
349.72	13.713
350.08	12.885
350.45	13.181
350.81	13.485
351.17	13.209
351.53	12.285
351.89	12.954
352.26	14.838
352.62	13.633
352.98	13.452
353.34	13.804
353.70	12.275
354.07	13.306
354.43	12.619
354.79	13.194
355.15	12.370
355.51	13.749
355.87	14.041
356.24	13.274
356.60	13.633
356.96	14.722
357.32	13.491
357.68	14.331
358.04	13.460
358.40	14.331
358.77	14.006
359.13	13.812
359.49	14.510
359.85	12.857
360.21	12.919
360.57	14.708
360.93	14.000
361.29	14.512
361.66	13.854
362.02	14.179
362.38	14.449
362.74	13.318
363.10	13.768
363.46	13.059
363.82	14.135
364.18	14.905
364.54	14.339
364.90	14.943
365.26	13.676
365.62	14.609
365.98	14.244
366.35	13.825
366.71	14.895
367.07	15.149
367.43	15.167
367.79	14.989
368.15	15.445
368.51	14.026
368.87	14.989
369.23	14.704
369.59	14.989
369.95	15.515
370.31	14.245
370.67	15.435
371.03	15.506
371.39	14.942
371.75	15.735
372.11	15.647
372.47	16.349
372.83	16.499
373.19	15.246
373.55	14.930
373.91	15.685
374.27	15.601
374.63	15.782
374.99	15.819
375.35	16.120
375.71	15.284
376.07	16.324
376.42	16.162
376.78	16.435
377.14	15.672
377.50	15.298
377.86	16.888
378.22	17.004
378.58	15.476
378.94	17.033
379.30	16.221
379.66	16.371
380.02	16.769
380.38	16.151
380.74	17.107
381.09	16.870
381.45	17.271
381.81	17.506
382.17	17.070
382.53	16.478
382.89	17.222
383.25	16.760
383.61	16.976
383.97	17.448
384.32	17.342
384.68	16.543
385.04	17.947
385.40	16.594
385.76	17.690
386.12	18.070
386.48	18.125
386.83	17.447
387.19	17.811
387.55	17.934
387.91	17.836
388.27	18.087
388.62	17.517
388.98	17.690
389.34	18.773
389.70	18.210
390.06	18.378
390.42	17.899
390.77	18.130
391.13	19.400
391.49	18.211
391.85	18.269
392.20	17.918
392.56	18.561
392.92	17.952
393.28	17.751
393.64	18.705
393.99	19.670
394.35	18.859
394.71	18.695
395.07	18.318
395.42	18.480
395.78	19.275
396.14	19.056
396.50	19.361
396.85	19.072
397.21	18.866
397.57	19.281
397.92	18.870
398.28	18.498
398.64	19.654
399.00	19.530
399.35	18.951
399.71	19.213
400.07	19.515
400.42	20.184
400.78	20.024
401.14	19.573
401.49	19.881
401.85	19.177
402.21	18.263
402.57	20.296
402.92	19.357
403.28	19.675
403.63	19.802
403.99	19.236
404.35	20.485
404.70	19.305
405.06	19.453
405.42	19.963
405.77	19.543
406.13	19.808
406.49	19.929
406.84	21.087
407.20	19.858
407.55	20.357
407.91	20.600
408.27	19.847
408.62	19.506
408.98	20.711
409.34	20.910
409.69	20.452
410.05	20.012
410.40	20.673
410.76	19.773
411.11	21.713
411.47	19.681
411.83	20.770
412.18	20.099
412.54	20.174
412.89	21.024
413.25	20.956
413.60	21.186
413.96	20.340
414.31	21.203
414.67	20.976
415.03	21.192
415.38	20.619
415.74	21.093
416.09	21.946
416.45	20.549
416.80	20.555
417.16	21.850
417.51	21.102
417.87	20.103
418.22	21.073
418.58	21.175
418.93	21.560
419.29	21.770
419.64	22.418
420.00	21.707
420.35	21.333
420.71	21.877
421.06	20.704
421.42	21.345
421.77	20.796
422.12	20.606
422.48	20.399
422.83	21.374
423.19	20.608
423.54	21.242
423.90	21.159
424.25	21.106
424.61	21.310
424.96	21.224
425.31	20.986
425.67	20.730
426.02	21.600
426.38	23.138
426.73	21.358
427.09	21.520
427.44	21.334
427.79	20.932
428.15	21.905
428.50	21.533
428.85	22.229
429.21	21.535
429.56	21.410
429.92	20.886
430.27	21.202
430.62	20.584
430.98	21.899
431.33	20.773
431.68	21.571
432.04	20.980
432.39	20.845
432.74	22.621
433.10	21.788
433.45	22.274
433.80	21.120
434.16	21.902
434.51	21.947
434.86	22.292
435.22	22.179
435.57	22.249
435.92	22.118
436.28	21.530
436.63	23.179
436.98	21.923
437.34	22.242
437.69	22.345
438.04	22.147
438.39	23.104
438.75	23.242
439.10	23.017
439.45	22.550
439.81	22.236
440.16	22.473
440.51	22.671
440.86	22.467
441.22	22.136
441.57	22.134
441.92	21.699
442.27	22.551
442.63	22.012
442.98	23.268
443.33	22.446
443.68	22.870
444.03	22.304
444.39	22.152
444.74	23.214
445.09	23.019
445.44	22.690
445.79	22.167
446.15	22.075
446.50	23.048
446.85	23.022
447.20	22.642
447.55	23.562
447.91	22.835
448.26	23.317
448.61	22.612
448.96	22.868
449.31	22.666
449.66	23.241
450.02	22.006
450.37	22.166
450.72	21.715
451.07	22.486
451.42	22.249
451.77	22.490
452.12	21.998
452.47	22.699
452.83	22.786
453.18	22.433
453.53	23.253
453.88	21.441
454.23	22.654
454.58	23.380
454.93	23.077
455.28	21.633
455.63	22.937
455.98	23.036
456.34	22.676
456.69	23.043
457.04	22.848
457.39	22.151
457.74	22.867
458.09	22.427
458.44	22.463
458.79	22.017
459.14	23.081
459.49	22.709
459.84	22.493
460.19	22.157
460.54	22.569
460.89	23.149
461.24	23.862
461.59	23.649
461.94	22.873
462.29	23.205
462.64	22.399
462.99	22.121
463.34	23.333
463.69	23.014
464.04	23.246
464.39	22.899
464.74	22.044
465.09	22.014
465.44	22.715
465.79	22.987
466.14	22.496
466.49	22.414
466.84	23.001
467.19	22.873
467.54	23.500
467.89	22.509
468.24	23.211
468.59	24.420
468.94	23.580
469.29	24.036
469.64	23.896
469.99	23.748
470.34	22.985
470.68	23.922
471.03	24.218
471.38	23.975
471.73	24.250
472.08	24.276
472.43	23.681
472.78	23.371
473.13	24.647
473.48	23.533
473.83	23.963
474.17	23.709
474.52	24.504
474.87	23.351
475.22	24.260
475.57	23.536
475.92	24.057
476.27	23.844
476.61	23.552
476.96	24.189
477.31	23.286
477.66	23.578
478.01	23.628
478.36	24.114
478.70	22.897
479.05	23.855
479.40	24.258
479.75	24.098
480.10	23.956
480.45	24.036
480.79	23.602
481.14	23.973
481.49	24.442
481.84	23.137
482.19	23.944
482.53	23.624
482.88	24.058
483.23	23.972
483.58	23.521
483.92	24.180
484.27	22.876
484.62	22.716
484.97	22.901
485.31	23.356
485.66	22.591
486.01	22.531
486.36	21.834
486.70	22.401
487.05	23.117
487.40	22.957
487.75	22.590
488.09	23.082
488.44	23.449
488.79	23.183
489.13	23.109
489.48	23.246
489.83	23.306
490.17	23.674
490.52	23.295
490.87	23.519
491.22	23.556
491.56	22.733
491.91	23.872
492.26	22.554
492.60	22.949
492.95	23.246
493.30	23.178
493.64	23.705
493.99	23.352
494.34	23.774
494.68	23.352
495.03	24.248
495.37	23.732
495.72	22.904
496.07	23.991
496.41	22.434
496.76	23.923
497.11	23.863
497.45	23.847
497.80	23.369
498.14	23.333
498.49	23.756
498.84	23.921
499.18	23.714
499.53	24.169
499.87	23.719
500.22	24.070
500.56	24.563
500.91	23.846
501.26	24.609
501.60	25.107
501.95	24.198
502.29	25.117
502.64	24.255
502.98	24.684
503.33	24.680
503.67	24.548
504.02	24.743
504.36	25.082
504.71	24.963
505.06	25.349
505.40	26.057
505.75	25.024
506.09	25.267
506.44	25.308
506.78	26.400
507.13	26.047
507.47	26.768
507.82	25.329
508.16	26.292
508.51	26.941
508.85	26.117
509.19	26.173
509.54	26.837
509.88	26.224
510.23	27.044
510.57	27.657
510.92	27.395
511.26	26.619
511.61	27.905
511.95	27.766
512.30	27.466
512.64	27.566
512.98	28.564
513.33	28.908
513.67	28.175
514.02	27.543
514.36	28.291
514.70	28.611
515.05	27.496
515.39	28.211
515.74	28.041
516.08	29.737
516.42	29.023
516.77	29.766
517.11	28.579
517.46	29.176
517.80	30.197
518.14	30.226
518.49	30.163
518.83	30.682
519.17	30.196
519.52	30.108
519.86	31.375
520.20	30.867
520.55	30.820
520.89	30.596
521.23	31.242
521.58	31.633
521.92	31.476
522.26	31.239
522.61	31.215
522.95	32.106
523.29	31.163
523.64	31.768
523.98	32.471
524.32	31.906
524.66	32.231
525.01	32.721
525.35	31.908
525.69	31.773
526.04	32.274
526.38	32.215
526.72	31.656
527.06	33.271
527.41	31.498
527.75	32.862
528.09	33.141
528.43	33.206
528.78	33.006
529.12	32.545
529.46	33.435
529.80	33.787
530.15	33.520
530.49	32.800
530.83	33.291
531.17	34.465
531.51	35.473
531.86	33.419
532.20	34.615
532.54	34.209
532.88	33.633
533.22	33.666
533.57	32.531
533.91	33.293
534.25	32.868
534.59	33.496
534.93	33.254
535.27	33.374
535.62	34.371
535.96	34.903
536.30	34.075
536.64	34.900
536.98	34.771
537.32	33.575
537.66	33.933
538.01	34.365
538.35	34.777
538.69	35.801
539.03	33.853
539.37	32.907
539.71	33.052
540.05	34.379
540.39	33.754
540.73	33.571
541.07	34.653
541.42	35.551
541.76	34.839
542.10	34.088
542.44	35.430
542.78	35.310
543.12	34.229
543.46	33.967
543.80	35.068
544.14	33.761
544.48	34.159
544.82	34.638
545.16	33.507
545.50	34.190
545.84	34.073
546.18	35.758
546.52	35.237
546.86	34.502
547.20	35.401
547.54	34.870
547.88	34.184
548.22	34.247
548.56	34.214
548.90	34.187
549.24	34.680
549.58	35.266
549.92	33.791
550.26	35.511
550.60	34.094
550.94	34.859
551.28	32.992
551.62	35.802
551.96	34.316
552.30	34.061
552.64	34.550
552.98	35.254
553.32	34.255
553.66	35.310
554.00	35.209
554.34	34.507
554.68	34.835
555.02	34.203
555.36	35.282
555.69	33.424
556.03	34.118
556.37	34.516
556.71	34.857
557.05	34.244
557.39	33.520
557.73	34.157
558.07	34.373
558.41	33.357
558.75	34.607
559.08	35.198
559.42	33.862
559.76	32.426
560.10	32.905
560.44	34.451
560.78	33.466
561.12	34.235
561.45	32.920
561.79	33.421
562.13	32.596
562.47	35.792
562.81	34.240
563.15	33.846
563.48	33.952
563.82	33.725
564.16	33.486
564.50	33.138
564.84	32.617
565.17	33.462
565.51	33.227
565.85	33.820
566.19	32.937
566.52	33.502
566.86	33.273
567.20	34.021
567.54	34.132
567.88	32.971
568.21	33.492
568.55	32.609
568.89	34.047
569.23	32.888
569.56	32.470
569.90	32.528
570.24	32.042
570.57	32.234
570.91	31.416
571.25	31.748
571.59	31.487
571.92	31.855
572.26	31.774
572.60	31.712
572.93	31.304
573.27	31.529
573.61	31.965
573.95	31.654
574.28	31.332
574.62	30.539
574.96	30.681
575.29	30.917
575.63	30.793
575.97	31.398
576.30	30.669
576.64	30.604
576.98	31.089
577.31	30.430
577.65	30.727
577.98	30.499
578.32	30.719
578.66	30.650
578.99	30.518
579.33	30.550
579.67	30.163
580.00	30.712
580.34	30.778
580.67	30.844
581.01	30.695
581.35	30.722
581.68	30.909
582.02	30.138
582.35	30.886
582.69	30.605
583.02	30.613
583.36	31.035
583.70	31.044
584.03	31.087
584.37	31.304
584.70	30.747
585.04	30.235
585.37	30.405
585.71	30.804
586.04	31.336
586.38	31.165
586.72	31.787
587.05	30.318
587.39	30.369
587.72	30.482
588.06	30.790
588.39	30.809
588.73	30.830
589.06	30.788
589.40	31.549
589.73	31.362
590.07	30.747
590.40	30.617
590.73	31.694
591.07	31.461
591.40	31.084
591.74	31.775
592.07	32.112
592.41	31.625
592.74	30.787
593.08	31.213
593.41	30.560
593.75	30.481
594.08	31.780
594.41	31.495
594.75	31.349
595.08	31.031
595.42	31.208
595.75	30.912
596.09	32.032
596.42	31.316
596.75	30.730
597.09	31.169
597.42	30.017
597.75	31.091
598.09	31.435
598.42	30.713
598.76	30.969
599.09	29.989
599.42	29.985
599.76	30.966
600.09	29.763
600.42	29.949
600.76	30.393
601.09	30.273
601.42	29.871
601.76	29.526
602.09	30.277
602.42	30.971
602.76	30.875
603.09	30.527
603.42	31.511
603.76	30.373
604.09	30.244
604.42	29.923
604.76	30.578
605.09	31.848
605.42	29.756
605.75	30.795
606.09	29.809
606.42	30.486
606.75	29.739
607.09	30.389
607.42	30.466
607.75	29.916
608.08	30.786
608.42	31.242
608.75	29.982
609.08	30.389
609.41	29.891
609.75	30.681
610.08	30.254
610.41	30.633
610.74	30.180
611.07	30.682
611.41	31.060
611.74	31.322
612.07	30.538
612.40	31.112
612.73	30.579
613.07	31.466
613.40	30.174
613.73	29.156
614.06	30.108
614.39	30.519
614.72	29.737
615.06	30.200
615.39	29.724
615.72	29.243
616.05	29.080
616.38	29.906
616.71	30.998
617.05	30.624
617.38	31.329
617.71	30.991
618.04	31.130
618.37	30.751
618.70	31.238
619.03	30.921
619.36	31.093
619.69	31.972
620.03	31.181
620.36	31.684
620.69	31.849
621.02	31.121
621.35	31.167
621.68	30.997
622.01	30.418
622.34	30.711
622.67	31.635
623.00	30.374
623.33	30.450
623.66	29.807
623.99	31.149
624.32	31.098
624.65	30.650
624.99	29.674
625.32	29.906
625.65	30.053
625.98	31.975
626.31	32.037
626.64	30.041
626.97	30.424
627.30	30.673
627.63	30.845
627.96	31.623
628.29	31.321
628.62	30.741
628.95	31.887
629.28	31.478
629.61	31.622
629.94	32.381
630.26	30.696
630.59	31.268
630.92	30.651
631.25	31.392
631.58	31.532
631.91	31.744
632.24	30.696
632.57	32.424
632.90	31.689
633.23	32.662
633.56	31.977
633.89	32.729
634.22	32.350
634.55	33.136
634.88	31.257
