SpectraSuite Data File
++++++++++++++++++++++++++++++++++++
Date: Wed May 13 20:32:05 PDT 2015
User: schluterlab
Dark Spectrum Present: Yes
Reference Spectrum Present: Yes
Number of Sampled Component Spectra: 1
Spectrometers: USB2E3373
Integration Time (usec): 3000 (USB2E3373)
Spectra Averaged: 3 (USB2E3373)
Boxcar Smoothing: 0 (USB2E3373)
Correct for Electrical Dark: No (USB2E3373)
Strobe/Lamp Enabled: No (USB2E3373)
Correct for Detector Non-linearity: No (USB2E3373)
Correct for Stray Light: No (USB2E3373)
Number of Pixels in Processed Spectrum: 2048
>>>>>Begin Processed Spectral Data<<<<<
178.53	0.000
178.91	-850.000
179.29	-900.000
179.67	-172.222
180.04	-950.000
180.42	2300.000
180.80	840.000
181.18	-925.000
181.56	471.429
181.94	0.000
182.31	-542.857
182.69	1500.000
183.07	-462.500
183.45	-333.333
183.83	509.091
184.20	-300.000
184.58	2100.000
184.96	4800.000
185.34	-680.000
185.72	-400.000
186.09	-1850.000
186.47	1250.000
186.85	1900.000
187.23	4000.000
187.61	-1300.000
187.98	900.000
188.36	418.182
188.74	472.727
189.12	-660.000
189.49	470.000
189.87	-3600.000
190.25	-675.000
190.63	378.571
191.00	307.692
191.38	566.667
191.76	-775.000
192.14	1075.000
192.51	425.000
192.89	683.333
193.27	387.500
193.65	-950.000
194.02	430.000
194.40	700.000
194.78	380.000
195.15	391.667
195.53	400.000
195.91	-1500.000
196.29	268.750
196.66	231.579
197.04	-270.000
197.42	0.000
197.79	410.000
198.17	-3700.000
198.55	614.286
198.92	525.000
199.30	820.000
199.68	0.000
200.05	244.444
200.43	571.429
200.81	2200.000
201.18	1100.000
201.56	-800.000
201.94	366.667
202.31	455.556
202.69	266.667
203.07	420.000
203.44	0.000
203.82	1050.000
204.19	500.000
204.57	414.286
204.95	512.500
205.32	1133.333
205.70	409.091
206.08	307.143
206.45	1750.000
206.83	281.250
207.20	683.333
207.58	620.000
207.96	272.222
208.33	612.500
208.71	-633.333
209.08	600.000
209.46	500.000
209.84	381.818
210.21	-1200.000
210.59	1150.000
210.96	-275.000
211.34	2200.000
211.71	460.000
212.09	650.000
212.46	0.000
212.84	1233.333
213.22	950.000
213.59	-3000.000
213.97	683.333
214.34	542.857
214.72	472.727
215.09	800.000
215.47	-1700.000
215.84	-1950.000
216.22	1100.000
216.59	278.571
216.97	1000.000
217.34	336.364
217.72	-516.667
218.09	0.000
218.47	-4200.000
218.84	533.333
219.22	600.000
219.59	966.667
219.97	-414.286
220.34	740.000
220.72	-1200.000
221.09	321.429
221.47	1100.000
221.84	-650.000
222.22	0.000
222.59	1175.000
222.97	-2150.000
223.34	1000.000
223.72	361.538
224.09	1060.000
224.46	1950.000
224.84	-3000.000
225.21	-740.000
225.59	-3300.000
225.96	540.000
226.34	260.000
226.71	2350.000
227.08	525.000
227.46	490.000
227.83	-725.000
228.21	-1700.000
228.58	466.667
228.95	-1700.000
229.33	-2000.000
229.70	1333.333
230.08	585.714
230.45	-640.000
230.82	358.333
231.20	616.667
231.57	442.857
231.95	391.667
232.32	204.545
232.69	309.091
233.07	600.000
233.44	284.615
233.81	-1666.667
234.19	236.842
234.56	300.000
234.93	258.333
235.31	418.182
235.68	269.231
236.05	328.571
236.43	136.364
236.80	184.211
237.17	4000.000
237.55	223.810
237.92	192.857
238.29	180.952
238.67	158.065
239.04	189.655
239.41	116.667
239.79	97.826
240.16	100.000
240.53	138.636
240.91	72.549
241.28	100.000
241.65	82.000
242.02	94.203
242.40	79.032
242.77	75.000
243.14	69.892
243.51	65.169
243.89	68.235
244.26	75.556
244.63	63.441
245.00	59.574
245.38	68.317
245.75	63.551
246.12	56.881
246.49	63.504
246.87	72.800
247.24	60.769
247.61	57.143
247.98	61.438
248.36	54.054
248.73	56.688
249.10	56.688
249.47	48.588
249.84	56.684
250.22	50.802
250.59	48.521
250.96	56.061
251.33	50.711
251.70	51.980
252.08	54.286
252.45	48.879
252.82	43.043
253.19	48.511
253.56	44.314
253.94	43.983
254.31	48.438
254.68	43.846
255.05	41.697
255.42	50.000
255.79	43.382
256.16	46.209
256.54	42.756
256.91	42.349
257.28	43.165
257.65	43.564
258.02	43.168
258.39	40.063
258.76	40.134
259.14	42.857
259.51	41.337
259.88	43.478
260.25	45.015
260.62	41.908
260.99	42.547
261.36	42.042
261.73	40.401
262.10	40.698
262.47	40.845
262.85	41.226
263.22	41.311
263.59	42.450
263.96	39.286
264.33	40.209
264.70	42.105
265.07	40.409
265.44	38.384
265.81	35.766
266.18	40.955
266.55	38.537
266.92	40.786
267.29	40.278
267.66	38.073
268.03	37.955
268.40	39.252
268.77	37.709
269.14	37.613
269.51	38.826
269.88	37.063
270.25	39.729
270.62	36.629
270.99	40.860
271.36	37.768
271.73	37.383
272.10	37.826
272.47	39.355
272.84	41.342
273.21	36.478
273.58	38.428
273.95	36.059
274.32	36.777
274.69	36.188
275.06	35.039
275.43	36.383
275.80	38.677
276.17	37.678
276.54	36.383
276.91	38.933
277.28	34.961
277.65	34.623
278.02	38.302
278.39	37.109
278.76	35.455
279.13	37.170
279.50	36.127
279.87	36.255
280.23	34.731
280.60	36.557
280.97	37.338
281.34	36.991
281.71	36.727
282.08	37.044
282.45	33.636
282.82	35.169
283.19	34.225
283.56	34.386
283.92	35.871
284.29	35.097
284.66	36.116
285.03	35.081
285.40	34.155
285.77	32.997
286.14	35.406
286.51	31.833
286.87	33.504
287.24	35.505
287.61	33.708
287.98	33.604
288.35	32.013
288.72	30.997
289.08	31.142
289.45	34.596
289.82	32.195
290.19	31.083
290.56	29.709
290.93	30.060
291.29	29.294
291.66	30.088
292.03	34.157
292.40	33.186
292.77	30.769
293.13	30.746
293.50	30.758
293.87	31.556
294.24	29.037
294.60	27.656
294.97	27.471
295.34	30.324
295.71	29.403
296.08	29.772
296.44	28.061
296.81	28.005
297.18	29.268
297.55	27.045
297.91	27.573
298.28	28.246
298.65	28.460
299.02	27.141
299.38	27.623
299.75	24.663
300.12	25.670
300.48	26.000
300.85	26.387
301.22	27.389
301.59	24.874
301.95	27.330
302.32	25.674
302.69	26.165
303.05	25.818
303.42	24.691
303.79	25.142
304.15	25.524
304.52	24.913
304.89	24.274
305.25	24.478
305.62	25.595
305.99	26.800
306.35	24.497
306.72	24.888
307.09	25.749
307.45	25.000
307.82	22.321
308.19	24.724
308.55	25.782
308.92	24.597
309.29	21.859
309.65	24.390
310.02	23.044
310.38	23.011
310.75	23.759
311.12	23.849
311.48	23.197
311.85	24.738
312.22	23.413
312.58	24.636
312.95	25.449
313.31	23.010
313.68	23.181
314.05	25.345
314.41	23.518
314.78	23.364
315.14	22.244
315.51	22.451
315.87	22.871
316.24	23.635
316.61	23.489
316.97	22.505
317.34	21.526
317.70	22.084
318.07	22.714
318.43	22.798
318.80	23.618
319.16	22.881
319.53	21.388
319.89	22.000
320.26	23.500
320.62	22.817
320.99	23.333
321.35	22.020
321.72	22.895
322.08	22.507
322.45	22.786
322.81	23.353
323.18	22.929
323.54	23.006
323.91	22.547
324.27	22.658
324.64	21.994
325.00	22.453
325.37	23.658
325.73	22.890
326.10	23.213
326.46	23.029
326.83	22.606
327.19	22.459
327.56	21.690
327.92	22.310
328.29	22.094
328.65	22.560
329.01	22.744
329.38	21.369
329.74	21.884
330.11	22.432
330.47	22.498
330.84	22.978
331.20	22.040
331.56	22.294
331.93	21.944
332.29	21.118
332.66	22.212
333.02	22.212
333.38	22.132
333.75	21.569
334.11	20.730
334.48	22.360
334.84	21.324
335.20	22.091
335.57	22.212
335.93	20.714
336.29	21.337
336.66	21.371
337.02	21.448
337.38	21.667
337.75	21.212
338.11	22.919
338.47	20.810
338.84	21.907
339.20	20.367
339.56	22.628
339.93	20.364
340.29	21.014
340.65	21.747
341.02	21.990
341.38	21.975
341.74	20.088
342.11	20.262
342.47	22.026
342.83	21.918
343.20	21.732
343.56	20.809
343.92	20.702
344.28	22.024
344.65	21.238
345.01	20.539
345.37	20.240
345.73	20.981
346.10	19.949
346.46	21.525
346.82	20.923
347.19	19.716
347.55	19.951
347.91	20.874
348.27	21.693
348.63	20.903
349.00	21.521
349.36	20.608
349.72	20.930
350.08	19.125
350.45	20.830
350.81	20.309
351.17	19.368
351.53	19.574
351.89	19.884
352.26	20.600
352.62	20.529
352.98	20.908
353.34	21.035
353.70	20.131
354.07	20.806
354.43	19.921
354.79	18.825
355.15	19.234
355.51	20.863
355.87	20.735
356.24	19.300
356.60	19.326
356.96	19.952
357.32	19.951
357.68	20.787
358.04	20.665
358.40	20.032
358.77	19.640
359.13	20.363
359.49	19.294
359.85	18.095
360.21	19.059
360.57	20.078
360.93	19.846
361.29	18.821
361.66	18.034
362.02	20.373
362.38	20.076
362.74	19.643
363.10	19.319
363.46	19.442
363.82	18.972
364.18	19.310
364.54	19.911
364.90	21.105
365.26	18.529
365.62	19.284
365.98	18.188
366.35	18.553
366.71	19.812
367.07	19.883
367.43	19.303
367.79	19.415
368.15	19.756
368.51	18.750
368.87	19.129
369.23	18.435
369.59	19.551
369.95	18.382
370.31	18.590
370.67	18.768
371.03	20.075
371.39	19.388
371.75	19.559
372.11	18.563
372.47	18.915
372.83	19.813
373.19	19.075
373.55	19.143
373.91	19.146
374.27	18.557
374.63	18.764
374.99	18.927
375.35	18.842
375.71	18.506
376.07	19.273
376.42	18.845
376.78	19.549
377.14	19.132
377.50	19.205
377.86	18.883
378.22	18.205
378.58	18.233
378.94	18.479
379.30	18.130
379.66	18.591
380.02	18.428
380.38	17.911
380.74	19.088
381.09	18.215
381.45	17.947
381.81	18.673
382.17	18.153
382.53	18.805
382.89	18.580
383.25	17.886
383.61	19.207
383.97	18.261
384.32	18.341
384.68	17.720
385.04	17.640
385.40	18.204
385.76	17.998
386.12	17.422
386.48	18.502
386.83	18.217
387.19	18.429
387.55	18.058
387.91	18.017
388.27	17.351
388.62	18.132
388.98	17.813
389.34	18.711
389.70	18.516
390.06	17.934
390.42	18.029
390.77	19.402
391.13	18.571
391.49	18.211
391.85	17.632
392.20	16.909
392.56	18.245
392.92	18.128
393.28	17.278
393.64	17.866
393.99	17.471
394.35	17.618
394.71	17.378
395.07	17.445
395.42	18.109
395.78	17.621
396.14	18.001
396.50	19.173
396.85	18.055
397.21	17.818
397.57	17.359
397.92	18.630
398.28	17.096
398.64	18.041
399.00	17.180
399.35	17.202
399.71	17.824
400.07	18.214
400.42	17.914
400.78	17.973
401.14	16.768
401.49	16.836
401.85	17.846
402.21	17.964
402.57	17.397
402.92	17.970
403.28	17.489
403.63	17.636
403.99	17.516
404.35	17.818
404.70	17.326
405.06	17.356
405.42	17.405
405.77	17.257
406.13	17.438
406.49	17.918
406.84	18.311
407.20	17.671
407.55	17.932
407.91	18.067
408.27	17.677
408.62	17.459
408.98	18.015
409.34	17.835
409.69	17.742
410.05	17.720
410.40	18.104
410.76	18.100
411.11	17.612
411.47	17.316
411.83	17.899
412.18	17.625
412.54	17.372
412.89	18.133
413.25	18.595
413.60	17.603
413.96	16.697
414.31	17.558
414.67	18.251
415.03	16.887
415.38	18.170
415.74	17.492
416.09	18.093
416.45	18.005
416.80	17.184
417.16	18.767
417.51	18.049
417.87	17.919
418.22	18.297
418.58	17.624
418.93	18.182
419.29	18.269
419.64	17.758
420.00	18.293
420.35	18.203
420.71	18.111
421.06	17.303
421.42	17.485
421.77	17.937
422.12	17.125
422.48	17.377
422.83	17.298
423.19	17.956
423.54	17.295
423.90	17.913
424.25	17.700
424.61	17.083
424.96	17.026
425.31	17.553
425.67	17.416
426.02	17.714
426.38	18.193
426.73	17.964
427.09	18.298
427.44	18.286
427.79	17.079
428.15	18.036
428.50	17.554
428.85	18.355
429.21	18.001
429.56	17.263
429.92	17.967
430.27	17.180
430.62	17.307
430.98	17.696
431.33	17.474
431.68	17.749
432.04	16.880
432.39	17.133
432.74	18.312
433.10	17.997
433.45	18.542
433.80	17.517
434.16	17.895
434.51	17.789
434.86	18.643
435.22	17.454
435.57	17.508
435.92	17.847
436.28	18.149
436.63	17.991
436.98	17.001
437.34	18.247
437.69	18.203
438.04	17.426
438.39	17.552
438.75	18.594
439.10	18.156
439.45	18.182
439.81	18.066
440.16	17.843
440.51	18.805
440.86	18.066
441.22	17.519
441.57	17.410
441.92	18.270
442.27	18.461
442.63	17.904
442.98	18.704
443.33	18.370
443.68	17.295
444.03	17.814
444.39	17.089
444.74	18.506
445.09	18.329
445.44	17.769
445.79	17.665
446.15	17.946
446.50	18.901
446.85	17.831
447.20	18.205
447.55	18.481
447.91	17.761
448.26	18.698
448.61	18.202
448.96	18.439
449.31	18.504
449.66	18.346
450.02	18.050
450.37	17.800
450.72	17.936
451.07	18.160
451.42	17.143
451.77	17.968
452.12	17.841
452.47	18.719
452.83	18.357
453.18	18.460
453.53	18.738
453.88	17.779
454.23	19.008
454.58	18.958
454.93	19.199
455.28	18.703
455.63	19.357
455.98	18.988
456.34	19.221
456.69	18.785
457.04	19.133
457.39	18.118
457.74	19.617
458.09	19.321
458.44	18.073
458.79	18.764
459.14	19.131
459.49	18.973
459.84	18.061
460.19	18.857
460.54	18.634
460.89	18.596
461.24	19.551
461.59	20.105
461.94	19.051
462.29	19.763
462.64	19.272
462.99	19.193
463.34	19.933
463.69	18.637
464.04	18.783
464.39	19.652
464.74	19.251
465.09	18.577
465.44	18.449
465.79	18.512
466.14	18.774
466.49	18.743
466.84	19.556
467.19	18.527
467.54	19.437
467.89	18.667
468.24	19.139
468.59	20.269
468.94	19.731
469.29	19.537
469.64	20.013
469.99	19.350
470.34	19.022
470.68	19.971
471.03	19.388
471.38	20.848
471.73	19.520
472.08	19.934
472.43	19.410
472.78	18.960
473.13	19.961
473.48	20.412
473.83	19.878
474.17	20.224
474.52	19.727
474.87	20.607
475.22	19.559
475.57	18.700
475.92	18.587
476.27	19.560
476.61	19.415
476.96	18.911
477.31	19.205
477.66	19.037
478.01	19.498
478.36	19.461
478.70	19.211
479.05	18.903
479.40	19.806
479.75	19.166
480.10	19.384
480.45	19.419
480.79	19.064
481.14	19.961
481.49	19.317
481.84	19.616
482.19	19.537
482.53	19.220
482.88	18.893
483.23	18.411
483.58	19.017
483.92	19.213
484.27	17.865
484.62	18.750
484.97	18.526
485.31	18.425
485.66	17.257
486.01	17.097
486.36	16.758
486.70	16.929
487.05	17.163
487.40	17.339
487.75	16.977
488.09	18.016
488.44	17.578
488.79	18.047
489.13	18.602
489.48	19.005
489.83	18.515
490.17	19.772
490.52	19.221
490.87	19.358
491.22	18.554
491.56	19.043
491.91	19.311
492.26	19.201
492.60	19.677
492.95	19.270
493.30	19.486
493.64	18.852
493.99	19.220
494.34	19.611
494.68	19.231
495.03	19.549
495.37	19.125
495.72	20.029
496.07	19.722
496.41	19.204
496.76	20.009
497.11	19.451
497.45	19.842
497.80	19.578
498.14	19.372
498.49	19.902
498.84	19.990
499.18	19.619
499.53	18.376
499.87	19.152
500.22	19.689
500.56	20.291
500.91	19.375
501.26	19.725
501.60	20.171
501.95	19.432
502.29	19.728
502.64	20.112
502.98	19.729
503.33	19.424
503.67	18.979
504.02	19.972
504.36	19.888
504.71	20.518
505.06	20.145
505.40	19.835
505.75	19.720
506.09	19.922
506.44	20.326
506.78	19.971
507.13	19.939
507.47	20.909
507.82	20.517
508.16	20.213
508.51	20.396
508.85	20.159
509.19	20.663
509.54	20.510
509.88	19.526
510.23	20.411
510.57	21.156
510.92	20.508
511.26	20.709
511.61	20.539
511.95	20.407
512.30	20.997
512.64	20.849
512.98	20.686
513.33	21.199
513.67	21.398
514.02	21.050
514.36	20.808
514.70	20.863
515.05	21.528
515.39	22.266
515.74	21.509
516.08	21.968
516.42	21.920
516.77	21.851
517.11	21.088
517.46	22.968
517.80	21.080
518.14	21.367
518.49	22.112
518.83	22.330
519.17	21.594
519.52	21.222
519.86	22.476
520.20	22.139
520.55	22.980
520.89	22.749
521.23	22.799
521.58	22.689
521.92	22.780
522.26	21.965
522.61	22.181
522.95	22.161
523.29	21.242
523.64	22.988
523.98	21.996
524.32	22.979
524.66	22.850
525.01	22.426
525.35	21.933
525.69	21.736
526.04	22.430
526.38	22.392
526.72	22.945
527.06	22.159
527.41	21.844
527.75	23.151
528.09	22.543
528.43	22.371
528.78	22.741
529.12	22.061
529.46	23.025
529.80	23.515
530.15	23.427
530.49	21.415
530.83	22.785
531.17	23.368
531.51	23.541
531.86	23.097
532.20	23.990
532.54	23.190
532.88	22.593
533.22	22.798
533.57	22.901
533.91	23.119
534.25	22.114
534.59	22.758
534.93	22.130
535.27	22.511
535.62	22.283
535.96	23.289
536.30	22.123
536.64	22.537
536.98	23.159
537.32	22.515
537.66	23.200
538.01	23.634
538.35	23.917
538.69	23.165
539.03	21.832
539.37	22.620
539.71	22.359
540.05	22.810
540.39	22.525
540.73	22.639
541.07	23.816
541.42	22.766
541.76	23.355
542.10	23.027
542.44	22.252
542.78	23.584
543.12	22.137
543.46	22.689
543.80	23.227
544.14	22.144
544.48	23.175
544.82	22.322
545.16	22.837
545.50	21.722
545.84	22.984
546.18	23.232
546.52	22.780
546.86	23.299
547.20	22.522
547.54	22.645
547.88	23.342
548.22	22.727
548.56	21.950
548.90	21.895
549.24	22.088
549.58	23.261
549.92	22.940
550.26	24.006
550.60	22.822
550.94	23.732
551.28	22.751
551.62	23.221
551.96	24.702
552.30	23.549
552.64	23.665
552.98	24.475
553.32	23.736
553.66	23.586
554.00	24.091
554.34	23.671
554.68	24.392
555.02	23.977
555.36	23.521
555.69	23.410
556.03	22.948
556.37	22.578
556.71	23.738
557.05	23.950
557.39	23.863
557.73	23.430
558.07	23.423
558.41	23.444
558.75	24.100
559.08	24.310
559.42	23.432
559.76	23.529
560.10	23.769
560.44	24.389
560.78	23.087
561.12	22.757
561.45	23.794
561.79	22.610
562.13	22.803
562.47	23.566
562.81	24.826
563.15	24.013
563.48	23.077
563.82	23.483
564.16	23.872
564.50	22.005
564.84	23.072
565.17	22.523
565.51	23.195
565.85	22.589
566.19	21.603
566.52	22.546
566.86	21.820
567.20	22.288
567.54	21.747
567.88	21.021
568.21	22.910
568.55	21.031
568.89	20.720
569.23	20.766
569.56	20.445
569.90	19.811
570.24	19.699
570.57	19.245
570.91	19.101
571.25	18.870
571.59	19.440
571.92	18.980
572.26	18.862
572.60	19.189
572.93	18.771
573.27	19.284
573.61	18.593
573.95	19.121
574.28	18.518
574.62	18.416
574.96	18.495
575.29	18.210
575.63	18.572
575.97	18.459
576.30	18.986
576.64	18.120
576.98	18.328
577.31	18.369
577.65	18.263
577.98	18.154
578.32	17.990
578.66	17.673
578.99	18.443
579.33	18.107
579.67	17.976
580.00	18.173
580.34	18.439
580.67	18.341
581.01	18.709
581.35	18.429
581.68	17.854
582.02	17.929
582.35	17.957
582.69	17.927
583.02	18.016
583.36	18.215
583.70	18.531
584.03	18.678
584.37	18.788
584.70	18.913
585.04	18.762
585.37	18.430
585.71	18.656
586.04	18.652
586.38	18.939
586.72	18.973
587.05	19.017
587.39	18.311
587.72	19.119
588.06	18.757
588.39	19.396
588.73	19.009
589.06	20.037
589.40	19.798
589.73	19.782
590.07	19.858
590.40	19.766
590.73	19.633
591.07	20.757
591.40	21.130
591.74	21.299
592.07	20.462
592.41	20.752
592.74	19.775
593.08	20.020
593.41	20.215
593.75	19.457
594.08	19.745
594.41	20.573
594.75	20.444
595.08	19.971
595.42	19.615
595.75	20.335
596.09	20.053
596.42	20.825
596.75	21.148
597.09	21.861
597.42	20.278
597.75	21.345
598.09	20.565
598.42	20.361
598.76	20.065
599.09	20.448
599.42	19.723
599.76	19.583
600.09	20.146
600.42	20.088
600.76	19.643
601.09	19.854
601.42	20.205
601.76	20.152
602.09	20.316
602.42	21.178
602.76	21.362
603.09	20.614
603.42	21.007
603.76	20.312
604.09	20.085
604.42	20.465
604.76	21.173
605.09	20.708
605.42	20.393
605.75	21.068
606.09	20.537
606.42	20.719
606.75	20.324
607.09	20.511
607.42	20.625
607.75	20.380
608.08	20.669
608.42	21.022
608.75	20.469
609.08	21.045
609.41	20.752
609.75	20.867
610.08	20.735
610.41	20.391
610.74	20.577
611.07	21.739
611.41	20.952
611.74	21.468
612.07	21.532
612.40	21.459
612.73	21.684
613.07	22.252
613.40	21.485
613.73	20.923
614.06	22.258
614.39	21.972
614.72	21.368
615.06	22.637
615.39	21.921
615.72	21.370
616.05	21.531
616.38	22.401
616.71	22.862
617.05	22.556
617.38	21.948
617.71	21.982
618.04	22.236
618.37	22.058
618.70	22.775
619.03	23.421
619.36	23.286
619.69	22.746
620.03	23.901
620.36	23.262
620.69	23.493
621.02	23.451
621.35	23.179
621.68	24.065
622.01	24.226
622.34	24.735
622.67	23.422
623.00	23.771
623.33	23.088
623.66	23.731
623.99	24.080
624.32	23.252
624.65	23.305
624.99	23.513
625.32	23.823
625.65	23.666
625.98	23.905
626.31	24.339
626.64	26.204
626.97	24.356
627.30	24.439
627.63	25.349
627.96	25.652
628.29	23.885
628.62	26.990
628.95	27.170
629.28	25.274
629.61	25.573
629.94	26.000
630.26	26.692
630.59	27.169
630.92	25.862
631.25	25.370
