SpectraSuite Data File
++++++++++++++++++++++++++++++++++++
Date: Wed May 13 20:33:39 PDT 2015
User: schluterlab
Dark Spectrum Present: Yes
Reference Spectrum Present: Yes
Number of Sampled Component Spectra: 1
Spectrometers: USB2E3373
Integration Time (usec): 3000 (USB2E3373)
Spectra Averaged: 3 (USB2E3373)
Boxcar Smoothing: 0 (USB2E3373)
Correct for Electrical Dark: No (USB2E3373)
Strobe/Lamp Enabled: No (USB2E3373)
Correct for Detector Non-linearity: No (USB2E3373)
Correct for Stray Light: No (USB2E3373)
Number of Pixels in Processed Spectrum: 2048
>>>>>Begin Processed Spectral Data<<<<<
178.53	0.000
178.91	-925.000
179.29	-1175.000
179.67	-188.889
180.04	-825.000
180.42	1900.000
180.80	820.000
181.18	-925.000
181.56	557.143
181.94	0.000
182.31	-485.714
182.69	1300.000
183.07	-375.000
183.45	-377.778
183.83	381.818
184.20	-220.000
184.58	1650.000
184.96	4700.000
185.34	-520.000
185.72	-512.500
186.09	-1300.000
186.47	2250.000
186.85	1550.000
187.23	3100.000
187.61	-1266.667
187.98	925.000
188.36	327.273
188.74	327.273
189.12	-500.000
189.49	370.000
189.87	-3900.000
190.25	-675.000
190.63	285.714
191.00	300.000
191.38	700.000
191.76	-875.000
192.14	950.000
192.51	437.500
192.89	683.333
193.27	312.500
193.65	-875.000
194.02	370.000
194.40	540.000
194.78	380.000
195.15	441.667
195.53	470.000
195.91	-1750.000
196.29	287.500
196.66	242.105
197.04	-200.000
197.42	0.000
197.79	530.000
198.17	-3700.000
198.55	328.571
198.92	400.000
199.30	620.000
199.68	0.000
200.05	255.556
200.43	657.143
200.81	3200.000
201.18	1200.000
201.56	-1200.000
201.94	411.111
202.31	488.889
202.69	308.333
203.07	410.000
203.44	0.000
203.82	775.000
204.19	642.857
204.57	357.143
204.95	462.500
205.32	1166.667
205.70	445.455
206.08	314.286
206.45	1550.000
206.83	281.250
207.20	700.000
207.58	500.000
207.96	238.889
208.33	512.500
208.71	-633.333
209.08	571.429
209.46	433.333
209.84	327.273
210.21	-900.000
210.59	1125.000
210.96	-375.000
211.34	1550.000
211.71	430.000
212.09	533.333
212.46	0.000
212.84	1166.667
213.22	800.000
213.59	-3200.000
213.97	700.000
214.34	657.143
214.72	363.636
215.09	760.000
215.47	-1100.000
215.84	-1900.000
216.22	1133.333
216.59	314.286
216.97	1075.000
217.34	290.909
217.72	-466.667
218.09	0.000
218.47	-3300.000
218.84	533.333
219.22	457.143
219.59	1366.667
219.97	-385.714
220.34	920.000
220.72	-1166.667
221.09	321.429
221.47	925.000
221.84	-583.333
222.22	0.000
222.59	775.000
222.97	-2000.000
223.34	840.000
223.72	338.462
224.09	720.000
224.46	1700.000
224.84	-4000.000
225.21	-860.000
225.59	-2900.000
225.96	410.000
226.34	250.000
226.71	1900.000
227.08	487.500
227.46	430.000
227.83	-650.000
228.21	-1950.000
228.58	377.778
228.95	-1700.000
229.33	-1700.000
229.70	1266.667
230.08	542.857
230.45	-520.000
230.82	291.667
231.20	600.000
231.57	442.857
231.95	383.333
232.32	200.000
232.69	254.545
233.07	542.857
233.44	315.385
233.81	-1100.000
234.19	215.789
234.56	275.000
234.93	275.000
235.31	363.636
235.68	230.769
236.05	185.714
236.43	154.545
236.80	200.000
237.17	3500.000
237.55	171.429
237.92	203.571
238.29	185.714
238.67	125.806
239.04	134.483
239.41	127.778
239.79	113.043
240.16	119.048
240.53	104.545
240.91	105.882
241.28	72.000
241.65	76.000
242.02	95.652
242.40	74.194
242.77	81.667
243.14	61.290
243.51	67.416
243.89	64.706
244.26	63.333
244.63	66.667
245.00	65.957
245.38	66.337
245.75	61.682
246.12	55.963
246.49	59.854
246.87	58.400
247.24	56.923
247.61	49.286
247.98	43.137
248.36	46.622
248.73	45.223
249.10	49.682
249.47	46.328
249.84	52.941
250.22	49.733
250.59	43.787
250.96	42.929
251.33	49.763
251.70	51.980
252.08	49.524
252.45	41.256
252.82	42.609
253.19	40.426
253.56	40.784
253.94	44.813
254.31	39.063
254.68	44.615
255.05	44.280
255.42	40.650
255.79	41.544
256.16	40.794
256.54	37.456
256.91	43.772
257.28	35.971
257.65	36.964
258.02	42.547
258.39	39.117
258.76	40.134
259.14	39.583
259.51	35.562
259.88	35.404
260.25	37.764
260.62	36.127
260.99	38.820
261.36	37.838
261.73	40.401
262.10	37.500
262.47	39.437
262.85	38.719
263.22	33.333
263.59	36.182
263.96	36.813
264.33	38.381
264.70	36.053
265.07	36.573
265.44	36.111
265.81	35.523
266.18	33.668
266.55	36.341
266.92	37.838
267.29	38.889
267.66	35.092
268.03	35.909
268.40	34.112
268.77	34.368
269.14	31.757
269.51	34.989
269.88	34.732
270.25	33.409
270.62	35.056
270.99	36.774
271.36	31.330
271.73	34.346
272.10	35.870
272.47	33.548
272.84	34.632
273.21	35.010
273.58	32.751
273.95	33.543
274.32	33.264
274.69	32.334
275.06	30.512
275.43	34.894
275.80	33.868
276.17	31.772
276.54	34.304
276.91	36.166
277.28	34.375
277.65	32.495
278.02	33.126
278.39	36.719
278.76	32.909
279.13	35.094
279.50	32.961
279.87	31.474
280.23	32.535
280.60	30.368
280.97	31.793
281.34	33.097
281.71	33.091
282.08	31.670
282.45	32.727
282.82	32.504
283.19	28.520
283.56	30.877
283.92	32.657
284.29	30.864
284.66	31.397
285.03	31.646
285.40	30.106
285.77	31.650
286.14	31.606
286.51	31.667
286.87	30.940
287.24	30.619
287.61	33.547
287.98	29.870
288.35	29.477
288.72	28.660
289.08	31.612
289.45	28.995
289.82	28.943
290.19	27.630
290.56	27.718
290.93	25.529
291.29	27.607
291.66	27.286
292.03	29.506
292.40	29.515
292.77	26.479
293.13	30.149
293.50	29.592
293.87	26.370
294.24	26.370
294.60	26.201
294.97	26.308
295.34	27.645
295.71	27.415
296.08	25.926
296.44	26.410
296.81	24.174
297.18	25.745
297.55	23.879
297.91	23.351
298.28	26.372
298.65	26.632
299.02	23.715
299.38	24.436
299.75	23.046
300.12	23.627
300.48	23.750
300.85	24.168
301.22	23.567
301.59	21.338
301.95	24.055
302.32	24.005
302.69	22.820
303.05	25.212
303.42	22.222
303.79	22.877
304.15	21.212
304.52	22.827
304.89	22.300
305.25	22.622
305.62	21.744
305.99	22.432
306.35	22.483
306.72	23.655
307.09	21.976
307.45	22.860
307.82	21.763
308.19	22.848
308.55	22.006
308.92	22.127
309.29	21.225
309.65	21.209
310.02	21.882
310.38	22.151
310.75	21.225
311.12	22.620
311.48	21.421
311.85	21.803
312.22	22.373
312.58	20.478
312.95	23.231
313.31	21.262
313.68	22.037
314.05	23.077
314.41	22.111
314.78	21.148
315.14	21.053
315.51	21.215
315.87	21.683
316.24	22.741
316.61	21.345
316.97	20.548
317.34	19.961
317.70	21.702
318.07	22.137
318.43	22.211
318.80	21.275
319.16	21.092
319.53	20.544
319.89	21.810
320.26	22.800
320.62	21.131
320.99	21.414
321.35	22.323
321.72	21.253
322.08	21.915
322.45	21.493
322.81	23.062
323.18	21.965
323.54	21.243
323.91	22.264
324.27	21.033
324.64	21.062
325.00	21.010
325.37	21.838
325.73	22.352
326.10	21.624
326.46	21.057
326.83	22.692
327.19	21.093
327.56	21.516
327.92	22.485
328.29	23.070
328.65	21.915
329.01	22.292
329.38	21.369
329.74	21.884
330.11	21.301
330.47	22.681
330.84	22.243
331.20	22.404
331.56	21.468
331.93	21.574
332.29	22.183
332.66	21.593
333.02	20.384
333.38	21.138
333.75	21.480
334.11	21.708
334.48	21.828
334.84	22.518
335.20	21.091
335.57	21.215
335.93	20.357
336.29	21.703
336.66	22.723
337.02	21.810
337.38	20.278
337.75	20.321
338.11	20.412
338.47	20.442
338.84	21.998
339.20	18.716
339.56	22.080
339.93	20.273
340.29	20.290
340.65	21.301
341.02	21.379
341.38	20.374
341.74	20.351
342.11	20.786
342.47	19.824
342.83	20.805
343.20	21.039
343.56	21.230
343.92	18.860
344.28	20.578
344.65	20.550
345.01	20.455
345.37	19.811
345.73	20.389
346.10	19.182
346.46	20.169
346.82	19.934
347.19	20.718
347.55	20.197
347.91	20.388
348.27	19.556
348.63	21.321
349.00	19.417
349.36	19.622
349.72	19.487
350.08	19.692
350.45	20.260
350.81	19.171
351.17	19.854
351.53	20.393
351.89	18.317
352.26	20.837
352.62	20.289
352.98	19.287
353.34	18.899
353.70	19.149
354.07	19.597
354.43	19.286
354.79	19.871
355.15	18.994
355.51	21.103
355.87	19.755
356.24	18.811
356.60	18.605
356.96	19.308
357.32	20.114
357.68	19.843
358.04	19.319
358.40	19.636
358.77	19.249
359.13	18.074
359.49	19.843
359.85	17.619
360.21	18.900
360.57	19.066
360.93	18.077
361.29	19.350
361.66	17.492
362.02	18.881
362.38	19.772
362.74	18.824
363.10	18.431
363.46	18.195
363.82	18.141
364.18	19.236
364.54	19.019
364.90	18.980
365.26	18.676
365.62	19.357
365.98	18.846
366.35	17.980
366.71	19.017
367.07	18.354
367.43	18.868
367.79	18.915
368.15	18.750
368.51	18.677
368.87	18.487
369.23	17.776
369.59	18.030
369.95	16.912
370.31	18.162
370.67	18.696
371.03	18.727
371.39	18.367
371.75	18.015
372.11	18.208
372.47	18.328
372.83	18.804
373.19	17.919
373.55	18.625
373.91	19.072
374.27	17.938
374.63	17.309
374.99	18.362
375.35	17.027
375.71	17.272
376.07	18.656
376.42	19.120
376.78	18.025
377.14	17.775
377.50	18.411
377.86	16.822
378.22	17.952
378.58	16.291
378.94	16.845
379.30	17.176
379.66	18.147
380.02	18.243
380.38	17.243
380.74	16.927
381.09	17.359
381.45	18.377
381.81	17.322
382.17	17.771
382.53	17.610
382.89	17.407
383.25	18.199
383.61	17.410
383.97	17.636
384.32	16.781
384.68	17.162
385.04	17.824
385.40	16.533
385.76	16.892
386.12	17.163
386.48	16.803
386.83	17.511
387.19	17.563
387.55	17.254
387.91	17.836
388.27	17.351
388.62	17.210
388.98	16.523
389.34	17.647
389.70	17.413
390.06	17.490
390.42	16.861
390.77	18.003
391.13	17.677
391.49	17.132
391.85	17.187
392.20	16.719
392.56	17.677
392.92	16.833
393.28	16.036
393.64	16.787
393.99	17.410
394.35	16.811
394.71	17.001
395.07	17.009
395.42	16.687
395.78	16.094
396.14	16.325
396.50	17.419
396.85	17.101
397.21	16.646
397.57	16.987
397.92	17.067
398.28	15.583
398.64	16.846
399.00	17.012
399.35	15.849
399.71	16.204
400.07	16.440
400.42	16.687
400.78	17.250
401.14	16.463
401.49	16.239
401.85	16.939
402.21	15.749
402.57	15.731
402.92	16.456
403.28	17.364
403.63	16.399
403.99	16.051
404.35	16.848
404.70	17.086
405.06	16.249
405.42	16.594
405.77	16.800
406.13	16.196
406.49	17.268
406.84	16.125
407.20	16.135
407.55	17.039
407.91	17.000
408.27	16.018
408.62	17.520
408.98	16.728
409.34	16.913
409.69	16.903
410.05	16.419
410.40	16.024
410.76	16.129
411.11	17.069
411.47	15.783
411.83	16.432
412.18	15.399
412.54	16.065
412.89	16.145
413.25	15.880
413.60	16.986
413.96	15.786
414.31	16.525
414.67	16.730
415.03	15.762
415.38	16.173
415.74	16.785
416.09	16.590
416.45	15.797
416.80	16.259
417.16	16.756
417.51	16.722
417.87	15.928
418.22	17.350
418.58	16.914
418.93	16.400
419.29	16.741
419.64	16.751
420.00	15.610
420.35	16.464
420.71	16.975
421.06	16.348
421.42	16.608
421.77	16.368
422.12	16.058
422.48	16.460
422.83	16.366
423.19	16.243
423.54	15.554
423.90	16.290
424.25	16.304
424.61	17.024
424.96	16.152
425.31	16.556
425.67	15.618
426.02	15.200
426.38	16.545
426.73	16.442
427.09	16.109
427.44	15.699
427.79	16.216
428.15	16.726
428.50	16.676
428.85	16.567
429.21	16.676
429.56	16.174
429.92	16.407
430.27	15.938
430.62	15.463
430.98	15.931
431.33	16.082
431.68	16.911
432.04	15.761
432.39	15.934
432.74	16.278
433.10	16.016
433.45	16.093
433.80	16.020
434.16	16.132
434.51	15.632
434.86	15.906
435.22	15.509
435.57	15.745
435.92	15.682
436.28	16.904
436.63	16.336
436.98	15.341
437.34	16.518
437.69	15.811
438.04	16.414
438.39	16.418
438.75	16.676
439.10	16.480
439.45	16.352
439.81	15.770
440.16	15.923
440.51	15.993
440.86	15.692
441.22	16.685
441.57	16.242
441.92	16.684
442.27	15.985
442.63	15.692
442.98	15.718
443.33	15.978
443.68	15.849
444.03	15.959
444.39	15.093
444.74	15.368
445.09	16.712
445.44	15.692
445.79	15.487
446.15	16.675
446.50	16.155
446.85	16.804
447.20	16.012
447.55	15.522
447.91	15.996
448.26	16.082
448.61	15.828
448.96	15.947
449.31	16.085
449.66	16.488
450.02	16.100
450.37	15.930
450.72	15.736
451.07	15.966
451.42	15.441
451.77	16.676
452.12	15.820
452.47	16.231
452.83	16.200
453.18	16.198
453.53	16.512
453.88	16.302
454.23	15.900
454.58	16.717
454.93	16.275
455.28	15.337
455.63	15.777
455.98	17.500
456.34	16.143
456.69	15.654
457.04	15.604
457.39	16.248
457.74	16.309
458.09	16.331
458.44	16.135
458.79	15.672
459.14	16.140
459.49	16.462
459.84	16.066
460.19	15.085
460.54	15.336
460.89	15.908
461.24	16.211
461.59	16.793
461.94	15.598
462.29	16.320
462.64	16.401
462.99	15.355
463.34	16.933
463.69	15.572
464.04	16.406
464.39	15.768
464.74	16.102
465.09	15.742
465.44	16.233
465.79	15.604
466.14	14.997
466.49	15.795
466.84	16.579
467.19	16.476
467.54	16.125
467.89	14.946
468.24	16.230
468.59	16.361
468.94	16.005
469.29	15.681
469.64	16.332
469.99	15.562
470.34	16.380
470.68	16.523
471.03	15.646
471.38	16.678
471.73	15.656
472.08	16.974
472.43	16.646
472.78	15.471
473.13	16.367
473.48	16.230
473.83	15.610
474.17	15.993
474.52	15.633
474.87	16.346
475.22	15.961
475.57	15.744
475.92	15.773
476.27	15.896
476.61	15.830
476.96	16.053
477.31	15.646
477.66	15.263
478.01	15.578
478.36	16.182
478.70	15.109
479.05	14.963
479.40	15.455
479.75	15.252
480.10	15.209
480.45	15.040
480.79	14.907
481.14	15.411
481.49	15.615
481.84	14.906
482.19	15.039
482.53	15.229
482.88	15.309
483.23	15.327
483.58	15.469
483.92	15.792
484.27	14.858
484.62	15.172
484.97	14.545
485.31	14.829
485.66	15.093
486.01	15.052
486.36	14.631
486.70	14.239
487.05	13.712
487.40	13.866
487.75	13.308
488.09	14.043
488.44	13.509
488.79	13.960
489.13	14.400
489.48	14.641
489.83	13.984
490.17	14.555
490.52	14.482
490.87	14.744
491.22	14.916
491.56	13.713
491.91	14.751
492.26	14.975
492.60	14.885
492.95	14.172
493.30	14.393
493.64	14.839
493.99	14.578
494.34	14.940
494.68	15.064
495.03	14.709
495.37	14.611
495.72	14.864
496.07	14.896
496.41	14.513
496.76	14.908
497.11	14.813
497.45	14.392
497.80	14.251
498.14	14.638
498.49	14.244
498.84	14.142
499.18	14.571
499.53	14.862
499.87	15.284
500.22	14.979
500.56	15.291
500.91	14.231
501.26	14.462
501.60	14.760
501.95	14.390
502.29	15.230
502.64	14.758
502.98	14.633
503.33	14.351
503.67	14.524
504.02	15.014
504.36	14.600
504.71	14.362
505.06	14.602
505.40	14.098
505.75	14.176
506.09	14.869
506.44	14.603
506.78	15.197
507.13	15.194
507.47	14.747
507.82	14.944
508.16	14.691
508.51	14.612
508.85	14.101
509.19	14.898
509.54	15.204
509.88	14.477
510.23	14.293
510.57	15.531
510.92	15.588
511.26	14.800
511.61	14.419
511.95	14.248
512.30	14.793
512.64	14.670
512.98	14.791
513.33	14.882
513.67	14.354
514.02	14.340
514.36	15.347
514.70	14.222
515.05	14.947
515.39	14.863
515.74	14.302
516.08	14.421
516.42	14.817
516.77	15.663
517.11	14.095
517.46	14.334
517.80	14.460
518.14	14.360
518.49	14.994
518.83	14.943
519.17	15.185
519.52	15.054
519.86	15.231
520.20	14.682
520.55	15.141
520.89	15.207
521.23	15.199
521.58	14.706
521.92	15.309
522.26	14.338
522.61	15.202
522.95	14.180
523.29	14.973
523.64	15.244
523.98	15.096
524.32	15.320
524.66	14.672
525.01	15.257
525.35	14.498
525.69	14.039
526.04	14.829
526.38	15.131
526.72	15.153
527.06	13.873
527.41	14.356
527.75	15.241
528.09	14.965
528.43	14.978
528.78	16.226
529.12	14.485
529.46	14.574
529.80	15.408
530.15	15.639
530.49	14.400
530.83	15.000
531.17	15.405
531.51	15.629
531.86	15.419
532.20	15.450
532.54	14.734
532.88	14.313
533.22	14.428
533.57	14.938
533.91	14.690
534.25	14.581
534.59	15.619
534.93	14.158
535.27	15.088
535.62	14.713
535.96	14.626
536.30	14.240
536.64	15.390
536.98	14.731
537.32	14.286
537.66	14.800
538.01	15.339
538.35	15.514
538.69	15.316
539.03	14.425
539.37	14.696
539.71	13.610
540.05	14.183
540.39	13.621
540.73	14.683
541.07	15.185
541.42	15.460
541.76	15.355
542.10	14.618
542.44	14.371
542.78	16.008
543.12	14.139
543.46	14.164
543.80	14.249
544.14	14.377
544.48	14.603
544.82	14.753
545.16	15.810
545.50	14.460
545.84	15.457
546.18	15.017
546.52	15.348
546.86	14.502
547.20	15.105
547.54	15.230
547.88	15.880
548.22	15.318
548.56	14.591
548.90	14.661
549.24	14.411
549.58	14.802
549.92	15.247
550.26	15.270
550.60	14.177
550.94	14.648
551.28	13.314
551.62	16.032
551.96	13.895
552.30	15.358
552.64	15.889
552.98	15.254
553.32	15.509
553.66	15.951
554.00	14.619
554.34	14.769
554.68	15.522
555.02	14.880
555.36	14.544
555.69	14.885
556.03	15.410
556.37	14.734
556.71	14.598
557.05	15.196
557.39	13.646
557.73	15.455
558.07	15.518
558.41	14.038
558.75	14.254
559.08	15.585
559.42	15.873
559.76	14.265
560.10	14.704
560.44	14.465
560.78	14.704
561.12	14.842
561.45	14.407
561.79	14.898
562.13	14.554
562.47	15.027
562.81	14.923
563.15	15.184
563.48	15.385
563.82	14.873
564.16	14.585
564.50	13.607
564.84	14.602
565.17	14.414
565.51	13.930
565.85	14.530
566.19	14.152
566.52	15.326
566.86	14.406
567.20	14.623
567.54	15.240
567.88	14.177
568.21	15.026
568.55	15.217
568.89	14.251
569.23	14.082
569.56	14.494
569.90	14.453
570.24	14.639
570.57	14.519
570.91	14.253
571.25	14.052
571.59	14.227
571.92	14.199
572.26	14.067
572.60	14.204
572.93	13.553
573.27	14.315
573.61	14.070
573.95	14.160
574.28	14.322
574.62	14.043
574.96	13.859
575.29	13.749
575.63	13.847
575.97	13.460
576.30	13.861
576.64	13.470
576.98	13.685
577.31	13.586
577.65	13.876
577.98	14.093
578.32	13.483
578.66	14.214
578.99	13.559
579.33	13.266
579.67	13.549
580.00	13.306
580.34	13.574
580.67	13.779
581.01	13.852
581.35	14.031
581.68	13.948
582.02	13.713
582.35	14.087
582.69	14.023
583.02	13.706
583.36	13.719
583.70	13.287
584.03	13.323
584.37	13.676
584.70	13.454
585.04	13.772
585.37	13.583
585.71	14.074
586.04	14.061
586.38	13.584
586.72	14.029
587.05	13.719
587.39	13.562
587.72	14.300
588.06	13.661
588.39	14.047
588.73	13.846
589.06	13.836
589.40	13.468
589.73	13.622
590.07	13.915
590.40	13.628
590.73	13.505
591.07	13.675
591.40	14.382
591.74	14.026
592.07	14.005
592.41	13.973
592.74	14.232
593.08	14.590
593.41	14.046
593.75	13.741
594.08	14.381
594.41	14.210
594.75	14.122
595.08	13.851
595.42	13.835
595.75	14.209
596.09	14.345
596.42	14.106
596.75	14.141
597.09	14.459
597.42	13.449
597.75	14.317
598.09	13.783
598.42	13.875
598.76	13.985
599.09	14.291
599.42	14.192
599.76	14.788
600.09	14.062
600.42	14.244
600.76	13.821
601.09	13.916
601.42	14.117
601.76	13.852
602.09	13.557
602.42	14.172
602.76	14.188
603.09	13.965
603.42	14.487
603.76	13.872
604.09	13.765
604.42	13.861
604.76	14.509
605.09	13.543
605.42	13.767
605.75	14.197
606.09	13.542
606.42	14.262
606.75	14.226
607.09	14.650
607.42	14.292
607.75	13.291
608.08	14.329
608.42	14.657
608.75	13.390
609.08	13.969
609.41	13.946
609.75	14.388
610.08	14.467
610.41	14.525
610.74	13.955
611.07	14.180
611.41	14.720
611.74	14.429
612.07	14.337
612.40	14.376
612.73	13.737
613.07	14.116
613.40	14.534
613.73	13.582
614.06	13.871
614.39	14.263
614.72	14.579
615.06	14.601
615.39	13.747
615.72	14.059
616.05	14.141
616.38	14.397
616.71	14.608
617.05	14.959
617.38	13.830
617.71	14.414
618.04	14.483
618.37	14.311
618.70	15.557
619.03	15.132
619.36	14.460
619.69	14.789
620.03	15.179
620.36	15.976
620.69	15.411
621.02	13.127
621.35	14.330
621.68	13.551
622.01	15.248
622.34	14.145
622.67	15.209
623.00	13.353
623.33	14.224
623.66	14.153
623.99	14.212
624.32	14.765
624.65	14.619
624.99	13.881
625.32	14.048
625.65	14.951
625.98	14.604
626.31	15.474
626.64	13.959
626.97	14.796
627.30	14.464
627.63	15.915
627.96	15.139
628.29	15.398
628.62	14.639
628.95	16.792
629.28	14.234
629.61	15.582
629.94	15.619
630.26	14.204
630.59	15.539
630.92	15.709
631.25	14.215
