SpectraSuite Data File
++++++++++++++++++++++++++++++++++++
Date: Wed May 13 20:32:34 PDT 2015
User: schluterlab
Dark Spectrum Present: Yes
Reference Spectrum Present: Yes
Number of Sampled Component Spectra: 1
Spectrometers: USB2E3373
Integration Time (usec): 3000 (USB2E3373)
Spectra Averaged: 3 (USB2E3373)
Boxcar Smoothing: 0 (USB2E3373)
Correct for Electrical Dark: No (USB2E3373)
Strobe/Lamp Enabled: No (USB2E3373)
Correct for Detector Non-linearity: No (USB2E3373)
Correct for Stray Light: No (USB2E3373)
Number of Pixels in Processed Spectrum: 2048
>>>>>Begin Processed Spectral Data<<<<<
178.53	0.000
178.91	-775.000
179.29	-1100.000
179.67	-211.111
180.04	-925.000
180.42	2000.000
180.80	740.000
181.18	-450.000
181.56	514.286
181.94	0.000
182.31	-385.714
182.69	1233.333
183.07	-375.000
183.45	-433.333
183.83	436.364
184.20	-210.000
184.58	1800.000
184.96	4500.000
185.34	-660.000
185.72	-500.000
186.09	-1900.000
186.47	1900.000
186.85	1850.000
187.23	3900.000
187.61	-1500.000
187.98	975.000
188.36	454.545
188.74	390.909
189.12	-740.000
189.49	440.000
189.87	-3700.000
190.25	-725.000
190.63	278.571
191.00	407.692
191.38	783.333
191.76	-725.000
192.14	1000.000
192.51	637.500
192.89	600.000
193.27	512.500
193.65	-900.000
194.02	480.000
194.40	800.000
194.78	410.000
195.15	366.667
195.53	480.000
195.91	-1900.000
196.29	243.750
196.66	268.421
197.04	-210.000
197.42	0.000
197.79	420.000
198.17	-3800.000
198.55	485.714
198.92	562.500
199.30	800.000
199.68	0.000
200.05	283.333
200.43	557.143
200.81	3900.000
201.18	1133.333
201.56	-1200.000
201.94	333.333
202.31	433.333
202.69	350.000
203.07	390.000
203.44	0.000
203.82	925.000
204.19	600.000
204.57	285.714
204.95	437.500
205.32	1100.000
205.70	472.727
206.08	292.857
206.45	1950.000
206.83	268.750
207.20	700.000
207.58	540.000
207.96	238.889
208.33	462.500
208.71	-583.333
209.08	742.857
209.46	466.667
209.84	327.273
210.21	-1033.333
210.59	1150.000
210.96	-362.500
211.34	1850.000
211.71	490.000
212.09	366.667
212.46	0.000
212.84	1366.667
213.22	950.000
213.59	-3900.000
213.97	616.667
214.34	642.857
214.72	490.909
215.09	700.000
215.47	-2100.000
215.84	-2000.000
216.22	1166.667
216.59	292.857
216.97	1100.000
217.34	427.273
217.72	-450.000
218.09	0.000
218.47	-3300.000
218.84	477.778
219.22	671.429
219.59	1133.333
219.97	-485.714
220.34	720.000
220.72	-1300.000
221.09	371.429
221.47	950.000
221.84	-750.000
222.22	0.000
222.59	1050.000
222.97	-2050.000
223.34	900.000
223.72	361.538
224.09	880.000
224.46	1750.000
224.84	-3600.000
225.21	-1000.000
225.59	-3100.000
225.96	570.000
226.34	240.000
226.71	1900.000
227.08	462.500
227.46	460.000
227.83	-750.000
228.21	-1650.000
228.58	500.000
228.95	-2200.000
229.33	-1750.000
229.70	1333.333
230.08	600.000
230.45	-700.000
230.82	383.333
231.20	716.667
231.57	457.143
231.95	466.667
232.32	163.636
232.69	281.818
233.07	542.857
233.44	253.846
233.81	-1266.667
234.19	231.579
234.56	341.667
234.93	366.667
235.31	345.455
235.68	261.538
236.05	292.857
236.43	136.364
236.80	252.632
237.17	3100.000
237.55	204.762
237.92	200.000
238.29	242.857
238.67	158.065
239.04	179.310
239.41	130.556
239.79	119.565
240.16	135.714
240.53	127.273
240.91	115.686
241.28	108.000
241.65	130.000
242.02	104.348
242.40	101.613
242.77	86.667
243.14	96.774
243.51	94.382
243.89	77.647
244.26	83.333
244.63	81.720
245.00	74.468
245.38	78.218
245.75	75.701
246.12	73.394
246.49	70.803
246.87	76.000
247.24	78.462
247.61	72.143
247.98	71.895
248.36	77.027
248.73	71.338
249.10	68.790
249.47	66.667
249.84	65.241
250.22	64.706
250.59	66.864
250.96	66.162
251.33	59.716
251.70	62.871
252.08	61.905
252.45	59.641
252.82	55.217
253.19	64.255
253.56	55.686
253.94	60.581
254.31	60.547
254.68	65.385
255.05	57.565
255.42	56.098
255.79	57.721
256.16	58.123
256.54	53.004
256.91	61.922
257.28	56.115
257.65	54.125
258.02	53.106
258.39	55.836
258.76	57.191
259.14	56.250
259.51	52.584
259.88	51.242
260.25	51.662
260.62	52.023
260.99	54.658
261.36	57.357
261.73	56.447
262.10	54.942
262.47	56.620
262.85	52.368
263.22	53.846
263.59	52.137
263.96	53.571
264.33	52.742
264.70	54.474
265.07	53.964
265.44	54.545
265.81	52.068
266.18	53.266
266.55	52.439
266.92	51.843
267.29	51.389
267.66	55.046
268.03	49.091
268.40	52.336
268.77	52.029
269.14	48.423
269.51	50.790
269.88	51.282
270.25	53.273
270.62	51.461
270.99	52.043
271.36	51.073
271.73	51.636
272.10	50.217
272.47	51.183
272.84	53.247
273.21	47.379
273.58	47.817
273.95	49.476
274.32	47.314
274.69	50.749
275.06	48.425
275.43	51.915
275.80	50.301
276.17	47.251
276.54	50.936
276.91	47.628
277.28	49.805
277.65	51.838
278.02	51.553
278.39	50.977
278.76	46.182
279.13	49.245
279.50	48.976
279.87	47.809
280.23	51.098
280.60	47.389
280.97	49.908
281.34	46.726
281.71	48.545
282.08	50.096
282.45	48.364
282.82	48.313
283.19	46.168
283.56	47.018
283.92	48.731
284.29	46.914
284.66	47.550
285.03	47.740
285.40	46.303
285.77	46.465
286.14	46.459
286.51	45.500
286.87	48.034
287.24	46.906
287.61	43.178
287.98	45.779
288.35	43.265
288.72	42.991
289.08	45.227
289.45	45.305
289.82	44.715
290.19	42.072
290.56	42.266
290.93	40.634
291.29	41.564
291.66	42.478
292.03	42.151
292.40	43.172
292.77	40.533
293.13	40.149
293.50	42.711
293.87	41.037
294.24	39.407
294.60	40.466
294.97	40.988
295.34	39.915
295.71	40.341
296.08	40.598
296.44	38.927
296.81	38.309
297.18	40.108
297.55	37.467
297.91	39.050
298.28	38.420
298.65	38.773
299.02	39.789
299.38	38.114
299.75	35.984
300.12	37.676
300.48	37.875
300.85	35.388
301.22	35.924
301.59	35.606
301.95	37.028
302.32	35.944
302.69	35.364
303.05	36.121
303.42	35.062
303.79	36.014
304.15	33.916
304.52	35.574
304.89	35.540
305.25	35.151
305.62	34.768
305.99	36.718
306.35	36.801
306.72	35.202
307.09	37.403
307.45	38.176
307.82	34.598
308.19	35.762
308.55	37.217
308.92	38.131
309.29	35.692
309.65	34.571
310.02	35.729
310.38	36.344
310.75	36.959
311.12	36.438
311.48	36.155
311.85	38.784
312.22	37.461
312.58	37.942
312.95	38.015
313.31	36.602
313.68	39.085
314.05	40.138
314.41	40.201
314.78	39.678
315.14	39.523
315.51	38.723
315.87	38.911
316.24	40.616
316.61	39.766
316.97	41.585
317.34	42.564
317.70	42.734
318.07	44.081
318.43	45.108
318.80	44.799
319.16	44.350
319.53	42.495
319.89	46.190
320.26	47.300
320.62	47.024
320.99	45.859
321.35	47.475
321.72	50.205
322.08	48.667
322.45	51.741
322.81	50.678
323.18	53.179
323.54	51.206
323.91	50.377
324.27	52.294
324.64	51.724
325.00	53.742
325.37	53.412
325.73	53.142
326.10	53.663
326.46	52.867
326.83	54.271
327.19	55.423
327.56	56.098
327.92	56.780
328.29	57.409
328.65	56.722
329.01	56.859
329.38	56.152
329.74	57.802
330.11	57.493
330.47	58.310
330.84	56.342
331.20	58.197
331.56	56.330
331.93	59.074
332.29	58.385
332.66	59.735
333.02	58.684
333.38	59.169
333.75	60.071
334.11	58.363
334.48	59.450
334.84	58.272
335.20	59.364
335.57	60.199
335.93	57.143
336.29	59.066
336.66	59.152
337.02	58.281
337.38	60.648
337.75	57.398
338.11	59.624
338.47	60.681
338.84	59.120
339.20	60.917
339.56	59.124
339.93	59.000
340.29	57.790
340.65	58.913
341.02	59.075
341.38	60.409
341.74	58.421
342.11	58.079
342.47	58.767
342.83	58.219
343.20	58.788
343.56	57.540
343.92	58.421
344.28	57.908
344.65	57.524
345.01	57.660
345.37	56.175
345.73	57.614
346.10	57.801
346.46	56.271
346.82	57.249
347.19	56.725
347.55	56.568
347.91	57.282
348.27	58.258
348.63	56.689
349.00	56.634
349.36	56.568
349.72	56.776
350.08	54.700
350.45	56.957
350.81	55.808
351.17	55.997
351.53	55.446
351.89	54.290
352.26	55.406
352.62	56.135
352.98	56.159
353.34	56.615
353.70	53.273
354.07	54.919
354.43	53.571
354.79	53.580
355.15	54.589
355.51	54.996
355.87	56.000
356.24	54.397
356.60	54.771
356.96	56.315
357.32	53.966
357.68	53.228
358.04	53.207
358.40	53.919
358.77	53.678
359.13	53.591
359.49	53.255
359.85	53.333
360.21	53.429
360.57	54.008
360.93	53.462
361.29	51.474
361.66	52.941
362.02	52.910
362.38	53.004
362.74	53.125
363.10	51.295
363.46	51.211
363.82	51.776
364.18	50.587
364.54	53.120
364.90	51.912
365.26	51.176
365.62	51.644
365.98	50.840
366.35	50.287
366.71	51.916
367.07	51.639
367.43	51.742
367.79	53.819
368.15	51.940
368.51	50.363
368.87	51.392
369.23	52.231
369.59	51.484
369.95	50.882
370.31	50.000
370.67	49.130
371.03	51.610
371.39	50.437
371.75	50.735
372.11	49.644
372.47	51.320
372.83	51.225
373.19	50.072
373.55	49.298
373.91	50.736
374.27	48.454
374.63	49.091
374.99	49.435
375.35	50.314
375.71	49.897
376.07	50.069
376.42	49.725
376.78	50.828
377.14	48.779
377.50	50.397
377.86	48.604
378.22	49.305
378.58	47.807
378.94	48.523
379.30	48.728
379.66	48.160
380.02	48.894
380.38	48.755
380.74	49.220
381.09	48.105
381.45	49.047
381.81	48.649
382.17	47.516
382.53	48.113
382.89	49.198
383.25	48.155
383.61	47.955
383.97	48.468
384.32	47.037
384.68	47.522
385.04	47.265
385.40	48.297
385.76	47.727
386.12	48.769
386.48	48.395
386.83	47.595
387.19	48.794
387.55	46.939
387.91	47.098
388.27	47.272
388.62	46.835
388.98	46.990
389.34	47.747
389.70	46.352
390.06	48.162
390.42	46.757
390.77	46.819
391.13	48.500
391.49	46.383
391.85	46.595
392.20	46.498
392.56	45.896
392.92	46.439
393.28	46.923
393.64	45.743
393.99	46.793
394.35	46.030
394.71	45.609
395.07	45.483
395.42	46.848
395.78	46.120
396.14	45.065
396.50	47.744
396.85	47.298
397.21	45.191
397.57	46.621
397.92	45.373
398.28	44.899
398.64	45.042
399.00	45.831
399.35	44.332
399.71	44.734
400.07	45.240
400.42	46.871
400.78	46.200
401.14	45.000
401.49	45.612
401.85	45.009
402.21	43.952
402.57	45.342
402.92	45.397
403.28	45.222
403.63	45.359
403.99	45.605
404.35	45.273
404.70	44.484
405.06	45.020
405.42	45.041
405.77	43.829
406.13	44.752
406.49	44.826
406.84	43.768
407.20	43.735
407.55	44.927
407.91	45.400
408.27	44.735
408.62	44.913
408.98	44.363
409.34	45.141
409.69	45.097
410.05	44.672
410.40	43.303
410.76	43.668
411.11	44.210
411.47	43.578
411.83	43.616
412.18	44.774
412.54	44.707
412.89	44.759
413.25	43.743
413.60	44.348
413.96	43.473
414.31	43.864
414.67	44.487
415.03	43.841
415.38	44.137
415.74	44.116
416.09	44.546
416.45	43.641
416.80	43.490
417.16	44.906
417.51	44.791
417.87	44.509
418.22	45.174
418.58	44.674
418.93	44.779
419.29	43.921
419.64	44.962
420.00	43.720
420.35	44.174
420.71	44.770
421.06	43.735
421.42	44.152
421.77	44.226
422.12	43.852
422.48	43.281
422.83	44.554
423.19	43.425
423.54	44.689
423.90	43.362
424.25	44.500
424.61	43.631
424.96	45.131
425.31	44.795
425.67	44.101
426.02	43.886
426.38	44.872
426.73	43.768
427.09	45.228
427.44	44.623
427.79	44.221
428.15	44.821
428.50	44.705
428.85	44.696
429.21	43.898
429.56	43.805
429.92	44.187
430.27	43.793
430.62	44.649
430.98	44.577
431.33	43.454
431.68	45.707
432.04	43.717
432.39	44.660
432.74	44.524
433.10	44.086
433.45	45.539
433.80	44.124
434.16	44.765
434.51	44.947
434.86	44.926
435.22	45.748
435.57	47.112
435.92	44.353
436.28	45.433
436.63	46.026
436.98	44.419
437.34	46.035
437.69	45.624
438.04	45.868
438.39	46.149
438.75	45.845
439.10	45.698
439.45	45.277
439.81	44.773
440.16	45.455
440.51	46.104
440.86	46.207
441.22	44.994
441.57	45.488
441.92	45.445
442.27	45.694
442.63	45.498
442.98	46.197
443.33	46.848
443.68	46.773
444.03	46.022
444.39	45.083
444.74	47.132
445.09	46.577
445.44	46.528
445.79	45.374
446.15	46.321
446.50	46.042
446.85	45.735
447.20	45.691
447.55	46.845
447.91	46.056
448.26	46.578
448.61	46.863
448.96	46.899
449.31	47.694
449.66	46.258
450.02	47.019
450.37	45.918
450.72	47.603
451.07	47.105
451.42	45.593
451.77	47.093
452.12	46.247
452.47	47.512
452.83	47.494
453.18	46.944
453.53	47.310
453.88	47.667
454.23	47.519
454.58	48.213
454.93	47.616
455.28	46.883
455.63	47.633
455.98	49.048
456.34	47.173
456.69	48.341
457.04	48.793
457.39	47.224
457.74	48.752
458.09	46.981
458.44	46.636
458.79	46.909
459.14	47.686
459.49	47.869
459.84	47.424
460.19	46.847
460.54	46.991
460.89	48.162
461.24	48.087
461.59	49.157
461.94	47.904
462.29	47.893
462.64	46.841
462.99	47.495
463.34	49.133
463.69	48.468
464.04	47.594
464.39	47.130
464.74	47.950
465.09	48.251
465.44	47.922
465.79	47.260
466.14	47.017
466.49	46.607
466.84	49.095
467.19	47.133
467.54	49.125
467.89	47.239
468.24	48.168
468.59	48.413
468.94	46.976
469.29	48.907
469.64	47.456
469.99	49.256
470.34	48.811
470.68	49.497
471.03	49.932
471.38	49.062
471.73	48.101
472.08	49.539
472.43	49.058
472.78	49.704
473.13	48.395
473.48	47.940
473.83	49.451
474.17	49.035
474.52	49.256
474.87	49.329
475.22	48.752
475.57	47.233
475.92	48.380
476.27	48.703
476.61	48.649
476.96	48.873
477.31	49.555
477.66	48.742
478.01	47.151
478.36	48.810
478.70	47.664
479.05	48.349
479.40	49.488
479.75	48.348
480.10	47.714
480.45	47.596
480.79	47.635
481.14	49.315
481.49	48.220
481.84	48.240
482.19	49.341
482.53	48.303
482.88	49.000
483.23	49.019
483.58	47.953
483.92	49.438
484.27	47.930
484.62	49.095
484.97	47.497
485.31	49.007
485.66	45.674
486.01	45.947
486.36	46.246
486.70	47.108
487.05	47.812
487.40	48.085
487.75	48.083
488.09	49.500
488.44	48.732
488.79	50.452
489.13	49.198
489.48	48.736
489.83	49.417
490.17	49.759
490.52	48.539
490.87	49.118
491.22	48.522
491.56	48.702
491.91	49.511
492.26	47.864
492.60	47.972
492.95	48.457
493.30	48.364
493.64	49.790
493.99	49.582
494.34	48.751
494.68	49.908
495.03	49.624
495.37	48.395
495.72	49.513
496.07	49.002
496.41	47.788
496.76	49.340
497.11	48.357
497.45	49.744
497.80	49.616
498.14	49.372
498.49	50.195
498.84	49.185
499.18	49.619
499.53	50.617
499.87	49.767
500.22	49.929
500.56	50.631
500.91	49.519
501.26	49.360
501.60	50.736
501.95	49.267
502.29	50.047
502.64	50.698
502.98	49.135
503.33	48.172
503.67	48.956
504.02	49.673
504.36	49.368
504.71	50.171
505.06	49.590
505.40	49.246
505.75	49.229
506.09	48.980
506.44	49.285
506.78	49.245
507.13	50.883
507.47	49.293
507.82	50.456
508.16	50.051
508.51	51.142
508.85	49.404
509.19	50.357
509.54	49.796
509.88	50.026
510.23	49.871
510.57	51.806
510.92	50.129
511.26	49.846
511.61	50.882
511.95	49.113
512.30	49.682
512.64	50.510
512.98	50.804
513.33	50.375
513.67	49.146
514.02	49.242
514.36	51.229
514.70	50.913
515.05	50.530
515.39	49.635
515.74	51.126
516.08	50.475
516.42	50.721
516.77	50.000
517.11	50.055
517.46	51.016
517.80	51.336
518.14	50.261
518.49	51.284
518.83	50.455
519.17	50.808
519.52	51.104
519.86	50.713
520.20	52.543
520.55	51.646
520.89	51.582
521.23	51.508
521.58	50.840
521.92	51.562
522.26	50.275
522.61	51.153
522.95	51.504
523.29	50.700
523.64	51.098
523.98	51.694
524.32	51.930
524.66	51.293
525.01	51.287
525.35	50.743
525.69	50.308
526.04	52.648
526.38	50.031
526.72	51.472
527.06	51.789
527.41	50.433
527.75	52.605
528.09	51.317
528.43	50.924
528.78	50.891
529.12	51.091
529.46	53.215
529.80	53.527
530.15	52.960
530.49	50.646
530.83	51.899
531.17	53.786
531.51	53.437
531.86	52.516
532.20	53.064
532.54	52.146
532.88	51.861
533.22	51.905
533.57	51.235
533.91	49.910
534.25	51.883
534.59	52.410
534.93	51.279
535.27	53.168
535.62	52.137
535.96	52.856
536.30	51.748
536.64	52.930
536.98	52.356
537.32	52.535
537.66	52.800
538.01	53.061
538.35	52.877
538.69	52.776
539.03	52.307
539.37	52.204
539.71	52.884
540.05	53.007
540.39	52.093
540.73	53.040
541.07	53.472
541.42	53.686
541.76	53.935
542.10	53.169
542.44	53.377
542.78	54.282
543.12	52.207
543.46	53.049
543.80	54.131
544.14	53.338
544.48	53.651
544.82	53.945
545.16	53.676
545.50	53.278
545.84	53.427
546.18	54.949
546.52	52.719
546.86	54.296
547.20	53.473
547.54	54.643
547.88	54.082
548.22	53.425
548.56	52.893
548.90	52.369
549.24	54.141
549.58	53.479
549.92	55.357
550.26	53.977
550.60	52.974
550.94	52.254
551.28	53.621
551.62	53.846
551.96	53.053
552.30	54.130
552.64	53.820
552.98	53.356
553.32	53.068
553.66	55.147
554.00	55.251
554.34	53.416
554.68	55.079
555.02	54.654
555.36	54.210
555.69	51.759
556.03	53.567
556.37	55.116
556.71	53.138
557.05	53.711
557.39	53.674
557.73	54.411
558.07	56.345
558.41	54.848
558.75	55.327
559.08	54.362
559.42	57.218
559.76	54.779
560.10	53.605
560.44	54.158
560.78	54.358
561.12	53.760
561.45	54.172
561.79	52.802
562.13	53.991
562.47	53.893
562.81	56.974
563.15	54.314
563.48	53.647
563.82	55.838
564.16	55.199
564.50	55.013
564.84	54.046
565.17	54.505
565.51	54.121
565.85	54.759
566.19	54.853
566.52	56.048
566.86	53.044
567.20	55.130
567.54	54.909
567.88	53.938
568.21	55.026
568.55	55.207
568.89	54.961
569.23	53.520
569.56	53.522
569.90	54.113
570.24	54.718
570.57	54.539
570.91	53.394
571.25	54.293
571.59	54.080
571.92	54.263
572.26	53.437
572.60	54.324
572.93	53.943
573.27	53.653
573.61	54.104
573.95	53.953
574.28	54.397
574.62	53.887
574.96	53.286
575.29	53.807
575.63	53.786
575.97	53.554
576.30	53.877
576.64	53.222
576.98	53.986
577.31	53.604
577.65	54.311
577.98	54.584
578.32	53.535
578.66	54.193
578.99	54.440
579.33	54.733
579.67	53.758
580.00	54.807
580.34	54.248
580.67	54.786
581.01	54.913
581.35	54.408
581.68	54.082
582.02	53.909
582.35	54.882
582.69	54.937
583.02	55.032
583.36	56.306
583.70	56.244
584.03	55.016
584.37	56.680
584.70	55.904
585.04	54.697
585.37	55.009
585.71	55.028
586.04	55.545
586.38	55.799
586.72	54.957
587.05	55.039
587.39	54.776
587.72	55.243
588.06	56.457
588.39	56.104
588.73	56.057
589.06	56.653
589.40	56.734
589.73	56.529
590.07	55.765
590.40	55.974
590.73	57.299
591.07	57.957
591.40	57.107
591.74	57.576
592.07	56.850
592.41	55.850
592.74	56.067
593.08	56.096
593.41	56.311
593.75	54.778
594.08	56.219
594.41	56.239
594.75	56.340
595.08	55.691
595.42	56.673
595.75	56.873
596.09	57.642
596.42	57.014
596.75	56.817
597.09	57.056
597.42	55.565
597.75	57.094
598.09	56.913
598.42	56.186
598.76	54.966
599.09	55.644
599.42	55.859
599.76	56.991
600.09	55.920
600.42	56.209
600.76	55.893
601.09	56.503
601.42	57.610
601.76	56.319
602.09	56.601
602.42	57.723
602.76	56.993
603.09	56.137
603.42	56.970
603.76	56.707
604.09	55.913
604.42	58.418
604.76	57.992
605.09	56.837
605.42	56.306
605.75	57.119
606.09	56.649
606.42	58.153
606.75	56.781
607.09	56.928
607.42	58.151
607.75	56.456
608.08	57.099
608.42	58.091
608.75	57.078
609.08	56.707
609.41	57.068
609.75	56.837
610.08	57.116
610.41	57.402
610.74	58.325
611.07	58.547
611.41	57.851
611.74	59.125
612.07	58.592
612.40	59.286
612.73	57.789
613.07	58.782
613.40	59.136
613.73	57.525
614.06	57.796
614.39	56.529
614.72	57.526
615.06	56.880
615.39	58.068
615.72	56.391
616.05	58.001
616.38	59.978
616.71	59.145
617.05	59.658
617.38	58.388
617.71	59.700
618.04	60.096
618.37	58.250
618.70	58.805
619.03	60.066
619.36	59.199
619.69	59.366
620.03	59.684
620.36	59.091
620.69	60.616
621.02	60.693
621.35	59.984
621.68	59.034
622.01	59.133
622.34	58.926
622.67	59.620
623.00	58.547
623.33	58.113
623.66	60.043
623.99	59.794
624.32	58.274
624.65	60.734
624.99	58.215
625.32	58.943
625.65	59.579
625.98	60.723
626.31	58.709
626.64	60.163
626.97	60.765
627.30	59.767
627.63	59.967
627.96	60.303
628.29	59.930
628.62	60.476
628.95	61.415
629.28	59.672
629.61	60.128
629.94	62.286
630.26	61.392
630.59	59.962
630.92	59.674
631.25	60.809
