SpectraSuite Data File
++++++++++++++++++++++++++++++++++++
Date: Wed May 13 20:24:47 PDT 2015
User: schluterlab
Dark Spectrum Present: Yes
Reference Spectrum Present: Yes
Number of Sampled Component Spectra: 1
Spectrometers: USB2E3373
Integration Time (usec): 3000 (USB2E3373)
Spectra Averaged: 3 (USB2E3373)
Boxcar Smoothing: 0 (USB2E3373)
Correct for Electrical Dark: No (USB2E3373)
Strobe/Lamp Enabled: No (USB2E3373)
Correct for Detector Non-linearity: No (USB2E3373)
Correct for Stray Light: No (USB2E3373)
Number of Pixels in Processed Spectrum: 2048
>>>>>Begin Processed Spectral Data<<<<<
178.53	0.000
178.91	-1025.000
179.29	-1050.000
179.67	-233.333
180.04	-1325.000
180.42	2300.000
180.80	880.000
181.18	-925.000
181.56	657.143
181.94	0.000
182.31	-514.286
182.69	1800.000
183.07	-625.000
183.45	-488.889
183.83	509.091
184.20	-360.000
184.58	2350.000
184.96	5200.000
185.34	-780.000
185.72	-637.500
186.09	-2450.000
186.47	2300.000
186.85	2350.000
187.23	4900.000
187.61	-1733.333
187.98	1350.000
188.36	527.273
188.74	490.909
189.12	-1020.000
189.49	520.000
189.87	-5300.000
190.25	-1125.000
190.63	442.857
191.00	384.615
191.38	833.333
191.76	-925.000
192.14	1375.000
192.51	550.000
192.89	900.000
193.27	587.500
193.65	-1275.000
194.02	450.000
194.40	740.000
194.78	460.000
195.15	491.667
195.53	590.000
195.91	-2100.000
196.29	325.000
196.66	247.368
197.04	-330.000
197.42	0.000
197.79	570.000
198.17	-5200.000
198.55	585.714
198.92	700.000
199.30	980.000
199.68	0.000
200.05	350.000
200.43	771.429
200.81	4900.000
201.18	1666.667
201.56	-1266.667
201.94	688.889
202.31	577.778
202.69	550.000
203.07	600.000
203.44	0.000
203.82	1275.000
204.19	785.714
204.57	442.857
204.95	612.500
205.32	1666.667
205.70	572.727
206.08	328.571
206.45	2800.000
206.83	337.500
207.20	933.333
207.58	660.000
207.96	288.889
208.33	687.500
208.71	-783.333
209.08	785.714
209.46	511.111
209.84	427.273
210.21	-1333.333
210.59	1175.000
210.96	-462.500
211.34	2450.000
211.71	680.000
212.09	950.000
212.46	0.000
212.84	1566.667
213.22	1075.000
213.59	-5100.000
213.97	900.000
214.34	957.143
214.72	572.727
215.09	920.000
215.47	-2350.000
215.84	-2200.000
216.22	1833.333
216.59	407.143
216.97	1200.000
217.34	500.000
217.72	-650.000
218.09	0.000
218.47	-4900.000
218.84	622.222
219.22	742.857
219.59	1633.333
219.97	-614.286
220.34	1060.000
220.72	-1800.000
221.09	428.571
221.47	1675.000
221.84	-866.667
222.22	0.000
222.59	1500.000
222.97	-2550.000
223.34	1120.000
223.72	384.615
224.09	1040.000
224.46	1950.000
224.84	-4500.000
225.21	-980.000
225.59	-6000.000
225.96	610.000
226.34	275.000
226.71	2400.000
227.08	625.000
227.46	550.000
227.83	-1175.000
228.21	-2250.000
228.58	522.222
228.95	-2450.000
229.33	-2800.000
229.70	2100.000
230.08	857.143
230.45	-600.000
230.82	425.000
231.20	1050.000
231.57	642.857
231.95	500.000
232.32	186.364
232.69	563.636
233.07	657.143
233.44	369.231
233.81	-1566.667
234.19	342.105
234.56	408.333
234.93	366.667
235.31	518.182
235.68	392.308
236.05	414.286
236.43	196.970
236.80	278.947
237.17	4000.000
237.55	295.238
237.92	250.000
238.29	261.905
238.67	180.645
239.04	196.552
239.41	180.556
239.79	136.957
240.16	178.571
240.53	168.182
240.91	131.373
241.28	152.000
241.65	142.000
242.02	131.884
242.40	120.968
242.77	133.333
243.14	96.774
243.51	108.989
243.89	109.412
244.26	94.444
244.63	102.151
245.00	95.745
245.38	89.109
245.75	91.589
246.12	79.817
246.49	91.241
246.87	95.200
247.24	90.000
247.61	82.857
247.98	75.163
248.36	84.459
248.73	75.796
249.10	77.070
249.47	71.751
249.84	71.658
250.22	71.123
250.59	76.331
250.96	77.778
251.33	73.460
251.70	73.762
252.08	73.810
252.45	69.507
252.82	66.087
253.19	68.936
253.56	67.059
253.94	70.954
254.31	67.188
254.68	67.308
255.05	67.528
255.42	67.480
255.79	66.544
256.16	64.982
256.54	62.898
256.91	67.972
257.28	62.950
257.65	65.347
258.02	66.149
258.39	60.252
258.76	62.876
259.14	62.500
259.51	61.702
259.88	61.801
260.25	67.069
260.62	58.960
260.99	65.217
261.36	66.667
261.73	61.891
262.10	59.302
262.47	62.817
262.85	56.825
263.22	59.829
263.59	62.393
263.96	62.363
264.33	55.091
264.70	62.895
265.07	58.568
265.44	59.596
265.81	56.204
266.18	59.045
266.55	59.512
266.92	58.722
267.29	58.333
267.66	56.881
268.03	54.545
268.40	58.178
268.77	57.041
269.14	56.081
269.51	57.562
269.88	58.974
270.25	58.014
270.62	56.404
270.99	58.065
271.36	54.721
271.73	56.308
272.10	54.348
272.47	60.645
272.84	56.277
273.21	53.040
273.58	55.459
273.95	55.136
274.32	53.926
274.69	58.887
275.06	54.921
275.43	56.383
275.80	52.906
276.17	54.990
276.54	56.965
276.91	53.360
277.28	54.492
277.65	55.706
278.02	55.072
278.39	52.930
278.76	51.818
279.13	52.830
279.50	51.583
279.87	52.590
280.23	53.293
280.60	55.706
280.97	51.386
281.34	52.566
281.71	52.909
282.08	52.015
282.45	49.818
282.82	54.352
283.19	50.089
283.56	50.175
283.92	52.115
284.29	51.675
284.66	50.272
285.03	52.080
285.40	51.056
285.77	51.852
286.14	51.468
286.51	50.833
286.87	48.718
287.24	50.326
287.61	50.241
287.98	49.838
288.35	48.177
288.72	45.950
289.08	47.731
289.45	47.611
289.82	46.341
290.19	44.898
290.56	46.401
290.93	44.260
291.29	46.933
291.66	45.280
292.03	46.948
292.40	46.549
292.77	44.083
293.13	46.119
293.50	45.627
293.87	44.741
294.24	45.333
294.60	42.213
294.97	41.134
295.34	43.300
295.71	44.460
296.08	43.305
296.44	41.403
296.81	40.819
297.18	42.683
297.55	39.314
297.91	40.765
298.28	42.570
298.65	40.078
299.02	40.580
299.38	41.567
299.75	38.140
300.12	37.676
300.48	38.375
300.85	38.224
301.22	38.726
301.59	38.131
301.95	39.043
302.32	39.281
302.69	37.157
303.05	36.606
303.42	36.914
303.79	37.033
304.15	36.364
304.52	36.964
304.89	36.934
305.25	35.383
305.62	37.259
305.99	38.607
306.35	36.913
306.72	38.341
307.09	36.626
307.45	36.149
307.82	35.826
308.19	35.541
308.55	37.217
308.92	35.338
309.29	35.058
309.65	35.525
310.02	35.729
310.38	34.731
310.75	35.903
311.12	37.052
311.48	35.319
311.85	34.906
312.22	35.484
312.58	34.200
312.95	35.903
313.31	34.854
313.68	36.279
314.05	36.391
314.41	35.477
314.78	34.642
315.14	36.048
315.51	35.427
315.87	35.545
316.24	35.154
316.61	35.673
316.97	36.204
317.34	34.149
317.70	36.711
318.07	35.996
318.43	37.084
318.80	35.895
319.16	36.535
319.53	36.210
319.89	37.810
320.26	39.300
320.62	37.996
320.99	38.081
321.35	38.788
321.72	38.912
322.08	40.276
322.45	43.582
322.81	41.376
323.18	43.064
323.54	42.301
323.91	42.736
324.27	43.499
324.64	41.379
325.00	42.290
325.37	45.496
325.73	43.806
326.10	45.896
326.46	46.237
326.83	45.988
327.19	47.395
327.56	47.997
327.92	48.294
328.29	49.778
328.65	50.000
329.01	50.361
329.38	50.509
329.74	50.785
330.11	52.592
330.47	52.158
330.84	53.125
331.20	53.825
331.56	52.385
331.93	53.426
332.29	52.174
332.66	53.097
333.02	55.759
333.38	54.381
333.75	52.852
334.11	56.495
334.48	54.747
334.84	57.261
335.20	57.182
335.57	56.664
335.93	54.375
336.29	56.044
336.66	57.800
337.02	56.652
337.38	56.667
337.75	56.417
338.11	56.938
338.47	57.551
338.84	58.478
339.20	58.440
339.56	59.033
339.93	58.545
340.29	57.880
340.65	58.289
341.02	59.424
341.38	58.452
341.74	58.509
342.11	58.603
342.47	59.648
342.83	58.562
343.20	59.481
343.56	58.382
343.92	59.737
344.28	59.439
344.65	60.275
345.01	60.017
345.37	59.091
345.73	62.521
346.10	60.443
346.46	60.847
346.82	61.285
347.19	59.148
347.55	60.591
347.91	62.298
348.27	61.873
348.63	61.288
349.00	62.217
349.36	61.823
349.72	61.267
350.08	60.859
350.45	60.781
350.81	62.226
351.17	62.723
351.53	61.835
351.89	62.046
352.26	63.615
352.62	61.989
352.98	64.587
353.34	63.106
353.70	62.930
354.07	62.823
354.43	62.381
354.79	62.671
355.15	63.049
355.51	64.828
355.87	66.041
356.24	65.717
356.60	64.234
356.96	65.728
357.32	65.904
357.68	65.669
358.04	63.975
358.40	65.558
358.77	64.006
359.13	66.377
359.49	67.843
359.85	66.905
360.21	67.783
360.57	67.782
360.93	68.923
361.29	66.138
361.66	67.879
362.02	68.507
362.38	70.494
362.74	69.122
363.10	67.728
363.46	68.599
363.82	69.463
364.18	70.044
364.54	70.802
364.90	70.538
365.26	71.691
365.62	71.950
365.98	70.855
366.35	71.848
366.71	72.017
367.07	71.814
367.43	73.657
367.79	73.733
368.15	74.784
368.51	73.401
368.87	74.375
369.23	74.031
369.59	75.380
369.95	74.044
370.31	74.858
370.67	74.928
371.03	75.805
371.39	76.239
371.75	77.132
372.11	74.609
372.47	76.393
372.83	78.963
373.19	76.662
373.55	79.601
373.91	78.498
374.27	75.945
374.63	79.273
374.99	78.037
375.35	78.297
375.71	79.095
376.07	78.738
376.42	80.674
376.78	80.119
377.14	78.765
377.50	80.596
377.86	79.787
378.22	81.479
378.58	79.950
378.94	81.835
379.30	82.697
379.66	83.947
380.02	82.187
380.38	81.906
380.74	84.034
381.09	83.557
381.45	84.081
381.81	83.784
382.17	84.140
382.53	83.585
382.89	85.185
383.25	86.304
383.61	86.555
383.97	86.492
384.32	85.465
384.68	85.936
385.04	85.065
385.40	85.387
385.76	86.916
386.12	86.852
386.48	88.043
386.83	91.661
387.19	88.312
387.55	87.631
387.91	88.513
388.27	88.841
388.62	89.060
388.98	88.698
389.34	88.924
389.70	89.025
390.06	89.100
390.42	91.115
390.77	88.740
391.13	90.619
391.49	90.165
391.85	91.598
392.20	90.473
392.56	90.972
392.92	90.995
393.28	90.533
393.64	91.607
393.99	89.310
394.35	91.935
394.71	91.593
395.07	90.093
395.42	94.499
395.78	91.603
396.14	89.572
396.50	94.737
396.85	94.596
397.21	90.691
397.57	92.498
397.92	92.668
398.28	90.751
398.64	92.115
399.00	91.718
399.35	91.483
399.71	91.782
400.07	92.726
400.42	92.270
400.78	92.220
401.14	93.537
401.49	93.552
401.85	93.769
402.21	92.156
402.57	92.967
402.92	93.380
403.28	93.567
403.63	93.441
403.99	94.268
404.35	92.242
404.70	93.285
405.06	93.302
405.42	94.323
405.77	92.686
406.13	92.269
406.49	93.436
406.84	92.321
407.20	94.031
407.55	95.022
407.91	94.533
408.27	95.214
408.62	92.956
408.98	94.792
409.34	93.788
409.69	94.194
410.05	93.990
410.40	94.067
410.76	94.205
411.11	93.486
411.47	95.016
411.83	94.380
412.18	92.146
412.54	94.334
412.89	93.976
413.25	93.329
413.60	93.576
413.96	92.228
414.31	93.560
414.67	94.550
415.03	95.430
415.38	92.977
415.74	93.633
416.09	94.513
416.45	93.240
416.80	93.919
417.16	96.046
417.51	95.023
417.87	92.421
418.22	93.754
418.58	92.834
418.93	93.366
419.29	94.971
419.64	93.388
420.00	92.378
420.35	92.116
420.71	94.082
421.06	90.573
421.42	93.333
421.77	91.984
422.12	92.813
422.48	92.876
422.83	94.817
423.19	92.928
423.54	93.848
423.90	93.507
424.25	92.853
424.61	93.155
424.96	93.761
425.31	92.746
425.67	91.180
426.02	93.200
426.38	93.040
426.73	91.808
427.09	94.407
427.44	92.352
427.79	92.352
428.15	92.976
428.50	93.563
428.85	92.133
429.21	92.490
429.56	92.068
429.92	90.136
430.27	91.162
430.62	90.630
430.98	90.763
431.33	92.629
431.68	93.089
432.04	91.161
432.39	92.690
432.74	91.622
433.10	92.303
433.45	92.595
433.80	90.909
434.16	90.278
434.51	91.737
434.86	91.961
435.22	93.997
435.57	92.523
435.92	91.574
436.28	89.858
436.63	91.998
436.98	91.471
437.34	92.725
437.69	92.590
438.04	93.086
438.39	92.955
438.75	91.749
439.10	92.458
439.45	90.968
439.81	91.782
440.16	90.966
440.51	92.267
440.86	91.257
441.22	90.100
441.57	89.915
441.92	91.402
442.27	91.281
442.63	90.521
442.98	91.268
443.33	89.457
443.68	90.449
444.03	90.922
444.39	90.312
444.74	89.935
445.09	90.728
445.44	89.557
445.79	89.708
446.15	89.518
446.50	89.661
446.85	90.493
447.20	89.342
447.55	91.792
447.91	88.858
448.26	88.481
448.61	88.977
448.96	90.421
449.31	88.189
449.66	87.169
450.02	88.747
450.37	87.698
450.72	89.284
451.07	87.142
451.42	87.538
451.77	88.961
452.12	87.182
452.47	87.438
452.83	89.277
453.18	86.675
453.53	88.497
453.88	87.005
454.23	87.926
454.58	89.219
454.93	90.909
455.28	86.783
455.63	87.803
455.98	88.631
456.34	86.307
456.69	87.790
457.04	87.988
457.39	85.096
457.74	85.084
458.09	86.141
458.44	85.918
458.79	84.002
459.14	85.214
459.49	84.997
459.84	84.598
460.19	84.266
460.54	82.407
460.89	85.025
461.24	86.035
461.59	85.938
461.94	85.388
462.29	86.409
462.64	85.003
462.99	83.474
463.34	84.667
463.69	84.303
464.04	82.957
464.39	83.768
464.74	82.888
465.09	85.103
465.44	82.382
465.79	82.271
466.14	81.226
466.49	83.648
466.84	82.720
467.19	82.861
467.54	84.062
467.89	82.113
468.24	81.675
468.59	84.066
468.94	81.307
469.29	83.033
469.64	82.999
469.99	82.070
470.34	82.232
470.68	82.974
471.03	80.204
471.38	82.279
471.73	81.279
472.08	81.316
472.43	80.842
472.78	80.974
473.13	80.231
473.48	80.712
473.83	80.854
474.17	81.021
474.52	81.700
474.87	81.378
475.22	79.629
475.57	78.614
475.92	78.864
476.27	78.354
476.61	78.323
476.96	79.769
477.31	78.755
477.66	79.431
478.01	78.045
478.36	79.323
478.70	78.401
479.05	79.233
479.40	77.840
479.75	78.190
480.10	77.187
480.45	76.916
480.79	78.213
481.14	77.642
481.49	78.548
481.84	75.629
482.19	77.965
482.53	77.798
482.88	77.338
483.23	77.897
483.58	77.843
483.92	77.507
484.27	74.597
484.62	75.000
484.97	75.089
485.31	76.644
485.66	73.918
486.01	73.102
486.36	71.431
486.70	72.548
487.05	74.312
487.40	74.259
487.75	74.754
488.09	77.040
488.44	77.285
488.79	78.409
489.13	76.127
489.48	76.020
489.83	75.399
490.17	75.844
490.52	74.845
490.87	74.401
491.22	74.216
491.56	73.166
491.91	74.919
492.26	73.358
492.60	73.594
492.95	73.340
493.30	72.290
493.64	73.168
493.99	73.073
494.34	72.710
494.68	73.626
495.03	73.449
495.37	72.266
495.72	74.074
496.07	72.900
496.41	71.018
496.76	71.856
497.11	71.724
497.45	72.147
497.80	72.889
498.14	72.126
498.49	73.122
498.84	72.435
499.18	72.524
499.53	71.415
499.87	72.088
500.22	71.550
500.56	73.107
500.91	70.817
501.26	72.072
501.60	72.995
501.95	70.486
502.29	73.571
502.64	71.369
502.98	70.827
503.33	71.252
503.67	70.998
504.02	71.048
504.36	71.034
504.71	70.200
505.06	70.988
505.40	71.123
505.75	69.335
506.09	70.505
506.44	70.844
506.78	70.628
507.13	71.984
507.47	70.657
507.82	70.365
508.16	71.023
508.51	71.385
508.85	70.010
509.19	70.408
509.54	70.459
509.88	70.891
510.23	70.334
510.57	71.775
510.92	71.155
511.26	69.579
511.61	70.591
511.95	69.990
512.30	70.626
512.64	69.640
512.98	70.847
513.33	70.824
513.67	69.264
514.02	68.994
514.36	71.655
514.70	71.444
515.05	70.441
515.39	70.892
515.74	69.932
516.08	69.871
516.42	69.756
516.77	71.460
517.11	70.477
517.46	70.147
517.80	71.196
518.14	69.774
518.49	73.571
518.83	71.080
519.17	70.323
519.52	70.572
519.86	69.994
520.20	70.231
520.55	71.514
520.89	71.229
521.23	70.808
521.58	70.408
521.92	72.382
522.26	69.189
522.61	72.150
522.95	70.411
523.29	71.333
523.64	70.610
523.98	70.425
524.32	70.024
524.66	69.814
525.01	69.669
525.35	70.012
525.69	68.534
526.04	70.966
526.38	70.897
526.72	68.712
527.06	71.877
527.41	67.822
527.75	71.576
528.09	71.741
528.43	69.981
528.78	70.252
529.12	68.909
529.46	69.688
529.80	71.287
530.15	70.218
530.49	68.800
530.83	70.063
531.17	72.389
531.51	72.049
531.86	69.419
532.20	70.404
532.54	69.058
532.88	69.063
533.22	68.707
533.57	68.642
533.91	69.115
534.25	68.469
534.59	69.555
534.93	68.055
535.27	69.342
535.62	69.841
535.96	70.308
536.30	67.451
536.64	69.350
536.98	69.741
537.32	71.034
537.66	70.067
538.01	70.244
538.35	69.425
538.69	69.049
539.03	69.071
539.37	68.115
539.71	66.883
540.05	69.281
540.39	70.897
540.73	67.853
541.07	69.241
541.42	68.167
541.76	68.903
542.10	67.788
542.44	70.000
542.78	69.433
543.12	67.882
543.46	67.803
543.80	69.291
544.14	66.816
544.48	68.571
544.82	68.826
545.16	70.072
545.50	68.123
545.84	69.086
546.18	69.024
546.52	68.823
546.86	68.454
547.20	70.398
547.54	67.936
547.88	68.495
548.22	67.123
548.56	67.610
548.90	67.478
549.24	68.822
549.58	68.076
549.92	68.475
550.26	70.028
550.60	68.119
550.94	66.901
551.28	66.789
551.62	68.584
551.96	66.596
552.30	67.235
552.64	68.357
552.98	68.475
553.32	66.824
553.66	66.803
554.00	69.389
554.34	65.493
554.68	68.169
555.02	67.419
555.36	67.571
555.69	65.291
556.03	66.353
556.37	67.394
556.71	65.757
557.05	66.527
557.39	66.480
557.73	66.267
558.07	67.875
558.41	66.570
558.75	66.789
559.08	65.846
559.42	68.405
559.76	66.324
560.10	64.739
560.44	66.387
560.78	65.070
561.12	64.314
561.45	67.145
561.79	64.667
562.13	65.929
562.47	65.027
562.81	67.573
563.15	65.017
563.48	64.456
563.82	66.341
564.16	65.860
564.50	64.128
564.84	64.159
565.17	65.444
565.51	65.048
565.85	65.228
566.19	63.369
566.52	65.041
566.86	63.653
567.20	64.800
567.54	64.954
567.88	63.661
568.21	64.709
568.55	63.852
568.89	63.570
569.23	63.146
569.56	61.660
569.90	61.925
570.24	62.540
570.57	62.258
570.91	60.407
571.25	61.736
571.59	61.973
571.92	61.406
572.26	61.438
572.60	62.372
572.93	61.289
573.27	61.816
573.61	61.223
573.95	61.214
574.28	61.030
574.62	60.690
574.96	60.932
575.29	61.615
575.63	61.712
575.97	61.260
576.30	61.285
576.64	61.385
576.98	61.449
577.31	61.044
577.65	60.391
577.98	60.716
578.32	60.008
578.66	60.587
578.99	60.922
579.33	60.736
579.67	61.226
580.00	60.825
580.34	61.818
580.67	59.891
581.01	61.187
581.35	60.810
581.68	60.201
582.02	60.119
582.35	60.000
582.69	60.413
583.02	60.808
583.36	61.148
583.70	61.788
584.03	61.520
584.37	62.003
584.70	62.043
585.04	60.739
585.37	59.972
585.71	60.315
586.04	60.063
586.38	61.782
586.72	61.005
587.05	60.201
587.39	60.185
587.72	60.912
588.06	61.073
588.39	60.549
588.73	60.956
589.06	61.514
589.40	61.852
589.73	62.196
590.07	60.676
590.40	60.614
590.73	62.178
591.07	62.312
591.40	61.493
591.74	62.338
592.07	60.689
592.41	60.562
592.74	59.625
593.08	59.127
593.41	60.044
593.75	58.745
594.08	59.671
594.41	60.728
594.75	60.074
595.08	59.807
595.42	61.471
595.75	60.933
596.09	61.735
596.42	60.786
596.75	60.659
597.09	61.082
597.42	58.727
597.75	60.457
598.09	60.304
598.42	60.052
598.76	59.789
599.09	59.293
599.42	58.624
599.76	59.627
600.09	58.142
600.42	59.679
600.76	58.214
601.09	59.854
601.42	59.513
601.76	59.848
602.09	60.474
602.42	60.191
602.76	60.056
603.09	60.307
603.42	60.094
603.76	59.489
604.09	58.976
604.42	59.723
604.76	59.890
605.09	60.463
605.42	59.213
605.75	58.568
606.09	59.089
606.42	60.441
606.75	59.104
607.09	59.272
607.42	59.178
607.75	58.017
608.08	59.227
608.42	59.032
608.75	59.017
609.08	58.973
609.41	58.639
609.75	57.646
610.08	59.849
610.41	58.752
610.74	59.839
611.07	60.128
611.41	59.225
611.74	59.075
612.07	60.559
612.40	60.651
612.73	58.789
613.07	60.453
613.40	59.347
613.73	59.150
614.06	59.355
614.39	57.735
614.72	58.895
615.06	58.351
615.39	59.342
615.72	58.027
616.05	58.214
616.38	61.479
616.71	60.689
617.05	60.660
617.38	59.351
617.71	59.760
618.04	59.916
618.37	58.959
618.70	59.988
619.03	60.197
619.36	58.588
619.69	59.648
620.03	58.723
620.36	60.361
620.69	61.370
621.02	59.661
621.35	60.219
621.68	58.178
622.01	59.443
622.34	59.077
622.67	60.076
623.00	58.034
623.33	57.541
623.66	58.756
623.99	59.278
624.32	58.488
624.65	57.910
624.99	59.490
625.32	59.450
625.65	60.180
625.98	60.184
626.31	58.476
626.64	60.980
626.97	59.268
627.30	60.100
627.63	59.475
627.96	60.639
628.29	60.192
628.62	59.561
628.95	61.321
629.28	59.124
629.61	61.045
629.94	60.190
630.26	59.009
630.59	60.057
630.92	58.908
