SpectraSuite Data File
++++++++++++++++++++++++++++++++++++
Date: Wed May 13 20:35:30 PDT 2015
User: schluterlab
Dark Spectrum Present: Yes
Reference Spectrum Present: Yes
Number of Sampled Component Spectra: 1
Spectrometers: USB2E3373
Integration Time (usec): 3000 (USB2E3373)
Spectra Averaged: 3 (USB2E3373)
Boxcar Smoothing: 0 (USB2E3373)
Correct for Electrical Dark: No (USB2E3373)
Strobe/Lamp Enabled: No (USB2E3373)
Correct for Detector Non-linearity: No (USB2E3373)
Correct for Stray Light: No (USB2E3373)
Number of Pixels in Processed Spectrum: 2048
>>>>>Begin Processed Spectral Data<<<<<
178.53	0.000
178.91	-925.000
179.29	-875.000
179.67	-177.778
180.04	-725.000
180.42	1550.000
180.80	700.000
181.18	-800.000
181.56	571.429
181.94	0.000
182.31	-557.143
182.69	933.333
183.07	-350.000
183.45	-300.000
183.83	409.091
184.20	-370.000
184.58	1700.000
184.96	3800.000
185.34	-800.000
185.72	-350.000
186.09	-1900.000
186.47	2600.000
186.85	1600.000
187.23	3300.000
187.61	-1133.333
187.98	975.000
188.36	418.182
188.74	454.545
189.12	-620.000
189.49	380.000
189.87	-3500.000
190.25	-725.000
190.63	328.571
191.00	253.846
191.38	633.333
191.76	-750.000
192.14	1100.000
192.51	450.000
192.89	733.333
193.27	512.500
193.65	-675.000
194.02	350.000
194.40	640.000
194.78	390.000
195.15	441.667
195.53	460.000
195.91	-1300.000
196.29	250.000
196.66	210.526
197.04	-240.000
197.42	0.000
197.79	360.000
198.17	-2600.000
198.55	557.143
198.92	550.000
199.30	480.000
199.68	0.000
200.05	194.444
200.43	571.429
200.81	3200.000
201.18	1100.000
201.56	-1166.667
201.94	466.667
202.31	444.444
202.69	375.000
203.07	450.000
203.44	0.000
203.82	925.000
204.19	557.143
204.57	335.714
204.95	475.000
205.32	1266.667
205.70	390.909
206.08	271.429
206.45	1450.000
206.83	275.000
207.20	700.000
207.58	500.000
207.96	233.333
208.33	387.500
208.71	-666.667
209.08	585.714
209.46	488.889
209.84	372.727
210.21	-1033.333
210.59	975.000
210.96	-325.000
211.34	1200.000
211.71	380.000
212.09	600.000
212.46	0.000
212.84	1366.667
213.22	1000.000
213.59	-3900.000
213.97	650.000
214.34	528.571
214.72	518.182
215.09	720.000
215.47	-1900.000
215.84	-1900.000
216.22	1100.000
216.59	271.429
216.97	1275.000
217.34	400.000
217.72	-466.667
218.09	0.000
218.47	-3400.000
218.84	411.111
219.22	514.286
219.59	1266.667
219.97	-428.571
220.34	680.000
220.72	-1566.667
221.09	314.286
221.47	1275.000
221.84	-550.000
222.22	0.000
222.59	825.000
222.97	-1400.000
223.34	800.000
223.72	307.692
224.09	620.000
224.46	1500.000
224.84	-4100.000
225.21	-760.000
225.59	-3200.000
225.96	440.000
226.34	245.000
226.71	1850.000
227.08	562.500
227.46	410.000
227.83	-825.000
228.21	-1500.000
228.58	455.556
228.95	-1500.000
229.33	-1350.000
229.70	933.333
230.08	557.143
230.45	-580.000
230.82	375.000
231.20	600.000
231.57	457.143
231.95	375.000
232.32	159.091
232.69	345.455
233.07	414.286
233.44	330.769
233.81	-1233.333
234.19	215.789
234.56	300.000
234.93	250.000
235.31	309.091
235.68	200.000
236.05	228.571
236.43	127.273
236.80	236.842
237.17	3000.000
237.55	161.905
237.92	150.000
238.29	176.190
238.67	106.452
239.04	117.241
239.41	102.778
239.79	73.913
240.16	85.714
240.53	95.455
240.91	72.549
241.28	70.000
241.65	72.000
242.02	66.667
242.40	58.065
242.77	58.333
243.14	64.516
243.51	56.180
243.89	57.647
244.26	40.000
244.63	53.763
245.00	34.043
245.38	39.604
245.75	36.449
246.12	34.862
246.49	48.175
246.87	40.000
247.24	40.769
247.61	36.429
247.98	35.948
248.36	33.784
248.73	29.936
249.10	35.032
249.47	30.508
249.84	34.759
250.22	28.877
250.59	27.811
250.96	32.323
251.33	31.280
251.70	32.178
252.08	29.048
252.45	27.803
252.82	28.261
253.19	24.681
253.56	29.804
253.94	24.896
254.31	26.953
254.68	24.615
255.05	23.247
255.42	22.358
255.79	23.529
256.16	25.271
256.54	19.435
256.91	25.979
257.28	24.101
257.65	20.132
258.02	21.739
258.39	25.237
258.76	17.726
259.14	24.702
259.51	20.973
259.88	22.981
260.25	19.335
260.62	20.809
260.99	21.739
261.36	24.625
261.73	20.057
262.10	21.221
262.47	21.690
262.85	19.220
263.22	21.652
263.59	20.798
263.96	18.132
264.33	19.060
264.70	18.947
265.07	23.529
265.44	20.202
265.81	18.248
266.18	19.849
266.55	17.805
266.92	17.199
267.29	19.444
267.66	19.954
268.03	18.182
268.40	17.757
268.77	18.616
269.14	17.568
269.51	19.413
269.88	20.047
270.25	16.704
270.62	17.079
270.99	20.215
271.36	18.884
271.73	17.757
272.10	18.478
272.47	18.495
272.84	20.130
273.21	19.706
273.58	15.721
273.95	15.094
274.32	18.595
274.69	17.559
275.06	15.354
275.43	20.426
275.80	19.439
276.17	16.701
276.54	18.087
276.91	17.589
277.28	16.992
277.65	18.375
278.02	15.735
278.39	18.164
278.76	16.545
279.13	16.415
279.50	16.946
279.87	18.127
280.23	15.569
280.60	16.441
280.97	17.190
281.34	18.230
281.71	18.545
282.08	17.274
282.45	15.636
282.82	16.696
283.19	17.291
283.56	16.316
283.92	17.936
284.29	15.168
284.66	15.789
285.03	17.541
285.40	13.732
285.77	15.657
286.14	15.026
286.51	16.333
286.87	17.094
287.24	17.101
287.61	16.372
287.98	15.584
288.35	16.799
288.72	14.798
289.08	15.493
289.45	15.486
289.82	14.959
290.19	14.443
290.56	12.711
290.93	13.897
291.29	11.963
291.66	14.159
292.03	17.006
292.40	15.565
292.77	14.053
293.13	16.567
293.50	13.703
293.87	13.185
294.24	13.630
294.60	11.790
294.97	13.663
295.34	14.104
295.71	15.199
296.08	13.675
296.44	13.893
296.81	13.606
297.18	15.447
297.55	10.554
297.91	12.269
298.28	12.985
298.65	14.491
299.02	13.175
299.38	11.023
299.75	11.186
300.12	11.622
300.48	11.875
300.85	13.070
301.22	12.484
301.59	10.859
301.95	13.980
302.32	12.709
302.69	10.992
303.05	11.758
303.42	11.235
303.79	10.872
304.15	10.956
304.52	11.472
304.89	12.195
305.25	10.557
305.62	12.797
305.99	11.334
306.35	11.521
306.72	11.883
307.09	12.320
307.45	14.077
307.82	11.830
308.19	12.031
308.55	12.298
308.92	11.923
309.29	11.510
309.65	12.301
310.02	11.734
310.38	11.505
310.75	12.355
311.12	12.282
311.48	12.121
311.85	12.474
312.22	11.759
312.58	11.642
312.95	12.672
313.31	11.553
313.68	13.202
314.05	13.708
314.41	13.166
314.78	13.192
315.14	13.009
315.51	13.594
315.87	15.248
316.24	13.009
316.61	15.010
316.97	13.209
317.34	13.699
317.70	15.966
318.07	16.169
318.43	15.753
318.80	17.807
319.16	17.326
319.53	16.510
319.89	17.905
320.26	19.500
320.62	19.246
320.99	19.192
321.35	18.283
321.72	20.637
322.08	21.915
322.45	22.687
322.81	22.190
323.18	23.699
323.54	23.006
323.91	24.151
324.27	24.187
324.64	25.722
325.00	24.797
325.37	26.570
325.73	28.366
326.10	28.508
326.46	28.853
326.83	30.544
327.19	31.085
327.56	31.010
327.92	31.759
328.29	32.653
328.65	34.438
329.01	33.213
329.38	34.598
329.74	34.811
330.11	35.627
330.47	37.466
330.84	38.051
331.20	36.066
331.56	37.156
331.93	38.148
332.29	36.291
332.66	39.912
333.02	39.031
333.38	39.837
333.75	39.840
334.11	39.947
334.48	38.953
334.84	41.176
335.20	40.727
335.57	40.254
335.93	39.018
336.29	39.652
336.66	41.569
337.02	39.910
337.38	40.741
337.75	40.285
338.11	42.256
338.47	41.897
338.84	42.255
339.20	41.468
339.56	41.788
339.93	42.727
340.29	41.576
340.65	41.711
341.02	41.885
341.38	43.149
341.74	43.421
342.11	42.271
342.47	43.348
342.83	43.236
343.20	43.203
343.56	41.786
343.92	43.860
344.28	43.282
344.65	42.734
345.01	42.845
345.37	42.281
345.73	42.893
346.10	42.199
346.46	42.203
346.82	43.245
347.19	43.191
347.55	42.939
347.91	43.528
348.27	42.317
348.63	43.645
349.00	41.990
349.36	43.678
349.72	42.502
350.08	42.058
350.45	43.206
350.81	41.186
351.17	41.653
351.53	42.424
351.89	42.822
352.26	43.646
352.62	42.101
352.98	43.355
353.34	42.153
353.70	41.899
354.07	41.855
354.43	41.825
354.79	42.076
355.15	41.341
355.51	44.444
355.87	42.204
356.24	41.450
356.60	41.780
356.96	42.397
357.32	41.864
357.68	43.071
358.04	41.647
358.40	41.647
358.77	42.645
359.13	41.121
359.49	41.725
359.85	40.000
360.21	42.105
360.57	42.257
360.93	41.692
361.29	39.683
361.66	42.105
362.02	41.045
362.38	42.053
362.74	40.848
363.10	41.007
363.46	41.012
363.82	43.235
364.18	41.410
364.54	41.308
364.90	40.439
365.26	42.500
365.62	41.271
365.98	39.956
366.35	39.828
366.71	40.347
367.07	40.277
367.43	42.163
367.79	40.542
368.15	42.098
368.51	40.988
368.87	42.113
369.23	42.429
369.59	42.071
369.95	40.147
370.31	40.741
370.67	40.072
371.03	41.273
371.39	40.379
371.75	40.588
372.11	39.900
372.47	40.469
372.83	40.634
373.19	39.812
373.55	41.390
373.91	41.016
374.27	40.275
374.63	39.782
374.99	40.607
375.35	40.126
375.71	40.713
376.07	40.192
376.42	40.234
376.78	39.231
377.14	39.349
377.50	40.397
377.86	39.428
378.22	39.886
378.58	38.471
378.94	39.346
379.30	38.931
379.66	39.530
380.02	39.189
380.38	38.737
380.74	39.736
381.09	39.792
381.45	39.029
381.81	39.128
382.17	40.064
382.53	39.245
382.89	39.198
383.25	38.837
383.61	39.963
383.97	38.462
384.32	39.426
384.68	37.856
385.04	38.414
385.40	38.328
385.76	39.619
386.12	38.148
386.48	38.829
386.83	39.192
387.19	39.518
387.55	38.652
387.91	38.513
388.27	37.646
388.62	37.431
388.98	38.329
389.34	39.174
389.70	38.259
390.06	39.227
390.42	39.494
390.77	37.913
391.13	37.843
391.49	38.515
391.85	38.511
392.20	37.098
392.56	37.942
392.92	38.081
393.28	37.574
393.64	38.129
393.99	37.202
394.35	38.275
394.71	37.202
395.07	37.383
395.42	37.021
395.78	37.786
396.14	37.554
396.50	38.095
396.85	38.334
397.21	36.436
397.57	36.764
397.92	36.659
398.28	35.930
398.64	36.440
399.00	36.877
399.35	36.548
399.71	36.400
400.07	36.192
400.42	36.012
400.78	36.610
401.14	36.585
401.49	37.254
401.85	37.205
402.21	36.048
402.57	35.410
402.92	36.003
403.28	36.665
403.63	35.272
403.99	35.924
404.35	36.485
404.70	35.731
405.06	34.653
405.42	35.496
405.77	36.000
406.13	34.876
406.49	35.955
406.84	34.259
407.20	33.688
407.55	35.227
407.91	35.200
408.27	35.865
408.62	34.678
408.98	34.314
409.34	34.932
409.69	35.871
410.05	35.130
410.40	33.272
410.76	34.110
411.11	33.896
411.47	34.760
411.83	34.637
412.18	34.508
412.54	33.811
412.89	34.699
413.25	33.884
413.60	34.033
413.96	33.030
414.31	33.961
414.67	34.347
415.03	34.305
415.38	34.729
415.74	34.534
416.09	34.879
416.45	33.802
416.80	33.576
417.16	34.853
417.51	34.705
417.87	32.113
418.22	34.132
418.58	33.118
418.93	34.582
419.29	33.609
419.64	32.997
420.00	32.927
420.35	33.623
420.71	33.353
421.06	31.981
421.42	32.398
421.77	33.352
422.12	32.454
422.48	31.247
422.83	32.149
423.19	32.928
423.54	33.024
423.90	32.638
424.25	31.491
424.61	32.857
424.96	33.878
425.31	32.226
425.67	31.517
426.02	31.143
426.38	33.394
426.73	32.241
427.09	32.097
427.44	32.892
427.79	32.777
428.15	31.905
428.50	32.475
428.85	33.075
429.21	32.192
429.56	31.623
429.92	30.951
430.27	31.033
430.62	31.132
430.98	31.655
431.33	31.340
431.68	31.990
432.04	31.736
432.39	32.210
432.74	31.957
433.10	31.692
433.45	31.370
433.80	31.430
434.16	31.036
434.51	32.368
434.86	31.813
435.22	30.906
435.57	31.368
435.92	31.071
436.28	31.317
436.63	31.402
436.98	30.967
437.34	31.366
437.69	30.980
438.04	32.040
438.39	31.284
438.75	32.365
439.10	31.173
439.45	31.582
439.81	30.937
440.16	31.169
440.51	31.869
440.86	30.400
441.22	30.534
441.57	30.414
441.92	31.269
442.27	30.678
442.63	30.174
442.98	31.437
443.33	30.380
443.68	30.976
444.03	30.503
444.39	30.282
444.74	30.736
445.09	31.267
445.44	30.399
445.79	30.777
446.15	30.228
446.50	30.695
446.85	29.959
447.20	30.597
447.55	30.709
447.91	30.061
448.26	30.217
448.61	31.939
448.96	29.845
449.31	31.046
449.66	30.445
450.02	29.526
450.37	29.989
450.72	29.611
451.07	29.433
451.42	29.544
451.77	29.771
452.12	29.619
452.47	30.348
452.83	30.012
453.18	30.012
453.53	30.118
453.88	29.711
454.23	30.126
454.58	30.951
454.93	31.405
455.28	30.362
455.63	29.672
455.98	30.298
456.34	29.460
456.69	30.307
457.04	29.721
457.39	28.697
457.74	30.238
458.09	29.327
458.44	29.361
458.79	28.254
459.14	29.345
459.49	30.239
459.84	29.363
460.19	28.757
460.54	28.356
460.89	29.183
461.24	29.569
461.59	29.402
461.94	28.730
462.29	29.555
462.64	29.611
462.99	27.521
463.34	29.867
463.69	28.330
464.04	29.507
464.39	29.275
464.74	28.936
465.09	28.227
465.44	27.922
465.79	27.908
466.14	28.462
466.49	28.087
466.84	28.430
467.19	29.149
467.54	28.812
467.89	27.791
468.24	29.145
468.59	28.022
468.94	27.978
469.29	29.242
469.64	29.317
469.99	28.890
470.34	28.534
470.68	28.305
471.03	28.095
471.38	28.978
471.73	28.448
472.08	29.868
472.43	28.015
472.78	27.584
473.13	27.792
473.48	27.216
473.83	28.293
474.17	27.131
474.52	27.792
474.87	29.130
475.22	28.265
475.57	27.942
475.92	27.403
476.27	27.452
476.61	27.910
476.96	28.367
477.31	28.048
477.66	27.188
478.01	26.660
478.36	27.604
478.70	26.791
479.05	27.583
479.40	26.970
479.75	26.792
480.10	26.491
480.45	26.606
480.79	26.087
481.14	27.006
481.49	26.626
481.84	26.520
482.19	26.533
482.53	26.560
482.88	27.036
483.23	27.383
483.58	26.433
483.92	26.242
484.27	25.664
484.62	25.948
484.97	26.015
485.31	25.479
485.66	23.894
486.01	23.397
486.36	23.429
486.70	23.755
487.05	24.515
487.40	24.719
487.75	24.617
488.09	25.447
488.44	24.850
488.79	26.112
489.13	25.898
489.48	25.326
489.83	25.550
490.17	26.173
490.52	26.041
490.87	25.645
491.22	25.330
491.56	26.150
491.91	25.966
492.26	25.172
492.60	26.129
492.95	25.538
493.30	25.794
493.64	25.432
493.99	24.745
494.34	25.532
494.68	25.183
495.03	26.081
495.37	25.174
495.72	26.023
496.07	25.197
496.41	24.735
496.76	25.550
497.11	25.079
497.45	25.198
497.80	25.192
498.14	25.121
498.49	25.902
498.84	25.407
499.18	25.429
499.53	25.071
499.87	25.582
500.22	25.530
500.56	25.534
500.91	24.663
501.26	24.893
501.60	25.534
501.95	24.840
502.29	25.351
502.64	25.279
502.98	25.292
503.33	24.269
503.67	25.336
504.02	25.070
504.36	25.082
504.71	25.647
505.06	24.819
505.40	24.842
505.75	24.204
506.09	24.538
506.44	24.322
506.78	25.231
507.13	24.987
507.47	25.051
507.82	25.076
508.16	25.127
508.51	24.404
508.85	25.025
509.19	24.745
509.54	24.949
509.88	24.833
510.23	24.576
510.57	26.316
510.92	24.754
511.26	25.283
511.61	25.830
511.95	24.426
512.30	23.966
512.64	24.825
512.98	25.241
513.33	25.482
513.67	24.653
514.02	24.892
514.36	24.522
514.70	25.235
515.05	25.209
515.39	24.902
515.74	24.944
516.08	25.042
516.42	25.416
516.77	25.139
517.11	24.084
517.46	25.564
517.80	25.668
518.14	24.667
518.49	25.379
518.83	25.000
519.17	25.000
519.52	25.467
519.86	23.902
520.20	25.491
520.55	25.015
520.89	24.878
521.23	25.633
521.58	24.610
521.92	26.026
522.26	24.588
522.61	25.296
522.95	24.800
523.29	24.893
523.64	25.000
523.98	25.139
524.32	24.427
524.66	25.436
525.01	24.387
525.35	24.226
525.69	24.384
526.04	25.171
526.38	24.100
526.72	23.804
527.06	24.105
527.41	23.577
527.75	25.852
528.09	24.663
528.43	24.857
528.78	24.954
529.12	23.455
529.46	23.882
529.80	24.319
530.15	25.670
530.49	23.631
530.83	24.304
531.17	23.695
531.51	24.319
531.86	24.903
532.20	24.707
532.54	24.087
532.88	24.840
533.22	23.485
533.57	24.383
533.91	23.961
534.25	23.998
534.59	23.856
534.93	23.617
535.27	23.899
535.62	23.810
535.96	23.540
536.30	24.031
536.64	24.404
536.98	24.353
537.32	24.687
537.66	24.267
538.01	23.700
538.35	24.370
538.69	23.995
539.03	23.587
539.37	23.131
539.71	22.100
540.05	23.987
540.39	23.522
540.73	23.027
541.07	24.010
541.42	24.658
541.76	24.323
542.10	23.803
542.44	23.377
542.78	24.572
543.12	22.521
543.46	24.393
543.80	23.617
544.14	23.235
544.48	24.381
544.82	23.541
545.16	23.227
545.50	23.779
545.84	24.462
546.18	23.704
546.52	23.675
546.86	23.780
547.20	24.005
547.54	23.313
547.88	23.469
548.22	22.976
548.56	23.522
548.90	21.703
549.24	22.761
549.58	23.738
549.92	24.038
550.26	24.645
550.60	23.167
550.94	22.324
551.28	22.604
551.62	22.574
551.96	22.386
552.30	22.799
552.64	23.191
552.98	23.119
553.32	23.061
553.66	22.359
554.00	24.228
554.34	22.981
554.68	23.534
555.02	23.484
555.36	22.965
555.69	22.869
556.03	22.476
556.37	22.988
556.71	21.419
557.05	22.269
557.39	22.673
557.73	22.865
558.07	23.713
558.41	23.300
558.75	22.777
559.08	23.192
559.42	21.995
559.76	23.456
560.10	22.198
560.44	23.410
560.78	21.956
561.12	22.164
561.45	22.751
561.79	22.413
562.13	22.736
562.47	22.404
562.81	22.106
563.15	21.070
563.48	22.149
563.82	23.027
564.16	22.237
564.50	21.354
564.84	20.480
565.17	22.008
565.51	21.853
565.85	21.954
566.19	21.853
566.52	21.596
566.86	21.157
567.20	21.698
567.54	20.890
567.88	20.750
568.21	22.222
568.55	20.829
568.89	19.844
569.23	20.143
569.56	19.393
569.90	19.321
570.24	19.376
570.57	19.075
570.91	17.873
571.25	19.055
571.59	18.999
571.92	18.577
572.26	18.660
572.60	18.889
572.93	18.441
573.27	18.338
573.61	18.230
573.95	18.475
574.28	18.241
574.62	17.833
574.96	17.754
575.29	18.016
575.63	17.785
575.97	18.250
576.30	18.003
576.64	17.918
576.98	17.696
577.31	17.398
577.65	17.264
577.98	17.853
578.32	17.117
578.66	17.673
578.99	17.759
579.33	17.647
579.67	17.295
580.00	17.957
580.34	17.632
580.67	17.632
581.01	17.810
581.35	16.977
581.68	17.500
582.02	17.054
582.35	17.288
582.69	17.112
583.02	17.682
583.36	17.731
583.70	17.682
584.03	17.712
584.37	18.366
584.70	17.372
585.04	17.295
585.37	17.451
585.71	17.881
586.04	17.057
586.38	17.372
586.72	18.199
587.05	17.522
587.39	17.546
587.72	17.238
588.06	17.556
588.39	17.888
588.73	17.835
589.06	17.950
589.40	17.980
589.73	18.092
590.07	18.007
590.40	17.537
590.73	19.009
591.07	19.373
591.40	18.937
591.74	18.745
592.07	19.066
592.41	18.355
592.74	17.678
593.08	17.655
593.41	17.589
593.75	17.083
594.08	18.203
594.41	17.957
594.75	18.115
595.08	18.039
595.42	18.179
595.75	17.949
596.09	18.213
596.42	18.389
596.75	18.573
597.09	19.091
597.42	18.718
597.75	17.982
598.09	18.696
598.42	17.869
598.76	18.119
599.09	17.256
599.42	17.322
599.76	17.972
600.09	17.486
600.42	17.896
600.76	17.679
601.09	17.413
601.42	18.151
601.76	17.495
602.09	17.905
602.42	17.914
602.76	18.259
603.09	17.349
603.42	17.806
603.76	17.873
604.09	17.681
604.42	18.019
604.76	18.684
605.09	17.912
605.42	18.042
605.75	17.881
606.09	17.568
606.42	18.063
606.75	17.669
607.09	17.455
607.42	17.287
607.75	17.511
608.08	18.020
608.42	17.840
608.75	18.124
609.08	17.761
609.41	18.134
609.75	18.628
610.08	17.672
610.41	17.831
610.74	17.644
611.07	18.231
611.41	18.646
611.74	18.602
612.07	18.685
612.40	19.045
612.73	18.105
613.07	18.534
613.40	18.747
613.73	17.829
614.06	18.548
614.39	18.511
614.72	18.316
615.06	19.013
615.39	17.304
615.72	18.661
616.05	17.597
616.38	18.899
616.71	18.943
617.05	19.317
617.38	18.160
617.71	17.658
618.04	19.952
618.37	18.510
618.70	18.482
619.03	19.803
619.36	19.756
619.69	19.577
620.03	19.299
620.36	19.452
620.69	20.068
621.02	20.428
621.35	19.107
621.68	19.159
622.01	18.963
622.34	18.911
622.67	18.935
623.00	19.222
623.33	19.014
623.66	19.014
623.99	18.041
624.32	19.330
624.65	18.927
624.99	18.555
625.32	18.899
625.65	19.910
625.98	20.215
626.31	20.451
626.64	20.408
626.97	20.366
627.30	19.618
627.63	20.016
627.96	20.690
628.29	19.423
628.62	20.037
628.95	21.415
629.28	20.073
629.61	21.357
629.94	21.429
630.26	20.591
630.59	19.638
630.92	19.732
631.25	20.138
631.58	21.021
