SpectraSuite Data File
++++++++++++++++++++++++++++++++++++
Date: Wed May 13 20:23:37 PDT 2015
User: schluterlab
Dark Spectrum Present: Yes
Reference Spectrum Present: Yes
Number of Sampled Component Spectra: 1
Spectrometers: USB2E3373
Integration Time (usec): 3000 (USB2E3373)
Spectra Averaged: 3 (USB2E3373)
Boxcar Smoothing: 0 (USB2E3373)
Correct for Electrical Dark: No (USB2E3373)
Strobe/Lamp Enabled: No (USB2E3373)
Correct for Detector Non-linearity: No (USB2E3373)
Correct for Stray Light: No (USB2E3373)
Number of Pixels in Processed Spectrum: 2048
>>>>>Begin Processed Spectral Data<<<<<
178.53	0.000
178.91	-1425.000
179.29	-1300.000
179.67	-238.889
180.04	-1025.000
180.42	2350.000
180.80	1060.000
181.18	-1050.000
181.56	671.429
181.94	0.000
182.31	-657.143
182.69	1666.667
183.07	-462.500
183.45	-533.333
183.83	463.636
184.20	-470.000
184.58	2100.000
184.96	5600.000
185.34	-920.000
185.72	-637.500
186.09	-2250.000
186.47	2700.000
186.85	2350.000
187.23	4700.000
187.61	-1566.667
187.98	1225.000
188.36	618.182
188.74	527.273
189.12	-840.000
189.49	440.000
189.87	-4200.000
190.25	-1275.000
190.63	464.286
191.00	376.923
191.38	800.000
191.76	-1175.000
192.14	1375.000
192.51	600.000
192.89	966.667
193.27	600.000
193.65	-1425.000
194.02	470.000
194.40	1000.000
194.78	550.000
195.15	475.000
195.53	650.000
195.91	-1900.000
196.29	350.000
196.66	294.737
197.04	-330.000
197.42	0.000
197.79	590.000
198.17	-4100.000
198.55	714.286
198.92	587.500
199.30	840.000
199.68	0.000
200.05	316.667
200.43	742.857
200.81	5200.000
201.18	1833.333
201.56	-1666.667
201.94	533.333
202.31	488.889
202.69	466.667
203.07	530.000
203.44	0.000
203.82	1275.000
204.19	742.857
204.57	478.571
204.95	662.500
205.32	1466.667
205.70	518.182
206.08	307.143
206.45	2700.000
206.83	356.250
207.20	916.667
207.58	680.000
207.96	327.778
208.33	712.500
208.71	-800.000
209.08	800.000
209.46	588.889
209.84	472.727
210.21	-1733.333
210.59	1525.000
210.96	-475.000
211.34	2550.000
211.71	530.000
212.09	833.333
212.46	0.000
212.84	1366.667
213.22	1300.000
213.59	-3600.000
213.97	816.667
214.34	814.286
214.72	509.091
215.09	1120.000
215.47	-1900.000
215.84	-2500.000
216.22	1866.667
216.59	485.714
216.97	1350.000
217.34	463.636
217.72	-816.667
218.09	0.000
218.47	-5400.000
218.84	633.333
219.22	742.857
219.59	1533.333
219.97	-557.143
220.34	920.000
220.72	-1200.000
221.09	428.571
221.47	1525.000
221.84	-900.000
222.22	0.000
222.59	1500.000
222.97	-2700.000
223.34	1140.000
223.72	469.231
224.09	1020.000
224.46	2300.000
224.84	-4200.000
225.21	-960.000
225.59	-4400.000
225.96	580.000
226.34	300.000
226.71	2800.000
227.08	487.500
227.46	570.000
227.83	-1350.000
228.21	-2350.000
228.58	511.111
228.95	-2300.000
229.33	-2500.000
229.70	1433.333
230.08	885.714
230.45	-900.000
230.82	541.667
231.20	733.333
231.57	671.429
231.95	383.333
232.32	236.364
232.69	354.545
233.07	628.571
233.44	300.000
233.81	-1133.333
234.19	347.368
234.56	466.667
234.93	333.333
235.31	436.364
235.68	315.385
236.05	314.286
236.43	203.030
236.80	263.158
237.17	4700.000
237.55	257.143
237.92	214.286
238.29	280.952
238.67	187.097
239.04	179.310
239.41	144.444
239.79	115.217
240.16	135.714
240.53	156.818
240.91	98.039
241.28	120.000
241.65	98.000
242.02	105.797
242.40	82.258
242.77	88.333
243.14	72.043
243.51	78.652
243.89	69.412
244.26	60.000
244.63	63.441
245.00	54.255
245.38	65.347
245.75	71.028
246.12	49.541
246.49	60.584
246.87	64.800
247.24	61.538
247.61	50.000
247.98	49.673
248.36	47.973
248.73	46.497
249.10	52.229
249.47	41.243
249.84	50.267
250.22	44.920
250.59	47.337
250.96	42.424
251.33	38.863
251.70	41.584
252.08	41.429
252.45	40.807
252.82	37.391
253.19	37.447
253.56	40.392
253.94	37.344
254.31	35.156
254.68	37.308
255.05	35.055
255.42	36.585
255.79	40.074
256.16	40.794
256.54	30.035
256.91	35.231
257.28	33.094
257.65	35.644
258.02	31.366
258.39	31.230
258.76	33.445
259.14	35.119
259.51	31.003
259.88	29.814
260.25	32.024
260.62	29.480
260.99	29.503
261.36	34.535
261.73	33.811
262.10	30.233
262.47	31.268
262.85	28.412
263.22	27.635
263.59	31.054
263.96	30.769
264.33	32.898
264.70	28.684
265.07	30.179
265.44	29.293
265.81	24.818
266.18	28.392
266.55	31.707
266.92	31.450
267.29	27.778
267.66	27.064
268.03	28.864
268.40	29.673
268.77	25.060
269.14	26.126
269.51	28.668
269.88	29.138
270.25	25.959
270.62	28.315
270.99	28.817
271.36	26.395
271.73	24.533
272.10	27.391
272.47	25.161
272.84	28.355
273.21	25.157
273.58	26.201
273.95	25.786
274.32	26.240
274.69	25.910
275.06	24.803
275.43	26.809
275.80	28.056
276.17	26.680
276.54	24.324
276.91	27.273
277.28	25.586
277.65	27.273
278.02	25.880
278.39	26.172
278.76	27.273
279.13	24.151
279.50	25.512
279.87	27.092
280.23	24.152
280.60	24.565
280.97	25.139
281.34	25.664
281.71	26.000
282.08	25.144
282.45	24.545
282.82	24.867
283.19	22.282
283.56	25.088
283.92	24.535
284.29	22.928
284.66	24.138
285.03	21.881
285.40	23.592
285.77	24.747
286.14	21.589
286.51	24.167
286.87	23.590
287.24	22.801
287.61	24.398
287.98	23.701
288.35	22.029
288.72	20.717
289.08	22.692
289.45	22.241
289.82	22.276
290.19	20.251
290.56	21.286
290.93	21.148
291.29	22.546
291.66	22.566
292.03	23.547
292.40	22.761
292.77	21.154
293.13	23.433
293.50	21.137
293.87	19.407
294.24	21.037
294.60	20.961
294.97	20.349
295.34	21.298
295.71	22.017
296.08	17.949
296.44	19.395
296.81	18.758
297.18	19.241
297.55	18.602
297.91	19.129
298.28	19.545
298.65	20.235
299.02	20.553
299.38	18.194
299.75	17.790
300.12	19.157
300.48	17.375
300.85	18.496
301.22	19.108
301.59	16.540
301.95	17.254
302.32	18.742
302.69	16.726
303.05	18.303
303.42	18.272
303.79	18.120
304.15	15.967
304.52	16.338
304.89	16.609
305.25	17.865
305.62	17.327
305.99	17.946
306.35	16.779
306.72	16.928
307.09	18.091
307.45	17.005
307.82	17.299
308.19	17.660
308.55	16.181
308.92	17.186
309.29	16.790
309.65	16.437
310.02	16.490
310.38	16.989
310.75	15.945
311.12	16.684
311.48	16.928
311.85	16.667
312.22	16.857
312.58	17.152
312.95	16.473
313.31	15.922
313.68	16.632
314.05	18.146
314.41	17.889
314.78	16.717
315.14	17.378
315.51	17.302
315.87	17.921
316.24	16.981
316.61	17.251
316.97	16.928
317.34	16.830
317.70	18.738
318.07	17.421
318.43	17.808
318.80	20.056
319.16	19.397
319.53	18.386
319.89	19.619
320.26	20.000
320.62	19.940
320.99	20.707
321.35	20.808
321.72	21.253
322.08	22.507
322.45	22.090
322.81	23.256
323.18	23.507
323.54	21.429
323.91	23.113
324.27	23.136
324.64	22.926
325.00	23.354
325.37	23.749
325.73	25.135
326.10	25.508
326.46	25.090
326.83	26.143
327.19	26.302
327.56	25.958
327.92	26.334
328.29	26.442
328.65	27.716
329.01	28.339
329.38	27.660
329.74	27.886
330.11	27.992
330.47	29.017
330.84	29.136
331.20	29.326
331.56	28.991
331.93	30.463
332.29	28.838
332.66	30.088
333.02	28.976
333.38	31.256
333.75	29.947
334.11	29.448
334.48	29.991
334.84	30.147
335.20	31.727
335.57	31.641
335.93	30.179
336.29	31.685
336.66	31.830
337.02	30.136
337.38	31.852
337.75	31.194
338.11	31.244
338.47	30.755
338.84	31.897
339.20	30.092
339.56	32.482
339.93	31.455
340.29	31.250
340.65	31.729
341.02	32.548
341.38	31.851
341.74	30.789
342.11	32.402
342.47	32.159
342.83	31.336
343.20	31.429
343.56	29.992
343.92	31.842
344.28	33.078
344.65	33.104
345.01	32.407
345.37	29.760
345.73	31.303
346.10	31.799
346.46	32.119
346.82	32.619
347.19	32.414
347.55	32.102
347.91	32.686
348.27	33.279
348.63	33.779
349.00	32.524
349.36	32.266
349.72	32.237
350.08	32.658
350.45	32.791
350.81	32.900
351.17	33.063
351.53	32.924
351.89	33.416
352.26	33.228
352.62	33.440
352.98	32.901
353.34	33.607
353.70	32.651
354.07	33.065
354.43	32.619
354.79	32.502
355.15	33.599
355.51	35.811
355.87	34.286
356.24	34.691
356.60	34.242
356.96	33.950
357.32	34.914
357.68	34.646
358.04	34.996
358.40	34.838
358.77	34.977
359.13	34.254
359.49	35.686
359.85	33.810
360.21	35.088
360.57	36.420
360.93	35.385
361.29	35.072
361.66	35.139
362.02	35.970
362.38	37.338
362.74	36.235
363.10	35.899
363.46	36.904
363.82	37.113
364.18	36.564
364.54	37.741
364.90	38.456
365.26	37.794
365.62	37.107
365.98	37.692
366.35	37.321
366.71	37.383
367.07	37.873
367.43	38.897
367.79	39.686
368.15	39.009
368.51	37.791
368.87	39.400
369.23	38.625
369.59	39.681
369.95	38.824
370.31	38.889
370.67	39.348
371.03	40.599
371.39	40.525
371.75	40.588
372.11	39.474
372.47	40.909
372.83	42.435
373.19	40.101
373.55	41.463
373.91	41.753
374.27	40.962
374.63	40.509
374.99	42.302
375.35	40.754
375.71	40.781
376.07	41.770
376.42	42.916
376.78	43.274
377.14	43.080
377.50	43.775
377.86	42.553
378.22	43.616
378.58	41.416
378.94	43.243
379.30	43.639
379.66	43.782
380.02	43.980
380.38	42.805
380.74	42.677
381.09	44.927
381.45	44.991
381.81	44.226
382.17	44.968
382.53	45.409
382.89	45.123
383.25	46.279
383.61	45.291
383.97	45.028
384.32	45.041
384.68	45.167
385.04	45.913
385.40	44.954
385.76	45.946
386.12	47.215
386.48	47.011
386.83	48.172
387.19	47.990
387.55	47.928
387.91	47.340
388.27	46.965
388.62	48.679
388.98	46.990
389.34	47.434
389.70	47.394
390.06	48.162
390.42	48.379
390.77	48.028
391.13	49.075
391.49	47.652
391.85	47.486
392.20	47.571
392.56	48.359
392.92	48.793
393.28	47.692
393.64	47.662
393.99	47.709
394.35	48.449
394.71	47.992
395.07	48.660
395.42	49.197
395.78	49.173
396.14	48.727
396.50	50.439
396.85	48.951
397.21	47.781
397.57	49.473
397.92	49.159
398.28	48.543
398.64	49.223
399.00	50.084
399.35	49.069
399.71	49.248
400.07	49.083
400.42	49.877
400.78	50.422
401.14	49.939
401.49	50.149
401.85	49.849
402.21	49.341
402.57	49.661
402.92	49.937
403.28	49.969
403.63	49.876
403.99	50.637
404.35	49.758
404.70	49.341
405.06	49.272
405.42	51.154
405.77	51.029
406.13	49.774
406.49	48.965
406.84	50.207
407.20	49.527
407.55	49.713
407.91	50.200
408.27	51.117
408.62	49.187
408.98	50.551
409.34	50.185
409.69	50.516
410.05	50.372
410.40	50.398
410.76	49.761
411.11	50.302
411.47	49.073
411.83	50.275
412.18	51.082
412.54	50.000
412.89	50.120
413.25	50.531
413.60	49.969
413.96	48.634
414.31	48.967
414.67	49.810
415.03	49.536
415.38	50.258
415.74	50.096
416.09	50.294
416.45	50.469
416.80	50.562
417.16	50.938
417.51	50.166
417.87	49.454
418.22	50.347
418.58	50.549
418.93	49.631
419.29	49.141
419.64	49.622
420.00	50.183
420.35	49.681
420.71	49.372
421.06	49.224
421.42	49.240
421.77	50.168
422.12	49.074
422.48	48.246
422.83	49.214
423.19	49.116
423.54	49.797
423.90	49.913
424.25	49.972
424.61	48.988
424.96	48.688
425.31	47.453
425.67	48.034
426.02	47.486
426.38	49.084
426.73	48.332
427.09	47.964
427.44	49.224
427.79	48.246
428.15	49.226
428.50	48.332
428.85	49.404
429.21	48.205
429.56	48.471
429.92	48.666
430.27	48.163
430.62	46.493
430.98	47.898
431.33	48.196
431.68	48.429
432.04	46.645
432.39	48.087
432.74	48.893
433.10	48.557
433.45	47.580
433.80	48.171
434.16	46.795
434.51	47.474
434.86	47.834
435.22	48.638
435.57	48.997
435.92	47.396
436.28	48.161
436.63	48.068
436.98	47.911
437.34	48.241
437.69	48.308
438.04	49.185
438.39	47.522
438.75	48.867
439.10	47.709
439.45	48.583
439.81	46.828
440.16	46.471
440.51	47.686
440.86	48.350
441.22	46.997
441.57	47.877
441.92	47.492
442.27	46.771
442.63	46.340
442.98	46.986
443.33	46.359
443.68	45.741
444.03	47.926
444.39	46.933
444.74	46.158
445.09	47.385
445.44	45.380
445.79	46.363
446.15	46.427
446.50	45.827
446.85	46.146
447.20	46.303
447.55	46.231
447.91	46.773
448.26	46.132
448.61	45.506
448.96	45.903
449.31	46.682
449.66	45.751
450.02	46.852
450.37	46.088
450.72	46.080
451.07	44.851
451.42	44.802
451.77	45.802
452.12	45.092
452.47	44.403
452.83	45.804
453.18	44.866
453.53	46.444
453.88	44.477
454.23	45.188
454.58	46.033
454.93	45.963
455.28	43.890
455.63	44.235
455.98	45.893
456.34	44.975
456.69	45.398
457.04	45.759
457.39	44.828
457.74	44.457
458.09	43.991
458.44	44.926
458.79	43.221
459.14	45.429
459.49	44.250
459.84	43.657
460.19	44.137
460.54	43.056
460.89	44.103
461.24	44.262
461.59	44.509
461.94	43.835
462.29	43.739
462.64	43.714
462.99	42.615
463.34	44.200
463.69	44.090
464.04	42.957
464.39	43.130
464.74	43.256
465.09	42.762
465.44	42.105
465.79	43.177
466.14	42.693
466.49	41.880
466.84	43.141
467.19	42.366
467.54	42.750
467.89	42.977
468.24	43.165
468.59	44.200
468.94	41.784
469.29	42.674
469.64	42.570
469.99	44.114
470.34	43.725
470.68	42.888
471.03	42.721
471.38	43.641
471.73	42.372
472.08	42.895
472.43	42.714
472.78	42.725
473.13	41.784
473.48	42.385
473.83	42.500
474.17	41.133
474.52	41.749
474.87	42.207
475.22	41.033
475.57	40.247
475.92	41.529
476.27	41.263
476.61	41.147
476.96	41.176
477.31	41.026
477.66	40.481
478.01	40.199
478.36	41.777
478.70	40.239
479.05	41.054
479.40	39.765
479.75	40.519
480.10	39.662
480.45	39.695
480.79	39.130
481.14	40.117
481.49	39.867
481.84	39.598
482.19	39.573
482.53	38.899
482.88	39.832
483.23	39.299
483.58	38.535
483.92	39.410
484.27	37.778
484.62	38.319
484.97	38.431
485.31	38.733
485.66	36.873
486.01	36.330
486.36	35.820
486.70	35.340
487.05	35.927
487.40	36.108
487.75	36.555
488.09	37.034
488.44	36.624
488.79	37.251
489.13	37.051
489.48	37.561
489.83	37.246
490.17	38.404
490.52	36.492
490.87	37.404
491.22	36.744
491.56	36.856
491.91	36.901
492.26	37.299
492.60	36.774
492.95	36.015
493.30	36.121
493.64	36.398
493.99	36.212
494.34	36.818
494.68	36.722
495.03	36.325
495.37	35.598
495.72	36.842
496.07	36.381
496.41	35.310
496.76	35.708
497.11	35.705
497.45	36.330
497.80	36.276
498.14	35.845
498.49	35.805
498.84	35.139
499.18	36.095
499.53	35.375
499.87	35.368
500.22	35.469
500.56	36.068
500.91	35.000
501.26	35.799
501.60	36.118
501.95	34.830
502.29	35.614
502.64	35.382
502.98	35.250
503.33	34.598
503.67	35.220
504.02	34.518
504.36	34.675
504.71	34.734
505.06	35.277
505.40	35.343
505.75	34.523
506.09	34.014
506.44	35.668
506.78	34.340
507.13	34.629
507.47	35.354
507.82	34.802
508.16	34.296
508.51	35.261
508.85	34.062
509.19	34.184
509.54	34.082
509.88	34.621
510.23	34.602
510.57	35.397
510.92	34.386
511.26	34.738
511.61	34.077
511.95	33.716
512.30	33.245
512.64	34.659
512.98	34.512
513.33	35.011
513.67	33.351
514.02	32.576
514.36	34.353
514.70	34.256
515.05	33.854
515.39	34.100
515.74	34.516
516.08	34.544
516.42	34.129
516.77	35.117
517.11	33.629
517.46	34.199
517.80	34.495
518.14	33.758
518.49	34.947
518.83	34.943
519.17	34.758
519.52	33.560
519.86	34.056
520.20	33.584
520.55	33.752
520.89	34.185
521.23	34.801
521.58	33.433
521.92	34.109
522.26	32.764
522.61	33.333
522.95	33.088
523.29	32.562
523.64	33.171
523.98	34.073
524.32	33.776
524.66	33.794
525.01	33.578
525.35	32.652
525.69	32.389
526.04	32.336
526.38	33.130
526.72	33.558
527.06	33.271
527.41	31.126
527.75	34.598
528.09	33.398
528.43	32.823
528.78	32.698
529.12	32.727
529.46	32.333
529.80	31.993
530.15	32.710
530.49	31.446
530.83	33.544
531.17	33.029
531.51	33.139
531.86	32.129
532.20	34.029
532.54	32.287
532.88	33.055
533.22	31.418
533.57	31.296
533.91	31.246
534.25	31.227
534.59	32.276
534.93	31.469
535.27	31.442
535.62	31.380
535.96	31.827
536.30	31.659
536.64	30.972
536.98	31.453
537.32	32.258
537.66	30.933
538.01	31.468
538.35	31.416
538.69	31.908
539.03	30.539
539.37	30.351
539.71	30.201
540.05	31.503
540.39	31.960
540.73	31.436
541.07	31.084
541.42	32.159
541.76	30.645
542.10	31.113
542.44	30.927
542.78	31.621
543.12	30.006
543.46	31.475
543.80	31.295
544.14	29.268
544.48	31.048
544.82	29.314
545.16	29.798
545.50	28.856
545.84	30.376
546.18	29.562
546.52	30.489
546.86	30.447
547.20	30.344
547.54	29.325
547.88	30.421
548.22	29.203
548.56	29.811
548.90	28.681
549.24	29.562
549.58	30.832
549.92	30.632
550.26	30.256
550.60	29.530
550.94	29.930
551.28	29.261
551.62	29.978
551.96	29.825
552.30	30.307
552.64	30.561
552.98	29.831
553.32	30.276
553.66	30.061
554.00	30.336
554.34	30.021
554.68	30.615
555.02	29.267
555.36	29.088
555.69	28.552
556.03	28.129
556.37	28.104
556.71	28.377
557.05	28.852
557.39	28.621
557.73	28.723
558.07	29.442
558.41	28.944
558.75	29.243
559.08	29.083
559.42	29.101
559.76	28.235
560.10	28.337
560.44	27.883
560.78	27.146
561.12	27.309
561.45	28.944
561.79	28.016
562.13	29.108
562.47	29.098
562.81	28.033
563.15	27.224
563.48	27.586
563.82	27.462
564.16	27.142
564.50	27.083
564.84	27.370
565.17	27.735
565.51	27.796
565.85	27.157
566.19	26.612
566.52	26.662
566.86	26.763
567.20	27.535
567.54	26.941
567.88	26.018
568.21	27.249
568.55	26.036
568.89	25.973
569.23	25.357
569.56	24.939
569.90	25.434
570.24	25.188
570.57	24.583
570.91	23.820
571.25	24.552
571.59	24.389
571.92	24.078
572.26	24.495
572.60	24.985
572.93	24.228
573.27	24.135
573.61	23.506
573.95	24.160
574.28	23.191
574.62	23.688
574.96	23.489
575.29	23.594
575.63	23.831
575.97	23.379
576.30	23.765
576.64	23.225
576.98	23.189
577.31	22.990
577.65	23.018
577.98	22.437
578.32	22.836
578.66	23.543
578.99	23.282
579.33	23.263
579.67	22.233
580.00	23.088
580.34	23.256
580.67	23.233
581.01	22.959
581.35	22.929
581.68	22.596
582.02	22.022
582.35	22.604
582.69	22.589
583.02	22.934
583.36	22.642
583.70	23.002
584.03	22.701
584.37	23.241
584.70	22.989
585.04	22.945
585.37	22.390
585.71	22.674
586.04	22.662
586.38	23.093
586.72	22.618
587.05	22.141
587.39	22.454
587.72	22.494
588.06	22.892
588.39	23.182
588.73	22.529
589.06	23.247
589.40	22.492
589.73	22.703
590.07	23.132
590.40	22.908
590.73	23.107
591.07	23.158
591.40	23.366
591.74	23.723
592.07	23.255
592.41	23.067
592.74	22.547
593.08	22.751
593.41	22.461
593.75	21.955
594.08	23.198
594.41	22.340
594.75	22.440
595.08	22.513
595.42	22.347
595.75	22.685
596.09	22.569
596.42	22.633
596.75	22.921
597.09	22.944
597.42	22.049
597.75	22.251
598.09	23.304
598.42	22.766
598.76	22.375
599.09	22.235
599.42	21.543
599.76	22.255
600.09	21.858
600.42	21.877
600.76	22.071
601.09	21.457
601.42	22.374
601.76	22.277
602.09	21.700
602.42	22.611
602.76	22.572
603.09	22.109
603.42	21.476
603.76	21.608
604.09	21.985
604.42	22.462
604.76	22.269
605.09	22.193
605.42	21.847
605.75	21.896
606.09	22.204
606.42	21.945
606.75	22.066
607.09	22.227
607.42	21.866
607.75	21.392
608.08	21.841
608.42	22.636
608.75	22.002
609.08	20.999
609.41	22.085
609.75	22.296
610.08	22.385
610.41	21.322
610.74	21.429
611.07	22.283
611.41	22.326
611.74	22.021
612.07	23.137
612.40	22.246
612.73	21.895
613.07	22.414
613.40	22.170
613.73	21.709
614.06	22.419
614.39	21.500
614.72	22.053
615.06	22.742
615.39	21.762
615.72	21.677
616.05	21.903
616.38	22.012
616.71	22.684
617.05	21.967
617.38	22.670
617.71	21.982
618.04	22.776
618.37	22.058
618.70	22.340
619.03	22.829
619.36	22.878
619.69	22.113
620.03	22.390
620.36	22.193
620.69	23.151
621.02	22.861
621.35	21.848
621.68	22.118
622.01	23.839
622.34	22.466
622.67	23.954
623.00	22.084
623.33	22.731
623.66	23.302
623.99	24.153
624.32	22.825
624.65	22.105
624.99	22.167
625.32	21.868
625.65	22.840
625.98	23.213
626.31	22.706
626.64	22.694
626.97	24.522
627.30	23.026
627.63	23.380
627.96	23.381
628.29	23.710
628.62	24.154
628.95	24.623
629.28	22.445
629.61	24.290
629.94	24.381
630.26	24.595
630.59	23.642
630.92	22.893
