SpectraSuite Data File
++++++++++++++++++++++++++++++++++++
Date: Wed May 13 20:35:07 PDT 2015
User: schluterlab
Dark Spectrum Present: Yes
Reference Spectrum Present: Yes
Number of Sampled Component Spectra: 1
Spectrometers: USB2E3373
Integration Time (usec): 3000 (USB2E3373)
Spectra Averaged: 3 (USB2E3373)
Boxcar Smoothing: 0 (USB2E3373)
Correct for Electrical Dark: No (USB2E3373)
Strobe/Lamp Enabled: No (USB2E3373)
Correct for Detector Non-linearity: No (USB2E3373)
Correct for Stray Light: No (USB2E3373)
Number of Pixels in Processed Spectrum: 2048
>>>>>Begin Processed Spectral Data<<<<<
178.53	0.000
178.91	-700.000
179.29	-900.000
179.67	-172.222
180.04	-975.000
180.42	1850.000
180.80	760.000
181.18	-650.000
181.56	357.143
181.94	0.000
182.31	-457.143
182.69	866.667
183.07	-412.500
183.45	-388.889
183.83	345.455
184.20	-270.000
184.58	1850.000
184.96	4400.000
185.34	-580.000
185.72	-375.000
186.09	-1600.000
186.47	1550.000
186.85	1600.000
187.23	4400.000
187.61	-1400.000
187.98	1150.000
188.36	363.636
188.74	327.273
189.12	-560.000
189.49	400.000
189.87	-3600.000
190.25	-725.000
190.63	321.429
191.00	269.231
191.38	466.667
191.76	-900.000
192.14	1075.000
192.51	625.000
192.89	733.333
193.27	287.500
193.65	-900.000
194.02	370.000
194.40	640.000
194.78	360.000
195.15	408.333
195.53	430.000
195.91	-1250.000
196.29	281.250
196.66	289.474
197.04	-260.000
197.42	0.000
197.79	540.000
198.17	-2900.000
198.55	557.143
198.92	550.000
199.30	620.000
199.68	0.000
200.05	205.556
200.43	585.714
200.81	3800.000
201.18	1166.667
201.56	-1100.000
201.94	377.778
202.31	455.556
202.69	316.667
203.07	450.000
203.44	0.000
203.82	825.000
204.19	585.714
204.57	328.571
204.95	562.500
205.32	966.667
205.70	409.091
206.08	242.857
206.45	2050.000
206.83	268.750
207.20	516.667
207.58	460.000
207.96	261.111
208.33	475.000
208.71	-583.333
209.08	585.714
209.46	444.444
209.84	318.182
210.21	-1033.333
210.59	850.000
210.96	-287.500
211.34	1750.000
211.71	390.000
212.09	616.667
212.46	0.000
212.84	1333.333
213.22	975.000
213.59	-2600.000
213.97	516.667
214.34	628.571
214.72	409.091
215.09	620.000
215.47	-1600.000
215.84	-1500.000
216.22	1166.667
216.59	300.000
216.97	1150.000
217.34	354.545
217.72	-350.000
218.09	0.000
218.47	-3000.000
218.84	444.444
219.22	642.857
219.59	1066.667
219.97	-414.286
220.34	780.000
220.72	-1400.000
221.09	357.143
221.47	1300.000
221.84	-750.000
222.22	0.000
222.59	1025.000
222.97	-1850.000
223.34	880.000
223.72	307.692
224.09	780.000
224.46	1350.000
224.84	-3200.000
225.21	-700.000
225.59	-2200.000
225.96	440.000
226.34	240.000
226.71	1950.000
227.08	437.500
227.46	480.000
227.83	-675.000
228.21	-1550.000
228.58	455.556
228.95	-1400.000
229.33	-1550.000
229.70	1166.667
230.08	600.000
230.45	-620.000
230.82	283.333
231.20	550.000
231.57	342.857
231.95	358.333
232.32	168.182
232.69	372.727
233.07	485.714
233.44	253.846
233.81	-1000.000
234.19	221.053
234.56	333.333
234.93	350.000
235.31	409.091
235.68	253.846
236.05	292.857
236.43	121.212
236.80	168.421
237.17	2900.000
237.55	138.095
237.92	200.000
238.29	233.333
238.67	158.065
239.04	162.069
239.41	113.889
239.79	82.609
240.16	128.571
240.53	106.818
240.91	86.275
241.28	120.000
241.65	100.000
242.02	72.464
242.40	96.774
242.77	88.333
243.14	67.742
243.51	73.034
243.89	60.000
244.26	60.000
244.63	62.366
245.00	54.255
245.38	64.356
245.75	57.009
246.12	59.633
246.49	71.533
246.87	68.000
247.24	56.154
247.61	51.429
247.98	54.902
248.36	44.595
248.73	49.045
249.10	63.057
249.47	46.328
249.84	52.406
250.22	52.406
250.59	51.479
250.96	54.040
251.33	48.815
251.70	54.950
252.08	47.143
252.45	44.843
252.82	46.522
253.19	50.638
253.56	41.176
253.94	47.718
254.31	44.141
254.68	43.846
255.05	41.697
255.42	43.496
255.79	45.221
256.16	47.292
256.54	42.403
256.91	46.975
257.28	39.928
257.65	40.594
258.02	43.478
258.39	40.063
258.76	43.478
259.14	40.179
259.51	43.161
259.88	38.509
260.25	43.505
260.62	38.728
260.99	37.888
261.36	41.742
261.73	40.688
262.10	41.570
262.47	40.282
262.85	39.554
263.22	37.892
263.59	41.880
263.96	38.462
264.33	40.992
264.70	41.316
265.07	40.153
265.44	39.646
265.81	35.036
266.18	37.940
266.55	41.463
266.92	40.541
267.29	39.815
267.66	35.780
268.03	35.000
268.40	39.019
268.77	33.890
269.14	35.811
269.51	36.117
269.88	39.627
270.25	36.795
270.62	36.180
270.99	40.000
271.36	36.266
271.73	39.252
272.10	38.043
272.47	38.280
272.84	36.364
273.21	38.155
273.58	33.843
273.95	35.430
274.32	33.884
274.69	36.403
275.06	33.268
275.43	36.596
275.80	36.072
276.17	34.420
276.54	37.630
276.91	36.364
277.28	34.180
277.65	35.783
278.02	36.439
278.39	35.742
278.76	35.091
279.13	34.528
279.50	35.568
279.87	36.853
280.23	34.531
280.60	34.043
280.97	34.196
281.34	37.522
281.71	34.000
282.08	37.236
282.45	33.636
282.82	34.103
283.19	34.225
283.56	33.684
283.92	36.041
284.29	32.275
284.66	36.298
285.03	33.454
285.40	34.507
285.77	34.680
286.14	34.197
286.51	31.000
286.87	32.821
287.24	32.573
287.61	31.461
287.98	32.305
288.35	32.330
288.72	31.776
289.08	32.707
289.45	31.960
289.82	30.894
290.19	30.455
290.56	30.015
290.93	30.514
291.29	31.902
291.66	30.383
292.03	31.977
292.40	32.159
292.77	28.698
293.13	28.507
293.50	28.863
293.87	29.333
294.24	29.185
294.60	28.384
294.97	27.471
295.34	29.196
295.71	28.551
296.08	27.635
296.44	29.023
296.81	27.741
297.18	29.133
297.55	25.066
297.91	27.177
298.28	27.309
298.65	26.762
299.02	26.482
299.38	27.092
299.75	24.933
300.12	24.777
300.48	25.625
300.85	25.401
301.22	25.732
301.59	25.000
301.95	25.567
302.32	26.573
302.69	26.165
303.05	23.758
303.42	24.321
303.79	23.896
304.15	21.911
304.52	24.218
304.89	24.042
305.25	24.594
305.62	23.556
305.99	24.793
306.35	24.049
306.72	24.776
307.09	23.196
307.45	26.464
307.82	22.768
308.19	23.068
308.55	22.654
308.92	25.994
309.29	22.281
309.65	24.072
310.02	22.939
310.38	22.903
310.75	25.132
311.12	23.439
311.48	23.197
311.85	23.375
312.22	24.454
312.58	21.518
312.95	24.921
313.31	22.621
313.68	23.597
314.05	24.359
314.41	22.412
314.78	23.364
315.14	23.138
315.51	22.348
315.87	21.485
316.24	22.939
316.61	23.977
316.97	21.918
317.34	22.114
317.70	22.753
318.07	22.810
318.43	22.994
318.80	22.493
319.16	22.599
319.53	21.576
319.89	22.762
320.26	23.100
320.62	22.917
320.99	22.626
321.35	21.515
321.72	23.203
322.08	22.409
322.45	23.781
322.81	22.965
323.18	22.929
323.54	21.429
323.91	22.547
324.27	22.562
324.64	21.994
325.00	21.641
325.37	23.294
325.73	22.262
326.10	21.801
326.46	22.581
326.83	22.692
327.19	21.520
327.56	22.387
327.92	21.785
328.29	23.514
328.65	22.652
329.01	22.112
329.38	22.202
329.74	22.345
330.11	21.206
330.47	20.569
330.84	23.438
331.20	21.858
331.56	22.661
331.93	21.296
332.29	21.739
332.66	22.478
333.02	20.932
333.38	22.222
333.75	22.816
334.11	22.776
334.48	22.272
334.84	22.610
335.20	21.364
335.57	21.487
335.93	21.339
336.29	22.436
336.66	22.182
337.02	21.086
337.38	21.574
337.75	21.925
338.11	21.397
338.47	20.902
338.84	22.456
339.20	20.734
339.56	22.536
339.93	20.636
340.29	20.833
340.65	22.282
341.02	21.640
341.38	21.441
341.74	21.667
342.11	20.961
342.47	21.410
342.83	21.404
343.20	22.251
343.56	19.966
343.92	21.316
344.28	21.599
344.65	20.636
345.01	19.865
345.37	20.326
345.73	20.981
346.10	20.716
346.46	20.508
346.82	20.346
347.19	20.886
347.55	20.033
347.91	20.631
348.27	20.953
348.63	21.656
349.00	19.498
349.36	20.279
349.72	20.369
350.08	20.178
350.45	20.504
350.81	18.765
351.17	21.799
351.53	20.966
351.89	20.050
352.26	20.994
352.62	20.850
352.98	19.935
353.34	20.460
353.70	17.430
354.07	19.677
354.43	20.079
354.79	19.389
355.15	19.154
355.51	21.503
355.87	19.918
356.24	20.847
356.60	19.567
356.96	18.986
357.32	20.196
357.68	19.606
358.04	19.794
358.40	20.111
358.77	19.484
359.13	19.100
359.49	20.235
359.85	18.016
360.21	19.378
360.57	19.300
360.93	19.231
361.29	19.803
361.66	18.963
362.02	20.149
362.38	18.859
362.74	18.676
363.10	18.801
363.46	19.296
363.82	19.199
364.18	19.090
364.54	20.208
364.90	19.972
365.26	19.485
365.62	18.846
365.98	18.408
366.35	18.266
366.71	19.161
367.07	19.155
367.43	18.723
367.79	19.486
368.15	19.181
368.51	18.314
368.87	19.129
369.23	19.824
369.59	19.117
369.95	18.309
370.31	19.231
370.67	18.261
371.03	18.951
371.39	18.950
371.75	19.191
372.11	17.994
372.47	18.622
372.83	18.804
373.19	19.003
373.55	19.438
373.91	19.440
374.27	19.038
374.63	17.818
374.99	19.421
375.35	18.562
375.71	18.711
376.07	19.067
376.42	18.088
376.78	18.025
377.14	17.843
377.50	18.609
377.86	17.819
378.22	18.837
378.58	18.108
378.94	18.228
379.30	17.176
379.66	17.640
380.02	18.489
380.38	18.154
380.74	17.707
381.09	18.704
381.45	17.763
381.81	18.489
382.17	17.643
382.53	18.113
382.89	18.827
383.25	18.261
383.61	18.030
383.97	17.824
384.32	17.904
384.68	18.154
385.04	17.763
385.40	17.833
385.76	18.059
386.12	17.811
386.48	18.817
386.83	18.666
387.19	18.615
387.55	18.244
387.91	17.473
388.27	17.658
388.62	19.053
388.98	17.383
389.34	17.772
389.70	17.535
390.06	18.885
390.42	18.288
390.77	17.621
391.13	17.677
391.49	16.942
391.85	17.950
392.20	17.413
392.56	18.182
392.92	18.011
393.28	16.568
393.64	18.106
393.99	17.838
394.35	17.742
394.71	17.880
395.07	17.196
395.42	17.491
395.78	17.239
396.14	17.194
396.50	17.732
396.85	18.182
397.21	16.769
397.57	17.235
397.92	17.728
398.28	16.592
398.64	17.802
399.00	17.515
399.35	16.695
399.71	16.725
400.07	17.800
400.42	17.791
400.78	17.189
401.14	17.805
401.49	17.910
401.85	17.120
402.21	17.126
402.57	16.718
402.92	18.285
403.28	17.614
403.63	16.894
403.99	17.389
404.35	17.333
404.70	16.906
405.06	17.181
405.42	17.842
405.77	16.743
406.13	17.099
406.49	16.736
406.84	17.366
407.20	16.489
407.55	17.422
407.91	18.400
408.27	17.486
408.62	17.219
408.98	17.708
409.34	17.897
409.69	17.097
410.05	17.596
410.40	18.043
410.76	17.324
411.11	17.431
411.47	17.444
411.83	17.532
412.18	17.007
412.54	17.933
412.89	17.530
413.25	17.828
413.60	17.727
413.96	17.304
414.31	17.740
414.67	17.871
415.03	17.152
415.38	17.848
415.74	17.878
416.09	17.374
416.45	18.005
416.80	16.722
417.16	17.359
417.51	17.717
417.87	16.185
418.22	17.476
418.58	17.495
418.93	17.875
419.29	17.059
419.64	17.695
420.00	17.866
420.35	17.971
420.71	17.812
421.06	16.289
421.42	16.959
421.77	17.545
422.12	16.901
422.48	16.622
422.83	17.531
423.19	17.845
423.54	17.121
423.90	18.435
424.25	17.867
424.61	16.726
424.96	17.784
425.31	17.442
425.67	17.303
426.02	17.657
426.38	17.827
426.73	16.676
427.09	17.568
427.44	17.481
427.79	17.481
428.15	18.036
428.50	17.847
428.85	17.759
429.21	16.897
429.56	17.159
429.92	16.608
430.27	16.931
430.62	16.590
430.98	16.969
431.33	17.113
431.68	17.330
432.04	17.891
432.39	16.562
432.74	16.697
433.10	16.695
433.45	16.968
433.80	17.406
434.16	17.415
434.51	17.053
434.86	17.731
435.22	16.843
435.57	16.657
435.92	17.554
436.28	17.794
436.63	18.543
436.98	17.287
437.34	17.710
437.69	18.203
438.04	16.695
438.39	17.910
438.75	17.606
439.10	17.542
439.45	17.178
439.81	16.918
440.16	16.996
440.51	17.165
440.86	17.429
441.22	17.853
441.57	16.879
441.92	17.195
442.27	17.061
442.63	17.430
442.98	17.915
443.33	17.337
443.68	17.192
444.03	17.570
444.39	16.748
444.74	17.857
445.09	17.951
445.44	17.988
445.79	17.417
446.15	18.211
446.50	17.447
446.85	17.318
447.20	17.593
447.55	17.253
447.91	17.430
448.26	17.474
448.61	16.902
448.96	18.106
449.31	17.773
449.66	17.276
450.02	16.880
450.37	17.517
450.72	17.484
451.07	17.063
451.42	17.629
451.77	18.203
452.12	17.552
452.47	17.910
452.83	17.541
453.18	18.154
453.53	18.429
453.88	17.129
454.23	18.410
454.58	17.989
454.93	18.945
455.28	17.955
455.63	17.779
455.98	17.500
456.34	17.965
456.69	17.971
457.04	18.514
457.39	17.767
457.74	17.934
458.09	17.884
458.44	17.674
458.79	17.028
459.14	17.720
459.49	17.922
459.84	17.673
460.19	18.444
460.54	18.345
460.89	18.541
461.24	18.154
461.59	19.756
461.94	18.126
462.29	18.457
462.64	18.251
462.99	17.892
463.34	18.133
463.69	17.824
464.04	18.551
464.39	18.841
464.74	18.004
465.09	18.335
465.44	17.008
465.79	17.114
466.14	17.734
466.49	17.519
466.84	18.564
467.19	18.286
467.54	18.687
467.89	17.527
468.24	18.266
468.59	19.170
468.94	17.838
469.29	18.059
469.64	18.675
469.99	18.403
470.34	17.834
470.68	18.678
471.03	17.619
471.38	18.763
471.73	18.921
472.08	18.816
472.43	18.467
472.78	18.302
473.13	18.742
473.48	19.538
473.83	19.024
474.17	17.735
474.52	18.734
474.87	18.447
475.22	18.398
475.57	18.001
475.92	18.216
476.27	18.546
476.61	18.147
476.96	18.087
477.31	17.478
477.66	18.107
478.01	17.721
478.36	17.980
478.70	17.394
479.05	18.637
479.40	18.270
479.75	17.539
480.10	17.942
480.45	17.373
480.79	17.296
481.14	18.689
481.49	17.845
481.84	18.016
482.19	18.128
482.53	17.844
482.88	17.590
483.23	18.131
483.58	17.652
483.92	17.666
484.27	17.124
484.62	17.716
484.97	17.304
485.31	17.089
485.66	16.396
486.01	15.973
486.36	15.856
486.70	15.703
487.05	16.103
487.40	16.216
487.75	16.210
488.09	16.591
488.44	16.945
488.79	17.324
489.13	16.845
489.48	17.007
489.83	17.695
490.17	17.580
490.52	17.759
490.87	17.910
491.22	17.553
491.56	17.358
491.91	18.427
492.26	18.374
492.60	18.249
492.95	17.587
493.30	17.991
493.64	17.639
493.99	18.152
494.34	18.039
494.68	18.544
495.03	18.374
495.37	18.846
495.72	18.275
496.07	18.051
496.41	17.655
496.76	17.766
497.11	17.965
497.45	18.072
497.80	18.186
498.14	17.585
498.49	18.585
498.84	17.929
499.18	18.238
499.53	17.854
499.87	18.313
500.22	18.041
500.56	19.320
500.91	17.500
501.26	18.208
501.60	18.462
501.95	18.148
502.29	17.994
502.64	18.296
502.98	18.326
503.33	18.327
503.67	18.144
504.02	18.054
504.36	18.718
504.71	18.661
505.06	18.024
505.40	18.571
505.75	17.743
506.09	18.124
506.44	18.254
506.78	18.217
507.13	18.324
507.47	19.141
507.82	18.744
508.16	18.490
508.51	19.330
508.85	18.272
509.19	18.724
509.54	18.622
509.88	18.753
510.23	18.355
510.57	19.814
510.92	18.540
511.26	18.962
511.61	18.568
511.95	18.476
512.30	18.505
512.64	19.130
512.98	19.453
513.33	19.433
513.67	19.317
514.02	18.777
514.36	19.115
514.70	19.480
515.05	19.018
515.39	19.462
515.74	18.975
516.08	19.843
516.42	19.534
516.77	20.011
517.11	19.478
517.46	19.526
517.80	20.151
518.14	18.413
518.49	19.720
518.83	19.773
519.17	18.938
519.52	19.355
519.86	19.852
520.20	19.538
520.55	19.988
520.89	20.438
521.23	20.567
521.58	19.988
521.92	19.841
522.26	19.341
522.61	19.564
522.95	19.337
523.29	19.294
523.64	19.878
523.98	20.579
524.32	20.145
524.66	19.844
525.01	20.527
525.35	20.508
525.69	19.828
526.04	20.561
526.38	20.378
526.72	19.877
527.06	20.904
527.41	18.688
527.75	20.386
528.09	20.681
528.43	20.140
528.78	20.221
529.12	20.121
529.46	20.269
529.80	20.978
530.15	20.125
530.49	19.385
530.83	20.316
531.17	20.235
531.51	21.077
531.86	21.097
532.20	20.535
532.54	20.051
532.88	21.181
533.22	20.112
533.57	20.000
533.91	20.169
534.25	20.170
534.59	20.134
534.93	19.572
535.27	19.493
535.62	20.391
535.96	20.841
536.30	19.072
536.64	19.639
536.98	20.836
537.32	19.552
537.66	19.933
538.01	19.552
538.35	20.362
538.69	20.549
539.03	20.143
539.37	18.786
539.71	19.248
540.05	19.608
540.39	19.668
540.73	20.375
541.07	20.636
541.42	20.417
541.76	19.806
542.10	20.505
542.44	20.662
542.78	20.553
543.12	18.682
543.46	20.918
543.80	20.299
544.14	18.421
544.48	20.190
544.82	20.462
545.16	20.169
545.50	19.537
545.84	20.296
546.18	19.596
546.52	20.303
546.86	20.137
547.20	20.904
547.54	20.574
547.88	20.791
548.22	19.240
548.56	20.000
548.90	19.654
549.24	19.529
549.58	20.532
549.92	20.398
550.26	20.881
550.60	20.332
550.94	20.070
551.28	21.068
551.62	20.848
551.96	19.789
552.30	20.887
552.64	20.149
552.98	20.542
553.32	20.701
553.66	20.927
554.00	21.139
554.34	20.635
554.68	21.173
555.02	20.522
555.36	20.877
555.69	19.892
556.03	20.458
556.37	20.396
556.71	20.396
557.05	20.868
557.39	20.574
557.73	21.030
558.07	21.320
558.41	20.405
558.75	21.234
559.08	20.507
559.42	21.013
559.76	21.324
560.10	20.842
560.44	21.314
560.78	19.760
561.12	20.580
561.45	20.404
561.79	20.105
562.13	20.389
562.47	20.492
562.81	20.014
563.15	20.334
563.48	20.159
563.82	20.026
564.16	20.144
564.50	19.271
564.84	19.848
565.17	20.592
565.51	20.383
565.85	21.129
566.19	19.662
566.52	19.696
566.86	19.470
567.20	20.224
567.54	19.635
567.88	19.772
568.21	19.418
568.55	18.807
568.89	18.920
569.23	18.939
569.56	17.814
569.90	17.925
570.24	17.940
570.57	18.055
570.91	16.839
571.25	17.264
571.59	17.320
571.92	17.425
572.26	17.331
572.60	17.508
572.93	16.972
573.27	17.096
573.61	17.560
573.95	17.054
574.28	16.558
574.62	16.715
574.96	16.703
575.29	16.756
575.63	17.378
575.97	16.688
576.30	16.782
576.64	16.578
576.98	16.310
577.31	16.613
577.65	16.895
577.98	16.486
578.32	16.064
578.66	16.562
578.99	16.366
579.33	16.437
579.67	16.273
580.00	16.567
580.34	16.849
580.67	16.686
581.01	16.888
581.35	16.384
581.68	16.626
582.02	15.952
582.35	16.365
582.69	16.354
583.02	16.573
583.36	16.694
583.70	16.733
584.03	16.797
584.37	16.733
584.70	16.980
585.04	16.610
585.37	16.636
585.71	16.612
586.04	17.057
586.38	17.085
586.72	17.371
587.05	16.762
587.39	16.544
587.72	16.851
588.06	16.542
588.39	17.695
588.73	16.867
589.06	17.233
589.40	17.441
589.73	17.459
590.07	17.438
590.40	17.172
590.73	17.408
591.07	18.112
591.40	17.967
591.74	18.571
592.07	18.412
592.41	17.735
592.74	17.453
593.08	17.355
593.41	16.957
593.75	17.083
594.08	17.231
594.41	17.745
594.75	17.708
595.08	17.144
595.42	17.443
595.75	16.952
596.09	18.062
596.42	18.035
596.75	17.518
597.09	18.615
597.42	17.201
597.75	18.154
598.09	18.652
598.42	17.741
598.76	17.471
599.09	18.054
599.42	17.394
599.76	17.533
600.09	17.086
600.42	17.202
600.76	16.893
601.09	17.377
601.42	17.542
601.76	17.306
602.09	17.628
602.42	17.237
602.76	17.735
603.09	17.860
603.42	18.157
603.76	17.492
604.09	17.836
604.42	17.611
604.76	17.967
605.09	17.824
605.42	17.486
605.75	17.508
606.09	17.324
606.42	17.573
606.75	17.835
607.09	17.999
607.42	17.458
607.75	17.679
608.08	17.803
608.42	18.108
608.75	17.809
609.08	17.299
609.41	18.277
609.75	17.532
610.08	17.861
610.41	17.784
610.74	18.307
611.07	18.528
611.41	18.155
611.74	18.451
612.07	18.634
612.40	18.206
612.73	18.474
613.07	19.127
613.40	18.378
613.73	17.672
614.06	18.495
614.39	18.406
614.72	18.368
615.06	18.540
615.39	18.524
615.72	19.274
616.05	17.703
616.38	19.011
616.71	19.418
617.05	19.552
617.38	19.122
617.71	19.459
618.04	18.870
618.37	18.687
618.70	19.104
619.03	19.737
619.36	19.823
619.69	19.507
620.03	20.192
620.36	19.051
620.69	20.137
621.02	20.723
621.35	19.734
621.68	19.626
622.01	20.511
622.34	20.651
622.67	20.000
623.00	20.470
623.33	19.228
623.66	19.657
623.99	20.177
624.32	19.900
624.65	19.986
624.99	19.618
625.32	20.058
625.65	19.234
625.98	19.677
626.31	20.607
626.64	20.490
626.97	19.950
627.30	20.615
627.63	22.067
627.96	21.951
628.29	21.522
628.62	21.958
628.95	22.453
629.28	20.712
629.61	22.456
629.94	22.571
630.26	22.212
630.59	21.926
630.92	21.360
631.25	20.336
