SpectraSuite Data File
++++++++++++++++++++++++++++++++++++
Date: Wed May 13 20:45:13 PDT 2015
User: schluterlab
Dark Spectrum Present: Yes
Reference Spectrum Present: Yes
Number of Sampled Component Spectra: 1
Spectrometers: USB2E3373
Integration Time (usec): 3000 (USB2E3373)
Spectra Averaged: 3 (USB2E3373)
Boxcar Smoothing: 0 (USB2E3373)
Correct for Electrical Dark: No (USB2E3373)
Strobe/Lamp Enabled: No (USB2E3373)
Correct for Detector Non-linearity: No (USB2E3373)
Correct for Stray Light: No (USB2E3373)
Number of Pixels in Processed Spectrum: 2048
>>>>>Begin Processed Spectral Data<<<<<
178.53	0.000
178.91	-700.000
179.29	-875.000
179.67	-138.889
180.04	-750.000
180.42	1650.000
180.80	800.000
181.18	-600.000
181.56	357.143
181.94	0.000
182.31	-314.286
182.69	1066.667
183.07	-312.500
183.45	-333.333
183.83	363.636
184.20	-230.000
184.58	1300.000
184.96	3000.000
185.34	-440.000
185.72	-350.000
186.09	-1200.000
186.47	1600.000
186.85	1700.000
187.23	3600.000
187.61	-1066.667
187.98	825.000
188.36	381.818
188.74	354.545
189.12	-460.000
189.49	320.000
189.87	-3700.000
190.25	-725.000
190.63	271.429
191.00	346.154
191.38	500.000
191.76	-600.000
192.14	825.000
192.51	387.500
192.89	566.667
193.27	362.500
193.65	-875.000
194.02	390.000
194.40	460.000
194.78	420.000
195.15	275.000
195.53	480.000
195.91	-1400.000
196.29	287.500
196.66	252.632
197.04	-190.000
197.42	0.000
197.79	350.000
198.17	-2800.000
198.55	371.429
198.92	337.500
199.30	540.000
199.68	0.000
200.05	222.222
200.43	500.000
200.81	3200.000
201.18	700.000
201.56	-1100.000
201.94	355.556
202.31	455.556
202.69	191.667
203.07	370.000
203.44	0.000
203.82	875.000
204.19	614.286
204.57	328.571
204.95	337.500
205.32	1000.000
205.70	327.273
206.08	235.714
206.45	1750.000
206.83	200.000
207.20	466.667
207.58	700.000
207.96	194.444
208.33	400.000
208.71	-383.333
209.08	357.143
209.46	411.111
209.84	300.000
210.21	-800.000
210.59	925.000
210.96	-262.500
211.34	1700.000
211.71	430.000
212.09	416.667
212.46	0.000
212.84	966.667
213.22	800.000
213.59	-2500.000
213.97	616.667
214.34	557.143
214.72	390.909
215.09	660.000
215.47	-1700.000
215.84	-1250.000
216.22	766.667
216.59	228.571
216.97	650.000
217.34	254.545
217.72	-316.667
218.09	0.000
218.47	-2700.000
218.84	500.000
219.22	514.286
219.59	1200.000
219.97	-357.143
220.34	780.000
220.72	-900.000
221.09	285.714
221.47	800.000
221.84	-683.333
222.22	0.000
222.59	900.000
222.97	-1650.000
223.34	660.000
223.72	253.846
224.09	820.000
224.46	1300.000
224.84	-2200.000
225.21	-580.000
225.59	-3500.000
225.96	380.000
226.34	210.000
226.71	1950.000
227.08	450.000
227.46	330.000
227.83	-500.000
228.21	-1450.000
228.58	344.444
228.95	-1600.000
229.33	-1250.000
229.70	966.667
230.08	542.857
230.45	-440.000
230.82	300.000
231.20	666.667
231.57	471.429
231.95	283.333
232.32	154.545
232.69	236.364
233.07	414.286
233.44	238.462
233.81	-766.667
234.19	178.947
234.56	333.333
234.93	208.333
235.31	345.455
235.68	238.462
236.05	207.143
236.43	133.333
236.80	115.789
237.17	1900.000
237.55	66.667
237.92	96.429
238.29	114.286
238.67	103.226
239.04	110.345
239.41	100.000
239.79	71.739
240.16	76.190
240.53	70.455
240.91	56.863
241.28	64.000
241.65	50.000
242.02	49.275
242.40	46.774
242.77	56.667
243.14	44.086
243.51	38.202
243.89	34.118
244.26	25.556
244.63	32.258
245.00	29.787
245.38	31.683
245.75	27.103
246.12	24.771
246.49	31.387
246.87	29.600
247.24	25.385
247.61	27.857
247.98	24.183
248.36	15.541
248.73	19.108
249.10	27.389
249.47	20.904
249.84	26.203
250.22	21.925
250.59	21.302
250.96	18.687
251.33	16.114
251.70	23.267
252.08	19.048
252.45	14.798
252.82	15.217
253.19	18.723
253.56	16.471
253.94	18.257
254.31	17.578
254.68	15.769
255.05	14.760
255.42	16.260
255.79	12.868
256.16	14.801
256.54	10.601
256.91	16.370
257.28	12.590
257.65	16.502
258.02	15.217
258.39	14.826
258.76	12.040
259.14	12.500
259.51	11.854
259.88	7.453
260.25	13.293
260.62	13.295
260.99	9.938
261.36	16.216
261.73	13.754
262.10	9.884
262.47	10.141
262.85	11.142
263.22	9.117
263.59	11.396
263.96	9.341
264.33	10.966
264.70	9.211
265.07	12.532
265.44	9.848
265.81	8.759
266.18	7.286
266.55	7.805
266.92	8.354
267.29	10.648
267.66	9.174
268.03	11.591
268.40	11.215
268.77	6.683
269.14	10.811
269.51	13.093
269.88	9.324
270.25	8.804
270.62	11.910
270.99	11.183
271.36	9.871
271.73	7.243
272.10	8.696
272.47	12.043
272.84	10.173
273.21	10.482
273.58	10.044
273.95	9.853
274.32	9.091
274.69	9.850
275.06	7.480
275.43	9.362
275.80	9.419
276.17	8.147
276.54	8.524
276.91	9.881
277.28	9.375
277.65	11.025
278.02	6.625
278.39	10.742
278.76	9.455
279.13	9.245
279.50	10.615
279.87	7.968
280.23	8.982
280.60	8.897
280.97	6.470
281.34	7.611
281.71	8.364
282.08	9.597
282.45	7.636
282.82	8.526
283.19	6.061
283.56	8.246
283.92	9.814
284.29	7.584
284.66	6.534
285.03	6.691
285.40	7.746
285.77	7.407
286.14	6.908
286.51	9.333
286.87	8.547
287.24	8.958
287.61	7.544
287.98	7.468
288.35	6.973
288.72	6.698
289.08	6.886
289.45	7.084
289.82	7.154
290.19	7.535
290.56	7.351
290.93	6.193
291.29	6.748
291.66	7.670
292.03	9.738
292.40	8.957
292.77	6.657
293.13	7.761
293.50	7.726
293.87	6.815
294.24	4.593
294.60	6.841
294.97	6.105
295.34	8.886
295.71	7.812
296.08	6.553
296.44	6.878
296.81	6.473
297.18	8.537
297.55	5.541
297.91	5.277
298.28	7.095
298.65	7.572
299.02	7.246
299.38	7.171
299.75	4.582
300.12	5.109
300.48	5.750
300.85	6.535
301.22	7.006
301.59	5.303
301.95	5.919
302.32	5.520
302.69	7.288
303.05	6.182
303.42	4.198
303.79	6.342
304.15	5.361
304.52	5.678
304.89	5.343
305.25	5.684
305.62	6.682
305.99	6.375
306.35	6.376
306.72	6.278
307.09	5.882
307.45	6.532
307.82	5.246
308.19	6.071
308.55	6.365
308.92	5.156
309.29	5.069
309.65	6.575
310.02	6.554
310.38	4.624
310.75	7.286
311.12	6.858
311.48	6.583
311.85	7.128
312.22	5.931
312.58	5.925
312.95	5.597
313.31	6.505
313.68	6.757
314.05	8.974
314.41	7.538
314.78	5.438
315.14	5.958
315.51	6.282
315.87	7.525
316.24	6.852
316.61	6.335
316.97	6.458
317.34	6.458
317.70	7.075
318.07	7.603
318.43	6.751
318.80	8.247
319.16	7.910
319.53	7.974
319.89	8.286
320.26	8.300
320.62	8.333
320.99	9.596
321.35	9.394
321.72	9.035
322.08	9.082
322.45	9.851
322.81	9.399
323.18	9.923
323.54	9.369
323.91	9.811
324.27	8.604
324.64	9.786
325.00	10.730
325.37	11.556
325.73	11.221
326.10	11.650
326.46	11.470
326.83	11.907
327.19	11.272
327.56	11.063
327.92	12.073
328.29	12.689
328.65	12.891
329.01	12.906
329.38	11.933
329.74	13.112
330.11	12.912
330.47	12.489
330.84	14.522
331.20	13.843
331.56	13.486
331.93	13.704
332.29	13.753
332.66	15.398
333.02	14.168
333.38	15.176
333.75	15.152
334.11	13.701
334.48	13.310
334.84	14.614
335.20	14.455
335.57	14.234
335.93	13.750
336.29	14.835
336.66	15.419
337.02	14.480
337.38	15.093
337.75	14.706
338.11	15.756
338.47	15.378
338.84	16.132
339.20	14.220
339.56	16.150
339.93	13.727
340.29	14.583
340.65	15.330
341.02	15.009
341.38	16.192
341.74	15.351
342.11	15.459
342.47	15.683
342.83	16.353
343.20	16.537
343.56	15.080
343.92	16.404
344.28	15.306
344.65	16.337
345.01	14.899
345.37	15.437
345.73	16.920
346.10	15.516
346.46	16.017
346.82	15.404
347.19	15.372
347.55	16.010
347.91	17.880
348.27	16.598
348.63	16.304
349.00	16.100
349.36	16.749
349.72	16.840
350.08	16.207
350.45	16.436
350.81	16.003
351.17	16.613
351.53	16.380
351.89	15.347
352.26	17.522
352.62	17.241
352.98	16.856
353.34	16.763
353.70	17.103
354.07	17.742
354.43	17.619
354.79	16.412
355.15	17.159
355.51	17.906
355.87	16.571
356.24	17.182
356.60	17.322
356.96	17.216
357.32	16.762
357.68	16.693
358.04	17.181
358.40	18.527
358.77	18.310
359.13	17.364
359.49	17.569
359.85	17.143
360.21	17.065
360.57	17.743
360.93	19.385
361.29	17.687
361.66	16.718
362.02	18.134
362.38	17.567
362.74	17.857
363.10	17.543
363.46	17.461
363.82	18.141
364.18	18.943
364.54	19.094
364.90	18.839
365.26	18.603
365.62	19.576
365.98	18.408
366.35	18.338
366.71	19.234
367.07	19.009
367.43	19.521
367.79	19.129
368.15	21.049
368.51	19.041
368.87	20.057
369.23	19.605
369.59	19.841
369.95	19.191
370.31	20.655
370.67	19.565
371.03	20.899
371.39	19.971
371.75	19.853
372.11	20.270
372.47	20.308
372.83	20.389
373.19	19.436
373.55	20.103
373.91	21.576
374.27	20.481
374.63	20.800
374.99	21.963
375.35	20.935
375.71	20.425
376.07	22.222
376.42	20.633
376.78	21.869
377.14	21.303
377.50	21.722
377.86	20.545
378.22	22.440
378.58	21.554
378.94	20.679
379.30	22.328
379.66	22.462
380.02	22.052
380.38	21.979
380.74	23.049
381.09	22.372
381.45	22.864
381.81	21.990
382.17	22.675
382.53	21.950
382.89	23.210
383.25	22.764
383.61	23.172
383.97	22.326
384.32	23.269
384.68	23.544
385.04	23.663
385.40	22.910
385.76	23.342
386.12	23.316
386.48	24.544
386.83	24.567
387.19	24.057
387.55	23.995
387.91	23.277
388.27	23.850
388.62	24.155
388.98	24.754
389.34	24.718
389.70	23.360
390.06	24.968
390.42	23.476
390.77	25.064
391.13	25.973
391.49	25.000
391.85	24.507
392.20	24.101
392.56	24.874
392.92	25.132
393.28	24.615
393.64	25.060
393.99	25.779
394.35	24.876
394.71	25.345
395.07	25.109
395.42	25.525
395.78	25.127
396.14	25.574
396.50	26.253
396.85	27.082
397.21	25.092
397.57	25.418
397.92	25.421
398.28	25.392
398.64	25.687
399.00	25.630
399.35	25.324
399.71	26.505
400.07	25.606
400.42	25.583
400.78	26.960
401.14	25.000
401.49	26.030
401.85	25.650
402.21	25.150
402.57	24.800
402.92	25.284
403.28	25.234
403.63	25.371
403.99	25.924
404.35	24.667
404.70	25.120
405.06	25.451
405.42	25.951
405.77	25.771
406.13	25.508
406.49	25.784
406.84	25.340
407.20	25.059
407.55	26.803
407.91	26.133
408.27	26.037
408.62	25.888
408.98	25.674
409.34	25.646
409.69	24.839
410.05	26.022
410.40	25.688
410.76	25.747
411.11	25.995
411.47	25.240
411.83	26.329
412.18	25.912
412.54	25.592
412.89	26.265
413.25	25.856
413.60	26.313
413.96	25.258
414.31	26.002
414.67	26.109
415.03	25.166
415.38	25.838
415.74	25.531
416.09	25.408
416.45	25.703
416.80	25.314
417.16	26.072
417.51	25.083
417.87	24.663
418.22	26.057
418.58	25.629
418.93	26.106
419.29	26.671
419.64	25.819
420.00	25.854
420.35	25.623
420.71	26.121
421.06	25.298
421.42	25.848
421.77	26.289
422.12	25.154
422.48	25.634
422.83	25.160
423.19	26.133
423.54	25.073
423.90	26.087
424.25	25.963
424.61	24.821
424.96	26.064
425.31	25.914
425.67	25.112
426.02	26.343
426.38	26.496
426.73	24.868
427.09	25.775
427.44	25.819
427.79	25.589
428.15	26.369
428.50	24.868
428.85	25.983
429.21	24.848
429.56	25.143
429.92	25.063
430.27	25.670
430.62	25.755
430.98	25.688
431.33	25.825
431.68	25.707
432.04	25.825
432.39	25.300
432.74	26.032
433.10	24.618
433.45	26.297
433.80	25.166
434.16	25.214
434.51	25.579
434.86	26.226
435.22	25.792
435.57	26.079
435.92	25.453
436.28	25.919
436.63	26.049
436.98	26.102
437.34	25.880
437.69	25.904
438.04	25.970
438.39	25.910
438.75	26.031
439.10	26.480
439.45	26.092
439.81	26.284
440.16	26.030
440.51	25.542
440.86	27.157
441.22	26.363
441.57	26.115
441.92	26.510
442.27	25.727
442.63	26.277
442.98	27.042
443.33	26.467
443.68	25.142
444.03	26.110
444.39	25.949
444.74	25.433
445.09	26.415
445.44	26.134
445.79	25.235
446.15	26.310
446.50	25.740
446.85	26.053
447.20	26.262
447.55	25.907
447.91	26.475
448.26	26.433
448.61	25.890
448.96	26.578
449.31	26.097
449.66	26.111
450.02	25.237
450.37	25.850
450.72	25.437
451.07	25.168
451.42	24.802
451.77	26.365
452.12	25.404
452.47	25.684
452.83	25.932
453.18	25.611
453.53	25.788
453.88	24.395
454.23	25.164
454.58	26.166
454.93	26.383
455.28	25.561
455.63	25.607
455.98	26.071
456.34	26.068
456.69	25.924
457.04	26.192
457.39	26.534
457.74	24.840
458.09	25.704
458.44	24.800
458.79	24.946
459.14	25.564
459.49	25.686
459.84	25.263
460.19	24.867
460.54	24.306
460.89	25.069
461.24	25.258
461.59	25.741
461.94	25.031
462.29	25.816
462.64	24.952
462.99	24.008
463.34	25.400
463.69	25.016
464.04	25.565
464.39	25.043
464.74	25.193
465.09	24.789
465.44	25.097
465.79	24.664
466.14	25.123
466.49	25.250
466.84	25.511
467.19	25.166
467.54	25.750
467.89	24.550
468.24	24.782
468.59	25.092
468.94	24.496
469.29	24.807
469.64	25.569
469.99	25.237
470.34	24.835
470.68	24.784
471.03	25.034
471.38	25.365
471.73	24.584
472.08	26.118
472.43	24.497
472.78	24.951
473.13	25.417
473.48	25.468
473.83	24.878
474.17	24.580
474.52	24.504
474.87	24.577
475.22	24.492
475.57	23.912
475.92	23.261
476.27	24.126
476.61	25.041
476.96	23.529
477.31	23.862
477.66	24.070
478.01	23.628
478.36	24.907
478.70	23.416
479.05	24.121
479.40	24.104
479.75	24.047
480.10	23.410
480.45	23.513
480.79	23.268
481.14	23.728
481.49	24.300
481.84	23.000
482.19	23.853
482.53	23.578
482.88	23.546
483.23	23.364
483.58	22.884
483.92	22.446
484.27	22.397
484.62	22.931
484.97	23.019
485.31	22.842
485.66	21.927
486.01	22.937
486.36	22.559
486.70	22.145
487.05	22.463
487.40	22.217
487.75	21.632
488.09	21.474
488.44	21.047
488.79	21.555
489.13	21.276
489.48	22.145
489.83	22.270
490.17	23.104
490.52	21.745
490.87	22.931
491.22	22.146
491.56	22.733
491.91	21.824
492.26	22.370
492.60	21.659
492.95	21.422
493.30	21.869
493.64	21.605
493.99	22.656
494.34	22.710
494.68	22.848
495.03	22.462
495.37	21.964
495.72	21.540
496.07	22.923
496.41	20.619
496.76	21.548
497.11	21.387
497.45	21.612
497.80	21.353
498.14	21.739
498.49	21.707
498.84	21.812
499.18	21.762
499.53	21.415
499.87	21.435
500.22	21.997
500.56	22.330
500.91	21.923
501.26	22.048
501.60	22.402
501.95	21.723
502.29	22.962
502.64	22.114
502.98	21.833
503.33	21.846
503.67	22.135
504.02	21.749
504.36	21.947
504.71	22.472
505.06	22.747
505.40	21.536
505.75	20.685
506.09	21.186
506.44	22.250
506.78	21.627
507.13	22.060
507.47	22.475
507.82	21.733
508.16	22.746
508.51	21.816
508.85	22.145
509.19	21.531
509.54	21.429
509.88	21.072
510.23	21.594
510.57	23.942
510.92	22.061
511.26	21.634
511.61	21.940
511.95	21.033
512.30	20.891
512.64	21.977
512.98	21.811
513.33	22.270
513.67	22.038
514.02	21.104
514.36	22.174
514.70	22.468
515.05	21.249
515.39	21.761
515.74	22.016
516.08	22.247
516.42	22.364
516.77	22.297
517.11	20.644
517.46	22.686
517.80	22.184
518.14	21.309
518.49	22.462
518.83	21.818
519.17	21.189
519.52	21.732
519.86	22.305
520.20	22.543
520.55	22.083
520.89	21.290
521.23	22.075
521.58	22.149
521.92	21.923
522.26	21.171
522.61	21.869
522.95	21.731
523.29	21.363
523.64	21.829
523.98	22.243
524.32	21.834
524.66	22.730
525.01	22.672
525.35	22.924
525.69	21.552
526.04	22.492
526.38	21.354
526.72	21.656
527.06	22.034
527.41	20.421
527.75	21.672
528.09	21.837
528.43	21.287
528.78	22.065
529.12	20.606
529.46	21.800
529.80	22.339
530.15	22.368
530.49	20.554
530.83	21.962
531.17	21.802
531.51	21.855
531.86	21.097
532.20	21.969
532.54	21.781
532.88	21.053
533.22	20.550
533.57	21.543
533.91	20.229
534.25	21.446
534.59	20.439
534.93	20.821
535.27	21.545
535.62	20.940
535.96	21.594
536.30	21.297
536.64	21.056
536.98	20.836
537.32	21.066
537.66	20.133
538.01	20.606
538.35	21.073
538.69	21.634
539.03	20.533
539.37	20.128
539.71	19.054
540.05	20.523
540.39	20.199
540.73	20.310
541.07	20.766
541.42	21.005
541.76	21.355
542.10	20.505
542.44	20.596
542.78	20.290
543.12	20.537
543.46	20.328
543.80	20.560
544.14	20.218
544.48	21.079
544.82	19.500
545.16	20.039
545.50	20.051
545.84	20.363
546.18	19.933
546.52	20.234
546.86	19.313
547.20	19.555
547.54	19.706
547.88	20.472
548.22	19.863
548.56	20.629
548.90	20.166
549.24	19.663
549.58	20.464
549.92	20.604
550.26	20.313
550.60	19.156
550.94	19.930
551.28	18.142
551.62	19.410
551.96	19.298
552.30	20.000
552.64	19.811
552.98	20.814
553.32	20.566
553.66	20.723
554.00	19.561
554.34	19.600
554.68	20.601
555.02	19.535
555.36	19.415
555.69	18.539
556.03	19.515
556.37	19.372
556.71	19.645
557.05	19.468
557.39	19.874
557.73	19.619
558.07	18.999
558.41	19.320
558.75	19.544
559.08	20.134
559.42	19.803
559.76	19.632
560.10	18.986
560.44	19.217
560.78	18.496
561.12	18.865
561.45	20.535
561.79	18.853
562.13	18.712
562.47	18.716
562.81	20.642
563.15	18.328
563.48	18.966
563.82	18.134
564.16	18.836
564.50	18.034
564.84	18.521
565.17	18.662
565.51	18.658
565.85	19.289
566.19	18.410
566.52	18.809
566.86	17.842
567.20	18.809
567.54	18.607
567.88	17.925
568.21	18.677
568.55	18.301
568.89	18.093
569.23	17.825
569.56	17.571
569.90	17.925
570.24	17.330
570.57	17.715
570.91	17.001
571.25	17.233
571.59	16.613
571.92	17.051
572.26	16.782
572.60	17.177
572.93	16.852
573.27	17.155
573.61	17.030
573.95	17.235
574.28	16.633
574.62	16.667
574.96	16.631
575.29	16.731
575.63	17.073
575.97	16.662
576.30	16.808
576.64	15.972
576.98	16.675
577.31	16.197
577.65	16.808
577.98	16.807
578.32	16.402
578.66	16.352
578.99	16.503
579.33	16.340
579.67	15.690
580.00	16.327
580.34	16.754
580.67	16.143
581.01	16.348
581.35	15.975
581.68	16.273
582.02	16.162
582.35	16.239
582.69	16.316
583.02	16.342
583.36	16.071
583.70	16.084
584.03	15.622
584.37	16.126
584.70	16.066
585.04	16.096
585.37	16.240
585.71	16.259
586.04	15.849
586.38	16.327
586.72	16.680
587.05	15.757
587.39	16.227
587.72	16.413
588.06	15.982
588.39	16.461
588.73	15.899
589.06	16.049
589.40	15.589
589.73	15.734
590.07	15.658
590.40	16.113
590.73	16.198
591.07	16.891
591.40	16.069
591.74	16.537
592.07	16.798
592.41	16.412
592.74	16.255
593.08	16.123
593.41	15.849
593.75	16.052
594.08	16.225
594.41	15.871
594.75	15.490
595.08	15.820
595.42	15.692
595.75	16.667
596.09	15.959
596.42	16.071
596.75	15.956
597.09	16.147
597.42	15.304
597.75	16.041
598.09	15.783
598.42	16.194
598.76	15.201
599.09	15.621
599.42	15.684
599.76	16.325
600.09	15.519
600.42	15.632
600.76	15.464
601.09	15.701
601.42	15.639
601.76	15.370
602.09	15.534
602.42	15.963
602.76	16.123
603.09	15.421
603.42	15.892
603.76	15.663
604.09	15.394
604.42	15.369
604.76	15.900
605.09	16.470
605.42	15.605
605.75	15.646
606.09	15.169
606.42	15.447
606.75	15.512
607.09	15.655
607.42	14.934
607.75	15.359
608.08	14.937
608.42	15.464
608.75	15.735
609.08	15.032
609.41	15.421
609.75	15.436
610.08	15.646
610.41	14.479
610.74	15.279
611.07	15.069
611.41	15.554
611.74	16.038
612.07	15.424
612.40	15.530
612.73	15.316
613.07	16.110
613.40	16.640
613.73	14.316
614.06	15.269
614.39	16.518
614.72	15.211
615.06	16.124
615.39	14.597
615.72	14.928
616.05	15.630
616.38	15.342
616.71	16.449
617.05	15.135
617.38	15.274
617.71	15.616
618.04	15.385
618.37	14.902
618.70	15.184
619.03	15.658
619.36	16.225
619.69	15.563
620.03	15.728
620.36	15.909
620.69	16.301
621.02	16.519
621.35	15.897
621.68	15.654
622.01	16.331
622.34	16.036
622.67	15.437
623.00	16.214
623.33	15.154
623.66	15.583
623.99	16.053
624.32	15.763
624.65	15.749
624.99	15.864
625.32	14.844
625.65	15.402
625.98	16.449
626.31	16.019
626.64	16.000
626.97	16.043
627.30	15.295
627.63	16.243
627.96	15.728
628.29	15.311
628.62	16.011
628.95	16.887
629.28	16.241
629.61	16.040
629.94	16.095
630.26	15.729
630.59	15.539
630.92	15.421
631.25	14.314
631.58	16.416
631.91	15.314
632.24	14.979
632.57	15.845
632.90	14.803
633.23	15.996
633.56	15.367
633.89	15.515
634.22	17.253
634.55	16.450
634.88	14.371
635.20	16.368
