SpectraSuite Data File
++++++++++++++++++++++++++++++++++++
Date: Wed May 13 21:02:18 PDT 2015
User: schluterlab
Dark Spectrum Present: Yes
Reference Spectrum Present: Yes
Number of Sampled Component Spectra: 1
Spectrometers: USB2E3373
Integration Time (usec): 3000 (USB2E3373)
Spectra Averaged: 3 (USB2E3373)
Boxcar Smoothing: 0 (USB2E3373)
Correct for Electrical Dark: No (USB2E3373)
Strobe/Lamp Enabled: No (USB2E3373)
Correct for Detector Non-linearity: No (USB2E3373)
Correct for Stray Light: No (USB2E3373)
Number of Pixels in Processed Spectrum: 2048
>>>>>Begin Processed Spectral Data<<<<<
178.53	0.000
178.91	-150.000
179.29	175.000
179.67	-400.000
180.04	-700.000
180.42	40.000
180.80	600.000
181.18	233.333
181.56	-275.000
181.94	-25.000
182.31	27.273
182.69	84.615
183.07	-200.000
183.45	83.333
183.83	100.000
184.20	42.857
184.58	100.000
184.96	200.000
185.34	71.429
185.72	0.000
186.09	-300.000
186.47	-20.000
186.85	-100.000
187.23	100.000
187.61	400.000
187.98	700.000
188.36	62.500
188.74	0.000
189.12	36.364
189.49	50.000
189.87	125.000
190.25	20.000
190.63	900.000
191.00	-200.000
191.38	100.000
191.76	150.000
192.14	66.667
192.51	21.053
192.89	66.667
193.27	250.000
193.65	-140.000
194.02	81.818
194.40	160.000
194.78	0.000
195.15	200.000
195.53	-60.000
195.91	-12.500
196.29	33.333
196.66	0.000
197.04	-50.000
197.42	260.000
197.79	30.000
198.17	100.000
198.55	-33.333
198.92	25.000
199.30	-466.667
199.68	120.000
200.05	-100.000
200.43	16.667
200.81	400.000
201.18	100.000
201.56	-50.000
201.94	625.000
202.31	21.739
202.69	0.000
203.07	-166.667
203.44	60.000
203.82	-266.667
204.19	-10.000
204.57	0.000
204.95	100.000
205.32	0.000
205.70	150.000
206.08	75.000
206.45	-33.333
206.83	275.000
207.20	-266.667
207.58	-20.000
207.96	-400.000
208.33	42.857
208.71	-800.000
209.08	50.000
209.46	50.000
209.84	0.000
210.21	40.000
210.59	1000.000
210.96	40.000
211.34	100.000
211.71	-550.000
212.09	-16.667
212.46	-40.000
212.84	200.000
213.22	275.000
213.59	100.000
213.97	-50.000
214.34	-650.000
214.72	30.769
215.09	162.500
215.47	133.333
215.84	350.000
216.22	-37.500
216.59	-100.000
216.97	466.667
217.34	-55.556
217.72	0.000
218.09	-66.667
218.47	1000.000
218.84	-100.000
219.22	112.500
219.59	-133.333
219.97	125.000
220.34	-37.500
220.72	-100.000
221.09	0.000
221.47	-83.333
221.84	400.000
222.22	0.000
222.59	600.000
222.97	133.333
223.34	-75.000
223.72	-100.000
224.09	0.000
224.46	-36.364
224.84	62.500
225.21	-42.857
225.59	50.000
225.96	-33.333
226.34	80.000
226.71	-85.714
227.08	550.000
227.46	37.500
227.83	800.000
228.21	31.250
228.58	-50.000
228.95	17.647
229.33	81.250
229.70	12.500
230.08	-15.385
230.45	62.500
230.82	8.333
231.20	114.286
231.57	-175.000
231.95	1200.000
232.32	100.000
232.69	47.059
233.07	-600.000
233.44	21.739
233.81	-400.000
234.19	45.833
234.56	-26.667
234.93	0.000
235.31	-21.053
235.68	-38.462
236.05	-15.385
236.43	55.556
236.80	0.000
237.17	0.000
237.55	11.765
237.92	-34.483
238.29	-25.926
238.67	-13.889
239.04	-3.226
239.41	2.128
239.79	36.170
240.16	13.953
240.53	19.643
240.91	16.071
241.28	14.286
241.65	29.032
242.02	15.789
242.40	20.290
242.77	0.000
243.14	3.846
243.51	11.702
243.89	12.500
244.26	28.302
244.63	17.308
245.00	16.667
245.38	17.647
245.75	7.377
246.12	11.278
246.49	-0.813
246.87	5.042
247.24	16.216
247.61	14.570
247.98	15.385
248.36	4.734
248.73	3.933
249.10	16.667
249.47	10.753
249.84	15.789
250.22	12.438
250.59	12.150
250.96	16.818
251.33	5.263
251.70	19.247
252.08	14.644
252.45	16.049
252.82	10.646
253.19	10.895
253.56	13.669
253.94	15.658
254.31	15.493
254.68	15.101
255.05	15.512
255.42	10.839
255.79	15.031
256.16	16.088
256.54	14.286
256.91	10.127
257.28	12.579
257.65	10.191
258.02	15.543
258.39	14.327
258.76	9.884
259.14	13.068
259.51	11.236
259.88	15.718
260.25	11.667
260.62	13.202
260.99	14.854
261.36	15.544
261.73	13.086
262.10	10.687
262.47	11.111
262.85	9.950
263.22	9.487
263.59	12.987
263.96	11.192
264.33	8.894
264.70	12.558
265.07	12.731
265.44	12.184
265.81	12.815
266.18	10.478
266.55	12.009
266.92	11.864
267.29	12.140
267.66	13.800
268.03	12.346
268.40	10.593
268.77	12.190
269.14	13.265
269.51	16.222
269.88	10.387
270.25	10.805
270.62	11.066
270.99	13.780
271.36	10.714
271.73	11.446
272.10	14.095
272.47	10.940
272.84	12.205
273.21	10.959
273.58	13.115
273.95	11.698
274.32	13.433
274.69	12.568
275.06	13.428
275.43	12.994
275.80	12.589
276.17	14.733
276.54	11.723
276.91	12.021
277.28	10.108
277.65	12.762
278.02	15.179
278.39	9.769
278.76	12.375
279.13	12.007
279.50	13.448
279.87	10.688
280.23	12.252
280.60	11.419
280.97	12.175
281.34	14.196
281.71	11.057
282.08	11.282
282.45	12.623
282.82	11.182
283.19	14.177
283.56	11.406
283.92	11.774
284.29	11.232
284.66	10.873
285.03	10.912
285.40	10.876
285.77	12.613
286.14	13.678
286.51	12.144
286.87	10.769
287.24	11.504
287.61	12.500
287.98	10.882
288.35	10.581
288.72	12.195
289.08	12.678
289.45	12.188
289.82	11.649
290.19	11.641
290.56	11.222
290.93	10.912
291.29	10.397
291.66	11.066
292.03	10.899
292.40	11.036
292.77	11.379
293.13	11.855
293.50	11.242
293.87	11.600
294.24	10.053
294.60	10.533
294.97	11.243
295.34	9.235
295.71	8.410
296.08	9.031
296.44	8.163
296.81	8.283
297.18	10.625
297.55	10.024
297.91	11.056
298.28	8.959
298.65	9.606
299.02	10.623
299.38	9.571
299.75	9.375
300.12	9.070
300.48	10.409
300.85	9.469
301.22	9.988
301.59	9.507
301.95	9.059
302.32	9.568
302.69	8.249
303.05	8.859
303.42	10.000
303.79	10.200
304.15	9.200
304.52	10.538
304.89	9.302
305.25	8.233
305.62	10.195
305.99	10.011
306.35	12.748
306.72	10.275
307.09	8.551
307.45	9.904
307.82	9.789
308.19	8.568
308.55	9.212
308.92	11.198
309.29	9.409
309.65	9.990
310.02	8.946
310.38	10.163
310.75	9.862
311.12	10.107
311.48	10.584
311.85	11.319
312.22	11.315
312.58	9.952
312.95	10.249
313.31	10.560
313.68	10.878
314.05	11.626
314.41	12.584
314.78	11.954
315.14	11.667
315.51	11.132
315.87	13.253
316.24	12.397
316.61	13.516
316.97	13.148
317.34	12.389
317.70	13.292
318.07	15.262
318.43	14.724
318.80	13.962
319.16	15.208
319.53	15.233
319.89	15.176
320.26	16.451
320.62	16.960
320.99	17.054
321.35	17.587
321.72	17.806
322.08	18.450
322.45	20.074
322.81	21.349
323.18	20.930
323.54	21.661
323.91	21.409
324.27	21.962
324.64	23.084
325.00	24.322
325.37	25.085
325.73	25.758
326.10	26.072
326.46	25.502
326.83	28.074
327.19	29.756
327.56	30.459
327.92	30.330
328.29	32.387
328.65	33.304
329.01	32.014
329.38	35.739
329.74	34.678
330.11	33.904
330.47	33.420
330.84	35.921
331.20	35.525
331.56	38.134
331.93	36.779
332.29	37.359
332.66	36.864
333.02	37.011
333.38	37.719
333.75	37.799
334.11	38.368
334.48	40.017
334.84	38.163
335.20	40.309
335.57	40.035
335.93	39.777
336.29	40.018
336.66	39.829
337.02	40.957
337.38	40.557
337.75	42.033
338.11	40.649
338.47	38.955
338.84	40.464
339.20	41.975
339.56	40.700
339.93	40.363
340.29	41.332
340.65	40.975
341.02	40.849
341.38	41.807
341.74	40.420
342.11	41.288
342.47	40.502
342.83	42.075
343.20	42.470
343.56	41.292
343.92	40.699
344.28	41.396
344.65	41.388
345.01	40.920
345.37	43.010
345.73	43.137
346.10	42.616
346.46	42.195
346.82	41.734
347.19	40.269
347.55	42.811
347.91	41.699
348.27	42.666
348.63	40.865
349.00	41.509
349.36	41.915
349.72	41.686
350.08	41.498
350.45	41.034
350.81	42.410
351.17	41.109
351.53	42.891
351.89	41.779
352.26	40.849
352.62	42.868
352.98	44.089
353.34	41.787
353.70	42.679
354.07	42.588
354.43	42.613
354.79	44.792
355.15	43.090
355.51	41.989
355.87	43.237
356.24	43.419
356.60	43.628
356.96	42.517
357.32	43.111
357.68	43.239
358.04	43.832
358.40	43.643
358.77	42.355
359.13	43.268
359.49	42.771
359.85	44.579
360.21	44.256
360.57	42.281
360.93	43.475
361.29	43.449
361.66	43.888
362.02	43.884
362.38	43.796
362.74	44.090
363.10	42.878
363.46	43.300
363.82	45.307
364.18	43.872
364.54	44.566
364.90	44.460
365.26	43.383
365.62	42.543
365.98	44.057
366.35	44.113
366.71	43.367
367.07	43.870
367.43	43.136
367.79	43.780
368.15	44.374
368.51	43.952
368.87	44.452
369.23	44.911
369.59	43.340
369.95	44.340
370.31	43.236
370.67	43.447
371.03	45.731
371.39	44.713
371.75	43.786
372.11	44.160
372.47	45.133
372.83	43.204
373.19	43.309
373.55	45.087
373.91	44.908
374.27	44.744
374.63	43.670
374.99	43.315
375.35	45.137
375.71	44.158
376.07	45.511
376.42	44.853
376.78	44.980
377.14	45.288
377.50	45.176
377.86	45.219
378.22	45.449
378.58	45.523
378.94	46.188
379.30	45.409
379.66	45.499
380.02	44.485
380.38	44.819
380.74	46.204
381.09	44.753
381.45	46.070
381.81	45.964
382.17	44.739
382.53	44.369
382.89	44.692
383.25	46.667
383.61	46.247
383.97	45.562
384.32	44.108
384.68	44.664
385.04	45.266
385.40	47.073
385.76	47.324
386.12	45.578
386.48	46.082
386.83	45.557
387.19	47.316
387.55	44.942
387.91	45.264
388.27	46.301
388.62	46.005
388.98	46.370
389.34	45.489
389.70	45.665
390.06	45.813
390.42	46.714
390.77	44.715
391.13	46.465
391.49	45.478
391.85	46.262
392.20	46.053
392.56	45.143
392.92	46.577
393.28	44.858
393.64	46.544
393.99	44.431
394.35	46.111
394.71	45.897
395.07	45.597
395.42	45.582
395.78	46.010
396.14	45.149
396.50	46.227
396.85	45.443
397.21	45.256
397.57	45.963
397.92	45.449
398.28	44.444
398.64	44.384
399.00	45.312
399.35	45.573
399.71	45.312
400.07	45.723
400.42	45.016
400.78	44.411
401.14	45.310
401.49	45.956
401.85	45.086
402.21	45.820
402.57	45.800
402.92	46.308
403.28	46.029
403.63	45.257
403.99	46.513
404.35	45.200
404.70	45.498
405.06	44.040
405.42	44.975
405.77	45.334
406.13	45.371
406.49	44.997
406.84	45.604
407.20	43.576
407.55	46.169
407.91	44.341
408.27	44.978
408.62	45.918
408.98	44.513
409.34	44.926
409.69	45.809
410.05	44.590
410.40	44.127
410.76	45.066
411.11	45.896
411.47	45.853
411.83	45.041
412.18	43.892
412.54	44.424
412.89	45.956
413.25	43.894
413.60	44.389
413.96	44.819
414.31	44.266
414.67	43.683
415.03	44.520
415.38	44.980
415.74	45.744
416.09	45.671
416.45	45.318
416.80	45.906
417.16	44.939
417.51	45.144
417.87	44.577
418.22	44.990
418.58	43.955
418.93	44.068
419.29	45.941
419.64	44.084
420.00	45.333
420.35	44.471
420.71	43.449
421.06	45.572
421.42	44.647
421.77	45.607
422.12	45.043
422.48	43.948
422.83	43.650
423.19	43.646
423.54	46.290
423.90	44.002
424.25	45.061
424.61	44.670
424.96	44.766
425.31	43.130
425.67	45.150
426.02	44.935
426.38	46.269
426.73	44.533
427.09	45.278
427.44	44.803
427.79	44.834
428.15	43.914
428.50	44.653
428.85	44.895
429.21	44.232
429.56	44.527
429.92	44.404
430.27	44.325
430.62	44.071
430.98	43.575
431.33	44.062
431.68	45.474
432.04	45.521
432.39	43.649
432.74	43.838
433.10	44.335
433.45	45.089
433.80	45.115
434.16	43.910
434.51	43.913
434.86	44.523
435.22	44.369
435.57	44.779
435.92	45.416
436.28	45.105
436.63	45.554
436.98	45.065
437.34	45.726
437.69	44.097
438.04	43.011
438.39	45.579
438.75	44.934
439.10	44.766
439.45	44.310
439.81	45.382
440.16	44.754
440.51	44.352
440.86	44.813
441.22	45.439
441.57	43.980
441.92	44.686
442.27	44.751
442.63	43.811
442.98	44.329
443.33	44.470
443.68	43.226
444.03	43.567
444.39	44.571
444.74	45.003
445.09	43.998
445.44	45.127
445.79	44.812
446.15	44.537
446.50	44.108
446.85	45.751
447.20	45.426
447.55	45.215
447.91	44.719
448.26	44.254
448.61	44.131
448.96	45.387
449.31	44.660
449.66	44.939
450.02	44.400
450.37	43.772
450.72	44.891
451.07	44.890
451.42	43.731
451.77	44.614
452.12	43.672
452.47	44.997
452.83	44.870
453.18	43.730
453.53	44.199
453.88	45.120
454.23	45.303
454.58	44.301
454.93	43.874
455.28	44.766
455.63	44.791
455.98	45.283
456.34	44.310
456.69	45.367
457.04	45.077
457.39	44.799
457.74	44.584
458.09	43.957
458.44	42.656
458.79	43.163
459.14	43.708
459.49	45.732
459.84	43.630
460.19	43.577
460.54	44.465
460.89	44.707
461.24	43.527
461.59	44.988
461.94	45.259
462.29	44.056
462.64	45.317
462.99	44.936
463.34	45.166
463.69	44.716
464.04	43.277
464.39	44.539
464.74	43.673
465.09	43.211
465.44	43.996
465.79	44.508
466.14	44.014
466.49	44.868
466.84	44.770
467.19	43.758
467.54	45.237
467.89	45.380
468.24	44.007
468.59	44.359
468.94	44.061
469.29	44.547
469.64	44.351
469.99	45.724
470.34	43.628
470.68	44.833
471.03	44.570
471.38	44.228
471.73	44.650
472.08	44.467
472.43	46.240
472.78	44.895
473.13	42.216
473.48	44.814
473.83	45.009
474.17	44.010
474.52	44.595
474.87	44.150
475.22	44.384
475.57	43.391
475.92	44.766
476.27	44.347
476.61	43.828
476.96	44.717
477.31	43.905
477.66	44.633
478.01	43.846
478.36	42.616
478.70	43.770
479.05	44.284
479.40	44.410
479.75	44.368
480.10	44.671
480.45	42.423
480.79	44.102
481.14	45.035
481.49	44.302
481.84	44.392
482.19	43.446
482.53	44.143
482.88	43.816
483.23	42.589
483.58	43.856
483.92	43.385
484.27	42.406
484.62	43.453
484.97	43.426
485.31	42.918
485.66	40.462
486.01	39.624
486.36	39.651
486.70	40.472
487.05	41.732
487.40	42.328
487.75	42.148
488.09	42.790
488.44	43.919
488.79	44.285
489.13	43.936
489.48	43.566
489.83	42.832
490.17	43.759
490.52	44.413
490.87	42.466
491.22	43.429
491.56	44.562
491.91	43.783
492.26	43.375
492.60	43.001
492.95	43.537
493.30	43.508
493.64	42.974
493.99	44.010
494.34	43.545
494.68	43.580
495.03	43.923
495.37	43.212
495.72	43.308
496.07	43.156
496.41	43.472
496.76	43.144
497.11	43.286
497.45	43.823
497.80	44.826
498.14	43.577
498.49	44.327
498.84	43.826
499.18	44.002
499.53	43.279
499.87	41.921
500.22	44.052
500.56	44.233
500.91	43.763
501.26	43.448
501.60	43.137
501.95	43.460
502.29	43.107
502.64	43.973
502.98	42.775
503.33	42.920
503.67	43.233
504.02	42.402
504.36	43.735
504.71	42.937
505.06	42.894
505.40	43.505
505.75	44.151
506.09	44.047
506.44	42.591
506.78	42.763
507.13	43.711
507.47	43.319
507.82	43.014
508.16	43.377
508.51	43.079
508.85	43.235
509.19	44.286
509.54	43.485
509.88	43.602
510.23	42.632
510.57	44.068
510.92	43.804
511.26	44.224
511.61	43.743
511.95	42.448
512.30	44.142
512.64	45.289
512.98	42.936
513.33	44.958
513.67	44.009
514.02	43.444
514.36	42.978
514.70	44.573
515.05	44.587
515.39	44.929
515.74	43.458
516.08	44.189
516.42	43.491
516.77	42.589
517.11	43.915
517.46	44.778
517.80	45.097
518.14	43.356
518.49	43.098
518.83	44.153
519.17	43.494
519.52	44.331
519.86	44.687
520.20	43.602
520.55	44.341
520.89	44.213
521.23	45.513
521.58	44.753
521.92	42.552
522.26	44.177
522.61	43.116
522.95	43.394
523.29	44.444
523.64	44.374
523.98	43.329
524.32	43.730
524.66	44.026
525.01	44.364
525.35	44.766
525.69	44.400
526.04	44.495
526.38	44.232
526.72	44.839
527.06	43.133
527.41	44.077
527.75	43.992
528.09	45.269
528.43	44.573
528.78	43.734
529.12	44.631
529.46	44.018
529.80	44.142
530.15	42.921
530.49	44.811
530.83	44.076
531.17	43.630
531.51	43.291
531.86	43.631
532.20	44.659
532.54	43.586
532.88	44.316
533.22	43.434
533.57	43.775
533.91	44.129
534.25	43.294
534.59	43.243
534.93	42.730
535.27	41.783
535.62	43.092
535.96	42.550
536.30	43.218
536.64	43.199
536.98	41.556
537.32	43.772
537.66	44.499
538.01	42.510
538.35	42.127
538.69	41.873
539.03	42.215
539.37	41.851
539.71	42.019
540.05	42.240
540.39	41.638
540.73	41.969
541.07	42.857
541.42	42.290
541.76	42.693
542.10	43.196
542.44	42.827
542.78	43.095
543.12	42.722
543.46	42.018
543.80	42.227
544.14	43.290
544.48	40.411
544.82	42.972
545.16	40.906
545.50	42.201
545.84	41.515
546.18	41.725
546.52	41.708
546.86	41.837
547.20	41.387
547.54	40.958
547.88	41.768
548.22	40.065
548.56	42.095
548.90	41.272
549.24	41.389
549.58	41.423
549.92	42.920
550.26	43.911
550.60	42.267
550.94	42.239
551.28	42.014
551.62	41.805
551.96	42.533
552.30	40.757
552.64	40.890
552.98	41.619
553.32	42.033
553.66	41.820
554.00	41.469
554.34	40.879
554.68	42.207
555.02	41.018
555.36	41.225
555.69	40.787
556.03	41.458
556.37	40.185
556.71	39.734
557.05	41.771
557.39	41.070
557.73	42.814
558.07	40.543
558.41	41.030
558.75	41.339
559.08	41.941
559.42	43.745
559.76	41.131
560.10	41.276
560.44	41.120
560.78	41.727
561.12	40.995
561.45	40.408
561.79	39.615
562.13	39.944
562.47	41.643
562.81	40.188
563.15	40.227
563.48	38.954
563.82	41.108
564.16	39.607
564.50	40.909
564.84	40.743
565.17	39.404
565.51	40.909
565.85	40.040
566.19	40.795
566.52	39.843
566.86	38.243
567.20	39.524
567.54	38.918
567.88	38.074
568.21	37.806
568.55	37.924
568.89	37.886
569.23	37.901
569.56	36.170
569.90	36.311
570.24	34.621
570.57	35.585
570.91	35.320
571.25	34.363
571.59	34.937
571.92	35.289
572.26	35.492
572.60	35.417
572.93	35.270
573.27	35.074
573.61	35.157
573.95	35.219
574.28	34.829
574.62	34.288
574.96	34.178
575.29	34.102
575.63	34.563
575.97	35.000
576.30	33.921
576.64	34.661
576.98	34.839
577.31	34.371
577.65	33.775
577.98	33.375
578.32	33.347
578.66	33.563
578.99	34.554
579.33	34.508
579.67	34.903
580.00	34.112
580.34	34.464
580.67	34.174
581.01	34.165
581.35	33.396
581.68	33.617
582.02	33.495
582.35	33.627
582.69	33.565
583.02	33.474
583.36	33.710
583.70	34.385
584.03	34.565
584.37	34.508
584.70	34.328
585.04	34.474
585.37	33.852
585.71	33.478
586.04	33.033
586.38	33.254
586.72	33.802
587.05	34.349
587.39	33.858
587.72	33.883
588.06	34.008
588.39	33.557
588.73	34.446
589.06	34.271
589.40	34.503
589.73	34.819
590.07	34.524
590.40	34.797
590.73	34.887
591.07	35.813
591.40	35.000
591.74	35.571
592.07	35.235
592.41	35.307
592.74	34.066
593.08	33.504
593.41	33.590
593.75	32.590
594.08	33.886
594.41	34.479
594.75	35.495
595.08	34.130
595.42	33.715
595.75	33.550
596.09	34.873
596.42	34.804
596.75	35.279
597.09	35.578
597.42	35.442
597.75	35.067
598.09	34.153
598.42	35.749
598.76	34.551
599.09	34.814
599.42	33.950
599.76	33.984
600.09	33.321
600.42	32.957
600.76	33.407
601.09	33.333
601.42	33.908
601.76	33.591
602.09	34.941
602.42	35.163
602.76	34.312
603.09	34.415
603.42	34.106
603.76	33.359
604.09	33.004
604.42	33.529
604.76	33.522
605.09	34.844
605.42	34.998
605.75	33.490
606.09	33.526
606.42	33.084
606.75	33.593
607.09	34.131
607.42	33.800
607.75	32.910
608.08	35.167
608.42	33.739
608.75	34.353
609.08	34.150
609.41	34.228
609.75	34.392
610.08	35.108
610.41	34.500
610.74	34.071
611.07	34.118
611.41	35.159
611.74	34.265
612.07	34.758
612.40	34.919
612.73	34.632
613.07	35.255
613.40	34.581
613.73	33.965
614.06	33.720
614.39	34.130
614.72	34.148
615.06	33.889
615.39	33.389
615.72	33.585
616.05	35.473
616.38	34.536
616.71	34.193
617.05	34.828
617.38	34.504
617.71	34.191
618.04	34.735
618.37	35.331
618.70	35.188
619.03	35.670
619.36	36.085
619.69	36.111
620.03	34.700
620.36	34.864
620.69	35.261
621.02	35.615
621.35	35.405
621.68	34.719
622.01	36.650
622.34	35.607
622.67	35.082
623.00	35.790
623.33	34.779
623.66	35.242
623.99	34.809
624.32	35.143
624.65	35.608
624.99	35.489
625.32	35.773
625.65	35.736
625.98	36.177
626.31	35.592
626.64	35.168
626.97	35.640
627.30	36.014
627.63	37.197
627.96	35.065
628.29	37.488
628.62	36.750
628.95	35.772
629.28	37.241
629.61	37.033
629.94	35.783
630.26	37.044
630.59	37.363
630.92	36.245
631.25	35.015
631.58	38.865
631.91	37.328
632.24	38.090
632.57	37.222
632.90	37.456
633.23	37.650
633.56	39.329
633.89	38.636
634.22	39.105
634.55	38.855
634.88	37.500
