SpectraSuite Data File
++++++++++++++++++++++++++++++++++++
Date: Wed May 13 21:04:49 PDT 2015
User: schluterlab
Dark Spectrum Present: Yes
Reference Spectrum Present: Yes
Number of Sampled Component Spectra: 1
Spectrometers: USB2E3373
Integration Time (usec): 3000 (USB2E3373)
Spectra Averaged: 3 (USB2E3373)
Boxcar Smoothing: 0 (USB2E3373)
Correct for Electrical Dark: No (USB2E3373)
Strobe/Lamp Enabled: No (USB2E3373)
Correct for Detector Non-linearity: No (USB2E3373)
Correct for Stray Light: No (USB2E3373)
Number of Pixels in Processed Spectrum: 2048
>>>>>Begin Processed Spectral Data<<<<<
178.53	0.000
178.91	150.000
179.29	150.000
179.67	-350.000
180.04	-166.667
180.42	140.000
180.80	700.000
181.18	133.333
181.56	-50.000
181.94	-275.000
182.31	0.000
182.69	69.231
183.07	-60.000
183.45	83.333
183.83	255.556
184.20	28.571
184.58	-33.333
184.96	300.000
185.34	200.000
185.72	0.000
186.09	-900.000
186.47	-120.000
186.85	80.000
187.23	-50.000
187.61	200.000
187.98	700.000
188.36	50.000
188.74	0.000
189.12	18.182
189.49	70.000
189.87	75.000
190.25	140.000
190.63	400.000
191.00	-180.000
191.38	200.000
191.76	125.000
192.14	133.333
192.51	10.526
192.89	333.333
193.27	-50.000
193.65	-160.000
194.02	190.909
194.40	130.000
194.78	-600.000
195.15	160.000
195.53	-120.000
195.91	37.500
196.29	-333.333
196.66	0.000
197.04	600.000
197.42	100.000
197.79	30.000
198.17	-62.500
198.55	233.333
198.92	125.000
199.30	-466.667
199.68	-50.000
200.05	200.000
200.43	-16.667
200.81	100.000
201.18	-20.000
201.56	-150.000
201.94	475.000
202.31	17.391
202.69	-28.571
203.07	-333.333
203.44	20.000
203.82	-366.667
204.19	30.000
204.57	0.000
204.95	-33.333
205.32	0.000
205.70	50.000
206.08	-175.000
206.45	16.667
206.83	300.000
207.20	100.000
207.58	-80.000
207.96	-1500.000
208.33	-57.143
208.71	-1400.000
209.08	75.000
209.46	50.000
209.84	0.000
210.21	60.000
210.59	800.000
210.96	240.000
211.34	900.000
211.71	0.000
212.09	-133.333
212.46	-180.000
212.84	333.333
213.22	25.000
213.59	-900.000
213.97	-150.000
214.34	-400.000
214.72	-15.385
215.09	150.000
215.47	22.222
215.84	550.000
216.22	12.500
216.59	100.000
216.97	400.000
217.34	122.222
217.72	0.000
218.09	200.000
218.47	0.000
218.84	-142.857
219.22	-100.000
219.59	200.000
219.97	125.000
220.34	137.500
220.72	-20.000
221.09	0.000
221.47	-16.667
221.84	-600.000
222.22	0.000
222.59	-0.000
222.97	33.333
223.34	-108.333
223.72	-400.000
224.09	100.000
224.46	-45.455
224.84	75.000
225.21	28.571
225.59	-150.000
225.96	-100.000
226.34	0.000
226.71	-85.714
227.08	400.000
227.46	0.000
227.83	-400.000
228.21	0.000
228.58	-350.000
228.95	29.412
229.33	31.250
229.70	112.500
230.08	-7.692
230.45	-87.500
230.82	0.000
231.20	71.429
231.57	-150.000
231.95	-300.000
232.32	41.667
232.69	11.765
233.07	-800.000
233.44	17.391
233.81	-400.000
234.19	37.500
234.56	20.000
234.93	40.000
235.31	31.579
235.68	7.692
236.05	38.462
236.43	-5.556
236.80	30.303
237.17	-66.667
237.55	-52.941
237.92	17.241
238.29	33.333
238.67	16.667
239.04	35.484
239.41	29.787
239.79	59.574
240.16	55.814
240.53	23.214
240.91	19.643
241.28	39.286
241.65	45.161
242.02	30.263
242.40	49.275
242.77	24.638
243.14	30.769
243.51	32.979
243.89	34.615
244.26	41.509
244.63	30.769
245.00	42.708
245.38	36.134
245.75	43.443
246.12	43.609
246.49	30.081
246.87	26.891
247.24	39.865
247.61	36.424
247.98	44.872
248.36	36.686
248.73	38.764
249.10	34.848
249.47	35.484
249.84	37.368
250.22	42.786
250.59	34.112
250.96	38.182
251.33	31.579
251.70	39.331
252.08	36.402
252.45	36.626
252.82	34.981
253.19	39.689
253.56	35.252
253.94	39.502
254.31	35.563
254.68	41.946
255.05	40.924
255.42	37.063
255.79	37.730
256.16	38.486
256.54	35.556
256.91	30.696
257.28	40.252
257.65	38.217
258.02	32.551
258.39	37.135
258.76	34.012
259.14	38.068
259.51	35.112
259.88	38.211
260.25	35.833
260.62	33.427
260.99	39.788
261.36	36.010
261.73	35.556
262.10	35.369
262.47	34.815
262.85	37.313
263.22	35.641
263.59	36.104
263.96	37.226
264.33	35.577
264.70	35.116
265.07	38.194
265.44	38.161
265.81	37.071
266.18	37.813
266.55	35.371
266.92	35.169
267.29	37.037
267.66	38.429
268.03	35.391
268.40	36.017
268.77	37.603
269.14	36.122
269.51	39.630
269.88	37.067
270.25	36.653
270.62	34.631
270.99	35.827
271.36	36.310
271.73	34.538
272.10	34.286
272.47	36.468
272.84	37.598
273.21	34.247
273.58	37.090
273.95	36.604
274.32	36.007
274.69	34.973
275.06	36.926
275.43	37.476
275.80	37.766
276.17	38.306
276.54	34.281
276.91	34.843
277.28	34.477
277.65	36.014
278.02	35.893
278.39	35.169
278.76	34.783
279.13	34.820
279.50	35.517
279.87	36.775
280.23	35.315
280.60	33.045
280.97	37.013
281.34	35.962
281.71	33.171
282.08	36.581
282.45	36.885
282.82	33.866
283.19	34.909
283.56	35.469
283.92	35.321
284.29	35.257
284.66	33.278
285.03	34.853
285.40	33.535
285.77	36.787
286.14	33.891
286.51	36.882
286.87	33.231
287.24	33.333
287.61	34.187
287.98	32.794
288.35	33.681
288.72	33.859
289.08	33.618
289.45	31.278
289.82	33.585
290.19	32.959
290.56	30.682
290.93	30.525
291.29	31.190
291.66	29.508
292.03	32.016
292.40	31.090
292.77	29.987
293.13	31.102
293.50	29.804
293.87	31.600
294.24	31.481
294.60	30.559
294.97	31.614
295.34	27.968
295.71	28.515
296.08	29.319
296.44	27.168
296.81	27.649
297.18	28.625
297.55	29.009
297.91	28.696
298.28	28.208
298.65	26.601
299.02	29.548
299.38	27.239
299.75	28.486
300.12	28.372
300.48	27.251
300.85	27.367
301.22	27.758
301.59	26.643
301.95	26.945
302.32	26.954
302.69	25.989
303.05	26.578
303.42	27.841
303.79	26.498
304.15	27.163
304.52	28.280
304.89	27.575
305.25	25.357
305.62	26.790
305.99	26.333
306.35	28.318
306.72	25.025
307.09	27.007
307.45	26.624
307.82	25.895
308.19	26.019
308.55	25.691
308.92	26.031
309.29	26.226
309.65	25.175
310.02	26.342
310.38	25.102
310.75	25.247
311.12	25.559
311.48	25.519
311.85	26.870
312.22	25.725
312.58	25.990
312.95	25.572
313.31	25.895
313.68	25.000
314.05	26.087
314.41	26.993
314.78	26.565
315.14	24.722
315.51	24.929
315.87	26.135
316.24	25.895
316.61	27.215
316.97	25.648
317.34	24.866
317.70	26.048
318.07	26.797
318.43	24.661
318.80	23.822
319.16	25.111
319.53	25.538
319.89	24.300
320.26	24.492
320.62	24.838
320.99	24.322
321.35	23.854
321.72	25.120
322.08	26.384
322.45	26.272
322.81	27.172
323.18	26.029
323.54	26.173
323.91	27.371
324.27	25.743
324.64	25.697
325.00	24.934
325.37	25.085
325.73	23.485
326.10	24.390
326.46	24.498
326.83	25.162
327.19	24.634
327.56	25.060
327.92	25.664
328.29	25.960
328.65	25.416
329.01	25.330
329.38	25.478
329.74	25.751
330.11	24.256
330.47	24.479
330.84	24.910
331.20	25.363
331.56	24.366
331.93	24.720
332.29	25.022
332.66	24.915
333.02	24.587
333.38	25.263
333.75	25.512
334.11	25.000
334.48	24.673
334.84	24.470
335.20	23.499
335.57	23.238
335.93	24.570
336.29	23.730
336.66	23.333
337.02	24.870
337.38	22.715
337.75	23.084
338.11	23.399
338.47	23.459
338.84	24.485
339.20	24.074
339.56	24.147
339.93	23.682
340.29	22.886
340.65	23.182
341.02	23.794
341.38	23.818
341.74	23.445
342.11	23.947
342.47	23.096
342.83	23.693
343.20	23.942
343.56	23.630
343.92	22.827
344.28	23.214
344.65	23.673
345.01	23.002
345.37	23.849
345.73	23.856
346.10	23.194
346.46	23.577
346.82	23.596
347.19	23.022
347.55	23.263
347.91	22.993
348.27	23.344
348.63	23.317
349.00	22.327
349.36	23.705
349.72	22.738
350.08	22.699
350.45	23.571
350.81	23.787
351.17	23.249
351.53	22.388
351.89	22.160
352.26	22.239
352.62	22.481
352.98	23.003
353.34	23.430
353.70	23.910
354.07	22.431
354.43	22.628
354.79	23.718
355.15	22.127
355.51	22.627
355.87	24.081
356.24	23.194
356.60	22.518
356.96	22.640
357.32	22.988
357.68	23.529
358.04	21.955
358.40	23.488
358.77	23.012
359.13	22.724
359.49	23.240
359.85	23.048
360.21	22.822
360.57	22.510
360.93	21.927
361.29	23.316
361.66	23.386
362.02	22.016
362.38	21.713
362.74	21.465
363.10	21.403
363.46	21.686
363.82	23.429
364.18	21.827
364.54	23.341
364.90	21.324
365.26	22.435
365.62	21.449
365.98	22.562
366.35	22.553
366.71	21.683
367.07	22.183
367.43	21.951
367.79	21.960
368.15	22.363
368.51	21.660
368.87	22.540
369.23	21.779
369.59	21.776
369.95	20.755
370.31	21.269
370.67	21.579
371.03	21.975
371.39	21.789
371.75	21.571
372.11	22.151
372.47	21.774
372.83	21.983
373.19	21.511
373.55	21.676
373.91	20.580
374.27	20.470
374.63	21.408
374.99	21.170
375.35	21.507
375.71	21.399
376.07	21.110
376.42	22.259
376.78	21.995
377.14	21.492
377.50	21.447
377.86	22.244
378.22	20.228
378.58	21.185
378.94	22.188
379.30	21.986
379.66	21.147
380.02	21.262
380.38	21.084
380.74	21.817
381.09	21.170
381.45	21.524
381.81	21.072
382.17	20.857
382.53	21.292
382.89	21.472
383.25	20.741
383.61	20.763
383.97	20.563
384.32	21.235
384.68	20.358
385.04	19.914
385.40	20.672
385.76	21.229
386.12	21.304
386.48	20.502
386.83	20.964
387.19	20.605
387.55	21.214
387.91	21.402
388.27	21.208
388.62	21.473
388.98	21.277
389.34	21.115
389.70	20.269
390.06	20.750
390.42	22.036
390.77	22.293
391.13	20.896
391.49	21.063
391.85	20.319
392.20	20.677
392.56	20.444
392.92	20.772
393.28	21.383
393.64	21.162
393.99	19.951
394.35	20.679
394.71	20.385
395.07	19.686
395.42	21.085
395.78	20.335
396.14	20.799
396.50	21.243
396.85	21.861
397.21	20.037
397.57	21.118
397.92	20.120
398.28	21.433
398.64	20.097
399.00	21.205
399.35	20.148
399.71	21.316
400.07	20.783
400.42	20.125
400.78	20.846
401.14	20.233
401.49	20.971
401.85	21.069
402.21	20.062
402.57	20.172
402.92	21.089
403.28	20.638
403.63	21.017
403.99	20.409
404.35	20.885
404.70	20.785
405.06	20.611
405.42	20.791
405.77	19.297
406.13	20.000
406.49	19.952
406.84	20.208
407.20	21.018
407.55	20.455
407.91	19.523
408.27	20.025
408.62	20.442
408.98	19.667
409.34	20.483
409.69	21.118
410.05	20.709
410.40	19.416
410.76	20.156
411.11	20.896
411.47	20.969
411.83	20.025
412.18	19.458
412.54	20.677
412.89	20.000
413.25	19.056
413.60	19.937
413.96	18.789
414.31	20.160
414.67	19.556
415.03	20.230
415.38	19.287
415.74	19.298
416.09	20.687
416.45	20.301
416.80	20.940
417.16	20.648
417.51	19.826
417.87	19.974
418.22	19.005
418.58	20.171
418.93	19.209
419.29	20.990
419.64	19.466
420.00	19.937
420.35	19.665
420.71	19.135
421.06	20.049
421.42	21.168
421.77	19.827
422.12	19.771
422.48	20.556
422.83	20.969
423.19	20.127
423.54	20.966
423.90	19.774
424.25	20.104
424.61	19.963
424.96	20.166
425.31	19.630
425.67	20.282
426.02	21.437
426.38	19.963
426.73	19.853
427.09	20.826
427.44	19.847
427.79	19.774
428.15	19.388
428.50	20.423
428.85	20.049
429.21	18.796
429.56	20.085
429.92	19.938
430.27	19.325
430.62	19.832
430.98	20.518
431.33	19.344
431.68	20.341
432.04	21.014
432.39	19.630
432.74	20.233
433.10	20.453
433.45	20.473
433.80	19.540
434.16	18.842
434.51	20.217
434.86	19.788
435.22	19.411
435.57	19.840
435.92	20.446
436.28	19.580
436.63	19.342
436.98	20.270
437.34	19.658
437.69	19.894
438.04	19.525
438.39	19.925
438.75	19.428
439.10	20.243
439.45	19.310
439.81	20.690
440.16	19.478
440.51	19.857
440.86	19.917
441.22	20.138
441.57	19.794
441.92	19.492
442.27	19.535
442.63	19.160
442.98	19.155
443.33	19.526
443.68	18.766
444.03	19.374
444.39	20.575
444.74	19.713
445.09	19.438
445.44	20.451
445.79	19.618
446.15	19.523
446.50	20.099
446.85	20.150
447.20	19.550
447.55	20.145
447.91	19.719
448.26	19.954
448.61	20.368
448.96	19.818
449.31	19.646
449.66	20.127
450.02	19.670
450.37	19.976
450.72	19.231
451.07	19.436
451.42	19.214
451.77	19.051
452.12	19.073
452.47	18.980
452.83	18.278
453.18	19.605
453.53	18.916
453.88	20.602
454.23	20.148
454.58	19.853
454.93	19.820
455.28	19.396
455.63	19.152
455.98	18.564
456.34	19.263
456.69	18.914
457.04	19.009
457.39	19.844
457.74	19.988
458.09	19.787
458.44	19.271
458.79	19.275
459.14	18.933
459.49	18.598
459.84	18.658
460.19	19.388
460.54	19.769
460.89	19.426
461.24	19.297
461.59	19.082
461.94	19.469
462.29	18.627
462.64	18.470
462.99	19.852
463.34	19.959
463.69	19.652
464.04	18.727
464.39	18.609
464.74	18.243
465.09	19.343
465.44	19.192
465.79	19.436
466.14	18.643
466.49	20.293
466.84	19.845
467.19	18.408
467.54	19.183
467.89	19.296
468.24	19.238
468.59	18.547
468.94	18.966
469.29	19.101
469.64	18.898
469.99	19.724
470.34	18.881
470.68	17.993
471.03	19.111
471.38	18.428
471.73	18.450
472.08	18.282
472.43	19.723
472.78	18.729
473.13	18.338
473.48	18.004
473.83	18.205
474.17	18.164
474.52	19.223
474.87	18.275
475.22	18.599
475.57	18.684
475.92	19.902
476.27	18.939
476.61	18.743
476.96	19.132
477.31	19.148
477.66	18.927
478.01	17.582
478.36	18.256
478.70	18.206
479.05	18.257
479.40	18.981
479.75	18.119
480.10	18.358
480.45	18.931
480.79	19.014
481.14	19.554
481.49	19.191
481.84	18.002
482.19	18.527
482.53	18.190
482.88	18.504
483.23	17.661
483.58	19.045
483.92	18.434
484.27	18.344
484.62	17.621
484.97	18.416
485.31	18.302
485.66	18.296
486.01	18.534
486.36	19.036
486.70	19.849
487.05	20.625
487.40	19.522
487.75	20.327
488.09	20.551
488.44	20.294
488.79	20.288
489.13	18.966
489.48	18.897
489.83	19.339
490.17	18.475
490.52	18.280
490.87	18.405
491.22	18.559
491.56	19.023
491.91	18.147
492.26	18.085
492.60	17.749
492.95	18.173
493.30	18.217
493.64	16.978
493.99	18.309
494.34	17.919
494.68	17.852
495.03	18.231
495.37	18.783
495.72	18.145
496.07	17.974
496.41	17.829
496.76	18.373
497.11	18.263
497.45	18.337
497.80	18.021
498.14	18.035
498.49	18.003
498.84	17.763
499.18	18.417
499.53	17.922
499.87	17.370
500.22	18.069
500.56	17.904
500.91	18.461
501.26	18.670
501.60	17.353
501.95	17.920
502.29	17.282
502.64	18.274
502.98	17.389
503.33	18.102
503.67	18.208
504.02	17.451
504.36	17.930
504.71	18.496
505.06	18.136
505.40	17.680
505.75	18.210
506.09	17.936
506.44	18.246
506.78	18.029
507.13	17.204
507.47	17.922
507.82	16.902
508.16	17.573
508.51	16.890
508.85	17.781
509.19	17.407
509.54	18.284
509.88	17.742
510.23	17.842
510.57	18.008
510.92	18.157
511.26	17.547
511.61	17.508
511.95	16.483
512.30	17.657
512.64	17.877
512.98	17.341
513.33	16.676
513.67	17.206
514.02	17.275
514.36	17.247
514.70	16.513
515.05	17.145
515.39	17.748
515.74	17.111
516.08	17.522
516.42	16.763
516.77	16.110
517.11	16.578
517.46	18.067
517.80	17.554
518.14	17.085
518.49	17.058
518.83	16.885
519.17	16.566
519.52	16.586
519.86	17.061
520.20	16.616
520.55	16.729
520.89	16.129
521.23	18.333
521.58	17.257
521.92	16.468
522.26	16.981
522.61	16.871
522.95	16.321
523.29	16.825
523.64	16.847
523.98	17.281
524.32	17.202
524.66	15.519
525.01	16.186
525.35	16.656
525.69	16.236
526.04	15.700
526.38	16.061
526.72	16.897
527.06	16.699
527.41	15.420
527.75	16.021
528.09	16.814
528.43	16.689
528.78	16.731
529.12	17.012
529.46	16.443
529.80	16.893
530.15	15.894
530.49	16.240
530.83	17.129
531.17	16.712
531.51	16.251
531.86	15.244
532.20	15.713
532.54	15.862
532.88	17.018
533.22	17.239
533.57	16.821
533.91	17.871
534.25	17.708
534.59	16.409
534.93	16.773
535.27	17.197
535.62	16.711
535.96	18.087
536.30	16.822
536.64	15.789
536.98	16.118
537.32	16.726
537.66	16.784
538.01	16.366
538.35	16.713
538.69	16.656
539.03	16.040
539.37	15.828
539.71	17.053
540.05	15.857
540.39	16.518
540.73	16.690
541.07	17.687
541.42	16.229
541.76	16.576
542.10	17.265
542.44	17.256
542.78	17.349
543.12	16.846
543.46	15.895
543.80	16.361
544.14	17.619
544.48	16.656
544.82	17.149
545.16	15.957
545.50	17.016
545.84	16.480
546.18	16.059
546.52	17.925
546.86	16.184
547.20	16.297
547.54	16.440
547.88	17.746
548.22	17.524
548.56	16.478
548.90	17.388
549.24	17.778
549.58	16.085
549.92	16.875
550.26	17.638
550.60	17.192
550.94	16.493
551.28	16.730
551.62	17.143
551.96	15.886
552.30	15.211
552.64	16.243
552.98	17.898
553.32	17.015
553.66	15.701
554.00	16.919
554.34	15.897
554.68	17.002
555.02	17.365
555.36	16.188
555.69	17.043
556.03	16.512
556.37	16.358
556.71	16.188
557.05	16.310
557.39	16.579
557.73	17.095
558.07	16.127
558.41	17.260
558.75	17.013
559.08	16.520
559.42	16.601
559.76	16.131
560.10	16.218
560.44	16.802
560.78	16.115
561.12	15.697
561.45	17.415
561.79	17.263
562.13	16.807
562.47	16.429
562.81	16.089
563.15	17.210
563.48	16.930
563.82	16.621
564.16	17.197
564.50	17.096
564.84	17.027
565.17	17.351
565.51	16.979
565.85	15.590
566.19	16.821
566.52	17.300
566.86	15.740
567.20	17.166
567.54	17.271
567.88	17.637
568.21	16.839
568.55	17.371
568.89	17.448
569.23	18.057
569.56	17.981
569.90	17.638
570.24	17.545
570.57	17.810
570.91	18.142
571.25	18.280
571.59	17.949
571.92	18.510
572.26	18.622
572.60	19.095
572.93	18.557
573.27	18.767
573.61	18.485
573.95	18.747
574.28	18.845
574.62	18.687
574.96	19.045
575.29	19.032
575.63	19.020
575.97	19.402
576.30	19.080
576.64	18.915
576.98	19.147
577.31	19.462
577.65	18.865
577.98	19.408
578.32	18.880
578.66	19.207
578.99	20.023
579.33	19.865
579.67	19.654
580.00	19.155
580.34	19.753
580.67	19.647
581.01	19.450
581.35	19.161
581.68	19.042
582.02	19.315
582.35	19.607
582.69	19.768
583.02	19.658
583.36	19.882
583.70	20.503
584.03	20.248
584.37	20.328
584.70	20.080
585.04	19.398
585.37	19.392
585.71	19.223
586.04	19.624
586.38	19.416
586.72	19.837
587.05	19.600
587.39	19.794
587.72	19.468
588.06	19.644
588.39	19.927
588.73	19.675
589.06	19.108
589.40	19.470
589.73	19.152
590.07	18.884
590.40	19.387
590.73	19.165
591.07	19.223
591.40	18.609
591.74	19.209
592.07	18.987
592.41	19.048
592.74	18.171
593.08	18.120
593.41	18.786
593.75	18.314
594.08	18.998
594.41	19.122
594.75	19.003
595.08	19.081
595.42	18.647
595.75	19.776
596.09	18.822
596.42	18.995
596.75	19.394
597.09	18.926
597.42	19.112
597.75	19.333
598.09	18.716
598.42	18.881
598.76	18.304
599.09	19.168
599.42	18.542
599.76	19.114
600.09	18.675
600.42	18.795
600.76	18.847
601.09	18.908
601.42	18.973
601.76	18.919
602.09	19.173
602.42	18.820
602.76	19.002
603.09	19.097
603.42	18.912
603.76	19.369
604.09	19.091
604.42	18.543
604.76	18.682
605.09	19.212
605.42	19.118
605.75	18.116
606.09	18.916
606.42	18.703
606.75	18.571
607.09	17.509
607.42	18.214
607.75	18.425
608.08	18.395
608.42	18.463
608.75	18.251
609.08	18.422
609.41	18.579
609.75	18.457
610.08	19.132
610.41	18.367
610.74	19.057
611.07	17.335
611.41	18.475
611.74	18.427
612.07	18.499
612.40	19.027
612.73	17.673
613.07	18.016
613.40	18.282
613.73	17.931
614.06	18.353
614.39	17.954
614.72	18.379
615.06	17.333
615.39	17.936
615.72	18.143
616.05	18.018
616.38	17.927
616.71	17.576
617.05	18.366
617.38	18.299
617.71	17.341
618.04	17.246
618.37	18.107
618.70	18.176
619.03	18.488
619.36	16.014
619.69	17.325
620.03	16.820
620.36	16.841
620.69	17.059
621.02	16.538
621.35	16.517
621.68	16.544
622.01	17.314
622.34	16.257
622.67	17.150
623.00	17.325
623.33	16.754
623.66	16.134
623.99	17.104
624.32	16.948
624.65	17.359
624.99	17.046
625.32	17.401
625.65	16.434
625.98	16.983
626.31	17.551
626.64	16.681
626.97	17.128
627.30	17.109
627.63	16.003
627.96	16.017
628.29	17.767
628.62	16.344
628.95	15.631
629.28	15.074
629.61	16.555
629.94	15.861
630.26	16.552
630.59	16.184
630.92	16.466
631.25	14.212
631.58	15.739
631.91	14.316
632.24	14.490
632.57	14.444
632.90	14.352
633.23	13.669
633.56	15.468
633.89	14.952
