SpectraSuite Data File
++++++++++++++++++++++++++++++++++++
Date: Wed May 13 21:05:28 PDT 2015
User: schluterlab
Dark Spectrum Present: Yes
Reference Spectrum Present: Yes
Number of Sampled Component Spectra: 1
Spectrometers: USB2E3373
Integration Time (usec): 3000 (USB2E3373)
Spectra Averaged: 3 (USB2E3373)
Boxcar Smoothing: 0 (USB2E3373)
Correct for Electrical Dark: No (USB2E3373)
Strobe/Lamp Enabled: No (USB2E3373)
Correct for Detector Non-linearity: No (USB2E3373)
Correct for Stray Light: No (USB2E3373)
Number of Pixels in Processed Spectrum: 2048
>>>>>Begin Processed Spectral Data<<<<<
178.53	0.000
178.91	-150.000
179.29	116.667
179.67	-450.000
180.04	-366.667
180.42	260.000
180.80	300.000
181.18	100.000
181.56	-325.000
181.94	75.000
182.31	0.000
182.69	100.000
183.07	-40.000
183.45	83.333
183.83	122.222
184.20	114.286
184.58	0.000
184.96	100.000
185.34	128.571
185.72	0.000
186.09	-400.000
186.47	-180.000
186.85	-60.000
187.23	-50.000
187.61	550.000
187.98	800.000
188.36	-50.000
188.74	0.000
189.12	-109.091
189.49	30.000
189.87	108.333
190.25	120.000
190.63	800.000
191.00	-140.000
191.38	200.000
191.76	325.000
192.14	125.000
192.51	10.526
192.89	233.333
193.27	275.000
193.65	-160.000
194.02	63.636
194.40	180.000
194.78	100.000
195.15	140.000
195.53	60.000
195.91	25.000
196.29	100.000
196.66	0.000
197.04	250.000
197.42	0.000
197.79	-10.000
198.17	-62.500
198.55	-66.667
198.92	-25.000
199.30	-100.000
199.68	-50.000
200.05	-150.000
200.43	166.667
200.81	-1500.000
201.18	-280.000
201.56	16.667
201.94	625.000
202.31	17.391
202.69	14.286
203.07	-333.333
203.44	-80.000
203.82	66.667
204.19	20.000
204.57	0.000
204.95	-50.000
205.32	0.000
205.70	0.000
206.08	0.000
206.45	-33.333
206.83	250.000
207.20	-133.333
207.58	-90.000
207.96	-900.000
208.33	-57.143
208.71	-600.000
209.08	250.000
209.46	350.000
209.84	0.000
210.21	60.000
210.59	1400.000
210.96	120.000
211.34	1200.000
211.71	-550.000
212.09	0.000
212.46	-70.000
212.84	-200.000
213.22	50.000
213.59	-400.000
213.97	-200.000
214.34	-850.000
214.72	-61.538
215.09	112.500
215.47	88.889
215.84	450.000
216.22	12.500
216.59	-400.000
216.97	300.000
217.34	111.111
217.72	0.000
218.09	133.333
218.47	1200.000
218.84	-42.857
219.22	-62.500
219.59	-166.667
219.97	-100.000
220.34	-50.000
220.72	-140.000
221.09	0.000
221.47	-216.667
221.84	600.000
222.22	0.000
222.59	1100.000
222.97	-33.333
223.34	-16.667
223.72	-800.000
224.09	-100.000
224.46	-9.091
224.84	0.000
225.21	-157.143
225.59	-100.000
225.96	-183.333
226.34	-90.000
226.71	-214.286
227.08	-0.000
227.46	-75.000
227.83	100.000
228.21	25.000
228.58	-350.000
228.95	-29.412
229.33	43.750
229.70	-75.000
230.08	15.385
230.45	-187.500
230.82	-33.333
231.20	200.000
231.57	-250.000
231.95	500.000
232.32	-8.333
232.69	5.882
233.07	-1700.000
233.44	-21.739
233.81	-200.000
234.19	45.833
234.56	-80.000
234.93	-60.000
235.31	-21.053
235.68	-92.308
236.05	-30.769
236.43	-22.222
236.80	6.061
237.17	-86.667
237.55	-64.706
237.92	-31.034
238.29	-25.926
238.67	2.778
239.04	-12.903
239.41	-6.383
239.79	10.638
240.16	11.628
240.53	5.357
240.91	0.000
241.28	-3.571
241.65	-8.065
242.02	6.579
242.40	-5.797
242.77	-14.493
243.14	-6.410
243.51	4.255
243.89	5.769
244.26	8.491
244.63	-7.692
245.00	-5.208
245.38	7.563
245.75	-4.918
246.12	0.752
246.49	-6.504
246.87	-16.807
247.24	6.757
247.61	-1.325
247.98	-0.641
248.36	-4.142
248.73	-3.371
249.10	1.515
249.47	0.000
249.84	0.000
250.22	-2.488
250.59	2.336
250.96	1.364
251.33	-4.306
251.70	0.837
252.08	2.092
252.45	2.058
252.82	4.943
253.19	3.502
253.56	1.799
253.94	2.847
254.31	1.761
254.68	1.342
255.05	2.640
255.42	-3.497
255.79	4.294
256.16	2.524
256.54	1.905
256.91	1.266
257.28	0.943
257.65	-3.822
258.02	0.880
258.39	1.462
258.76	-0.872
259.14	0.568
259.51	1.685
259.88	1.084
260.25	2.222
260.62	1.685
260.99	3.714
261.36	3.627
261.73	-1.235
262.10	0.509
262.47	0.247
262.85	3.980
263.22	2.564
263.59	1.299
263.96	1.703
264.33	0.240
264.70	3.023
265.07	2.778
265.44	2.989
265.81	1.831
266.18	-0.911
266.55	2.838
266.92	0.636
267.29	1.029
267.66	0.212
268.03	2.675
268.40	1.695
268.77	3.306
269.14	2.245
269.51	3.080
269.88	-0.407
270.25	0.000
270.62	-1.230
270.99	2.953
271.36	1.190
271.73	1.406
272.10	1.905
272.47	1.919
272.84	3.150
273.21	1.566
273.58	1.025
273.95	-0.189
274.32	2.799
274.69	2.914
275.06	3.357
275.43	1.507
275.80	1.241
276.17	2.762
276.54	1.954
276.91	1.220
277.28	0.903
277.65	2.622
278.02	2.679
278.39	0.533
278.76	2.676
279.13	1.887
279.50	3.103
279.87	0.906
280.23	0.541
280.60	1.211
280.97	0.812
281.34	3.943
281.71	1.789
282.08	1.709
282.45	2.459
282.82	0.639
283.19	2.896
283.56	2.969
283.92	3.211
284.29	2.496
284.66	1.153
285.03	0.651
285.40	2.568
285.77	2.402
286.14	1.064
286.51	2.249
286.87	1.231
287.24	1.032
287.61	2.108
287.98	2.794
288.35	0.745
288.72	2.152
289.08	2.564
289.45	1.468
289.82	2.269
290.19	3.226
290.56	0.000
290.93	1.796
291.29	2.189
291.66	1.776
292.03	1.499
292.40	1.346
292.77	2.811
293.13	2.092
293.50	1.961
293.87	2.933
294.24	2.116
294.60	2.731
294.97	2.646
295.34	0.264
295.71	0.920
296.08	0.654
296.44	1.020
296.81	0.487
297.18	2.625
297.55	1.533
297.91	1.366
298.28	1.332
298.65	2.340
299.02	1.954
299.38	2.454
299.75	2.404
300.12	1.279
300.48	0.351
300.85	0.693
301.22	0.929
301.59	0.939
301.95	1.045
302.32	0.817
302.69	0.452
303.05	1.883
303.42	2.500
303.79	1.788
304.15	2.300
304.52	2.043
304.89	0.997
305.25	0.878
305.62	1.735
305.99	1.415
306.35	1.567
306.72	1.831
307.09	1.981
307.45	0.745
307.82	0.421
308.19	0.940
308.55	0.921
308.92	2.849
309.29	0.801
309.65	1.898
310.02	1.392
310.38	1.626
310.75	1.183
311.12	1.652
311.48	1.187
311.85	1.083
312.22	1.838
312.58	1.159
312.95	1.393
313.31	1.561
313.68	1.240
314.05	1.890
314.41	2.017
314.78	2.751
315.14	2.870
315.51	2.093
315.87	2.595
316.24	3.214
316.61	3.379
316.97	2.315
317.34	2.852
317.70	2.765
318.07	3.549
318.43	2.529
318.80	2.443
319.16	2.122
319.53	2.151
319.89	2.439
320.26	3.882
320.62	2.595
320.99	2.810
321.35	2.432
321.72	2.214
322.08	3.875
322.45	3.978
322.81	3.974
323.18	4.204
323.54	4.152
323.91	5.149
324.27	3.060
324.64	4.443
325.00	3.762
325.37	5.375
325.73	4.125
326.10	4.710
326.46	5.100
326.83	5.340
327.19	5.691
327.56	5.641
327.92	5.229
328.29	6.260
328.65	6.047
329.01	5.629
329.38	6.522
329.74	6.266
330.11	6.402
330.47	5.556
330.84	5.686
331.20	6.917
331.56	5.978
331.93	6.374
332.29	7.646
332.66	6.695
333.02	7.646
333.38	5.614
333.75	7.765
334.11	7.639
334.48	7.672
334.84	6.272
335.20	7.547
335.57	6.876
335.93	6.100
336.29	7.180
336.66	6.923
337.02	7.304
337.38	7.050
337.75	7.235
338.11	6.063
338.47	6.336
338.84	6.529
339.20	6.966
339.56	7.167
339.93	6.396
340.29	6.576
340.65	7.956
341.02	6.988
341.38	7.264
341.74	6.891
342.11	7.432
342.47	5.941
342.83	6.863
343.20	7.360
343.56	6.460
343.92	7.636
344.28	6.656
344.65	7.020
345.01	6.457
345.37	6.908
345.73	7.190
346.10	7.464
346.46	6.911
346.82	6.260
347.19	6.092
347.55	6.704
347.91	6.157
348.27	6.861
348.63	7.292
349.00	6.604
349.36	7.064
349.72	7.115
350.08	7.254
350.45	6.030
350.81	6.495
351.17	7.621
351.53	6.991
351.89	5.163
352.26	5.637
352.62	6.744
352.98	6.310
353.34	6.039
353.70	6.931
354.07	6.588
354.43	7.776
354.79	6.410
355.15	6.289
355.51	6.758
355.87	6.411
356.24	5.457
356.60	6.099
356.96	6.754
357.32	9.211
357.68	7.257
358.04	6.594
358.40	6.822
358.77	7.110
359.13	7.393
359.49	6.207
359.85	7.657
360.21	7.787
360.57	7.224
360.93	7.284
361.29	6.662
361.66	7.517
362.02	7.042
362.38	6.204
362.74	6.672
363.10	6.797
363.46	6.340
363.82	6.430
364.18	6.599
364.54	6.492
364.90	6.620
365.26	6.511
365.62	7.741
365.98	7.616
366.35	8.014
366.71	6.491
367.07	6.945
367.43	7.317
367.79	7.783
368.15	8.087
368.51	6.188
368.87	7.537
369.23	7.473
369.59	7.963
369.95	5.443
370.31	7.113
370.67	6.879
371.03	6.533
371.39	6.742
371.75	8.286
372.11	6.909
372.47	7.859
372.83	7.282
373.19	6.906
373.55	6.647
373.91	7.850
374.27	6.916
374.63	7.468
374.99	6.755
375.35	7.397
375.71	7.201
376.07	7.265
376.42	7.286
376.78	7.728
377.14	8.000
377.50	7.692
377.86	7.437
378.22	7.459
378.58	7.188
378.94	9.125
379.30	7.433
379.66	7.953
380.02	6.985
380.38	7.410
380.74	7.651
381.09	7.479
381.45	8.162
381.81	7.455
382.17	7.435
382.53	7.323
382.89	7.419
383.25	7.346
383.61	8.051
383.97	7.688
384.32	7.561
384.68	8.575
385.04	7.636
385.40	8.344
385.76	8.577
386.12	8.134
386.48	7.398
386.83	8.448
387.19	7.773
387.55	7.664
387.91	6.950
388.27	6.905
388.62	7.678
388.98	8.135
389.34	8.083
389.70	8.120
390.06	7.562
390.42	8.827
390.77	8.264
391.13	8.649
391.49	7.970
391.85	7.987
392.20	8.396
392.56	7.683
392.92	8.250
393.28	8.019
393.64	7.584
393.99	7.772
394.35	7.716
394.71	7.756
395.07	6.918
395.42	8.227
395.78	7.851
396.14	8.561
396.50	7.863
396.85	8.795
397.21	7.990
397.57	8.012
397.92	7.246
398.28	8.799
398.64	7.954
399.00	8.482
399.35	8.683
399.71	8.037
400.07	7.410
400.42	8.339
400.78	8.097
401.14	7.051
401.49	8.089
401.85	7.617
402.21	8.050
402.57	8.400
402.92	8.949
403.28	8.068
403.63	7.874
403.99	7.997
404.35	7.980
404.70	7.251
405.06	8.162
405.42	7.915
405.77	7.258
406.13	7.486
406.49	7.430
406.84	7.692
407.20	8.289
407.55	7.532
407.91	7.280
408.27	7.548
408.62	8.471
408.98	7.460
409.34	7.488
409.69	8.967
410.05	7.587
410.40	7.060
410.76	7.160
411.11	7.774
411.47	8.162
411.83	7.611
412.18	8.249
412.54	7.957
412.89	7.524
413.25	7.198
413.60	7.962
413.96	7.491
414.31	7.891
414.67	7.492
415.03	7.240
415.38	7.728
415.74	7.212
416.09	7.865
416.45	7.792
416.80	7.852
417.16	8.435
417.51	8.038
417.87	7.804
418.22	6.981
418.58	7.227
418.93	7.659
419.29	7.459
419.64	7.634
420.00	7.492
420.35	7.531
420.71	7.800
421.06	7.688
421.42	7.908
421.77	7.457
422.12	7.851
422.48	7.361
422.83	7.029
423.19	7.533
423.54	7.656
423.90	6.948
424.25	7.857
424.61	7.209
424.96	7.865
425.31	7.628
425.67	7.701
426.02	7.656
426.38	7.463
426.73	6.781
427.09	7.129
427.44	8.221
427.79	7.126
428.15	7.278
428.50	7.311
428.85	7.011
429.21	7.034
429.56	7.439
429.92	7.132
430.27	6.902
430.62	7.398
430.98	7.509
431.33	7.147
431.68	7.295
432.04	7.380
432.39	6.871
432.74	6.560
433.10	7.670
433.45	7.692
433.80	7.184
434.16	8.247
434.51	7.120
434.86	7.362
435.22	7.301
435.57	6.265
435.92	7.358
436.28	7.267
436.63	6.755
436.98	6.463
437.34	7.021
437.69	7.143
438.04	6.169
438.39	7.534
438.75	6.675
439.10	7.461
439.45	7.203
439.81	7.697
440.16	7.304
440.51	7.313
440.86	7.113
441.22	6.827
441.57	7.104
441.92	7.258
442.27	7.143
442.63	7.104
442.98	6.597
443.33	6.941
443.68	7.011
444.03	8.048
444.39	7.238
444.74	6.957
445.09	7.214
445.44	7.493
445.79	7.176
446.15	7.876
446.50	6.883
446.85	7.429
447.20	7.266
447.55	6.659
447.91	6.910
448.26	7.604
448.61	6.789
448.96	7.232
449.31	7.481
449.66	7.692
450.02	6.879
450.37	7.638
450.72	6.946
451.07	7.022
451.42	6.737
451.77	7.243
452.12	6.298
452.47	7.101
452.83	6.663
453.18	7.257
453.53	7.314
453.88	6.024
454.23	7.602
454.58	8.150
454.93	7.312
455.28	7.450
455.63	6.238
455.98	7.486
456.34	6.675
456.69	6.709
457.04	7.307
457.39	6.975
457.74	6.703
458.09	7.168
458.44	6.933
458.79	6.315
459.14	6.517
459.49	6.098
459.84	6.313
460.19	5.942
460.54	6.813
460.89	7.207
461.24	6.350
461.59	7.790
461.94	7.206
462.29	5.882
462.64	6.596
462.99	7.311
463.34	7.320
463.69	6.572
464.04	6.543
464.39	5.796
464.74	6.020
465.09	6.262
465.44	7.351
465.79	7.591
466.14	6.100
466.49	5.748
466.84	6.396
467.19	5.796
467.54	7.194
467.89	6.034
468.24	7.130
468.59	5.991
468.94	6.769
469.29	6.279
469.64	5.788
469.99	7.448
470.34	6.811
470.68	5.799
471.03	6.417
471.38	6.745
471.73	6.516
472.08	6.254
472.43	5.805
472.78	6.897
473.13	5.475
473.48	5.545
473.83	6.089
474.17	5.794
474.52	6.149
474.87	5.428
475.22	5.616
475.57	5.354
475.92	5.943
476.27	6.294
476.61	6.002
476.96	6.739
477.31	6.203
477.66	6.497
478.01	5.110
478.36	5.940
478.70	6.445
479.05	5.993
479.40	5.928
479.75	5.792
480.10	5.864
480.45	6.179
480.79	6.620
481.14	6.788
481.49	6.315
481.84	5.608
482.19	6.068
482.53	6.238
482.88	6.232
483.23	5.582
483.58	6.522
483.92	5.837
484.27	5.489
484.62	5.770
484.97	5.309
485.31	5.887
485.66	5.956
486.01	5.883
486.36	5.643
486.70	5.645
487.05	6.063
487.40	5.807
487.75	6.259
488.09	5.881
488.44	5.994
488.79	6.321
489.13	5.765
489.48	5.900
489.83	6.163
490.17	5.674
490.52	5.657
490.87	5.702
491.22	5.888
491.56	6.037
491.91	5.185
492.26	5.851
492.60	6.061
492.95	5.831
493.30	6.008
493.64	4.269
493.99	5.894
494.34	5.443
494.68	5.537
495.03	5.089
495.37	5.693
495.72	5.564
496.07	6.040
496.41	5.194
496.76	5.530
497.11	5.634
497.45	5.447
497.80	6.058
498.14	5.542
498.49	5.396
498.84	5.364
499.18	5.575
499.53	5.761
499.87	4.949
500.22	5.824
500.56	5.717
500.91	5.282
501.26	5.616
501.60	5.294
501.95	5.750
502.29	5.340
502.64	5.593
502.98	5.539
503.33	5.353
503.67	5.258
504.02	4.853
504.36	5.498
504.71	5.183
505.06	6.011
505.40	5.567
505.75	6.256
506.09	5.365
506.44	5.595
506.78	5.587
507.13	5.717
507.47	5.249
507.82	5.024
508.16	5.805
508.51	4.855
508.85	5.029
509.19	5.185
509.54	6.113
509.88	5.591
510.23	5.895
510.57	5.508
510.92	5.442
511.26	5.171
511.61	5.159
511.95	4.520
512.30	5.053
512.64	6.186
512.98	4.931
513.33	5.352
513.67	5.054
514.02	5.302
514.36	5.562
514.70	5.196
515.05	5.091
515.39	5.366
515.74	4.500
516.08	5.251
516.42	5.012
516.77	5.155
517.11	4.762
517.46	4.982
517.80	5.751
518.14	4.532
518.49	5.606
518.83	5.907
519.17	5.482
519.52	5.187
519.86	5.282
520.20	4.851
520.55	5.597
520.89	5.313
521.23	5.577
521.58	4.867
521.92	5.594
522.26	5.400
522.61	4.783
522.95	5.376
523.29	5.968
523.64	5.658
523.98	4.956
524.32	5.860
524.66	5.130
525.01	5.374
525.35	5.135
525.69	4.771
526.04	5.147
526.38	5.035
526.72	5.786
527.06	5.029
527.41	4.765
527.75	5.274
528.09	4.833
528.43	5.699
528.78	5.168
529.12	5.433
529.46	5.246
529.80	4.919
530.15	4.891
530.49	5.054
530.83	5.078
531.17	5.068
531.51	5.260
531.86	4.810
532.20	4.962
532.54	4.276
532.88	5.514
533.22	5.051
533.57	5.099
533.91	5.484
534.25	5.469
534.59	4.633
534.93	5.102
535.27	4.904
535.62	5.263
535.96	5.791
536.30	6.051
536.64	4.716
536.98	4.345
537.32	5.196
537.66	5.571
538.01	4.508
538.35	5.041
538.69	5.151
539.03	4.430
539.37	5.567
539.71	5.321
540.05	4.184
540.39	5.162
540.73	4.609
541.07	5.170
541.42	4.714
541.76	4.736
542.10	4.604
542.44	5.267
542.78	5.135
543.12	5.256
543.46	4.216
543.80	5.499
544.14	5.299
544.48	3.915
544.82	5.380
545.16	4.936
545.50	5.874
545.84	4.979
546.18	3.997
546.52	4.799
546.86	4.735
547.20	4.932
547.54	4.861
547.88	4.588
548.22	4.821
548.56	4.603
548.90	5.074
549.24	5.833
549.58	3.772
549.92	4.475
550.26	6.273
550.60	4.279
550.94	4.254
551.28	4.996
551.62	4.962
551.96	5.637
552.30	3.493
552.64	4.873
552.98	5.398
553.32	4.831
553.66	5.136
554.00	4.536
554.34	4.615
554.68	5.145
555.02	4.566
555.36	4.236
555.69	4.661
556.03	3.788
556.37	4.552
556.71	4.625
557.05	4.502
557.39	4.145
557.73	4.387
558.07	4.069
558.41	4.769
558.75	4.773
559.08	3.208
559.42	4.799
559.76	4.587
560.10	4.074
560.44	5.158
560.78	3.237
561.12	4.064
561.45	4.286
561.79	4.746
562.13	4.993
562.47	5.214
562.81	4.113
563.15	4.603
563.48	4.818
563.82	4.514
564.16	4.807
564.50	4.003
564.84	3.784
565.17	5.166
565.51	4.746
565.85	4.131
566.19	3.974
566.52	4.128
566.86	4.488
567.20	4.398
567.54	4.548
567.88	4.199
568.21	4.345
568.55	4.851
568.89	4.038
569.23	4.537
569.56	4.464
569.90	4.716
570.24	3.791
570.57	4.674
570.91	4.394
571.25	4.204
571.59	4.811
571.92	4.488
572.26	3.831
572.60	4.404
572.93	4.311
573.27	4.737
573.61	4.866
573.95	4.680
574.28	4.228
574.62	4.369
574.96	4.675
575.29	4.087
575.63	4.268
575.97	4.293
576.30	4.102
576.64	4.454
576.98	4.263
577.31	4.577
577.65	4.131
577.98	4.180
578.32	4.352
578.66	4.247
578.99	4.460
579.33	4.348
579.67	4.532
580.00	4.422
580.34	4.193
580.67	4.557
581.01	4.268
581.35	4.446
581.68	4.391
582.02	4.360
582.35	4.502
582.69	4.271
583.02	4.303
583.36	4.429
583.70	4.337
584.03	4.826
584.37	4.454
584.70	4.261
585.04	4.554
585.37	4.156
585.71	4.269
586.04	4.436
586.38	4.394
586.72	4.496
587.05	4.399
587.39	4.480
587.72	4.309
588.06	4.131
588.39	4.702
588.73	4.603
589.06	4.203
589.40	4.472
589.73	4.240
590.07	4.703
590.40	4.430
590.73	4.457
591.07	4.304
591.40	4.130
591.74	4.402
592.07	4.153
592.41	4.204
592.74	4.321
593.08	3.932
593.41	4.335
593.75	4.070
594.08	4.111
594.41	4.534
594.75	4.198
595.08	4.332
595.42	3.615
595.75	4.555
596.09	4.157
596.42	3.962
596.75	4.081
597.09	4.277
597.42	4.845
597.75	4.222
598.09	3.780
598.42	4.519
598.76	3.946
599.09	4.322
599.42	4.192
599.76	4.431
600.09	4.142
600.42	4.633
600.76	3.991
601.09	4.896
601.42	4.508
601.76	4.633
602.09	4.297
602.42	4.953
602.76	4.069
603.09	4.723
603.42	4.558
603.76	4.092
604.09	4.229
604.42	3.558
604.76	4.016
605.09	4.259
605.42	4.993
605.75	3.640
606.09	3.767
606.42	4.115
606.75	4.026
607.09	3.546
607.42	4.466
607.75	3.807
608.08	4.824
608.42	3.936
608.75	4.348
609.08	3.822
609.41	4.769
609.75	3.883
610.08	4.043
610.41	4.082
610.74	4.716
611.07	4.058
611.41	4.811
611.74	4.814
612.07	4.325
612.40	4.703
612.73	3.787
613.07	3.714
613.40	3.634
613.73	5.092
614.06	3.925
614.39	4.280
614.72	4.275
615.06	3.889
615.39	3.146
615.72	3.834
616.05	4.167
616.38	4.009
616.71	3.779
617.05	3.808
617.38	4.498
617.71	3.431
618.04	3.595
618.37	4.921
618.70	4.334
619.03	4.192
619.36	4.128
619.69	3.509
620.03	3.604
620.36	3.688
620.69	3.141
621.02	3.077
621.35	2.862
621.68	4.238
622.01	5.097
622.34	3.727
622.67	4.072
623.00	4.559
623.33	4.712
623.66	2.454
623.99	4.651
624.32	4.329
624.65	4.228
624.99	4.188
625.32	4.630
625.65	3.876
625.98	3.318
626.31	4.408
626.64	3.869
626.97	3.460
627.30	3.764
627.63	4.325
627.96	3.117
628.29	3.814
628.62	5.126
628.95	3.808
629.28	3.645
629.61	5.455
629.94	4.932
630.26	5.025
630.59	3.996
630.92	3.514
631.25	3.502
631.58	4.711
631.91	2.863
632.24	4.391
632.57	2.444
632.90	2.684
633.23	2.398
633.56	3.957
633.89	3.589
634.22	6.125
634.55	4.629
634.88	3.431
635.20	5.250
635.53	2.842
635.86	3.462
636.19	3.226
636.52	3.902
636.85	3.498
637.18	2.923
637.51	3.121
637.83	3.655
638.16	2.533
638.49	3.071
638.82	5.229
639.15	3.324
639.48	3.610
639.81	3.472
640.13	3.803
640.46	5.226
640.79	3.022
641.12	2.515
641.45	2.766
641.77	3.682
642.10	3.782
642.43	4.245
642.76	3.155
643.09	2.875
643.41	4.625
643.74	3.393
644.07	2.913
644.40	2.985
644.73	3.390
645.05	3.141
645.38	2.658
645.71	3.231
646.04	1.515
646.36	3.472
646.69	3.497
647.02	4.372
647.35	5.850
647.67	4.251
648.00	3.804
648.33	5.932
648.66	1.669
648.98	4.193
649.31	4.141
649.64	2.034
649.96	2.844
650.29	2.124
650.62	2.306
650.94	4.828
651.27	2.827
651.60	3.671
651.92	2.688
652.25	4.858
652.58	3.795
652.90	1.852
653.23	0.849
653.56	2.314
653.88	-0.171
654.21	2.560
654.54	3.821
654.86	4.228
655.19	2.241
655.52	4.707
655.84	3.606
656.17	4.224
656.49	5.769
656.82	5.932
657.15	4.721
657.47	3.689
657.80	2.714
658.13	2.950
658.45	4.402
658.78	4.548
