SpectraSuite Data File
++++++++++++++++++++++++++++++++++++
Date: Wed May 13 20:39:01 PDT 2015
User: schluterlab
Dark Spectrum Present: Yes
Reference Spectrum Present: Yes
Number of Sampled Component Spectra: 1
Spectrometers: USB2E3373
Integration Time (usec): 3000 (USB2E3373)
Spectra Averaged: 3 (USB2E3373)
Boxcar Smoothing: 0 (USB2E3373)
Correct for Electrical Dark: No (USB2E3373)
Strobe/Lamp Enabled: No (USB2E3373)
Correct for Detector Non-linearity: No (USB2E3373)
Correct for Stray Light: No (USB2E3373)
Number of Pixels in Processed Spectrum: 2048
>>>>>Begin Processed Spectral Data<<<<<
178.53	0.000
178.91	-825.000
179.29	-900.000
179.67	-100.000
180.04	-750.000
180.42	1450.000
180.80	820.000
181.18	-550.000
181.56	442.857
181.94	0.000
182.31	-471.429
182.69	966.667
183.07	-462.500
183.45	-355.556
183.83	390.909
184.20	-230.000
184.58	1750.000
184.96	4600.000
185.34	-580.000
185.72	-462.500
186.09	-1550.000
186.47	1850.000
186.85	2000.000
187.23	3100.000
187.61	-1100.000
187.98	1000.000
188.36	381.818
188.74	363.636
189.12	-460.000
189.49	480.000
189.87	-3500.000
190.25	-1075.000
190.63	378.571
191.00	300.000
191.38	716.667
191.76	-825.000
192.14	1200.000
192.51	437.500
192.89	900.000
193.27	425.000
193.65	-725.000
194.02	300.000
194.40	720.000
194.78	480.000
195.15	408.333
195.53	470.000
195.91	-1150.000
196.29	300.000
196.66	200.000
197.04	-180.000
197.42	0.000
197.79	450.000
198.17	-3200.000
198.55	371.429
198.92	537.500
199.30	620.000
199.68	0.000
200.05	261.111
200.43	585.714
200.81	3300.000
201.18	1200.000
201.56	-933.333
201.94	400.000
202.31	400.000
202.69	308.333
203.07	450.000
203.44	0.000
203.82	725.000
204.19	657.143
204.57	328.571
204.95	412.500
205.32	1100.000
205.70	427.273
206.08	242.857
206.45	2150.000
206.83	268.750
207.20	600.000
207.58	580.000
207.96	222.222
208.33	512.500
208.71	-716.667
209.08	628.571
209.46	344.444
209.84	236.364
210.21	-966.667
210.59	1350.000
210.96	-375.000
211.34	1750.000
211.71	420.000
212.09	516.667
212.46	0.000
212.84	1200.000
213.22	750.000
213.59	-3100.000
213.97	766.667
214.34	642.857
214.72	518.182
215.09	740.000
215.47	-2000.000
215.84	-1700.000
216.22	1133.333
216.59	350.000
216.97	875.000
217.34	354.545
217.72	-650.000
218.09	0.000
218.47	-3100.000
218.84	477.778
219.22	642.857
219.59	1266.667
219.97	-442.857
220.34	700.000
220.72	-1066.667
221.09	342.857
221.47	1250.000
221.84	-750.000
222.22	0.000
222.59	975.000
222.97	-2050.000
223.34	860.000
223.72	346.154
224.09	840.000
224.46	1750.000
224.84	-3900.000
225.21	-640.000
225.59	-4400.000
225.96	460.000
226.34	225.000
226.71	1850.000
227.08	450.000
227.46	440.000
227.83	-650.000
228.21	-1650.000
228.58	455.556
228.95	-1750.000
229.33	-1300.000
229.70	1266.667
230.08	528.571
230.45	-640.000
230.82	366.667
231.20	700.000
231.57	400.000
231.95	350.000
232.32	236.364
232.69	363.636
233.07	585.714
233.44	269.231
233.81	-1333.333
234.19	294.737
234.56	266.667
234.93	291.667
235.31	363.636
235.68	261.538
236.05	307.143
236.43	148.485
236.80	226.316
237.17	3700.000
237.55	195.238
237.92	171.429
238.29	204.762
238.67	170.968
239.04	186.207
239.41	138.889
239.79	113.043
240.16	173.810
240.53	134.091
240.91	103.922
241.28	102.000
241.65	124.000
242.02	102.899
242.40	95.161
242.77	113.333
243.14	81.720
243.51	80.899
243.89	92.941
244.26	80.000
244.63	89.247
245.00	82.979
245.38	80.198
245.75	76.636
246.12	74.312
246.49	78.102
246.87	80.000
247.24	85.385
247.61	69.286
247.98	63.399
248.36	66.216
248.73	66.242
249.10	79.618
249.47	72.316
249.84	68.449
250.22	76.471
250.59	64.497
250.96	62.626
251.33	66.351
251.70	72.772
252.08	72.381
252.45	62.332
252.82	63.913
253.19	65.106
253.56	61.176
253.94	60.996
254.31	63.281
254.68	65.000
255.05	62.731
255.42	57.724
255.79	65.809
256.16	63.899
256.54	57.244
256.91	62.989
257.28	61.511
257.65	56.436
258.02	58.385
258.39	58.044
258.76	57.860
259.14	58.929
259.51	56.839
259.88	57.453
260.25	57.704
260.62	58.671
260.99	59.938
261.36	62.162
261.73	57.880
262.10	60.465
262.47	60.563
262.85	56.546
263.22	58.974
263.59	58.689
263.96	54.396
264.33	56.919
264.70	57.895
265.07	56.266
265.44	56.061
265.81	54.015
266.18	58.291
266.55	54.634
266.92	59.951
267.29	58.565
267.66	56.193
268.03	56.136
268.40	56.075
268.77	54.415
269.14	54.505
269.51	56.659
269.88	56.177
270.25	53.725
270.62	57.528
270.99	55.914
271.36	53.863
271.73	56.776
272.10	53.696
272.47	54.839
272.84	53.896
273.21	54.507
273.58	50.218
273.95	50.314
274.32	51.033
274.69	55.246
275.06	54.921
275.43	55.745
275.80	53.908
276.17	54.582
276.54	53.222
276.91	54.545
277.28	54.883
277.65	53.772
278.02	54.244
278.39	55.859
278.76	51.636
279.13	55.283
279.50	51.024
279.87	51.793
280.23	53.293
280.60	50.484
280.97	50.647
281.34	52.389
281.71	52.545
282.08	56.238
282.45	52.182
282.82	50.089
283.19	49.020
283.56	51.930
283.92	50.761
284.29	51.323
284.66	51.180
285.03	49.367
285.40	48.592
285.77	49.832
286.14	49.568
286.51	50.500
286.87	49.744
287.24	51.954
287.61	47.673
287.98	50.000
288.35	48.970
288.72	47.975
289.08	48.513
289.45	47.117
289.82	48.780
290.19	44.584
290.56	45.636
290.93	45.166
291.29	45.552
291.66	45.428
292.03	46.076
292.40	44.493
292.77	43.047
293.13	44.328
293.50	41.983
293.87	43.259
294.24	42.519
294.60	41.921
294.97	42.151
295.34	43.583
295.71	42.756
296.08	41.738
296.44	41.541
296.81	39.234
297.18	41.057
297.55	38.918
297.91	40.501
298.28	40.295
298.65	40.078
299.02	39.921
299.38	39.575
299.75	38.814
300.12	38.186
300.48	38.750
300.85	37.978
301.22	38.854
301.59	37.500
301.95	38.791
302.32	39.409
302.69	36.201
303.05	36.970
303.42	38.272
303.79	34.881
304.15	35.082
304.52	34.878
304.89	34.262
305.25	35.847
305.62	37.939
305.99	35.419
306.35	35.682
306.72	36.771
307.09	36.071
307.45	37.162
307.82	35.826
308.19	36.313
308.55	37.433
308.92	35.338
309.29	34.213
309.65	34.677
310.02	35.412
310.38	34.624
310.75	36.325
311.12	35.107
311.48	34.796
311.85	35.010
312.22	34.964
312.58	34.304
312.95	36.114
313.31	34.660
313.68	34.823
314.05	36.686
314.41	34.472
314.78	35.045
315.14	35.551
315.51	35.839
315.87	36.337
316.24	36.246
316.61	36.550
316.97	35.910
317.34	35.127
317.70	37.859
318.07	37.151
318.43	37.182
318.80	37.020
319.16	37.194
319.53	36.867
319.89	38.286
320.26	39.600
320.62	38.294
320.99	37.879
321.35	38.283
321.72	39.425
322.08	39.388
322.45	40.796
322.81	40.213
323.18	41.522
323.54	40.260
323.91	40.094
324.27	40.918
324.64	39.609
325.00	39.675
325.37	41.310
325.73	41.472
326.10	41.571
326.46	42.025
326.83	43.141
327.19	41.418
327.56	41.986
327.92	43.482
328.29	43.567
328.65	42.541
329.01	42.870
329.38	43.941
329.74	42.567
330.11	43.073
330.47	44.812
330.84	43.842
331.20	43.625
331.56	42.110
331.93	44.259
332.29	43.212
332.66	43.186
333.02	43.144
333.38	44.264
333.75	43.583
334.11	43.060
334.48	43.922
334.84	44.301
335.20	44.364
335.57	44.334
335.93	42.857
336.29	43.498
336.66	43.913
337.02	41.900
337.38	43.519
337.75	43.761
338.11	43.151
338.47	44.567
338.84	43.996
339.20	43.853
339.56	44.617
339.93	43.091
340.29	43.841
340.65	43.672
341.02	45.113
341.38	44.306
341.74	42.544
342.11	44.279
342.47	43.172
342.83	43.236
343.20	44.848
343.56	42.965
343.92	44.298
344.28	42.687
344.65	43.680
345.01	42.677
345.37	42.024
345.73	44.162
346.10	43.478
346.46	42.712
346.82	42.586
347.19	43.776
347.55	41.297
347.91	42.961
348.27	43.878
348.63	43.311
349.00	43.123
349.36	43.596
349.72	42.743
350.08	40.762
350.45	43.938
350.81	42.648
351.17	44.408
351.53	42.260
351.89	42.327
352.26	43.725
352.62	42.903
352.98	41.815
353.34	44.043
353.70	41.899
354.07	43.065
354.43	42.540
354.79	41.673
355.15	43.256
355.51	42.926
355.87	43.347
356.24	41.938
356.60	41.700
356.96	43.363
357.32	42.355
357.68	42.835
358.04	42.835
358.40	42.755
358.77	42.410
359.13	41.436
359.49	41.725
359.85	40.397
360.21	41.388
360.57	42.179
360.93	42.385
361.29	40.967
361.66	41.409
362.02	42.313
362.38	41.825
362.74	42.113
363.10	41.081
363.46	40.719
363.82	41.648
364.18	41.924
364.54	42.422
364.90	42.635
365.26	42.279
365.62	41.636
365.98	41.344
366.35	40.759
366.71	41.142
367.07	41.369
367.43	41.582
367.79	41.827
368.15	40.876
368.51	39.608
368.87	41.613
369.23	41.405
369.59	41.926
369.95	41.103
370.31	41.738
370.67	41.377
371.03	41.348
371.39	40.962
371.75	42.132
372.11	40.683
372.47	42.009
372.83	42.435
373.19	41.257
373.55	41.316
373.91	42.121
374.27	41.787
374.63	41.382
374.99	40.749
375.35	40.614
375.71	41.535
376.07	40.055
376.42	41.472
376.78	41.551
377.14	40.841
377.50	39.338
377.86	40.160
378.22	41.150
378.58	39.286
378.94	39.535
379.30	40.204
379.66	41.497
380.02	39.926
380.38	40.134
380.74	40.156
381.09	40.403
381.45	41.242
381.81	40.356
382.17	41.911
382.53	40.755
382.89	41.173
383.25	40.088
383.61	40.954
383.97	40.901
384.32	39.988
384.68	39.653
385.04	39.766
385.40	40.310
385.76	40.233
386.12	40.091
386.48	41.598
386.83	41.565
387.19	41.682
387.55	40.322
387.91	40.266
388.27	39.669
388.62	39.459
388.98	39.496
389.34	41.364
389.70	40.221
390.06	40.304
390.42	40.986
390.77	40.522
391.13	41.161
391.49	39.657
391.85	39.529
392.20	39.748
392.56	39.078
392.92	39.141
393.28	38.757
393.64	39.508
393.99	40.073
394.35	39.454
394.71	39.962
395.07	38.692
395.42	40.111
395.78	39.631
396.14	38.485
396.50	39.975
396.85	40.496
397.21	38.594
397.57	38.438
397.92	39.183
398.28	38.341
398.64	39.606
399.00	38.892
399.35	38.917
399.71	39.236
400.07	39.148
400.42	38.773
400.78	39.324
401.14	38.354
401.49	39.343
401.85	38.475
402.21	37.665
402.57	38.371
402.92	39.218
403.28	38.476
403.63	38.304
403.99	38.599
404.35	37.879
404.70	39.508
405.06	37.216
405.42	38.740
405.77	37.771
406.13	37.359
406.49	38.143
406.84	37.744
407.20	37.293
407.55	38.290
407.91	38.400
408.27	37.588
408.62	37.026
408.98	37.561
409.34	38.561
409.69	37.806
410.05	37.546
410.40	37.492
410.76	36.977
411.11	37.696
411.47	36.038
411.83	36.775
412.18	37.229
412.54	37.360
412.89	38.253
413.25	37.426
413.60	36.998
413.96	36.126
414.31	37.181
414.67	36.502
415.03	37.417
415.38	37.758
415.74	37.814
416.09	37.884
416.45	37.483
416.80	38.136
417.16	38.003
417.51	38.155
417.87	36.673
418.22	38.044
418.58	37.702
418.93	37.162
419.29	36.665
419.64	36.965
420.00	37.683
420.35	35.652
420.71	37.179
421.06	36.158
421.42	36.316
421.77	36.883
422.12	36.328
422.48	36.373
422.83	36.401
423.19	36.740
423.54	36.912
423.90	37.449
424.25	36.683
424.61	35.893
424.96	36.676
425.31	36.932
425.67	35.618
426.02	35.829
426.38	37.424
426.73	35.869
427.09	37.021
427.44	36.285
427.79	37.148
428.15	36.190
428.50	37.332
428.85	37.008
429.21	36.223
429.56	36.081
429.92	35.833
430.27	36.197
430.62	35.689
430.98	36.222
431.33	36.443
431.68	35.445
432.04	35.304
432.39	35.979
432.74	37.463
433.10	36.220
433.45	37.784
433.80	35.532
434.16	35.951
434.51	36.316
434.86	36.944
435.22	36.520
435.57	35.866
435.92	36.513
436.28	37.070
436.63	36.976
436.98	36.691
437.34	36.792
437.69	37.631
438.04	36.818
438.39	36.896
438.75	37.188
439.10	37.095
439.45	36.187
439.81	35.831
440.16	36.081
440.51	37.083
440.86	37.464
441.22	36.930
441.57	37.527
441.92	37.155
442.27	37.513
442.63	37.546
442.98	36.901
443.33	37.337
443.68	36.706
444.03	36.798
444.39	36.222
444.74	36.742
445.09	36.065
445.44	36.195
445.79	36.517
446.15	37.321
446.50	36.511
446.85	36.691
447.20	36.665
447.55	37.465
447.91	36.459
448.26	37.117
448.61	35.839
448.96	36.268
449.31	37.289
449.66	35.509
450.02	37.047
450.37	35.431
450.72	36.774
451.07	36.624
451.42	35.805
451.77	36.230
452.12	37.009
452.47	36.692
452.83	36.422
453.18	36.369
453.53	36.735
453.88	36.090
454.23	36.760
454.58	36.644
454.93	37.635
455.28	36.534
455.63	36.833
455.98	37.381
456.34	36.055
456.69	36.318
457.04	36.780
457.39	35.885
457.74	36.274
458.09	36.688
458.44	36.260
458.79	35.900
459.14	37.528
459.49	36.894
459.84	36.011
460.19	35.828
460.54	34.896
460.89	36.039
461.24	36.673
461.59	35.677
461.94	36.498
462.29	36.677
462.64	37.205
462.99	35.459
463.34	37.000
463.69	36.335
464.04	35.768
464.39	35.072
464.74	36.185
465.09	35.163
465.44	34.903
465.79	35.738
466.14	35.523
466.49	36.207
466.84	36.602
467.19	35.969
467.54	35.812
467.89	34.994
468.24	35.369
468.59	35.531
468.94	35.003
469.29	35.604
469.64	36.546
469.99	35.927
470.34	36.460
470.68	35.848
471.03	35.714
471.38	37.109
471.73	35.510
472.08	36.184
472.43	35.992
472.78	35.550
473.13	36.200
473.48	36.330
473.83	35.122
474.17	34.412
474.52	34.926
474.87	35.844
475.22	35.345
475.57	34.766
475.92	35.369
476.27	35.569
476.61	34.363
476.96	34.799
477.31	34.694
477.66	34.792
478.01	34.814
478.36	35.114
478.70	35.202
479.05	35.729
479.40	34.800
479.75	33.960
480.10	34.443
480.45	34.507
480.79	34.161
481.14	34.198
481.49	34.646
481.84	34.065
482.19	34.621
482.53	34.358
482.88	34.714
483.23	34.720
483.58	33.985
483.92	34.067
484.27	33.159
484.62	34.009
484.97	33.149
485.31	33.459
485.66	31.858
486.01	31.982
486.36	31.131
486.70	31.698
487.05	31.574
487.40	32.201
487.75	31.873
488.09	32.545
488.44	32.055
488.79	32.622
489.13	33.155
489.48	33.483
489.83	33.362
490.17	33.494
490.52	32.418
490.87	33.288
491.22	33.925
491.56	33.075
491.91	33.737
492.26	32.384
492.60	32.811
492.95	33.676
493.30	32.944
493.64	32.664
493.99	32.591
494.34	33.256
494.68	33.791
495.03	33.271
495.37	33.039
495.72	32.602
496.07	33.411
496.41	31.947
496.76	33.201
497.11	32.823
497.45	33.768
497.80	32.726
498.14	32.657
498.49	33.024
498.84	33.126
499.18	32.714
499.53	32.858
499.87	32.852
500.22	32.737
500.56	34.223
500.91	33.365
501.26	33.523
501.60	33.792
501.95	32.401
502.29	33.505
502.64	33.147
502.98	32.632
503.33	31.764
503.67	32.715
504.02	32.881
504.36	32.897
504.71	32.682
505.06	33.108
505.40	32.134
505.75	32.690
506.09	31.438
506.44	33.350
506.78	33.220
507.13	32.660
507.47	32.677
507.82	32.421
508.16	32.776
508.51	33.435
508.85	32.622
509.19	32.908
509.54	32.041
509.88	32.818
510.23	33.368
510.57	32.869
510.92	32.781
511.26	32.323
511.61	32.521
511.95	32.359
512.30	31.548
512.64	32.832
512.98	32.369
513.33	33.726
513.67	32.231
514.02	31.981
514.36	33.370
514.70	32.374
515.05	33.185
515.39	32.642
515.74	33.221
516.08	32.644
516.42	32.519
516.77	33.278
517.11	32.408
517.46	33.465
517.80	32.230
518.14	32.195
518.49	33.372
518.83	32.557
519.17	32.044
519.52	33.503
519.86	33.257
520.20	33.757
520.55	33.513
520.89	32.968
521.23	33.836
521.58	32.713
521.92	33.680
522.26	32.642
522.61	32.274
522.95	32.290
523.29	32.867
523.64	32.683
523.98	33.148
524.32	32.328
524.66	33.554
525.01	33.333
525.35	32.528
525.69	32.451
526.04	33.271
526.38	32.703
526.72	32.025
527.06	32.768
527.41	32.054
527.75	33.055
528.09	33.654
528.43	31.804
528.78	32.329
529.12	31.939
529.46	32.333
529.80	33.601
530.15	32.399
530.49	32.062
530.83	32.215
531.17	33.486
531.51	33.268
531.86	33.484
532.20	32.203
532.54	33.184
532.88	32.285
533.22	31.168
533.57	31.543
533.91	31.788
534.25	32.382
534.59	31.910
534.93	32.778
535.27	31.925
535.62	32.112
535.96	31.387
536.30	31.469
536.64	32.003
536.98	32.316
537.32	30.744
537.66	32.467
538.01	31.731
538.35	31.997
538.69	33.312
539.03	31.124
539.37	31.757
539.71	31.173
540.05	32.026
540.39	32.093
540.73	30.854
541.07	32.382
541.42	31.963
541.76	32.129
542.10	31.695
542.44	32.053
542.78	32.609
543.12	32.054
543.46	31.803
543.80	31.685
544.14	31.194
544.48	31.619
544.82	30.532
545.16	31.880
545.50	31.234
545.84	30.847
546.18	31.987
546.52	32.140
546.86	31.271
547.20	31.827
547.54	30.728
547.88	31.250
548.22	30.884
548.56	31.509
548.90	31.370
549.24	30.707
549.58	31.787
549.92	29.876
550.26	31.463
550.60	31.051
550.94	31.549
551.28	30.651
551.62	31.129
551.96	31.018
552.30	30.990
552.64	31.575
552.98	32.068
553.32	31.288
553.66	31.766
554.00	32.807
554.34	31.815
554.68	31.474
555.02	32.228
555.36	31.106
555.69	30.988
556.03	30.888
556.37	30.286
556.71	30.014
557.05	31.232
557.39	29.951
557.73	32.110
558.07	31.037
558.41	30.318
558.75	31.668
559.08	31.171
559.42	30.537
559.76	31.250
560.10	30.978
560.44	30.328
560.78	29.874
561.12	30.409
561.45	30.704
561.79	29.466
562.13	30.852
562.47	30.943
562.81	30.126
563.15	30.368
563.48	29.708
563.82	30.007
564.16	29.954
564.50	30.143
564.84	31.290
565.17	29.730
565.51	30.607
565.85	30.901
566.19	29.681
566.52	30.399
566.86	30.561
567.20	29.953
567.54	29.395
567.88	29.006
568.21	29.735
568.55	29.424
568.89	29.426
569.23	28.966
569.56	28.704
569.90	28.528
570.24	28.454
570.57	28.664
570.91	27.408
571.25	27.857
571.59	28.100
571.92	27.621
572.26	27.556
572.60	28.198
572.93	27.436
573.27	27.388
573.61	27.499
573.95	27.778
574.28	26.683
574.62	27.381
574.96	26.977
575.29	26.770
575.63	26.855
575.97	26.816
576.30	27.350
576.64	26.561
576.98	27.005
577.31	26.687
577.65	26.949
577.98	26.779
578.32	26.827
578.66	27.065
578.99	26.957
579.33	26.822
579.67	26.636
580.00	26.972
580.34	27.005
580.67	26.802
581.01	26.715
581.35	26.713
581.68	26.297
582.02	26.430
582.35	26.962
582.69	26.701
583.02	26.993
583.36	27.023
583.70	27.173
584.03	26.567
584.37	27.431
584.70	26.959
585.04	26.688
585.37	26.631
585.71	27.115
586.04	27.229
586.38	27.821
586.72	27.037
587.05	27.248
587.39	27.124
587.72	27.596
588.06	27.108
588.39	26.694
588.73	27.134
589.06	27.548
589.40	27.340
589.73	27.244
590.07	27.367
590.40	27.147
590.73	28.649
591.07	28.042
591.40	28.638
591.74	29.004
592.07	28.098
592.41	28.607
592.74	27.378
593.08	27.648
593.41	27.713
593.75	26.889
594.08	27.657
594.41	27.642
594.75	27.431
595.08	27.559
595.42	27.566
595.75	27.350
596.09	27.225
596.42	28.566
596.75	27.607
597.09	28.874
597.42	27.234
597.75	27.900
598.09	27.522
598.42	27.835
598.76	28.091
599.09	27.480
599.42	26.820
599.76	27.562
600.09	27.213
600.42	27.283
600.76	27.821
601.09	27.614
601.42	27.359
601.76	27.400
602.09	27.708
602.42	27.747
602.76	27.690
603.09	27.616
603.42	28.465
603.76	27.706
604.09	27.065
604.42	27.803
604.76	28.342
605.09	27.960
605.42	26.550
605.75	27.276
606.09	27.084
606.42	27.054
606.75	27.167
607.09	27.752
607.42	26.958
607.75	27.384
608.08	26.965
608.42	27.925
608.75	28.224
609.08	27.937
609.41	27.558
609.75	27.203
610.08	27.333
610.41	26.816
610.74	27.483
611.07	27.915
611.41	27.134
611.74	27.702
612.07	28.778
612.40	28.174
612.73	27.789
613.07	27.640
613.40	28.647
613.73	27.897
614.06	27.312
614.39	27.163
614.72	27.158
615.06	27.679
615.39	27.866
615.72	27.403
616.05	26.847
616.38	27.349
616.71	27.791
617.05	29.034
617.38	27.781
617.71	27.928
618.04	28.065
618.37	28.031
618.70	28.500
619.03	28.750
619.36	28.310
619.69	28.803
620.03	28.915
620.36	29.679
620.69	28.904
621.02	28.835
621.35	28.034
621.68	28.349
622.01	29.180
622.34	29.955
622.67	29.278
623.00	27.586
623.33	27.949
623.66	28.377
623.99	29.308
624.32	27.461
624.65	27.825
624.99	28.399
625.32	28.313
625.65	28.850
625.98	28.824
626.31	29.860
626.64	29.061
626.97	29.426
627.30	27.847
627.63	28.794
627.96	29.352
628.29	30.884
628.62	29.460
628.95	30.377
629.28	30.748
629.61	30.247
629.94	30.000
630.26	29.361
630.59	30.029
630.92	29.119
631.25	29.714
