SpectraSuite Data File
++++++++++++++++++++++++++++++++++++
Date: Wed May 13 21:04:46 PDT 2015
User: schluterlab
Dark Spectrum Present: Yes
Reference Spectrum Present: Yes
Number of Sampled Component Spectra: 1
Spectrometers: USB2E3373
Integration Time (usec): 3000 (USB2E3373)
Spectra Averaged: 3 (USB2E3373)
Boxcar Smoothing: 0 (USB2E3373)
Correct for Electrical Dark: No (USB2E3373)
Strobe/Lamp Enabled: No (USB2E3373)
Correct for Detector Non-linearity: No (USB2E3373)
Correct for Stray Light: No (USB2E3373)
Number of Pixels in Processed Spectrum: 2048
>>>>>Begin Processed Spectral Data<<<<<
178.53	0.000
178.91	750.000
179.29	150.000
179.67	-400.000
180.04	-466.667
180.42	260.000
180.80	300.000
181.18	183.333
181.56	-275.000
181.94	-75.000
182.31	0.000
182.69	84.615
183.07	40.000
183.45	83.333
183.83	155.556
184.20	42.857
184.58	0.000
184.96	266.667
185.34	214.286
185.72	0.000
186.09	300.000
186.47	-100.000
186.85	200.000
187.23	-50.000
187.61	200.000
187.98	1500.000
188.36	-50.000
188.74	0.000
189.12	-27.273
189.49	70.000
189.87	91.667
190.25	300.000
190.63	700.000
191.00	80.000
191.38	240.000
191.76	225.000
192.14	208.333
192.51	10.526
192.89	300.000
193.27	225.000
193.65	60.000
194.02	118.182
194.40	100.000
194.78	-800.000
195.15	80.000
195.53	-100.000
195.91	-62.500
196.29	0.000
196.66	0.000
197.04	150.000
197.42	200.000
197.79	70.000
198.17	-137.500
198.55	-200.000
198.92	25.000
199.30	-200.000
199.68	50.000
200.05	-0.000
200.43	183.333
200.81	-300.000
201.18	-280.000
201.56	-83.333
201.94	400.000
202.31	30.435
202.69	14.286
203.07	-400.000
203.44	-160.000
203.82	-233.333
204.19	60.000
204.57	0.000
204.95	-16.667
205.32	0.000
205.70	-150.000
206.08	-325.000
206.45	0.000
206.83	400.000
207.20	-66.667
207.58	-30.000
207.96	-1500.000
208.33	14.286
208.71	-1200.000
209.08	150.000
209.46	125.000
209.84	0.000
210.21	70.000
210.59	1200.000
210.96	180.000
211.34	-0.000
211.71	200.000
212.09	0.000
212.46	-120.000
212.84	66.667
213.22	-250.000
213.59	-500.000
213.97	-400.000
214.34	-850.000
214.72	-7.692
215.09	137.500
215.47	200.000
215.84	200.000
216.22	-175.000
216.59	-200.000
216.97	133.333
217.34	66.667
217.72	0.000
218.09	200.000
218.47	100.000
218.84	28.571
219.22	175.000
219.59	-33.333
219.97	0.000
220.34	-12.500
220.72	-20.000
221.09	0.000
221.47	-233.333
221.84	300.000
222.22	0.000
222.59	500.000
222.97	33.333
223.34	41.667
223.72	-600.000
224.09	-250.000
224.46	-63.636
224.84	62.500
225.21	128.571
225.59	-50.000
225.96	16.667
226.34	-50.000
226.71	0.000
227.08	550.000
227.46	-25.000
227.83	1000.000
228.21	0.000
228.58	-125.000
228.95	35.294
229.33	31.250
229.70	-150.000
230.08	15.385
230.45	-212.500
230.82	0.000
231.20	42.857
231.57	-225.000
231.95	800.000
232.32	75.000
232.69	58.824
233.07	-200.000
233.44	-30.435
233.81	-1000.000
234.19	-4.167
234.56	-80.000
234.93	-60.000
235.31	15.789
235.68	7.692
236.05	0.000
236.43	16.667
236.80	21.212
237.17	46.667
237.55	5.882
237.92	-55.172
238.29	3.704
238.67	30.556
239.04	9.677
239.41	0.000
239.79	23.404
240.16	27.907
240.53	41.071
240.91	46.429
241.28	19.643
241.65	22.581
242.02	28.947
242.40	33.333
242.77	34.783
243.14	37.179
243.51	37.234
243.89	32.692
244.26	47.170
244.63	24.038
245.00	36.458
245.38	28.571
245.75	30.328
246.12	27.820
246.49	27.642
246.87	17.647
247.24	39.865
247.61	29.801
247.98	30.128
248.36	31.361
248.73	27.528
249.10	29.798
249.47	25.806
249.84	34.737
250.22	30.846
250.59	35.047
250.96	33.636
251.33	28.708
251.70	30.962
252.08	28.452
252.45	30.041
252.82	32.319
253.19	29.572
253.56	33.813
253.94	31.673
254.31	33.451
254.68	35.906
255.05	31.353
255.42	29.720
255.79	32.515
256.16	29.968
256.54	28.889
256.91	28.797
257.28	33.019
257.65	30.892
258.02	28.446
258.39	30.409
258.76	30.814
259.14	33.523
259.51	30.056
259.88	32.791
260.25	31.389
260.62	28.933
260.99	33.422
261.36	33.420
261.73	28.642
262.10	32.824
262.47	29.383
262.85	30.846
263.22	31.795
263.59	31.688
263.96	29.440
264.33	32.212
264.70	29.070
265.07	30.556
265.44	29.885
265.81	32.952
266.18	30.296
266.55	28.821
266.92	31.992
267.29	30.864
267.66	31.423
268.03	32.305
268.40	29.449
268.77	30.372
269.14	31.837
269.51	34.292
269.88	28.921
270.25	29.661
270.62	31.352
270.99	33.071
271.36	29.960
271.73	30.924
272.10	31.810
272.47	30.518
272.84	33.268
273.21	29.159
273.58	32.377
273.95	29.057
274.32	29.851
274.69	28.597
275.06	32.332
275.43	31.073
275.80	29.610
276.17	30.387
276.54	27.531
276.91	30.662
277.28	29.061
277.65	28.322
278.02	30.000
278.39	30.195
278.76	30.435
279.13	30.875
279.50	30.690
279.87	28.623
280.23	30.991
280.60	30.277
280.97	29.708
281.34	31.073
281.71	29.268
282.08	28.376
282.45	29.508
282.82	29.712
283.19	30.030
283.56	27.656
283.92	27.829
284.29	27.769
284.66	28.501
285.03	27.362
285.40	28.550
285.77	29.880
286.14	29.027
286.51	30.735
286.87	27.538
287.24	28.024
287.61	28.916
287.98	27.647
288.35	27.720
288.72	28.838
289.08	29.060
289.45	26.138
289.82	29.652
290.19	27.069
290.56	27.131
290.93	26.519
291.29	26.402
291.66	27.049
292.03	26.975
292.40	27.591
292.77	25.569
293.13	28.452
293.50	25.098
293.87	26.533
294.24	25.529
294.60	25.488
294.97	25.397
295.34	24.802
295.71	23.259
296.08	24.215
296.44	22.321
296.81	23.630
297.18	26.125
297.55	23.467
297.91	25.342
298.28	23.729
298.65	24.754
299.02	24.542
299.38	24.294
299.75	24.038
300.12	23.023
300.48	23.626
300.85	23.903
301.22	24.506
301.59	23.357
301.95	23.113
302.32	22.404
302.69	22.712
303.05	21.595
303.42	21.818
303.79	23.554
304.15	23.220
304.52	22.581
304.89	22.259
305.25	21.844
305.62	21.584
305.99	23.395
306.35	22.257
306.72	22.889
307.09	21.585
307.45	23.429
307.82	21.263
308.19	21.108
308.55	21.392
308.92	23.084
309.29	20.621
309.65	20.879
310.02	22.763
310.38	21.850
310.75	21.598
311.12	21.380
311.48	22.354
311.85	21.555
312.22	22.050
312.58	20.386
312.95	22.090
313.31	21.855
313.68	20.802
314.05	21.739
314.41	21.710
314.78	22.865
315.14	21.389
315.51	21.694
315.87	21.501
316.24	21.120
316.61	22.740
316.97	20.463
317.34	20.766
317.70	20.874
318.07	21.118
318.43	21.409
318.80	20.157
319.16	21.839
319.53	20.609
319.89	20.416
320.26	21.072
320.62	20.667
320.99	21.415
321.35	19.738
321.72	21.270
322.08	21.956
322.45	20.907
322.81	21.442
323.18	20.841
323.54	21.300
323.91	21.409
324.27	21.782
324.64	20.470
325.00	20.910
325.37	21.160
325.73	19.444
326.10	21.110
326.46	19.983
326.83	21.440
327.19	21.301
327.56	21.595
327.92	21.641
328.29	21.452
328.65	21.998
329.01	20.405
329.38	22.957
329.74	21.631
330.11	19.928
330.47	20.313
330.84	20.217
331.20	21.349
331.56	21.920
331.93	20.672
332.29	21.460
332.66	21.441
333.02	21.633
333.38	20.175
333.75	20.478
334.11	20.399
334.48	20.575
334.84	21.113
335.20	20.069
335.57	20.801
335.93	20.619
336.29	20.403
336.66	19.744
337.02	19.826
337.38	20.888
337.75	19.897
338.11	19.471
338.47	19.092
338.84	20.361
339.20	20.194
339.56	20.051
339.93	19.447
340.29	20.751
340.65	20.274
341.02	19.301
341.38	20.946
341.74	19.748
342.11	19.405
342.47	20.000
342.83	19.036
343.20	21.235
343.56	20.605
343.92	18.846
344.28	19.075
344.65	20.000
345.01	19.532
345.37	20.395
345.73	19.363
346.10	19.904
346.46	19.106
346.82	19.823
347.19	19.541
347.55	20.759
347.91	19.564
348.27	20.110
348.63	19.311
349.00	19.733
349.36	18.917
349.72	20.108
350.08	20.125
350.45	19.264
350.81	20.579
351.17	20.246
351.53	19.560
351.89	18.824
352.26	18.147
352.62	18.450
352.98	18.850
353.34	18.841
353.70	20.093
354.07	18.667
354.43	19.829
354.79	20.272
355.15	19.099
355.51	19.438
355.87	19.312
356.24	19.181
356.60	18.765
356.96	19.800
357.32	19.427
357.68	19.251
358.04	18.929
358.40	19.845
358.77	18.654
359.13	18.911
359.49	19.606
359.85	18.878
360.21	18.427
360.57	19.392
360.93	20.258
361.29	19.171
361.66	18.375
362.02	17.643
362.38	18.907
362.74	18.057
363.10	19.017
363.46	18.156
363.82	18.921
364.18	18.129
364.54	19.694
364.90	19.164
365.26	19.604
365.62	18.324
365.98	19.004
366.35	19.149
366.71	18.260
367.07	18.072
367.43	18.258
367.79	18.346
368.15	17.862
368.51	18.284
368.87	18.353
369.23	18.434
369.59	18.464
369.95	18.505
370.31	18.271
370.67	18.682
371.03	18.486
371.39	18.595
371.75	19.286
372.11	17.806
372.47	18.673
372.83	18.863
373.19	17.914
373.55	18.642
373.91	18.034
374.27	17.911
374.63	19.061
374.99	18.454
375.35	18.288
375.71	17.663
376.07	18.095
376.42	18.249
376.78	18.362
377.14	18.712
377.50	18.644
377.86	18.858
378.22	18.205
378.58	18.222
378.94	18.125
379.30	18.051
379.66	19.236
380.02	18.199
380.38	18.494
380.74	18.769
381.09	18.758
381.45	18.622
381.81	18.176
382.17	18.021
382.53	18.646
382.89	18.456
383.25	17.778
383.61	19.492
383.97	17.875
384.32	17.706
384.68	18.384
385.04	17.838
385.40	18.742
385.76	18.552
386.12	18.399
386.48	17.680
386.83	17.772
387.19	18.322
387.55	18.210
387.91	18.512
388.27	18.311
388.62	17.104
388.98	18.210
389.34	17.419
389.70	17.766
390.06	17.625
390.42	18.686
390.77	18.193
391.13	18.245
391.49	17.204
391.85	17.891
392.20	17.982
392.56	18.032
392.92	18.549
393.28	18.187
393.64	17.554
393.99	18.054
394.35	17.778
394.71	17.949
395.07	17.296
395.42	18.038
395.78	17.696
396.14	18.263
396.50	17.502
396.85	18.101
397.21	17.478
397.57	17.019
397.92	17.126
398.28	18.161
398.64	17.426
399.00	17.634
399.35	18.956
399.71	17.239
400.07	17.590
400.42	17.555
400.78	17.221
401.14	17.535
401.49	16.836
401.85	17.875
402.21	17.523
402.57	18.026
402.92	18.523
403.28	17.636
403.63	18.041
403.99	17.019
404.35	16.646
404.70	16.495
405.06	17.381
405.42	16.834
405.77	16.935
406.13	16.571
406.49	17.376
406.84	18.010
407.20	17.584
407.55	18.442
407.91	16.545
408.27	17.031
408.62	18.907
408.98	17.509
409.34	17.574
409.69	18.129
410.05	17.226
410.40	17.103
410.76	17.509
411.11	18.408
411.47	18.049
411.83	16.719
412.18	17.003
412.54	18.045
412.89	17.931
413.25	17.286
413.60	16.677
413.96	16.042
414.31	17.386
414.67	17.333
415.03	17.118
415.38	17.107
415.74	17.154
416.09	17.978
416.45	17.635
416.80	17.919
417.16	17.746
417.51	16.477
417.87	17.526
418.22	16.225
418.58	17.937
418.93	17.326
419.29	17.228
419.64	17.366
420.00	17.270
420.35	17.454
420.71	17.550
421.06	17.466
421.42	17.883
421.77	17.399
422.12	16.963
422.48	17.067
422.83	17.307
423.19	17.366
423.54	18.021
423.90	16.983
424.25	17.909
424.61	16.266
424.96	16.677
425.31	17.218
425.67	17.989
426.02	17.550
426.38	17.226
426.73	17.776
427.09	17.573
427.44	17.792
427.79	17.221
428.15	16.758
428.50	16.979
428.85	17.528
429.21	16.714
429.56	17.216
429.92	16.918
430.27	16.207
430.62	17.681
430.98	17.081
431.33	17.088
431.68	17.678
432.04	16.338
432.39	16.686
432.74	16.800
433.10	17.955
433.45	17.692
433.80	17.989
434.16	17.094
434.51	17.935
434.86	17.020
435.22	17.714
435.57	17.322
435.92	17.069
436.28	16.697
436.63	17.263
436.98	16.863
437.34	17.766
437.69	17.119
438.04	16.978
438.39	16.501
438.75	17.521
439.10	17.467
439.45	17.252
439.81	17.611
440.16	18.145
440.51	16.468
440.86	17.190
441.22	17.097
441.57	16.974
441.92	17.367
442.27	16.829
442.63	17.061
442.98	16.088
443.33	16.874
443.68	16.974
444.03	16.592
444.39	17.105
444.74	16.842
445.09	16.795
445.44	17.803
445.79	16.882
446.15	17.415
446.50	16.850
446.85	17.263
447.20	17.878
447.55	17.515
447.91	16.573
448.26	16.752
448.61	17.146
448.96	17.711
449.31	18.332
449.66	17.756
450.02	17.624
450.37	16.745
450.72	17.279
451.07	16.426
451.42	16.968
451.77	17.894
452.12	17.053
452.47	16.979
452.83	17.217
453.18	17.314
453.53	17.718
453.88	17.108
454.23	16.811
454.58	17.402
454.93	16.485
455.28	17.020
455.63	16.532
455.98	17.103
456.34	16.974
456.69	17.380
457.04	17.090
457.39	16.657
457.74	17.115
458.09	17.180
458.44	16.686
458.79	17.133
459.14	16.966
459.49	16.829
459.84	16.404
460.19	16.267
460.54	16.727
460.89	16.216
461.24	16.461
461.59	17.210
461.94	17.636
462.29	16.422
462.64	16.359
462.99	17.840
463.34	17.058
463.69	16.881
464.04	16.447
464.39	17.145
464.74	17.322
465.09	16.987
465.44	17.452
465.79	18.171
466.14	17.047
466.49	16.246
466.84	17.274
467.19	16.051
467.54	17.498
467.89	16.719
468.24	17.148
468.59	16.507
468.94	16.858
469.29	18.044
469.64	16.179
469.99	16.966
470.34	16.251
470.68	15.465
471.03	16.996
471.38	16.759
471.73	16.667
472.08	17.182
472.43	16.491
472.78	17.309
473.13	16.623
473.48	16.373
473.83	17.075
474.17	16.146
474.52	16.958
474.87	15.983
475.22	15.640
475.57	16.509
475.92	16.630
476.27	17.308
476.61	16.421
476.96	16.905
477.31	16.721
477.66	17.232
478.01	16.868
478.36	16.785
478.70	16.327
479.05	17.203
479.40	16.277
479.75	16.312
480.10	17.338
480.45	16.135
480.79	16.476
481.14	17.173
481.49	17.119
481.84	16.070
482.19	16.396
482.53	16.190
482.88	16.779
483.23	15.784
483.58	16.824
483.92	16.148
484.27	16.377
484.62	16.289
484.97	16.632
485.31	16.946
485.66	16.411
486.01	16.692
486.36	16.634
486.70	16.768
487.05	17.134
487.40	17.131
487.75	17.284
488.09	17.079
488.44	16.719
488.79	16.805
489.13	16.183
489.48	16.246
489.83	16.615
490.17	16.205
490.52	17.158
490.87	16.597
491.22	16.580
491.56	17.106
491.91	16.275
492.26	16.441
492.60	15.392
492.95	17.055
493.30	15.843
493.64	15.348
493.99	16.232
494.34	16.667
494.68	16.754
495.03	16.206
495.37	17.080
495.72	16.491
496.07	16.756
496.41	16.659
496.76	16.682
497.11	16.995
497.45	15.953
497.80	16.456
498.14	15.919
498.49	16.188
498.84	16.549
499.18	16.277
499.53	16.002
499.87	16.012
500.22	15.978
500.56	16.700
500.91	17.153
501.26	16.749
501.60	15.539
501.95	16.627
502.29	16.408
502.64	16.490
502.98	17.437
503.33	16.740
503.67	17.235
504.02	15.539
504.36	16.444
504.71	15.396
505.06	17.015
505.40	16.546
505.75	17.345
506.09	15.841
506.44	16.079
506.78	16.303
507.13	16.840
507.47	15.748
507.82	16.013
508.16	15.989
508.51	15.444
508.85	16.382
509.19	15.503
509.54	16.568
509.88	16.935
510.23	16.632
510.57	17.320
510.92	16.487
511.26	16.227
511.61	15.862
511.95	15.436
512.30	14.936
512.64	17.083
512.98	15.457
513.33	15.775
513.67	16.070
514.02	15.964
514.36	16.011
514.70	16.166
515.05	16.442
515.39	16.038
515.74	15.690
516.08	15.516
516.42	15.899
516.77	16.344
517.11	15.344
517.46	16.387
517.80	16.768
518.14	15.248
518.49	15.310
518.83	17.005
519.17	16.205
519.52	16.647
519.86	16.211
520.20	16.192
520.55	15.485
520.89	15.560
521.23	16.795
521.58	16.308
521.92	16.719
522.26	15.615
522.61	16.290
522.95	16.904
523.29	15.810
523.64	16.211
523.98	15.693
524.32	15.123
524.66	16.169
525.01	16.645
525.35	15.076
525.69	16.899
526.04	15.896
526.38	16.571
526.72	15.450
527.06	15.732
527.41	15.486
527.75	15.087
528.09	16.474
528.43	16.214
528.78	16.085
529.12	16.429
529.46	16.187
529.80	16.570
530.15	15.637
530.49	17.588
530.83	16.317
531.17	15.822
531.51	15.577
531.86	15.447
532.20	16.334
532.54	15.655
532.88	16.065
533.22	15.690
533.57	16.291
533.91	17.355
534.25	16.341
534.59	16.345
534.93	16.390
535.27	17.070
535.62	15.132
535.96	17.306
536.30	16.290
536.64	15.174
536.98	16.118
537.32	15.516
537.66	16.784
538.01	16.366
538.35	15.262
538.69	15.518
539.03	15.235
539.37	15.225
539.71	16.508
540.05	15.115
540.39	15.692
540.73	16.550
541.07	16.190
541.42	16.431
541.76	16.712
542.10	16.114
542.44	15.315
542.78	16.239
543.12	16.173
543.46	15.411
543.80	16.158
544.14	16.105
544.48	15.594
544.82	16.140
545.16	16.227
545.50	16.003
545.84	15.568
546.18	15.147
546.52	15.879
546.86	15.477
547.20	14.939
547.54	15.154
547.88	16.194
548.22	15.831
548.56	15.811
548.90	15.291
549.24	15.417
549.58	15.587
549.92	17.535
550.26	16.827
550.60	15.766
550.94	15.299
551.28	16.048
551.62	16.015
551.96	16.252
552.30	14.410
552.64	15.466
552.98	15.980
553.32	16.583
553.66	16.801
554.00	15.551
554.34	15.604
554.68	16.629
555.02	16.243
555.36	14.902
555.69	15.004
556.03	16.083
556.37	14.154
556.71	15.207
557.05	16.531
557.39	15.524
557.73	15.809
558.07	15.976
558.41	15.291
558.75	16.089
559.08	16.119
559.42	15.736
559.76	15.443
560.10	15.142
560.44	17.318
560.78	15.612
561.12	16.468
561.45	15.646
561.79	16.506
562.13	16.034
562.47	16.286
562.81	15.873
563.15	15.439
563.48	15.141
563.82	16.005
564.16	15.301
564.50	15.672
564.84	16.622
565.17	16.821
565.51	16.110
565.85	15.190
566.19	15.762
566.52	15.858
566.86	15.550
567.20	15.455
567.54	16.177
567.88	16.069
568.21	16.676
568.55	16.015
568.89	15.803
569.23	15.995
569.56	16.187
569.90	15.913
570.24	15.596
570.57	16.240
570.91	15.945
571.25	15.701
571.59	16.176
571.92	15.899
572.26	16.513
572.60	16.046
572.93	16.089
573.27	16.398
573.61	16.671
573.95	16.182
574.28	16.293
574.62	16.292
574.96	16.363
575.29	16.650
575.63	16.043
575.97	16.467
576.30	16.520
576.64	16.296
576.98	16.347
577.31	16.749
577.65	16.457
577.98	16.594
578.32	16.449
578.66	16.706
578.99	16.620
579.33	16.592
579.67	16.752
580.00	16.199
580.34	16.626
580.67	16.707
581.01	16.861
581.35	16.531
581.68	16.335
582.02	16.739
582.35	16.740
582.69	16.444
583.02	16.705
583.36	16.678
583.70	16.808
584.03	16.312
584.37	16.530
584.70	16.698
585.04	16.851
585.37	16.258
585.71	16.691
586.04	16.642
586.38	15.969
586.72	16.409
587.05	16.949
587.39	16.671
587.72	16.436
588.06	16.881
588.39	16.401
588.73	16.817
589.06	17.038
589.40	15.996
589.73	16.529
590.07	16.187
590.40	16.395
590.73	16.734
591.07	16.381
591.40	15.696
591.74	15.651
592.07	16.750
592.41	16.259
592.74	16.127
593.08	16.068
593.41	16.281
593.75	15.956
594.08	16.200
594.41	16.161
594.75	16.117
595.08	15.982
595.42	16.034
595.75	16.522
596.09	16.628
596.42	16.217
596.75	15.665
597.09	16.288
597.42	16.689
597.75	16.444
598.09	16.439
598.42	16.913
598.76	16.079
599.09	17.367
599.42	15.861
599.76	16.673
600.09	16.077
600.42	15.970
600.76	16.630
601.09	16.347
601.42	16.660
601.76	16.834
602.09	16.660
602.42	16.550
602.76	15.898
603.09	16.509
603.42	16.234
603.76	16.017
604.09	16.206
604.42	15.990
604.76	16.150
605.09	16.085
605.42	17.139
605.75	15.846
606.09	15.935
606.42	16.002
606.75	16.753
607.09	15.957
607.42	16.243
607.75	15.011
608.08	16.772
608.42	16.354
608.75	16.245
609.08	15.777
609.41	16.046
609.75	15.885
610.08	15.927
610.41	16.375
610.74	16.651
611.07	16.934
611.41	16.070
611.74	16.304
612.07	15.529
612.40	16.811
612.73	16.795
613.07	15.466
613.40	16.189
613.73	16.576
614.06	16.805
614.39	16.509
614.72	16.213
615.06	16.056
615.39	15.673
615.72	16.145
616.05	14.921
616.38	15.979
616.71	15.717
617.05	15.602
617.38	15.958
617.71	15.686
618.04	15.844
618.37	15.394
618.70	16.106
619.03	16.220
619.36	15.089
619.69	15.716
620.03	14.982
620.36	14.823
620.69	14.775
621.02	15.231
621.35	15.209
621.68	13.610
622.01	15.453
622.34	14.512
622.67	15.505
623.00	15.502
623.33	15.632
623.66	15.465
623.99	16.954
624.32	15.407
624.65	15.208
624.99	15.062
625.32	16.505
625.65	14.806
625.98	15.245
626.31	16.245
626.64	15.821
626.97	14.965
627.30	15.654
627.63	16.176
627.96	15.152
628.29	17.023
628.62	16.054
628.95	14.529
629.28	15.665
629.61	15.981
629.94	15.087
630.26	15.369
630.59	15.584
630.92	14.056
631.25	15.757
631.58	15.632
631.91	14.634
632.24	15.368
632.57	14.778
632.90	15.519
633.23	13.789
633.56	15.108
633.89	15.909
