SpectraSuite Data File
++++++++++++++++++++++++++++++++++++
Date: Wed May 13 21:03:15 PDT 2015
User: schluterlab
Dark Spectrum Present: Yes
Reference Spectrum Present: Yes
Number of Sampled Component Spectra: 1
Spectrometers: USB2E3373
Integration Time (usec): 3000 (USB2E3373)
Spectra Averaged: 3 (USB2E3373)
Boxcar Smoothing: 0 (USB2E3373)
Correct for Electrical Dark: No (USB2E3373)
Strobe/Lamp Enabled: No (USB2E3373)
Correct for Detector Non-linearity: No (USB2E3373)
Correct for Stray Light: No (USB2E3373)
Number of Pixels in Processed Spectrum: 2048
>>>>>Begin Processed Spectral Data<<<<<
178.53	0.000
178.91	-50.000
179.29	116.667
179.67	-450.000
180.04	-266.667
180.42	160.000
180.80	1500.000
181.18	100.000
181.56	-200.000
181.94	-100.000
182.31	118.182
182.69	30.769
183.07	-120.000
183.45	150.000
183.83	133.333
184.20	28.571
184.58	200.000
184.96	-33.333
185.34	114.286
185.72	0.000
186.09	-200.000
186.47	-140.000
186.85	60.000
187.23	350.000
187.61	250.000
187.98	800.000
188.36	112.500
188.74	0.000
189.12	-36.364
189.49	20.000
189.87	150.000
190.25	200.000
190.63	1200.000
191.00	-120.000
191.38	20.000
191.76	325.000
192.14	158.333
192.51	-57.895
192.89	400.000
193.27	50.000
193.65	20.000
194.02	154.545
194.40	120.000
194.78	900.000
195.15	200.000
195.53	-160.000
195.91	50.000
196.29	133.333
196.66	0.000
197.04	250.000
197.42	-40.000
197.79	-30.000
198.17	-37.500
198.55	-200.000
198.92	225.000
199.30	-300.000
199.68	20.000
200.05	-300.000
200.43	33.333
200.81	-1200.000
201.18	-40.000
201.56	-33.333
201.94	250.000
202.31	17.391
202.69	-100.000
203.07	-466.667
203.44	-60.000
203.82	33.333
204.19	10.000
204.57	0.000
204.95	83.333
205.32	0.000
205.70	350.000
206.08	-325.000
206.45	-200.000
206.83	225.000
207.20	200.000
207.58	60.000
207.96	-1000.000
208.33	-114.286
208.71	-1000.000
209.08	162.500
209.46	350.000
209.84	0.000
210.21	90.000
210.59	1600.000
210.96	200.000
211.34	100.000
211.71	-500.000
212.09	0.000
212.46	-130.000
212.84	233.333
213.22	150.000
213.59	-500.000
213.97	-700.000
214.34	-450.000
214.72	23.077
215.09	162.500
215.47	100.000
215.84	250.000
216.22	50.000
216.59	-500.000
216.97	633.333
217.34	133.333
217.72	0.000
218.09	133.333
218.47	0.000
218.84	0.000
219.22	-25.000
219.59	-333.333
219.97	-200.000
220.34	-37.500
220.72	80.000
221.09	0.000
221.47	-283.333
221.84	700.000
222.22	0.000
222.59	600.000
222.97	-166.667
223.34	-16.667
223.72	400.000
224.09	-400.000
224.46	-18.182
224.84	25.000
225.21	-71.429
225.59	-200.000
225.96	16.667
226.34	-50.000
226.71	42.857
227.08	500.000
227.46	37.500
227.83	-200.000
228.21	31.250
228.58	-300.000
228.95	-58.824
229.33	81.250
229.70	50.000
230.08	-46.154
230.45	-75.000
230.82	-50.000
231.20	57.143
231.57	-225.000
231.95	700.000
232.32	50.000
232.69	52.941
233.07	-1400.000
233.44	-4.348
233.81	450.000
234.19	20.833
234.56	-60.000
234.93	-33.333
235.31	5.263
235.68	-38.462
236.05	0.000
236.43	-11.111
236.80	-27.273
237.17	-140.000
237.55	5.882
237.92	-10.345
238.29	-29.630
238.67	2.778
239.04	-3.226
239.41	-21.277
239.79	-6.383
240.16	4.651
240.53	-19.643
240.91	-3.571
241.28	-1.786
241.65	-1.613
242.02	6.579
242.40	13.043
242.77	-1.449
243.14	0.000
243.51	0.000
243.89	6.731
244.26	10.377
244.63	-4.808
245.00	-4.167
245.38	-3.361
245.75	0.000
246.12	4.511
246.49	1.626
246.87	-8.403
247.24	-1.351
247.61	-1.987
247.98	5.769
248.36	2.959
248.73	-3.371
249.10	-1.010
249.47	-2.688
249.84	2.632
250.22	-3.980
250.59	4.206
250.96	0.000
251.33	-9.091
251.70	4.184
252.08	1.255
252.45	0.412
252.82	0.000
253.19	-3.113
253.56	-2.158
253.94	4.270
254.31	-1.056
254.68	3.020
255.05	-2.640
255.42	0.350
255.79	-0.920
256.16	-0.315
256.54	-1.270
256.91	-2.215
257.28	1.887
257.65	-4.140
258.02	-1.466
258.39	-1.170
258.76	-2.616
259.14	1.420
259.51	0.562
259.88	0.271
260.25	0.556
260.62	-1.685
260.99	2.918
261.36	2.073
261.73	-0.494
262.10	-1.018
262.47	0.741
262.85	-0.498
263.22	-0.769
263.59	-1.299
263.96	-0.730
264.33	0.962
264.70	1.860
265.07	2.778
265.44	1.149
265.81	0.229
266.18	-2.050
266.55	-1.092
266.92	-0.424
267.29	-0.412
267.66	0.849
268.03	2.058
268.40	-0.847
268.77	-0.620
269.14	0.816
269.51	3.080
269.88	-1.426
270.25	-0.212
270.62	-1.025
270.99	2.953
271.36	1.587
271.73	0.602
272.10	0.952
272.47	-0.576
272.84	1.378
273.21	0.391
273.58	-1.434
273.95	-0.377
274.32	1.306
274.69	0.911
275.06	2.650
275.43	0.377
275.80	1.950
276.17	-0.184
276.54	1.243
276.91	2.265
277.28	-0.542
277.65	0.524
278.02	2.500
278.39	-2.131
278.76	0.502
279.13	0.686
279.50	-0.690
279.87	0.000
280.23	0.180
280.60	-1.557
280.97	1.136
281.34	2.839
281.71	-0.976
282.08	-1.197
282.45	1.475
282.82	0.479
283.19	2.591
283.56	0.313
283.92	0.000
284.29	0.468
284.66	0.329
285.03	-0.651
285.40	0.000
285.77	0.901
286.14	3.191
286.51	2.399
286.87	-0.308
287.24	-0.442
287.61	-0.151
287.98	1.471
288.35	-0.596
288.72	1.291
289.08	1.567
289.45	1.468
289.82	1.059
290.19	0.842
290.56	0.142
290.93	0.691
291.29	1.231
291.66	0.410
292.03	1.771
292.40	1.211
292.77	1.740
293.13	0.279
293.50	0.654
293.87	1.200
294.24	1.587
294.60	2.211
294.97	1.190
295.34	-0.792
295.71	0.394
296.08	-0.262
296.44	0.638
296.81	-0.122
297.18	1.625
297.55	0.118
297.91	-0.248
298.28	1.695
298.65	0.369
299.02	1.099
299.38	1.718
299.75	0.962
300.12	-0.116
300.48	-0.468
300.85	-0.346
301.22	0.697
301.59	-0.352
301.95	-0.581
302.32	-0.117
302.69	-0.339
303.05	1.440
303.42	-0.227
303.79	1.472
304.15	1.314
304.52	0.645
304.89	-0.775
305.25	-0.329
305.62	0.000
305.99	0.544
306.35	2.090
306.72	1.729
307.09	0.730
307.45	0.852
307.82	0.000
308.19	-0.313
308.55	0.102
308.92	0.884
309.29	0.601
309.65	-0.200
310.02	0.298
310.38	0.305
310.75	0.000
311.12	0.972
311.48	-0.099
311.85	0.295
312.22	1.161
312.58	0.773
312.95	1.493
313.31	1.928
313.68	1.145
314.05	0.851
314.41	0.096
314.78	0.854
315.14	0.093
315.51	0.381
315.87	1.112
316.24	0.275
316.61	2.466
316.97	1.111
317.34	1.515
317.70	2.052
318.07	2.041
318.43	0.271
318.80	0.524
319.16	0.354
319.53	-0.179
319.89	1.355
320.26	1.017
320.62	0.927
320.99	1.453
321.35	0.281
321.72	0.577
322.08	0.461
322.45	3.145
322.81	2.218
323.18	1.342
323.54	1.805
323.91	1.355
324.27	1.170
324.64	0.523
325.00	0.350
325.37	1.451
325.73	0.505
326.10	1.598
326.46	2.425
326.83	1.052
327.19	1.382
327.56	2.015
327.92	1.448
328.29	2.254
328.65	2.454
329.01	0.880
329.38	1.739
329.74	2.146
330.11	1.443
330.47	0.781
330.84	0.993
331.20	2.220
331.56	1.359
331.93	1.895
332.29	2.867
332.66	1.525
333.02	3.301
333.38	1.754
333.75	2.816
334.11	2.257
334.48	0.959
334.84	1.148
335.20	1.544
335.57	2.350
335.93	1.804
336.29	1.751
336.66	1.282
337.02	1.043
337.38	2.872
337.75	1.723
338.11	1.281
338.47	1.541
338.84	1.460
339.20	2.205
339.56	2.304
339.93	2.247
340.29	1.793
340.65	1.796
341.02	1.830
341.38	1.858
341.74	1.681
342.11	2.560
342.47	1.590
342.83	1.634
343.20	0.592
343.56	1.635
343.92	1.625
344.28	2.110
344.65	2.041
345.01	1.614
345.37	2.056
345.73	2.206
346.10	2.327
346.46	2.114
346.82	0.883
347.19	1.345
347.55	2.019
347.91	1.793
348.27	1.498
348.63	1.442
349.00	1.415
349.36	2.119
349.72	1.547
350.08	2.106
350.45	1.488
350.81	1.878
351.17	2.848
351.53	1.335
351.89	0.953
352.26	0.618
352.62	1.938
352.98	1.837
353.34	1.369
353.70	1.791
354.07	2.118
354.43	2.955
354.79	1.603
355.15	1.553
355.51	2.050
355.87	2.033
356.24	1.043
356.60	1.407
356.96	2.072
357.32	1.625
357.68	1.299
358.04	2.095
358.40	2.248
358.77	2.676
359.13	1.012
359.49	1.665
359.85	1.971
360.21	2.082
360.57	1.293
360.93	1.366
361.29	1.999
361.66	1.974
362.02	1.483
362.38	1.256
362.74	1.668
363.10	2.025
363.46	1.297
363.82	1.996
364.18	2.175
364.54	1.896
364.90	1.394
365.26	0.920
365.62	1.847
365.98	1.851
366.35	2.270
366.71	1.070
367.07	1.063
367.43	1.603
367.79	2.293
368.15	3.094
368.51	1.828
368.87	2.163
369.23	2.278
369.59	1.198
369.95	0.435
370.31	2.092
370.67	1.521
371.03	2.227
371.39	1.703
371.75	2.000
372.11	1.994
372.47	1.875
372.83	1.526
373.19	1.655
373.55	1.373
373.91	2.334
374.27	1.729
374.63	1.636
374.99	1.253
375.35	2.671
375.71	1.495
376.07	1.851
376.42	1.805
376.78	2.708
377.14	1.627
377.50	1.369
377.86	2.191
378.22	1.643
378.58	1.639
378.94	2.500
379.30	1.624
379.66	1.356
380.02	1.287
380.38	1.747
380.74	2.032
381.09	1.689
381.45	1.391
381.81	2.033
382.17	1.890
382.53	1.846
382.89	1.990
383.25	1.728
383.61	2.421
383.97	1.875
384.32	1.008
384.68	1.481
385.04	0.977
385.40	2.428
385.76	2.190
386.12	1.033
386.48	1.693
386.83	1.940
387.19	1.295
387.55	2.023
387.91	1.661
388.27	1.603
388.62	1.186
388.98	1.627
389.34	1.817
389.70	1.832
390.06	1.562
390.42	2.062
390.77	2.114
391.13	1.894
391.49	1.265
391.85	1.406
392.20	1.692
392.56	1.905
392.92	1.346
393.28	1.395
393.64	1.162
393.99	1.224
394.35	1.605
394.71	1.026
395.07	1.006
395.42	2.620
395.78	1.416
396.14	2.029
396.50	1.712
396.85	2.103
397.21	1.748
397.57	2.050
397.92	1.916
398.28	1.974
398.64	1.821
399.00	1.842
399.35	2.384
399.71	1.165
400.07	1.627
400.42	1.505
400.78	1.511
401.14	1.594
401.49	1.917
401.85	1.904
402.21	1.115
402.57	1.655
402.92	2.566
403.28	2.064
403.63	1.798
403.99	1.536
404.35	1.933
404.70	1.813
405.06	1.879
405.42	1.382
405.77	1.210
406.13	1.771
406.49	1.378
406.84	1.648
407.20	2.072
407.55	2.013
407.91	1.390
408.27	1.747
408.62	1.719
408.98	1.480
409.34	1.238
409.69	2.274
410.05	2.177
410.40	1.156
410.76	1.745
411.11	2.052
411.47	2.123
411.83	2.059
412.18	1.637
412.54	1.880
412.89	1.567
413.25	1.888
413.60	1.317
413.96	2.185
414.31	1.973
414.67	2.095
415.03	1.421
415.38	1.849
415.74	2.274
416.09	1.851
416.45	2.119
416.80	2.148
417.16	3.036
417.51	1.674
417.87	2.712
418.22	1.616
418.58	2.300
418.93	1.946
419.29	1.848
419.64	1.972
420.00	2.095
420.35	1.973
420.71	1.523
421.06	1.845
421.42	1.946
421.77	2.312
422.12	2.693
422.48	1.690
422.83	1.772
423.19	1.955
423.54	2.061
423.90	1.663
424.25	2.137
424.61	2.280
424.96	2.011
425.31	2.243
425.67	2.116
426.02	2.591
426.38	2.239
426.73	1.466
427.09	2.001
427.44	2.408
427.79	1.900
428.15	1.468
428.50	1.511
428.85	2.276
429.21	2.026
429.56	2.391
429.92	2.186
430.27	1.994
430.62	2.518
430.98	2.591
431.33	2.579
431.68	2.982
432.04	2.366
432.39	2.714
432.74	2.698
433.10	3.196
433.45	2.604
433.80	2.241
434.16	2.622
434.51	2.500
434.86	1.826
435.22	2.320
435.57	2.211
435.92	2.111
436.28	2.763
436.63	1.732
436.98	2.056
437.34	2.503
437.69	1.830
438.04	2.660
438.39	2.677
438.75	2.086
439.10	2.776
439.45	2.785
439.81	2.401
440.16	2.841
440.51	2.259
440.86	3.320
441.22	2.352
441.57	2.495
441.92	2.281
442.27	2.976
442.63	2.368
442.98	2.083
443.33	2.314
443.68	2.583
444.03	2.732
444.39	2.776
444.74	2.650
445.09	2.753
445.44	3.718
445.79	2.272
446.15	2.773
446.50	3.139
446.85	2.459
447.20	2.980
447.55	3.358
447.91	2.360
448.26	1.887
448.61	3.165
448.96	2.961
449.31	3.141
449.66	3.470
450.02	2.729
450.37	2.291
450.72	2.755
451.07	3.824
451.42	2.870
451.77	2.921
452.12	2.852
452.47	3.292
452.83	2.889
453.18	2.610
453.53	3.783
453.88	2.952
454.23	3.523
454.58	3.615
454.93	2.566
455.28	3.404
455.63	2.745
455.98	2.556
456.34	3.242
456.69	2.748
457.04	2.724
457.39	3.428
457.74	2.873
458.09	3.199
458.44	3.408
458.79	3.130
459.14	2.640
459.49	2.988
459.84	3.269
460.19	2.221
460.54	3.406
460.89	3.322
461.24	2.898
461.59	3.200
461.94	3.161
462.29	2.696
462.64	2.639
462.99	4.024
463.34	3.660
463.69	4.188
464.04	2.581
464.39	3.112
464.74	3.317
465.09	3.534
465.44	4.097
465.79	3.738
466.14	3.478
466.49	3.930
466.84	3.586
467.19	2.548
467.54	3.694
467.89	4.274
468.24	3.073
468.59	3.442
468.94	3.959
469.29	3.635
469.64	3.556
469.99	4.207
470.34	3.304
470.68	2.974
471.03	3.879
471.38	3.547
471.73	4.252
472.08	3.093
472.43	4.090
472.78	4.462
473.13	2.639
473.48	2.674
473.83	3.076
474.17	2.279
474.52	2.783
474.87	3.679
475.22	3.140
475.57	3.848
475.92	3.599
476.27	3.730
476.61	3.341
476.96	3.655
477.31	3.614
477.66	3.164
478.01	2.802
478.36	3.869
478.70	3.867
479.05	3.940
479.40	3.952
479.75	3.507
480.10	3.672
480.45	3.727
480.79	3.733
481.14	3.799
481.49	4.045
481.84	3.770
482.19	3.613
482.53	3.667
482.88	3.500
483.23	3.176
483.58	4.112
483.92	3.161
484.27	3.111
484.62	3.684
484.97	3.567
485.31	3.389
485.66	3.770
486.01	3.647
486.36	3.356
486.70	3.191
487.05	3.560
487.40	3.468
487.75	3.474
488.09	3.441
488.44	3.645
488.79	3.899
489.13	3.857
489.48	3.762
489.83	3.930
490.17	3.813
490.52	3.787
490.87	3.662
491.22	4.051
491.56	4.264
491.91	3.793
492.26	3.772
492.60	3.559
492.95	4.033
493.30	3.343
493.64	2.974
493.99	4.396
494.34	3.709
494.68	3.723
495.03	3.508
495.37	3.893
495.72	4.311
496.07	4.140
496.41	3.931
496.76	3.885
497.11	3.944
497.45	3.794
497.80	4.139
498.14	3.980
498.49	4.135
498.84	3.897
499.18	3.285
499.53	3.742
499.87	3.590
500.22	3.982
500.56	3.661
500.91	4.225
501.26	4.433
501.60	3.873
501.95	4.073
502.29	4.320
502.64	4.484
502.98	3.805
503.33	4.331
503.67	4.333
504.02	3.529
504.36	4.408
504.71	4.370
505.06	4.381
505.40	3.814
505.75	4.476
506.09	4.854
506.44	4.486
506.78	4.368
507.13	4.626
507.47	4.507
507.82	4.448
508.16	4.697
508.51	4.236
508.85	4.199
509.19	4.339
509.54	4.611
509.88	5.000
510.23	4.684
510.57	4.873
510.92	5.011
511.26	4.180
511.61	4.007
511.95	3.859
512.30	5.108
512.64	5.221
512.98	5.097
513.33	4.282
513.67	4.202
514.02	5.188
514.36	4.270
514.70	4.446
515.05	4.330
515.39	4.658
515.74	4.322
516.08	4.484
516.42	4.608
516.77	4.862
517.11	4.409
517.46	5.222
517.80	5.206
518.14	4.287
518.49	4.581
518.83	4.535
519.17	5.542
519.52	5.247
519.86	4.797
520.20	4.306
520.55	4.726
520.89	5.187
521.23	5.577
521.58	5.689
521.92	4.965
522.26	5.270
522.61	4.848
522.95	4.210
523.29	5.143
523.64	5.785
523.98	4.828
524.32	5.608
524.66	5.195
525.01	4.718
525.35	5.991
525.69	5.567
526.04	5.603
526.38	5.481
526.72	5.983
527.06	5.351
527.41	5.361
527.75	4.873
528.09	5.446
528.43	5.495
528.78	5.233
529.12	5.563
529.46	5.438
529.80	5.243
530.15	5.727
530.49	5.256
530.83	5.958
531.17	4.932
531.51	5.394
531.86	5.556
532.20	5.513
532.54	4.966
532.88	6.195
533.22	6.667
533.57	5.099
533.91	6.000
534.25	5.534
534.59	5.084
534.93	5.867
535.27	5.414
535.62	4.934
535.96	5.595
536.30	5.918
536.64	4.785
536.98	5.256
537.32	5.338
537.66	5.712
538.01	5.687
538.35	5.801
538.69	5.284
539.03	5.973
539.37	4.561
539.71	5.525
540.05	5.870
540.39	5.437
540.73	5.936
541.07	5.646
541.42	5.993
541.76	6.360
542.10	5.484
542.44	5.544
542.78	6.523
543.12	5.728
543.46	5.321
543.80	6.314
544.14	6.401
544.48	4.313
544.82	6.389
545.16	5.815
545.50	6.009
545.84	5.610
546.18	5.540
546.52	6.704
546.86	5.866
547.20	5.004
547.54	5.432
547.88	5.938
548.22	5.863
548.56	5.937
548.90	6.766
549.24	7.014
549.58	5.196
549.92	6.603
550.26	7.749
550.60	5.405
550.94	5.448
551.28	6.056
551.62	6.917
551.96	6.223
552.30	5.604
552.64	5.862
552.98	5.966
553.32	5.768
553.66	6.530
554.00	5.544
554.34	6.081
554.68	6.711
555.02	5.464
555.36	6.203
555.69	5.827
556.03	5.504
556.37	5.761
556.71	5.957
557.05	5.830
557.39	6.104
557.73	5.825
558.07	5.350
558.41	6.435
558.75	6.005
559.08	5.373
559.42	7.238
559.76	6.804
560.10	6.303
560.44	7.590
560.78	5.755
561.12	5.957
561.45	5.782
561.79	6.602
562.13	6.329
562.47	5.929
562.81	5.483
563.15	5.737
563.48	7.020
563.82	6.635
564.16	5.823
564.50	6.106
564.84	5.946
565.17	6.424
565.51	5.749
565.85	6.129
566.19	5.828
566.52	5.505
566.86	6.131
567.20	5.498
567.54	6.621
567.88	6.159
568.21	5.160
568.55	6.208
568.89	5.384
569.23	5.729
569.56	6.091
569.90	5.521
570.24	5.162
570.57	6.005
570.91	5.293
571.25	4.873
571.59	5.683
571.92	5.104
572.26	5.495
572.60	5.420
572.93	5.405
573.27	5.223
573.61	5.903
573.95	5.288
574.28	5.053
574.62	5.209
574.96	5.635
575.29	5.065
575.63	4.900
575.97	5.190
576.30	5.066
576.64	5.345
576.98	5.272
577.31	5.284
577.65	5.213
577.98	5.111
578.32	5.313
578.66	5.109
578.99	5.258
579.33	5.497
579.67	5.677
580.00	5.242
580.34	5.138
580.67	5.439
581.01	5.037
581.35	5.322
581.68	5.319
582.02	5.387
582.35	5.292
582.69	5.333
583.02	5.168
583.36	5.489
583.70	5.774
584.03	5.662
584.37	5.738
584.70	5.859
585.04	5.531
585.37	5.079
585.71	5.355
586.04	5.163
586.38	5.367
586.72	5.479
587.05	5.725
587.39	5.430
587.72	5.426
588.06	5.198
588.39	5.430
588.73	5.505
589.06	5.076
589.40	5.779
589.73	5.031
590.07	5.614
590.40	5.604
590.73	5.632
591.07	5.976
591.40	6.304
591.74	5.825
592.07	6.207
592.41	6.049
592.74	5.594
593.08	5.641
593.41	5.780
593.75	4.974
594.08	5.492
594.41	5.484
594.75	5.735
595.08	5.900
595.42	5.333
595.75	5.929
596.09	5.889
596.42	6.005
596.75	5.397
597.09	6.324
597.42	6.012
597.75	6.356
598.09	5.556
598.42	6.174
598.76	5.668
599.09	5.602
599.42	5.967
599.76	5.633
600.09	5.911
600.42	5.876
600.76	5.839
601.09	5.951
601.42	5.762
601.76	5.714
602.09	6.040
602.42	6.397
602.76	5.159
603.09	5.914
603.42	5.798
603.76	5.495
604.09	5.771
604.42	5.651
604.76	5.893
605.09	5.754
605.42	6.928
605.75	5.739
606.09	5.836
606.42	6.234
606.75	5.325
607.09	5.496
607.42	5.779
607.75	5.252
608.08	6.177
608.42	6.373
608.75	5.590
609.08	5.537
609.41	5.862
609.75	4.992
610.08	6.213
610.41	5.248
610.74	5.919
611.07	5.461
611.41	6.295
611.74	5.487
612.07	5.941
612.40	6.757
612.73	5.818
613.07	6.098
613.40	6.167
613.73	6.067
614.06	5.970
614.39	6.392
614.72	6.163
615.06	5.500
615.39	6.347
615.72	5.508
616.05	5.856
616.38	6.300
616.71	5.399
617.05	5.528
617.38	6.285
617.71	5.147
618.04	5.789
618.37	5.489
618.70	6.598
619.03	5.842
619.36	6.263
619.69	5.263
620.03	5.300
620.36	6.402
620.69	5.496
621.02	5.385
621.35	5.887
621.68	5.379
622.01	5.663
622.34	5.789
622.67	6.656
623.00	6.459
623.33	5.759
623.66	5.948
623.99	7.427
624.32	6.090
624.65	5.935
624.99	7.054
625.32	6.124
625.65	6.202
625.98	7.109
626.31	6.694
626.64	5.675
626.97	5.623
627.30	6.843
627.63	6.228
627.96	5.628
628.29	7.628
628.62	6.673
628.95	5.110
629.28	6.010
629.61	7.081
629.94	6.770
630.26	8.276
630.59	6.793
630.92	6.526
631.25	6.900
631.58	6.531
631.91	4.242
632.24	5.488
632.57	6.667
632.90	6.651
633.23	4.317
633.56	7.794
633.89	8.373
634.22	8.481
634.55	6.699
634.88	6.250
635.20	7.000
635.53	7.752
635.86	6.410
636.19	6.328
636.52	6.829
636.85	5.187
637.18	5.603
637.51	6.367
637.83	5.744
638.16	5.467
638.49	6.409
638.82	6.144
639.15	5.851
639.48	5.882
639.81	7.083
640.13	7.606
640.46	6.921
640.79	5.612
641.12	6.509
641.45	6.259
641.77	6.627
642.10	8.169
642.43	5.975
642.76	5.678
643.09	6.070
643.41	7.337
643.74	6.462
644.07	5.987
644.40	5.473
644.73	5.763
645.05	6.981
645.38	5.150
645.71	8.163
646.04	5.219
646.36	7.292
646.69	6.469
647.02	7.468
647.35	8.044
647.67	7.209
648.00	5.072
648.33	6.610
648.66	6.010
648.98	5.901
649.31	9.202
649.64	5.477
649.96	8.215
650.29	4.412
650.62	6.096
650.94	6.897
651.27	5.654
651.60	6.294
651.92	3.584
652.25	7.203
652.58	7.426
652.90	5.724
653.23	3.565
653.56	3.967
653.88	5.631
654.21	4.778
654.54	5.648
654.86	5.366
655.19	4.762
655.52	6.319
655.84	4.834
656.17	5.584
656.49	7.300
656.82	7.523
657.15	5.708
657.47	4.241
657.80	3.334
