SpectraSuite Data File
++++++++++++++++++++++++++++++++++++
Date: Wed May 13 21:00:58 PDT 2015
User: schluterlab
Dark Spectrum Present: Yes
Reference Spectrum Present: Yes
Number of Sampled Component Spectra: 1
Spectrometers: USB2E3373
Integration Time (usec): 3000 (USB2E3373)
Spectra Averaged: 3 (USB2E3373)
Boxcar Smoothing: 0 (USB2E3373)
Correct for Electrical Dark: No (USB2E3373)
Strobe/Lamp Enabled: No (USB2E3373)
Correct for Detector Non-linearity: No (USB2E3373)
Correct for Stray Light: No (USB2E3373)
Number of Pixels in Processed Spectrum: 2048
>>>>>Begin Processed Spectral Data<<<<<
178.53	0.000
178.91	-0.000
179.29	108.333
179.67	-200.000
180.04	-33.333
180.42	240.000
180.80	600.000
181.18	66.667
181.56	-300.000
181.94	25.000
182.31	18.182
182.69	61.538
183.07	-40.000
183.45	116.667
183.83	88.889
184.20	142.857
184.58	233.333
184.96	-166.667
185.34	157.143
185.72	0.000
186.09	0.000
186.47	-20.000
186.85	-20.000
187.23	350.000
187.61	300.000
187.98	900.000
188.36	175.000
188.74	0.000
189.12	0.000
189.49	70.000
189.87	41.667
190.25	180.000
190.63	-0.000
191.00	200.000
191.38	-20.000
191.76	25.000
192.14	125.000
192.51	10.526
192.89	233.333
193.27	-100.000
193.65	-140.000
194.02	109.091
194.40	190.000
194.78	500.000
195.15	100.000
195.53	120.000
195.91	112.500
196.29	-33.333
196.66	0.000
197.04	-50.000
197.42	20.000
197.79	20.000
198.17	112.500
198.55	100.000
198.92	-75.000
199.30	-66.667
199.68	90.000
200.05	-500.000
200.43	66.667
200.81	-1100.000
201.18	320.000
201.56	0.000
201.94	525.000
202.31	17.391
202.69	-14.286
203.07	-366.667
203.44	-80.000
203.82	266.667
204.19	10.000
204.57	0.000
204.95	33.333
205.32	0.000
205.70	250.000
206.08	25.000
206.45	150.000
206.83	-25.000
207.20	166.667
207.58	10.000
207.96	-400.000
208.33	14.286
208.71	-900.000
209.08	150.000
209.46	275.000
209.84	0.000
210.21	40.000
210.59	800.000
210.96	40.000
211.34	-600.000
211.71	0.000
212.09	-116.667
212.46	-80.000
212.84	166.667
213.22	200.000
213.59	400.000
213.97	300.000
214.34	-50.000
214.72	23.077
215.09	125.000
215.47	33.333
215.84	-150.000
216.22	25.000
216.59	600.000
216.97	400.000
217.34	100.000
217.72	0.000
218.09	-66.667
218.47	-200.000
218.84	-85.714
219.22	25.000
219.59	100.000
219.97	-25.000
220.34	112.500
220.72	-120.000
221.09	0.000
221.47	0.000
221.84	600.000
222.22	0.000
222.59	-0.000
222.97	433.333
223.34	8.333
223.72	-1200.000
224.09	50.000
224.46	-27.273
224.84	125.000
225.21	28.571
225.59	-200.000
225.96	83.333
226.34	40.000
226.71	-100.000
227.08	50.000
227.46	75.000
227.83	600.000
228.21	-6.250
228.58	0.000
228.95	-11.765
229.33	87.500
229.70	62.500
230.08	123.077
230.45	-75.000
230.82	-8.333
231.20	71.429
231.57	-325.000
231.95	400.000
232.32	50.000
232.69	52.941
233.07	-400.000
233.44	-21.739
233.81	-250.000
234.19	0.000
234.56	0.000
234.93	53.333
235.31	78.947
235.68	23.077
236.05	38.462
236.43	50.000
236.80	30.303
237.17	40.000
237.55	0.000
237.92	37.931
238.29	25.926
238.67	30.556
239.04	25.806
239.41	19.149
239.79	53.191
240.16	32.558
240.53	25.000
240.91	48.214
241.28	32.143
241.65	43.548
242.02	31.579
242.40	27.536
242.77	33.333
243.14	37.179
243.51	31.915
243.89	36.538
244.26	42.453
244.63	25.000
245.00	44.792
245.38	35.294
245.75	38.525
246.12	36.090
246.49	31.707
246.87	36.975
247.24	36.486
247.61	38.411
247.98	33.974
248.36	25.444
248.73	28.652
249.10	26.768
249.47	37.097
249.84	32.632
250.22	29.353
250.59	31.308
250.96	35.909
251.33	30.622
251.70	38.494
252.08	30.126
252.45	35.391
252.82	35.361
253.19	34.241
253.56	30.576
253.94	32.028
254.31	33.451
254.68	38.255
255.05	31.353
255.42	31.119
255.79	30.368
256.16	34.385
256.54	33.651
256.91	33.228
257.28	31.447
257.65	32.803
258.02	36.950
258.39	34.795
258.76	30.523
259.14	34.659
259.51	33.146
259.88	34.417
260.25	35.278
260.62	34.831
260.99	36.074
261.36	34.974
261.73	36.790
262.10	32.570
262.47	30.370
262.85	31.841
263.22	33.077
263.59	33.506
263.96	34.307
264.33	32.212
264.70	33.256
265.07	31.019
265.44	35.862
265.81	34.325
266.18	32.802
266.55	32.751
266.92	32.415
267.29	32.305
267.66	35.456
268.03	32.716
268.40	30.932
268.77	32.851
269.14	32.449
269.51	36.550
269.88	31.365
270.25	36.017
270.62	30.123
270.99	34.252
271.36	31.349
271.73	31.325
272.10	30.286
272.47	33.589
272.84	33.858
273.21	31.898
273.58	34.836
273.95	30.943
274.32	32.649
274.69	33.151
275.06	33.746
275.43	33.145
275.80	32.092
276.17	33.702
276.54	29.130
276.91	30.314
277.28	29.964
277.65	33.042
278.02	32.857
278.39	30.018
278.76	32.107
279.13	32.419
279.50	31.379
279.87	30.978
280.23	34.054
280.60	29.931
280.97	30.844
281.34	33.912
281.71	31.545
282.08	30.256
282.45	33.770
282.82	32.748
283.19	31.098
283.56	30.469
283.92	31.346
284.29	30.577
284.66	30.478
285.03	31.596
285.40	29.607
285.77	31.532
286.14	31.459
286.51	32.084
286.87	28.923
287.24	28.761
287.61	31.024
287.98	28.382
288.35	29.359
288.72	30.703
289.08	29.630
289.45	27.753
289.82	26.172
290.19	28.752
290.56	28.409
290.93	28.591
291.29	27.633
291.66	26.776
292.03	27.793
292.40	27.187
292.77	26.774
293.13	27.755
293.50	27.712
293.87	27.733
294.24	26.720
294.60	26.528
294.97	29.233
295.34	25.066
295.71	24.967
296.08	24.607
296.44	25.383
296.81	24.970
297.18	26.000
297.55	24.292
297.91	25.839
298.28	24.334
298.65	24.877
299.02	25.397
299.38	24.908
299.75	22.716
300.12	21.279
300.48	23.860
300.85	23.788
301.22	24.855
301.59	24.061
301.95	23.810
302.32	23.337
302.69	22.825
303.05	22.148
303.42	23.409
303.79	23.449
304.15	24.315
304.52	25.376
304.89	22.259
305.25	21.295
305.62	22.885
305.99	25.680
306.35	23.720
306.72	23.601
307.09	22.836
307.45	23.855
307.82	22.316
308.19	21.944
308.55	22.620
308.92	23.969
309.29	21.421
309.65	22.877
310.02	22.863
310.38	24.289
310.75	21.302
311.12	23.615
311.48	22.156
311.85	22.441
312.22	22.921
312.58	22.126
312.95	22.488
313.31	23.324
313.68	22.424
314.05	23.629
314.41	22.574
314.78	23.435
315.14	24.074
315.51	23.787
315.87	23.911
316.24	25.069
316.61	24.018
316.97	23.333
317.34	24.510
317.70	25.156
318.07	24.756
318.43	23.035
318.80	24.607
319.16	25.022
319.53	25.627
319.89	25.384
320.26	25.970
320.62	25.950
320.99	27.132
321.35	27.596
321.72	26.853
322.08	28.506
322.45	27.845
322.81	29.390
323.18	27.370
323.54	29.242
323.91	30.172
324.27	29.973
324.64	30.226
325.00	31.496
325.37	32.253
325.73	31.313
326.10	31.623
326.46	32.274
326.83	32.039
327.19	33.008
327.56	34.005
327.92	33.709
328.29	34.307
328.65	35.758
329.01	33.949
329.38	36.522
329.74	35.451
330.11	35.437
330.47	35.417
330.84	37.274
331.20	37.148
331.56	36.504
331.93	37.984
332.29	38.749
332.66	36.695
333.02	36.751
333.38	37.632
333.75	37.969
334.11	38.021
334.48	38.884
334.84	38.339
335.20	38.851
335.57	37.511
335.93	38.058
336.29	37.040
336.66	38.547
337.02	38.087
337.38	38.468
337.75	38.157
338.11	37.575
338.47	36.473
338.84	38.230
339.20	39.330
339.56	38.140
339.93	38.548
340.29	38.599
340.65	37.382
341.02	38.602
341.38	38.176
341.74	37.227
342.11	37.903
342.47	38.912
342.83	39.379
343.20	39.255
343.56	38.594
343.92	38.262
344.28	38.149
344.65	38.694
345.01	37.853
345.37	39.638
345.73	38.644
346.10	39.326
346.46	40.813
346.82	38.925
347.19	39.715
347.55	40.388
347.91	39.361
348.27	39.432
348.63	37.981
349.00	38.522
349.36	39.796
349.72	38.824
350.08	38.612
350.45	39.154
350.81	39.358
351.17	40.416
351.53	38.963
351.89	38.046
352.26	38.996
352.62	39.690
352.98	39.537
353.34	40.016
353.70	39.798
354.07	37.882
354.43	38.491
354.79	40.224
355.15	39.208
355.51	38.952
355.87	40.735
356.24	39.647
356.60	39.953
356.96	39.294
357.32	39.474
357.68	39.878
358.04	39.333
358.40	40.388
358.77	41.284
359.13	40.700
359.49	40.575
359.85	40.561
360.21	40.401
360.57	40.228
360.93	41.199
361.29	41.969
361.66	40.319
362.02	40.178
362.38	40.473
362.74	39.666
363.10	39.696
363.46	39.914
363.82	40.576
364.18	40.899
364.54	41.940
364.90	40.767
365.26	40.623
365.62	38.565
365.98	40.925
366.35	41.064
366.71	41.013
367.07	40.113
367.43	40.697
367.79	41.070
368.15	41.983
368.51	41.139
368.87	42.149
369.23	40.854
369.59	42.001
369.95	41.364
370.31	40.516
370.67	41.419
371.03	42.910
371.39	41.732
371.75	41.857
372.11	41.239
372.47	43.259
372.83	42.857
373.19	41.295
373.55	42.269
373.91	41.160
374.27	41.632
374.63	42.603
374.99	42.340
375.35	41.986
375.71	41.576
376.07	41.947
376.42	43.048
376.78	42.734
377.14	42.237
377.50	44.133
377.86	43.028
378.22	43.173
378.58	42.875
378.94	43.375
379.30	42.848
379.66	42.725
380.02	43.689
380.38	42.711
380.74	43.574
381.09	43.366
381.45	43.349
381.81	43.746
382.17	42.344
382.53	43.754
382.89	42.340
383.25	43.951
383.61	44.249
383.97	45.437
384.32	44.108
384.68	43.060
385.04	42.639
385.40	43.587
385.76	43.370
386.12	44.545
386.48	43.260
386.83	45.056
387.19	44.787
387.55	44.145
387.91	45.264
388.27	44.205
388.62	43.758
388.98	45.181
389.34	44.486
389.70	44.139
390.06	45.063
390.42	45.296
390.77	44.459
391.13	43.750
391.49	43.643
391.85	44.473
392.20	45.175
392.56	44.444
392.92	44.002
393.28	44.102
393.64	44.648
393.99	43.452
394.35	45.000
394.71	44.295
395.07	43.208
395.42	44.851
395.78	44.852
396.14	45.529
396.50	44.642
396.85	45.507
397.21	43.695
397.57	43.168
397.92	44.850
398.28	44.444
398.64	44.080
399.00	43.862
399.35	43.927
399.71	44.321
400.07	43.976
400.42	45.204
400.78	44.290
401.14	45.003
401.49	44.158
401.85	45.270
402.21	45.201
402.57	43.654
402.92	44.681
403.28	44.403
403.63	45.257
403.99	45.617
404.35	45.574
404.70	43.686
405.06	46.036
405.42	43.907
405.77	44.816
406.13	44.343
406.49	43.739
406.84	44.261
407.20	44.168
407.55	45.130
407.91	43.878
408.27	43.543
408.62	44.997
408.98	44.328
409.34	44.554
409.69	46.004
410.05	43.781
410.40	44.431
410.76	44.886
411.11	43.595
411.47	46.052
411.83	45.103
412.18	45.403
412.54	45.363
412.89	43.887
413.25	43.186
413.60	43.824
413.96	44.507
414.31	44.020
414.67	43.937
415.03	45.196
415.38	44.782
415.74	43.600
416.09	45.406
416.45	45.455
416.80	44.899
417.16	45.412
417.51	43.603
417.87	44.511
418.22	44.409
418.58	44.875
418.93	44.068
419.29	44.686
419.64	44.084
420.00	44.952
420.35	43.694
420.71	44.059
421.06	44.711
421.42	45.316
421.77	45.145
422.12	44.585
422.48	43.784
422.83	44.359
423.19	44.681
423.54	43.875
423.90	43.587
424.25	45.061
424.61	45.718
424.96	44.471
425.31	43.915
425.67	45.385
426.02	45.878
426.38	45.087
426.73	44.716
427.09	44.090
427.44	45.097
427.79	43.943
428.15	44.404
428.50	43.625
428.85	44.403
429.21	44.569
429.56	45.324
429.92	44.144
430.27	44.836
430.62	43.704
430.98	45.108
431.33	43.901
431.68	44.835
432.04	44.394
432.39	43.187
432.74	43.470
433.10	45.264
433.45	44.911
433.80	43.563
434.16	44.184
434.51	44.728
434.86	44.759
435.22	45.501
435.57	44.349
435.92	44.994
436.28	43.844
436.63	44.226
436.98	45.065
437.34	44.139
437.69	44.333
438.04	43.181
438.39	44.832
438.75	43.921
439.10	45.113
439.45	44.189
439.81	43.842
440.16	44.986
440.51	44.411
440.86	44.576
441.22	43.718
441.57	44.794
441.92	44.375
442.27	43.669
442.63	43.864
442.98	44.560
443.33	43.736
443.68	43.437
444.03	43.666
444.39	44.720
444.74	43.733
445.09	43.667
445.44	45.239
445.79	44.089
446.15	44.703
446.50	43.612
446.85	43.827
447.20	43.753
447.55	43.313
447.91	43.090
448.26	43.682
448.61	42.808
448.96	43.565
449.31	44.774
449.66	43.840
450.02	43.604
450.37	44.477
450.72	44.374
451.07	43.511
451.42	43.543
451.77	43.944
452.12	43.850
452.47	44.158
452.83	43.219
453.18	42.139
453.53	43.632
453.88	42.892
454.23	45.241
454.58	42.953
454.93	43.618
455.28	43.802
455.63	43.169
455.98	43.518
456.34	42.848
456.69	44.153
457.04	42.353
457.39	42.694
457.74	42.310
458.09	43.009
458.44	43.126
458.79	42.120
459.14	41.011
459.49	43.476
459.84	42.503
460.19	42.137
460.54	42.883
460.89	43.131
461.24	42.109
461.59	43.237
461.94	43.742
462.29	42.953
462.64	43.140
462.99	42.723
463.34	42.818
463.69	42.526
464.04	41.116
464.39	41.245
464.74	42.076
465.09	42.591
465.44	41.863
465.79	43.186
466.14	42.246
466.49	41.994
466.84	41.363
467.19	41.210
467.54	42.255
467.89	41.735
468.24	42.163
468.59	41.491
468.94	42.848
469.29	42.036
469.64	42.469
469.99	42.966
470.34	41.740
470.68	41.933
471.03	40.339
471.38	41.029
471.73	41.221
472.08	42.199
472.43	41.557
472.78	41.244
473.13	40.699
473.48	41.357
473.83	40.866
474.17	39.648
474.52	40.647
474.87	40.290
475.22	40.519
475.57	40.770
475.92	40.458
476.27	40.268
476.61	39.638
476.96	41.176
477.31	39.914
477.66	40.113
478.01	38.956
478.36	40.272
478.70	39.742
479.05	40.344
479.40	40.458
479.75	39.798
480.10	39.572
480.45	39.627
480.79	40.468
481.14	41.337
481.49	39.911
481.84	39.350
482.19	40.019
482.53	39.810
482.88	40.412
483.23	38.691
483.58	39.556
483.92	40.029
484.27	38.975
484.62	39.458
484.97	39.527
485.31	39.636
485.66	37.597
486.01	38.496
486.36	38.236
486.70	38.609
487.05	38.769
487.40	38.334
487.75	39.190
488.09	38.567
488.44	39.012
488.79	39.591
489.13	38.767
489.48	39.205
489.83	38.097
490.17	38.811
490.52	40.112
490.87	38.062
491.22	38.342
491.56	38.908
491.91	38.262
492.26	38.104
492.60	38.191
492.95	38.144
493.30	38.033
493.64	37.458
493.99	38.792
494.34	38.150
494.68	38.711
495.03	38.043
495.37	38.345
495.72	38.446
496.07	38.578
496.41	37.436
496.76	37.843
497.11	37.840
497.45	38.278
497.80	38.062
498.14	38.438
498.49	36.762
498.84	36.943
499.18	36.934
499.53	36.681
499.87	36.730
500.22	37.680
500.56	37.462
500.91	38.330
501.26	37.882
501.60	35.931
501.95	36.464
502.29	37.184
502.64	38.091
502.98	37.235
503.33	37.372
503.67	37.050
504.02	36.176
504.36	36.949
504.71	36.738
505.06	37.799
505.40	37.526
505.75	36.979
506.09	36.791
506.44	36.240
506.78	37.075
507.13	36.642
507.47	37.328
507.82	36.525
508.16	36.781
508.51	36.157
508.85	35.614
509.19	36.561
509.54	36.622
509.88	35.376
510.23	36.895
510.57	35.540
510.92	37.284
511.26	37.074
511.61	35.950
511.95	36.108
512.30	35.203
512.64	37.174
512.98	36.565
513.33	36.000
513.67	35.378
514.02	36.545
514.36	35.393
514.70	36.143
515.05	36.103
515.39	34.965
515.74	36.708
516.08	34.749
516.42	35.657
516.77	36.028
517.11	36.332
517.46	36.194
517.80	36.562
518.14	35.640
518.49	35.684
518.83	35.740
519.17	35.000
519.52	35.766
519.86	36.308
520.20	35.779
520.55	34.888
520.89	35.357
521.23	35.577
521.58	35.461
521.92	34.569
522.26	34.678
522.61	34.777
522.95	36.205
523.29	34.603
523.64	35.855
523.98	35.324
524.32	34.657
524.66	35.260
525.01	35.321
525.35	35.550
525.69	34.195
526.04	33.746
526.38	34.353
526.72	34.977
527.06	34.236
527.41	35.539
527.75	34.513
528.09	36.215
528.43	35.210
528.78	33.463
529.12	34.929
529.46	35.253
529.80	34.887
530.15	33.977
530.49	35.782
530.83	34.462
531.17	34.110
531.51	33.378
531.86	34.959
532.20	35.975
532.54	33.448
532.88	34.037
533.22	35.354
533.57	35.099
533.91	34.387
534.25	34.766
534.59	33.333
534.93	34.758
535.27	34.459
535.62	33.618
535.96	34.613
536.30	35.372
536.64	32.946
536.98	33.847
537.32	33.737
537.66	33.850
538.01	33.564
538.35	34.047
538.69	32.977
539.03	32.550
539.37	32.663
539.71	33.697
540.05	33.806
540.39	31.934
540.73	33.101
541.07	32.585
541.42	33.737
541.76	33.288
542.10	32.905
542.44	33.888
542.78	33.310
543.12	33.558
543.46	32.965
543.80	32.790
544.14	33.448
544.48	32.250
544.82	32.952
545.16	33.739
545.50	32.816
545.84	32.819
546.18	33.170
546.52	31.898
546.86	31.237
547.20	31.951
547.54	32.380
547.88	33.806
548.22	32.378
548.56	33.089
548.90	32.950
549.24	33.125
549.58	31.246
549.92	32.502
550.26	33.210
550.60	32.132
550.94	33.806
551.28	32.702
551.62	32.030
551.96	31.772
552.30	32.897
552.64	31.921
552.98	32.670
553.32	32.156
553.66	32.575
554.00	31.605
554.34	32.381
554.68	32.588
555.02	32.036
555.36	32.526
555.69	31.682
556.03	32.952
556.37	31.437
556.71	30.413
557.05	31.070
557.39	32.178
557.73	32.602
558.07	31.952
558.41	32.097
558.75	31.332
559.08	31.917
559.42	33.281
559.76	31.804
560.10	31.130
560.44	31.688
560.78	31.295
561.12	31.675
561.45	31.224
561.79	30.812
562.13	31.716
562.47	31.500
562.81	31.530
563.15	31.374
563.48	30.420
563.82	31.259
564.16	31.957
564.50	30.665
564.84	31.554
565.17	32.583
565.51	31.684
565.85	29.714
566.19	31.589
566.52	30.210
566.86	29.646
567.20	31.155
567.54	30.800
567.88	30.515
568.21	30.310
568.55	30.621
568.89	30.060
569.23	30.889
569.56	30.288
569.90	29.716
570.24	30.144
570.57	29.956
570.91	30.426
571.25	29.904
571.59	30.457
571.92	30.067
572.26	29.849
572.60	30.520
572.93	30.053
573.27	29.790
573.61	30.089
573.95	29.878
574.28	29.879
574.62	29.844
574.96	29.232
575.29	29.814
575.63	29.926
575.97	30.109
576.30	29.433
576.64	30.128
576.98	29.894
577.31	29.606
577.65	29.070
577.98	29.754
578.32	29.219
578.66	29.446
578.99	29.859
579.33	29.610
579.67	29.506
580.00	29.267
580.34	29.714
580.67	29.177
581.01	29.035
581.35	29.388
581.68	29.358
582.02	29.712
582.35	29.254
582.69	29.797
583.02	29.213
583.36	29.069
583.70	28.945
584.03	29.415
584.37	28.989
584.70	29.268
585.04	29.329
585.37	28.797
585.71	29.064
586.04	28.722
586.38	29.124
586.72	28.913
587.05	29.301
587.39	28.862
587.72	29.814
588.06	28.673
588.39	28.799
588.73	28.730
589.06	28.775
589.40	29.274
589.73	29.213
590.07	28.071
590.40	29.004
590.73	29.417
591.07	29.085
591.40	28.478
591.74	29.080
592.07	29.895
592.41	28.829
592.74	28.935
593.08	28.239
593.41	28.902
593.75	28.424
594.08	28.601
594.41	27.898
594.75	28.786
595.08	28.790
595.42	27.810
595.75	28.308
596.09	28.599
596.42	28.391
596.75	27.863
597.09	29.390
597.42	29.251
597.75	28.133
598.09	28.962
598.42	28.546
598.76	28.296
599.09	28.772
599.42	28.097
599.76	27.676
600.09	28.389
600.42	28.437
600.76	28.160
601.09	28.324
601.42	28.342
601.76	27.915
602.09	28.293
602.42	27.941
602.76	28.901
603.09	28.789
603.42	28.109
603.76	28.215
604.09	27.352
604.42	27.878
604.76	27.935
605.09	28.636
605.42	29.330
605.75	27.623
606.09	27.690
606.42	28.263
606.75	27.619
607.09	27.793
607.42	27.890
607.75	27.571
608.08	27.592
608.42	27.882
608.75	28.476
609.08	28.270
609.41	27.869
609.75	27.181
610.08	27.219
610.41	28.523
610.74	27.575
611.07	27.756
611.41	28.352
611.74	28.416
612.07	27.410
612.40	27.784
612.73	28.046
613.07	27.439
613.40	27.698
613.73	28.061
614.06	27.861
614.39	27.793
614.72	28.484
615.06	27.889
615.39	28.091
615.72	27.106
616.05	27.421
616.38	26.919
616.71	26.215
617.05	28.194
617.38	27.603
617.71	27.145
618.04	26.996
618.37	28.391
618.70	27.426
619.03	27.354
619.36	26.833
619.69	26.974
620.03	26.714
620.36	27.001
620.69	27.552
621.02	26.923
621.35	27.882
621.68	26.976
622.01	28.236
622.34	27.597
622.67	27.878
623.00	27.888
623.33	26.477
623.66	26.245
623.99	27.682
624.32	27.146
624.65	26.409
624.99	26.965
625.32	26.886
625.65	28.217
625.98	27.646
626.31	27.592
626.64	28.461
626.97	27.595
627.30	27.802
627.63	27.595
627.96	26.147
628.29	27.535
628.62	28.337
628.95	27.355
629.28	27.783
629.61	28.134
629.94	27.273
630.26	27.192
630.59	28.272
630.92	26.104
631.25	26.880
631.58	28.158
631.91	26.193
632.24	25.467
632.57	26.889
632.90	26.838
633.23	24.820
633.56	27.818
633.89	28.708
634.22	29.329
634.55	27.284
