SpectraSuite Data File
++++++++++++++++++++++++++++++++++++
Date: Wed May 13 20:38:38 PDT 2015
User: schluterlab
Dark Spectrum Present: Yes
Reference Spectrum Present: Yes
Number of Sampled Component Spectra: 1
Spectrometers: USB2E3373
Integration Time (usec): 3000 (USB2E3373)
Spectra Averaged: 3 (USB2E3373)
Boxcar Smoothing: 0 (USB2E3373)
Correct for Electrical Dark: No (USB2E3373)
Strobe/Lamp Enabled: No (USB2E3373)
Correct for Detector Non-linearity: No (USB2E3373)
Correct for Stray Light: No (USB2E3373)
Number of Pixels in Processed Spectrum: 2048
>>>>>Begin Processed Spectral Data<<<<<
178.53	0.000
178.91	-950.000
179.29	-1050.000
179.67	-133.333
180.04	-875.000
180.42	2050.000
180.80	640.000
181.18	-850.000
181.56	471.429
181.94	0.000
182.31	-400.000
182.69	1133.333
183.07	-450.000
183.45	-322.222
183.83	381.818
184.20	-300.000
184.58	1500.000
184.96	3600.000
185.34	-460.000
185.72	-462.500
186.09	-1300.000
186.47	2300.000
186.85	1150.000
187.23	3100.000
187.61	-1600.000
187.98	1075.000
188.36	372.727
188.74	409.091
189.12	-760.000
189.49	460.000
189.87	-2500.000
190.25	-875.000
190.63	378.571
191.00	361.538
191.38	683.333
191.76	-825.000
192.14	1200.000
192.51	450.000
192.89	850.000
193.27	387.500
193.65	-975.000
194.02	370.000
194.40	560.000
194.78	380.000
195.15	425.000
195.53	500.000
195.91	-1150.000
196.29	287.500
196.66	231.579
197.04	-260.000
197.42	0.000
197.79	470.000
198.17	-4200.000
198.55	514.286
198.92	500.000
199.30	640.000
199.68	0.000
200.05	294.444
200.43	642.857
200.81	2900.000
201.18	1433.333
201.56	-1033.333
201.94	366.667
202.31	444.444
202.69	391.667
203.07	340.000
203.44	0.000
203.82	1100.000
204.19	585.714
204.57	321.429
204.95	387.500
205.32	1133.333
205.70	363.636
206.08	350.000
206.45	1900.000
206.83	262.500
207.20	733.333
207.58	400.000
207.96	222.222
208.33	512.500
208.71	-516.667
209.08	585.714
209.46	388.889
209.84	363.636
210.21	-1233.333
210.59	1025.000
210.96	-362.500
211.34	1350.000
211.71	480.000
212.09	483.333
212.46	0.000
212.84	1433.333
213.22	925.000
213.59	-3600.000
213.97	733.333
214.34	542.857
214.72	472.727
215.09	660.000
215.47	-1400.000
215.84	-1950.000
216.22	1033.333
216.59	342.857
216.97	1050.000
217.34	363.636
217.72	-483.333
218.09	0.000
218.47	-4400.000
218.84	522.222
219.22	557.143
219.59	1233.333
219.97	-485.714
220.34	700.000
220.72	-1400.000
221.09	335.714
221.47	1225.000
221.84	-750.000
222.22	0.000
222.59	1100.000
222.97	-1600.000
223.34	780.000
223.72	323.077
224.09	920.000
224.46	1500.000
224.84	-4000.000
225.21	-700.000
225.59	-3200.000
225.96	550.000
226.34	200.000
226.71	1900.000
227.08	475.000
227.46	460.000
227.83	-825.000
228.21	-1400.000
228.58	377.778
228.95	-2250.000
229.33	-1500.000
229.70	1133.333
230.08	614.286
230.45	-440.000
230.82	333.333
231.20	750.000
231.57	485.714
231.95	425.000
232.32	227.273
232.69	281.818
233.07	585.714
233.44	292.308
233.81	-1333.333
234.19	236.842
234.56	275.000
234.93	308.333
235.31	418.182
235.68	300.000
236.05	335.714
236.43	151.515
236.80	231.579
237.17	4100.000
237.55	238.095
237.92	167.857
238.29	228.571
238.67	148.387
239.04	172.414
239.41	122.222
239.79	104.348
240.16	130.952
240.53	120.455
240.91	92.157
241.28	106.000
241.65	118.000
242.02	97.101
242.40	90.323
242.77	115.000
243.14	86.022
243.51	89.888
243.89	77.647
244.26	77.778
244.63	78.495
245.00	75.532
245.38	83.168
245.75	64.486
246.12	71.560
246.49	70.803
246.87	76.000
247.24	79.231
247.61	65.714
247.98	65.359
248.36	64.865
248.73	68.153
249.10	66.879
249.47	64.407
249.84	62.032
250.22	60.963
250.59	60.947
250.96	70.707
251.33	63.033
251.70	61.386
252.08	60.952
252.45	56.054
252.82	55.652
253.19	59.149
253.56	57.647
253.94	60.166
254.31	62.109
254.68	58.077
255.05	59.779
255.42	58.130
255.79	57.353
256.16	55.596
256.54	52.650
256.91	58.719
257.28	57.914
257.65	52.475
258.02	54.969
258.39	55.521
258.76	51.505
259.14	54.762
259.51	52.584
259.88	48.447
260.25	55.287
260.62	51.734
260.99	53.727
261.36	53.453
261.73	52.149
262.10	54.070
262.47	52.676
262.85	52.925
263.22	51.567
263.59	53.276
263.96	48.626
264.33	48.825
264.70	51.579
265.07	53.197
265.44	49.747
265.81	49.148
266.18	52.513
266.55	48.049
266.92	52.088
267.29	51.852
267.66	45.642
268.03	46.591
268.40	48.598
268.77	47.494
269.14	47.973
269.51	52.144
269.88	52.448
270.25	47.178
270.62	46.292
270.99	48.817
271.36	48.712
271.73	50.467
272.10	46.957
272.47	51.613
272.84	48.268
273.21	49.476
273.58	45.633
273.95	46.331
274.32	48.140
274.69	48.822
275.06	44.685
275.43	48.085
275.80	49.299
276.17	46.232
276.54	47.817
276.91	46.838
277.28	45.313
277.65	46.615
278.02	47.205
278.39	48.047
278.76	45.455
279.13	48.679
279.50	44.693
279.87	45.817
280.23	46.108
280.60	45.648
280.97	47.505
281.34	45.487
281.71	47.455
282.08	45.298
282.45	43.636
282.82	46.359
283.19	42.959
283.56	46.842
283.92	45.685
284.29	44.092
284.66	43.376
285.03	44.846
285.40	42.077
285.77	44.444
286.14	43.005
286.51	43.833
286.87	44.957
287.24	43.322
287.61	43.178
287.98	42.045
288.35	41.363
288.72	42.368
289.08	42.879
289.45	43.822
289.82	40.813
290.19	38.462
290.56	40.888
290.93	38.066
291.29	39.571
291.66	39.823
292.03	40.988
292.40	41.410
292.77	39.497
293.13	39.104
293.50	38.630
293.87	37.037
294.24	38.667
294.60	36.681
294.97	36.773
295.34	37.094
295.71	37.358
296.08	37.037
296.44	37.964
296.81	36.988
297.18	36.992
297.55	34.169
297.91	33.641
298.28	37.751
298.65	35.248
299.02	36.759
299.38	35.989
299.75	32.345
300.12	34.100
300.48	34.125
300.85	32.676
301.22	34.522
301.59	32.828
301.95	34.005
302.32	34.660
302.69	33.453
303.05	34.545
303.42	33.457
303.79	32.843
304.15	32.284
304.52	31.402
304.89	33.566
305.25	32.019
305.62	32.729
305.99	35.301
306.35	33.221
306.72	32.735
307.09	32.852
307.45	35.360
307.82	32.366
308.19	34.216
308.55	33.549
308.92	33.512
309.29	33.052
309.65	32.131
310.02	32.875
310.38	34.409
310.75	34.424
311.12	33.163
311.48	34.065
311.85	35.010
312.22	33.091
312.58	34.096
312.95	37.064
313.31	35.146
313.68	35.343
314.05	37.278
314.41	37.085
314.78	36.052
315.14	36.544
315.51	37.281
315.87	38.317
316.24	37.736
316.61	38.694
316.97	39.824
317.34	39.432
317.70	40.918
318.07	42.156
318.43	42.368
318.80	42.268
319.16	42.938
319.53	42.683
319.89	42.571
320.26	44.500
320.62	45.635
320.99	45.960
321.35	47.273
321.72	48.049
322.08	49.654
322.45	49.652
322.81	48.547
323.18	49.615
323.54	50.093
323.91	50.755
324.27	52.677
324.64	51.445
325.00	51.398
325.37	53.412
325.73	52.603
326.10	54.457
326.46	55.197
326.83	54.098
327.19	53.886
327.56	56.359
327.92	55.468
328.29	56.788
328.65	56.538
329.01	56.498
329.38	57.077
329.74	57.248
330.11	57.776
330.47	58.219
330.84	58.364
331.20	58.106
331.56	57.064
331.93	57.593
332.29	56.877
332.66	57.522
333.02	58.227
333.38	59.440
333.75	57.665
334.11	57.918
334.48	58.296
334.84	60.754
335.20	59.273
335.57	58.386
335.93	56.429
336.29	58.242
336.66	58.611
337.02	56.833
337.38	59.352
337.75	58.467
338.11	58.192
338.47	59.392
338.84	61.137
339.20	57.982
339.56	59.398
339.93	58.182
340.29	58.696
340.65	58.556
341.02	57.243
341.38	59.164
341.74	57.281
342.11	58.253
342.47	57.974
342.83	57.449
343.20	58.788
343.56	55.855
343.92	56.404
344.28	57.398
344.65	58.641
345.01	56.734
345.37	54.889
345.73	57.276
346.10	59.079
346.46	56.949
346.82	54.778
347.19	55.472
347.55	55.008
347.91	57.201
348.27	57.354
348.63	56.438
349.00	55.987
349.36	57.225
349.72	56.055
350.08	54.943
350.45	55.492
350.81	54.671
351.17	54.052
351.53	56.839
351.89	55.116
352.26	53.433
352.62	55.172
352.98	54.781
353.34	55.793
353.70	54.828
354.07	55.242
354.43	54.127
354.79	53.339
355.15	53.631
355.51	54.436
355.87	56.490
356.24	54.805
356.60	53.408
356.96	55.270
357.32	53.639
357.68	54.409
358.04	54.553
358.40	54.078
358.77	53.052
359.13	51.855
359.49	53.020
359.85	52.857
360.21	53.030
360.57	53.541
360.93	53.923
361.29	52.457
361.66	52.941
362.02	52.164
362.38	53.080
362.74	52.679
363.10	52.924
363.46	51.944
363.82	52.079
364.18	52.423
364.54	52.600
364.90	53.754
365.26	51.324
365.62	50.986
365.98	51.278
366.35	50.931
366.71	52.350
367.07	53.460
367.43	52.104
367.79	52.320
368.15	53.017
368.51	50.218
368.87	53.034
369.23	52.670
369.59	52.064
369.95	51.250
370.31	50.783
370.67	51.304
371.03	51.311
371.39	51.676
371.75	51.471
372.11	49.218
372.47	50.733
372.83	52.089
373.19	49.639
373.55	51.220
373.91	50.810
374.27	49.003
374.63	50.400
374.99	49.929
375.35	49.965
375.71	49.554
376.07	50.343
376.42	48.212
376.78	49.768
377.14	50.068
377.50	50.000
377.86	49.668
378.22	49.684
378.58	48.308
378.94	48.649
379.30	49.046
379.66	49.619
380.02	49.140
380.38	47.662
380.74	48.920
381.09	49.694
381.45	48.494
381.81	50.676
382.17	48.662
382.53	48.616
382.89	49.012
383.25	47.780
383.61	49.318
383.97	49.844
384.32	46.725
384.68	47.150
385.04	48.064
385.40	48.173
385.76	47.543
386.12	47.798
386.48	47.703
386.83	48.044
387.19	49.289
387.55	47.681
387.91	46.554
388.27	46.720
388.62	48.125
388.98	46.253
389.34	46.934
389.70	45.861
390.06	46.705
390.42	47.211
390.77	47.519
391.13	48.309
391.49	45.812
391.85	46.531
392.20	46.309
392.56	45.202
392.92	46.321
393.28	46.213
393.64	46.343
393.99	45.693
394.35	45.533
394.71	45.420
395.07	45.732
395.42	45.674
395.78	44.338
396.14	46.058
396.50	47.118
396.85	45.518
397.21	44.636
397.57	44.823
397.92	45.433
398.28	44.563
398.64	44.444
399.00	46.223
399.35	44.896
399.71	45.428
400.07	45.121
400.42	45.767
400.78	44.511
401.14	45.366
401.49	45.373
401.85	44.041
402.21	44.192
402.57	42.936
402.92	45.586
403.28	45.909
403.63	44.183
403.99	45.541
404.35	43.394
404.70	43.645
405.06	44.263
405.42	43.855
405.77	43.943
406.13	44.695
406.49	44.352
406.84	43.473
407.20	43.262
407.55	43.586
407.91	44.867
408.27	45.246
408.62	43.949
408.98	43.382
409.34	44.034
409.69	43.355
410.05	43.928
410.40	45.076
410.76	43.787
411.11	43.305
411.47	42.939
411.83	42.578
412.18	42.795
412.54	43.151
412.89	42.349
413.25	42.621
413.60	44.410
413.96	41.773
414.31	42.770
414.67	42.332
415.03	42.517
415.38	42.977
415.74	42.508
416.09	42.521
416.45	42.905
416.80	41.837
417.16	43.566
417.51	43.198
417.87	43.160
418.22	42.334
418.58	42.802
418.93	42.690
419.29	41.248
419.64	43.010
420.00	42.561
420.35	41.101
420.71	42.738
421.06	41.885
421.42	41.345
421.77	42.265
422.12	41.494
422.48	41.284
422.83	43.215
423.19	40.552
423.54	42.252
423.90	41.275
424.25	41.262
424.61	41.905
424.96	41.283
425.31	41.251
425.67	39.213
426.02	41.257
426.38	41.880
426.73	41.954
427.09	40.729
427.44	40.943
427.79	42.036
428.15	41.071
428.50	41.311
428.85	42.074
429.21	40.972
429.56	40.228
429.92	41.218
430.27	39.970
430.62	40.041
430.98	41.048
431.33	39.742
431.68	40.576
432.04	40.043
432.39	40.434
432.74	40.634
433.10	40.238
433.45	41.399
433.80	39.911
434.16	40.278
434.51	40.000
434.86	41.448
435.22	40.133
435.57	40.729
435.92	38.970
436.28	40.629
436.63	40.177
436.98	39.325
437.34	40.429
437.69	40.665
438.04	40.022
438.39	40.000
438.75	40.151
439.10	40.112
439.45	39.906
439.81	40.604
440.16	39.130
440.51	39.133
440.86	38.796
441.22	40.156
441.57	39.756
441.92	40.174
442.27	39.505
442.63	39.126
442.98	40.056
443.33	40.326
443.68	40.681
444.03	39.678
444.39	38.364
444.74	40.043
445.09	39.137
445.44	39.256
445.79	38.793
446.15	39.068
446.50	38.072
446.85	39.414
447.20	39.368
447.55	40.369
447.91	39.548
448.26	39.009
448.61	39.570
448.96	39.092
449.31	39.426
449.66	39.730
450.02	38.997
450.37	38.379
450.72	39.425
451.07	38.574
451.42	38.723
451.77	38.931
452.12	38.857
452.47	39.117
452.83	39.394
453.18	38.753
453.53	38.961
453.88	38.571
454.23	38.912
454.58	38.886
454.93	40.242
455.28	38.092
455.63	38.592
455.98	40.000
456.34	39.510
456.69	39.198
457.04	39.628
457.39	39.100
457.74	39.524
458.09	37.953
458.44	39.225
458.79	38.395
459.14	39.165
459.49	38.412
459.84	38.227
460.19	37.596
460.54	37.674
460.89	37.795
461.24	38.919
461.59	39.221
461.94	37.916
462.29	37.745
462.64	37.652
462.99	37.606
463.34	38.933
463.69	38.462
464.04	38.203
464.39	37.855
464.74	40.166
465.09	39.023
465.44	38.116
465.79	37.136
466.14	37.712
466.49	37.597
466.84	37.420
467.19	38.141
467.54	38.625
467.89	37.455
468.24	37.522
468.59	38.339
468.94	37.935
469.29	37.532
469.64	39.090
469.99	38.566
470.34	37.649
470.68	37.859
471.03	38.095
471.38	39.263
471.73	38.241
472.08	38.289
472.43	37.814
472.78	37.261
473.13	36.842
473.48	37.703
473.83	37.927
474.17	38.395
474.52	38.151
474.87	37.770
475.22	37.899
475.57	37.023
475.92	36.219
476.27	37.317
476.61	36.514
476.96	35.734
477.31	36.473
477.66	35.996
478.01	36.592
478.36	37.546
478.70	36.760
479.05	37.487
479.40	37.257
479.75	37.214
480.10	36.183
480.45	36.602
480.79	36.503
481.14	35.665
481.49	35.928
481.84	35.894
482.19	36.120
482.53	35.550
482.88	37.134
483.23	35.888
483.58	36.397
483.92	35.661
484.27	34.684
484.62	35.647
484.97	35.396
485.31	36.096
485.66	35.079
486.01	35.077
486.36	34.499
486.70	34.334
487.05	34.032
487.40	34.321
487.75	34.365
488.09	34.031
488.44	34.690
488.79	34.611
489.13	35.256
489.48	35.155
489.83	35.261
490.17	36.212
490.52	35.208
490.87	36.047
491.22	35.334
491.56	35.171
491.91	34.900
492.26	35.002
492.60	35.300
492.95	34.284
493.30	34.953
493.64	35.324
493.99	35.190
494.34	35.708
494.68	34.982
495.03	34.586
495.37	35.319
495.72	34.552
496.07	34.756
496.41	34.558
496.76	35.180
497.11	34.939
497.45	34.886
497.80	34.885
498.14	35.700
498.49	34.634
498.84	34.947
499.18	34.238
499.53	35.090
499.87	35.275
500.22	34.903
500.56	35.728
500.91	35.192
501.26	35.135
501.60	36.070
501.95	34.876
502.29	34.396
502.64	35.615
502.98	35.344
503.33	35.329
503.67	34.803
504.02	35.173
504.36	34.815
504.71	35.418
505.06	34.458
505.40	34.759
505.75	34.041
506.09	34.062
506.44	34.879
506.78	35.071
507.13	35.588
507.47	34.141
507.82	35.461
508.16	34.752
508.51	35.464
508.85	35.055
509.19	34.796
509.54	33.929
509.88	33.539
510.23	34.447
510.57	35.397
510.92	35.267
511.26	35.252
511.61	34.025
511.95	33.820
512.30	34.624
512.64	34.283
512.98	33.976
513.33	34.636
513.67	33.991
514.02	33.604
514.36	34.626
514.70	34.311
515.05	33.798
515.39	34.044
515.74	34.178
516.08	34.824
516.42	34.517
516.77	35.953
517.11	34.406
517.46	34.989
517.80	34.146
518.14	34.163
518.49	35.064
518.83	34.034
519.17	35.681
519.52	34.522
519.86	34.912
520.20	34.162
520.55	35.488
520.89	35.584
521.23	35.826
521.58	34.334
521.92	35.028
522.26	34.228
522.61	34.953
522.95	35.052
523.29	34.814
523.64	34.268
523.98	35.428
524.32	33.715
524.66	35.238
525.01	34.681
525.35	33.519
525.69	34.113
526.04	34.206
526.38	34.594
526.72	34.724
527.06	34.965
527.41	33.540
527.75	35.177
528.09	34.811
528.43	34.481
528.78	34.542
529.12	33.455
529.46	34.538
529.80	35.644
530.15	35.016
530.49	34.092
530.83	34.367
531.17	34.987
531.51	35.149
531.86	34.774
532.20	35.332
532.54	35.490
532.88	34.981
533.22	33.417
533.57	34.259
533.91	34.076
534.25	32.078
534.59	34.655
534.93	33.908
535.27	33.555
535.62	34.249
535.96	33.333
536.30	33.249
536.64	33.741
536.98	33.709
537.32	33.443
537.66	33.600
538.01	33.377
538.35	34.260
538.69	33.886
539.03	33.723
539.37	33.482
539.71	33.441
540.05	33.987
540.39	33.555
540.73	34.217
541.07	34.004
541.42	33.333
541.76	34.065
542.10	33.506
542.44	34.702
542.78	34.651
543.12	33.845
543.46	34.295
543.80	34.353
544.14	33.119
544.48	33.333
544.82	34.253
545.16	34.743
545.50	33.933
545.84	33.871
546.18	34.411
546.52	34.067
546.86	34.639
547.20	34.187
547.54	33.935
547.88	34.375
548.22	34.060
548.56	33.270
548.90	33.227
549.24	34.141
549.58	34.311
549.92	32.692
550.26	33.665
550.60	32.573
550.94	34.155
551.28	33.285
551.62	34.508
551.96	33.404
552.30	33.652
552.64	34.348
552.98	34.441
553.32	33.715
553.66	33.674
554.00	33.493
554.34	33.471
554.68	34.049
555.02	33.992
555.36	33.333
555.69	33.762
556.03	34.118
556.37	33.697
556.71	32.810
557.05	33.754
557.39	32.610
557.73	32.816
558.07	33.938
558.41	32.562
558.75	32.550
559.08	33.482
559.42	33.031
559.76	32.426
560.10	33.619
560.44	33.194
560.78	31.737
561.12	32.652
561.45	33.572
561.79	32.696
562.13	32.797
562.47	33.743
562.81	33.403
563.15	33.512
563.48	32.958
563.82	32.942
564.16	32.243
564.50	32.357
564.84	32.743
565.17	32.625
565.51	33.482
565.85	32.614
566.19	31.997
566.52	32.236
566.86	32.007
567.20	33.726
567.54	32.078
567.88	31.559
568.21	32.116
568.55	32.103
568.89	32.198
569.23	31.328
569.56	31.741
569.90	31.472
570.24	31.719
570.57	31.792
570.91	31.286
571.25	30.667
571.59	31.046
571.92	30.789
572.26	31.196
572.60	31.441
572.93	29.805
573.27	30.790
573.61	30.514
573.95	30.698
574.28	29.749
574.62	30.369
574.96	30.538
575.29	29.922
575.63	30.030
575.97	30.018
576.30	30.058
576.64	30.099
576.98	29.922
577.31	30.152
577.65	30.597
577.98	30.579
578.32	30.302
578.66	30.168
578.99	29.765
579.33	29.944
579.67	29.214
580.00	29.825
580.34	30.138
580.67	30.111
581.01	29.998
581.35	30.395
581.68	30.203
582.02	29.841
582.35	30.072
582.69	30.453
583.02	29.713
583.36	29.882
583.70	30.270
584.03	30.146
584.37	30.040
584.70	30.120
585.04	30.161
585.37	29.939
585.71	30.334
586.04	29.645
586.38	30.016
586.72	30.682
587.05	30.236
587.39	30.158
587.72	29.992
588.06	29.429
588.39	30.096
588.73	29.979
589.06	30.134
589.40	30.370
589.73	30.341
590.07	30.142
590.40	29.887
590.73	30.250
591.07	31.217
591.40	30.493
591.74	31.169
592.07	30.061
592.41	30.219
592.74	30.187
593.08	30.313
593.41	29.896
593.75	29.919
594.08	30.540
594.41	30.258
594.75	30.462
595.08	30.029
595.42	30.158
595.75	30.128
596.09	30.792
596.42	30.216
596.75	30.308
597.09	30.996
597.42	29.300
597.75	29.884
598.09	29.913
598.42	29.940
598.76	30.604
599.09	29.761
599.42	29.440
599.76	29.868
600.09	29.690
600.42	29.730
600.76	30.071
601.09	29.982
601.42	29.947
601.76	29.791
602.09	29.051
602.42	30.772
602.76	29.988
603.09	30.094
603.42	30.144
603.76	29.573
604.09	29.508
604.42	30.738
604.76	29.819
605.09	29.707
605.42	29.029
605.75	30.091
606.09	29.809
606.42	29.219
606.75	29.863
607.09	30.431
607.42	30.338
607.75	29.536
608.08	29.483
608.42	29.807
608.75	29.531
609.08	29.093
609.41	29.843
609.75	30.348
610.08	30.066
610.41	28.352
610.74	30.369
611.07	30.682
611.41	30.029
611.74	30.317
612.07	30.590
612.40	31.112
612.73	30.211
613.07	31.358
613.40	30.648
613.73	29.418
614.06	30.484
614.39	29.628
614.72	30.684
615.06	29.884
615.39	29.406
615.72	29.448
616.05	29.506
616.38	30.295
616.71	30.166
617.05	30.624
617.38	30.427
617.71	30.811
618.04	30.469
618.37	30.514
618.70	30.616
619.03	30.526
619.36	30.414
619.69	30.775
620.03	31.387
620.36	31.016
620.69	30.411
621.02	30.531
621.35	30.227
621.68	31.464
622.01	30.728
622.34	30.787
622.67	31.027
623.00	29.934
623.33	29.950
623.66	30.951
623.99	30.191
624.32	30.100
624.65	30.862
624.99	30.170
625.32	29.544
625.65	30.278
625.98	30.746
626.31	31.104
626.64	30.531
626.97	30.673
627.30	29.925
627.63	30.845
627.96	30.782
628.29	31.146
628.62	31.656
628.95	32.642
629.28	31.387
629.61	31.622
629.94	32.762
630.26	31.077
630.59	31.459
630.92	30.556
631.25	30.800
