SpectraSuite Data File
++++++++++++++++++++++++++++++++++++
Date: Wed May 13 20:45:24 PDT 2015
User: schluterlab
Dark Spectrum Present: Yes
Reference Spectrum Present: Yes
Number of Sampled Component Spectra: 1
Spectrometers: USB2E3373
Integration Time (usec): 3000 (USB2E3373)
Spectra Averaged: 3 (USB2E3373)
Boxcar Smoothing: 0 (USB2E3373)
Correct for Electrical Dark: No (USB2E3373)
Strobe/Lamp Enabled: No (USB2E3373)
Correct for Detector Non-linearity: No (USB2E3373)
Correct for Stray Light: No (USB2E3373)
Number of Pixels in Processed Spectrum: 2048
>>>>>Begin Processed Spectral Data<<<<<
178.53	0.000
178.91	-675.000
179.29	-900.000
179.67	-100.000
180.04	-750.000
180.42	1100.000
180.80	680.000
181.18	-575.000
181.56	414.286
181.94	0.000
182.31	-414.286
182.69	1000.000
183.07	-412.500
183.45	-311.111
183.83	363.636
184.20	-180.000
184.58	600.000
184.96	3300.000
185.34	-420.000
185.72	-512.500
186.09	-1250.000
186.47	2000.000
186.85	1800.000
187.23	2500.000
187.61	-1066.667
187.98	925.000
188.36	427.273
188.74	427.273
189.12	-720.000
189.49	340.000
189.87	-2900.000
190.25	-475.000
190.63	235.714
191.00	253.846
191.38	550.000
191.76	-725.000
192.14	950.000
192.51	337.500
192.89	466.667
193.27	462.500
193.65	-475.000
194.02	320.000
194.40	480.000
194.78	270.000
195.15	316.667
195.53	420.000
195.91	-1100.000
196.29	281.250
196.66	263.158
197.04	-190.000
197.42	0.000
197.79	460.000
198.17	-2900.000
198.55	457.143
198.92	475.000
199.30	440.000
199.68	0.000
200.05	188.889
200.43	442.857
200.81	2200.000
201.18	833.333
201.56	-900.000
201.94	277.778
202.31	411.111
202.69	300.000
203.07	340.000
203.44	0.000
203.82	875.000
204.19	485.714
204.57	314.286
204.95	387.500
205.32	933.333
205.70	318.182
206.08	257.143
206.45	2000.000
206.83	262.500
207.20	616.667
207.58	380.000
207.96	216.667
208.33	562.500
208.71	-650.000
209.08	471.429
209.46	433.333
209.84	300.000
210.21	-833.333
210.59	1125.000
210.96	-225.000
211.34	1650.000
211.71	450.000
212.09	516.667
212.46	0.000
212.84	1333.333
213.22	1000.000
213.59	-1600.000
213.97	483.333
214.34	414.286
214.72	336.364
215.09	580.000
215.47	-1350.000
215.84	-1600.000
216.22	1066.667
216.59	264.286
216.97	825.000
217.34	254.545
217.72	-383.333
218.09	0.000
218.47	-2400.000
218.84	400.000
219.22	457.143
219.59	800.000
219.97	-414.286
220.34	480.000
220.72	-1166.667
221.09	357.143
221.47	1050.000
221.84	-583.333
222.22	0.000
222.59	975.000
222.97	-1100.000
223.34	880.000
223.72	323.077
224.09	720.000
224.46	1850.000
224.84	-3400.000
225.21	-740.000
225.59	-2900.000
225.96	450.000
226.34	190.000
226.71	1750.000
227.08	487.500
227.46	430.000
227.83	-775.000
228.21	-1150.000
228.58	444.444
228.95	-1600.000
229.33	-1450.000
229.70	1266.667
230.08	614.286
230.45	-460.000
230.82	358.333
231.20	550.000
231.57	442.857
231.95	341.667
232.32	159.091
232.69	236.364
233.07	400.000
233.44	207.692
233.81	-1000.000
234.19	194.737
234.56	375.000
234.93	250.000
235.31	290.909
235.68	223.077
236.05	250.000
236.43	130.303
236.80	231.579
237.17	3500.000
237.55	171.429
237.92	153.571
238.29	133.333
238.67	164.516
239.04	175.862
239.41	94.444
239.79	91.304
240.16	109.524
240.53	109.091
240.91	78.431
241.28	80.000
241.65	106.000
242.02	97.101
242.40	75.806
242.77	90.000
243.14	73.118
243.51	82.022
243.89	78.824
244.26	75.556
244.63	68.817
245.00	52.128
245.38	76.238
245.75	67.290
246.12	66.055
246.49	65.693
246.87	76.000
247.24	63.077
247.61	63.571
247.98	53.595
248.36	58.108
248.73	61.783
249.10	54.140
249.47	54.237
249.84	59.358
250.22	50.267
250.59	59.172
250.96	58.081
251.33	54.028
251.70	54.455
252.08	51.905
252.45	54.260
252.82	45.652
253.19	52.340
253.56	51.373
253.94	53.942
254.31	51.953
254.68	53.846
255.05	49.815
255.42	54.472
255.79	54.412
256.16	51.986
256.54	49.470
256.91	53.381
257.28	49.281
257.65	46.865
258.02	48.758
258.39	49.211
258.76	50.502
259.14	47.619
259.51	50.152
259.88	47.826
260.25	50.755
260.62	47.688
260.99	50.000
261.36	48.649
261.73	46.991
262.10	48.547
262.47	50.423
262.85	49.025
263.22	48.718
263.59	49.003
263.96	46.978
264.33	46.475
264.70	47.895
265.07	49.105
265.44	47.727
265.81	45.985
266.18	47.990
266.55	47.561
266.92	44.717
267.29	45.139
267.66	46.330
268.03	45.682
268.40	46.729
268.77	47.494
269.14	45.946
269.51	48.984
269.88	46.853
270.25	47.856
270.62	46.742
270.99	45.806
271.36	47.210
271.73	47.897
272.10	44.565
272.47	50.968
272.84	43.939
273.21	45.702
273.58	45.633
273.95	45.912
274.32	44.628
274.69	44.540
275.06	43.307
275.43	47.447
275.80	48.096
276.17	47.047
276.54	45.114
276.91	45.059
277.28	43.945
277.65	44.487
278.02	44.720
278.39	48.828
278.76	45.091
279.13	45.849
279.50	41.527
279.87	45.219
280.23	47.305
280.60	44.681
280.97	44.362
281.34	44.956
281.71	43.273
282.08	44.146
282.45	39.636
282.82	42.984
283.19	44.563
283.56	41.930
283.92	43.486
284.29	42.152
284.66	43.920
285.03	43.580
285.40	42.077
285.77	41.246
286.14	41.623
286.51	43.167
286.87	42.051
287.24	44.951
287.61	42.055
287.98	42.045
288.35	40.412
288.72	38.941
289.08	38.498
289.45	39.209
289.82	40.000
290.19	40.345
290.56	37.825
290.93	36.103
291.29	37.423
291.66	38.053
292.03	39.390
292.40	38.913
292.77	35.355
293.13	37.313
293.50	39.213
293.87	36.741
294.24	36.593
294.60	34.643
294.97	35.465
295.34	37.659
295.71	36.364
296.08	35.185
296.44	35.626
296.81	35.535
297.18	35.501
297.55	32.850
297.91	33.641
298.28	36.145
298.65	34.204
299.02	35.046
299.38	34.927
299.75	32.210
300.12	31.928
300.48	32.625
300.85	32.182
301.22	32.484
301.59	30.429
301.95	31.738
302.32	32.991
302.69	31.900
303.05	31.879
303.42	32.222
303.79	32.843
304.15	31.352
304.52	31.634
304.89	31.475
305.25	31.439
305.62	31.823
305.99	31.641
306.35	32.774
306.72	30.942
307.09	32.075
307.45	31.757
307.82	29.799
308.19	31.457
308.55	31.284
308.92	30.720
309.29	30.834
309.65	30.859
310.02	31.395
310.38	30.753
310.75	30.517
311.12	30.092
311.48	32.288
311.85	30.608
312.22	30.489
312.58	30.873
312.95	32.735
313.31	30.194
313.68	31.601
314.05	32.742
314.41	32.462
314.78	31.017
315.14	32.473
315.51	33.677
315.87	32.079
316.24	31.778
316.61	31.871
316.97	32.485
317.34	32.583
317.70	32.505
318.07	33.109
318.43	35.714
318.80	34.208
319.16	34.746
319.53	33.771
319.89	34.286
320.26	36.600
320.62	36.310
320.99	35.152
321.35	36.263
321.72	38.912
322.08	38.598
322.45	39.502
322.81	39.147
323.18	39.499
323.54	37.662
323.91	40.377
324.27	41.396
324.64	40.820
325.00	41.659
325.37	44.404
325.73	44.704
326.10	44.572
326.46	43.638
326.83	45.988
327.19	45.431
327.56	46.864
327.92	47.244
328.29	48.713
328.65	49.079
329.01	48.285
329.38	49.029
329.74	50.785
330.11	52.026
330.47	51.148
330.84	50.827
331.20	50.273
331.56	51.468
331.93	53.611
332.29	53.239
332.66	53.097
333.02	53.839
333.38	53.026
333.75	52.852
334.11	53.826
334.48	53.949
334.84	55.423
335.20	54.545
335.57	54.850
335.93	54.375
336.29	56.136
336.66	55.275
337.02	54.208
337.38	55.833
337.75	54.635
338.11	54.611
338.47	54.880
338.84	57.562
339.20	55.963
339.56	57.938
339.93	55.455
340.29	54.710
340.65	56.061
341.02	56.632
341.38	56.851
341.74	55.000
342.11	57.031
342.47	55.595
342.83	56.336
343.20	56.277
343.56	53.917
343.92	56.842
344.28	55.867
344.65	56.750
345.01	54.714
345.37	54.374
345.73	56.176
346.10	56.181
346.46	55.763
346.82	53.624
347.19	55.138
347.55	54.598
347.91	57.201
348.27	55.300
348.63	54.181
349.00	54.935
349.36	54.351
349.72	55.573
350.08	55.105
350.45	55.655
350.81	56.214
351.17	55.024
351.53	56.347
351.89	54.455
352.26	55.249
352.62	54.290
352.98	55.186
353.34	54.889
353.70	54.501
354.07	56.129
354.43	53.016
354.79	54.787
355.15	55.068
355.51	56.195
355.87	54.286
356.24	56.270
356.60	55.734
356.96	55.833
357.32	56.419
357.68	55.591
358.04	56.136
358.40	54.236
358.77	54.460
359.13	54.380
359.49	54.431
359.85	55.159
360.21	54.625
360.57	55.642
360.93	54.692
361.29	54.271
361.66	53.096
362.02	54.701
362.38	55.513
362.74	54.018
363.10	53.960
363.46	54.732
363.82	53.817
364.18	53.231
364.54	55.275
364.90	54.108
365.26	54.118
365.62	55.150
365.98	53.908
366.35	53.223
366.71	54.085
367.07	54.188
367.43	54.862
367.79	54.675
368.15	55.101
368.51	54.942
368.87	53.819
369.23	53.767
369.59	54.598
369.95	53.088
370.31	53.704
370.67	53.623
371.03	54.831
371.39	53.790
371.75	53.603
372.11	53.414
372.47	55.059
372.83	55.259
373.19	52.818
373.55	54.324
373.91	54.492
374.27	52.371
374.63	55.345
374.99	53.037
375.35	53.943
375.71	51.953
376.07	54.115
376.42	53.989
376.78	53.810
377.14	53.392
377.50	53.642
377.86	53.125
378.22	52.908
378.58	51.629
378.94	53.488
379.30	54.071
379.66	53.553
380.02	53.870
380.38	52.641
380.74	52.401
381.09	52.934
381.45	54.579
381.81	53.993
382.17	54.076
382.53	52.327
382.89	53.519
383.25	52.408
383.61	54.275
383.97	53.659
384.32	52.589
384.68	53.036
385.04	54.149
385.40	52.879
385.76	53.378
386.12	52.137
386.48	53.493
386.83	54.266
387.19	53.741
387.55	51.948
387.91	52.781
388.27	51.809
388.62	52.182
388.98	53.071
389.34	52.691
389.70	53.771
390.06	53.802
390.42	52.399
390.77	52.099
391.13	53.414
391.49	52.919
391.85	52.132
392.20	51.924
392.56	51.894
392.92	52.443
393.28	51.124
393.64	52.338
393.99	51.558
394.35	51.551
394.71	52.509
395.07	50.966
395.42	52.967
395.78	51.527
396.14	52.514
396.50	52.820
396.85	52.066
397.21	51.418
397.57	50.961
397.92	52.043
398.28	51.401
398.64	51.254
399.00	52.714
399.35	51.889
399.71	51.505
400.07	51.035
400.42	51.656
400.78	51.267
401.14	52.073
401.49	51.582
401.85	52.027
402.21	50.659
402.57	51.388
402.92	50.757
403.28	51.718
403.63	51.114
403.99	51.019
404.35	50.667
404.70	52.038
405.06	50.437
405.42	51.840
405.77	51.200
406.13	50.564
406.49	51.449
406.84	50.325
407.20	50.177
407.55	52.074
407.91	53.133
408.27	52.074
408.62	50.331
408.98	50.551
409.34	50.185
409.69	52.452
410.05	51.301
410.40	50.520
410.76	51.195
411.11	50.302
411.47	50.160
411.83	50.519
412.18	50.093
412.54	50.374
412.89	51.205
413.25	50.236
413.60	50.031
413.96	49.484
414.31	49.028
414.67	49.620
415.03	50.066
415.38	51.224
415.74	51.061
416.09	51.535
416.45	50.000
416.80	50.033
417.16	50.938
417.51	51.029
417.87	49.968
418.22	50.284
418.58	50.613
418.93	50.184
419.29	51.560
419.64	51.008
420.00	49.939
420.35	49.159
420.71	50.030
421.06	49.284
421.42	50.117
421.77	49.832
422.12	49.916
422.48	50.081
422.83	51.369
423.19	48.729
423.54	50.842
423.90	50.493
424.25	50.307
424.61	49.048
424.96	50.379
425.31	50.166
425.67	48.764
426.02	49.200
426.38	50.977
426.73	49.912
427.09	49.726
427.44	49.569
427.79	50.431
428.15	50.714
428.50	49.737
428.85	50.060
429.21	49.199
429.56	50.285
429.92	49.119
430.27	49.851
430.62	49.462
430.98	48.677
431.33	48.660
431.68	49.476
432.04	49.255
432.39	50.885
432.74	50.509
433.10	49.859
433.45	50.671
433.80	49.778
434.16	49.573
434.51	49.789
434.86	49.544
435.22	50.862
435.57	50.638
435.92	50.029
436.28	51.542
436.63	49.503
436.98	49.227
437.34	50.268
437.69	50.408
438.04	50.028
438.39	50.567
438.75	50.901
439.10	50.447
439.45	50.118
439.81	50.574
440.16	51.045
440.51	50.615
440.86	50.261
441.22	49.166
441.57	50.478
441.92	50.563
442.27	51.184
442.63	50.132
442.98	50.873
443.33	49.946
443.68	48.993
444.03	50.512
444.39	49.805
444.74	50.433
445.09	51.051
445.44	50.410
445.79	50.371
446.15	50.291
446.50	50.242
446.85	50.617
447.20	50.994
447.55	51.535
447.91	49.807
448.26	51.085
448.61	51.328
448.96	50.997
449.31	50.900
449.66	50.703
450.02	50.975
450.37	49.830
450.72	50.987
451.07	50.457
451.42	50.760
451.77	50.558
452.12	50.115
452.47	50.746
452.83	51.807
453.18	51.467
453.53	50.649
453.88	51.270
454.23	50.508
454.58	50.636
454.93	53.846
455.28	50.499
455.63	51.456
455.98	52.619
456.34	51.508
456.69	53.037
457.04	51.393
457.39	50.789
457.74	50.667
458.09	51.179
458.44	51.311
458.79	50.325
459.14	51.580
459.49	52.014
459.84	50.970
460.19	51.149
460.54	50.000
460.89	51.838
461.24	51.427
461.59	51.830
461.94	51.356
462.29	52.107
462.64	50.351
462.99	50.813
463.34	52.467
463.69	51.595
464.04	50.725
464.39	50.609
464.74	51.337
465.09	50.905
465.44	49.917
465.79	50.895
466.14	50.629
466.49	50.278
466.84	51.255
467.19	50.091
467.54	51.438
467.89	49.460
468.24	51.600
468.59	51.465
468.94	50.336
469.29	51.992
469.64	51.606
469.99	52.842
470.34	51.519
470.68	51.940
471.03	49.660
471.38	52.328
471.73	51.432
472.08	52.632
472.43	52.136
472.78	51.745
473.13	51.861
473.48	50.874
473.83	51.220
474.17	51.462
474.52	52.605
474.87	51.664
475.22	52.118
475.57	50.403
475.92	51.726
476.27	50.000
476.61	51.351
476.96	51.897
477.31	50.654
477.66	51.641
478.01	49.869
478.36	51.031
478.70	50.363
479.05	51.384
479.40	50.512
479.75	50.788
480.10	49.702
480.45	51.309
480.79	50.549
481.14	51.223
481.49	51.115
481.84	49.749
482.19	50.432
482.53	50.413
482.88	51.047
483.23	51.075
483.58	50.910
483.92	51.546
484.27	50.109
484.62	50.690
484.97	49.310
485.31	49.623
485.66	46.067
486.01	46.463
486.36	46.423
486.70	47.529
487.05	48.083
487.40	47.702
487.75	48.302
488.09	48.923
488.44	48.833
488.79	50.344
489.13	50.115
489.48	50.571
489.83	49.935
490.17	51.030
490.52	50.531
490.87	50.520
491.22	51.205
491.56	50.251
491.91	51.140
492.26	49.793
492.60	50.138
492.95	50.702
493.30	50.093
493.64	50.630
493.99	50.186
494.34	50.648
494.68	50.137
495.03	51.269
495.37	50.023
495.72	50.975
496.07	50.673
496.41	49.071
496.76	49.648
497.11	50.608
497.45	50.163
497.80	50.384
498.14	50.338
498.49	51.610
498.84	50.336
499.18	50.952
499.53	49.905
499.87	51.212
500.22	50.871
500.56	51.845
500.91	49.423
501.26	50.450
501.60	51.400
501.95	50.458
502.29	52.624
502.64	51.629
502.98	50.257
503.33	50.320
503.67	50.116
504.02	50.374
504.36	51.240
504.71	50.269
505.06	51.229
505.40	50.510
505.75	50.338
506.09	49.854
506.44	50.518
506.78	50.511
507.13	50.833
507.47	50.909
507.82	51.824
508.16	51.368
508.51	52.258
508.85	51.192
509.19	51.020
509.54	51.735
509.88	50.953
510.23	50.694
510.57	51.754
510.92	51.165
511.26	50.514
511.61	50.622
511.95	50.574
512.30	50.583
512.64	50.833
512.98	51.125
513.33	51.606
513.67	49.787
514.02	51.136
514.36	52.540
514.70	50.636
515.05	51.534
515.39	52.047
515.74	51.633
516.08	51.258
516.42	53.163
516.77	53.010
517.11	51.498
517.46	51.919
517.80	52.787
518.14	52.056
518.49	52.392
518.83	52.898
519.17	52.656
519.52	51.500
519.86	51.341
520.20	52.890
520.55	54.279
520.89	53.528
521.23	52.835
521.58	51.801
521.92	53.154
522.26	51.678
522.61	53.084
522.95	52.425
523.29	51.491
523.64	53.659
523.98	52.249
524.32	53.136
524.66	53.217
525.01	51.716
525.35	52.726
525.69	51.847
526.04	52.648
526.38	52.044
526.72	51.902
527.06	52.040
527.41	50.804
527.75	53.312
528.09	53.693
528.43	52.772
528.78	52.735
529.12	50.061
529.46	51.133
529.80	52.042
530.15	53.022
530.49	50.400
530.83	52.089
531.17	53.590
531.51	53.243
531.86	51.742
532.20	52.216
532.54	51.505
532.88	51.990
533.22	51.280
533.57	51.852
533.91	51.234
534.25	51.154
534.59	52.288
534.93	50.625
535.27	50.272
535.62	51.160
535.96	52.166
536.30	51.303
536.64	51.513
536.98	51.626
537.32	50.889
537.66	51.400
538.01	50.362
538.35	50.162
538.69	50.734
539.03	50.487
539.37	51.246
539.71	49.320
540.05	50.850
540.39	50.831
540.73	50.582
541.07	51.655
541.42	51.859
541.76	51.806
542.10	51.746
542.44	51.589
542.78	51.910
543.12	49.712
543.46	51.148
543.80	50.878
544.14	50.449
544.48	50.984
544.82	50.225
545.16	51.529
545.50	50.193
545.84	51.277
546.18	52.391
546.52	50.998
546.86	51.409
547.20	50.169
547.54	49.967
547.88	49.936
548.22	49.689
548.56	49.371
548.90	49.360
549.24	49.226
549.58	50.682
549.92	50.962
550.26	51.136
550.60	50.069
550.94	51.197
551.28	50.549
551.62	51.402
551.96	50.105
552.30	51.058
552.64	50.507
552.98	50.847
553.32	50.034
553.66	49.830
554.00	51.338
554.34	50.449
554.68	51.431
555.02	50.776
555.36	49.965
555.69	48.782
556.03	49.933
556.37	49.523
556.71	49.523
557.05	50.280
557.39	49.055
557.73	50.176
558.07	49.964
558.41	50.796
558.75	51.359
559.08	50.783
559.42	51.247
559.76	50.147
560.10	50.607
560.44	50.664
560.78	48.370
561.12	49.406
561.45	48.957
561.79	48.978
562.13	49.095
562.47	50.000
562.81	49.861
563.15	48.227
563.48	48.740
563.82	49.315
564.16	48.855
564.50	47.721
564.84	47.788
565.17	48.649
565.51	48.690
565.85	47.843
566.19	47.902
566.52	47.688
566.86	47.438
567.20	48.644
567.54	47.660
567.88	46.334
568.21	47.460
568.55	45.551
568.89	46.644
569.23	45.365
569.56	44.575
569.90	44.340
570.24	44.492
570.57	43.591
570.91	42.793
571.25	43.298
571.59	42.651
571.92	43.289
572.26	42.490
572.60	42.763
572.93	42.369
573.27	42.709
573.61	42.071
573.95	43.101
574.28	42.035
574.62	41.448
574.96	41.027
575.29	41.125
575.63	42.429
575.97	41.057
576.30	41.450
576.64	41.724
576.98	41.517
577.31	41.220
577.65	41.390
577.98	40.732
578.32	40.290
578.66	40.985
578.99	41.087
579.33	41.201
579.67	40.477
580.00	40.901
580.34	41.410
580.67	40.818
581.01	40.814
581.35	40.172
581.68	40.208
582.02	39.794
582.35	40.669
582.69	40.857
583.02	40.239
583.36	41.434
583.70	41.434
584.03	41.223
584.37	41.238
584.70	41.536
585.04	40.386
585.37	40.541
585.71	40.531
586.04	40.734
586.38	40.987
586.72	41.397
587.05	40.532
587.39	40.449
587.72	41.175
588.06	40.768
588.39	41.481
588.73	40.481
589.06	41.882
589.40	41.549
589.73	42.063
590.07	41.352
590.40	41.469
590.73	42.779
591.07	42.816
591.40	43.315
591.74	42.424
592.07	42.845
592.41	42.869
592.74	41.685
593.08	40.906
593.41	41.284
593.75	40.162
594.08	40.932
594.41	41.251
594.75	41.590
595.08	41.553
595.42	41.506
595.75	42.308
596.09	42.283
596.42	42.122
596.75	41.494
597.09	41.948
597.42	40.978
597.75	41.915
598.09	41.913
598.42	41.924
598.76	40.657
599.09	40.365
599.42	40.138
599.76	40.776
600.09	40.328
600.42	41.088
600.76	40.107
601.09	40.911
601.42	41.514
601.76	40.417
602.09	40.040
602.42	40.406
602.76	41.233
603.09	42.290
603.42	41.390
603.76	39.977
604.09	41.218
604.42	41.704
604.76	41.206
605.09	41.590
605.42	40.359
605.75	41.225
606.09	40.911
606.42	40.866
606.75	40.149
607.09	40.142
607.42	41.036
607.75	39.789
608.08	40.816
608.42	41.596
608.75	41.118
609.08	40.102
609.41	41.218
609.75	41.210
610.08	40.339
610.41	41.341
610.74	40.255
611.07	42.342
611.41	41.904
611.74	41.478
612.07	42.909
612.40	42.025
612.73	42.000
613.07	42.457
613.40	41.443
613.73	40.902
614.06	41.613
614.39	41.112
614.72	41.368
615.06	40.861
615.39	40.446
615.72	40.031
616.05	40.883
616.38	41.134
616.71	42.815
617.05	41.991
617.38	41.972
617.71	41.562
618.04	42.788
618.37	41.869
618.70	42.004
619.03	42.105
619.36	42.227
619.69	42.746
620.03	43.475
620.36	43.249
620.69	43.151
621.02	42.920
621.35	42.756
621.68	43.224
622.01	41.796
622.34	42.814
622.67	43.802
623.00	42.993
623.33	42.173
623.66	42.816
623.99	43.152
624.32	41.797
624.65	42.302
624.99	42.776
625.32	41.926
625.65	42.825
625.98	43.505
626.31	43.624
626.64	43.429
626.97	43.308
627.30	43.059
627.63	43.806
627.96	43.650
628.29	45.144
628.62	45.197
628.95	44.811
629.28	43.978
629.61	45.830
629.94	44.095
630.26	42.326
630.59	44.233
630.92	43.870
631.25	43.830
631.58	44.945
