SpectraSuite Data File
++++++++++++++++++++++++++++++++++++
Date: Wed May 13 21:04:39 PDT 2015
User: schluterlab
Dark Spectrum Present: Yes
Reference Spectrum Present: Yes
Number of Sampled Component Spectra: 1
Spectrometers: USB2E3373
Integration Time (usec): 3000 (USB2E3373)
Spectra Averaged: 3 (USB2E3373)
Boxcar Smoothing: 0 (USB2E3373)
Correct for Electrical Dark: No (USB2E3373)
Strobe/Lamp Enabled: No (USB2E3373)
Correct for Detector Non-linearity: No (USB2E3373)
Correct for Stray Light: No (USB2E3373)
Number of Pixels in Processed Spectrum: 2048
>>>>>Begin Processed Spectral Data<<<<<
178.53	0.000
178.91	400.000
179.29	41.667
179.67	-200.000
180.04	133.333
180.42	60.000
180.80	1500.000
181.18	50.000
181.56	-225.000
181.94	-25.000
182.31	54.545
182.69	100.000
183.07	-20.000
183.45	233.333
183.83	-11.111
184.20	157.143
184.58	-33.333
184.96	-166.667
185.34	71.429
185.72	0.000
186.09	-200.000
186.47	-200.000
186.85	160.000
187.23	-50.000
187.61	200.000
187.98	900.000
188.36	25.000
188.74	0.000
189.12	0.000
189.49	70.000
189.87	33.333
190.25	120.000
190.63	1100.000
191.00	-40.000
191.38	60.000
191.76	250.000
192.14	216.667
192.51	21.053
192.89	166.667
193.27	375.000
193.65	-200.000
194.02	154.545
194.40	90.000
194.78	-700.000
195.15	40.000
195.53	-20.000
195.91	162.500
196.29	-100.000
196.66	0.000
197.04	250.000
197.42	-20.000
197.79	-60.000
198.17	-112.500
198.55	-400.000
198.92	50.000
199.30	-400.000
199.68	0.000
200.05	-350.000
200.43	116.667
200.81	-1100.000
201.18	-140.000
201.56	-33.333
201.94	125.000
202.31	52.174
202.69	-85.714
203.07	-300.000
203.44	40.000
203.82	-100.000
204.19	-50.000
204.57	0.000
204.95	-50.000
205.32	0.000
205.70	-400.000
206.08	-150.000
206.45	-200.000
206.83	275.000
207.20	-400.000
207.58	-100.000
207.96	-1300.000
208.33	-42.857
208.71	-600.000
209.08	137.500
209.46	275.000
209.84	0.000
210.21	120.000
210.59	1900.000
210.96	240.000
211.34	100.000
211.71	-550.000
212.09	-83.333
212.46	-50.000
212.84	33.333
213.22	150.000
213.59	-600.000
213.97	-600.000
214.34	-150.000
214.72	-23.077
215.09	137.500
215.47	133.333
215.84	850.000
216.22	-75.000
216.59	0.000
216.97	600.000
217.34	111.111
217.72	0.000
218.09	300.000
218.47	-100.000
218.84	-57.143
219.22	62.500
219.59	-66.667
219.97	0.000
220.34	-50.000
220.72	-200.000
221.09	0.000
221.47	-150.000
221.84	-500.000
222.22	0.000
222.59	1200.000
222.97	-200.000
223.34	-41.667
223.72	100.000
224.09	-50.000
224.46	9.091
224.84	-25.000
225.21	157.143
225.59	-300.000
225.96	16.667
226.34	40.000
226.71	-85.714
227.08	450.000
227.46	-87.500
227.83	900.000
228.21	-25.000
228.58	-250.000
228.95	23.529
229.33	-12.500
229.70	0.000
230.08	0.000
230.45	-150.000
230.82	-16.667
231.20	128.571
231.57	-225.000
231.95	1100.000
232.32	8.333
232.69	23.529
233.07	-1000.000
233.44	0.000
233.81	-500.000
234.19	-20.833
234.56	-80.000
234.93	0.000
235.31	5.263
235.68	-15.385
236.05	-7.692
236.43	-38.889
236.80	-30.303
237.17	-46.667
237.55	-29.412
237.92	-44.828
238.29	-48.148
238.67	-16.667
239.04	-22.581
239.41	-6.383
239.79	6.383
240.16	-16.279
240.53	7.143
240.91	3.571
241.28	-16.071
241.65	4.839
242.02	-7.895
242.40	-7.246
242.77	-1.449
243.14	-3.846
243.51	0.000
243.89	6.731
244.26	7.547
244.63	-11.538
245.00	-3.125
245.38	-7.563
245.75	-1.639
246.12	-3.008
246.49	-8.943
246.87	-14.286
247.24	0.000
247.61	-0.662
247.98	-3.846
248.36	-7.101
248.73	0.000
249.10	-5.051
249.47	-3.763
249.84	1.579
250.22	-0.995
250.59	0.935
250.96	-0.455
251.33	-8.612
251.70	5.439
252.08	-0.418
252.45	-1.235
252.82	-0.380
253.19	-3.891
253.56	-3.597
253.94	1.779
254.31	-1.761
254.68	2.685
255.05	3.630
255.42	-2.797
255.79	0.613
256.16	0.631
256.54	-1.270
256.91	-2.848
257.28	0.000
257.65	-3.503
258.02	-2.346
258.39	-0.877
258.76	-2.035
259.14	-0.852
259.51	-3.371
259.88	-0.813
260.25	-1.111
260.62	0.281
260.99	2.918
261.36	3.109
261.73	-0.988
262.10	-1.781
262.47	-1.728
262.85	-0.249
263.22	-0.769
263.59	-1.558
263.96	-0.243
264.33	-0.721
264.70	-0.465
265.07	2.315
265.44	2.069
265.81	-0.458
266.18	-1.367
266.55	-2.620
266.92	1.695
267.29	0.617
267.66	0.000
268.03	2.263
268.40	0.636
268.77	1.240
269.14	-0.204
269.51	1.643
269.88	-2.037
270.25	0.636
270.62	-1.844
270.99	0.591
271.36	0.794
271.73	-0.803
272.10	1.333
272.47	1.152
272.84	1.181
273.21	0.391
273.58	-1.434
273.95	-1.509
274.32	0.746
274.69	0.182
275.06	1.413
275.43	0.565
275.80	-0.709
276.17	-2.210
276.54	-0.533
276.91	-0.871
277.28	-2.347
277.65	0.175
278.02	0.357
278.39	-3.020
278.76	1.505
279.13	-0.343
279.50	-0.517
279.87	-1.630
280.23	0.721
280.60	-1.211
280.97	-0.649
281.34	1.262
281.71	-1.138
282.08	-0.855
282.45	-0.164
282.82	-1.118
283.19	1.220
283.56	-0.469
283.92	-0.765
284.29	-1.404
284.66	-2.306
285.03	0.000
285.40	0.302
285.77	1.652
286.14	0.000
286.51	1.499
286.87	-1.077
287.24	-0.885
287.61	0.753
287.98	1.176
288.35	-1.043
288.72	-0.287
289.08	2.137
289.45	0.294
289.82	0.303
290.19	0.842
290.56	-0.994
290.93	0.000
291.29	-1.094
291.66	-0.683
292.03	1.362
292.40	-0.538
292.77	1.071
293.13	-0.139
293.50	-0.261
293.87	0.400
294.24	-0.661
294.60	1.951
294.97	1.720
295.34	-1.451
295.71	-2.102
296.08	-0.262
296.44	-0.510
296.81	-0.853
297.18	1.375
297.55	0.354
297.91	0.124
298.28	-0.484
298.65	0.123
299.02	0.733
299.38	-0.736
299.75	0.721
300.12	-0.930
300.48	-0.234
300.85	0.577
301.22	0.000
301.59	-1.526
301.95	-1.278
302.32	1.050
302.69	-1.356
303.05	-0.664
303.42	-0.114
303.79	0.105
304.15	0.110
304.52	1.398
304.89	-1.218
305.25	-1.098
305.62	0.542
305.99	0.326
306.35	0.313
306.72	0.305
307.09	-0.730
307.45	-0.426
307.82	-0.526
308.19	-2.090
308.55	0.102
308.92	1.277
309.29	-0.200
309.65	-0.500
310.02	0.895
310.38	0.000
310.75	-0.789
311.12	-0.486
311.48	-0.396
311.85	0.098
312.22	0.000
312.58	0.773
312.95	-0.100
313.31	0.643
313.68	-0.859
314.05	0.567
314.41	0.480
314.78	0.380
315.14	0.741
315.51	1.142
315.87	1.668
316.24	0.367
316.61	0.913
316.97	1.019
317.34	0.713
317.70	0.357
318.07	1.686
318.43	0.000
318.80	-0.262
319.16	-0.088
319.53	-0.538
319.89	0.090
320.26	0.370
320.62	0.927
320.99	-0.872
321.35	0.842
321.72	0.000
322.08	0.461
322.45	1.110
322.81	0.924
323.18	0.805
323.54	0.632
323.91	1.174
324.27	1.080
324.64	-0.348
325.00	-0.262
325.37	1.280
325.73	0.842
326.10	-0.421
326.46	0.920
326.83	0.647
327.19	0.650
327.56	1.450
327.92	0.965
328.29	1.836
328.65	1.227
329.01	0.000
329.38	2.000
329.74	1.202
330.11	0.541
330.47	-0.260
330.84	1.264
331.20	1.281
331.56	1.087
331.93	0.861
332.29	1.129
332.66	1.186
333.02	1.911
333.38	0.789
333.75	1.195
334.11	1.997
334.48	1.831
334.84	-0.177
335.20	1.458
335.57	0.435
335.93	0.687
336.29	0.438
336.66	0.940
337.02	1.130
337.38	1.654
337.75	1.550
338.11	0.769
338.47	0.856
338.84	1.632
339.20	1.675
339.56	0.597
339.93	1.556
340.29	2.050
340.65	0.684
341.02	1.664
341.38	0.845
341.74	-0.084
342.11	1.321
342.47	0.000
342.83	0.490
343.20	2.284
343.56	0.899
343.92	2.275
344.28	1.299
344.65	1.551
345.01	1.291
345.37	1.480
345.73	2.206
346.10	1.204
346.46	0.488
346.82	0.401
347.19	0.712
347.55	1.454
347.91	1.169
348.27	0.552
348.63	1.442
349.00	1.101
349.36	1.805
349.72	1.469
350.08	1.560
350.45	1.253
350.81	1.330
351.17	2.309
351.53	1.178
351.89	1.191
352.26	0.772
352.62	1.240
352.98	1.198
353.34	0.242
353.70	1.324
354.07	1.176
354.43	1.011
354.79	0.881
355.15	1.165
355.51	1.670
355.87	0.547
356.24	0.161
356.60	1.173
356.96	1.151
357.32	1.471
357.68	1.146
358.04	1.629
358.40	1.783
358.77	1.070
359.13	1.245
359.49	1.211
359.85	0.910
360.21	0.694
360.57	0.913
360.93	0.607
361.29	1.110
361.66	1.595
362.02	1.334
362.38	1.034
362.74	1.233
363.10	1.446
363.46	1.081
363.82	1.626
364.18	1.160
364.54	1.532
364.90	0.906
365.26	1.203
365.62	0.497
365.98	0.569
366.35	0.780
366.71	0.713
367.07	0.071
367.43	1.394
367.79	0.625
368.15	2.110
368.51	0.141
368.87	1.675
369.23	0.996
369.59	1.198
369.95	0.798
370.31	0.976
370.67	0.869
371.03	1.262
371.39	1.136
371.75	1.643
372.11	1.567
372.47	1.081
372.83	1.179
373.19	0.504
373.55	0.434
373.91	1.839
374.27	0.968
374.63	1.422
374.99	0.557
375.35	0.890
375.71	0.951
376.07	1.165
376.42	1.337
376.78	1.453
377.14	1.356
377.50	1.369
377.86	1.394
378.22	1.770
378.58	0.757
378.94	1.875
379.30	1.312
379.66	1.295
380.02	0.306
380.38	0.783
380.74	1.195
381.09	0.663
381.45	1.209
381.81	1.047
382.17	0.882
382.53	1.477
382.89	0.784
383.25	0.432
383.61	1.332
383.97	1.875
384.32	0.315
384.68	1.049
385.04	0.977
385.40	0.996
385.76	1.460
386.12	1.485
386.48	0.690
386.83	1.439
387.19	0.308
387.55	1.288
387.91	1.292
388.27	1.295
388.62	0.999
388.98	0.626
389.34	1.128
389.70	0.916
390.06	1.375
390.42	1.740
390.77	1.473
391.13	0.694
391.49	1.202
391.85	0.575
392.20	0.815
392.56	0.825
392.92	0.878
393.28	1.453
393.64	0.061
393.99	0.918
394.35	0.988
394.71	0.962
395.07	-0.063
395.42	0.975
395.78	0.708
396.14	1.332
396.50	0.634
396.85	1.593
397.21	0.687
397.57	0.559
397.92	1.138
398.28	0.959
398.64	1.457
399.00	1.172
399.35	1.192
399.71	0.641
400.07	0.301
400.42	0.502
400.78	1.088
401.14	0.552
401.49	0.839
401.85	0.799
402.21	0.557
402.57	1.410
402.92	2.128
403.28	0.313
403.63	1.302
403.99	0.704
404.35	1.496
404.70	-0.121
405.06	1.233
405.42	0.314
405.77	0.749
406.13	1.371
406.49	1.019
406.84	1.404
407.20	1.007
407.55	0.844
407.91	1.257
408.27	0.686
408.62	1.719
408.98	1.048
409.34	0.619
409.69	1.494
410.05	1.244
410.40	0.243
410.76	1.324
411.11	1.119
411.47	1.924
411.83	0.936
412.18	0.693
412.54	1.441
412.89	0.313
413.25	0.531
413.60	0.878
413.96	0.874
414.31	1.110
414.67	1.841
415.03	0.812
415.38	1.189
415.74	0.975
416.09	0.925
416.45	0.478
416.80	1.275
417.16	1.687
417.51	1.072
417.87	1.124
418.22	0.905
418.58	0.460
418.93	0.628
419.29	0.858
419.64	1.209
420.00	1.016
420.35	0.598
420.71	0.488
421.06	1.353
421.42	1.277
421.77	1.272
422.12	0.974
422.48	0.872
422.83	1.240
423.19	0.403
423.54	1.296
423.90	1.366
424.25	1.560
424.61	0.924
424.96	0.591
425.31	1.066
425.67	0.705
426.02	1.590
426.38	1.306
426.73	0.489
427.09	1.501
427.44	1.292
427.79	0.713
428.15	1.346
428.50	0.725
428.85	1.538
429.21	1.069
429.56	1.382
429.92	1.197
430.27	1.022
430.62	1.364
430.98	1.481
431.33	1.451
431.68	1.651
432.04	1.070
432.39	1.039
432.74	1.042
433.10	2.034
433.45	1.183
433.80	1.149
434.16	1.256
434.51	1.087
434.86	1.060
435.22	1.585
435.57	0.921
435.92	0.965
436.28	1.321
436.63	1.270
436.98	1.175
437.34	1.343
437.69	1.358
438.04	1.188
438.39	1.308
438.75	1.132
439.10	1.446
439.45	1.392
439.81	1.478
440.16	1.797
440.51	1.546
440.86	1.541
441.22	1.033
441.57	1.410
441.92	1.711
442.27	0.974
442.63	0.969
442.98	0.463
443.33	1.806
443.68	1.423
444.03	1.639
444.39	1.537
444.74	0.994
445.09	1.597
445.44	2.761
445.79	0.929
446.15	2.163
446.50	1.707
446.85	1.550
447.20	1.307
447.55	1.455
447.91	1.404
448.26	1.715
448.61	1.381
448.96	1.538
449.31	1.942
449.66	1.851
450.02	1.762
450.37	1.528
450.72	1.550
451.07	1.755
451.42	0.998
451.77	0.852
452.12	1.901
452.47	1.808
452.83	1.179
453.18	2.292
453.53	0.946
453.88	1.867
454.23	1.360
454.58	1.716
454.93	1.411
455.28	2.055
455.63	1.061
455.98	0.913
456.34	0.890
456.69	1.342
457.04	1.362
457.39	1.443
457.74	1.137
458.09	1.777
458.44	1.351
458.79	1.867
459.14	1.798
459.49	0.854
459.84	1.071
460.19	1.080
460.54	2.129
460.89	1.014
461.24	0.863
461.59	1.389
461.94	2.276
462.29	0.613
462.64	1.451
462.99	1.744
463.34	2.210
463.69	1.546
464.04	1.140
464.39	1.098
464.74	1.474
465.09	1.736
465.44	2.132
465.79	1.840
466.14	0.570
466.49	1.408
466.84	1.554
467.19	1.338
467.54	2.398
467.89	1.823
468.24	1.352
468.59	1.338
468.94	1.724
469.29	1.718
469.64	1.953
469.99	2.552
470.34	2.023
470.68	2.007
471.03	1.763
471.38	2.017
471.73	2.881
472.08	2.062
472.43	1.715
472.78	1.623
473.13	1.847
473.48	1.174
473.83	1.820
474.17	1.172
474.52	1.553
474.87	1.387
475.22	1.329
475.57	1.617
475.92	1.581
476.27	1.981
476.61	1.642
476.96	1.199
477.31	2.050
477.66	1.751
478.01	1.319
478.36	1.635
478.70	1.289
479.05	1.720
479.40	2.132
479.75	1.275
480.10	1.632
480.45	1.324
480.79	1.543
481.14	1.570
481.49	1.776
481.84	1.508
482.19	1.667
482.53	1.286
482.88	1.582
483.23	1.203
483.58	1.465
483.92	1.021
484.27	1.189
484.62	1.598
484.97	1.949
485.31	1.677
485.66	1.960
486.01	1.692
486.36	1.711
486.70	1.494
487.05	1.768
487.40	1.734
487.75	1.866
488.09	1.720
488.44	1.717
488.79	1.930
489.13	1.710
489.48	1.368
489.83	1.653
490.17	0.908
490.52	1.917
490.87	1.530
491.22	1.649
491.56	1.917
491.91	1.680
492.26	2.031
492.60	1.443
492.95	1.992
493.30	1.938
493.64	1.151
493.99	1.594
494.34	1.734
494.68	1.909
495.03	0.692
495.37	1.655
495.72	1.955
496.07	1.461
496.41	1.404
496.76	1.782
497.11	1.502
497.45	1.751
497.80	1.565
498.14	1.461
498.49	1.109
498.84	1.265
499.18	1.394
499.53	1.773
499.87	0.970
500.22	0.996
500.56	1.956
500.91	1.962
501.26	2.463
501.60	1.765
501.95	1.677
502.29	1.650
502.64	1.929
502.98	1.879
503.33	1.606
503.67	1.850
504.02	1.373
504.36	2.031
504.71	1.575
505.06	2.191
505.40	1.237
505.75	2.136
506.09	1.788
506.44	1.714
506.78	1.727
507.13	1.715
507.47	1.113
507.82	1.361
508.16	1.953
508.51	1.860
508.85	1.348
509.19	1.323
509.54	1.877
509.88	2.258
510.23	2.421
510.57	2.489
510.92	1.670
511.26	1.980
511.61	1.866
511.95	0.717
512.30	1.388
512.64	2.043
512.98	1.662
513.33	1.972
513.67	1.760
514.02	2.166
514.36	1.854
514.70	1.963
515.05	1.580
515.39	1.946
515.74	1.599
516.08	1.062
516.42	1.613
516.77	1.406
517.11	0.823
517.46	1.741
517.80	1.937
518.14	1.286
518.49	1.206
518.83	2.148
519.17	1.386
519.52	0.965
519.86	1.457
520.20	0.667
520.55	1.617
520.89	1.075
521.23	2.308
521.58	1.707
521.92	1.886
522.26	1.887
522.61	1.810
522.95	2.202
523.29	1.714
523.64	2.543
523.98	1.652
524.32	1.827
524.66	1.234
525.01	1.507
525.35	1.777
525.69	1.060
526.04	1.564
526.38	2.677
526.72	1.775
527.06	1.676
527.41	1.059
527.75	1.602
528.09	1.634
528.43	1.764
528.78	1.680
529.12	2.329
529.46	1.983
529.80	0.906
530.15	1.094
530.49	1.550
530.83	1.963
531.17	1.712
531.51	1.618
531.86	1.220
532.20	1.861
532.54	0.828
532.88	1.906
533.22	2.290
533.57	1.854
533.91	2.516
534.25	2.409
534.59	1.544
534.93	1.531
535.27	2.611
535.62	1.250
535.96	2.212
536.30	2.460
536.64	1.299
536.98	1.472
537.32	1.281
537.66	1.763
538.01	1.456
538.35	1.174
538.69	1.338
539.03	1.678
539.37	1.408
539.71	2.524
540.05	1.619
540.39	1.652
540.73	1.047
541.07	2.585
541.42	2.896
541.76	1.691
542.10	1.490
542.44	1.317
542.78	0.625
543.12	2.291
543.46	1.313
543.80	1.765
544.14	1.789
544.48	1.725
544.82	1.883
545.16	1.420
545.50	1.823
545.84	1.613
546.18	1.473
546.52	2.752
546.86	1.413
547.20	0.929
547.54	1.358
547.88	1.687
548.22	2.085
548.56	1.935
548.90	1.421
549.24	2.708
549.58	1.637
549.92	1.981
550.26	3.469
550.60	0.676
550.94	1.194
551.28	1.665
551.62	1.729
551.96	2.416
552.30	0.582
552.64	1.836
552.98	2.202
553.32	1.730
553.66	1.541
554.00	1.224
554.34	0.366
554.68	1.566
555.02	1.422
555.36	1.059
555.69	1.675
556.03	1.072
556.37	1.138
556.71	1.542
557.05	1.919
557.39	1.507
557.73	1.664
558.07	1.583
558.41	2.195
558.75	2.463
559.08	0.401
559.42	1.967
559.76	2.370
560.10	0.999
560.44	2.358
560.78	0.504
561.12	1.402
561.45	2.109
561.79	2.407
562.13	1.899
562.47	1.357
562.81	0.866
563.15	0.779
563.48	1.652
563.82	1.231
564.16	1.760
564.50	1.696
564.84	1.014
565.17	2.517
565.51	1.471
565.85	1.399
566.19	1.391
566.52	1.442
566.86	1.011
567.20	1.283
567.54	1.439
567.88	1.176
568.21	1.738
568.55	1.878
568.89	1.595
569.23	1.879
569.56	1.919
569.90	1.687
570.24	1.480
570.57	1.945
570.91	1.964
571.25	1.115
571.59	1.654
571.92	1.731
572.26	1.752
572.60	1.632
572.93	1.781
573.27	1.670
573.61	1.756
573.95	1.957
574.28	1.985
574.62	1.728
574.96	1.772
575.29	1.680
575.63	1.528
575.97	1.630
576.30	1.569
576.64	1.572
576.98	1.917
577.31	1.793
577.65	1.679
577.98	1.366
578.32	1.778
578.66	1.703
578.99	1.737
579.33	1.699
579.67	1.349
580.00	1.441
580.34	1.600
580.67	1.715
581.01	1.772
581.35	1.837
581.68	1.685
582.02	1.748
582.35	1.911
582.69	1.894
583.02	1.941
583.36	1.790
583.70	1.822
584.03	1.779
584.37	1.475
584.70	1.678
585.04	1.544
585.37	1.531
585.71	1.761
586.04	1.504
586.38	1.842
586.72	1.573
587.05	1.974
587.39	1.819
587.72	1.569
588.06	1.642
588.39	1.763
588.73	1.895
589.06	1.455
589.40	1.823
589.73	1.617
590.07	1.750
590.40	1.363
590.73	1.499
591.07	1.839
591.40	1.783
591.74	0.978
592.07	1.871
592.41	1.931
592.74	1.890
593.08	1.709
593.41	1.927
593.75	1.712
594.08	1.831
594.41	1.755
594.75	2.024
595.08	1.942
595.42	1.181
595.75	1.880
596.09	1.809
596.42	1.471
596.75	1.624
597.09	1.410
597.42	1.795
597.75	1.600
598.09	1.776
598.42	1.879
598.76	1.889
599.09	1.761
599.42	1.548
599.76	1.352
600.09	1.355
600.42	1.733
600.76	1.589
601.09	1.695
601.42	1.490
601.76	1.931
602.09	1.784
602.42	2.229
602.76	1.258
603.09	1.396
603.42	2.039
603.76	1.403
604.09	1.818
604.42	1.046
604.76	1.921
605.09	1.722
605.42	2.204
605.75	1.113
606.09	1.490
606.42	1.538
606.75	1.602
607.09	1.064
607.42	2.233
607.75	1.094
608.08	1.713
608.42	1.500
608.75	1.768
609.08	1.764
609.41	2.285
609.75	0.857
610.08	1.775
610.41	1.798
610.74	1.540
611.07	1.854
611.41	2.149
611.74	1.915
612.07	1.824
612.40	1.892
612.73	0.714
613.07	1.608
613.40	2.203
613.73	2.167
614.06	1.548
614.39	1.612
614.72	2.943
615.06	1.556
615.39	1.435
615.72	1.728
616.05	1.577
616.38	1.947
616.71	0.900
617.05	2.027
617.38	2.033
617.71	1.348
618.04	1.950
618.37	1.640
618.70	1.294
619.03	1.031
619.36	1.352
619.69	1.901
620.03	1.060
620.36	1.322
620.69	0.785
621.02	2.077
621.35	1.063
621.68	1.793
622.01	1.699
622.34	1.031
622.67	1.958
623.00	2.280
623.33	1.645
623.66	0.967
623.99	2.026
624.32	1.174
624.65	2.226
624.99	1.396
625.32	2.091
625.65	1.318
625.98	1.580
626.31	1.633
626.64	1.634
626.97	1.903
627.30	2.053
627.63	1.817
627.96	1.039
628.29	2.140
628.62	1.354
628.95	1.303
629.28	0.296
629.61	2.775
629.94	1.838
630.26	1.281
630.59	2.398
630.92	-0.100
631.25	1.030
631.58	2.891
631.91	0.848
632.24	0.988
632.57	1.111
632.90	2.100
633.23	0.240
633.56	2.998
633.89	2.273
634.22	2.709
634.55	2.192
634.88	0.613
635.20	2.250
635.53	0.000
635.86	0.256
636.19	1.737
636.52	2.073
636.85	1.086
637.18	0.365
637.51	1.373
637.83	2.219
638.16	1.200
638.49	0.668
638.82	1.046
639.15	0.266
639.48	1.872
639.81	1.250
640.13	1.831
640.46	2.401
640.79	0.863
641.12	1.183
641.45	1.019
641.77	2.798
642.10	1.815
642.43	2.673
642.76	1.420
643.09	1.597
643.41	1.914
643.74	1.292
644.07	1.456
644.40	1.658
644.73	-0.169
645.05	0.873
645.38	0.166
645.71	3.231
646.04	-1.010
646.36	1.389
646.69	1.573
647.02	1.093
647.35	1.828
647.67	0.924
648.00	-0.362
648.33	3.390
648.66	0.167
648.98	1.863
649.31	1.687
649.64	0.469
649.96	2.844
650.29	0.163
650.62	0.329
650.94	1.034
651.27	0.883
651.60	1.224
651.92	1.971
652.25	1.005
652.58	2.640
652.90	0.337
653.23	0.170
653.56	0.661
653.88	-0.683
654.21	0.000
654.54	0.831
654.86	1.463
655.19	0.700
655.52	2.192
655.84	1.870
656.17	2.176
656.49	2.791
