SpectraSuite Data File
++++++++++++++++++++++++++++++++++++
Date: Wed May 13 20:48:14 PDT 2015
User: schluterlab
Dark Spectrum Present: Yes
Reference Spectrum Present: Yes
Number of Sampled Component Spectra: 1
Spectrometers: USB2E3373
Integration Time (usec): 3000 (USB2E3373)
Spectra Averaged: 3 (USB2E3373)
Boxcar Smoothing: 0 (USB2E3373)
Correct for Electrical Dark: No (USB2E3373)
Strobe/Lamp Enabled: No (USB2E3373)
Correct for Detector Non-linearity: No (USB2E3373)
Correct for Stray Light: No (USB2E3373)
Number of Pixels in Processed Spectrum: 2048
>>>>>Begin Processed Spectral Data<<<<<
178.53	0.000
178.91	-850.000
179.29	-925.000
179.67	-88.889
180.04	-775.000
180.42	1650.000
180.80	640.000
181.18	-700.000
181.56	442.857
181.94	0.000
182.31	-371.429
182.69	800.000
183.07	-412.500
183.45	-211.111
183.83	309.091
184.20	-180.000
184.58	1150.000
184.96	3700.000
185.34	-380.000
185.72	-387.500
186.09	-950.000
186.47	1600.000
186.85	1550.000
187.23	2500.000
187.61	-1066.667
187.98	1000.000
188.36	300.000
188.74	254.545
189.12	-520.000
189.49	330.000
189.87	-2000.000
190.25	-700.000
190.63	250.000
191.00	230.769
191.38	450.000
191.76	-425.000
192.14	725.000
192.51	187.500
192.89	533.333
193.27	212.500
193.65	-600.000
194.02	300.000
194.40	440.000
194.78	240.000
195.15	383.333
195.53	400.000
195.91	-1050.000
196.29	231.250
196.66	200.000
197.04	-210.000
197.42	0.000
197.79	340.000
198.17	-2000.000
198.55	357.143
198.92	350.000
199.30	520.000
199.68	0.000
200.05	244.444
200.43	471.429
200.81	1400.000
201.18	766.667
201.56	-866.667
201.94	277.778
202.31	455.556
202.69	241.667
203.07	280.000
203.44	0.000
203.82	700.000
204.19	371.429
204.57	321.429
204.95	437.500
205.32	733.333
205.70	254.545
206.08	242.857
206.45	1600.000
206.83	181.250
207.20	300.000
207.58	240.000
207.96	200.000
208.33	362.500
208.71	-383.333
209.08	514.286
209.46	366.667
209.84	300.000
210.21	-700.000
210.59	900.000
210.96	-225.000
211.34	900.000
211.71	360.000
212.09	383.333
212.46	0.000
212.84	833.333
213.22	725.000
213.59	-2200.000
213.97	333.333
214.34	485.714
214.72	409.091
215.09	500.000
215.47	-1300.000
215.84	-1150.000
216.22	900.000
216.59	228.571
216.97	725.000
217.34	254.545
217.72	-333.333
218.09	0.000
218.47	-2600.000
218.84	322.222
219.22	314.286
219.59	866.667
219.97	-257.143
220.34	620.000
220.72	-1066.667
221.09	235.714
221.47	1075.000
221.84	-500.000
222.22	0.000
222.59	950.000
222.97	-950.000
223.34	800.000
223.72	238.462
224.09	480.000
224.46	1350.000
224.84	-2200.000
225.21	-620.000
225.59	-2500.000
225.96	360.000
226.34	145.000
226.71	1300.000
227.08	337.500
227.46	270.000
227.83	-425.000
228.21	-1300.000
228.58	488.889
228.95	-1450.000
229.33	-1150.000
229.70	833.333
230.08	385.714
230.45	-440.000
230.82	250.000
231.20	350.000
231.57	357.143
231.95	208.333
232.32	159.091
232.69	181.818
233.07	400.000
233.44	176.923
233.81	-733.333
234.19	184.211
234.56	183.333
234.93	133.333
235.31	245.455
235.68	138.462
236.05	242.857
236.43	81.818
236.80	89.474
237.17	2400.000
237.55	80.952
237.92	100.000
238.29	128.571
238.67	77.419
239.04	48.276
239.41	52.778
239.79	60.870
240.16	73.810
240.53	54.545
240.91	37.255
241.28	60.000
241.65	54.000
242.02	53.623
242.40	32.258
242.77	33.333
243.14	43.011
243.51	32.584
243.89	34.118
244.26	31.111
244.63	30.108
245.00	24.468
245.38	24.752
245.75	24.299
246.12	23.853
246.49	29.927
246.87	29.600
247.24	32.308
247.61	19.286
247.98	19.608
248.36	9.459
248.73	15.287
249.10	15.287
249.47	19.209
249.84	25.134
250.22	18.182
250.59	11.243
250.96	21.212
251.33	16.114
251.70	20.297
252.08	13.333
252.45	16.143
252.82	11.739
253.19	17.021
253.56	14.118
253.94	16.598
254.31	15.625
254.68	19.231
255.05	13.653
255.42	15.041
255.79	13.235
256.16	14.801
256.54	12.721
256.91	11.388
257.28	7.194
257.65	11.551
258.02	13.354
258.39	9.148
258.76	10.368
259.14	12.202
259.51	9.726
259.88	8.385
260.25	11.480
260.62	13.006
260.99	9.317
261.36	14.715
261.73	10.315
262.10	9.012
262.47	10.141
262.85	10.864
263.22	9.402
263.59	13.390
263.96	10.714
264.33	11.488
264.70	9.737
265.07	10.997
265.44	10.354
265.81	8.029
266.18	7.789
266.55	9.512
266.92	11.302
267.29	9.028
267.66	8.716
268.03	9.091
268.40	10.280
268.77	7.637
269.14	8.784
269.51	12.867
269.88	7.692
270.25	10.158
270.62	8.090
270.99	10.968
271.36	9.227
271.73	7.710
272.10	9.565
272.47	9.032
272.84	11.039
273.21	8.805
273.58	6.769
273.95	9.224
274.32	7.645
274.69	8.779
275.06	6.496
275.43	9.149
275.80	8.617
276.17	9.776
276.54	9.148
276.91	6.917
277.28	8.594
277.65	9.091
278.02	7.867
278.39	9.570
278.76	7.818
279.13	8.302
279.50	7.263
279.87	6.375
280.23	6.387
280.60	5.996
280.97	6.285
281.34	8.673
281.71	8.364
282.08	8.253
282.45	7.636
282.82	8.526
283.19	4.635
283.56	7.719
283.92	9.983
284.29	8.466
284.66	7.078
285.03	4.702
285.40	6.162
285.77	6.397
286.14	7.254
286.51	8.167
286.87	8.034
287.24	7.818
287.61	7.865
287.98	6.331
288.35	5.071
288.72	8.411
289.08	10.016
289.45	7.743
289.82	5.854
290.19	5.808
290.56	6.432
290.93	4.532
291.29	6.135
291.66	8.555
292.03	8.430
292.40	8.370
292.77	5.769
293.13	7.164
293.50	6.560
293.87	3.852
294.24	4.593
294.60	4.512
294.97	5.959
295.34	6.770
295.71	7.528
296.08	5.840
296.44	6.190
296.81	6.209
297.18	7.724
297.55	4.354
297.91	4.617
298.28	6.024
298.65	7.050
299.02	5.270
299.38	4.648
299.75	4.043
300.12	4.598
300.48	4.875
300.85	5.425
301.22	4.713
301.59	4.924
301.95	4.030
302.32	4.621
302.69	5.376
303.05	6.424
303.42	5.802
303.79	5.776
304.15	5.245
304.52	4.171
304.89	4.413
305.25	5.568
305.62	6.229
305.99	6.257
306.35	5.034
306.72	4.709
307.09	5.438
307.45	6.081
307.82	4.911
308.19	4.415
308.55	6.472
308.92	4.834
309.29	3.801
309.65	4.984
310.02	5.285
310.38	5.161
310.75	4.435
311.12	5.732
311.48	5.538
311.85	6.394
312.22	4.787
312.58	5.509
312.95	5.069
313.31	4.078
313.68	5.094
314.05	6.509
314.41	5.226
314.78	5.237
315.14	5.065
315.51	5.355
315.87	4.455
316.24	5.561
316.61	4.288
316.97	4.990
317.34	3.620
317.70	5.736
318.07	4.524
318.43	5.088
318.80	5.248
319.16	5.085
319.53	4.503
319.89	5.714
320.26	5.600
320.62	4.960
320.99	5.253
321.35	5.657
321.72	6.366
322.08	5.232
322.45	5.672
322.81	6.395
323.18	6.262
323.54	5.566
323.91	6.887
324.27	5.163
324.64	4.753
325.00	4.959
325.37	5.551
325.73	5.386
326.10	6.002
326.46	6.093
326.83	5.608
327.19	6.234
327.56	5.226
327.92	5.512
328.29	6.300
328.65	5.985
329.01	5.325
329.38	5.920
329.74	5.633
330.11	3.959
330.47	6.520
330.84	6.801
331.20	6.011
331.56	5.872
331.93	5.926
332.29	6.566
332.66	7.168
333.02	5.759
333.38	6.504
333.75	6.863
334.11	6.050
334.48	7.010
334.84	5.331
335.20	6.091
335.57	5.802
335.93	4.643
336.29	5.678
336.66	5.320
337.02	5.611
337.38	6.481
337.75	5.348
338.11	5.013
338.47	5.249
338.84	5.591
339.20	6.055
339.56	6.296
339.93	4.727
340.29	6.069
340.65	6.239
341.02	6.370
341.38	6.228
341.74	5.614
342.11	6.026
342.47	4.846
342.83	6.507
343.20	6.407
343.56	6.740
343.92	6.053
344.28	6.293
344.65	6.105
345.01	5.387
345.37	4.031
345.73	6.176
346.10	5.797
346.46	6.102
346.82	6.590
347.19	5.681
347.55	5.090
347.91	5.987
348.27	6.574
348.63	5.936
349.00	5.906
349.36	5.583
349.72	5.373
350.08	5.511
350.45	5.289
350.81	5.930
351.17	6.483
351.53	5.242
351.89	4.538
352.26	6.393
352.62	5.613
352.98	5.267
353.34	5.752
353.70	4.419
354.07	5.887
354.43	5.794
354.79	5.390
355.15	5.267
355.51	5.276
355.87	5.633
356.24	5.293
356.60	4.972
356.96	4.988
357.32	5.969
357.68	5.827
358.04	6.097
358.40	5.938
358.77	6.103
359.13	4.815
359.49	4.941
359.85	4.206
360.21	4.705
360.57	5.603
360.93	5.538
361.29	4.837
361.66	5.341
362.02	5.672
362.38	5.171
362.74	5.357
363.10	4.589
363.46	4.916
363.82	4.384
364.18	5.066
364.54	5.572
364.90	5.807
365.26	4.779
365.62	5.478
365.98	4.164
366.35	4.871
366.71	4.555
367.07	5.317
367.43	4.499
367.79	5.425
368.15	6.322
368.51	3.924
368.87	5.425
369.23	4.682
369.59	5.865
369.95	5.147
370.31	4.986
370.67	4.275
371.03	5.918
371.39	4.300
371.75	5.368
372.11	5.050
372.47	5.645
372.83	4.827
373.19	5.564
373.55	4.361
373.91	5.302
374.27	4.399
374.63	4.364
374.99	5.085
375.35	3.350
375.71	4.524
376.07	5.075
376.42	5.021
376.78	4.970
377.14	4.342
377.50	4.768
377.86	3.989
378.22	4.930
378.58	4.449
378.94	4.463
379.30	3.944
379.66	3.871
380.02	4.607
380.38	3.643
380.74	4.502
381.09	4.829
381.45	5.101
381.81	5.344
382.17	4.586
382.53	3.962
382.89	5.123
383.25	3.565
383.61	4.275
383.97	4.941
384.32	4.866
384.68	4.461
385.04	4.548
385.40	3.901
385.76	5.221
386.12	3.433
386.48	4.783
386.83	4.682
387.19	5.009
387.55	4.638
387.91	4.172
388.27	4.292
388.62	4.917
388.98	4.054
389.34	4.506
389.70	4.721
390.06	4.563
390.42	4.086
390.77	4.135
391.13	3.829
391.49	4.315
391.85	3.756
392.20	3.281
392.56	4.104
392.92	4.591
393.28	3.550
393.64	4.916
393.99	5.254
394.35	4.218
394.71	4.329
395.07	4.673
395.42	5.068
395.78	4.453
396.14	3.911
396.50	4.511
396.85	4.577
397.21	5.055
397.57	4.712
397.92	4.387
398.28	3.756
398.64	4.540
399.00	4.197
399.35	4.005
399.71	3.646
400.07	4.967
400.42	4.663
400.78	4.946
401.14	3.902
401.49	4.179
401.85	4.174
402.21	3.892
402.57	4.318
402.92	4.224
403.28	3.998
403.63	4.270
403.99	4.395
404.35	3.818
404.70	4.017
405.06	3.786
405.42	4.180
405.77	3.886
406.13	4.345
406.49	3.962
406.84	4.784
407.20	3.369
407.55	4.020
407.91	4.333
408.27	3.893
408.62	3.913
408.98	4.228
409.34	4.428
409.69	4.645
410.05	4.709
410.40	3.425
410.76	4.182
411.11	4.403
411.47	3.898
411.83	4.459
412.18	4.391
412.54	4.047
412.89	5.060
413.25	4.191
413.60	4.324
413.96	5.039
414.31	4.070
414.67	4.753
415.03	4.570
415.38	4.575
415.74	4.244
416.09	5.160
416.45	4.284
416.80	4.494
417.16	4.357
417.51	4.180
417.87	3.854
418.22	5.300
418.58	5.617
418.93	5.221
419.29	4.456
419.64	4.975
420.00	4.512
420.35	4.638
420.71	4.722
421.06	3.938
421.42	4.269
421.77	4.372
422.12	3.313
422.48	3.400
422.83	4.368
423.19	4.862
423.54	4.237
423.90	4.638
424.25	4.076
424.61	3.869
424.96	3.732
425.31	4.430
425.67	4.157
426.02	4.286
426.38	4.457
426.73	3.745
427.09	3.830
427.44	4.370
427.79	4.428
428.15	5.000
428.50	4.681
428.85	4.708
429.21	4.638
429.56	3.577
429.92	3.976
430.27	4.071
430.62	3.379
430.98	4.203
431.33	4.691
431.68	4.503
432.04	5.112
432.39	4.397
432.74	3.830
433.10	4.358
433.45	4.606
433.80	3.991
434.16	4.434
434.51	4.737
434.86	4.960
435.22	4.169
435.57	4.620
435.92	4.272
436.28	4.923
436.63	5.464
436.98	4.522
437.34	5.307
437.69	4.609
438.04	4.103
438.39	3.582
438.75	4.416
439.10	4.469
439.45	4.014
439.81	4.109
440.16	5.082
440.51	4.042
440.86	4.748
441.22	4.283
441.57	4.565
441.92	4.504
442.27	4.252
442.63	4.581
442.98	5.239
443.33	4.348
443.68	4.388
444.03	4.539
444.39	4.138
444.74	4.870
445.09	4.420
445.44	4.429
445.79	4.750
446.15	4.764
446.50	4.039
446.85	3.443
447.20	4.437
447.55	4.467
447.91	4.744
448.26	4.341
448.61	4.353
448.96	4.319
449.31	4.106
449.66	4.446
450.02	4.457
450.37	4.025
450.72	4.512
451.07	3.534
451.42	3.830
451.77	4.463
452.12	4.619
452.47	4.664
452.83	4.254
453.18	4.829
453.53	4.020
453.88	3.544
454.23	4.244
454.58	4.664
454.93	4.704
455.28	4.800
455.63	4.490
455.98	4.643
456.34	4.962
456.69	5.072
457.04	3.901
457.39	3.916
457.74	4.295
458.09	4.888
458.44	4.333
458.79	4.176
459.14	4.233
459.49	5.079
459.84	3.934
460.19	4.125
460.54	4.398
460.89	4.772
461.24	4.918
461.59	4.997
461.94	4.439
462.29	5.104
462.64	4.467
462.99	4.880
463.34	5.067
463.69	4.816
464.04	4.928
464.39	5.101
464.74	4.337
465.09	4.825
465.44	4.377
465.79	4.418
466.14	4.269
466.49	4.449
466.84	4.320
467.19	4.647
467.54	5.000
467.89	4.802
468.24	4.887
468.59	5.556
468.94	4.337
469.29	5.270
469.64	6.024
469.99	4.736
470.34	4.161
470.68	4.741
471.03	5.034
471.38	4.309
471.73	5.263
472.08	5.395
472.43	4.271
472.78	3.950
473.13	4.172
473.48	5.119
473.83	3.963
474.17	3.796
474.52	5.025
474.87	4.904
475.22	4.527
475.57	5.051
475.92	4.195
476.27	4.961
476.61	4.633
476.96	4.673
477.31	4.500
477.66	4.267
478.01	4.600
478.36	4.707
478.70	4.102
479.05	4.313
479.40	4.555
479.75	4.626
480.10	3.926
480.45	4.236
480.79	3.918
481.14	4.599
481.49	4.461
481.84	4.115
482.19	4.407
482.53	5.000
482.88	4.514
483.23	4.860
483.58	4.914
483.92	3.796
484.27	4.401
484.62	3.922
484.97	4.218
485.31	3.664
485.66	3.343
486.01	3.408
486.36	3.335
486.70	3.496
487.05	3.586
487.40	3.958
487.75	3.916
488.09	4.095
488.44	3.836
488.79	4.231
489.13	4.011
489.48	3.997
489.83	3.798
490.17	4.209
490.52	3.853
490.87	3.709
491.22	4.684
491.56	3.417
491.91	3.537
492.26	4.180
492.60	4.286
492.95	3.976
493.30	4.393
493.64	3.920
493.99	4.039
494.34	4.995
494.68	4.625
495.03	4.746
495.37	4.328
495.72	3.752
496.07	4.408
496.41	4.159
496.76	4.661
497.11	4.187
497.45	4.099
497.80	3.983
498.14	4.300
498.49	4.585
498.84	4.650
499.18	4.000
499.53	3.989
499.87	4.007
500.22	4.616
500.56	4.612
500.91	4.423
501.26	4.362
501.60	4.509
501.95	4.033
502.29	5.014
502.64	4.190
502.98	4.395
503.33	4.845
503.67	4.362
504.02	4.677
504.36	4.960
504.71	4.299
505.06	4.386
505.40	4.716
505.75	4.629
506.09	3.936
506.44	4.637
506.78	4.822
507.13	4.139
507.47	4.596
507.82	4.559
508.16	4.407
508.51	5.023
508.85	4.320
509.19	4.235
509.54	4.439
509.88	4.225
510.23	4.113
510.57	4.902
510.92	4.816
511.26	4.317
511.61	5.031
511.95	4.175
512.30	4.242
512.64	4.299
512.98	5.198
513.33	5.300
513.67	4.696
514.02	4.491
514.36	4.861
514.70	4.815
515.05	4.462
515.39	5.384
515.74	4.786
516.08	5.757
516.42	5.605
516.77	5.574
517.11	4.828
517.46	5.248
517.80	4.704
518.14	4.517
518.49	4.959
518.83	5.511
519.17	4.734
519.52	4.980
519.86	5.191
520.20	5.780
520.55	5.147
520.89	4.866
521.23	5.187
521.58	4.262
521.92	5.634
522.26	5.125
522.61	4.922
522.95	5.648
523.29	4.808
523.64	5.366
523.98	5.484
524.32	5.006
524.66	5.532
525.01	5.331
525.35	4.833
525.69	5.357
526.04	5.171
526.38	4.393
526.72	5.153
527.06	5.022
527.41	4.579
527.75	5.659
528.09	5.588
528.43	5.800
528.78	5.778
529.12	4.909
529.46	5.328
529.80	5.569
530.15	5.483
530.49	4.985
530.83	5.506
531.17	6.136
531.51	5.318
531.86	5.290
532.20	6.128
532.54	4.997
532.88	5.905
533.22	4.809
533.57	5.864
533.91	5.418
534.25	5.164
534.59	4.881
534.93	5.116
535.27	5.009
535.62	5.250
535.96	5.336
536.30	5.022
536.64	5.666
536.98	5.508
537.32	4.542
537.66	3.933
538.01	5.662
538.35	5.947
538.69	5.552
539.03	5.523
539.37	5.112
539.71	4.407
540.05	5.163
540.39	5.249
540.73	4.657
541.07	6.554
541.42	6.001
541.76	6.387
542.10	5.175
542.44	5.430
542.78	6.456
543.12	5.182
543.46	5.443
543.80	6.116
544.14	4.685
544.48	5.524
544.82	4.682
545.16	5.335
545.50	4.884
545.84	5.376
546.18	5.657
546.52	5.299
546.86	5.704
547.20	6.339
547.54	6.279
547.88	5.804
548.22	5.479
548.56	5.535
548.90	4.994
549.24	5.051
549.58	6.003
549.92	5.288
550.26	5.540
550.60	5.947
550.94	5.493
551.28	4.974
551.62	6.254
551.96	5.965
552.30	6.485
552.64	5.747
552.98	5.898
553.32	6.204
553.66	6.339
554.00	5.491
554.34	5.107
554.68	5.937
555.02	5.430
555.36	5.776
555.69	5.480
556.03	5.518
556.37	5.866
556.71	4.775
557.05	5.322
557.39	5.878
557.73	6.140
558.07	5.946
558.41	4.703
558.75	5.584
559.08	6.637
559.42	4.460
559.76	6.324
560.10	5.567
560.44	6.359
560.78	4.790
561.12	5.541
561.45	6.584
561.79	5.867
562.13	5.902
562.47	5.260
562.81	5.439
563.15	5.886
563.48	5.305
563.82	5.284
564.16	5.363
564.50	4.492
564.84	5.120
565.17	5.019
565.51	5.431
565.85	5.584
566.19	5.072
566.52	5.446
566.86	6.028
567.20	5.542
567.54	5.194
567.88	4.834
568.21	6.085
568.55	5.106
568.89	4.718
569.23	4.947
569.56	5.101
569.90	4.491
570.24	4.916
570.57	4.046
570.91	4.331
571.25	4.231
571.59	4.919
571.92	4.637
572.26	4.737
572.60	4.595
572.93	4.648
573.27	4.525
573.61	4.578
573.95	4.341
574.28	4.246
574.62	4.349
574.96	4.229
575.29	4.413
575.63	4.294
575.97	4.374
576.30	4.647
576.64	4.145
576.98	4.011
577.31	4.274
577.65	4.213
577.98	4.101
578.32	4.130
578.66	4.465
578.99	4.086
579.33	4.115
579.67	4.233
580.00	4.220
580.34	4.319
580.67	4.396
581.01	4.610
581.35	4.029
581.68	4.203
582.02	3.971
582.35	4.051
582.69	4.340
583.02	4.122
583.36	4.335
583.70	4.720
584.03	3.997
584.37	4.480
584.70	4.284
585.04	4.501
585.37	4.310
585.71	4.464
586.04	4.397
586.38	4.572
586.72	4.446
587.05	4.374
587.39	4.222
587.72	4.586
588.06	4.242
588.39	4.252
588.73	4.752
589.06	4.550
589.40	4.545
589.73	4.646
590.07	4.947
590.40	4.604
590.73	4.489
591.07	5.128
591.40	5.061
591.74	5.195
592.07	5.148
592.41	4.919
592.74	4.457
593.08	4.930
593.41	4.556
593.75	4.685
594.08	4.894
594.41	4.454
594.75	4.399
595.08	4.868
595.42	4.764
595.75	4.915
596.09	5.107
596.42	5.540
596.75	5.445
597.09	5.628
597.42	5.059
597.75	4.916
598.09	4.913
598.42	4.983
598.76	4.621
599.09	4.637
599.42	4.840
599.76	4.612
600.09	4.481
600.42	4.346
600.76	5.000
601.09	4.335
601.42	4.833
601.76	4.858
602.09	4.783
602.42	5.334
602.76	5.401
603.09	4.917
603.42	4.842
603.76	4.573
604.09	4.653
604.42	5.137
604.76	5.567
605.09	4.849
605.42	5.130
605.75	4.801
606.09	4.392
606.42	4.863
606.75	4.894
607.09	5.107
607.42	5.006
607.75	4.726
608.08	4.342
608.42	5.468
608.75	5.050
609.08	5.227
609.41	5.188
609.75	4.621
610.08	5.514
610.41	4.842
610.74	5.298
611.07	5.089
611.41	5.201
611.74	5.832
612.07	5.901
612.40	5.352
612.73	5.263
613.07	5.172
613.40	5.845
613.73	4.615
614.06	5.269
614.39	5.191
614.72	5.053
615.06	5.567
615.39	5.096
615.72	5.164
616.05	4.997
616.38	5.114
616.71	5.226
617.05	5.654
617.38	4.991
617.71	5.105
618.04	5.469
618.37	5.145
618.70	5.414
619.03	6.579
619.36	5.703
619.69	5.634
620.03	5.838
620.36	6.350
620.69	6.918
621.02	5.973
621.35	6.030
621.68	5.530
622.01	5.031
622.34	6.127
622.67	5.475
623.00	5.356
623.33	4.861
623.66	5.718
623.99	5.817
624.32	5.706
624.65	6.073
624.99	6.020
625.32	5.286
625.65	5.710
625.98	5.995
626.31	7.232
626.64	6.286
626.97	5.653
627.30	5.736
627.63	6.563
627.96	7.149
628.29	6.824
628.62	6.130
628.95	7.264
629.28	5.931
629.61	7.149
629.94	6.857
630.26	6.292
630.59	7.626
630.92	5.843
631.25	7.305
631.58	6.807
631.91	6.592
632.24	6.435
632.57	7.975
632.90	7.237
633.23	7.606
633.56	7.797
633.89	7.475
634.22	7.378
634.55	5.680
634.88	5.988
635.20	6.810
635.53	6.988
635.86	6.807
636.19	7.647
636.52	7.036
636.85	6.758
637.18	5.530
637.51	8.629
637.83	6.165
638.16	8.056
638.49	7.683
638.82	7.459
639.15	7.750
639.48	8.354
639.81	7.775
640.13	8.724
640.46	8.456
640.79	9.379
641.12	6.465
641.45	7.542
641.77	6.775
642.10	9.211
642.43	7.658
642.76	7.276
643.09	9.049
643.41	7.587
643.74	9.259
644.07	7.317
644.40	9.049
644.73	8.819
645.05	10.143
645.38	6.793
645.71	8.213
646.04	8.638
646.36	10.518
646.69	8.863
647.02	9.014
647.35	8.935
647.67	8.319
648.00	9.268
648.33	6.766
648.66	7.879
648.98	9.745
649.31	7.623
649.64	7.922
649.96	8.197
650.29	8.689
650.62	8.414
650.94	10.049
651.27	8.784
651.60	9.151
651.92	9.105
652.25	8.306
652.58	8.411
652.90	8.689
653.23	7.858
653.56	7.402
653.88	9.667
654.21	9.163
654.54	7.756
654.86	7.944
655.19	6.892
655.52	4.124
655.84	3.585
656.17	4.280
