SpectraSuite Data File
++++++++++++++++++++++++++++++++++++
Date: Wed May 13 20:48:50 PDT 2015
User: schluterlab
Dark Spectrum Present: Yes
Reference Spectrum Present: Yes
Number of Sampled Component Spectra: 1
Spectrometers: USB2E3373
Integration Time (usec): 3000 (USB2E3373)
Spectra Averaged: 3 (USB2E3373)
Boxcar Smoothing: 0 (USB2E3373)
Correct for Electrical Dark: No (USB2E3373)
Strobe/Lamp Enabled: No (USB2E3373)
Correct for Detector Non-linearity: No (USB2E3373)
Correct for Stray Light: No (USB2E3373)
Number of Pixels in Processed Spectrum: 2048
>>>>>Begin Processed Spectral Data<<<<<
178.53	0.000
178.91	-750.000
179.29	-800.000
179.67	-133.333
180.04	-775.000
180.42	1150.000
180.80	580.000
181.18	-350.000
181.56	242.857
181.94	0.000
182.31	-357.143
182.69	933.333
183.07	-287.500
183.45	-366.667
183.83	345.455
184.20	-150.000
184.58	1200.000
184.96	2400.000
185.34	-440.000
185.72	-237.500
186.09	-850.000
186.47	1400.000
186.85	1500.000
187.23	2400.000
187.61	-800.000
187.98	725.000
188.36	227.273
188.74	245.455
189.12	-420.000
189.49	300.000
189.87	-2500.000
190.25	-750.000
190.63	300.000
191.00	246.154
191.38	400.000
191.76	-600.000
192.14	525.000
192.51	375.000
192.89	666.667
193.27	350.000
193.65	-525.000
194.02	280.000
194.40	540.000
194.78	330.000
195.15	325.000
195.53	420.000
195.91	-850.000
196.29	187.500
196.66	168.421
197.04	-160.000
197.42	0.000
197.79	300.000
198.17	-2400.000
198.55	428.571
198.92	237.500
199.30	440.000
199.68	0.000
200.05	222.222
200.43	371.429
200.81	2200.000
201.18	800.000
201.56	-1000.000
201.94	266.667
202.31	333.333
202.69	216.667
203.07	310.000
203.44	0.000
203.82	575.000
204.19	414.286
204.57	321.429
204.95	262.500
205.32	800.000
205.70	309.091
206.08	221.429
206.45	1250.000
206.83	231.250
207.20	483.333
207.58	360.000
207.96	238.889
208.33	525.000
208.71	-500.000
209.08	485.714
209.46	411.111
209.84	309.091
210.21	-933.333
210.59	550.000
210.96	-300.000
211.34	1450.000
211.71	420.000
212.09	466.667
212.46	0.000
212.84	933.333
213.22	925.000
213.59	-1800.000
213.97	316.667
214.34	471.429
214.72	390.909
215.09	620.000
215.47	-1350.000
215.84	-1500.000
216.22	966.667
216.59	264.286
216.97	725.000
217.34	318.182
217.72	-416.667
218.09	0.000
218.47	-3000.000
218.84	400.000
219.22	314.286
219.59	1066.667
219.97	-342.857
220.34	460.000
220.72	-1000.000
221.09	250.000
221.47	700.000
221.84	-400.000
222.22	0.000
222.59	875.000
222.97	-1500.000
223.34	660.000
223.72	261.538
224.09	540.000
224.46	1000.000
224.84	-3000.000
225.21	-540.000
225.59	-3200.000
225.96	400.000
226.34	195.000
226.71	1750.000
227.08	350.000
227.46	380.000
227.83	-450.000
228.21	-1600.000
228.58	422.222
228.95	-1150.000
229.33	-1100.000
229.70	1133.333
230.08	342.857
230.45	-220.000
230.82	283.333
231.20	400.000
231.57	414.286
231.95	266.667
232.32	127.273
232.69	190.909
233.07	342.857
233.44	169.231
233.81	-766.667
234.19	205.263
234.56	291.667
234.93	266.667
235.31	290.909
235.68	261.538
236.05	278.571
236.43	139.394
236.80	200.000
237.17	3000.000
237.55	142.857
237.92	157.143
238.29	185.714
238.67	135.484
239.04	168.966
239.41	116.667
239.79	76.087
240.16	119.048
240.53	115.909
240.91	84.314
241.28	84.000
241.65	90.000
242.02	89.855
242.40	91.935
242.77	88.333
243.14	79.570
243.51	89.888
243.89	85.882
244.26	71.111
244.63	70.968
245.00	61.702
245.38	83.168
245.75	77.570
246.12	61.468
246.49	76.642
246.87	76.000
247.24	73.077
247.61	64.286
247.98	64.706
248.36	62.838
248.73	69.427
249.10	69.427
249.47	63.842
249.84	64.171
250.22	62.032
250.59	57.396
250.96	61.616
251.33	61.611
251.70	65.347
252.08	60.952
252.45	59.641
252.82	54.348
253.19	56.596
253.56	59.608
253.94	59.751
254.31	57.812
254.68	58.846
255.05	57.934
255.42	52.846
255.79	58.456
256.16	56.318
256.54	48.763
256.91	56.940
257.28	54.317
257.65	54.785
258.02	55.901
258.39	51.420
258.76	57.860
259.14	54.464
259.51	57.143
259.88	50.311
260.25	58.006
260.62	54.624
260.99	56.522
261.36	56.156
261.73	51.862
262.10	52.035
262.47	53.803
262.85	58.217
263.22	54.131
263.59	56.695
263.96	49.451
264.33	51.697
264.70	56.579
265.07	55.754
265.44	52.778
265.81	51.582
266.18	54.020
266.55	51.463
266.92	53.071
267.29	53.472
267.66	49.541
268.03	52.727
268.40	51.168
268.77	48.210
269.14	50.450
269.51	49.210
269.88	53.613
270.25	50.564
270.62	53.258
270.99	51.828
271.36	53.004
271.73	52.103
272.10	49.565
272.47	50.753
272.84	52.165
273.21	49.476
273.58	49.563
273.95	48.218
274.32	48.967
274.69	50.107
275.06	46.063
275.43	51.064
275.80	51.102
276.17	51.324
276.54	52.807
276.91	50.988
277.28	48.047
277.65	49.710
278.02	49.275
278.39	52.930
278.76	48.000
279.13	46.038
279.50	46.741
279.87	49.004
280.23	50.499
280.60	47.969
280.97	49.168
281.34	49.558
281.71	47.273
282.08	50.480
282.45	45.455
282.82	49.023
283.19	45.989
283.56	47.895
283.92	48.731
284.29	47.795
284.66	48.457
285.03	46.655
285.40	46.127
285.77	47.811
286.14	45.423
286.51	47.833
286.87	45.128
287.24	47.068
287.61	47.191
287.98	46.753
288.35	42.789
288.72	45.016
289.08	42.567
289.45	45.799
289.82	44.553
290.19	43.799
290.56	42.266
290.93	41.088
291.29	44.018
291.66	42.183
292.03	43.314
292.40	42.584
292.77	41.568
293.13	41.194
293.50	41.691
293.87	42.370
294.24	39.852
294.60	40.175
294.97	39.535
295.34	39.915
295.71	40.909
296.08	38.462
296.44	41.403
296.81	37.384
297.18	39.973
297.55	38.259
297.91	36.939
298.28	40.295
298.65	37.206
299.02	38.340
299.38	39.177
299.75	38.275
300.12	37.165
300.48	37.750
300.85	35.265
301.22	36.051
301.59	36.364
301.95	37.909
302.32	35.430
302.69	34.528
303.05	37.939
303.42	35.185
303.79	35.561
304.15	34.382
304.52	36.037
304.89	36.237
305.25	34.571
305.62	34.768
305.99	36.836
306.35	34.004
306.72	36.211
307.09	35.960
307.45	36.824
307.82	33.705
308.19	34.437
308.55	34.951
308.92	34.909
309.29	34.108
309.65	34.464
310.02	34.778
310.38	35.699
310.75	36.325
311.12	33.982
311.48	36.677
311.85	34.801
312.22	37.565
312.58	35.135
312.95	37.170
313.31	36.311
313.68	37.838
314.05	39.152
314.41	37.990
314.78	37.563
315.14	37.339
315.51	38.929
315.87	38.416
316.24	39.027
316.61	38.596
316.97	39.041
317.34	38.845
317.70	39.962
318.07	41.001
318.43	41.389
318.80	42.549
319.16	42.467
319.53	41.557
319.89	43.048
320.26	45.600
320.62	44.742
320.99	45.354
321.35	45.960
321.72	46.304
322.08	46.693
322.45	47.662
322.81	47.868
323.18	47.592
323.54	46.846
323.91	48.396
324.27	47.897
324.64	50.699
325.00	49.775
325.37	52.138
325.73	51.257
326.10	51.545
326.46	53.315
326.83	53.322
327.19	54.740
327.56	55.488
327.92	54.943
328.29	55.546
328.65	58.103
329.01	55.054
329.38	55.227
329.74	56.602
330.11	59.095
330.47	58.586
330.84	57.445
331.20	56.831
331.56	58.073
331.93	60.000
332.29	58.474
332.66	59.115
333.02	57.952
333.38	59.801
333.75	60.160
334.11	59.875
334.48	60.603
334.84	61.213
335.20	60.545
335.57	60.381
335.93	60.625
336.29	61.722
336.66	62.128
337.02	60.181
337.38	61.574
337.75	60.517
338.11	61.952
338.47	63.628
338.84	62.970
339.20	61.009
339.56	63.230
339.93	62.091
340.29	63.225
340.65	63.369
341.02	62.653
341.38	64.680
341.74	65.000
342.11	65.240
342.47	63.877
342.83	63.613
343.20	64.589
343.56	63.521
343.92	64.123
344.28	64.711
344.65	65.434
345.01	64.478
345.37	65.009
345.73	64.129
346.10	66.240
346.46	65.169
346.82	64.250
347.19	64.996
347.55	63.957
347.91	65.939
348.27	66.475
348.63	65.301
349.00	64.725
349.36	64.778
349.72	65.597
350.08	64.344
350.45	65.094
350.81	64.825
351.17	65.154
351.53	66.503
351.89	66.337
352.26	65.114
352.62	65.918
352.98	66.532
353.34	66.393
353.70	66.612
354.07	67.419
354.43	66.587
354.79	66.935
355.15	65.443
355.51	67.226
355.87	67.918
356.24	67.020
356.60	64.956
356.96	68.142
357.32	66.803
357.68	67.559
358.04	66.112
358.40	66.429
358.77	66.119
359.13	65.904
359.49	67.294
359.85	66.984
360.21	67.783
360.57	69.183
360.93	67.846
361.29	66.213
361.66	66.176
362.02	67.313
362.38	68.973
362.74	65.997
363.10	66.173
363.46	67.792
363.82	69.766
364.18	66.226
364.54	68.053
364.90	68.626
365.26	67.721
365.62	68.225
365.98	67.275
366.35	66.332
366.71	67.968
367.07	67.516
367.43	68.723
367.79	69.165
368.15	69.109
368.51	67.369
368.87	66.881
369.23	67.374
369.59	69.225
369.95	67.500
370.31	67.165
370.67	65.725
371.03	68.015
371.39	68.076
371.75	66.471
372.11	67.425
372.47	67.742
372.83	70.101
373.19	68.208
373.55	67.406
373.91	68.999
374.27	67.285
374.63	68.218
374.99	67.444
375.35	67.271
375.71	66.621
376.07	67.284
376.42	67.813
376.78	67.263
377.14	68.182
377.50	69.603
377.86	67.221
378.22	66.119
378.58	66.917
378.94	66.625
379.30	67.557
379.66	67.766
380.02	67.015
380.38	66.849
380.74	65.966
381.09	66.809
381.45	69.023
381.81	67.076
382.17	68.854
382.53	67.107
382.89	66.790
383.25	67.230
383.61	67.100
383.97	66.917
384.32	65.128
384.68	66.233
385.04	66.872
385.40	67.059
385.76	66.032
386.12	67.163
386.48	67.086
386.83	67.479
387.19	68.275
387.55	67.285
387.91	66.203
388.27	66.401
388.62	66.994
388.98	64.742
389.34	66.333
389.70	66.217
390.06	66.477
390.42	66.148
390.77	65.522
391.13	67.262
391.49	64.848
391.85	65.754
392.20	64.606
392.56	66.414
392.92	66.039
393.28	66.568
393.64	66.487
393.99	64.936
394.35	66.067
394.71	65.307
395.07	62.928
395.42	67.491
395.78	65.712
396.14	65.673
396.50	66.291
396.85	65.289
397.21	64.118
397.57	63.484
397.92	65.084
398.28	63.621
398.64	64.337
399.00	65.193
399.35	64.918
399.71	63.773
400.07	64.400
400.42	64.540
400.78	64.777
401.14	63.293
401.49	63.881
401.85	62.734
402.21	63.473
402.57	63.294
402.92	63.493
403.28	66.021
403.63	64.542
403.99	64.076
404.35	63.030
404.70	63.429
405.06	61.794
405.42	63.818
405.77	62.057
406.13	62.698
406.49	62.389
406.84	62.197
407.20	61.879
407.55	61.710
407.91	64.000
408.27	62.668
408.62	61.288
408.98	61.642
409.34	61.624
409.69	62.710
410.05	61.214
410.40	61.835
410.76	61.350
411.11	61.158
411.47	60.895
411.83	62.248
412.18	59.122
412.54	61.519
412.89	60.783
413.25	60.685
413.60	60.222
413.96	59.320
414.31	59.721
414.67	61.280
415.03	60.530
415.38	60.052
415.74	59.807
416.09	60.483
416.45	59.438
416.80	60.939
417.16	61.528
417.51	59.788
417.87	58.253
418.22	60.442
418.58	58.941
418.93	59.459
419.29	58.689
419.64	58.942
420.00	59.451
420.35	59.478
420.71	58.757
421.06	59.129
421.42	58.421
421.77	58.576
422.12	57.271
422.48	57.097
422.83	59.056
423.19	57.459
423.54	58.038
423.90	58.319
424.25	58.961
424.61	58.155
424.96	57.668
425.31	56.811
425.67	56.461
426.02	57.429
426.38	57.204
426.73	56.992
427.09	56.960
427.44	56.757
427.79	57.619
428.15	56.607
428.50	56.056
428.85	57.032
429.21	55.329
429.56	56.506
429.92	56.215
430.27	56.306
430.62	55.044
430.98	55.423
431.33	54.691
431.68	56.126
432.04	54.846
432.39	54.940
432.74	55.476
433.10	56.310
433.45	55.102
433.80	54.324
434.16	54.647
434.51	54.579
434.86	55.473
435.22	54.586
435.57	54.468
435.92	54.476
436.28	55.575
436.63	54.415
436.98	53.463
437.34	54.144
437.69	55.368
438.04	54.019
438.39	53.851
438.75	54.387
439.10	54.134
439.45	52.715
439.81	54.381
440.16	52.230
440.51	53.954
440.86	52.519
441.22	52.948
441.57	52.866
441.92	53.224
442.27	52.906
442.63	51.764
442.98	52.732
443.33	51.250
443.68	50.955
444.03	52.318
444.39	53.019
444.74	52.435
445.09	52.453
445.44	51.558
445.79	51.559
446.15	51.932
446.50	51.535
446.85	51.233
447.20	50.943
447.55	51.480
447.91	51.296
448.26	51.141
448.61	50.085
448.96	51.218
449.31	52.081
449.66	51.322
450.02	51.142
450.37	50.567
450.72	50.987
451.07	50.030
451.42	49.605
451.77	49.031
452.12	50.173
452.47	49.316
452.83	49.825
453.18	50.306
453.53	50.588
453.88	49.734
454.23	49.372
454.58	49.425
454.93	51.367
455.28	49.938
455.63	49.272
455.98	50.476
456.34	49.372
456.69	49.280
457.04	49.969
457.39	48.860
457.74	49.100
458.09	49.569
458.44	49.259
458.79	47.668
459.14	48.476
459.49	48.628
459.84	47.424
460.19	47.731
460.54	47.049
460.89	47.504
461.24	49.848
461.59	49.680
461.94	47.904
462.29	48.487
462.64	48.054
462.99	46.454
463.34	47.933
463.69	47.530
464.04	46.667
464.39	46.551
464.74	46.762
465.09	46.683
465.44	46.870
465.79	46.532
466.14	45.813
466.49	46.274
466.84	47.402
467.19	46.771
467.54	46.688
467.89	45.318
468.24	46.306
468.59	46.947
468.94	46.243
469.29	45.823
469.64	46.720
469.99	46.752
470.34	46.499
470.68	46.264
471.03	46.259
471.38	45.865
471.73	44.837
472.08	47.039
472.43	45.917
472.78	46.346
473.13	46.149
473.48	44.944
473.83	45.976
474.17	45.177
474.52	45.037
474.87	45.943
475.22	45.386
475.57	44.653
475.92	45.937
476.27	43.912
476.61	44.291
476.96	44.365
477.31	44.322
477.66	45.241
478.01	43.858
478.36	44.315
478.70	44.029
479.05	44.462
479.40	44.780
479.75	43.874
480.10	44.334
480.45	42.932
480.79	43.383
481.14	43.395
481.49	43.047
481.84	43.484
482.19	43.617
482.53	43.624
482.88	43.136
483.23	43.411
483.58	43.449
483.92	42.221
484.27	42.004
484.62	42.629
484.97	41.387
485.31	41.473
485.66	40.069
486.01	41.231
486.36	40.783
486.70	41.581
487.05	41.791
487.40	40.756
487.75	40.170
488.09	41.128
488.44	40.560
488.79	40.976
489.13	40.909
489.48	40.498
489.83	41.692
490.17	42.262
490.52	41.187
490.87	42.153
491.22	41.564
491.56	41.093
491.91	41.275
492.26	41.341
492.60	41.198
492.95	40.739
493.30	41.542
493.64	42.324
493.99	41.504
494.34	41.721
494.68	41.484
495.03	41.353
495.37	40.810
495.72	42.057
496.07	41.253
496.41	40.265
496.76	41.249
497.11	40.928
497.45	41.174
497.80	41.651
498.14	40.821
498.49	40.927
498.84	40.988
499.18	41.000
499.53	41.121
499.87	41.379
500.22	41.168
500.56	40.971
500.91	40.288
501.26	40.967
501.60	41.243
501.95	39.918
502.29	41.050
502.64	41.387
502.98	40.252
503.33	39.397
503.67	40.882
504.02	39.710
504.36	39.307
504.71	40.401
505.06	39.952
505.40	39.912
505.75	39.585
506.09	39.018
506.44	40.010
506.78	40.477
507.13	40.384
507.47	39.798
507.82	40.375
508.16	41.287
508.51	40.335
508.85	39.573
509.19	40.612
509.54	39.643
509.88	40.237
510.23	40.771
510.57	40.402
510.92	40.238
511.26	39.157
511.61	39.678
511.95	38.413
512.30	39.449
512.64	39.387
512.98	39.443
513.33	40.364
513.67	38.474
514.02	39.881
514.36	39.705
514.70	39.292
515.05	38.929
515.39	40.045
515.74	40.146
516.08	39.799
516.42	40.011
516.77	39.744
517.11	39.623
517.46	40.519
517.80	40.302
518.14	39.027
518.49	39.848
518.83	39.091
519.17	39.030
519.52	38.993
519.86	39.190
520.20	39.711
520.55	40.515
520.89	39.173
521.23	39.686
521.58	39.916
521.92	39.682
522.26	39.109
522.61	39.564
522.95	38.306
523.29	39.257
523.64	39.451
523.98	40.665
524.32	38.842
524.66	38.064
525.01	38.480
525.35	38.228
525.69	39.101
526.04	39.564
526.38	38.743
526.72	38.712
527.06	39.925
527.41	38.366
527.75	39.486
528.09	40.013
528.43	40.025
528.78	38.722
529.12	39.152
529.46	39.069
529.80	40.037
530.15	40.187
530.49	37.477
530.83	38.987
531.17	39.948
531.51	40.272
531.86	39.677
532.20	39.831
532.54	39.078
532.88	38.447
533.22	37.601
533.57	39.012
533.91	38.230
534.25	38.518
534.59	38.560
534.93	39.024
535.27	37.960
535.62	38.034
535.96	38.983
536.30	39.097
536.64	37.669
536.98	38.222
537.32	38.446
537.66	37.867
538.01	39.039
538.35	38.397
538.69	38.545
539.03	37.817
539.37	37.508
539.71	37.330
540.05	38.039
540.39	38.272
540.73	37.969
541.07	38.027
541.42	37.704
541.76	37.871
542.10	37.710
542.44	37.086
542.78	38.735
543.12	36.916
543.46	38.295
543.80	37.931
544.14	35.558
544.48	37.841
544.82	36.883
545.16	38.647
545.50	37.082
545.84	37.164
546.18	35.825
546.52	37.164
546.86	37.388
547.20	37.222
547.54	37.408
547.88	37.755
548.22	35.928
548.56	36.038
548.90	36.620
549.24	38.047
549.58	37.585
549.92	36.882
550.26	37.358
550.60	35.961
550.94	37.958
551.28	36.503
551.62	38.030
551.96	37.825
552.30	37.474
552.64	37.458
552.98	37.153
553.32	37.289
553.66	37.560
554.00	36.239
554.34	36.784
554.68	37.411
555.02	36.037
555.36	36.674
555.69	36.942
556.03	36.406
556.37	38.336
556.71	36.698
557.05	36.555
557.39	35.269
557.73	37.474
558.07	36.911
558.41	35.528
558.75	36.223
559.08	36.167
559.42	37.113
559.76	36.985
560.10	34.975
560.44	36.408
560.78	36.727
561.12	36.148
561.45	36.115
561.79	35.860
562.13	35.949
562.47	36.270
562.81	36.262
563.15	36.054
563.48	35.610
563.82	35.812
564.16	36.167
564.50	35.482
564.84	35.651
565.17	35.521
565.51	35.847
565.85	35.914
566.19	35.254
566.52	36.732
566.86	35.684
567.20	36.439
567.54	35.046
567.88	34.275
568.21	36.243
568.55	34.125
568.89	35.457
569.23	34.715
569.56	34.170
569.90	34.717
570.24	33.405
570.57	33.594
570.91	32.418
571.25	32.180
571.59	32.636
571.92	33.180
572.26	32.496
572.60	33.123
572.93	32.444
573.27	32.978
573.61	32.300
573.95	33.385
574.28	32.286
574.62	31.924
574.96	31.756
575.29	32.129
575.63	32.292
575.97	32.023
576.30	31.625
576.64	31.286
576.98	31.697
577.31	31.885
577.65	32.248
577.98	32.067
578.32	31.533
578.66	32.055
578.99	31.819
579.33	31.760
579.67	31.087
580.00	30.976
580.34	32.155
580.67	31.387
581.01	31.707
581.35	32.011
581.68	31.802
582.02	31.590
582.35	32.043
582.69	32.177
583.02	31.931
583.36	32.004
583.70	31.618
584.03	31.426
584.37	31.357
584.70	31.766
585.04	31.360
585.37	31.477
585.71	31.649
586.04	31.964
586.38	31.452
586.72	32.698
587.05	31.432
587.39	31.240
587.72	31.152
588.06	31.083
588.39	31.331
588.73	32.004
589.06	31.723
589.40	32.391
589.73	32.277
590.07	32.135
590.40	32.225
590.73	32.084
591.07	32.316
591.40	32.602
591.74	33.160
592.07	32.592
592.41	32.162
592.74	31.423
593.08	31.412
593.41	32.205
593.75	31.387
594.08	32.015
594.41	32.167
594.75	31.682
595.08	31.210
595.42	32.154
595.75	31.766
596.09	32.257
596.42	31.984
596.75	32.250
597.09	32.641
597.42	31.788
597.75	31.350
598.09	31.478
598.42	32.045
598.76	31.455
599.09	31.699
599.42	31.441
599.76	31.735
600.09	31.840
600.42	31.665
600.76	31.571
601.09	31.803
601.42	30.974
601.76	31.537
602.09	31.225
602.42	31.568
602.76	31.923
603.09	32.258
603.42	32.058
603.76	31.745
604.09	31.252
604.42	31.553
604.76	32.096
605.09	31.630
605.42	31.424
605.75	31.498
606.09	31.232
606.42	31.794
606.75	30.900
607.09	31.603
607.42	31.793
607.75	30.970
608.08	31.437
608.42	30.928
608.75	30.884
609.08	31.082
609.41	30.319
609.75	31.968
610.08	31.008
610.41	31.611
610.74	31.220
611.07	32.213
611.41	31.501
611.74	31.976
612.07	32.195
612.40	32.004
612.73	32.053
613.07	31.304
613.40	32.227
613.73	30.834
614.06	31.452
614.39	31.148
614.72	31.737
615.06	30.830
615.39	31.635
615.72	31.237
616.05	31.313
616.38	32.407
616.71	32.185
617.05	32.038
617.38	31.810
617.71	31.411
618.04	32.091
618.37	31.520
618.70	32.047
619.03	32.303
619.36	31.704
619.69	33.239
620.03	32.692
620.36	31.952
620.69	33.973
621.02	32.301
621.35	32.811
621.68	32.321
622.01	32.430
622.34	32.829
622.67	32.395
623.00	32.575
623.33	31.022
623.66	32.237
623.99	32.180
624.32	32.311
624.65	31.780
624.99	31.941
625.32	32.151
625.65	32.307
625.98	32.052
626.31	32.659
626.64	33.388
626.97	33.167
627.30	33.084
627.63	33.716
627.96	32.717
628.29	33.158
628.62	33.577
628.95	33.774
629.28	33.668
629.61	34.280
629.94	34.571
630.26	32.984
630.59	34.032
630.92	33.812
631.25	31.589
631.58	32.232
