SpectraSuite Data File
++++++++++++++++++++++++++++++++++++
Date: Wed May 13 20:41:15 PDT 2015
User: schluterlab
Dark Spectrum Present: Yes
Reference Spectrum Present: Yes
Number of Sampled Component Spectra: 1
Spectrometers: USB2E3373
Integration Time (usec): 3000 (USB2E3373)
Spectra Averaged: 3 (USB2E3373)
Boxcar Smoothing: 0 (USB2E3373)
Correct for Electrical Dark: No (USB2E3373)
Strobe/Lamp Enabled: No (USB2E3373)
Correct for Detector Non-linearity: No (USB2E3373)
Correct for Stray Light: No (USB2E3373)
Number of Pixels in Processed Spectrum: 2048
>>>>>Begin Processed Spectral Data<<<<<
178.53	0.000
178.91	-725.000
179.29	-650.000
179.67	-172.222
180.04	-1075.000
180.42	1850.000
180.80	740.000
181.18	-625.000
181.56	500.000
181.94	0.000
182.31	-371.429
182.69	1133.333
183.07	-400.000
183.45	-411.111
183.83	454.545
184.20	-200.000
184.58	1350.000
184.96	3700.000
185.34	-760.000
185.72	-450.000
186.09	-1700.000
186.47	1800.000
186.85	1850.000
187.23	3200.000
187.61	-1366.667
187.98	875.000
188.36	309.091
188.74	400.000
189.12	-540.000
189.49	400.000
189.87	-4400.000
190.25	-900.000
190.63	278.571
191.00	307.692
191.38	600.000
191.76	-850.000
192.14	1075.000
192.51	512.500
192.89	700.000
193.27	387.500
193.65	-925.000
194.02	350.000
194.40	700.000
194.78	380.000
195.15	416.667
195.53	400.000
195.91	-1300.000
196.29	243.750
196.66	226.316
197.04	-270.000
197.42	0.000
197.79	360.000
198.17	-2900.000
198.55	457.143
198.92	512.500
199.30	640.000
199.68	0.000
200.05	255.556
200.43	642.857
200.81	2400.000
201.18	1300.000
201.56	-1066.667
201.94	366.667
202.31	433.333
202.69	383.333
203.07	320.000
203.44	0.000
203.82	950.000
204.19	442.857
204.57	414.286
204.95	500.000
205.32	1033.333
205.70	400.000
206.08	221.429
206.45	1900.000
206.83	237.500
207.20	533.333
207.58	340.000
207.96	233.333
208.33	537.500
208.71	-566.667
209.08	542.857
209.46	444.444
209.84	427.273
210.21	-900.000
210.59	975.000
210.96	-337.500
211.34	2050.000
211.71	490.000
212.09	566.667
212.46	0.000
212.84	1066.667
213.22	1225.000
213.59	-2800.000
213.97	633.333
214.34	400.000
214.72	509.091
215.09	620.000
215.47	-1600.000
215.84	-2050.000
216.22	1166.667
216.59	271.429
216.97	875.000
217.34	327.273
217.72	-416.667
218.09	0.000
218.47	-4200.000
218.84	577.778
219.22	457.143
219.59	1366.667
219.97	-357.143
220.34	680.000
220.72	-1366.667
221.09	350.000
221.47	1175.000
221.84	-650.000
222.22	0.000
222.59	1025.000
222.97	-1450.000
223.34	860.000
223.72	323.077
224.09	680.000
224.46	1500.000
224.84	-2800.000
225.21	-760.000
225.59	-3100.000
225.96	510.000
226.34	160.000
226.71	1900.000
227.08	462.500
227.46	350.000
227.83	-775.000
228.21	-1500.000
228.58	344.444
228.95	-1700.000
229.33	-1850.000
229.70	1133.333
230.08	628.571
230.45	-420.000
230.82	308.333
231.20	733.333
231.57	357.143
231.95	325.000
232.32	145.455
232.69	263.636
233.07	414.286
233.44	192.308
233.81	-1366.667
234.19	205.263
234.56	275.000
234.93	258.333
235.31	272.727
235.68	207.692
236.05	264.286
236.43	109.091
236.80	168.421
237.17	3200.000
237.55	214.286
237.92	110.714
238.29	95.238
238.67	106.452
239.04	137.931
239.41	102.778
239.79	82.609
240.16	90.476
240.53	75.000
240.91	66.667
241.28	78.000
241.65	60.000
242.02	57.971
242.40	51.613
242.77	40.000
243.14	44.086
243.51	55.056
243.89	47.059
244.26	32.222
244.63	38.710
245.00	30.851
245.38	28.713
245.75	28.972
246.12	28.440
246.49	40.876
246.87	36.000
247.24	33.846
247.61	27.143
247.98	24.837
248.36	20.270
248.73	22.293
249.10	24.204
249.47	22.034
249.84	23.529
250.22	20.856
250.59	15.976
250.96	21.717
251.33	20.853
251.70	19.802
252.08	17.143
252.45	12.108
252.82	19.130
253.19	19.149
253.56	14.118
253.94	17.842
254.31	15.625
254.68	18.077
255.05	16.605
255.42	11.789
255.79	13.971
256.16	16.606
256.54	13.074
256.91	16.014
257.28	10.791
257.65	16.172
258.02	12.112
258.39	10.726
258.76	11.706
259.14	13.095
259.51	10.334
259.88	6.832
260.25	10.876
260.62	11.272
260.99	8.696
261.36	13.814
261.73	8.596
262.10	11.628
262.47	8.169
262.85	11.421
263.22	6.838
263.59	10.541
263.96	10.440
264.33	9.399
264.70	11.316
265.07	11.509
265.44	11.616
265.81	8.759
266.18	9.045
266.55	8.537
266.92	7.125
267.29	11.343
267.66	7.339
268.03	9.545
268.40	9.813
268.77	7.160
269.14	8.108
269.51	9.707
269.88	8.392
270.25	8.804
270.62	10.112
270.99	12.473
271.36	10.944
271.73	8.178
272.10	8.696
272.47	11.613
272.84	8.442
273.21	10.901
273.58	5.022
273.95	7.966
274.32	7.438
274.69	7.709
275.06	6.693
275.43	9.787
275.80	8.016
276.17	7.739
276.54	10.603
276.91	8.300
277.28	8.203
277.65	7.350
278.02	5.797
278.39	9.570
278.76	9.091
279.13	6.981
279.50	6.704
279.87	7.171
280.23	6.387
280.60	6.383
280.97	7.209
281.34	8.850
281.71	7.455
282.08	9.021
282.45	5.455
282.82	5.861
283.19	6.595
283.56	7.544
283.92	7.614
284.29	7.231
284.66	6.715
285.03	6.510
285.40	7.218
285.77	6.902
286.14	6.908
286.51	8.000
286.87	5.983
287.24	6.840
287.61	6.581
287.98	6.331
288.35	7.290
288.72	6.698
289.08	8.764
289.45	6.260
289.82	7.480
290.19	5.651
290.56	5.207
290.93	4.381
291.29	6.902
291.66	5.605
292.03	8.721
292.40	6.461
292.77	6.953
293.13	7.015
293.50	6.414
293.87	7.111
294.24	7.407
294.60	5.095
294.97	5.523
295.34	7.193
295.71	5.682
296.08	4.274
296.44	3.714
296.81	5.284
297.18	5.691
297.55	4.222
297.91	4.485
298.28	5.622
298.65	6.397
299.02	5.007
299.38	5.312
299.75	2.426
300.12	3.959
300.48	4.250
300.85	5.179
301.22	4.331
301.59	3.030
301.95	5.793
302.32	5.648
302.69	4.659
303.05	4.000
303.42	4.815
303.79	4.757
304.15	3.846
304.52	4.056
304.89	4.181
305.25	5.336
305.62	5.776
305.99	5.431
306.35	3.915
306.72	5.605
307.09	6.104
307.45	5.518
307.82	2.679
308.19	5.408
308.55	5.178
308.92	5.156
309.29	5.069
309.65	3.818
310.02	5.708
310.38	5.054
310.75	5.385
311.12	4.708
311.48	5.016
311.85	5.660
312.22	5.203
312.58	4.678
312.95	5.702
313.31	4.951
313.68	6.133
314.05	7.890
314.41	7.035
314.78	5.337
315.14	6.356
315.51	7.106
315.87	6.931
316.24	6.356
316.61	6.725
316.97	8.708
317.34	5.871
317.70	8.126
318.07	8.758
318.43	8.708
318.80	9.372
319.16	9.887
319.53	9.662
319.89	10.190
320.26	11.200
320.62	10.813
320.99	11.010
321.35	11.212
321.72	11.499
322.08	12.438
322.45	13.333
322.81	13.953
323.18	14.066
323.54	14.100
323.91	14.623
324.27	14.532
324.64	13.979
325.00	15.239
325.37	16.833
325.73	16.697
326.10	16.946
326.46	16.667
326.83	18.637
327.19	17.763
327.56	18.206
327.92	18.898
328.29	19.698
328.65	19.797
329.01	20.758
329.38	19.889
329.74	19.483
330.11	20.924
330.47	21.947
330.84	22.794
331.20	20.947
331.56	22.018
331.93	21.204
332.29	22.094
332.66	23.274
333.02	21.664
333.38	22.403
333.75	22.638
334.11	21.975
334.48	22.893
334.84	22.702
335.20	25.182
335.57	22.393
335.93	22.411
336.29	23.443
336.66	24.346
337.02	23.620
337.38	24.722
337.75	23.797
338.11	23.366
338.47	23.573
338.84	24.015
339.20	24.220
339.56	25.365
339.93	23.818
340.29	24.185
340.65	24.421
341.02	25.480
341.38	26.335
341.74	23.860
342.11	24.629
342.47	26.167
342.83	23.887
343.20	26.234
343.56	25.274
343.92	24.561
344.28	25.170
344.65	27.257
345.01	24.747
345.37	24.786
345.73	25.550
346.10	26.002
346.46	26.186
346.82	25.700
347.19	25.815
347.55	25.369
347.91	26.456
348.27	26.294
348.63	25.753
349.00	26.780
349.36	25.452
349.72	26.143
350.08	26.256
350.45	26.282
350.81	25.751
351.17	26.013
351.53	26.699
351.89	26.403
352.26	27.466
352.62	26.864
352.98	26.013
353.34	26.952
353.70	26.268
354.07	27.097
354.43	27.222
354.79	27.273
355.15	26.337
355.51	27.578
355.87	27.837
356.24	28.094
356.60	26.544
356.96	28.077
357.32	28.046
357.68	27.323
358.04	27.395
358.40	28.899
358.77	28.091
359.13	27.703
359.49	28.157
359.85	27.540
360.21	27.512
360.57	30.272
360.93	28.538
361.29	28.798
361.66	28.096
362.02	29.104
362.38	29.582
362.74	28.423
363.10	28.423
363.46	29.200
363.82	28.345
364.18	28.708
364.54	28.826
364.90	28.399
365.26	28.676
365.62	28.707
365.98	28.269
366.35	27.650
366.71	29.356
367.07	27.895
367.43	29.173
367.79	29.193
368.15	30.388
368.51	29.651
368.87	30.050
369.23	29.920
369.59	29.109
369.95	28.971
370.31	28.917
370.67	29.130
371.03	30.936
371.39	29.300
371.75	28.603
372.11	29.161
372.47	30.059
372.83	30.836
373.19	28.396
373.55	30.303
373.91	30.633
374.27	29.003
374.63	29.745
374.99	30.085
375.35	28.821
375.71	29.472
376.07	29.835
376.42	29.849
376.78	29.954
377.14	29.240
377.50	29.404
377.86	28.790
378.22	29.709
378.58	30.201
378.94	29.478
379.30	29.453
379.66	30.520
380.02	29.975
380.38	29.630
380.74	29.772
381.09	29.890
381.45	29.564
381.81	30.160
382.17	29.172
382.53	30.377
382.89	29.753
383.25	29.706
383.61	30.173
383.97	29.769
384.32	30.443
384.68	29.926
385.04	29.564
385.40	28.793
385.76	29.361
386.12	29.404
386.48	29.515
386.83	30.404
387.19	30.550
387.55	30.550
387.91	29.262
388.27	28.817
388.62	29.379
388.98	29.238
389.34	30.225
389.70	28.633
390.06	29.658
390.42	28.988
390.77	29.326
391.13	29.930
391.49	29.124
391.85	28.135
392.20	28.770
392.56	28.725
392.92	28.899
393.28	28.284
393.64	28.897
393.99	28.772
394.35	28.102
394.71	27.604
395.07	28.224
395.42	29.357
395.78	28.372
396.14	27.809
396.50	28.822
396.85	28.481
397.21	28.915
397.57	28.704
397.92	27.764
398.28	27.859
398.64	28.076
399.00	27.868
399.35	27.750
399.71	29.398
400.07	28.267
400.42	28.282
400.78	28.528
401.14	27.927
401.49	27.463
401.85	28.010
402.21	27.066
402.57	28.439
402.92	28.310
403.28	28.107
403.63	27.847
403.99	26.688
404.35	26.848
404.70	27.878
405.06	26.558
405.42	27.760
405.77	26.914
406.13	26.862
406.49	26.493
406.84	26.344
407.20	25.827
407.55	26.548
407.91	27.267
408.27	27.505
408.62	26.129
408.98	27.022
409.34	26.445
409.69	27.097
410.05	26.704
410.40	26.667
410.76	26.643
411.11	26.116
411.47	25.112
411.83	26.573
412.18	24.861
412.54	26.775
412.89	25.904
413.25	25.384
413.60	26.313
413.96	25.804
414.31	25.942
414.67	26.679
415.03	25.563
415.38	26.482
415.74	24.952
416.09	26.845
416.45	25.837
416.80	26.834
417.16	27.346
417.51	26.676
417.87	25.755
418.22	25.426
418.58	26.921
418.93	26.106
419.29	26.353
419.64	26.071
420.00	25.610
420.35	25.391
420.71	26.121
421.06	25.537
421.42	25.906
421.77	26.401
422.12	24.930
422.48	24.663
422.83	25.626
423.19	25.470
423.54	26.698
423.90	26.087
424.25	25.963
424.61	25.417
424.96	24.723
425.31	25.471
425.67	24.719
426.02	26.171
426.38	26.190
426.73	24.751
427.09	24.924
427.44	25.014
427.79	25.647
428.15	25.298
428.50	25.161
428.85	25.626
429.21	25.400
429.56	25.246
429.92	25.466
430.27	25.323
430.62	25.397
430.98	25.532
431.33	24.639
431.68	26.073
432.04	25.133
432.39	24.957
432.74	25.853
433.10	25.467
433.45	25.015
433.80	25.665
434.16	25.321
434.51	24.474
434.86	25.884
435.22	25.181
435.57	25.714
435.92	25.102
436.28	25.741
436.63	25.166
436.98	24.556
437.34	25.581
437.69	26.254
438.04	25.576
438.39	25.552
438.75	25.508
439.10	26.034
439.45	24.498
439.81	23.988
440.16	24.732
440.51	24.722
440.86	25.941
441.22	24.472
441.57	25.902
441.92	24.872
442.27	25.727
442.63	24.908
442.98	25.859
443.33	24.728
443.68	25.607
444.03	24.939
444.39	23.515
444.74	25.595
445.09	24.420
445.44	24.822
445.79	24.691
446.15	24.881
446.50	24.771
446.85	24.974
447.20	24.120
447.55	24.958
447.91	23.938
448.26	24.374
448.61	24.986
448.96	25.526
449.31	25.253
449.66	24.536
450.02	24.067
450.37	24.150
450.72	24.027
451.07	23.278
451.42	23.587
451.77	24.486
452.12	23.788
452.47	24.565
452.83	24.359
453.18	24.144
453.53	23.377
453.88	22.859
454.23	23.610
454.58	24.409
454.93	24.476
455.28	23.067
455.63	23.908
455.98	25.238
456.34	22.990
456.69	23.482
457.04	23.529
457.39	23.320
457.74	23.970
458.09	23.634
458.44	23.204
458.79	23.210
459.14	23.081
459.49	23.584
459.84	22.825
460.19	22.864
460.54	22.512
460.89	23.039
461.24	23.983
461.59	23.300
461.94	22.380
462.29	22.433
462.64	22.272
462.99	21.796
463.34	23.400
463.69	21.701
464.04	22.435
464.39	21.855
464.74	22.341
465.09	21.713
465.44	21.163
465.79	21.756
466.14	22.167
466.49	21.635
466.84	21.541
467.19	22.028
467.54	21.500
467.89	21.128
468.24	21.059
468.59	21.306
468.94	20.648
469.29	21.979
469.64	21.954
469.99	22.327
470.34	20.872
470.68	21.480
471.03	21.224
471.38	21.960
471.73	21.186
472.08	22.368
472.43	21.357
472.78	20.606
473.13	20.539
473.48	20.287
473.83	20.610
474.17	20.597
474.52	21.340
474.87	20.315
475.22	20.139
475.57	19.828
475.92	19.968
476.27	19.335
476.61	19.415
476.96	19.241
477.31	19.205
477.66	19.803
478.01	19.237
478.36	19.619
478.70	18.847
479.05	19.755
479.40	19.703
479.75	20.590
480.10	18.340
480.45	19.277
480.79	18.825
481.14	19.374
481.49	18.889
481.84	18.107
482.19	18.991
482.53	18.624
482.88	18.799
483.23	18.458
483.58	18.835
483.92	17.713
484.27	17.691
484.62	18.190
484.97	17.264
485.31	17.466
485.66	17.207
486.01	17.060
486.36	17.000
486.70	16.819
487.05	17.862
487.40	17.109
487.75	16.867
488.09	17.258
488.44	16.945
488.79	16.962
489.13	17.189
489.48	16.884
489.83	16.573
490.17	17.843
490.52	16.696
490.87	17.187
491.22	17.008
491.56	16.811
491.91	17.171
492.26	16.491
492.60	16.959
492.95	16.698
493.30	16.449
493.64	16.986
493.99	16.713
494.34	17.160
494.68	16.941
495.03	16.776
495.37	16.380
495.72	17.154
496.07	17.262
496.41	16.239
496.76	16.579
497.11	16.614
497.45	15.557
497.80	15.883
498.14	15.507
498.49	16.195
498.84	15.964
499.18	15.714
499.53	15.527
499.87	15.610
500.22	15.827
500.56	16.505
500.91	15.433
501.26	15.268
501.60	15.615
501.95	15.353
502.29	15.558
502.64	15.503
502.98	15.194
503.33	15.631
503.67	15.963
504.02	15.529
504.36	14.787
504.71	15.437
505.06	15.181
505.40	15.994
505.75	15.526
506.09	15.063
506.44	14.948
506.78	15.490
507.13	14.891
507.47	15.808
507.82	15.552
508.16	14.691
508.51	14.967
508.85	14.945
509.19	15.306
509.54	15.153
509.88	14.426
510.23	14.704
510.57	15.686
510.92	14.448
511.26	14.337
511.61	14.990
511.95	14.562
512.30	14.263
512.64	14.831
512.98	15.220
513.33	14.775
513.67	13.927
514.02	14.394
514.36	15.401
514.70	14.222
515.05	14.780
515.39	15.031
515.74	14.133
516.08	14.310
516.42	14.539
516.77	15.273
517.11	13.541
517.46	14.729
517.80	14.983
518.14	13.434
518.49	14.061
518.83	14.091
519.17	13.741
519.52	14.318
519.86	14.090
520.20	14.451
520.55	13.585
520.89	14.538
521.23	14.475
521.58	14.766
521.92	13.840
522.26	13.057
522.61	13.645
522.95	13.996
523.29	13.999
523.64	14.390
523.98	14.603
524.32	13.932
524.66	14.432
525.01	14.338
525.35	13.445
525.69	12.746
526.04	13.707
526.38	13.179
526.72	13.620
527.06	14.375
527.41	12.562
527.75	14.148
528.09	13.166
528.43	13.894
528.78	13.522
529.12	13.879
529.46	13.840
529.80	13.428
530.15	13.209
530.49	12.492
530.83	13.354
531.17	14.491
531.51	14.073
531.86	13.032
532.20	14.081
532.54	13.645
532.88	13.286
533.22	12.305
533.57	13.148
533.91	12.944
534.25	13.305
534.59	13.057
534.93	12.790
535.27	12.734
535.62	13.492
535.96	12.555
536.30	12.715
536.64	13.200
536.98	12.541
537.32	12.706
537.66	11.867
538.01	13.232
538.35	13.381
538.69	13.210
539.03	12.801
539.37	12.141
539.71	12.443
540.05	12.484
540.39	12.359
540.73	12.419
541.07	12.654
541.42	12.916
541.76	12.968
542.10	12.613
542.44	12.450
542.78	12.582
543.12	11.900
543.46	12.328
543.80	12.297
544.14	12.003
544.48	11.937
544.82	11.995
545.16	12.167
545.50	11.697
545.84	12.567
546.18	11.987
546.52	12.044
546.86	11.684
547.20	12.138
547.54	12.158
547.88	13.329
548.22	11.146
548.56	12.390
548.90	11.460
549.24	11.246
549.58	12.210
549.92	11.813
550.26	11.861
550.60	11.618
550.94	11.972
551.28	11.631
551.62	12.293
551.96	11.860
552.30	13.106
552.64	12.644
552.98	12.068
553.32	11.935
553.66	12.747
554.00	12.011
554.34	11.387
554.68	12.375
555.02	12.059
555.36	12.804
555.69	11.231
556.03	11.777
556.37	11.255
556.71	11.528
557.05	11.765
557.39	11.756
557.73	11.715
558.07	11.603
558.41	11.143
558.75	12.050
559.08	11.633
559.42	12.094
559.76	11.765
560.10	11.420
560.44	10.901
560.78	10.845
561.12	11.544
561.45	12.060
561.79	10.283
562.13	11.335
562.47	11.954
562.81	11.367
563.15	12.441
563.48	10.942
563.82	11.611
564.16	11.053
564.50	11.393
564.84	11.125
565.17	10.940
565.51	11.757
565.85	11.802
566.19	10.332
566.52	11.146
566.86	10.549
567.20	11.675
567.54	10.959
567.88	10.212
568.21	11.005
568.55	10.566
568.89	10.117
569.23	10.294
569.56	10.162
569.90	10.264
570.24	9.831
570.57	10.065
570.91	9.567
571.25	9.759
571.59	9.956
571.92	9.274
572.26	9.474
572.60	9.880
572.93	9.505
573.27	9.613
573.61	9.743
573.95	9.535
574.28	9.648
574.62	9.524
574.96	9.200
575.29	9.287
575.63	9.451
575.97	9.451
576.30	9.214
576.64	8.795
576.98	9.504
577.31	9.080
577.65	9.381
577.98	9.389
578.32	9.273
578.66	9.476
578.99	9.108
579.33	8.981
579.67	8.733
580.00	8.967
580.34	9.089
580.67	9.123
581.01	9.220
581.35	8.979
581.68	8.964
582.02	8.991
582.35	9.024
582.69	8.944
583.02	8.935
583.36	8.946
583.70	9.241
584.03	9.195
584.37	9.618
584.70	8.804
585.04	9.075
585.37	8.854
585.71	9.352
586.04	9.278
586.38	9.039
586.72	9.334
587.05	8.938
587.39	8.839
587.72	9.044
588.06	8.965
588.39	8.944
588.73	9.299
589.06	9.505
589.40	9.529
589.73	9.293
590.07	9.786
590.40	8.696
590.73	9.368
591.07	10.012
591.40	9.026
591.74	10.000
592.07	9.686
592.41	9.963
592.74	9.888
593.08	9.460
593.41	9.016
593.75	8.526
594.08	9.118
594.41	9.226
594.75	9.131
595.08	9.413
595.42	9.772
595.75	8.832
596.09	9.613
596.42	9.627
596.75	9.455
597.09	10.260
597.42	9.233
597.75	9.357
598.09	9.522
598.42	9.364
598.76	9.080
599.09	9.350
599.42	9.425
599.76	9.553
600.09	9.035
600.42	8.766
600.76	8.821
601.09	9.253
601.42	9.018
601.76	9.184
602.09	9.170
602.42	8.798
602.76	9.270
603.09	9.245
603.42	9.137
603.76	8.880
604.09	8.918
604.42	8.846
604.76	9.532
605.09	8.956
605.42	8.978
605.75	9.023
606.09	9.313
606.42	9.031
606.75	9.249
607.09	9.376
607.42	8.644
607.75	8.608
608.08	9.379
608.42	9.144
608.75	9.197
609.08	9.112
609.41	9.329
609.75	9.004
610.08	8.954
610.41	8.520
610.74	8.893
611.07	8.992
611.41	8.979
611.74	9.703
612.07	9.731
612.40	9.916
612.73	8.684
613.07	9.698
613.40	9.426
613.73	9.229
614.06	8.871
614.39	9.177
614.72	9.579
615.06	9.716
615.39	8.864
615.72	9.151
616.05	8.772
616.38	9.450
616.71	9.264
617.05	10.542
617.38	8.960
617.71	9.429
618.04	9.555
618.37	9.344
618.70	9.334
619.03	9.276
619.36	9.572
619.69	10.211
620.03	9.615
620.36	10.829
620.69	9.932
621.02	10.103
621.35	9.789
621.68	10.125
622.01	9.520
622.34	10.061
622.67	9.886
623.00	10.125
623.33	9.292
623.66	10.150
623.99	10.309
624.32	9.344
624.65	9.887
624.99	9.348
625.32	9.196
625.65	9.166
625.98	9.377
626.31	10.187
626.64	10.449
626.97	10.474
627.30	9.310
627.63	11.321
627.96	9.840
628.29	9.711
628.62	10.796
628.95	11.509
629.28	10.219
629.61	10.632
629.94	10.190
630.26	8.866
630.59	10.105
630.92	9.579
631.25	9.576
631.58	10.611
631.91	10.751
632.24	10.338
632.57	11.228
632.90	10.197
633.23	11.074
633.56	11.299
633.89	10.985
634.22	11.237
634.55	11.716
634.88	9.581
635.20	11.708
635.53	11.807
635.86	10.767
636.19	10.941
636.52	11.534
636.85	10.997
637.18	9.793
637.51	11.229
637.83	9.618
638.16	11.765
