SpectraSuite Data File
++++++++++++++++++++++++++++++++++++
Date: Wed May 13 21:00:44 PDT 2015
User: schluterlab
Dark Spectrum Present: Yes
Reference Spectrum Present: Yes
Number of Sampled Component Spectra: 1
Spectrometers: USB2E3373
Integration Time (usec): 3000 (USB2E3373)
Spectra Averaged: 3 (USB2E3373)
Boxcar Smoothing: 0 (USB2E3373)
Correct for Electrical Dark: No (USB2E3373)
Strobe/Lamp Enabled: No (USB2E3373)
Correct for Detector Non-linearity: No (USB2E3373)
Correct for Stray Light: No (USB2E3373)
Number of Pixels in Processed Spectrum: 2048
>>>>>Begin Processed Spectral Data<<<<<
178.53	0.000
178.91	50.000
179.29	158.333
179.67	-500.000
180.04	-366.667
180.42	140.000
180.80	800.000
181.18	100.000
181.56	-50.000
181.94	150.000
182.31	9.091
182.69	92.308
183.07	-180.000
183.45	116.667
183.83	-11.111
184.20	28.571
184.58	133.333
184.96	66.667
185.34	114.286
185.72	0.000
186.09	700.000
186.47	-200.000
186.85	-80.000
187.23	50.000
187.61	600.000
187.98	-600.000
188.36	37.500
188.74	0.000
189.12	0.000
189.49	170.000
189.87	-0.000
190.25	160.000
190.63	-100.000
191.00	80.000
191.38	160.000
191.76	-0.000
192.14	66.667
192.51	36.842
192.89	-0.000
193.27	200.000
193.65	-160.000
194.02	54.545
194.40	90.000
194.78	700.000
195.15	-40.000
195.53	-60.000
195.91	212.500
196.29	0.000
196.66	0.000
197.04	-50.000
197.42	100.000
197.79	60.000
198.17	-137.500
198.55	-366.667
198.92	75.000
199.30	-66.667
199.68	60.000
200.05	-350.000
200.43	-33.333
200.81	-500.000
201.18	-300.000
201.56	50.000
201.94	225.000
202.31	39.130
202.69	0.000
203.07	-300.000
203.44	160.000
203.82	-100.000
204.19	40.000
204.57	0.000
204.95	16.667
205.32	0.000
205.70	200.000
206.08	100.000
206.45	16.667
206.83	175.000
207.20	-100.000
207.58	50.000
207.96	-400.000
208.33	-14.286
208.71	-600.000
209.08	75.000
209.46	250.000
209.84	0.000
210.21	30.000
210.59	-300.000
210.96	120.000
211.34	-200.000
211.71	-150.000
212.09	66.667
212.46	-110.000
212.84	0.000
213.22	75.000
213.59	300.000
213.97	50.000
214.34	-150.000
214.72	76.923
215.09	62.500
215.47	-22.222
215.84	-300.000
216.22	75.000
216.59	-50.000
216.97	200.000
217.34	77.778
217.72	0.000
218.09	66.667
218.47	700.000
218.84	128.571
219.22	-12.500
219.59	-333.333
219.97	175.000
220.34	50.000
220.72	-100.000
221.09	0.000
221.47	-16.667
221.84	300.000
222.22	0.000
222.59	400.000
222.97	66.667
223.34	-8.333
223.72	200.000
224.09	-200.000
224.46	54.545
224.84	137.500
225.21	-142.857
225.59	50.000
225.96	33.333
226.34	100.000
226.71	42.857
227.08	-150.000
227.46	-25.000
227.83	1300.000
228.21	6.250
228.58	0.000
228.95	41.176
229.33	31.250
229.70	75.000
230.08	23.077
230.45	-100.000
230.82	33.333
231.20	71.429
231.57	-125.000
231.95	-1200.000
232.32	75.000
232.69	17.647
233.07	-300.000
233.44	26.087
233.81	-100.000
234.19	41.667
234.56	20.000
234.93	33.333
235.31	68.421
235.68	23.077
236.05	61.538
236.43	44.444
236.80	33.333
237.17	13.333
237.55	0.000
237.92	13.793
238.29	18.519
238.67	47.222
239.04	32.258
239.41	14.894
239.79	36.170
240.16	46.512
240.53	32.143
240.91	50.000
241.28	41.071
241.65	33.871
242.02	28.947
242.40	30.435
242.77	31.884
243.14	37.179
243.51	30.851
243.89	31.731
244.26	45.283
244.63	20.192
245.00	35.417
245.38	26.050
245.75	36.066
246.12	36.090
246.49	21.951
246.87	21.849
247.24	32.432
247.61	31.126
247.98	25.641
248.36	31.953
248.73	23.596
249.10	27.778
249.47	30.108
249.84	37.368
250.22	34.328
250.59	28.972
250.96	36.818
251.33	26.794
251.70	37.657
252.08	32.218
252.45	34.568
252.82	29.658
253.19	33.463
253.56	22.662
253.94	33.096
254.31	28.169
254.68	31.544
255.05	33.003
255.42	29.720
255.79	32.822
256.16	32.808
256.54	28.889
256.91	29.114
257.28	28.302
257.65	29.299
258.02	29.912
258.39	32.164
258.76	30.523
259.14	30.114
259.51	30.899
259.88	32.520
260.25	34.167
260.62	25.843
260.99	30.239
261.36	31.606
261.73	29.383
262.10	29.262
262.47	31.852
262.85	29.602
263.22	31.538
263.59	30.130
263.96	29.197
264.33	30.288
264.70	30.465
265.07	30.093
265.44	32.874
265.81	27.918
266.18	29.613
266.55	30.349
266.92	30.085
267.29	32.510
267.66	30.786
268.03	29.424
268.40	26.907
268.77	30.165
269.14	30.408
269.51	31.828
269.88	28.513
270.25	30.085
270.62	28.074
270.99	31.890
271.36	30.754
271.73	31.727
272.10	30.476
272.47	28.407
272.84	30.118
273.21	31.115
273.58	29.918
273.95	29.245
274.32	30.597
274.69	29.326
275.06	30.742
275.43	28.437
275.80	29.787
276.17	29.834
276.54	29.130
276.91	30.662
277.28	30.866
277.65	31.119
278.02	33.036
278.39	27.176
278.76	29.766
279.13	31.046
279.50	29.655
279.87	27.899
280.23	30.991
280.60	26.990
280.97	30.032
281.34	29.968
281.71	25.528
282.08	27.521
282.45	31.803
282.82	26.837
283.19	29.421
283.56	28.594
283.92	28.746
284.29	27.457
284.66	28.830
285.03	27.524
285.40	26.435
285.77	27.477
286.14	28.267
286.51	28.336
286.87	26.615
287.24	28.024
287.61	27.560
287.98	27.647
288.35	26.826
288.72	27.834
289.08	29.345
289.45	26.725
289.82	28.290
290.19	27.489
290.56	28.409
290.93	29.282
291.29	25.034
291.66	25.137
292.03	26.567
292.40	25.572
292.77	25.971
293.13	26.081
293.50	24.052
293.87	24.400
294.24	25.132
294.60	26.658
294.97	24.735
295.34	24.142
295.71	23.127
296.08	23.429
296.44	24.872
296.81	25.213
297.18	25.625
297.55	23.585
297.91	24.224
298.28	22.155
298.65	25.000
299.02	23.687
299.38	22.454
299.75	22.957
300.12	20.698
300.48	23.626
300.85	23.441
301.22	22.997
301.59	22.183
301.95	22.997
302.32	22.870
302.69	21.582
303.05	21.816
303.42	23.182
303.79	23.344
304.15	22.673
304.52	23.871
304.89	23.034
305.25	21.625
305.62	21.800
305.99	22.851
306.35	23.720
306.72	22.686
307.09	21.689
307.45	21.725
307.82	21.895
308.19	22.466
308.55	22.416
308.92	22.986
309.29	22.623
309.65	23.077
310.02	23.161
310.38	22.358
310.75	21.893
311.12	23.129
311.48	22.552
311.85	23.917
312.22	22.631
312.58	23.092
312.95	23.284
313.31	24.151
313.68	23.092
314.05	24.480
314.41	26.225
314.78	25.617
315.14	26.019
315.51	26.261
315.87	25.487
316.24	27.273
316.61	26.210
316.97	26.389
317.34	27.005
317.70	28.457
318.07	28.039
318.43	28.907
318.80	27.923
319.16	28.824
319.53	29.391
319.89	30.081
320.26	31.793
320.62	30.213
320.99	32.364
321.35	31.993
321.72	32.531
322.08	32.565
322.45	32.747
322.81	33.919
323.18	32.916
323.54	34.928
323.91	35.050
324.27	35.554
324.64	35.279
325.00	36.920
325.37	37.969
325.73	36.279
326.10	38.772
326.46	37.793
326.83	39.320
327.19	38.699
327.56	39.162
327.92	39.340
328.29	40.735
328.65	41.017
329.01	41.689
329.38	41.478
329.74	40.258
330.11	42.200
330.47	40.885
330.84	42.329
331.20	41.588
331.56	42.572
331.93	42.808
332.29	41.616
332.66	42.373
333.02	43.093
333.38	44.298
333.75	43.003
334.11	44.965
334.48	43.941
334.84	42.580
335.20	43.482
335.57	43.255
335.93	43.385
336.29	42.294
336.66	42.650
337.02	44.087
337.38	43.777
337.75	43.842
338.11	43.040
338.47	43.151
338.84	43.729
339.20	43.827
339.56	42.235
339.93	42.524
340.29	42.699
340.65	42.772
341.02	42.845
341.38	43.328
341.74	42.185
342.11	42.444
342.47	43.264
342.83	42.565
343.20	44.585
343.56	43.091
343.92	43.217
344.28	42.857
344.65	42.694
345.01	41.727
345.37	44.079
345.73	44.690
346.10	41.653
346.46	43.659
346.82	42.295
347.19	41.614
347.55	43.376
347.91	42.245
348.27	42.902
348.63	42.548
349.00	41.431
349.36	40.816
349.72	42.691
350.08	41.732
350.45	41.504
350.81	42.723
351.17	42.725
351.53	42.891
351.89	42.653
352.26	41.158
352.62	41.240
352.98	41.773
353.34	41.465
353.70	42.056
354.07	42.118
354.43	42.924
354.79	42.228
355.15	42.469
355.51	42.445
355.87	42.299
356.24	42.536
356.60	40.579
356.96	41.827
357.32	42.260
357.68	41.100
358.04	41.195
358.40	41.395
358.77	42.508
359.13	41.712
359.49	41.332
359.85	40.864
360.21	42.328
360.57	43.270
360.93	42.033
361.29	41.895
361.66	42.065
362.02	41.809
362.38	40.399
362.74	40.682
363.10	42.589
363.46	41.859
363.82	41.685
364.18	40.029
364.54	42.013
364.90	40.976
365.26	40.552
365.62	41.761
365.98	43.060
366.35	42.270
366.71	41.013
367.07	42.594
367.43	41.672
367.79	41.487
368.15	42.124
368.51	41.139
368.87	41.312
369.23	41.566
369.59	42.142
369.95	41.655
370.31	40.656
370.67	41.709
371.03	42.316
371.39	41.519
371.75	41.571
372.11	41.026
372.47	41.673
372.83	41.540
373.19	40.935
373.55	41.908
373.91	41.796
374.27	41.148
374.63	42.390
374.99	41.295
375.35	42.740
375.71	41.033
376.07	42.084
376.42	41.979
376.78	41.017
377.14	43.729
377.50	42.829
377.86	42.895
378.22	41.972
378.58	42.623
378.94	43.563
379.30	43.036
379.66	41.615
380.02	41.912
380.38	42.048
380.74	42.857
381.09	41.496
381.45	43.047
381.81	42.945
382.17	42.029
382.53	41.908
382.89	42.762
383.25	43.395
383.61	42.373
383.97	43.062
384.32	42.155
384.68	42.628
385.04	41.234
385.40	42.902
385.76	42.153
386.12	42.737
386.48	42.257
386.83	43.304
387.19	43.307
387.55	42.428
387.91	43.542
388.27	43.280
388.62	42.197
388.98	42.741
389.34	42.982
389.70	42.002
390.06	43.500
390.42	43.621
390.77	42.921
391.13	43.497
391.49	41.682
391.85	42.748
392.20	44.110
392.56	42.794
392.92	43.242
393.28	42.069
393.64	42.385
393.99	41.065
394.35	41.975
394.71	42.821
395.07	42.264
395.42	43.449
395.78	42.986
396.14	43.373
396.50	42.549
396.85	43.340
397.21	43.633
397.57	43.416
397.92	42.156
398.28	42.358
398.64	44.080
399.00	43.080
399.35	43.757
399.71	43.739
400.07	43.012
400.42	42.884
400.78	43.082
401.14	42.428
401.49	43.020
401.85	44.103
402.21	43.653
402.57	43.716
402.92	44.368
403.28	43.277
403.63	43.583
403.99	43.314
404.35	44.514
404.70	43.021
405.06	44.099
405.42	43.593
405.77	43.145
406.13	43.029
406.49	44.817
406.84	43.040
407.20	43.221
407.55	44.610
407.91	44.077
408.27	42.420
408.62	44.690
408.98	43.896
409.34	43.626
409.69	44.834
410.05	43.719
410.40	43.457
410.76	44.525
411.11	44.341
411.47	45.720
411.83	43.731
412.18	44.584
412.54	43.797
412.89	44.514
413.25	43.658
413.60	43.574
413.96	42.946
414.31	44.451
414.67	44.063
415.03	43.843
415.38	43.857
415.74	44.055
416.09	45.010
416.45	44.839
416.80	45.570
417.16	43.792
417.51	43.336
417.87	44.378
418.22	44.538
418.58	43.298
418.93	44.758
419.29	44.950
419.64	43.321
420.00	44.889
420.35	44.650
420.71	44.485
421.06	45.326
421.42	45.073
421.77	44.566
422.12	44.871
422.48	43.457
422.83	45.068
423.19	44.968
423.54	44.817
423.90	44.656
424.25	44.772
424.61	46.457
424.96	44.175
425.31	44.363
425.67	45.855
426.02	46.054
426.38	45.896
426.73	45.693
427.09	44.215
427.44	44.627
427.79	44.359
428.15	44.404
428.50	44.471
428.85	45.264
429.21	43.838
429.56	45.590
429.92	45.393
430.27	44.836
430.62	45.068
430.98	44.368
431.33	44.922
431.68	45.953
432.04	46.197
432.39	43.591
432.74	44.206
433.10	46.194
433.45	45.799
433.80	45.977
434.16	45.221
434.51	45.707
434.86	46.408
435.22	45.897
435.57	46.376
435.92	47.045
436.28	46.246
436.63	44.804
436.98	45.593
437.34	46.459
437.69	45.514
438.04	45.105
438.39	47.011
438.75	47.318
439.10	46.327
439.45	45.642
439.81	47.167
440.16	46.957
440.51	46.611
440.86	46.947
441.22	46.242
441.57	46.855
441.92	47.434
442.27	46.104
442.63	46.663
442.98	47.106
443.33	47.122
443.68	46.494
444.03	47.094
444.39	47.645
444.74	47.101
445.09	46.311
445.44	47.718
445.79	47.445
446.15	48.364
446.50	46.751
446.85	47.782
447.20	47.831
447.55	47.230
447.91	47.865
448.26	47.055
448.61	46.951
448.96	46.583
449.31	47.459
449.66	47.426
450.02	46.958
450.37	47.885
450.72	47.761
451.07	48.527
451.42	47.037
451.77	47.413
452.12	47.415
452.47	48.935
452.83	48.113
453.18	47.295
453.53	47.478
453.88	49.096
454.23	47.651
454.58	48.591
454.93	46.953
455.28	48.298
455.63	47.473
455.98	49.300
456.34	46.853
456.69	48.051
457.04	47.121
457.39	47.745
457.74	48.713
458.09	47.097
458.44	47.591
458.79	47.062
459.14	46.798
459.49	48.476
459.84	48.196
460.19	46.879
460.54	48.905
460.89	48.086
461.24	48.890
461.59	48.007
461.94	47.851
462.29	47.855
462.64	49.077
462.99	47.887
463.34	49.309
463.69	48.647
464.04	48.860
464.39	48.810
464.74	47.482
465.09	47.303
465.44	46.352
465.79	47.844
466.14	47.548
466.49	49.150
466.84	48.296
467.19	48.025
467.54	49.644
467.89	47.517
468.24	49.109
468.59	48.184
468.94	47.957
469.29	48.909
469.64	48.675
469.99	49.586
470.34	48.213
470.68	48.848
471.03	49.506
471.38	48.261
471.73	48.971
472.08	49.347
472.43	50.330
472.78	50.101
473.13	46.636
473.48	49.054
473.83	48.462
474.17	49.284
474.52	48.867
474.87	48.372
475.22	48.913
475.57	47.685
475.92	48.909
476.27	48.252
476.61	47.848
476.96	48.658
477.31	48.706
477.66	48.927
478.01	47.363
478.36	48.556
478.70	48.443
479.05	47.780
479.40	47.478
479.75	48.247
480.10	47.476
480.45	47.621
480.79	48.034
481.14	48.784
481.49	47.015
481.84	48.068
482.19	47.893
482.53	48.857
482.88	47.411
483.23	47.353
483.58	47.873
483.92	47.374
484.27	47.804
484.62	47.226
484.97	47.615
485.31	46.200
485.66	44.333
486.01	44.605
486.36	44.126
486.70	43.903
487.05	44.281
487.40	45.087
487.75	45.823
488.09	45.324
488.44	45.952
488.79	46.291
489.13	46.402
489.48	47.371
489.83	46.807
490.17	48.116
490.52	48.855
490.87	47.149
491.22	47.621
491.56	48.922
491.91	48.776
492.26	48.259
492.60	47.523
492.95	47.425
493.30	47.917
493.64	47.290
493.99	47.971
494.34	47.399
494.68	47.780
495.03	48.123
495.37	47.640
495.72	47.669
496.07	48.904
496.41	47.871
496.76	47.349
497.11	47.136
497.45	47.276
497.80	47.754
498.14	48.816
498.49	47.857
498.84	47.824
499.18	47.287
499.53	47.661
499.87	47.695
500.22	48.233
500.56	48.245
500.91	47.938
501.26	48.079
501.60	47.108
501.95	47.101
502.29	47.573
502.64	47.396
502.98	47.158
503.33	47.786
503.67	47.322
504.02	47.451
504.36	46.805
504.71	48.069
505.06	48.548
505.40	48.814
505.75	48.220
506.09	47.726
506.44	46.623
506.78	47.181
507.13	47.921
507.47	47.296
507.82	46.939
508.16	48.602
508.51	46.436
508.85	46.864
509.19	47.143
509.54	48.365
509.88	48.763
510.23	47.316
510.57	47.617
510.92	48.707
511.26	48.735
511.61	47.311
511.95	48.291
512.30	47.807
512.64	49.659
512.98	48.255
513.33	47.831
513.67	48.609
514.02	48.575
514.36	47.865
514.70	48.499
515.05	49.269
515.39	47.995
515.74	48.076
516.08	48.673
516.42	47.408
516.77	46.866
517.11	48.266
517.46	49.220
517.80	49.092
518.14	47.765
518.49	47.920
518.83	48.628
519.17	48.012
519.52	49.759
519.86	48.330
520.20	46.331
520.55	48.881
520.89	49.652
521.23	49.231
521.58	48.989
521.92	48.774
522.26	47.365
522.61	48.804
522.95	47.798
523.29	48.000
523.64	49.460
523.98	48.602
524.32	47.259
524.66	48.442
525.01	49.083
525.35	48.980
525.69	49.238
526.04	48.339
526.38	48.120
526.72	49.310
527.06	47.582
527.41	48.643
527.75	47.330
528.09	49.353
528.43	49.118
528.78	47.610
529.12	47.995
529.46	48.880
529.80	48.803
530.15	46.461
530.49	48.787
530.83	48.003
531.17	48.288
531.51	47.067
531.86	47.290
532.20	47.967
532.54	46.966
532.88	47.856
533.22	46.869
533.57	46.755
533.91	45.935
534.25	48.633
534.59	47.362
534.93	46.556
535.27	46.624
535.62	47.237
535.96	47.170
536.30	46.809
536.64	46.548
536.98	47.933
537.32	47.972
537.66	48.378
538.01	47.018
538.35	47.514
538.69	46.823
539.03	45.705
539.37	45.674
539.71	47.067
540.05	46.559
540.39	46.180
540.73	47.067
541.07	45.986
541.42	46.263
541.76	45.737
542.10	46.378
542.44	47.055
542.78	45.732
543.12	45.553
543.46	46.510
543.80	45.553
544.14	47.075
544.48	44.260
544.82	45.864
545.16	45.166
545.50	47.198
545.84	45.091
546.18	45.933
546.52	45.378
546.86	45.866
547.20	45.461
547.54	46.891
547.88	45.479
548.22	44.691
548.56	45.497
548.90	46.143
549.24	45.208
549.58	43.915
549.92	47.322
550.26	45.535
550.60	46.171
550.94	45.896
551.28	45.269
551.62	45.789
551.96	45.242
552.30	44.032
552.64	45.692
552.98	46.591
553.32	44.917
553.66	46.075
554.00	46.796
554.34	44.835
554.68	45.488
555.02	44.760
555.36	46.823
555.69	45.084
556.03	44.603
556.37	44.452
556.71	43.588
557.05	44.945
557.39	45.139
557.73	46.142
558.07	45.215
558.41	45.723
558.75	45.343
559.08	46.191
559.42	45.397
559.76	43.731
560.10	45.273
560.44	45.689
560.78	44.676
561.12	43.588
561.45	42.993
561.79	43.054
562.13	43.812
562.47	44.786
562.81	43.723
563.15	44.051
563.48	42.189
563.82	43.707
564.16	43.737
564.50	43.012
564.84	43.041
565.17	45.762
565.51	43.717
565.85	42.305
566.19	44.305
566.52	43.447
566.86	43.300
567.20	42.334
567.54	41.163
567.88	41.041
568.21	40.739
568.55	40.532
568.89	40.130
569.23	39.413
569.56	39.841
569.90	38.113
570.24	37.473
570.57	37.905
570.91	36.818
571.25	36.146
571.59	37.072
571.92	36.462
572.26	37.392
572.60	36.649
572.93	36.489
573.27	36.745
573.61	36.568
573.95	36.356
574.28	35.422
574.62	35.547
574.96	36.220
575.29	35.331
575.63	35.537
575.97	35.489
576.30	35.270
576.64	35.499
576.98	35.545
577.31	35.173
577.65	34.769
577.98	35.133
578.32	34.553
578.66	34.620
578.99	34.202
579.33	35.107
579.67	34.725
580.00	34.435
580.34	34.343
580.67	35.228
581.01	34.118
581.35	34.481
581.68	33.901
582.02	34.162
582.35	34.105
582.69	34.338
583.02	33.769
583.36	34.370
583.70	34.437
584.03	34.996
584.37	34.508
584.70	34.780
585.04	35.220
585.37	34.386
585.71	34.274
586.04	34.712
586.38	34.780
586.72	34.448
587.05	34.772
587.39	35.026
587.72	34.681
588.06	35.239
588.39	34.201
588.73	34.898
589.06	34.724
589.40	34.881
589.73	35.465
590.07	35.472
590.40	36.274
590.73	36.224
591.07	36.356
591.40	35.913
591.74	36.594
592.07	36.924
592.41	37.452
592.74	36.343
593.08	34.940
593.41	35.549
593.75	34.367
594.08	34.577
594.41	35.356
594.75	35.795
595.08	35.362
595.42	34.395
595.75	34.960
596.09	35.527
596.42	35.580
596.75	37.209
597.09	37.443
597.42	37.102
597.75	36.800
598.09	36.566
598.42	36.555
598.76	36.188
599.09	36.335
599.42	34.970
599.76	35.411
600.09	35.166
600.42	35.217
600.76	34.442
601.09	34.652
601.42	35.006
601.76	34.942
602.09	34.901
602.42	36.154
602.76	35.822
603.09	36.550
603.42	35.386
603.76	35.269
604.09	35.692
604.42	35.873
604.76	36.185
605.09	35.614
605.42	37.202
605.75	36.317
606.09	35.224
606.42	35.702
606.75	36.017
607.09	36.170
607.42	34.676
607.75	34.223
608.08	35.888
608.42	35.052
608.75	36.264
609.08	36.404
609.41	36.711
609.75	37.468
610.08	36.193
610.41	36.200
610.74	36.285
611.07	36.122
611.41	37.052
611.74	35.973
612.07	35.487
612.40	36.757
612.73	36.059
613.07	36.973
613.40	37.885
613.73	36.728
614.06	36.484
614.39	36.854
614.72	37.701
615.06	36.167
615.39	37.141
615.72	36.339
616.05	36.092
616.38	37.171
616.71	37.373
617.05	38.206
617.38	37.153
617.71	36.275
618.04	37.294
618.37	37.539
618.70	37.969
619.03	37.663
619.36	37.794
619.69	38.596
620.03	37.668
620.36	37.857
620.69	37.973
621.02	39.308
621.35	40.556
621.68	39.609
622.01	39.078
622.34	38.699
622.67	39.389
623.00	39.970
623.33	39.491
623.66	39.108
623.99	38.185
624.32	38.298
624.65	38.205
624.99	38.428
625.32	38.760
625.65	39.457
625.98	38.389
626.31	39.592
626.64	40.499
626.97	39.706
627.30	41.403
627.63	41.090
627.96	39.827
628.29	41.674
628.62	40.812
628.95	41.884
629.28	41.182
629.61	42.201
629.94	41.199
630.26	44.039
630.59	41.459
630.92	42.169
631.25	40.165
631.58	43.148
631.91	42.100
632.24	42.700
632.57	41.444
632.90	44.224
633.23	44.484
633.56	43.885
633.89	44.498
634.22	45.701
