SpectraSuite Data File
++++++++++++++++++++++++++++++++++++
Date: Wed May 13 20:58:53 PDT 2015
User: schluterlab
Dark Spectrum Present: Yes
Reference Spectrum Present: Yes
Number of Sampled Component Spectra: 1
Spectrometers: USB2E3373
Integration Time (usec): 3000 (USB2E3373)
Spectra Averaged: 3 (USB2E3373)
Boxcar Smoothing: 0 (USB2E3373)
Correct for Electrical Dark: No (USB2E3373)
Strobe/Lamp Enabled: No (USB2E3373)
Correct for Detector Non-linearity: No (USB2E3373)
Correct for Stray Light: No (USB2E3373)
Number of Pixels in Processed Spectrum: 2048
>>>>>Begin Processed Spectral Data<<<<<
178.53	0.000
178.91	-0.000
179.29	150.000
179.67	0.000
180.04	-66.667
180.42	-40.000
180.80	700.000
181.18	66.667
181.56	-225.000
181.94	125.000
182.31	-9.091
182.69	46.154
183.07	160.000
183.45	166.667
183.83	55.556
184.20	-14.286
184.58	433.333
184.96	-133.333
185.34	28.571
185.72	0.000
186.09	400.000
186.47	180.000
186.85	-40.000
187.23	150.000
187.61	200.000
187.98	400.000
188.36	62.500
188.74	0.000
189.12	72.727
189.49	120.000
189.87	75.000
190.25	180.000
190.63	-400.000
191.00	100.000
191.38	100.000
191.76	125.000
192.14	91.667
192.51	5.263
192.89	166.667
193.27	100.000
193.65	-40.000
194.02	127.273
194.40	90.000
194.78	500.000
195.15	60.000
195.53	-140.000
195.91	112.500
196.29	333.333
196.66	0.000
197.04	-150.000
197.42	180.000
197.79	130.000
198.17	-25.000
198.55	100.000
198.92	-0.000
199.30	333.333
199.68	30.000
200.05	250.000
200.43	-33.333
200.81	-700.000
201.18	-140.000
201.56	100.000
201.94	625.000
202.31	43.478
202.69	42.857
203.07	-266.667
203.44	-40.000
203.82	-133.333
204.19	50.000
204.57	0.000
204.95	183.333
205.32	0.000
205.70	0.000
206.08	-25.000
206.45	50.000
206.83	125.000
207.20	-133.333
207.58	40.000
207.96	-200.000
208.33	-28.571
208.71	-200.000
209.08	112.500
209.46	200.000
209.84	0.000
210.21	50.000
210.59	700.000
210.96	20.000
211.34	100.000
211.71	-450.000
212.09	-100.000
212.46	-20.000
212.84	-100.000
213.22	50.000
213.59	300.000
213.97	400.000
214.34	-50.000
214.72	92.308
215.09	200.000
215.47	100.000
215.84	500.000
216.22	87.500
216.59	500.000
216.97	566.667
217.34	88.889
217.72	0.000
218.09	-33.333
218.47	800.000
218.84	-42.857
219.22	25.000
219.59	-66.667
219.97	75.000
220.34	-12.500
220.72	200.000
221.09	0.000
221.47	50.000
221.84	800.000
222.22	0.000
222.59	-300.000
222.97	0.000
223.34	58.333
223.72	500.000
224.09	0.000
224.46	118.182
224.84	12.500
225.21	14.286
225.59	-425.000
225.96	200.000
226.34	-10.000
226.71	0.000
227.08	100.000
227.46	162.500
227.83	500.000
228.21	25.000
228.58	-50.000
228.95	0.000
229.33	100.000
229.70	25.000
230.08	-38.462
230.45	0.000
230.82	-58.333
231.20	57.143
231.57	-75.000
231.95	-600.000
232.32	141.667
232.69	58.824
233.07	100.000
233.44	60.870
233.81	250.000
234.19	66.667
234.56	-20.000
234.93	6.667
235.31	47.368
235.68	0.000
236.05	-30.769
236.43	22.222
236.80	18.182
237.17	0.000
237.55	123.529
237.92	13.793
238.29	11.111
238.67	13.889
239.04	29.032
239.41	21.277
239.79	42.553
240.16	25.581
240.53	37.500
240.91	28.571
241.28	37.500
241.65	20.968
242.02	13.158
242.40	46.377
242.77	24.638
243.14	24.359
243.51	24.468
243.89	31.731
244.26	29.245
244.63	17.308
245.00	30.208
245.38	24.370
245.75	24.590
246.12	20.301
246.49	13.821
246.87	17.647
247.24	31.081
247.61	23.179
247.98	25.000
248.36	18.935
248.73	22.472
249.10	18.687
249.47	26.344
249.84	25.789
250.22	20.398
250.59	23.364
250.96	28.182
251.33	18.660
251.70	26.360
252.08	17.155
252.45	24.691
252.82	22.814
253.19	20.623
253.56	22.302
253.94	22.064
254.31	21.479
254.68	26.174
255.05	19.472
255.42	20.629
255.79	20.245
256.16	24.290
256.54	22.540
256.91	18.354
257.28	19.497
257.65	19.108
258.02	19.648
258.39	25.439
258.76	20.640
259.14	23.580
259.51	21.629
259.88	23.577
260.25	21.667
260.62	23.876
260.99	22.281
261.36	20.984
261.73	22.469
262.10	20.611
262.47	18.025
262.85	18.905
263.22	22.564
263.59	19.740
263.96	20.925
264.33	22.115
264.70	22.326
265.07	19.676
265.44	22.069
265.81	21.053
266.18	23.462
266.55	21.397
266.92	20.975
267.29	21.193
267.66	21.868
268.03	23.457
268.40	19.280
268.77	21.901
269.14	23.878
269.51	23.614
269.88	17.312
270.25	25.636
270.62	20.287
270.99	21.260
271.36	20.833
271.73	22.490
272.10	20.381
272.47	22.841
272.84	21.654
273.21	22.896
273.58	21.107
273.95	21.887
274.32	18.284
274.69	22.040
275.06	23.675
275.43	20.151
275.80	21.809
276.17	20.626
276.54	20.071
276.91	19.512
277.28	20.397
277.65	20.105
278.02	21.607
278.39	20.426
278.76	22.910
279.13	21.098
279.50	21.552
279.87	20.290
280.23	22.703
280.60	19.377
280.97	21.429
281.34	22.082
281.71	19.350
282.08	20.342
282.45	21.311
282.82	20.607
283.19	21.341
283.56	21.406
283.92	21.101
284.29	19.501
284.66	19.440
285.03	18.730
285.40	19.335
285.77	20.721
286.14	20.213
286.51	20.990
286.87	19.231
287.24	19.174
287.61	20.030
287.98	19.706
288.35	19.970
288.72	20.373
289.08	20.655
289.45	18.943
289.82	18.759
290.19	18.794
290.56	18.182
290.93	18.785
291.29	17.784
291.66	18.989
292.03	19.074
292.40	18.035
292.77	18.876
293.13	18.968
293.50	18.301
293.87	18.000
294.24	18.122
294.60	17.945
294.97	17.593
295.34	17.414
295.71	15.637
296.08	15.314
296.44	15.944
296.81	15.469
297.18	15.625
297.55	16.038
297.91	17.516
298.28	16.828
298.65	15.764
299.02	17.094
299.38	16.319
299.75	16.226
300.12	16.395
300.48	15.673
300.85	16.166
301.22	15.331
301.59	14.789
301.95	15.331
302.32	15.519
302.69	14.463
303.05	15.061
303.42	15.795
303.79	14.826
304.15	15.882
304.52	15.376
304.89	14.286
305.25	14.599
305.62	14.967
305.99	17.193
306.35	16.196
306.72	15.870
307.09	14.911
307.45	15.016
307.82	15.263
308.19	13.584
308.55	14.944
308.92	15.717
309.29	14.014
309.65	15.385
310.02	13.917
310.38	15.041
310.75	14.103
311.12	14.674
311.48	13.452
311.85	14.665
312.22	15.474
312.58	13.430
312.95	14.030
313.31	14.692
313.68	14.599
314.05	15.595
314.41	14.313
314.78	14.137
315.14	14.259
315.51	14.177
315.87	14.736
316.24	13.866
316.61	14.795
316.97	13.889
317.34	13.725
317.70	15.165
318.07	15.262
318.43	14.453
318.80	12.827
319.16	13.705
319.53	14.337
319.89	13.550
320.26	13.401
320.62	13.531
320.99	14.050
321.35	13.751
321.72	13.378
322.08	13.930
322.45	15.911
322.81	14.603
323.18	13.506
323.54	15.433
323.91	14.182
324.27	15.032
324.64	13.328
325.00	14.086
325.37	15.017
325.73	14.562
326.10	14.214
326.46	13.796
326.83	15.049
327.19	14.146
327.56	15.149
327.92	15.044
328.29	15.025
328.65	15.513
329.01	14.248
329.38	15.304
329.74	14.850
330.11	13.977
330.47	14.323
330.84	13.718
331.20	14.347
331.56	13.678
331.93	13.781
332.29	14.248
332.66	13.220
333.02	15.812
333.38	14.737
333.75	13.652
334.11	15.191
334.48	14.298
334.84	13.958
335.20	14.837
335.57	13.925
335.93	13.918
336.29	14.011
336.66	15.299
337.02	15.478
337.38	14.795
337.75	13.953
338.11	14.005
338.47	13.784
338.84	14.777
339.20	14.021
339.56	14.334
339.93	13.829
340.29	13.834
340.65	13.944
341.02	13.561
341.38	13.429
341.74	12.941
342.11	13.625
342.47	13.305
342.83	12.827
343.20	13.452
343.56	14.963
343.92	13.647
344.28	13.718
344.65	13.388
345.01	13.559
345.37	14.309
345.73	13.971
346.10	15.169
346.46	13.659
346.82	12.921
347.19	12.816
347.55	14.782
347.91	13.250
348.27	13.722
348.63	13.782
349.00	13.443
349.36	14.443
349.72	14.695
350.08	13.651
350.45	13.547
350.81	14.867
351.17	13.857
351.53	14.454
351.89	13.264
352.26	13.436
352.62	13.178
352.98	13.179
353.34	13.527
353.70	13.629
354.07	14.196
354.43	13.608
354.79	13.542
355.15	13.975
355.51	13.516
355.87	13.292
356.24	13.804
356.60	14.230
356.96	14.198
357.32	13.700
357.68	13.522
358.04	13.732
358.40	13.101
358.77	13.838
359.13	13.152
359.49	13.626
359.85	13.495
360.21	13.647
360.57	13.840
360.93	12.822
361.29	14.286
361.66	12.908
362.02	11.787
362.38	13.146
362.74	12.835
363.10	14.244
363.46	13.256
363.82	14.117
364.18	12.908
364.54	13.931
364.90	12.404
365.26	13.234
365.62	12.997
365.98	13.381
366.35	13.830
366.71	12.553
367.07	13.678
367.43	13.449
367.79	14.177
368.15	13.361
368.51	12.166
368.87	14.096
369.23	13.594
369.59	13.390
369.95	12.917
370.31	12.831
370.67	12.672
371.03	12.918
371.39	13.556
371.75	13.357
372.11	12.821
372.47	12.761
372.83	13.176
373.19	13.237
373.55	13.295
373.91	13.508
374.27	11.757
374.63	12.660
374.99	12.465
375.35	13.082
375.71	12.296
376.07	14.119
376.42	12.701
376.78	13.408
377.14	12.542
377.50	13.364
377.86	12.616
378.22	12.832
378.58	13.115
378.94	13.125
379.30	12.867
379.66	13.564
380.02	12.316
380.38	12.289
380.74	13.449
381.09	13.148
381.45	12.273
381.81	12.693
382.17	11.783
382.53	13.046
382.89	12.545
383.25	12.901
383.61	12.833
383.97	13.250
384.32	12.665
384.68	12.647
385.04	12.645
385.40	12.765
385.76	12.713
386.12	12.782
386.48	13.041
386.83	13.204
387.19	12.893
387.55	12.937
387.91	13.223
388.27	13.379
388.62	12.110
388.98	12.766
389.34	13.033
389.70	13.065
390.06	12.938
390.42	13.338
390.77	12.428
391.13	13.258
391.49	12.524
391.85	12.907
392.20	12.782
392.56	12.317
392.92	12.229
393.28	12.725
393.64	13.150
393.99	12.301
394.35	12.469
394.71	12.179
395.07	10.943
395.42	12.371
395.78	12.355
396.14	12.809
396.50	12.873
396.85	12.492
397.21	12.484
397.57	11.863
397.92	12.814
398.28	13.198
398.64	12.447
399.00	13.449
399.35	12.599
399.71	12.289
400.07	12.470
400.42	12.038
400.78	12.387
401.14	12.140
401.49	12.822
401.85	12.039
402.21	12.322
402.57	12.753
402.92	13.267
403.28	12.821
403.63	12.771
403.99	12.540
404.35	12.282
404.70	12.266
405.06	12.566
405.42	11.935
405.77	11.751
406.13	12.514
406.49	12.343
406.84	12.454
407.20	12.729
407.55	12.857
407.91	12.508
408.27	11.978
408.62	12.953
408.98	12.577
409.34	12.995
409.69	13.125
410.05	12.811
410.40	11.808
410.76	12.756
411.11	12.749
411.47	12.674
411.83	12.227
412.18	12.091
412.54	12.531
412.89	12.038
413.25	11.740
413.60	12.539
413.96	12.984
414.31	12.824
414.67	12.190
415.03	12.788
415.38	11.823
415.74	12.541
416.09	13.087
416.45	13.329
416.80	12.081
417.16	12.821
417.51	13.195
417.87	12.368
418.22	11.829
418.58	12.615
418.93	12.932
419.29	12.805
419.64	12.532
420.00	12.825
420.35	12.851
420.71	12.553
421.06	12.608
421.42	13.139
421.77	12.659
422.12	13.066
422.48	12.323
422.83	12.817
423.19	12.363
423.54	13.133
423.90	12.055
424.25	12.652
424.61	12.076
424.96	13.010
425.31	12.339
425.67	13.228
426.02	13.251
426.38	12.873
426.73	12.828
427.09	12.758
427.44	12.507
427.79	11.817
428.15	12.232
428.50	11.964
428.85	12.792
429.21	12.493
429.56	12.806
429.92	12.858
430.27	12.321
430.62	12.277
430.98	13.062
431.33	12.466
431.68	12.513
432.04	12.451
432.39	12.529
432.74	12.324
433.10	12.958
433.45	12.189
433.80	12.816
434.16	12.398
434.51	12.174
434.86	13.192
435.22	12.677
435.57	12.776
435.92	11.761
436.28	12.613
436.63	12.875
436.98	12.691
437.34	13.309
437.69	12.161
438.04	12.620
438.39	13.076
438.75	12.396
439.10	13.245
439.45	12.046
439.81	13.670
440.16	13.391
440.51	12.961
440.86	13.219
441.22	12.335
441.57	12.636
441.92	13.375
442.27	12.446
442.63	12.164
442.98	12.095
443.33	12.867
443.68	12.652
444.03	12.668
444.39	13.089
444.74	11.872
445.09	12.280
445.44	13.296
445.79	12.597
446.15	12.923
446.50	12.280
446.85	13.095
447.20	12.337
447.55	12.647
447.91	12.079
448.26	12.064
448.61	12.140
448.96	12.642
449.31	13.192
449.66	12.551
450.02	12.735
450.37	12.867
450.72	13.146
451.07	12.727
451.42	13.163
451.77	12.964
452.12	12.240
452.47	13.557
452.83	12.205
453.18	12.603
453.53	13.052
453.88	13.373
454.23	12.670
454.58	13.419
454.93	12.636
455.28	12.974
455.63	12.352
455.98	12.234
456.34	11.697
456.69	13.035
457.04	12.941
457.39	13.049
457.74	12.268
458.09	12.974
458.44	12.221
458.79	12.411
459.14	12.303
459.49	13.232
459.84	11.950
460.19	12.725
460.54	12.774
460.89	12.838
461.24	13.379
461.59	12.077
461.94	13.401
462.29	11.765
462.64	12.467
462.99	13.146
463.34	12.914
463.69	13.402
464.04	12.545
464.39	12.996
464.74	12.961
465.09	12.957
465.44	13.187
465.79	13.226
466.14	12.771
466.49	12.258
466.84	13.090
467.19	13.121
467.54	12.508
467.89	13.074
468.24	13.276
468.59	12.747
468.94	12.835
469.29	12.822
469.64	12.762
469.99	13.172
470.34	12.677
470.68	13.086
471.03	12.976
471.38	13.282
471.73	13.032
472.08	13.471
472.43	13.259
472.78	13.455
473.13	11.873
473.48	13.046
473.83	12.429
474.17	12.630
474.52	13.139
474.87	12.606
475.22	12.742
475.57	12.493
475.92	12.759
476.27	12.646
476.61	12.571
476.96	13.192
477.31	13.269
477.66	12.712
478.01	12.582
478.36	12.643
478.70	12.137
479.05	13.263
479.40	13.053
479.75	12.593
480.10	12.749
480.45	12.016
480.79	12.842
481.14	13.019
481.49	13.468
481.84	12.677
482.19	12.598
482.53	13.048
482.88	13.039
483.23	12.320
483.58	12.902
483.92	12.305
484.27	12.626
484.62	12.028
484.97	12.692
485.31	12.344
485.66	12.692
486.01	12.801
486.36	12.488
486.70	12.230
487.05	12.747
487.40	12.480
487.75	13.006
488.09	12.261
488.44	12.303
488.79	12.869
489.13	12.445
489.48	13.339
489.83	13.220
490.17	12.665
490.52	13.137
490.87	12.239
491.22	12.718
491.56	13.177
491.91	12.914
492.26	13.395
492.60	12.891
492.95	13.314
493.30	12.355
493.64	12.470
493.99	12.899
494.34	13.247
494.68	12.983
495.03	12.352
495.37	12.749
495.72	13.283
496.07	12.616
496.41	12.026
496.76	13.254
497.11	12.676
497.45	13.230
497.80	12.418
498.14	13.048
498.49	12.859
498.84	13.462
499.18	12.245
499.53	13.097
499.87	12.324
500.22	12.842
500.56	12.989
500.91	13.078
501.26	13.103
501.60	12.304
501.95	13.368
502.29	13.058
502.64	13.115
502.98	12.524
503.33	12.944
503.67	13.535
504.02	12.598
504.36	12.927
504.71	12.805
505.06	13.194
505.40	12.938
505.75	12.564
506.09	13.030
506.44	12.903
506.78	12.798
507.13	12.890
507.47	12.725
507.82	12.611
508.16	12.982
508.51	12.655
508.85	12.545
509.19	13.122
509.54	13.351
509.88	13.065
510.23	12.842
510.57	13.242
510.92	13.147
511.26	13.366
511.61	13.392
511.95	12.789
512.30	12.882
512.64	13.905
512.98	13.241
513.33	12.620
513.67	12.663
514.02	13.284
514.36	13.427
514.70	12.529
515.05	12.873
515.39	12.972
515.74	13.025
516.08	13.038
516.42	12.730
516.77	12.068
517.11	12.816
517.46	13.205
517.80	13.559
518.14	13.288
518.49	13.080
518.83	13.723
519.17	12.410
519.52	13.269
519.86	13.115
520.20	13.159
520.55	12.998
520.89	12.207
521.23	13.397
521.58	13.338
521.92	12.885
522.26	12.947
522.61	13.058
522.95	13.148
523.29	12.889
523.64	13.160
523.98	13.723
524.32	13.800
524.66	12.727
525.01	13.106
525.35	12.903
525.69	13.519
526.04	11.792
526.38	13.767
526.72	12.097
527.06	14.055
527.41	12.574
527.75	13.618
528.09	13.887
528.43	13.636
528.78	13.695
529.12	13.066
529.46	13.820
529.80	12.362
530.15	12.999
530.49	13.747
530.83	13.947
531.17	12.740
531.51	12.407
531.86	12.873
532.20	12.888
532.54	12.897
532.88	13.547
533.22	13.333
533.57	13.576
533.91	13.226
534.25	14.323
534.59	13.320
534.93	13.329
535.27	13.185
535.62	13.158
535.96	13.988
536.30	13.564
536.64	12.782
536.98	13.385
537.32	13.523
537.66	13.752
538.01	12.552
538.35	12.431
538.69	13.177
539.03	13.490
539.37	12.810
539.71	13.165
540.05	12.078
540.39	12.595
540.73	14.525
541.07	13.401
541.42	13.064
541.76	13.599
542.10	12.119
542.44	13.514
542.78	13.185
543.12	13.410
543.46	12.992
543.80	12.967
544.14	13.145
544.48	13.205
544.82	12.912
545.16	12.914
545.50	12.964
545.84	13.745
546.18	12.973
546.52	13.973
546.86	12.721
547.20	12.938
547.54	12.723
547.88	14.305
548.22	13.681
548.56	11.674
548.90	13.058
549.24	13.889
549.58	12.669
549.92	13.866
550.26	14.244
550.60	12.613
550.94	13.134
551.28	13.248
551.62	14.361
551.96	13.104
552.30	11.863
552.64	12.500
552.98	13.636
553.32	13.194
553.66	12.399
554.00	13.535
554.34	12.894
554.68	13.125
555.02	12.201
555.36	13.086
555.69	13.620
556.03	13.367
556.37	12.945
556.71	12.824
557.05	11.956
557.39	12.886
557.73	13.767
558.07	13.112
558.41	12.642
558.75	14.396
559.08	12.189
559.42	12.903
559.76	13.150
560.10	13.528
560.44	14.296
560.78	12.302
561.12	13.315
561.45	13.197
561.79	13.136
562.13	14.205
562.47	13.500
562.81	13.348
563.15	13.173
563.48	13.145
563.82	12.859
564.16	12.999
564.50	12.483
564.84	12.095
565.17	13.841
565.51	13.235
565.85	12.059
566.19	12.914
566.52	12.713
566.86	13.085
567.20	13.622
567.54	13.356
567.88	12.598
568.21	12.928
568.55	13.302
568.89	12.413
569.23	13.291
569.56	12.516
569.90	12.615
570.24	11.769
570.57	12.965
570.91	12.750
571.25	12.452
571.59	12.387
571.92	12.790
572.26	12.860
572.60	12.627
572.93	12.715
573.27	12.360
573.61	12.986
573.95	12.507
574.28	12.761
574.62	12.738
574.96	12.475
575.29	12.437
575.63	12.408
575.97	12.500
576.30	12.555
576.64	12.811
576.98	12.563
577.31	12.951
577.65	12.768
577.98	12.622
578.32	12.485
578.66	12.330
578.99	12.488
579.33	12.469
579.67	12.933
580.00	12.323
580.34	12.555
580.67	12.910
581.01	12.593
581.35	12.607
581.68	12.474
582.02	12.775
582.35	12.753
582.69	12.464
583.02	12.613
583.36	12.132
583.70	12.394
584.03	12.483
584.37	12.514
584.70	12.357
585.04	13.121
585.37	12.199
585.71	12.808
586.04	12.381
586.38	12.339
586.72	12.447
587.05	12.944
587.39	13.087
587.72	12.447
588.06	11.847
588.39	12.483
588.73	12.846
589.06	12.253
589.40	12.762
589.73	12.325
590.07	12.796
590.40	13.063
590.73	12.723
591.07	12.662
591.40	12.304
591.74	12.628
592.07	12.688
592.41	13.085
592.74	12.731
593.08	12.479
593.41	12.749
593.75	12.403
594.08	12.953
594.41	12.614
594.75	13.006
595.08	12.733
595.42	12.348
595.75	12.726
596.09	12.625
596.42	12.459
596.75	13.032
597.09	13.285
597.42	13.145
597.75	12.933
598.09	12.386
598.42	13.423
598.76	12.846
599.09	12.685
599.42	12.727
599.76	13.256
600.09	12.575
600.42	13.107
600.76	13.045
601.09	12.731
601.42	12.779
601.76	12.857
602.09	12.890
602.42	13.248
602.76	12.206
603.09	12.895
603.42	12.875
603.76	12.666
604.09	12.806
604.42	12.390
604.76	13.182
605.09	13.276
605.42	12.955
605.75	12.677
606.09	12.459
606.42	13.092
606.75	12.294
607.09	12.722
607.42	13.179
607.75	12.035
608.08	13.165
608.42	12.699
608.75	12.757
609.08	13.180
609.41	12.419
609.75	12.254
610.08	13.412
610.41	13.022
610.74	12.705
611.07	12.625
611.41	13.460
611.74	13.302
612.07	12.559
612.40	13.459
612.73	12.130
613.07	12.639
613.40	12.500
613.73	13.326
614.06	12.714
614.39	13.007
614.72	13.215
615.06	12.833
615.39	12.472
615.72	12.635
616.05	12.218
616.38	13.631
616.71	12.657
617.05	12.469
617.38	12.015
617.71	12.377
618.04	12.614
618.37	12.681
618.70	12.678
619.03	12.027
619.36	12.456
619.69	12.573
620.03	12.721
620.36	12.457
620.69	12.420
621.02	11.923
621.35	12.919
621.68	12.388
622.01	12.783
622.34	12.054
622.67	14.252
623.00	13.222
623.33	12.565
623.66	12.714
623.99	13.053
624.32	13.059
624.65	12.982
624.99	12.858
625.32	13.592
625.65	12.946
625.98	12.322
626.31	12.980
626.64	11.952
626.97	13.062
627.30	13.174
627.63	12.284
627.96	11.861
628.29	13.581
628.62	12.863
628.95	12.224
629.28	13.202
629.61	14.067
629.94	12.959
630.26	13.103
630.59	12.787
630.92	12.952
631.25	12.255
631.58	13.704
631.91	12.937
632.24	11.745
632.57	12.444
632.90	12.719
633.23	13.070
633.56	13.909
633.89	13.278
634.22	15.430
634.55	13.642
