SpectraSuite Data File
++++++++++++++++++++++++++++++++++++
Date: Wed May 13 21:02:06 PDT 2015
User: schluterlab
Dark Spectrum Present: Yes
Reference Spectrum Present: Yes
Number of Sampled Component Spectra: 1
Spectrometers: USB2E3373
Integration Time (usec): 3000 (USB2E3373)
Spectra Averaged: 3 (USB2E3373)
Boxcar Smoothing: 0 (USB2E3373)
Correct for Electrical Dark: No (USB2E3373)
Strobe/Lamp Enabled: No (USB2E3373)
Correct for Detector Non-linearity: No (USB2E3373)
Correct for Stray Light: No (USB2E3373)
Number of Pixels in Processed Spectrum: 2048
>>>>>Begin Processed Spectral Data<<<<<
178.53	0.000
178.91	550.000
179.29	100.000
179.67	-550.000
180.04	0.000
180.42	-0.000
180.80	400.000
181.18	83.333
181.56	-175.000
181.94	-175.000
182.31	63.636
182.69	92.308
183.07	120.000
183.45	100.000
183.83	-33.333
184.20	42.857
184.58	33.333
184.96	-66.667
185.34	142.857
185.72	0.000
186.09	400.000
186.47	-320.000
186.85	60.000
187.23	450.000
187.61	50.000
187.98	500.000
188.36	-25.000
188.74	0.000
189.12	18.182
189.49	70.000
189.87	58.333
190.25	240.000
190.63	700.000
191.00	-20.000
191.38	140.000
191.76	550.000
192.14	100.000
192.51	-21.053
192.89	533.333
193.27	200.000
193.65	-120.000
194.02	81.818
194.40	110.000
194.78	600.000
195.15	140.000
195.53	80.000
195.91	75.000
196.29	0.000
196.66	0.000
197.04	-150.000
197.42	60.000
197.79	110.000
198.17	-37.500
198.55	-133.333
198.92	150.000
199.30	-533.333
199.68	-20.000
200.05	300.000
200.43	-50.000
200.81	-400.000
201.18	60.000
201.56	150.000
201.94	225.000
202.31	17.391
202.69	-42.857
203.07	-33.333
203.44	-40.000
203.82	33.333
204.19	-60.000
204.57	0.000
204.95	-66.667
205.32	0.000
205.70	-50.000
206.08	-225.000
206.45	-133.333
206.83	175.000
207.20	66.667
207.58	10.000
207.96	-500.000
208.33	-85.714
208.71	-1000.000
209.08	150.000
209.46	250.000
209.84	0.000
210.21	110.000
210.59	1000.000
210.96	200.000
211.34	200.000
211.71	-750.000
212.09	-66.667
212.46	-130.000
212.84	33.333
213.22	125.000
213.59	-700.000
213.97	-100.000
214.34	-500.000
214.72	30.769
215.09	87.500
215.47	122.222
215.84	350.000
216.22	-37.500
216.59	200.000
216.97	166.667
217.34	-22.222
217.72	0.000
218.09	200.000
218.47	0.000
218.84	-71.429
219.22	50.000
219.59	-233.333
219.97	-25.000
220.34	87.500
220.72	160.000
221.09	0.000
221.47	-16.667
221.84	500.000
222.22	0.000
222.59	800.000
222.97	66.667
223.34	-16.667
223.72	-1200.000
224.09	-450.000
224.46	45.455
224.84	100.000
225.21	14.286
225.59	-150.000
225.96	166.667
226.34	110.000
226.71	-42.857
227.08	300.000
227.46	-50.000
227.83	1100.000
228.21	-37.500
228.58	0.000
228.95	5.882
229.33	56.250
229.70	37.500
230.08	53.846
230.45	-37.500
230.82	-41.667
231.20	114.286
231.57	-250.000
231.95	600.000
232.32	83.333
232.69	41.176
233.07	-1100.000
233.44	-4.348
233.81	-400.000
234.19	58.333
234.56	-20.000
234.93	-40.000
235.31	31.579
235.68	-92.308
236.05	69.231
236.43	44.444
236.80	9.091
237.17	-73.333
237.55	-52.941
237.92	-17.241
238.29	-25.926
238.67	2.778
239.04	-16.129
239.41	10.638
239.79	17.021
240.16	13.953
240.53	25.000
240.91	32.143
241.28	23.214
241.65	9.677
242.02	13.158
242.40	24.638
242.77	2.899
243.14	6.410
243.51	7.447
243.89	2.885
244.26	20.755
244.63	2.885
245.00	16.667
245.38	8.403
245.75	4.918
246.12	10.526
246.49	-6.504
246.87	5.042
247.24	10.135
247.61	9.272
247.98	12.179
248.36	13.609
248.73	2.809
249.10	7.576
249.47	8.065
249.84	6.316
250.22	10.448
250.59	7.477
250.96	7.727
251.33	1.914
251.70	7.950
252.08	7.531
252.45	6.173
252.82	11.027
253.19	6.615
253.56	7.554
253.94	10.676
254.31	5.634
254.68	8.054
255.05	10.891
255.42	8.042
255.79	9.509
256.16	10.410
256.54	8.254
256.91	4.114
257.28	7.547
257.65	3.822
258.02	6.452
258.39	6.140
258.76	4.651
259.14	5.966
259.51	8.146
259.88	8.943
260.25	8.889
260.62	6.180
260.99	9.019
261.36	8.549
261.73	6.667
262.10	6.361
262.47	6.914
262.85	7.214
263.22	6.154
263.59	7.273
263.96	6.083
264.33	6.971
264.70	9.535
265.07	6.944
265.44	10.115
265.81	6.865
266.18	6.606
266.55	5.022
266.92	6.356
267.29	5.350
267.66	8.917
268.03	8.025
268.40	5.085
268.77	7.645
269.14	7.143
269.51	9.446
269.88	6.314
270.25	8.051
270.62	6.148
270.99	6.693
271.36	7.937
271.73	8.835
272.10	8.381
272.47	6.526
272.84	5.906
273.21	6.458
273.58	6.967
273.95	6.415
274.32	7.090
274.69	7.650
275.06	8.127
275.43	8.098
275.80	5.851
276.17	5.893
276.54	6.927
276.91	7.143
277.28	5.415
277.65	6.469
278.02	8.036
278.39	6.572
278.76	7.191
279.13	6.690
279.50	5.000
279.87	8.514
280.23	6.126
280.60	5.363
280.97	6.656
281.34	8.675
281.71	6.016
282.08	6.325
282.45	8.197
282.82	7.827
283.19	8.232
283.56	7.813
283.92	6.575
284.29	7.644
284.66	5.272
285.03	6.026
285.40	8.006
285.77	7.357
286.14	6.839
286.51	7.946
286.87	6.154
287.24	5.162
287.61	6.175
287.98	8.235
288.35	5.663
288.72	6.887
289.08	8.405
289.45	5.874
289.82	7.867
290.19	7.574
290.56	5.966
290.93	5.525
291.29	6.430
291.66	5.601
292.03	7.084
292.40	7.268
292.77	6.827
293.13	6.137
293.50	6.797
293.87	6.667
294.24	6.481
294.60	5.982
294.97	7.143
295.34	5.409
295.71	5.388
296.08	4.974
296.44	5.485
296.81	5.359
297.18	6.250
297.55	6.486
297.91	7.081
298.28	6.053
298.65	4.433
299.02	6.838
299.38	5.767
299.75	5.889
300.12	5.233
300.48	6.199
300.85	5.312
301.22	6.388
301.59	3.991
301.95	4.762
302.32	6.301
302.69	4.181
303.05	5.094
303.42	5.909
303.79	5.889
304.15	4.600
304.52	5.591
304.89	4.873
305.25	4.610
305.62	5.748
305.99	5.005
306.35	7.941
306.72	6.714
307.09	6.986
307.45	5.964
307.82	5.368
308.19	5.747
308.55	4.606
308.92	7.662
309.29	6.406
309.65	5.994
310.02	5.964
310.38	6.402
310.75	6.312
311.12	7.483
311.48	6.528
311.85	5.610
312.22	7.930
312.58	5.121
312.95	6.269
313.31	7.163
313.68	7.156
314.05	7.278
314.41	7.205
314.78	7.211
315.14	6.852
315.51	7.897
315.87	8.990
316.24	8.264
316.61	8.584
316.97	8.056
317.34	8.021
317.70	8.921
318.07	11.003
318.43	9.756
318.80	9.250
319.16	8.930
319.53	10.484
319.89	10.388
320.26	12.015
320.62	10.843
320.99	10.756
321.35	11.132
321.72	11.742
322.08	13.469
322.45	13.784
322.81	14.603
323.18	14.132
323.54	15.614
323.91	15.086
324.27	15.482
324.64	15.418
325.00	14.873
325.37	17.406
325.73	17.424
326.10	15.896
326.46	16.722
326.83	17.476
327.19	18.618
327.56	19.098
327.92	18.745
328.29	20.367
328.65	20.508
329.01	20.053
329.38	21.130
329.74	20.687
330.11	20.198
330.47	19.705
330.84	21.841
331.20	20.410
331.56	21.467
331.93	23.859
332.29	22.937
332.66	23.559
333.02	23.458
333.38	23.158
333.75	24.147
334.11	24.740
334.48	24.237
334.84	23.587
335.20	25.300
335.57	24.195
335.93	23.368
336.29	24.168
336.66	24.957
337.02	25.391
337.38	24.108
337.75	24.892
338.11	24.594
338.47	22.945
338.84	24.485
339.20	24.603
339.56	25.341
339.93	26.102
340.29	25.790
340.65	25.834
341.02	25.042
341.38	26.098
341.74	24.034
342.11	24.360
342.47	24.603
342.83	24.673
343.20	24.873
343.56	25.184
343.92	25.264
344.28	26.623
344.65	25.061
345.01	25.747
345.37	26.398
345.73	26.307
346.10	25.522
346.46	25.691
346.82	25.682
347.19	25.712
347.55	25.687
347.91	24.864
348.27	24.448
348.63	25.801
349.00	25.629
349.36	25.667
349.72	26.914
350.08	25.897
350.45	26.782
350.81	26.291
351.17	26.867
351.53	25.530
351.89	26.450
352.26	25.483
352.62	26.434
352.98	26.837
353.34	25.443
353.70	26.090
354.07	26.118
354.43	26.983
354.79	26.282
355.15	26.941
355.51	26.424
355.87	26.271
356.24	27.448
356.60	26.661
356.96	27.859
357.32	27.554
357.68	27.196
358.04	27.075
358.40	26.899
358.77	27.676
359.13	27.704
359.49	27.933
359.85	27.293
360.21	28.065
360.57	27.833
360.93	26.480
361.29	28.571
361.66	27.942
362.02	28.095
362.38	27.917
362.74	27.411
363.10	28.127
363.46	27.161
363.82	27.938
364.18	28.426
364.54	27.279
364.90	27.317
365.26	26.752
365.62	29.332
365.98	27.544
366.35	29.220
366.71	28.531
367.07	27.569
367.43	28.432
367.79	28.700
368.15	28.973
368.51	28.411
368.87	28.890
369.23	28.897
369.59	28.471
369.95	29.390
370.31	28.731
370.67	28.675
371.03	30.512
371.39	29.454
371.75	30.500
372.11	30.057
372.47	29.200
372.83	30.444
373.19	29.209
373.55	29.697
373.91	30.198
374.27	29.530
374.63	29.872
374.99	30.014
375.35	29.521
375.71	30.163
376.07	30.775
376.42	31.818
376.78	31.440
377.14	31.322
377.50	30.704
377.86	30.544
378.22	31.416
378.58	31.274
378.94	31.125
379.30	31.043
379.66	32.182
380.02	30.821
380.38	32.169
380.74	31.978
381.09	31.242
381.45	31.076
381.81	31.916
382.17	31.065
382.53	31.692
382.89	31.966
383.25	32.593
383.61	32.324
383.97	30.875
384.32	31.884
384.68	31.339
385.04	31.399
385.40	32.565
385.76	33.273
386.12	33.054
386.48	33.668
386.83	32.228
387.19	32.572
387.55	33.354
387.91	33.579
388.27	33.107
388.62	33.084
388.98	33.667
389.34	33.584
389.70	33.761
390.06	34.375
390.42	34.665
390.77	32.735
391.13	33.649
391.49	33.017
391.85	34.313
392.20	33.772
392.56	33.968
392.92	33.411
393.28	33.643
393.64	34.067
393.99	33.415
394.35	34.630
394.71	34.872
395.07	33.082
395.42	34.613
395.78	34.620
396.14	34.306
396.50	34.306
396.85	35.182
397.21	34.145
397.57	34.534
397.92	33.713
398.28	34.518
398.64	34.305
399.00	34.375
399.35	35.358
399.71	33.722
400.07	35.361
400.42	35.361
400.78	34.985
401.14	33.967
401.49	34.212
401.85	34.582
402.21	35.975
402.57	35.377
402.92	35.357
403.28	35.084
403.63	34.966
403.99	35.317
404.35	35.973
404.70	34.139
405.06	36.054
405.42	35.616
405.77	35.772
406.13	34.629
406.49	35.470
406.84	36.020
407.20	35.583
407.55	35.260
407.91	35.275
408.27	35.059
408.62	36.034
408.98	35.512
409.34	35.210
409.69	36.842
410.05	36.007
410.40	34.693
410.76	35.138
411.11	36.505
411.47	37.757
411.83	36.556
412.18	35.768
412.54	36.779
412.89	35.674
413.25	35.811
413.60	36.364
413.96	35.893
414.31	36.067
414.67	35.937
415.03	36.806
415.38	35.865
415.74	37.232
416.09	36.352
416.45	36.500
416.80	36.577
417.16	36.775
417.51	37.709
417.87	36.045
418.22	37.363
418.58	36.268
418.93	36.660
419.29	38.284
419.64	36.387
420.00	37.333
420.35	36.880
420.71	36.137
421.06	37.515
421.42	38.321
421.77	37.457
422.12	36.791
422.48	37.241
422.83	37.566
423.19	38.298
423.54	38.104
423.90	37.055
424.25	37.262
424.61	38.632
424.96	36.724
425.31	38.082
425.67	38.213
426.02	38.575
426.38	39.428
426.73	38.668
427.09	38.086
427.44	38.873
427.79	38.539
428.15	38.349
428.50	37.885
428.85	39.176
429.21	38.604
429.56	39.373
429.92	38.417
430.27	39.110
430.62	38.825
430.98	37.864
431.33	37.614
431.68	39.084
432.04	39.268
432.39	38.395
432.74	38.320
433.10	39.512
433.45	39.172
433.80	39.828
434.16	37.357
434.51	39.239
434.86	39.282
435.22	39.615
435.57	39.803
435.92	39.867
436.28	39.099
436.63	38.915
436.98	40.129
437.34	40.354
437.69	39.610
438.04	38.653
438.39	40.100
438.75	39.273
439.10	40.659
439.45	39.165
439.81	39.101
440.16	40.348
440.51	39.536
440.86	40.308
441.22	39.931
441.57	40.130
441.92	39.450
442.27	39.177
442.63	39.236
442.98	38.831
443.33	39.673
443.68	39.642
444.03	40.288
444.39	40.109
444.74	39.867
445.09	40.363
445.44	41.127
445.79	40.320
446.15	40.100
446.50	39.923
446.85	40.673
447.20	40.983
447.55	39.340
447.91	39.326
448.26	40.252
448.61	40.161
448.96	41.287
449.31	41.119
449.66	40.602
450.02	40.250
450.37	40.658
450.72	39.839
451.07	40.752
451.42	39.114
451.77	40.414
452.12	40.582
452.47	41.382
452.83	39.858
453.18	40.293
453.53	40.731
453.88	40.783
454.23	40.173
454.58	39.645
454.93	39.897
455.28	41.490
455.63	39.988
455.98	39.744
456.34	40.178
456.69	40.958
457.04	40.867
457.39	40.168
457.74	40.335
458.09	40.284
458.44	40.776
458.79	39.374
459.14	38.989
459.49	40.366
459.84	40.417
460.19	39.796
460.54	40.998
460.89	40.315
461.24	39.704
461.59	41.184
461.94	39.570
462.29	40.380
462.64	41.029
462.99	41.113
463.34	40.401
463.69	40.786
464.04	39.976
464.39	40.024
464.74	39.373
465.09	40.050
465.44	39.057
465.79	40.828
466.14	40.023
466.49	40.704
466.84	39.809
467.19	39.682
467.54	40.959
467.89	39.975
468.24	39.582
468.59	38.942
468.94	40.038
469.29	39.524
469.64	39.052
469.99	40.759
470.34	39.447
470.68	40.223
471.03	39.986
471.38	40.195
471.73	39.575
472.08	40.412
472.43	40.963
472.78	40.500
473.13	38.127
473.48	39.400
473.83	38.606
474.17	40.104
474.52	40.647
474.87	39.566
475.22	39.674
475.57	38.371
475.92	39.149
476.27	39.860
476.61	39.807
476.96	39.920
477.31	38.727
477.66	41.299
478.01	39.066
478.36	39.891
478.70	39.796
479.05	39.234
479.40	38.898
479.75	39.745
480.10	39.419
480.45	38.843
480.79	38.925
481.14	39.868
481.49	39.171
481.84	38.973
482.19	38.351
482.53	39.095
482.88	39.214
483.23	39.124
483.58	39.272
483.92	39.494
484.27	38.289
484.62	38.260
484.97	38.490
485.31	38.316
485.66	37.798
486.01	37.951
486.36	37.545
486.70	37.853
487.05	38.424
487.40	38.255
487.75	38.386
488.09	38.380
488.44	39.292
488.79	38.910
489.13	39.364
489.48	39.034
489.83	39.303
490.17	39.174
490.52	39.504
490.87	38.433
491.22	38.625
491.56	38.764
491.91	38.646
492.26	38.540
492.60	38.672
492.95	38.435
493.30	37.548
493.64	38.129
493.99	37.971
494.34	39.499
494.68	38.091
495.03	38.340
495.37	38.637
495.72	38.596
496.07	38.724
496.41	37.670
496.76	38.940
497.11	38.404
497.45	37.451
497.80	38.566
498.14	38.338
498.49	37.771
498.84	39.069
499.18	38.128
499.53	38.060
499.87	37.700
500.22	38.477
500.56	38.014
500.91	38.078
501.26	38.128
501.60	37.892
501.95	37.949
502.29	37.670
502.64	38.428
502.98	37.861
503.33	38.297
503.67	37.390
504.02	38.431
504.36	38.039
504.71	38.008
505.06	38.309
505.40	38.041
505.75	38.962
506.09	37.506
506.44	38.206
506.78	38.243
507.13	37.838
507.47	37.487
507.82	36.892
508.16	38.364
508.51	36.983
508.85	37.532
509.19	36.878
509.54	38.552
509.88	38.118
510.23	37.421
510.57	38.718
510.92	37.931
511.26	38.119
511.61	37.761
511.95	36.880
512.30	36.813
512.64	38.536
512.98	37.618
513.33	38.479
513.67	37.649
514.02	38.027
514.36	38.652
514.70	38.972
515.05	37.624
515.39	37.972
515.74	37.537
516.08	38.289
516.42	37.212
516.77	38.489
517.11	37.860
517.46	38.175
517.80	39.709
518.14	37.906
518.49	37.312
518.83	37.888
519.17	37.711
519.52	38.540
519.86	38.312
520.20	37.720
520.55	38.371
520.89	38.077
521.23	39.744
521.58	38.875
521.92	38.215
522.26	37.801
522.61	39.237
522.95	38.342
523.29	39.175
523.64	38.907
523.98	37.548
524.32	37.492
524.66	38.247
525.01	39.581
525.35	37.788
525.69	39.032
526.04	36.808
526.38	38.305
526.72	38.462
527.06	37.073
527.41	38.584
527.75	38.919
528.09	38.870
528.43	38.874
528.78	38.307
529.12	39.263
529.46	37.940
529.80	38.317
530.15	38.353
530.49	38.949
530.83	38.863
531.17	38.630
531.51	37.492
531.86	37.060
532.20	38.112
532.54	38.966
532.88	39.278
533.22	38.721
533.57	38.146
533.91	38.194
534.25	39.518
534.59	39.125
534.93	38.393
535.27	39.363
535.62	38.553
535.96	38.647
536.30	38.098
536.64	37.321
536.98	37.631
537.32	38.505
537.66	39.351
538.01	38.627
538.35	38.536
538.69	36.923
539.03	36.242
539.37	37.492
539.71	38.540
540.05	37.719
540.39	38.128
540.73	38.966
541.07	38.231
541.42	38.249
541.76	37.821
542.10	36.764
542.44	37.561
542.78	38.515
543.12	37.601
543.46	37.388
543.80	37.135
544.14	38.266
544.48	37.027
544.82	38.265
545.16	37.390
545.50	38.420
545.84	37.588
546.18	38.079
546.52	38.250
546.86	37.668
547.20	37.241
547.54	37.455
547.88	38.327
548.22	37.394
548.56	36.424
548.90	38.295
549.24	37.292
549.58	37.153
549.92	38.225
550.26	39.557
550.60	38.213
550.94	37.313
551.28	36.942
551.62	37.218
551.96	38.287
552.30	36.390
552.64	36.653
552.98	38.068
553.32	38.717
553.66	39.178
554.00	36.789
554.34	37.143
554.68	37.360
555.02	38.398
555.36	38.200
555.69	37.582
556.03	37.098
556.37	37.198
556.71	35.950
557.05	37.638
557.39	36.624
557.73	37.670
558.07	38.885
558.41	38.002
558.75	36.952
559.08	37.289
559.42	37.136
559.76	37.156
560.10	38.893
560.44	38.172
560.78	36.115
561.12	36.790
561.45	36.599
561.79	36.795
562.13	36.639
562.47	38.786
562.81	36.580
563.15	35.623
563.48	35.994
563.82	38.440
564.16	36.087
564.50	36.296
564.84	36.149
565.17	37.086
565.51	35.695
565.85	35.310
566.19	36.424
566.52	36.435
566.86	36.157
567.20	36.897
567.54	35.348
567.88	34.155
568.21	35.633
568.55	35.263
568.89	35.145
569.23	34.372
569.56	34.335
569.90	34.816
570.24	33.069
570.57	33.333
570.91	33.622
571.25	33.408
571.59	33.945
571.92	34.028
572.26	33.502
572.60	34.093
572.93	33.208
573.27	33.222
573.61	33.429
573.95	33.421
574.28	33.333
574.62	32.930
574.96	32.923
575.29	32.949
575.63	33.166
575.97	33.859
576.30	32.985
576.64	33.560
576.98	33.451
577.31	32.767
577.65	32.560
577.98	32.651
578.32	32.223
578.66	33.067
578.99	32.793
579.33	32.859
579.67	32.714
580.00	32.199
580.34	32.598
580.67	33.121
581.01	32.183
581.35	32.645
581.68	32.519
582.02	32.378
582.35	32.617
582.69	33.082
583.02	31.723
583.36	32.674
583.70	32.897
584.03	33.163
584.37	32.760
584.70	32.011
585.04	32.699
585.37	32.418
585.71	32.682
586.04	32.957
586.38	32.360
586.72	32.790
587.05	32.741
587.39	32.202
587.72	32.686
588.06	32.503
588.39	31.738
588.73	32.702
589.06	32.234
589.40	32.577
589.73	32.483
590.07	32.629
590.40	32.942
590.73	33.063
591.07	32.762
591.40	33.174
591.74	33.037
592.07	33.546
592.41	32.604
592.74	32.137
593.08	32.068
593.41	31.407
593.75	31.654
594.08	32.124
594.41	31.993
594.75	32.046
595.08	32.972
595.42	32.069
595.75	31.960
596.09	32.294
596.42	32.271
596.75	32.427
597.09	33.621
597.42	33.423
597.75	32.133
598.09	33.060
598.42	32.975
598.76	31.990
599.09	32.773
599.42	31.647
599.76	31.956
600.09	32.041
600.42	32.354
600.76	31.449
601.09	31.902
601.42	31.282
601.76	32.162
602.09	32.428
602.42	32.398
602.76	32.215
603.09	32.649
603.42	32.107
603.76	30.904
604.09	32.095
604.42	31.101
604.76	32.693
605.09	31.717
605.42	32.614
605.75	32.591
606.09	31.498
606.42	31.837
606.75	31.255
607.09	32.181
607.42	32.005
607.75	31.379
608.08	31.921
608.42	31.537
608.75	32.441
609.08	30.818
609.41	32.091
609.75	31.467
610.08	32.051
610.41	32.847
610.74	32.002
611.07	32.064
611.41	32.958
611.74	31.884
612.07	31.527
612.40	32.541
612.73	32.272
613.07	32.539
613.40	32.434
613.73	32.611
614.06	31.122
614.39	31.462
614.72	32.982
615.06	31.778
615.39	32.506
615.72	31.425
616.05	30.912
616.38	31.787
616.71	31.134
617.05	32.371
617.38	30.807
617.71	31.495
618.04	31.383
618.37	32.303
618.70	32.794
619.03	31.684
619.36	31.957
619.69	31.944
620.03	31.731
620.36	31.594
620.69	30.621
621.02	32.231
621.35	32.379
621.68	31.296
622.01	33.172
622.34	32.276
622.67	31.872
623.00	31.611
623.33	32.012
623.66	31.450
623.99	32.558
624.32	31.915
624.65	32.789
624.99	31.374
625.32	32.711
625.65	32.481
625.98	32.227
626.31	31.837
626.64	31.470
626.97	32.180
627.30	32.849
627.63	31.055
627.96	32.121
628.29	33.023
628.62	33.462
628.95	32.665
629.28	32.118
629.61	31.866
629.94	33.559
630.26	33.103
630.59	32.368
630.92	31.928
631.25	32.029
631.58	34.154
631.91	31.283
632.24	32.162
632.57	33.333
632.90	33.489
633.23	32.254
633.56	33.933
633.89	33.852
634.22	34.040
634.55	35.688
634.88	32.721
635.20	31.750
635.53	33.333
635.86	32.949
636.19	32.630
636.52	31.829
636.85	32.328
637.18	30.207
637.51	31.835
637.83	32.768
638.16	33.200
