SpectraSuite Data File
++++++++++++++++++++++++++++++++++++
Date: Wed May 13 21:02:30 PDT 2015
User: schluterlab
Dark Spectrum Present: Yes
Reference Spectrum Present: Yes
Number of Sampled Component Spectra: 1
Spectrometers: USB2E3373
Integration Time (usec): 3000 (USB2E3373)
Spectra Averaged: 3 (USB2E3373)
Boxcar Smoothing: 0 (USB2E3373)
Correct for Electrical Dark: No (USB2E3373)
Strobe/Lamp Enabled: No (USB2E3373)
Correct for Detector Non-linearity: No (USB2E3373)
Correct for Stray Light: No (USB2E3373)
Number of Pixels in Processed Spectrum: 2048
>>>>>Begin Processed Spectral Data<<<<<
178.53	0.000
178.91	350.000
179.29	225.000
179.67	-350.000
180.04	-466.667
180.42	40.000
180.80	400.000
181.18	233.333
181.56	-500.000
181.94	-125.000
182.31	-45.455
182.69	84.615
183.07	-40.000
183.45	266.667
183.83	55.556
184.20	114.286
184.58	233.333
184.96	133.333
185.34	128.571
185.72	0.000
186.09	200.000
186.47	-100.000
186.85	160.000
187.23	-200.000
187.61	150.000
187.98	400.000
188.36	87.500
188.74	0.000
189.12	63.636
189.49	70.000
189.87	66.667
190.25	80.000
190.63	1100.000
191.00	-60.000
191.38	100.000
191.76	225.000
192.14	125.000
192.51	21.053
192.89	-0.000
193.27	50.000
193.65	-220.000
194.02	109.091
194.40	140.000
194.78	-100.000
195.15	220.000
195.53	-160.000
195.91	25.000
196.29	0.000
196.66	0.000
197.04	100.000
197.42	160.000
197.79	20.000
198.17	-150.000
198.55	-100.000
198.92	100.000
199.30	66.667
199.68	20.000
200.05	200.000
200.43	150.000
200.81	-300.000
201.18	60.000
201.56	66.667
201.94	425.000
202.31	8.696
202.69	71.429
203.07	0.000
203.44	260.000
203.82	-100.000
204.19	-20.000
204.57	0.000
204.95	50.000
205.32	0.000
205.70	350.000
206.08	-200.000
206.45	-33.333
206.83	225.000
207.20	-366.667
207.58	-10.000
207.96	-800.000
208.33	-14.286
208.71	200.000
209.08	112.500
209.46	50.000
209.84	0.000
210.21	30.000
210.59	700.000
210.96	200.000
211.34	1200.000
211.71	-300.000
212.09	83.333
212.46	-70.000
212.84	33.333
213.22	175.000
213.59	-500.000
213.97	0.000
214.34	-200.000
214.72	-38.462
215.09	187.500
215.47	77.778
215.84	650.000
216.22	150.000
216.59	-100.000
216.97	66.667
217.34	33.333
217.72	0.000
218.09	166.667
218.47	400.000
218.84	-114.286
219.22	-87.500
219.59	33.333
219.97	-50.000
220.34	-37.500
220.72	-120.000
221.09	0.000
221.47	-133.333
221.84	500.000
222.22	0.000
222.59	-100.000
222.97	33.333
223.34	-75.000
223.72	-1200.000
224.09	50.000
224.46	-54.545
224.84	37.500
225.21	-185.714
225.59	-100.000
225.96	50.000
226.34	-60.000
226.71	-114.286
227.08	50.000
227.46	-37.500
227.83	0.000
228.21	37.500
228.58	25.000
228.95	5.882
229.33	62.500
229.70	-75.000
230.08	92.308
230.45	-112.500
230.82	58.333
231.20	14.286
231.57	-100.000
231.95	700.000
232.32	66.667
232.69	-5.882
233.07	-700.000
233.44	30.435
233.81	-50.000
234.19	41.667
234.56	-33.333
234.93	13.333
235.31	57.895
235.68	-107.692
236.05	-38.462
236.43	22.222
236.80	0.000
237.17	-20.000
237.55	-41.176
237.92	-13.793
238.29	-18.519
238.67	2.778
239.04	-29.032
239.41	-12.766
239.79	6.383
240.16	-16.279
240.53	14.286
240.91	26.786
241.28	10.714
241.65	8.065
242.02	15.789
242.40	4.348
242.77	-7.246
243.14	-3.846
243.51	10.638
243.89	-2.885
244.26	16.981
244.63	7.692
245.00	7.292
245.38	2.521
245.75	10.656
246.12	13.534
246.49	5.691
246.87	-3.361
247.24	6.081
247.61	5.960
247.98	14.744
248.36	3.550
248.73	11.236
249.10	4.545
249.47	4.839
249.84	6.842
250.22	6.965
250.59	8.411
250.96	10.455
251.33	4.306
251.70	12.134
252.08	6.695
252.45	14.815
252.82	9.886
253.19	6.615
253.56	7.554
253.94	13.523
254.31	5.282
254.68	4.362
255.05	8.911
255.42	8.042
255.79	8.896
256.16	11.356
256.54	7.619
256.91	5.380
257.28	5.975
257.65	6.369
258.02	7.918
258.39	8.480
258.76	9.012
259.14	6.250
259.51	6.180
259.88	8.943
260.25	9.167
260.62	5.899
260.99	8.488
261.36	10.363
261.73	6.914
262.10	7.125
262.47	4.444
262.85	3.731
263.22	6.923
263.59	6.494
263.96	8.273
264.33	7.933
264.70	6.047
265.07	9.491
265.44	7.816
265.81	7.323
266.18	7.745
266.55	6.114
266.92	5.932
267.29	7.613
267.66	7.856
268.03	6.790
268.40	4.025
268.77	6.818
269.14	8.367
269.51	9.856
269.88	5.295
270.25	6.780
270.62	4.098
270.99	9.646
271.36	8.929
271.73	9.438
272.10	7.429
272.47	7.869
272.84	7.480
273.21	7.828
273.58	5.943
273.95	6.792
274.32	8.396
274.69	6.922
275.06	8.304
275.43	7.910
275.80	6.915
276.17	6.262
276.54	6.572
276.91	7.143
277.28	6.137
277.65	7.867
278.02	7.321
278.39	5.861
278.76	8.194
279.13	6.003
279.50	6.034
279.87	6.522
280.23	7.748
280.60	6.055
280.97	8.604
281.34	9.621
281.71	6.341
282.08	7.692
282.45	8.197
282.82	9.105
283.19	8.994
283.56	7.656
283.92	7.034
284.29	8.580
284.66	5.272
285.03	5.700
285.40	7.402
285.77	7.057
286.14	6.383
286.51	8.396
286.87	5.692
287.24	6.047
287.61	7.530
287.98	7.647
288.35	4.769
288.72	7.030
289.08	9.544
289.45	6.608
289.82	8.169
290.19	7.714
290.56	6.818
290.93	6.215
291.29	4.651
291.66	7.377
292.03	5.722
292.40	6.191
292.77	6.560
293.13	7.113
293.50	7.190
293.87	7.733
294.24	6.746
294.60	5.852
294.97	8.598
295.34	6.201
295.71	3.811
296.08	5.759
296.44	4.974
296.81	6.577
297.18	5.875
297.55	6.722
297.91	6.460
298.28	7.627
298.65	6.404
299.02	7.082
299.38	5.399
299.75	5.889
300.12	3.721
300.48	6.433
300.85	4.042
301.22	5.923
301.59	6.808
301.95	4.878
302.32	6.301
302.69	5.989
303.05	5.869
303.42	6.818
303.79	5.994
304.15	6.024
304.52	7.097
304.89	4.983
305.25	3.952
305.62	5.857
305.99	5.223
306.35	5.852
306.72	6.816
307.09	6.674
307.45	5.751
307.82	6.105
308.19	4.598
308.55	5.732
308.92	7.859
309.29	5.806
309.65	6.394
310.02	6.262
310.38	5.793
310.75	5.621
311.12	6.122
311.48	6.924
311.85	6.496
312.22	7.447
312.58	5.990
312.95	6.269
313.31	8.081
313.68	6.584
314.05	7.656
314.41	7.301
314.78	8.444
315.14	8.148
315.51	7.707
315.87	8.712
316.24	8.907
316.61	7.945
316.97	8.704
317.34	8.734
317.70	9.991
318.07	9.139
318.43	8.762
318.80	9.773
319.16	8.753
319.53	9.498
319.89	10.208
320.26	9.519
320.62	11.121
320.99	11.434
321.35	10.945
321.72	11.453
322.08	12.177
322.45	12.303
322.81	12.847
323.18	11.449
323.54	13.628
323.91	13.460
324.27	12.961
324.64	13.153
325.00	14.173
325.37	14.420
325.73	13.889
326.10	13.877
326.46	13.963
326.83	15.372
327.19	16.179
327.56	16.438
327.92	15.768
328.29	17.279
328.65	16.477
329.01	16.007
329.38	17.304
329.74	16.824
330.11	17.583
330.47	15.191
330.84	15.975
331.20	16.311
331.56	17.120
331.93	18.088
332.29	19.114
332.66	16.780
333.02	18.071
333.38	18.596
333.75	18.089
334.11	18.403
334.48	19.180
334.84	18.021
335.20	17.067
335.57	18.364
335.93	18.041
336.29	16.025
336.66	19.060
337.02	17.826
337.38	18.190
337.75	18.432
338.11	18.104
338.47	17.123
338.84	19.158
339.20	18.959
339.56	17.235
339.93	18.928
340.29	18.787
340.65	18.991
341.02	18.885
341.38	17.821
341.74	17.647
342.11	18.910
342.47	18.326
342.83	19.363
343.20	18.443
343.56	18.316
343.92	19.578
344.28	18.831
344.65	19.592
345.01	18.805
345.37	19.984
345.73	19.935
346.10	18.620
346.46	18.699
346.82	19.262
347.19	17.801
347.55	18.821
347.91	19.486
348.27	18.849
348.63	19.151
349.00	19.340
349.36	18.995
349.72	19.954
350.08	19.267
350.45	19.186
350.81	19.249
351.17	20.554
351.53	19.167
351.89	19.380
352.26	19.382
352.62	19.535
352.98	19.249
353.34	19.807
353.70	18.769
354.07	19.843
354.43	20.295
354.79	19.631
355.15	20.264
355.51	20.501
355.87	20.485
356.24	19.101
356.60	20.485
356.96	18.573
357.32	20.588
357.68	20.397
358.04	20.403
358.40	20.775
358.77	21.942
359.13	21.012
359.49	21.120
359.85	21.835
360.21	20.817
360.57	20.837
360.93	21.396
361.29	21.170
361.66	21.412
362.02	21.646
362.38	20.827
362.74	20.450
363.10	21.330
363.46	20.893
363.82	21.064
364.18	21.827
364.54	22.174
364.90	20.767
365.26	22.010
365.62	21.875
365.98	22.206
366.35	22.482
366.71	21.184
367.07	22.041
367.43	22.021
367.79	21.890
368.15	23.347
368.51	22.011
368.87	22.819
369.23	22.278
369.59	21.705
369.95	21.916
370.31	22.943
370.67	22.665
371.03	23.608
371.39	22.001
371.75	22.929
372.11	23.077
372.47	23.071
372.83	23.232
373.19	22.662
373.55	22.327
373.91	23.126
374.27	22.614
374.63	23.613
374.99	22.354
375.35	23.699
375.71	22.554
376.07	23.304
376.42	23.329
376.78	24.373
377.14	24.271
377.50	23.990
377.86	24.369
378.22	24.210
378.58	24.275
378.94	25.938
379.30	24.610
379.66	24.229
380.02	24.694
380.38	24.096
380.74	24.447
381.09	24.789
381.45	24.607
381.81	24.769
382.17	24.323
382.53	24.062
382.89	25.633
383.25	24.074
383.61	24.516
383.97	25.812
384.32	24.071
384.68	25.170
385.04	24.618
385.40	25.529
385.76	24.696
386.12	25.629
386.48	25.016
386.83	25.845
387.19	25.910
387.55	26.487
387.91	26.261
388.27	24.414
388.62	25.218
388.98	24.781
389.34	26.253
389.70	25.519
390.06	25.563
390.42	25.902
390.77	25.689
391.13	25.631
391.49	25.237
391.85	25.495
392.20	25.815
392.56	26.286
392.92	25.219
393.28	25.334
393.64	25.749
393.99	24.602
394.35	26.420
394.71	25.962
395.07	25.597
395.42	27.239
395.78	25.354
396.14	26.126
396.50	26.379
396.85	26.068
397.21	25.468
397.57	26.211
397.92	25.569
398.28	25.719
398.64	24.712
399.00	25.167
399.35	26.561
399.71	25.568
400.07	26.084
400.42	25.204
400.78	25.861
401.14	25.322
401.49	25.464
401.85	24.570
402.21	25.759
402.57	25.383
402.92	26.658
403.28	26.079
403.63	26.472
403.99	26.104
404.35	24.875
404.70	25.982
405.06	26.424
405.42	25.817
405.77	24.597
406.13	25.714
406.49	24.865
406.84	25.336
407.20	25.636
407.55	26.039
407.91	25.414
408.27	25.515
408.62	25.967
408.98	25.647
409.34	24.691
409.69	26.251
410.05	25.373
410.40	25.563
410.76	25.271
411.11	25.995
411.47	24.353
411.83	25.577
412.18	25.252
412.54	25.125
412.89	24.639
413.25	25.133
413.60	25.266
413.96	24.032
414.31	26.017
414.67	24.444
415.03	25.372
415.38	24.637
415.74	24.756
416.09	24.983
416.45	24.880
416.80	24.765
417.16	26.113
417.51	25.988
417.87	24.934
418.22	24.758
418.58	24.047
418.93	24.984
419.29	25.743
419.64	25.636
420.00	25.651
420.35	24.567
420.71	25.046
421.06	25.338
421.42	25.547
421.77	25.260
422.12	25.444
422.48	24.537
422.83	26.167
423.19	25.359
423.54	25.795
423.90	24.525
424.25	25.881
424.61	25.755
424.96	25.251
425.31	23.948
425.67	26.631
426.02	25.854
426.38	25.933
426.73	25.779
427.09	25.578
427.44	25.954
427.79	25.475
428.15	24.954
428.50	25.317
428.85	24.662
429.21	24.536
429.56	25.452
429.92	25.716
430.27	24.591
430.62	25.341
430.98	25.225
431.33	25.040
431.68	25.772
432.04	25.127
432.39	25.289
432.74	24.893
433.10	25.392
433.45	25.089
433.80	25.862
434.16	25.396
434.51	25.217
434.86	25.559
435.22	25.580
435.57	24.693
435.92	25.754
436.28	25.465
436.63	25.173
436.98	25.676
437.34	25.580
437.69	25.384
438.04	25.863
438.39	25.467
438.75	25.447
439.10	25.448
439.45	25.000
439.81	25.862
440.16	25.739
440.51	25.981
440.86	26.200
441.22	25.990
441.57	25.542
441.92	25.661
442.27	25.649
442.63	25.996
442.98	24.884
443.33	26.637
443.68	25.567
444.03	25.186
444.39	27.020
444.74	26.008
445.09	25.771
445.44	26.479
445.79	26.329
446.15	26.789
446.50	25.330
446.85	26.350
447.20	26.294
447.55	25.797
447.91	25.562
448.26	26.186
448.61	26.237
448.96	26.082
449.31	25.871
449.66	26.027
450.02	26.435
450.37	26.146
450.72	25.947
451.07	25.956
451.42	25.889
451.77	26.415
452.12	25.787
452.47	25.629
452.83	25.649
453.18	26.098
453.53	26.419
453.88	26.687
454.23	26.205
454.58	25.735
454.93	25.657
455.28	26.397
455.63	24.891
455.98	25.259
456.34	25.556
456.69	26.518
457.04	25.697
457.39	25.376
457.74	25.434
458.09	25.770
458.44	25.558
458.79	25.261
459.14	24.607
459.49	24.817
459.84	25.254
460.19	24.670
460.54	25.000
460.89	25.225
461.24	25.586
461.59	25.242
461.94	25.537
462.29	25.368
462.64	25.528
462.99	26.358
463.34	25.276
463.69	25.000
464.04	24.850
464.39	25.015
464.74	24.816
465.09	24.551
465.44	25.253
465.79	25.129
466.14	24.572
466.49	24.223
466.84	24.985
467.19	24.395
467.54	25.146
467.89	24.576
468.24	24.339
468.59	24.793
468.94	24.330
469.29	24.851
469.64	24.059
469.99	25.448
470.34	24.882
470.68	24.312
471.03	25.035
471.38	23.922
471.73	24.829
472.08	24.674
472.43	24.406
472.78	25.287
473.13	23.945
473.48	24.136
473.83	23.917
474.17	23.177
474.52	24.466
474.87	23.583
475.22	24.215
475.57	24.261
475.92	23.937
476.27	23.485
476.61	23.386
476.96	23.472
477.31	23.571
477.66	24.576
478.01	23.791
478.36	23.270
478.70	24.114
479.05	23.474
479.40	22.673
479.75	23.645
480.10	22.998
480.45	22.462
480.79	23.295
481.14	23.556
481.49	23.828
481.84	22.008
482.19	22.649
482.53	22.619
482.88	22.771
483.23	21.704
483.58	22.684
483.92	22.276
484.27	22.232
484.62	21.838
484.97	22.439
485.31	22.048
485.66	21.061
486.01	21.391
486.36	20.780
486.70	21.048
487.05	21.314
487.40	21.519
487.75	21.763
488.09	21.176
488.44	21.416
488.79	21.461
489.13	21.670
489.48	21.761
489.83	21.393
490.17	21.516
490.52	22.440
490.87	21.604
491.22	21.997
491.56	21.945
491.91	21.795
492.26	21.663
492.60	21.212
492.95	21.429
493.30	20.979
493.64	20.911
493.99	21.691
494.34	22.158
494.68	21.527
495.03	21.196
495.37	20.730
495.72	21.604
496.07	21.529
496.41	20.262
496.76	21.298
497.11	20.892
497.45	20.817
497.80	20.747
498.14	21.511
498.49	21.432
498.84	20.395
499.18	21.254
499.53	20.089
499.87	20.136
500.22	20.358
500.56	21.264
500.91	21.076
501.26	20.493
501.60	19.902
501.95	20.508
502.29	20.000
502.64	21.022
502.98	20.809
503.33	20.681
503.67	20.253
504.02	19.902
504.36	20.357
504.71	20.020
505.06	20.173
505.40	20.361
505.75	20.651
506.09	19.877
506.44	20.161
506.78	19.604
507.13	19.699
507.47	19.724
507.82	20.042
508.16	20.475
508.51	19.731
508.85	19.907
509.19	19.206
509.54	20.429
509.88	19.409
510.23	19.421
510.57	20.127
510.92	19.828
511.26	20.572
511.61	19.868
511.95	19.460
512.30	18.656
512.64	19.580
512.98	19.224
513.33	19.606
513.67	19.194
514.02	19.441
514.36	19.719
514.70	19.400
515.05	20.012
515.39	19.634
515.74	19.124
516.08	18.466
516.42	19.124
516.77	19.039
517.11	19.400
517.46	20.048
517.80	19.976
518.14	17.942
518.49	18.807
518.83	19.630
519.17	19.277
519.52	18.637
519.86	19.551
520.20	18.557
520.55	19.900
520.89	17.900
521.23	19.936
521.58	19.279
521.92	19.170
522.26	19.649
522.61	19.586
522.95	19.301
523.29	18.730
523.64	20.216
523.98	18.996
524.32	18.715
524.66	19.740
525.01	19.332
525.35	19.552
525.69	18.887
526.04	17.915
526.38	19.057
526.72	18.540
527.06	18.633
527.41	18.200
527.75	18.224
528.09	19.333
528.43	19.267
528.78	19.444
529.12	18.887
529.46	18.426
529.80	18.706
530.15	19.241
530.49	19.407
530.83	19.499
531.17	19.041
531.51	18.071
531.86	17.751
532.20	18.677
532.54	18.069
532.88	19.265
533.22	18.923
533.57	18.808
533.91	18.452
534.25	18.034
534.59	18.662
534.93	18.559
535.27	18.025
535.62	18.487
535.96	19.388
536.30	18.418
536.64	17.635
536.98	17.309
537.32	18.719
537.66	18.618
538.01	18.031
538.35	17.956
538.69	17.793
539.03	17.718
539.37	17.304
539.71	18.145
540.05	17.881
540.39	17.894
540.73	17.807
541.07	18.163
541.42	18.451
541.76	18.065
542.10	17.332
542.44	17.672
542.78	17.974
543.12	17.925
543.46	17.001
543.80	17.923
544.14	17.688
544.48	17.452
544.82	17.216
545.16	16.160
545.50	17.961
545.84	17.251
546.18	16.690
546.52	17.996
546.86	17.456
547.20	16.369
547.54	16.440
547.88	17.949
548.22	16.678
548.56	16.544
548.90	16.238
549.24	17.569
549.58	17.224
549.92	17.828
550.26	19.188
550.60	16.967
550.94	16.269
551.28	17.260
551.62	18.346
551.96	16.691
552.30	16.739
552.64	15.819
552.98	17.116
553.32	16.078
553.66	16.875
554.00	16.775
554.34	15.897
554.68	17.301
555.02	16.916
555.36	17.095
555.69	16.897
556.03	15.154
556.37	15.718
556.71	15.978
557.05	15.941
557.39	16.503
557.73	15.885
558.07	15.976
558.41	16.881
558.75	17.244
559.08	15.798
559.42	15.893
559.76	15.826
560.10	16.756
560.44	16.728
560.78	15.252
561.12	16.468
561.45	15.918
561.79	16.713
562.13	16.315
562.47	16.643
562.81	15.873
563.15	16.289
563.48	15.898
563.82	16.553
564.16	16.249
564.50	16.350
564.84	15.338
565.17	16.490
565.51	15.441
565.85	15.456
566.19	16.291
566.52	15.138
566.86	14.728
567.20	15.577
567.54	15.141
567.88	14.894
568.21	15.535
568.55	15.441
568.89	14.656
569.23	14.207
569.56	14.810
569.90	14.494
570.24	13.249
570.57	14.057
570.91	14.314
571.25	13.471
571.59	13.680
571.92	13.728
572.26	13.840
572.60	14.259
572.93	14.464
573.27	13.817
573.61	14.080
573.95	13.987
574.28	14.024
574.62	13.305
574.96	13.804
575.29	12.989
575.63	13.303
575.97	13.370
576.30	13.629
576.64	13.571
576.98	13.068
577.31	13.517
577.65	13.188
577.98	13.077
578.32	13.629
578.66	13.236
578.99	13.592
579.33	13.268
579.67	13.442
580.00	13.292
580.34	13.451
580.67	13.327
581.01	13.083
581.35	13.171
581.68	13.326
582.02	13.297
582.35	13.175
582.69	13.430
583.02	13.120
583.36	13.380
583.70	13.292
584.03	12.995
584.37	13.607
584.70	13.662
585.04	13.378
585.37	13.026
585.71	13.121
586.04	13.058
586.38	13.102
586.72	13.094
587.05	13.790
587.39	13.332
587.72	12.819
588.06	13.379
588.39	13.182
588.73	13.598
589.06	13.223
589.40	13.760
589.73	13.439
590.07	13.525
590.40	13.555
590.73	13.533
591.07	13.999
591.40	13.217
591.74	13.562
592.07	13.647
592.41	13.943
592.74	13.387
593.08	12.650
593.41	13.487
593.75	12.952
594.08	13.230
594.41	13.236
594.75	13.006
595.08	13.069
595.42	12.742
595.75	13.304
596.09	13.202
596.42	13.644
596.75	13.295
597.09	13.239
597.42	13.459
597.75	13.511
598.09	12.933
598.42	14.273
598.76	13.056
599.09	13.485
599.42	13.293
599.76	13.293
600.09	13.441
600.42	12.618
600.76	12.971
601.09	13.333
601.42	13.171
601.76	12.973
602.09	12.769
602.42	13.207
602.76	12.668
603.09	13.840
603.42	12.875
603.76	12.666
604.09	12.648
604.42	12.516
604.76	13.226
605.09	13.502
605.42	13.810
605.75	12.762
606.09	12.666
606.42	12.801
606.75	12.338
607.09	12.677
607.42	13.398
607.75	11.685
608.08	13.390
608.42	13.215
608.75	13.378
609.08	12.543
609.41	13.313
609.75	12.859
610.08	13.067
610.41	13.217
610.74	12.753
611.07	13.126
611.41	13.306
611.74	13.820
612.07	12.611
612.40	13.946
612.73	12.898
613.07	12.805
613.40	12.610
613.73	13.759
614.06	12.548
614.39	13.063
614.72	13.215
615.06	12.667
615.39	12.748
615.72	12.635
616.05	12.444
616.38	13.058
616.71	13.077
617.05	13.268
617.38	13.309
617.71	12.868
618.04	13.163
618.37	12.555
618.70	12.937
619.03	12.646
619.36	13.381
619.69	12.573
620.03	13.145
620.36	12.665
620.69	12.348
621.02	13.077
621.35	13.328
621.68	13.121
622.01	13.350
622.34	12.133
622.67	13.626
623.00	13.830
623.33	12.715
623.66	12.193
623.99	12.753
624.32	13.133
624.65	12.760
624.99	13.519
625.32	13.069
625.65	12.171
625.98	12.875
626.31	13.143
626.64	12.296
626.97	14.273
627.30	13.858
627.63	11.592
627.96	11.688
628.29	14.326
628.62	13.926
628.95	14.028
629.28	12.906
629.61	14.737
629.94	14.313
630.26	14.680
630.59	13.087
630.92	12.651
631.25	13.491
631.58	14.775
631.91	13.362
632.24	11.965
632.57	12.333
632.90	14.236
633.23	13.070
633.56	15.468
633.89	14.234
634.22	15.194
634.55	15.347
634.88	13.480
635.20	15.500
635.53	15.116
635.86	12.821
636.19	13.151
636.52	11.463
636.85	13.872
637.18	12.789
637.51	14.107
637.83	13.446
638.16	12.267
