SpectraSuite Data File
++++++++++++++++++++++++++++++++++++
Date: Wed May 13 21:03:19 PDT 2015
User: schluterlab
Dark Spectrum Present: Yes
Reference Spectrum Present: Yes
Number of Sampled Component Spectra: 1
Spectrometers: USB2E3373
Integration Time (usec): 3000 (USB2E3373)
Spectra Averaged: 3 (USB2E3373)
Boxcar Smoothing: 0 (USB2E3373)
Correct for Electrical Dark: No (USB2E3373)
Strobe/Lamp Enabled: No (USB2E3373)
Correct for Detector Non-linearity: No (USB2E3373)
Correct for Stray Light: No (USB2E3373)
Number of Pixels in Processed Spectrum: 2048
>>>>>Begin Processed Spectral Data<<<<<
178.53	0.000
178.91	750.000
179.29	150.000
179.67	-400.000
180.04	-300.000
180.42	-20.000
180.80	1100.000
181.18	266.667
181.56	-25.000
181.94	50.000
182.31	81.818
182.69	7.692
183.07	-120.000
183.45	366.667
183.83	88.889
184.20	-14.286
184.58	-33.333
184.96	-100.000
185.34	14.286
185.72	0.000
186.09	800.000
186.47	-120.000
186.85	-60.000
187.23	400.000
187.61	400.000
187.98	700.000
188.36	12.500
188.74	0.000
189.12	-9.091
189.49	-10.000
189.87	25.000
190.25	120.000
190.63	600.000
191.00	-80.000
191.38	180.000
191.76	125.000
192.14	83.333
192.51	57.895
192.89	166.667
193.27	200.000
193.65	-280.000
194.02	127.273
194.40	-0.000
194.78	300.000
195.15	260.000
195.53	-260.000
195.91	87.500
196.29	0.000
196.66	0.000
197.04	50.000
197.42	100.000
197.79	-40.000
198.17	-75.000
198.55	-200.000
198.92	-25.000
199.30	-400.000
199.68	20.000
200.05	50.000
200.43	283.333
200.81	-700.000
201.18	-80.000
201.56	-200.000
201.94	375.000
202.31	-4.348
202.69	-14.286
203.07	-233.333
203.44	20.000
203.82	-33.333
204.19	60.000
204.57	0.000
204.95	-50.000
205.32	0.000
205.70	-250.000
206.08	0.000
206.45	33.333
206.83	-25.000
207.20	200.000
207.58	-10.000
207.96	-1200.000
208.33	0.000
208.71	-700.000
209.08	137.500
209.46	250.000
209.84	0.000
210.21	120.000
210.59	1400.000
210.96	100.000
211.34	200.000
211.71	-500.000
212.09	-83.333
212.46	-120.000
212.84	0.000
213.22	300.000
213.59	-200.000
213.97	200.000
214.34	-650.000
214.72	-23.077
215.09	187.500
215.47	155.556
215.84	700.000
216.22	-25.000
216.59	-50.000
216.97	133.333
217.34	66.667
217.72	0.000
218.09	200.000
218.47	-400.000
218.84	-57.143
219.22	-75.000
219.59	-233.333
219.97	-100.000
220.34	-162.500
220.72	-60.000
221.09	0.000
221.47	-200.000
221.84	-600.000
222.22	0.000
222.59	300.000
222.97	100.000
223.34	-33.333
223.72	-500.000
224.09	-1000.000
224.46	9.091
224.84	50.000
225.21	-71.429
225.59	150.000
225.96	-33.333
226.34	30.000
226.71	-42.857
227.08	450.000
227.46	-25.000
227.83	1000.000
228.21	62.500
228.58	-300.000
228.95	11.765
229.33	31.250
229.70	-112.500
230.08	0.000
230.45	-125.000
230.82	-41.667
231.20	100.000
231.57	-375.000
231.95	1200.000
232.32	108.333
232.69	11.765
233.07	-1200.000
233.44	8.696
233.81	-450.000
234.19	25.000
234.56	-6.667
234.93	26.667
235.31	0.000
235.68	-7.692
236.05	0.000
236.43	11.111
236.80	12.121
237.17	-80.000
237.55	-17.647
237.92	-6.897
238.29	-11.111
238.67	-8.333
239.04	0.000
239.41	-21.277
239.79	31.915
240.16	25.581
240.53	21.429
240.91	37.500
241.28	26.786
241.65	24.194
242.02	1.316
242.40	17.391
242.77	8.696
243.14	1.282
243.51	22.340
243.89	24.038
244.26	26.415
244.63	9.615
245.00	12.500
245.38	7.563
245.75	22.131
246.12	20.301
246.49	9.756
246.87	9.244
247.24	19.595
247.61	19.205
247.98	17.308
248.36	18.343
248.73	11.798
249.10	8.586
249.47	18.280
249.84	18.421
250.22	15.920
250.59	13.551
250.96	18.636
251.33	7.177
251.70	21.757
252.08	18.828
252.45	16.049
252.82	18.251
253.19	18.677
253.56	17.986
253.94	21.352
254.31	17.606
254.68	16.443
255.05	17.492
255.42	17.832
255.79	17.791
256.16	16.719
256.54	20.000
256.91	15.823
257.28	18.239
257.65	14.331
258.02	19.648
258.39	17.836
258.76	16.279
259.14	16.193
259.51	17.416
259.88	19.512
260.25	17.500
260.62	16.573
260.99	18.833
261.36	18.394
261.73	17.531
262.10	17.557
262.47	18.519
262.85	15.174
263.22	16.410
263.59	16.883
263.96	17.032
264.33	16.106
264.70	20.000
265.07	15.278
265.44	19.080
265.81	17.162
266.18	17.995
266.55	17.031
266.92	17.373
267.29	15.638
267.66	18.896
268.03	20.370
268.40	16.949
268.77	16.942
269.14	17.551
269.51	19.918
269.88	17.719
270.25	17.161
270.62	16.189
270.99	18.701
271.36	19.841
271.73	19.076
272.10	17.714
272.47	18.042
272.84	16.142
273.21	16.830
273.58	16.803
273.95	15.660
274.32	16.231
274.69	16.393
275.06	19.258
275.43	17.326
275.80	17.553
276.17	17.127
276.54	17.052
276.91	18.467
277.28	15.162
277.65	19.056
278.02	19.286
278.39	15.453
278.76	18.060
279.13	17.667
279.50	15.517
279.87	16.667
280.23	16.937
280.60	15.398
280.97	14.610
281.34	18.612
281.71	15.447
282.08	15.556
282.45	17.541
282.82	17.732
283.19	16.616
283.56	16.250
283.92	16.972
284.29	16.849
284.66	15.157
285.03	15.309
285.40	16.163
285.77	16.967
286.14	18.237
286.51	18.141
286.87	15.538
287.24	14.159
287.61	15.663
287.98	17.353
288.35	15.499
288.72	16.643
289.08	15.670
289.45	15.565
289.82	16.944
290.19	14.446
290.56	14.915
290.93	13.536
291.29	13.543
291.66	16.120
292.03	16.076
292.40	16.689
292.77	16.198
293.13	14.784
293.50	13.987
293.87	15.733
294.24	15.212
294.60	15.085
294.97	14.947
295.34	12.533
295.71	14.455
296.08	13.613
296.44	13.903
296.81	12.058
297.18	14.250
297.55	13.915
297.91	15.404
298.28	12.349
298.65	13.300
299.02	14.042
299.38	12.515
299.75	13.822
300.12	12.791
300.48	12.281
300.85	13.395
301.22	13.240
301.59	13.028
301.95	14.053
302.32	12.719
302.69	10.960
303.05	11.960
303.42	12.727
303.79	13.249
304.15	12.267
304.52	14.086
304.89	11.628
305.25	11.416
305.62	12.473
305.99	13.602
306.35	14.316
306.72	12.716
307.09	11.887
307.45	12.034
307.82	12.105
308.19	10.763
308.55	12.180
308.92	14.637
309.29	12.112
309.65	12.488
310.02	13.718
310.38	13.211
310.75	11.736
311.12	12.925
311.48	11.672
311.85	11.909
312.22	12.476
312.58	11.594
312.95	12.736
313.31	13.223
313.68	11.069
314.05	12.571
314.41	12.584
314.78	12.429
315.14	13.056
315.51	11.893
315.87	12.048
316.24	12.121
316.61	12.785
316.97	11.389
317.34	13.012
317.70	11.508
318.07	13.753
318.43	12.737
318.80	11.693
319.16	12.378
319.53	13.262
319.89	11.834
320.26	13.309
320.62	13.068
320.99	11.531
321.35	12.067
321.72	12.416
322.08	12.085
322.45	13.414
322.81	13.124
323.18	13.417
323.54	13.448
323.91	13.731
324.27	13.591
324.64	13.153
325.00	12.073
325.37	13.396
325.73	13.215
326.10	13.288
326.46	12.375
326.83	12.783
327.19	13.171
327.56	13.215
327.92	12.631
328.29	13.689
328.65	13.848
329.01	12.049
329.38	14.261
329.74	13.906
330.11	13.075
330.47	12.587
330.84	12.726
331.20	13.237
331.56	13.587
331.93	12.834
332.29	14.248
332.66	12.288
333.02	13.119
333.38	12.632
333.75	13.737
334.11	13.368
334.48	12.903
334.84	12.721
335.20	13.636
335.57	12.272
335.93	11.770
336.29	13.310
336.66	12.479
337.02	12.087
337.38	12.097
337.75	12.403
338.11	12.724
338.47	12.842
338.84	14.089
339.20	12.787
339.56	12.287
339.93	12.965
340.29	12.553
340.65	13.345
341.02	13.394
341.38	11.909
341.74	12.017
342.11	12.386
342.47	12.636
342.83	12.745
343.20	13.536
343.56	13.328
343.92	12.673
344.28	12.825
344.65	12.082
345.01	12.429
345.37	12.911
345.73	11.601
346.10	12.520
346.46	11.707
346.82	12.921
347.19	11.867
347.55	12.924
347.91	11.769
348.27	13.091
348.63	12.019
349.00	11.635
349.36	12.323
349.72	13.380
350.08	12.793
350.45	12.764
350.81	11.894
351.17	13.241
351.53	12.804
351.89	11.994
352.26	11.120
352.62	12.481
352.98	11.182
353.34	13.285
353.70	12.227
354.07	11.137
354.43	12.519
354.79	12.099
355.15	11.646
355.51	12.301
355.87	12.510
356.24	11.557
356.60	12.041
356.96	12.433
357.32	12.229
357.68	12.299
358.04	12.413
358.40	12.093
358.77	11.621
359.13	12.763
359.49	12.566
359.85	11.676
360.21	12.182
360.57	11.863
360.93	11.608
361.29	12.361
361.66	11.997
362.02	11.935
362.38	11.891
362.74	11.530
363.10	11.641
363.46	11.816
363.82	13.008
364.18	11.095
364.54	12.691
364.90	12.334
365.26	11.960
365.62	11.364
365.98	11.744
366.35	11.986
366.71	11.412
367.07	11.836
367.43	11.916
367.79	12.717
368.15	12.447
368.51	11.744
368.87	11.584
369.23	11.744
369.59	11.416
369.95	12.192
370.31	11.367
370.67	11.803
371.03	12.472
371.39	11.568
371.75	12.071
372.11	11.752
372.47	12.545
372.83	12.552
373.19	11.439
373.55	12.500
373.91	12.306
374.27	11.826
374.63	11.878
374.99	10.446
375.35	12.192
375.71	10.937
376.07	12.337
376.42	11.898
376.78	12.682
377.14	11.322
377.50	12.060
377.86	11.421
378.22	11.188
378.58	11.980
378.94	12.250
379.30	12.742
379.66	11.529
380.02	11.949
380.38	11.867
380.74	12.313
381.09	11.158
381.45	11.427
381.81	11.460
382.17	12.476
382.53	11.385
382.89	11.580
383.25	12.037
383.61	12.954
383.97	12.063
384.32	11.342
384.68	11.598
385.04	11.668
385.40	11.582
385.76	11.253
386.12	11.814
386.48	11.223
386.83	11.702
387.19	11.783
387.55	11.956
387.91	11.439
388.27	12.022
388.62	11.049
388.98	11.202
389.34	12.281
389.70	11.416
390.06	12.312
390.42	11.791
390.77	12.108
391.13	11.174
391.49	11.891
391.85	11.054
392.20	12.030
392.56	11.746
392.92	11.469
393.28	11.854
393.64	11.988
393.99	11.750
394.35	12.099
394.71	11.923
395.07	10.503
395.42	11.944
395.78	10.746
396.14	11.541
396.50	11.287
396.85	11.982
397.21	11.798
397.57	11.366
397.92	11.377
398.28	11.957
398.64	11.718
399.00	12.221
399.35	12.316
399.71	11.648
400.07	11.205
400.42	11.724
400.78	11.541
401.14	11.220
401.49	11.324
401.85	11.794
402.21	11.207
402.57	12.201
402.92	12.516
403.28	12.133
403.63	12.213
403.99	11.132
404.35	11.783
404.70	11.541
405.06	12.038
405.42	11.997
405.77	11.348
406.13	11.257
406.49	11.684
406.84	11.538
407.20	11.841
407.55	11.948
407.91	12.376
408.27	11.229
408.62	11.479
408.98	12.145
409.34	11.324
409.69	12.606
410.05	12.189
410.40	11.199
410.76	12.635
411.11	12.127
411.47	12.143
411.83	11.853
412.18	11.461
412.54	11.654
412.89	10.972
413.25	12.566
413.60	11.912
413.96	11.673
414.31	11.282
414.67	12.762
415.03	11.840
415.38	11.229
415.74	11.501
416.09	11.699
416.45	11.825
416.80	11.879
417.16	12.078
417.51	12.056
417.87	12.037
418.22	12.605
418.58	12.286
418.93	12.618
419.29	11.485
419.64	12.214
420.00	12.063
420.35	11.955
420.71	12.127
421.06	12.915
421.42	12.348
421.77	12.254
422.12	12.493
422.48	12.105
422.83	12.640
423.19	12.421
423.54	12.485
423.90	11.461
424.25	11.554
424.61	12.015
424.96	12.005
425.31	11.778
425.67	12.581
426.02	13.310
426.38	13.246
426.73	12.095
427.09	11.632
427.44	12.566
427.79	11.817
428.15	11.376
428.50	12.085
428.85	12.608
429.21	12.380
429.56	12.646
429.92	11.452
430.27	12.014
430.62	12.382
430.98	12.480
431.33	11.822
431.68	11.981
432.04	12.225
432.39	12.067
432.74	12.385
433.10	12.551
433.45	12.308
433.80	12.299
434.16	12.561
434.51	12.717
434.86	12.544
435.22	12.960
435.57	12.039
435.92	13.269
436.28	12.733
436.63	11.721
436.98	12.808
437.34	13.004
437.69	11.865
438.04	12.337
438.39	12.640
438.75	11.859
439.10	13.302
439.45	12.591
439.81	12.869
440.16	13.333
440.51	12.485
440.86	13.100
441.22	12.622
441.57	12.852
441.92	13.219
442.27	12.825
442.63	12.971
442.98	12.384
443.33	12.302
443.68	12.441
444.03	12.866
444.39	12.643
444.74	12.424
445.09	12.996
445.44	12.845
445.79	12.597
446.15	13.311
446.50	13.436
446.85	13.095
447.20	13.121
447.55	13.598
447.91	12.191
448.26	12.636
448.61	12.831
448.96	13.326
449.31	12.964
449.66	13.765
450.02	13.644
450.37	13.572
450.72	13.720
451.07	13.480
451.42	12.976
451.77	13.451
452.12	12.775
452.47	14.590
452.83	12.323
453.18	13.940
453.53	13.115
453.88	13.976
454.23	13.844
454.58	14.154
454.93	13.342
455.28	14.387
455.63	12.913
455.98	13.451
456.34	12.842
456.69	13.738
457.04	13.189
457.39	13.891
457.74	13.465
458.09	13.448
458.44	13.514
458.79	13.399
459.14	12.978
459.49	14.024
459.84	13.472
460.19	12.365
460.54	13.200
460.89	13.457
461.24	13.132
461.59	13.406
461.94	13.654
462.29	13.542
462.64	13.391
462.99	14.755
463.34	13.674
463.69	15.077
464.04	13.685
464.39	14.155
464.74	13.268
465.09	13.515
465.44	14.254
465.79	13.744
466.14	13.341
466.49	13.079
466.84	14.106
467.19	13.758
467.54	14.193
467.89	14.582
468.24	14.321
468.59	13.512
468.94	14.368
469.29	14.607
469.64	14.017
469.99	15.793
470.34	14.430
470.68	13.978
471.03	14.951
471.38	14.882
471.73	14.540
472.08	13.952
472.43	14.644
472.78	15.078
473.13	13.720
473.48	14.025
473.83	13.810
474.17	14.258
474.52	14.045
474.87	13.812
475.22	14.734
475.57	14.055
475.92	14.122
476.27	14.044
476.61	14.156
476.96	14.449
477.31	14.509
477.66	14.350
478.01	14.725
478.36	14.005
478.70	14.393
479.05	14.373
479.40	14.457
479.75	14.718
480.10	14.125
480.45	14.272
480.79	14.286
481.14	14.995
481.49	14.554
481.84	13.572
482.19	14.497
482.53	15.381
482.88	14.765
483.23	14.244
483.58	14.698
483.92	14.543
484.27	13.998
484.62	13.981
484.97	15.305
485.31	13.807
485.66	13.018
486.01	12.782
486.36	12.702
486.70	12.654
487.05	13.390
487.40	13.925
487.75	14.040
488.09	14.451
488.44	14.511
488.79	15.064
489.13	14.553
489.48	14.878
489.83	14.873
490.17	14.344
490.52	16.082
490.87	14.975
491.22	15.309
491.56	15.046
491.91	15.218
492.26	14.845
492.60	14.526
492.95	15.500
493.30	15.165
493.64	14.676
493.99	15.266
494.34	15.559
494.68	15.036
495.03	15.267
495.37	15.085
495.72	15.940
496.07	15.977
496.41	15.489
496.76	15.585
497.11	15.117
497.45	15.905
497.80	16.002
498.14	15.819
498.49	15.028
498.84	15.789
499.18	15.231
499.53	16.100
499.87	15.235
500.22	16.028
500.56	15.145
500.91	15.744
501.26	16.059
501.60	15.147
501.95	15.716
502.29	15.680
502.64	16.056
502.98	15.511
503.33	15.036
503.67	15.823
504.02	15.882
504.36	14.908
504.71	15.549
505.06	16.556
505.40	16.289
505.75	16.887
506.09	16.198
506.44	15.978
506.78	15.693
507.13	16.840
507.47	16.384
507.82	15.908
508.16	16.675
508.51	15.702
508.85	16.226
509.19	16.032
509.54	16.461
509.88	16.398
510.23	16.526
510.57	16.367
510.92	16.649
511.26	17.712
511.61	16.850
511.95	16.979
512.30	15.825
512.64	17.367
512.98	15.789
513.33	17.296
513.67	16.525
514.02	17.674
514.36	16.461
514.70	17.321
515.05	17.379
515.39	16.450
515.74	17.466
516.08	17.463
516.42	17.396
516.77	17.458
517.11	17.049
517.46	18.848
517.80	18.099
518.14	17.024
518.49	17.722
518.83	17.959
519.17	17.349
519.52	17.913
519.86	18.094
520.20	16.616
520.55	17.413
520.89	17.331
521.23	18.910
521.58	18.331
521.92	17.285
522.26	17.567
522.61	18.617
522.95	17.746
523.29	17.841
523.64	18.754
523.98	18.361
524.32	17.832
524.66	17.338
525.01	18.349
525.35	18.367
525.69	18.025
526.04	18.632
526.38	18.611
526.72	18.343
527.06	18.246
527.41	18.266
527.75	18.291
528.09	18.856
528.43	18.453
528.78	16.860
529.12	19.146
529.46	17.722
529.80	17.994
530.15	18.018
530.49	17.453
530.83	18.416
531.17	18.904
531.51	17.869
531.86	18.970
532.20	18.470
532.54	17.793
532.88	17.903
533.22	17.980
533.57	19.073
533.91	18.774
534.25	19.141
534.59	18.147
534.93	18.048
535.27	18.535
535.62	17.829
535.96	18.738
536.30	19.947
536.64	17.430
536.98	18.150
537.32	19.573
537.66	18.900
538.01	18.724
538.35	18.163
538.69	18.462
539.03	17.248
539.37	17.371
539.71	18.145
540.05	16.734
540.39	18.858
540.73	18.925
541.07	18.027
541.42	18.047
541.76	18.877
542.10	18.145
542.44	19.335
542.78	18.668
543.12	18.127
543.46	18.383
543.80	17.651
544.14	19.339
544.48	18.049
544.82	18.090
545.16	17.174
545.50	18.569
545.84	17.812
546.18	17.812
546.52	18.772
546.86	17.385
547.20	18.156
547.54	17.798
547.88	18.961
548.22	18.762
548.56	17.078
548.90	17.524
549.24	18.403
549.58	18.149
549.92	18.635
550.26	20.221
550.60	19.520
550.94	18.955
551.28	18.774
551.62	19.624
551.96	18.887
552.30	17.831
552.64	18.150
552.98	19.602
553.32	19.034
553.66	19.002
554.00	18.934
554.34	19.121
554.68	18.941
555.02	18.338
555.36	18.684
555.69	18.500
556.03	19.585
556.37	18.208
556.71	18.711
557.05	19.631
557.39	18.161
557.73	19.213
558.07	18.764
558.41	18.319
558.75	20.169
559.08	18.364
559.42	20.220
559.76	18.578
560.10	18.678
560.44	19.602
560.78	18.849
561.12	18.851
561.45	18.980
561.79	18.982
562.13	19.128
562.47	19.071
562.81	17.893
563.15	19.193
563.48	18.445
563.82	18.468
564.16	18.551
564.50	18.250
564.84	18.243
565.17	19.205
565.51	18.783
565.85	17.588
566.19	18.609
566.52	18.283
566.86	16.941
567.20	17.288
567.54	16.811
567.88	17.133
568.21	16.350
568.55	17.527
568.89	16.550
569.23	16.224
569.56	16.103
569.90	15.414
570.24	15.018
570.57	16.001
570.91	15.213
571.25	14.873
571.59	14.311
571.92	15.048
572.26	14.791
572.60	14.968
572.93	14.464
573.27	14.607
573.61	15.001
573.95	14.701
574.28	14.282
574.62	14.589
574.96	14.370
575.29	14.544
575.63	14.515
575.97	14.891
576.30	14.537
576.64	14.619
576.98	14.480
577.31	14.461
577.65	14.027
577.98	14.256
578.32	13.874
578.66	14.119
578.99	14.437
579.33	14.643
579.67	14.664
580.00	14.385
580.34	14.687
580.67	14.576
581.01	14.436
581.35	13.671
581.68	13.780
582.02	13.928
582.35	14.002
582.69	14.048
583.02	13.816
583.36	14.417
583.70	14.806
584.03	15.071
584.37	14.891
584.70	15.180
585.04	14.870
585.37	14.070
585.71	14.689
586.04	14.586
586.38	14.522
586.72	14.948
587.05	15.003
587.39	14.526
587.72	14.867
588.06	14.637
588.39	14.861
588.73	14.922
589.06	15.066
589.40	15.652
589.73	15.235
590.07	15.530
590.40	15.524
590.73	16.126
591.07	15.880
591.40	15.696
591.74	16.096
592.07	16.066
592.41	16.216
592.74	15.548
593.08	15.043
593.41	14.933
593.75	15.181
594.08	15.440
594.41	15.539
594.75	15.892
595.08	16.094
595.42	15.354
595.75	15.835
596.09	15.358
596.42	16.095
596.75	16.674
597.09	16.879
597.42	16.644
597.75	15.911
598.09	16.667
598.42	16.331
598.76	15.827
599.09	15.726
599.42	15.823
599.76	15.509
600.09	15.361
600.42	15.556
600.76	16.112
601.09	15.593
601.42	15.798
601.76	15.637
602.09	16.295
602.42	16.302
602.76	15.562
603.09	16.140
603.42	15.554
603.76	15.705
604.09	15.336
604.42	16.325
604.76	16.412
605.09	16.402
605.42	17.004
605.75	15.246
606.09	15.563
606.42	15.877
606.75	16.147
607.09	15.293
607.42	16.112
607.75	15.230
608.08	16.501
608.42	15.651
608.75	16.149
609.08	16.218
609.41	17.437
609.75	16.591
610.08	16.420
610.41	16.764
610.74	16.410
611.07	16.082
611.41	17.247
611.74	16.770
612.07	16.206
612.40	17.297
612.73	16.685
613.07	16.851
613.40	17.291
613.73	17.281
614.06	16.915
614.39	16.398
614.72	17.712
615.06	16.278
615.39	16.060
615.72	16.091
616.05	17.230
616.38	17.239
616.71	15.837
617.05	18.182
617.38	17.314
617.71	16.544
618.04	17.367
618.37	17.224
618.70	17.529
619.03	17.869
619.36	17.509
619.69	18.129
620.03	17.032
620.36	17.189
620.69	16.631
621.02	18.538
621.35	19.706
621.68	18.663
622.01	19.417
622.34	19.429
622.67	18.637
623.00	20.061
623.33	18.923
623.66	16.952
623.99	19.055
624.32	18.195
624.65	18.175
624.99	18.442
625.32	18.372
625.65	18.915
625.98	18.720
626.31	20.408
626.64	19.175
626.97	19.031
627.30	19.675
627.63	20.242
627.96	19.567
628.29	21.674
628.62	21.180
628.95	19.840
629.28	21.379
629.61	20.861
629.94	21.567
630.26	20.788
630.59	20.879
630.92	18.675
631.25	20.803
631.58	21.734
631.91	20.891
632.24	21.515
632.57	21.778
632.90	23.104
633.23	20.983
633.56	22.542
633.89	21.531
