SpectraSuite Data File
++++++++++++++++++++++++++++++++++++
Date: Wed May 13 20:39:07 PDT 2015
User: schluterlab
Dark Spectrum Present: Yes
Reference Spectrum Present: Yes
Number of Sampled Component Spectra: 1
Spectrometers: USB2E3373
Integration Time (usec): 3000 (USB2E3373)
Spectra Averaged: 3 (USB2E3373)
Boxcar Smoothing: 0 (USB2E3373)
Correct for Electrical Dark: No (USB2E3373)
Strobe/Lamp Enabled: No (USB2E3373)
Correct for Detector Non-linearity: No (USB2E3373)
Correct for Stray Light: No (USB2E3373)
Number of Pixels in Processed Spectrum: 2048
>>>>>Begin Processed Spectral Data<<<<<
178.53	0.000
178.91	-1025.000
179.29	-925.000
179.67	-166.667
180.04	-1025.000
180.42	2200.000
180.80	780.000
181.18	-700.000
181.56	457.143
181.94	0.000
182.31	-428.571
182.69	1433.333
183.07	-375.000
183.45	-366.667
183.83	418.182
184.20	-360.000
184.58	2500.000
184.96	3700.000
185.34	-440.000
185.72	-325.000
186.09	-1900.000
186.47	1750.000
186.85	1900.000
187.23	3500.000
187.61	-1000.000
187.98	1200.000
188.36	336.364
188.74	272.727
189.12	-780.000
189.49	450.000
189.87	-4000.000
190.25	-1025.000
190.63	300.000
191.00	276.923
191.38	650.000
191.76	-750.000
192.14	975.000
192.51	487.500
192.89	850.000
193.27	337.500
193.65	-800.000
194.02	260.000
194.40	860.000
194.78	430.000
195.15	425.000
195.53	510.000
195.91	-1450.000
196.29	268.750
196.66	242.105
197.04	-230.000
197.42	0.000
197.79	450.000
198.17	-3900.000
198.55	371.429
198.92	525.000
199.30	620.000
199.68	0.000
200.05	261.111
200.43	600.000
200.81	2900.000
201.18	1033.333
201.56	-800.000
201.94	455.556
202.31	500.000
202.69	266.667
203.07	370.000
203.44	0.000
203.82	1000.000
204.19	557.143
204.57	357.143
204.95	512.500
205.32	1466.667
205.70	400.000
206.08	257.143
206.45	1900.000
206.83	256.250
207.20	633.333
207.58	480.000
207.96	211.111
208.33	562.500
208.71	-683.333
209.08	685.714
209.46	511.111
209.84	400.000
210.21	-1366.667
210.59	850.000
210.96	-425.000
211.34	2200.000
211.71	510.000
212.09	650.000
212.46	0.000
212.84	1066.667
213.22	950.000
213.59	-4100.000
213.97	566.667
214.34	600.000
214.72	463.636
215.09	800.000
215.47	-1800.000
215.84	-1750.000
216.22	1333.333
216.59	285.714
216.97	725.000
217.34	327.273
217.72	-483.333
218.09	0.000
218.47	-3100.000
218.84	577.778
219.22	600.000
219.59	1333.333
219.97	-514.286
220.34	720.000
220.72	-1233.333
221.09	285.714
221.47	900.000
221.84	-700.000
222.22	0.000
222.59	975.000
222.97	-2050.000
223.34	940.000
223.72	369.231
224.09	940.000
224.46	1600.000
224.84	-3900.000
225.21	-840.000
225.59	-2800.000
225.96	460.000
226.34	240.000
226.71	2400.000
227.08	462.500
227.46	480.000
227.83	-775.000
228.21	-1450.000
228.58	444.444
228.95	-1500.000
229.33	-2150.000
229.70	1233.333
230.08	557.143
230.45	-640.000
230.82	350.000
231.20	616.667
231.57	414.286
231.95	366.667
232.32	245.455
232.69	272.727
233.07	442.857
233.44	315.385
233.81	-1333.333
234.19	278.947
234.56	283.333
234.93	350.000
235.31	327.273
235.68	215.385
236.05	257.143
236.43	142.424
236.80	184.211
237.17	2900.000
237.55	228.571
237.92	178.571
238.29	171.429
238.67	125.806
239.04	179.310
239.41	122.222
239.79	100.000
240.16	116.667
240.53	129.545
240.91	109.804
241.28	98.000
241.65	82.000
242.02	91.304
242.40	91.935
242.77	96.667
243.14	70.968
243.51	83.146
243.89	70.588
244.26	73.333
244.63	72.043
245.00	62.766
245.38	69.307
245.75	59.813
246.12	66.055
246.49	64.964
246.87	69.600
247.24	60.769
247.61	60.000
247.98	62.092
248.36	62.162
248.73	55.414
249.10	57.325
249.47	56.497
249.84	58.824
250.22	53.476
250.59	57.988
250.96	63.131
251.33	50.237
251.70	54.455
252.08	53.810
252.45	48.430
252.82	50.870
253.19	51.915
253.56	49.020
253.94	45.643
254.31	46.875
254.68	52.692
255.05	51.661
255.42	50.000
255.79	45.956
256.16	49.097
256.54	47.350
256.91	49.110
257.28	47.482
257.65	45.215
258.02	43.478
258.39	46.372
258.76	45.151
259.14	44.940
259.51	41.641
259.88	45.342
260.25	46.526
260.62	45.087
260.99	42.236
261.36	46.246
261.73	44.699
262.10	44.767
262.47	44.789
262.85	40.669
263.22	38.462
263.59	46.154
263.96	43.132
264.33	42.820
264.70	41.579
265.07	45.013
265.44	42.677
265.81	41.119
266.18	41.457
266.55	44.146
266.92	43.243
267.29	44.444
267.66	42.431
268.03	39.773
268.40	43.224
268.77	40.573
269.14	41.441
269.51	43.115
269.88	40.559
270.25	40.406
270.62	40.225
270.99	43.011
271.36	41.416
271.73	39.486
272.10	41.522
272.47	41.290
272.84	41.775
273.21	37.526
273.58	40.175
273.95	37.107
274.32	40.909
274.69	41.113
275.06	41.535
275.43	41.702
275.80	41.283
276.17	38.697
276.54	39.917
276.91	40.711
277.28	41.406
277.65	40.232
278.02	39.959
278.39	41.602
278.76	38.000
279.13	42.264
279.50	40.037
279.87	39.044
280.23	38.523
280.60	37.331
280.97	38.262
281.34	38.407
281.71	38.000
282.08	40.499
282.45	37.818
282.82	40.675
283.19	35.651
283.56	37.368
283.92	38.748
284.29	38.624
284.66	39.927
285.03	38.517
285.40	39.261
285.77	35.690
286.14	35.579
286.51	39.000
286.87	35.214
287.24	38.436
287.61	34.510
287.98	36.526
288.35	36.450
288.72	33.801
289.08	36.463
289.45	35.585
289.82	36.911
290.19	33.281
290.56	34.303
290.93	32.628
291.29	35.736
291.66	33.186
292.03	34.157
292.40	34.214
292.77	32.544
293.13	33.582
293.50	33.236
293.87	33.333
294.24	33.333
294.60	30.568
294.97	32.558
295.34	32.581
295.71	32.102
296.08	27.208
296.44	31.637
296.81	30.515
297.18	30.352
297.55	29.947
297.91	29.156
298.28	31.191
298.65	29.634
299.02	29.117
299.38	29.615
299.75	29.111
300.12	29.757
300.48	28.625
300.85	29.840
301.22	28.280
301.59	28.662
301.95	28.086
302.32	28.626
302.69	28.076
303.05	25.818
303.42	27.407
303.79	27.407
304.15	26.807
304.52	28.389
304.89	26.249
305.25	27.262
305.62	27.520
305.99	28.689
306.35	26.398
306.72	26.794
307.09	26.859
307.45	27.027
307.82	25.893
308.19	27.483
308.55	27.292
308.92	27.068
309.29	25.660
309.65	26.087
310.02	26.956
310.38	26.774
310.75	27.455
311.12	27.943
311.48	26.646
311.85	27.044
312.22	26.431
312.58	27.235
312.95	27.772
313.31	26.990
313.68	27.755
314.05	29.191
314.41	28.040
314.78	27.291
315.14	28.600
315.51	27.703
315.87	28.614
316.24	29.593
316.61	27.290
316.97	28.963
317.34	28.963
317.70	28.203
318.07	29.836
318.43	30.920
318.80	31.303
319.16	30.791
319.53	30.957
319.89	33.048
320.26	33.700
320.62	34.028
320.99	32.929
321.35	33.333
321.72	34.805
322.08	36.229
322.45	38.209
322.81	36.434
323.18	37.861
323.54	37.199
323.91	37.547
324.27	38.910
324.64	38.677
325.00	39.134
325.37	40.218
325.73	41.113
326.10	40.600
326.46	41.487
326.83	41.588
327.19	42.699
327.56	44.164
327.92	43.832
328.29	43.833
328.65	45.856
329.01	44.314
329.38	46.346
329.74	45.891
330.11	46.089
330.47	47.199
330.84	47.059
331.20	45.902
331.56	46.422
331.93	47.685
332.29	48.358
332.66	48.142
333.02	46.435
333.38	48.780
333.75	48.039
334.11	48.577
334.48	47.116
334.84	48.529
335.20	49.364
335.57	48.867
335.93	48.482
336.29	49.359
336.66	50.225
337.02	48.869
337.38	51.389
337.75	49.733
338.11	48.970
338.47	50.737
338.84	49.404
339.20	48.716
339.56	50.639
339.93	51.636
340.29	50.181
340.65	50.624
341.02	51.571
341.38	52.402
341.74	50.526
342.11	51.878
342.47	51.806
342.83	50.685
343.20	52.900
343.56	50.716
343.92	51.491
344.28	52.721
344.65	52.365
345.01	50.926
345.37	51.801
345.73	52.200
346.10	54.135
346.46	51.525
346.82	53.048
347.19	52.882
347.55	51.888
347.91	52.589
348.27	53.739
348.63	54.181
349.00	52.346
349.36	52.463
349.72	53.328
350.08	52.269
350.45	53.784
350.81	52.396
351.17	52.593
351.53	52.826
351.89	52.145
352.26	53.828
352.62	54.531
352.98	53.647
353.34	53.821
353.70	52.700
354.07	52.016
354.43	52.222
354.79	53.419
355.15	53.871
355.51	55.156
355.87	54.041
356.24	54.723
356.60	53.809
356.96	54.224
357.32	55.192
357.68	55.118
358.04	54.473
358.40	54.553
358.77	53.052
359.13	54.065
359.49	54.353
359.85	54.524
360.21	54.785
360.57	54.475
360.93	55.846
361.29	54.044
361.66	54.334
362.02	54.328
362.38	55.437
362.74	54.390
363.10	54.774
363.46	54.732
363.82	55.404
364.18	53.598
364.54	55.201
364.90	54.674
365.26	55.074
365.62	54.419
365.98	53.324
366.35	55.229
366.71	54.808
367.07	55.426
367.43	55.152
367.79	55.817
368.15	55.388
368.51	53.852
368.87	55.960
369.23	54.938
369.59	55.757
369.95	54.338
370.31	55.128
370.67	53.696
371.03	56.479
371.39	55.029
371.75	55.515
372.11	53.770
372.47	55.352
372.83	55.259
373.19	54.191
373.55	55.358
373.91	56.480
374.27	53.677
374.63	54.691
374.99	55.085
375.35	54.990
375.71	54.558
376.07	55.556
376.42	56.121
376.78	54.606
377.14	56.174
377.50	56.424
377.86	55.120
378.22	55.499
378.58	54.762
378.94	55.374
379.30	57.061
379.66	57.234
380.02	56.020
380.38	54.827
380.74	55.222
381.09	56.540
381.45	56.976
381.81	55.221
382.17	55.669
382.53	56.981
382.89	56.296
383.25	56.223
383.61	56.629
383.97	55.222
384.32	56.457
384.68	55.700
385.04	56.669
385.40	54.180
385.76	55.467
386.12	56.282
386.48	56.199
386.83	56.190
387.19	56.834
387.55	56.153
387.91	56.046
388.27	56.714
388.62	56.915
388.98	56.572
389.34	56.821
389.70	55.794
390.06	57.288
390.42	57.588
390.77	56.107
391.13	57.435
391.49	55.457
391.85	55.888
392.20	54.763
392.56	55.745
392.92	57.151
393.28	55.503
393.64	56.355
393.99	55.284
394.35	55.149
394.71	55.019
395.07	55.078
395.42	57.231
395.78	55.216
396.14	54.128
396.50	55.013
396.85	55.245
397.21	54.994
397.57	55.611
397.92	55.589
398.28	54.092
398.64	54.659
399.00	53.945
399.35	55.443
399.71	53.704
400.07	55.056
400.42	55.521
400.78	54.101
401.14	54.329
401.49	54.746
401.85	54.507
402.21	54.192
402.57	54.287
402.92	54.414
403.28	55.590
403.63	54.579
403.99	55.032
404.35	53.576
404.70	54.496
405.06	53.349
405.42	53.462
405.77	52.857
406.13	53.442
406.49	52.927
406.84	52.156
407.20	53.605
407.55	53.861
407.91	54.533
408.27	53.989
408.62	51.415
408.98	51.838
409.34	52.399
409.69	52.452
410.05	53.284
410.40	52.844
410.76	51.493
411.11	52.292
411.47	51.246
411.83	51.558
412.18	51.144
412.54	52.055
412.89	52.169
413.25	51.712
413.60	51.946
413.96	50.455
414.31	52.248
414.67	51.331
415.03	51.060
415.38	51.997
415.74	51.383
416.09	51.796
416.45	51.740
416.80	51.223
417.16	51.676
417.51	52.422
417.87	50.803
418.22	51.356
418.58	51.259
418.93	51.167
419.29	50.414
419.64	50.378
420.00	49.695
420.35	49.565
420.71	49.791
421.06	48.270
421.42	49.298
421.77	49.776
422.12	49.467
422.48	49.433
422.83	50.670
423.19	49.448
423.54	49.275
423.90	50.609
424.25	49.805
424.61	48.690
424.96	50.262
425.31	49.169
425.67	48.539
426.02	47.429
426.38	50.244
426.73	47.981
427.09	49.301
427.44	48.879
427.79	48.706
428.15	48.452
428.50	48.157
428.85	48.808
429.21	49.034
429.56	48.730
429.92	47.307
430.27	47.120
430.62	47.056
430.98	47.068
431.33	47.371
431.68	48.639
432.04	47.125
432.39	48.258
432.74	48.055
433.10	47.368
433.45	47.114
433.80	46.341
434.16	47.436
434.51	46.737
434.86	47.777
435.22	46.415
435.57	47.173
435.92	47.455
436.28	46.797
436.63	46.799
436.98	46.136
437.34	47.764
437.69	46.033
438.04	47.161
438.39	46.149
438.75	47.008
439.10	46.983
439.45	46.399
439.81	46.224
440.16	46.132
440.51	46.046
440.86	46.555
441.22	46.440
441.57	45.541
441.92	46.366
442.27	46.340
442.63	45.656
442.98	46.310
443.33	45.435
443.68	45.586
444.03	45.486
444.39	44.255
444.74	45.076
445.09	45.337
445.44	44.286
445.79	44.780
446.15	44.733
446.50	44.588
446.85	43.731
447.20	44.875
447.55	44.779
447.91	43.905
448.26	44.630
448.61	43.980
448.96	45.349
449.31	44.994
449.66	42.093
450.02	43.287
450.37	43.424
450.72	43.429
451.07	43.693
451.42	43.891
451.77	43.746
452.12	42.841
452.47	43.470
452.83	44.464
453.18	42.910
453.53	43.908
453.88	43.709
454.23	42.439
454.58	43.004
454.93	44.437
455.28	43.516
455.63	43.143
455.98	43.750
456.34	42.525
456.69	43.832
457.04	42.972
457.39	42.607
457.74	42.426
458.09	42.611
458.44	42.303
458.79	41.161
459.14	41.930
459.49	42.849
459.84	41.385
460.19	41.308
460.54	39.931
460.89	41.799
461.24	41.226
461.59	42.533
461.94	40.259
462.29	42.018
462.64	40.587
462.99	40.534
463.34	41.800
463.69	40.963
464.04	41.159
464.39	39.246
464.74	40.404
465.09	40.470
465.44	40.609
465.79	40.101
466.14	40.120
466.49	38.988
466.84	40.280
467.19	39.891
467.54	40.312
467.89	39.976
468.24	39.616
468.59	39.988
468.94	39.279
469.29	39.267
469.64	39.893
469.99	39.851
470.34	40.357
470.68	40.733
471.03	38.367
471.38	39.680
471.73	39.241
472.08	39.671
472.43	39.070
472.78	38.117
473.13	38.254
473.48	38.452
473.83	38.780
474.17	37.959
474.52	39.454
474.87	38.587
475.22	38.770
475.57	37.722
475.92	38.290
476.27	38.106
476.61	38.003
476.96	38.318
477.31	37.991
477.66	38.020
478.01	37.428
478.36	37.864
478.70	37.227
479.05	37.700
479.40	37.871
479.75	37.519
480.10	36.431
480.45	36.840
480.79	35.499
481.14	37.133
481.49	37.542
481.84	36.123
482.19	36.438
482.53	36.789
482.88	37.134
483.23	36.121
483.58	36.351
483.92	36.457
484.27	34.902
484.62	35.172
484.97	34.844
485.31	35.479
485.66	34.071
486.01	33.696
486.36	33.887
486.70	34.224
487.05	34.235
487.40	34.219
487.75	33.899
488.09	34.365
488.44	34.623
488.79	35.118
489.13	35.103
489.48	34.543
489.83	34.527
490.17	35.335
490.52	35.297
490.87	35.097
491.22	35.698
491.56	34.260
491.91	34.900
492.26	34.267
492.60	34.470
492.95	34.097
493.30	34.346
493.64	35.091
493.99	34.448
494.34	34.598
494.68	35.394
495.03	34.398
495.37	33.690
495.72	34.357
496.07	33.735
496.41	33.053
496.76	34.213
497.11	33.769
497.45	33.721
497.80	33.877
498.14	33.913
498.49	33.707
498.84	33.653
499.18	33.333
499.53	33.476
499.87	32.992
500.22	33.679
500.56	34.175
500.91	33.990
501.26	33.333
501.60	34.362
501.95	32.631
502.29	34.302
502.64	33.520
502.98	33.240
503.33	32.907
503.67	32.297
504.02	32.133
504.36	32.850
504.71	32.682
505.06	32.530
505.40	33.155
505.75	32.932
506.09	32.021
506.44	34.238
506.78	32.002
507.13	33.266
507.47	33.586
507.82	32.776
508.16	32.725
508.51	33.080
508.85	32.125
509.19	33.469
509.54	32.194
509.88	32.097
510.23	32.853
510.57	33.333
510.92	32.263
511.26	32.220
511.61	33.143
511.95	31.733
512.30	32.291
512.64	31.865
512.98	31.350
513.33	32.762
513.67	31.537
514.02	30.736
514.36	32.714
514.70	32.651
515.05	32.404
515.39	32.978
515.74	32.207
516.08	33.091
516.42	32.908
516.77	32.441
517.11	32.464
517.46	32.562
517.80	31.998
518.14	31.847
518.49	32.322
518.83	30.852
519.17	31.351
519.52	31.805
519.86	32.345
520.20	32.428
520.55	31.837
520.89	32.117
521.23	32.207
521.58	31.993
521.92	31.843
522.26	32.032
522.61	31.340
522.95	31.983
523.29	31.102
523.64	33.110
523.98	31.916
524.32	31.785
524.66	31.930
525.01	31.801
525.35	31.537
525.69	30.665
526.04	31.340
526.38	31.422
526.72	31.043
527.06	31.952
527.41	30.693
527.75	31.511
528.09	31.278
528.43	31.039
528.78	31.653
529.12	30.848
529.46	31.353
529.80	31.064
530.15	31.215
530.49	30.646
530.83	31.519
531.17	32.180
531.51	32.815
531.86	30.581
532.20	31.617
532.54	30.621
532.88	30.937
533.22	31.355
533.57	30.679
533.91	30.945
534.25	31.349
534.59	30.384
534.93	30.399
535.27	30.839
535.62	31.074
535.96	30.697
536.30	30.642
536.64	29.684
536.98	30.325
537.32	30.283
537.66	30.067
538.01	30.217
538.35	30.317
538.69	30.440
539.03	30.929
539.37	30.224
539.71	29.488
540.05	29.739
540.39	29.834
540.73	29.366
541.07	31.343
541.42	30.789
541.76	30.839
542.10	29.884
542.44	29.536
542.78	30.764
543.12	29.431
543.46	30.230
543.80	29.993
544.14	29.525
544.48	29.587
544.82	29.955
545.16	30.644
545.50	29.884
545.84	29.973
546.18	29.764
546.52	29.663
546.86	30.034
547.20	30.411
547.54	29.192
547.88	30.867
548.22	28.954
548.56	30.503
548.90	28.489
549.24	28.822
549.58	29.809
549.92	29.258
550.26	29.474
550.60	28.838
550.94	30.070
551.28	28.749
551.62	29.835
551.96	29.544
552.30	29.966
552.64	29.750
552.98	29.966
553.32	29.670
553.66	30.198
554.00	30.336
554.34	28.640
554.68	29.399
555.02	28.209
555.36	29.088
555.69	28.890
556.03	28.668
556.37	28.854
556.71	27.899
557.05	28.361
557.39	29.181
557.73	29.217
558.07	29.297
558.41	29.740
558.75	29.170
559.08	29.157
559.42	28.798
559.76	29.485
560.10	28.837
560.44	28.721
560.78	27.212
561.12	28.166
561.45	28.683
561.79	29.005
562.13	27.767
562.47	29.303
562.81	29.149
563.15	29.030
563.48	29.111
563.82	27.267
564.16	28.581
564.50	27.930
564.84	28.761
565.17	28.185
565.51	28.243
565.85	28.617
566.19	27.865
566.52	28.942
566.86	28.210
567.20	29.127
567.54	28.824
567.88	27.431
568.21	28.624
568.55	27.958
568.89	28.064
569.23	27.852
569.56	27.368
569.90	26.151
570.24	27.628
570.57	26.420
570.91	26.600
571.25	26.714
571.59	26.362
571.92	26.181
572.26	26.430
572.60	26.486
572.93	25.397
573.27	26.057
573.61	26.661
573.95	25.969
574.28	25.779
574.62	25.875
574.96	25.711
575.29	26.018
575.63	25.915
575.97	25.957
576.30	25.491
576.64	25.676
576.98	26.130
577.31	26.132
577.65	25.776
577.98	25.754
578.32	25.377
578.66	25.535
578.99	26.181
579.33	25.708
579.67	25.103
580.00	25.941
580.34	25.510
580.67	25.384
581.01	25.680
581.35	25.629
581.68	25.721
582.02	25.450
582.35	25.244
582.69	25.469
583.02	25.507
583.36	25.986
583.70	25.225
584.03	25.549
584.37	25.903
584.70	25.914
585.04	26.052
585.37	25.722
585.71	25.587
586.04	25.296
586.38	26.019
586.72	25.877
587.05	25.537
587.39	25.013
587.72	25.071
588.06	25.480
588.39	26.008
588.73	25.843
589.06	25.304
589.40	26.263
589.73	25.766
590.07	25.872
590.40	25.722
590.73	26.581
591.07	26.292
591.40	26.655
591.74	26.840
592.07	26.134
592.41	26.126
592.74	26.067
593.08	25.616
593.41	25.815
593.75	25.921
594.08	26.215
594.41	25.840
594.75	25.730
595.08	25.841
595.42	26.025
595.75	25.855
596.09	26.249
596.42	25.776
596.75	25.960
597.09	26.450
597.42	25.169
597.75	26.391
598.09	26.870
598.42	25.902
598.76	25.415
599.09	25.314
599.42	25.582
599.76	25.695
600.09	25.319
600.42	25.493
600.76	25.750
601.09	25.246
601.42	25.685
601.76	25.579
602.09	25.771
602.42	25.916
602.76	26.804
603.09	25.374
603.42	26.396
603.76	25.381
604.09	25.436
604.42	26.050
604.76	25.938
605.09	26.125
605.42	25.695
605.75	25.828
606.09	25.539
606.42	26.073
606.75	25.508
607.09	25.199
607.42	25.973
607.75	24.473
608.08	25.185
608.42	25.818
608.75	26.330
609.08	25.254
609.41	25.607
609.75	25.822
610.08	26.013
610.41	24.953
610.74	26.017
611.07	26.235
611.41	25.270
611.74	26.194
612.07	26.294
612.40	26.810
612.73	26.105
613.07	26.401
613.40	26.277
613.73	25.066
614.06	26.344
614.39	25.747
614.72	25.211
615.06	25.420
615.39	25.159
615.72	25.256
616.05	25.572
616.38	25.514
616.71	26.544
617.05	26.384
617.38	25.737
617.71	26.967
618.04	26.502
618.37	25.370
618.70	25.949
619.03	27.039
619.36	25.594
619.69	26.620
620.03	27.129
620.36	26.738
620.69	26.438
621.02	26.475
621.35	25.764
621.68	25.623
622.01	26.858
622.34	26.853
622.67	26.996
623.00	25.605
623.33	25.733
623.66	26.519
623.99	26.436
624.32	25.963
624.65	25.636
624.99	25.142
625.32	25.706
625.65	26.071
625.98	27.056
626.31	26.050
626.64	26.122
626.97	26.351
627.30	26.018
627.63	27.482
627.96	26.829
628.29	26.334
628.62	27.356
628.95	26.887
629.28	26.825
629.61	27.406
629.94	27.905
630.26	27.836
630.59	25.643
630.92	25.958
631.25	25.370
