SpectraSuite Data File
++++++++++++++++++++++++++++++++++++
Date: Wed May 13 20:46:32 PDT 2015
User: schluterlab
Dark Spectrum Present: Yes
Reference Spectrum Present: Yes
Number of Sampled Component Spectra: 1
Spectrometers: USB2E3373
Integration Time (usec): 3000 (USB2E3373)
Spectra Averaged: 3 (USB2E3373)
Boxcar Smoothing: 0 (USB2E3373)
Correct for Electrical Dark: No (USB2E3373)
Strobe/Lamp Enabled: No (USB2E3373)
Correct for Detector Non-linearity: No (USB2E3373)
Correct for Stray Light: No (USB2E3373)
Number of Pixels in Processed Spectrum: 2048
>>>>>Begin Processed Spectral Data<<<<<
178.53	0.000
178.91	-750.000
179.29	-1000.000
179.67	-100.000
180.04	-875.000
180.42	1200.000
180.80	540.000
181.18	-550.000
181.56	428.571
181.94	0.000
182.31	-400.000
182.69	1066.667
183.07	-250.000
183.45	-233.333
183.83	336.364
184.20	-170.000
184.58	1400.000
184.96	3600.000
185.34	-380.000
185.72	-287.500
186.09	-1150.000
186.47	1550.000
186.85	2000.000
187.23	2900.000
187.61	-966.667
187.98	875.000
188.36	300.000
188.74	290.909
189.12	-420.000
189.49	270.000
189.87	-2900.000
190.25	-700.000
190.63	214.286
191.00	261.538
191.38	533.333
191.76	-575.000
192.14	1100.000
192.51	375.000
192.89	550.000
193.27	300.000
193.65	-975.000
194.02	290.000
194.40	500.000
194.78	420.000
195.15	350.000
195.53	390.000
195.91	-1300.000
196.29	256.250
196.66	178.947
197.04	-160.000
197.42	0.000
197.79	420.000
198.17	-2500.000
198.55	314.286
198.92	412.500
199.30	500.000
199.68	0.000
200.05	194.444
200.43	414.286
200.81	2200.000
201.18	1166.667
201.56	-800.000
201.94	266.667
202.31	344.444
202.69	308.333
203.07	340.000
203.44	0.000
203.82	850.000
204.19	485.714
204.57	292.857
204.95	387.500
205.32	933.333
205.70	363.636
206.08	214.286
206.45	1100.000
206.83	237.500
207.20	616.667
207.58	360.000
207.96	194.444
208.33	425.000
208.71	-316.667
209.08	400.000
209.46	455.556
209.84	290.909
210.21	-800.000
210.59	1000.000
210.96	-250.000
211.34	1550.000
211.71	400.000
212.09	366.667
212.46	0.000
212.84	1000.000
213.22	775.000
213.59	-2500.000
213.97	383.333
214.34	528.571
214.72	427.273
215.09	500.000
215.47	-1650.000
215.84	-1050.000
216.22	866.667
216.59	278.571
216.97	825.000
217.34	281.818
217.72	-333.333
218.09	0.000
218.47	-2800.000
218.84	433.333
219.22	414.286
219.59	1233.333
219.97	-371.429
220.34	540.000
220.72	-1000.000
221.09	214.286
221.47	1050.000
221.84	-616.667
222.22	0.000
222.59	1075.000
222.97	-1500.000
223.34	800.000
223.72	215.385
224.09	680.000
224.46	1200.000
224.84	-2500.000
225.21	-440.000
225.59	-2000.000
225.96	340.000
226.34	190.000
226.71	1350.000
227.08	375.000
227.46	220.000
227.83	-575.000
228.21	-700.000
228.58	411.111
228.95	-1200.000
229.33	-1650.000
229.70	966.667
230.08	500.000
230.45	-440.000
230.82	208.333
231.20	316.667
231.57	371.429
231.95	358.333
232.32	163.636
232.69	190.909
233.07	485.714
233.44	200.000
233.81	-1100.000
234.19	147.368
234.56	266.667
234.93	225.000
235.31	281.818
235.68	192.308
236.05	171.429
236.43	118.182
236.80	168.421
237.17	2200.000
237.55	157.143
237.92	139.286
238.29	190.476
238.67	100.000
239.04	155.172
239.41	108.333
239.79	56.522
240.16	104.762
240.53	104.545
240.91	74.510
241.28	80.000
241.65	76.000
242.02	75.362
242.40	75.806
242.77	65.000
243.14	55.914
243.51	62.921
243.89	58.824
244.26	50.000
244.63	47.312
245.00	42.553
245.38	44.554
245.75	44.860
246.12	52.294
246.49	52.555
246.87	52.000
247.24	49.231
247.61	45.714
247.98	45.098
248.36	39.865
248.73	38.854
249.10	49.045
249.47	41.243
249.84	43.316
250.22	36.898
250.59	39.053
250.96	41.414
251.33	42.654
251.70	43.564
252.08	37.619
252.45	32.287
252.82	34.348
253.19	37.447
253.56	40.392
253.94	36.929
254.31	31.641
254.68	41.154
255.05	38.745
255.42	37.805
255.79	34.559
256.16	38.628
256.54	34.982
256.91	44.128
257.28	33.094
257.65	35.644
258.02	34.472
258.39	33.123
258.76	38.796
259.14	35.714
259.51	33.131
259.88	36.025
260.25	35.952
260.62	31.503
260.99	35.404
261.36	34.835
261.73	32.951
262.10	32.267
262.47	32.676
262.85	32.312
263.22	29.345
263.59	35.613
263.96	32.418
264.33	32.115
264.70	32.632
265.07	32.225
265.44	31.818
265.81	29.927
266.18	33.166
266.55	31.707
266.92	32.432
267.29	34.028
267.66	33.486
268.03	29.318
268.40	30.140
268.77	29.833
269.14	33.784
269.51	30.700
269.88	31.935
270.25	32.506
270.62	29.438
270.99	30.968
271.36	31.760
271.73	31.308
272.10	30.217
272.47	30.968
272.84	29.654
273.21	29.350
273.58	26.856
273.95	28.931
274.32	28.719
274.69	28.908
275.06	27.953
275.43	30.426
275.80	26.653
276.17	26.680
276.54	30.561
276.91	29.249
277.28	28.516
277.65	27.853
278.02	30.849
278.39	31.250
278.76	29.455
279.13	29.811
279.50	27.561
279.87	28.685
280.23	31.737
280.60	27.660
280.97	24.954
281.34	27.611
281.71	28.545
282.08	31.862
282.45	28.364
282.82	29.307
283.19	26.560
283.56	28.596
283.92	28.934
284.29	26.455
284.66	26.679
285.03	26.401
285.40	26.056
285.77	26.599
286.14	26.943
286.51	25.833
286.87	28.034
287.24	28.339
287.61	25.843
287.98	26.461
288.35	24.723
288.72	25.078
289.08	25.509
289.45	24.712
289.82	24.228
290.19	23.705
290.56	23.277
290.93	22.961
291.29	26.380
291.66	22.861
292.03	25.291
292.40	26.138
292.77	22.929
293.13	24.179
293.50	23.469
293.87	22.963
294.24	21.333
294.60	21.980
294.97	20.640
295.34	23.695
295.71	22.585
296.08	23.362
296.44	21.871
296.81	20.740
297.18	22.629
297.55	18.997
297.91	22.823
298.28	21.821
298.65	20.104
299.02	20.158
299.38	20.717
299.75	18.733
300.12	19.923
300.48	20.500
300.85	20.962
301.22	21.401
301.59	18.561
301.95	19.521
302.32	20.924
302.69	19.116
303.05	20.364
303.42	19.753
303.79	19.253
304.15	17.366
304.52	18.424
304.89	19.396
305.25	19.142
305.62	18.686
305.99	20.189
306.35	18.456
306.72	20.179
307.09	17.869
307.45	20.495
307.82	17.188
308.19	17.991
308.55	20.173
308.92	18.904
309.29	17.740
309.65	17.709
310.02	18.076
310.38	19.785
310.75	17.635
311.12	19.038
311.48	17.659
311.85	18.763
312.22	17.898
312.58	17.568
312.95	17.635
313.31	17.379
313.68	19.335
314.05	19.724
314.41	18.090
314.78	17.925
315.14	17.875
315.51	16.890
315.87	17.624
316.24	17.577
316.61	16.764
316.97	17.613
317.34	16.243
317.70	18.069
318.07	17.421
318.43	16.243
318.80	17.994
319.16	17.137
319.53	16.886
319.89	16.762
320.26	18.100
320.62	17.163
320.99	17.879
321.35	18.485
321.72	17.454
322.08	17.670
322.45	17.015
322.81	16.957
323.18	17.148
323.54	17.996
323.91	17.453
324.27	17.208
324.64	15.750
325.00	17.042
325.37	17.470
325.73	17.594
326.10	17.564
326.46	16.308
326.83	17.256
327.19	16.738
327.56	17.334
327.92	16.710
328.29	16.681
328.65	17.035
329.01	17.329
329.38	17.021
329.74	16.805
330.11	16.305
330.47	16.804
330.84	17.463
331.20	16.029
331.56	16.514
331.93	16.019
332.29	16.948
332.66	16.814
333.02	16.179
333.38	16.260
333.75	16.934
334.11	15.925
334.48	16.681
334.84	16.820
335.20	16.545
335.57	16.682
335.93	15.268
336.29	15.659
336.66	15.780
337.02	15.656
337.38	16.667
337.75	15.686
338.11	16.473
338.47	16.851
338.84	16.590
339.20	15.321
339.56	17.062
339.93	13.909
340.29	16.304
340.65	15.597
341.02	17.627
341.38	16.370
341.74	16.842
342.11	15.371
342.47	14.802
342.83	17.038
343.20	16.364
343.56	15.838
343.92	16.404
344.28	15.986
344.65	16.079
345.01	15.488
345.37	16.038
345.73	16.159
346.10	15.601
346.46	15.678
346.82	15.568
347.19	14.703
347.55	15.025
347.91	16.262
348.27	16.352
348.63	15.719
349.00	15.615
349.36	15.928
349.72	15.718
350.08	15.235
350.45	15.867
350.81	14.866
351.17	15.235
351.53	14.906
351.89	15.512
352.26	16.732
352.62	15.958
352.98	15.316
353.34	14.955
353.70	14.648
354.07	15.645
354.43	14.524
354.79	15.125
355.15	16.281
355.51	15.028
355.87	15.755
356.24	15.717
356.60	14.755
356.96	14.883
357.32	15.699
357.68	15.591
358.04	15.202
358.40	14.964
358.77	15.258
359.13	16.180
359.49	14.431
359.85	14.683
360.21	14.434
360.57	14.786
360.93	15.154
361.29	15.193
361.66	14.783
362.02	15.299
362.38	14.449
362.74	15.923
363.10	14.286
363.46	15.774
363.82	14.286
364.18	14.391
364.54	15.007
364.90	15.439
365.26	15.294
365.62	14.755
365.98	14.098
366.35	14.613
366.71	15.546
367.07	14.785
367.43	14.949
367.79	14.347
368.15	15.374
368.51	14.244
368.87	14.632
369.23	13.899
369.59	15.206
369.95	13.750
370.31	14.601
370.67	14.928
371.03	14.757
371.39	14.577
371.75	13.676
372.11	13.727
372.47	14.223
372.83	14.914
373.19	13.150
373.55	14.486
373.91	15.096
374.27	14.089
374.63	14.036
374.99	14.054
375.35	14.096
375.71	14.256
376.07	14.403
376.42	14.237
376.78	14.248
377.14	14.179
377.50	14.305
377.86	13.497
378.22	14.096
378.58	12.594
378.94	13.702
379.30	13.740
379.66	14.213
380.02	14.865
380.38	12.811
380.74	13.685
381.09	14.670
381.45	13.952
381.81	14.926
382.17	13.439
382.53	13.774
382.89	14.259
383.25	13.884
383.61	14.126
383.97	13.696
384.32	13.600
384.68	13.693
385.04	13.583
385.40	13.313
385.76	13.698
386.12	13.018
386.48	13.971
386.83	13.919
387.19	13.605
387.55	13.915
387.91	13.664
388.27	12.630
388.62	14.075
388.98	13.329
389.34	14.205
389.70	13.305
390.06	13.371
390.42	13.100
390.77	13.613
391.13	12.763
391.49	14.150
391.85	14.067
392.20	13.060
392.56	13.699
392.92	13.420
393.28	12.604
393.64	14.269
393.99	13.622
394.35	13.337
394.71	12.735
395.07	14.143
395.42	13.041
395.78	13.168
396.14	13.718
396.50	13.158
396.85	14.240
397.21	12.639
397.57	13.143
397.92	13.161
398.28	12.668
398.64	13.859
399.00	12.535
399.35	13.254
399.71	13.426
400.07	12.951
400.42	13.374
400.78	13.571
401.14	13.110
401.49	13.731
401.85	13.430
402.21	12.575
402.57	12.893
402.92	12.610
403.28	13.429
403.63	12.438
403.99	13.057
404.35	12.848
404.70	12.770
405.06	12.988
405.42	12.851
405.77	12.800
406.13	13.093
406.49	12.655
406.84	12.995
407.20	12.825
407.55	13.274
407.91	13.333
408.27	12.636
408.62	12.643
408.98	13.358
409.34	13.100
409.69	12.645
410.05	12.701
410.40	12.661
410.76	13.262
411.11	13.148
411.47	12.332
411.83	12.767
412.18	12.554
412.54	12.765
412.89	12.771
413.25	12.751
413.60	12.786
413.96	12.811
414.31	13.123
414.67	13.371
415.03	12.715
415.38	12.629
415.74	13.248
416.09	13.259
416.45	12.918
416.80	13.483
417.16	13.807
417.51	13.072
417.87	12.331
418.22	13.249
418.58	13.686
418.93	13.391
419.29	13.495
419.64	13.035
420.00	13.415
420.35	12.406
420.71	12.971
421.06	12.112
421.42	11.930
421.77	13.117
422.12	12.353
422.48	11.873
422.83	13.221
423.19	12.597
423.54	12.420
423.90	13.043
424.25	13.065
424.61	12.560
424.96	12.012
425.31	13.289
425.67	13.483
426.02	12.171
426.38	12.271
426.73	11.820
427.09	12.340
427.44	12.306
427.79	12.708
428.15	13.452
428.50	12.873
428.85	13.886
429.21	13.031
429.56	12.545
429.92	11.928
430.27	12.115
430.62	12.289
430.98	13.181
431.33	12.680
431.68	12.094
432.04	12.460
432.39	12.736
432.74	12.807
433.10	12.564
433.45	13.061
433.80	12.528
434.16	12.340
434.51	12.421
434.86	12.771
435.22	12.618
435.57	12.705
435.92	12.112
436.28	13.108
436.63	12.914
436.98	12.192
437.34	12.343
437.69	13.594
438.04	12.479
438.39	12.716
438.75	13.364
439.10	12.514
439.45	12.987
439.81	11.964
440.16	13.213
440.51	11.892
440.86	12.507
441.22	12.625
441.57	13.270
441.92	13.306
442.27	12.594
442.63	12.691
442.98	12.676
443.33	12.120
443.68	12.545
444.03	12.640
444.39	11.879
444.74	12.716
445.09	12.938
445.44	11.974
445.79	12.321
446.15	13.340
446.50	11.793
446.85	11.922
447.20	12.341
447.55	12.898
447.91	12.576
448.26	12.521
448.61	11.984
448.96	12.791
449.31	12.261
449.66	12.774
450.02	12.256
450.37	12.642
450.72	12.916
451.07	11.883
451.42	12.036
451.77	12.860
452.12	12.529
452.47	11.940
452.83	12.413
453.18	12.958
453.53	12.863
453.88	12.345
454.23	12.791
454.58	12.356
454.93	13.541
455.28	12.344
455.63	12.621
455.98	13.155
456.34	12.688
456.69	13.087
457.04	12.755
457.39	12.390
457.74	12.710
458.09	12.421
458.44	12.258
458.79	11.605
459.14	12.528
459.49	12.609
459.84	12.355
460.19	12.728
460.54	12.674
460.89	12.836
461.24	13.358
461.59	13.887
461.94	12.639
462.29	12.522
462.64	13.465
462.99	12.752
463.34	13.533
463.69	12.195
464.04	12.986
464.39	12.754
464.74	12.478
465.09	12.847
465.44	12.410
465.79	11.913
466.14	12.698
466.49	12.848
466.84	12.726
467.19	12.674
467.54	13.063
467.89	12.485
468.24	13.264
468.59	13.431
468.94	11.546
469.29	12.275
469.64	13.521
469.99	12.991
470.34	11.229
470.68	13.147
471.03	11.565
471.38	13.273
471.73	12.125
472.08	13.289
472.43	12.437
472.78	12.837
473.13	12.901
473.48	12.110
473.83	12.500
474.17	12.197
474.52	12.035
474.87	13.018
475.22	12.885
475.57	12.466
475.92	12.321
476.27	11.669
476.61	12.631
476.96	11.930
477.31	12.193
477.66	12.363
478.01	12.284
478.36	12.163
478.70	11.734
479.05	11.928
479.40	12.487
479.75	11.896
480.10	11.581
480.45	12.327
480.79	11.706
481.14	12.035
481.49	12.008
481.84	12.026
482.19	12.267
482.53	11.835
482.88	12.378
483.23	12.196
483.58	11.965
483.92	11.809
484.27	11.068
484.62	11.983
484.97	11.825
485.31	11.781
485.66	11.627
486.01	11.938
486.36	11.795
486.70	11.384
487.05	11.254
487.40	10.981
487.75	10.624
488.09	10.858
488.44	10.841
488.79	11.139
489.13	11.230
489.48	11.501
489.83	11.049
490.17	11.486
490.52	11.515
490.87	11.850
491.22	11.414
491.56	11.253
491.91	11.866
492.26	11.392
492.60	12.166
492.95	9.916
493.30	12.009
493.64	11.759
493.99	11.421
494.34	12.165
494.68	11.584
495.03	11.701
495.37	11.587
495.72	11.404
496.07	11.972
496.41	11.858
496.76	11.697
497.11	11.166
497.45	11.318
497.80	12.044
498.14	11.787
498.49	11.463
498.84	11.314
499.18	11.667
499.53	11.681
499.87	11.463
500.22	11.540
500.56	11.990
500.91	11.683
501.26	12.186
501.60	11.391
501.95	11.503
502.29	12.465
502.64	11.499
502.98	11.688
503.33	11.609
503.67	11.183
504.02	11.693
504.36	11.839
504.71	11.822
505.06	11.663
505.40	11.619
505.75	11.041
506.09	11.273
506.44	11.988
506.78	11.642
507.13	11.711
507.47	11.768
507.82	12.006
508.16	12.107
508.51	11.974
508.85	10.626
509.19	11.020
509.54	11.684
509.88	11.643
510.23	11.260
510.57	12.229
510.92	10.927
511.26	12.025
511.61	11.878
511.95	11.221
512.30	11.506
512.64	11.553
512.98	12.004
513.33	11.135
513.67	10.779
514.02	11.093
514.36	11.851
514.70	11.400
515.05	11.322
515.39	11.722
515.74	11.543
516.08	11.683
516.42	11.987
516.77	12.096
517.11	11.321
517.46	11.174
517.80	11.847
518.14	10.886
518.49	11.435
518.83	12.216
519.17	11.952
519.52	11.432
519.86	11.979
520.20	12.370
520.55	11.550
520.89	11.800
521.23	11.882
521.58	11.885
521.92	12.247
522.26	11.714
522.61	12.212
522.95	11.234
523.29	11.442
523.64	11.829
523.98	11.768
524.32	11.460
524.66	11.545
525.01	12.255
525.35	11.834
525.69	11.392
526.04	11.713
526.38	11.592
526.72	11.534
527.06	11.990
527.41	10.025
527.75	11.125
528.09	11.561
528.43	10.962
528.78	11.862
529.12	10.788
529.46	12.799
529.80	11.881
530.15	12.212
530.49	11.077
530.83	12.342
531.17	12.272
531.51	12.451
531.86	11.871
532.20	12.516
532.54	13.133
532.88	12.452
533.22	10.743
533.57	11.790
533.91	11.981
534.25	12.029
534.59	12.142
534.93	11.898
535.27	11.467
535.62	12.454
535.96	11.425
536.30	11.316
536.64	11.397
536.98	12.143
537.32	11.850
537.66	11.800
538.01	12.574
538.35	12.346
538.69	12.699
539.03	10.916
539.37	11.310
539.71	11.212
540.05	11.242
540.39	10.631
540.73	11.772
541.07	12.005
541.42	11.676
541.76	12.516
542.10	12.225
542.44	12.252
542.78	11.594
543.12	11.324
543.46	12.328
543.80	11.906
544.14	11.361
544.48	12.317
544.82	11.289
545.16	11.646
545.50	11.697
545.84	11.895
546.18	11.582
546.52	11.975
546.86	11.340
547.20	12.138
547.54	12.625
547.88	12.436
548.22	11.955
548.56	12.390
548.90	11.204
549.24	11.246
549.58	11.596
549.92	10.920
550.26	11.151
550.60	10.996
550.94	11.479
551.28	10.534
551.62	11.862
551.96	11.439
552.30	12.491
552.64	11.900
552.98	11.797
553.32	11.800
553.66	12.474
554.00	11.942
554.34	10.973
554.68	11.731
555.02	11.989
555.36	11.691
555.69	11.367
556.03	11.844
556.37	12.483
556.71	10.982
557.05	11.835
557.39	11.686
557.73	12.068
558.07	10.660
558.41	11.216
558.75	12.050
559.08	11.633
559.42	11.262
559.76	12.426
560.10	11.492
560.44	12.648
560.78	12.375
561.12	11.741
561.45	11.147
561.79	11.866
562.13	11.536
562.47	11.134
562.81	11.437
563.15	10.836
563.48	12.069
563.82	11.350
564.16	11.642
564.50	11.133
564.84	11.884
565.17	11.390
565.51	11.629
565.85	11.675
566.19	11.083
566.52	11.716
566.86	11.453
567.20	12.264
567.54	11.644
567.88	10.809
568.21	11.958
568.55	12.538
568.89	11.965
569.23	11.453
569.56	11.862
569.90	11.811
570.24	11.446
570.57	11.221
570.91	10.989
571.25	11.365
571.59	11.340
571.92	11.060
572.26	11.352
572.60	11.321
572.93	11.064
573.27	10.914
573.61	10.916
573.95	11.473
574.28	10.980
574.62	11.030
574.96	11.039
575.29	11.033
575.63	10.671
575.97	10.857
576.30	11.046
576.64	11.018
576.98	10.744
577.31	11.114
577.65	11.314
577.98	10.877
578.32	10.782
578.66	10.734
578.99	10.682
579.33	10.458
579.67	10.216
580.00	10.621
580.34	10.655
580.67	10.730
581.01	11.199
581.35	10.984
581.68	11.028
582.02	11.020
582.35	10.958
582.69	11.200
583.02	10.734
583.36	10.722
583.70	10.714
584.03	10.397
584.37	10.830
584.70	10.815
585.04	10.934
585.37	10.881
585.71	11.443
586.04	10.824
586.38	10.841
586.72	11.074
587.05	11.030
587.39	10.712
587.72	10.977
588.06	10.806
588.39	11.303
588.73	10.736
589.06	10.782
589.40	10.370
589.73	10.982
590.07	10.747
590.40	10.559
590.73	11.202
591.07	10.704
591.40	11.177
591.74	10.736
592.07	11.649
592.41	11.203
592.74	11.423
593.08	11.559
593.41	11.737
593.75	10.868
594.08	10.996
594.41	11.594
594.75	10.795
595.08	10.988
595.42	10.928
595.75	11.147
596.09	11.416
596.42	11.866
596.75	10.553
597.09	11.255
597.42	10.708
597.75	11.169
598.09	11.130
598.42	11.426
598.76	10.823
599.09	10.604
599.42	11.608
599.76	11.091
600.09	11.148
600.42	10.847
600.76	10.821
601.09	10.601
601.42	10.807
601.76	11.347
602.09	10.435
602.42	11.146
602.76	11.810
603.09	11.644
603.42	11.324
603.76	11.128
604.09	10.741
604.42	10.966
604.76	11.430
605.09	10.834
605.42	11.116
605.75	11.672
606.09	10.899
606.42	11.075
606.75	11.365
607.09	11.511
607.42	10.911
607.75	10.802
608.08	10.682
608.42	11.609
608.75	11.226
609.08	10.546
609.41	11.090
609.75	10.576
610.08	11.074
610.41	10.754
610.74	10.691
611.07	11.611
611.41	11.531
611.74	11.413
612.07	11.232
612.40	11.175
612.73	11.158
613.07	11.530
613.40	11.532
613.73	10.855
614.06	11.559
614.39	11.904
614.72	11.579
615.06	11.502
615.39	10.828
615.72	11.196
616.05	10.420
616.38	11.729
616.71	11.758
617.05	11.896
617.38	11.485
617.71	10.631
618.04	10.998
618.37	11.886
618.70	11.637
619.03	11.316
619.36	11.270
619.69	10.986
620.03	11.951
620.36	11.765
620.69	12.192
621.02	11.652
621.35	11.276
621.68	11.449
622.01	11.920
622.34	11.422
622.67	11.787
623.00	10.932
623.33	11.008
623.66	11.365
623.99	11.856
624.32	12.197
624.65	11.441
624.99	11.686
625.32	10.934
625.65	11.345
625.98	12.298
626.31	12.131
626.64	12.653
626.97	12.801
627.30	11.804
627.63	12.633
627.96	11.690
628.29	12.073
628.62	11.070
628.95	13.019
629.28	11.679
629.61	11.182
629.94	11.905
630.26	10.772
630.59	12.202
630.92	11.782
631.25	11.056
631.58	11.812
