SpectraSuite Data File
++++++++++++++++++++++++++++++++++++
Date: Wed May 13 20:47:10 PDT 2015
User: schluterlab
Dark Spectrum Present: Yes
Reference Spectrum Present: Yes
Number of Sampled Component Spectra: 1
Spectrometers: USB2E3373
Integration Time (usec): 3000 (USB2E3373)
Spectra Averaged: 3 (USB2E3373)
Boxcar Smoothing: 0 (USB2E3373)
Correct for Electrical Dark: No (USB2E3373)
Strobe/Lamp Enabled: No (USB2E3373)
Correct for Detector Non-linearity: No (USB2E3373)
Correct for Stray Light: No (USB2E3373)
Number of Pixels in Processed Spectrum: 2048
>>>>>Begin Processed Spectral Data<<<<<
178.53	0.000
178.91	-750.000
179.29	-850.000
179.67	-88.889
180.04	-700.000
180.42	1300.000
180.80	720.000
181.18	-625.000
181.56	514.286
181.94	0.000
182.31	-357.143
182.69	933.333
183.07	-250.000
183.45	-277.778
183.83	263.636
184.20	-190.000
184.58	1200.000
184.96	3300.000
185.34	-540.000
185.72	-350.000
186.09	-1650.000
186.47	1850.000
186.85	1500.000
187.23	3600.000
187.61	-1100.000
187.98	875.000
188.36	363.636
188.74	363.636
189.12	-560.000
189.49	340.000
189.87	-2200.000
190.25	-725.000
190.63	271.429
191.00	307.692
191.38	466.667
191.76	-550.000
192.14	875.000
192.51	337.500
192.89	516.667
193.27	300.000
193.65	-700.000
194.02	270.000
194.40	460.000
194.78	430.000
195.15	383.333
195.53	470.000
195.91	-800.000
196.29	212.500
196.66	221.053
197.04	-110.000
197.42	0.000
197.79	340.000
198.17	-2700.000
198.55	314.286
198.92	500.000
199.30	400.000
199.68	0.000
200.05	244.444
200.43	500.000
200.81	1900.000
201.18	933.333
201.56	-900.000
201.94	344.444
202.31	355.556
202.69	275.000
203.07	310.000
203.44	0.000
203.82	550.000
204.19	585.714
204.57	271.429
204.95	312.500
205.32	866.667
205.70	245.455
206.08	250.000
206.45	1150.000
206.83	262.500
207.20	416.667
207.58	400.000
207.96	227.778
208.33	525.000
208.71	-450.000
209.08	385.714
209.46	300.000
209.84	345.455
210.21	-600.000
210.59	1000.000
210.96	-187.500
211.34	1250.000
211.71	360.000
212.09	416.667
212.46	0.000
212.84	766.667
213.22	725.000
213.59	-2800.000
213.97	566.667
214.34	414.286
214.72	409.091
215.09	560.000
215.47	-1100.000
215.84	-1650.000
216.22	1066.667
216.59	257.143
216.97	675.000
217.34	281.818
217.72	-250.000
218.09	0.000
218.47	-2700.000
218.84	388.889
219.22	400.000
219.59	866.667
219.97	-257.143
220.34	400.000
220.72	-733.333
221.09	300.000
221.47	825.000
221.84	-500.000
222.22	0.000
222.59	925.000
222.97	-1400.000
223.34	760.000
223.72	246.154
224.09	640.000
224.46	1000.000
224.84	-2500.000
225.21	-600.000
225.59	-4100.000
225.96	420.000
226.34	180.000
226.71	1400.000
227.08	387.500
227.46	300.000
227.83	-400.000
228.21	-1350.000
228.58	411.111
228.95	-1250.000
229.33	-1750.000
229.70	1066.667
230.08	600.000
230.45	-440.000
230.82	308.333
231.20	550.000
231.57	342.857
231.95	358.333
232.32	145.455
232.69	300.000
233.07	314.286
233.44	161.538
233.81	-966.667
234.19	194.737
234.56	275.000
234.93	241.667
235.31	309.091
235.68	123.077
236.05	185.714
236.43	109.091
236.80	131.579
237.17	900.000
237.55	123.810
237.92	150.000
238.29	166.667
238.67	129.032
239.04	124.138
239.41	80.556
239.79	65.217
240.16	92.857
240.53	102.273
240.91	56.863
241.28	78.000
241.65	74.000
242.02	81.159
242.40	70.968
242.77	66.667
243.14	65.591
243.51	68.539
243.89	48.235
244.26	51.111
244.63	59.140
245.00	60.638
245.38	48.515
245.75	53.271
246.12	55.963
246.49	49.635
246.87	50.400
247.24	47.692
247.61	45.000
247.98	45.752
248.36	41.216
248.73	44.586
249.10	42.675
249.47	46.328
249.84	41.711
250.22	45.989
250.59	42.012
250.96	49.495
251.33	38.863
251.70	40.099
252.08	40.952
252.45	35.426
252.82	39.565
253.19	40.426
253.56	36.078
253.94	42.324
254.31	41.406
254.68	39.231
255.05	35.424
255.42	36.585
255.79	40.441
256.16	37.184
256.54	33.922
256.91	39.858
257.28	37.410
257.65	38.284
258.02	39.130
258.39	33.438
258.76	36.120
259.14	36.310
259.51	35.258
259.88	31.988
260.25	35.045
260.62	32.659
260.99	35.404
261.36	36.036
261.73	37.249
262.10	31.395
262.47	37.465
262.85	35.655
263.22	31.624
263.59	37.607
263.96	36.538
264.33	34.204
264.70	35.526
265.07	38.363
265.44	34.848
265.81	31.144
266.18	34.925
266.55	31.951
266.92	34.889
267.29	35.880
267.66	31.193
268.03	32.500
268.40	33.411
268.77	31.026
269.14	31.982
269.51	35.666
269.88	35.431
270.25	32.506
270.62	32.809
270.99	34.839
271.36	30.901
271.73	31.542
272.10	33.261
272.47	35.484
272.84	31.169
273.21	33.333
273.58	31.441
273.95	32.075
274.32	32.231
274.69	33.191
275.06	29.724
275.43	33.830
275.80	31.864
276.17	30.550
276.54	32.432
276.91	31.028
277.28	31.641
277.65	31.528
278.02	28.571
278.39	33.203
278.76	30.182
279.13	31.698
279.50	30.354
279.87	31.873
280.23	31.337
280.60	29.981
280.97	30.499
281.34	31.504
281.71	31.091
282.08	31.862
282.45	30.364
282.82	29.307
283.19	28.520
283.56	27.544
283.92	30.964
284.29	30.335
284.66	29.583
285.03	30.922
285.40	30.458
285.77	29.293
286.14	28.497
286.51	30.167
286.87	31.453
287.24	32.085
287.61	28.411
287.98	29.058
288.35	28.368
288.72	26.791
289.08	29.108
289.45	28.336
289.82	27.317
290.19	27.159
290.56	27.718
290.93	25.076
291.29	26.380
291.66	26.254
292.03	28.634
292.40	26.432
292.77	26.627
293.13	25.970
293.50	26.531
293.87	25.778
294.24	24.296
294.60	22.562
294.97	25.727
295.34	26.375
295.71	25.000
296.08	23.932
296.44	25.309
296.81	23.646
297.18	26.423
297.55	22.427
297.91	23.747
298.28	25.837
298.65	24.674
299.02	25.165
299.38	24.436
299.75	21.968
300.12	22.350
300.48	22.875
300.85	21.948
301.22	23.567
301.59	21.970
301.95	22.418
302.32	22.336
302.69	22.581
303.05	21.576
303.42	20.864
303.79	22.877
304.15	20.396
304.52	20.973
304.89	22.416
305.25	21.346
305.62	22.877
305.99	21.960
306.35	21.700
306.72	23.094
307.09	22.863
307.45	21.847
307.82	20.312
308.19	23.289
308.55	22.654
308.92	21.267
309.29	21.014
309.65	20.785
310.02	21.670
310.38	21.398
310.75	21.331
311.12	21.392
311.48	22.884
311.85	21.698
312.22	21.644
312.58	21.206
312.95	21.859
313.31	21.456
313.68	21.830
314.05	24.556
314.41	22.714
314.78	22.558
315.14	22.542
315.51	22.657
315.87	24.257
316.24	22.939
316.61	22.320
316.97	23.483
317.34	23.581
317.70	24.283
318.07	25.120
318.43	25.538
318.80	25.679
319.16	25.800
319.53	26.454
319.89	26.381
320.26	29.100
320.62	26.389
320.99	28.990
321.35	28.788
321.72	28.953
322.08	29.220
322.45	30.249
322.81	30.039
323.18	31.503
323.54	32.468
323.91	32.075
324.27	34.417
324.64	34.576
325.00	35.257
325.37	35.760
325.73	36.894
326.10	37.158
326.46	38.441
326.83	40.121
327.19	40.393
327.56	40.070
327.92	42.957
328.29	44.632
328.65	45.120
329.01	42.870
329.38	43.571
329.74	44.783
330.11	46.089
330.47	47.291
330.84	46.140
331.20	46.448
331.56	48.257
331.93	47.778
332.29	48.713
332.66	48.496
333.02	48.995
333.38	49.955
333.75	51.515
334.11	50.623
334.48	50.754
334.84	50.827
335.20	53.182
335.57	52.403
335.93	50.089
336.29	53.846
336.66	54.824
337.02	52.489
337.38	54.722
337.75	53.387
338.11	53.268
338.47	55.801
338.84	54.629
339.20	55.872
339.56	57.482
339.93	56.364
340.29	55.435
340.65	56.684
341.02	57.504
341.38	57.028
341.74	57.018
342.11	59.563
342.47	60.088
342.83	57.534
343.20	59.654
343.56	58.888
343.92	59.474
344.28	61.395
344.65	62.081
345.01	58.502
345.37	59.005
345.73	59.983
346.10	60.699
346.46	60.085
346.82	60.544
347.19	61.153
347.55	60.099
347.91	61.327
348.27	62.695
348.63	62.876
349.00	61.731
349.36	62.644
349.72	62.149
350.08	61.345
350.45	62.897
350.81	62.226
351.17	61.183
351.53	63.554
351.89	61.469
352.26	62.273
352.62	62.390
352.98	62.237
353.34	63.763
353.70	62.111
354.07	62.661
354.43	62.222
354.79	62.671
355.15	63.607
355.51	65.228
355.87	64.327
356.24	64.984
356.60	62.871
356.96	64.441
357.32	64.922
357.68	63.780
358.04	63.737
358.40	64.925
358.77	63.928
359.13	63.062
359.49	65.020
359.85	64.603
360.21	65.391
360.57	64.280
360.93	64.923
361.29	64.248
361.66	63.467
362.02	63.060
362.38	64.487
362.74	63.542
363.10	64.397
363.46	63.316
363.82	64.097
364.18	62.702
364.54	64.487
364.90	64.306
365.26	64.853
365.62	64.207
365.98	63.550
366.35	63.324
366.71	63.485
367.07	64.093
367.43	66.110
367.79	64.668
368.15	65.445
368.51	63.881
368.87	65.096
369.23	65.033
369.59	66.546
369.95	64.485
370.31	65.028
370.67	63.478
371.03	66.217
371.39	65.160
371.75	64.706
372.11	63.727
372.47	64.809
372.83	66.571
373.19	65.173
373.55	66.371
373.91	65.538
374.27	63.436
374.63	65.091
374.99	65.537
375.35	64.131
375.71	64.085
376.07	64.060
376.42	65.268
376.78	66.203
377.14	64.925
377.50	65.960
377.86	64.029
378.22	64.223
378.58	63.409
378.94	63.796
379.30	65.649
379.66	64.404
380.02	65.111
380.38	64.056
380.74	63.926
381.09	64.792
381.45	65.519
381.81	64.926
382.17	66.178
382.53	65.031
382.89	66.111
383.25	64.728
383.61	66.171
383.97	64.415
384.32	64.192
384.68	65.613
385.04	64.352
385.40	64.582
385.76	65.233
386.12	65.026
386.48	65.009
386.83	66.325
387.19	66.790
387.55	64.873
387.91	64.692
388.27	63.826
388.62	64.167
388.98	65.233
389.34	65.144
389.70	64.010
390.06	65.019
390.42	65.240
390.77	63.168
391.13	66.496
391.49	65.102
391.85	64.609
392.20	64.101
392.56	64.836
392.92	65.509
393.28	65.385
393.64	64.089
393.99	64.508
394.35	63.896
394.71	64.178
395.07	63.925
395.42	65.822
395.78	63.232
396.14	64.308
396.50	65.100
396.85	64.463
397.21	63.687
397.57	65.220
397.92	64.844
398.28	63.845
398.64	63.560
399.00	64.745
399.35	64.467
399.71	63.715
400.07	63.217
400.42	63.313
400.78	64.475
401.14	64.024
401.49	64.657
401.85	63.460
402.21	63.653
402.57	63.541
402.92	65.385
403.28	65.584
403.63	64.604
403.99	63.439
404.35	63.879
404.70	63.729
405.06	63.716
405.42	63.943
405.77	64.629
406.13	63.036
406.49	62.980
406.84	63.556
407.20	61.939
407.55	62.476
407.91	64.333
408.27	63.306
408.62	61.890
408.98	63.235
409.34	62.977
409.69	65.677
410.05	62.701
410.40	62.080
410.76	63.082
411.11	61.761
411.47	61.917
411.83	63.653
412.18	62.276
412.54	61.831
412.89	61.084
413.25	62.515
413.60	61.334
413.96	60.838
414.31	62.090
414.67	61.660
415.03	62.318
415.38	62.693
415.74	61.672
416.09	63.553
416.45	60.776
416.80	60.608
417.16	61.193
417.51	62.508
417.87	60.886
418.22	62.650
418.58	62.040
418.93	62.592
419.29	61.171
419.64	61.020
420.00	60.305
420.35	60.580
420.71	61.207
421.06	60.084
421.42	60.000
421.77	60.426
422.12	59.517
422.48	61.036
422.83	60.687
423.19	60.000
423.54	60.070
423.90	60.638
424.25	59.296
424.61	59.643
424.96	59.825
425.31	60.188
425.67	59.382
426.02	58.857
426.38	60.317
426.73	57.695
427.09	58.967
427.44	59.402
427.79	58.079
428.15	59.345
428.50	59.508
428.85	59.178
429.21	58.863
429.56	60.031
429.92	59.134
430.27	58.788
430.62	58.474
430.98	57.966
431.33	57.680
431.68	58.691
432.04	57.295
432.39	57.853
432.74	57.750
433.10	57.216
433.45	58.659
433.80	58.537
434.16	57.051
434.51	58.316
434.86	58.096
435.22	57.588
435.57	57.264
435.92	58.514
436.28	58.304
436.63	57.174
436.98	56.211
437.34	57.662
437.69	58.110
438.04	58.010
438.39	57.612
438.75	57.350
439.10	56.145
439.45	56.730
439.81	57.644
440.16	57.312
440.51	57.118
440.86	55.704
441.22	56.897
441.57	55.786
441.92	56.090
442.27	57.374
442.63	56.819
442.98	56.225
443.33	55.598
443.68	56.221
444.03	55.686
444.39	55.209
444.74	56.169
445.09	55.256
445.44	55.604
445.79	54.824
446.15	54.897
446.50	54.927
446.85	54.779
447.20	54.666
447.55	56.449
447.91	54.330
448.26	56.093
448.61	54.551
448.96	54.596
449.31	54.218
449.66	53.967
450.02	53.259
450.37	54.082
450.72	55.386
451.07	54.723
451.42	53.435
451.77	54.903
452.12	52.945
452.47	53.234
452.83	53.555
453.18	52.506
453.53	52.999
453.88	53.455
454.23	52.421
454.58	53.786
454.93	53.655
455.28	53.180
455.63	53.762
455.98	54.762
456.34	53.392
456.69	52.348
457.04	53.375
457.39	51.198
457.74	51.828
458.09	52.444
458.44	52.338
458.79	50.542
459.14	53.160
459.49	52.014
459.84	51.856
460.19	51.090
460.54	50.752
460.89	51.344
461.24	53.734
461.59	52.644
461.94	50.925
462.29	52.107
462.64	50.096
462.99	49.577
463.34	50.267
463.69	51.595
464.04	50.667
464.39	50.609
464.74	50.267
465.09	50.905
465.44	50.305
465.79	49.832
466.14	50.137
466.49	49.611
466.84	50.204
467.19	50.030
467.54	51.000
467.89	49.760
468.24	49.855
468.59	49.939
468.94	47.526
469.29	48.843
469.64	50.134
469.99	49.662
470.34	48.415
470.68	48.922
471.03	48.027
471.38	49.896
471.73	47.901
472.08	49.539
472.43	48.367
472.78	48.519
473.13	48.395
473.48	48.190
473.83	49.024
474.17	47.729
474.52	47.891
474.87	49.212
475.22	47.649
475.57	46.910
475.92	47.424
476.27	47.012
476.61	47.049
476.96	47.389
477.31	45.474
477.66	47.648
478.01	45.740
478.36	47.065
478.70	45.691
479.05	46.699
479.40	46.827
479.75	46.823
480.10	47.018
480.45	45.978
480.79	45.581
481.14	45.499
481.49	46.512
481.84	46.411
482.19	46.343
482.53	46.239
482.88	46.626
483.23	45.561
483.58	45.177
483.92	44.986
484.27	44.314
484.62	44.871
484.97	44.580
485.31	45.445
485.66	46.460
486.01	47.660
486.36	47.293
486.70	47.310
487.05	45.760
487.40	44.816
487.75	43.894
488.09	42.766
488.44	42.195
488.79	42.532
489.13	42.781
489.48	42.007
489.83	42.771
490.17	43.446
490.52	43.180
490.87	43.374
491.22	42.610
491.56	42.141
491.91	42.206
492.26	42.627
492.60	43.041
492.95	41.628
493.30	42.477
493.64	43.164
493.99	41.783
494.34	42.368
494.68	41.850
495.03	42.998
495.37	41.880
495.72	41.764
496.07	42.181
496.41	41.814
496.76	42.260
497.11	41.918
497.45	42.292
497.80	41.219
498.14	39.952
498.49	40.976
498.84	41.659
499.18	40.810
499.53	41.690
499.87	40.680
500.22	40.132
500.56	41.359
500.91	40.625
501.26	41.015
501.60	41.908
501.95	40.742
502.29	41.518
502.64	40.829
502.98	40.486
503.33	39.671
503.67	40.046
504.02	40.225
504.36	39.869
504.71	39.521
505.06	38.988
505.40	38.600
505.75	38.717
506.09	39.116
506.44	40.207
506.78	39.747
507.13	40.182
507.47	38.838
507.82	39.007
508.16	38.956
508.51	39.472
508.85	38.928
509.19	40.204
509.54	38.571
509.88	38.382
510.23	38.201
510.57	39.164
510.92	38.788
511.26	37.205
511.61	38.900
511.95	37.787
512.30	36.957
512.64	37.346
512.98	37.513
513.33	37.634
513.67	36.713
514.02	36.418
514.36	37.957
514.70	36.967
515.05	36.196
515.39	37.072
515.74	36.599
516.08	38.010
516.42	37.014
516.77	37.514
517.11	36.293
517.46	37.190
517.80	37.050
518.14	35.263
518.49	36.873
518.83	36.648
519.17	36.605
519.52	36.446
519.86	36.395
520.20	36.358
520.55	36.086
520.89	36.436
521.23	36.550
521.58	35.474
521.92	34.354
522.26	34.594
522.61	35.016
522.95	35.298
523.29	34.693
523.64	34.817
523.98	36.537
524.32	35.223
524.66	36.140
525.01	34.804
525.35	35.626
525.69	33.929
526.04	35.576
526.38	34.411
526.72	34.540
527.06	35.217
527.41	33.540
527.75	34.855
528.09	34.746
528.43	34.736
528.78	34.726
529.12	34.485
529.46	34.354
529.80	35.210
530.15	33.583
530.49	32.985
530.83	34.051
531.17	34.334
531.51	34.695
531.86	33.677
532.20	34.355
532.54	33.889
532.88	34.275
533.22	33.791
533.57	33.457
533.91	34.136
534.25	34.022
534.59	33.374
534.93	33.611
535.27	33.977
535.62	33.822
535.96	34.149
536.30	33.630
536.64	33.097
536.98	33.577
537.32	32.916
537.66	34.000
538.01	34.101
538.35	33.161
538.69	34.269
539.03	32.489
539.37	32.971
539.71	33.441
540.05	33.333
540.39	32.757
540.73	32.471
541.07	33.355
541.42	32.355
541.76	33.613
542.10	33.312
542.44	33.113
542.78	32.411
543.12	32.118
543.46	32.852
543.80	33.572
544.14	32.092
544.48	33.524
544.82	31.751
545.16	32.661
545.50	32.134
545.84	31.855
546.18	31.515
546.52	30.970
546.86	31.753
547.20	32.704
547.54	32.265
547.88	32.462
548.22	31.507
548.56	31.761
548.90	31.178
549.24	31.380
549.58	32.401
549.92	32.280
550.26	31.960
550.60	31.328
550.94	31.127
551.28	29.115
551.62	31.776
551.96	29.684
552.30	30.580
552.64	31.778
552.98	32.000
553.32	31.827
553.66	30.743
554.00	31.984
554.34	31.194
554.68	31.688
555.02	30.395
555.36	30.550
555.69	30.582
556.03	30.485
556.37	30.423
556.71	30.150
557.05	30.882
557.39	30.091
557.73	30.558
558.07	30.674
558.41	31.114
558.75	30.272
559.08	30.872
559.42	29.781
559.76	28.603
560.10	30.121
560.44	29.350
560.78	30.007
561.12	31.069
561.45	30.183
561.79	29.730
562.13	29.510
562.47	29.781
562.81	30.404
563.15	29.699
563.48	30.040
563.82	30.202
564.16	29.823
564.50	30.078
564.84	30.405
565.17	29.794
565.51	29.776
565.85	29.822
566.19	29.555
566.52	31.222
566.86	30.078
567.20	29.894
567.54	30.936
567.88	29.386
568.21	30.741
568.55	31.092
568.89	31.566
569.23	31.194
569.56	31.700
569.90	30.981
570.24	32.400
570.57	31.384
570.91	30.575
571.25	30.852
571.59	31.429
571.92	31.250
572.26	31.542
572.60	31.201
572.93	30.285
573.27	30.997
573.61	31.128
573.95	31.214
574.28	31.106
574.62	31.220
574.96	31.087
575.29	30.941
575.63	30.513
575.97	30.409
576.30	30.324
576.64	30.427
576.98	30.579
577.31	30.776
577.65	31.422
577.98	31.343
578.32	30.759
578.66	31.111
578.99	30.724
579.33	30.114
579.67	29.652
580.00	30.400
580.34	30.541
580.67	29.615
581.01	30.313
581.35	31.131
581.68	31.356
582.02	30.838
582.35	30.886
582.69	31.135
583.02	30.341
583.36	30.021
583.70	29.296
584.03	29.545
584.37	28.986
584.70	29.676
585.04	29.501
585.37	30.196
585.71	30.193
586.04	30.273
586.38	29.990
586.72	29.743
587.05	29.394
587.39	29.446
587.72	29.297
588.06	29.536
588.39	29.410
588.73	29.774
589.06	29.854
589.40	28.687
589.73	29.356
590.07	28.577
590.40	28.645
590.73	28.806
591.07	28.571
591.40	28.806
591.74	29.481
592.07	28.272
592.41	29.268
592.74	29.176
593.08	29.913
593.41	30.149
593.75	29.107
594.08	29.065
594.41	29.268
594.75	28.909
595.08	28.311
595.42	29.352
595.75	28.526
596.09	28.577
596.42	29.155
596.75	27.902
597.09	27.749
597.42	27.361
597.75	28.504
598.09	28.391
598.42	28.351
598.76	28.212
599.09	28.240
599.42	27.984
599.76	28.624
600.09	28.306
600.42	28.780
600.76	27.679
601.09	28.306
601.42	28.082
601.76	27.932
602.09	28.142
602.42	27.866
602.76	28.416
603.09	28.127
603.42	28.153
603.76	27.630
604.09	27.569
604.42	28.373
604.76	28.174
605.09	28.222
605.42	26.507
605.75	27.525
606.09	28.264
606.42	28.116
606.75	28.080
607.09	27.459
607.42	27.942
607.75	27.173
608.08	27.312
608.42	27.880
608.75	27.412
609.08	27.197
609.41	26.606
609.75	27.585
610.08	27.992
610.41	27.281
610.74	27.673
611.07	27.619
611.41	27.036
611.74	27.602
612.07	26.915
612.40	27.964
612.73	27.474
613.07	26.886
613.40	27.646
613.73	26.324
614.06	27.151
614.39	26.481
614.72	26.684
615.06	27.206
615.39	27.282
615.72	26.636
616.05	26.209
616.38	26.737
616.71	26.306
617.05	27.326
617.38	27.060
617.71	26.547
618.04	27.163
618.37	26.493
618.70	26.073
619.03	26.842
619.36	25.255
619.69	25.493
620.03	26.305
620.36	25.668
620.69	27.603
621.02	26.106
621.35	26.077
621.68	25.000
622.01	25.697
622.34	25.643
622.67	25.475
623.00	25.459
623.33	25.518
623.66	26.948
623.99	26.804
624.32	25.036
624.65	25.071
624.99	25.779
625.32	25.272
625.65	25.319
625.98	26.211
626.31	25.350
626.64	25.551
626.97	25.769
627.30	25.270
627.63	24.774
627.96	24.895
628.29	24.759
628.62	24.794
628.95	24.528
629.28	24.453
629.61	25.940
629.94	24.952
630.26	24.690
630.59	25.262
630.92	23.563
631.25	23.001
631.58	23.123
