SpectraSuite Data File
++++++++++++++++++++++++++++++++++++
Date: Wed May 13 21:00:34 PDT 2015
User: schluterlab
Dark Spectrum Present: Yes
Reference Spectrum Present: Yes
Number of Sampled Component Spectra: 1
Spectrometers: USB2E3373
Integration Time (usec): 3000 (USB2E3373)
Spectra Averaged: 3 (USB2E3373)
Boxcar Smoothing: 0 (USB2E3373)
Correct for Electrical Dark: No (USB2E3373)
Strobe/Lamp Enabled: No (USB2E3373)
Correct for Detector Non-linearity: No (USB2E3373)
Correct for Stray Light: No (USB2E3373)
Number of Pixels in Processed Spectrum: 2048
>>>>>Begin Processed Spectral Data<<<<<
178.53	0.000
178.91	50.000
179.29	100.000
179.67	-400.000
180.04	33.333
180.42	-0.000
180.80	300.000
181.18	150.000
181.56	-100.000
181.94	25.000
182.31	27.273
182.69	38.462
183.07	140.000
183.45	100.000
183.83	77.778
184.20	85.714
184.58	333.333
184.96	100.000
185.34	214.286
185.72	0.000
186.09	-300.000
186.47	-240.000
186.85	-80.000
187.23	250.000
187.61	100.000
187.98	100.000
188.36	75.000
188.74	0.000
189.12	9.091
189.49	120.000
189.87	75.000
190.25	280.000
190.63	-400.000
191.00	240.000
191.38	-0.000
191.76	250.000
192.14	75.000
192.51	-21.053
192.89	466.667
193.27	-100.000
193.65	40.000
194.02	163.636
194.40	130.000
194.78	700.000
195.15	-100.000
195.53	20.000
195.91	-37.500
196.29	200.000
196.66	0.000
197.04	-500.000
197.42	140.000
197.79	130.000
198.17	-37.500
198.55	-333.333
198.92	75.000
199.30	0.000
199.68	110.000
200.05	-150.000
200.43	50.000
200.81	-700.000
201.18	-100.000
201.56	-83.333
201.94	350.000
202.31	43.478
202.69	-28.571
203.07	-266.667
203.44	60.000
203.82	66.667
204.19	80.000
204.57	0.000
204.95	133.333
205.32	0.000
205.70	250.000
206.08	-25.000
206.45	0.000
206.83	-25.000
207.20	100.000
207.58	70.000
207.96	-1200.000
208.33	14.286
208.71	100.000
209.08	175.000
209.46	125.000
209.84	0.000
210.21	80.000
210.59	1500.000
210.96	160.000
211.34	-800.000
211.71	50.000
212.09	-66.667
212.46	-50.000
212.84	0.000
213.22	50.000
213.59	200.000
213.97	-300.000
214.34	-400.000
214.72	-7.692
215.09	187.500
215.47	-33.333
215.84	-0.000
216.22	-100.000
216.59	-200.000
216.97	533.333
217.34	55.556
217.72	0.000
218.09	266.667
218.47	300.000
218.84	57.143
219.22	-150.000
219.59	66.667
219.97	50.000
220.34	37.500
220.72	-40.000
221.09	0.000
221.47	100.000
221.84	1400.000
222.22	0.000
222.59	-700.000
222.97	100.000
223.34	-16.667
223.72	-800.000
224.09	-250.000
224.46	100.000
224.84	62.500
225.21	-42.857
225.59	-75.000
225.96	-50.000
226.34	70.000
226.71	14.286
227.08	200.000
227.46	-25.000
227.83	400.000
228.21	43.750
228.58	-75.000
228.95	-17.647
229.33	75.000
229.70	50.000
230.08	84.615
230.45	75.000
230.82	0.000
231.20	128.571
231.57	-50.000
231.95	-300.000
232.32	-8.333
232.69	58.824
233.07	-300.000
233.44	4.348
233.81	-450.000
234.19	50.000
234.56	-26.667
234.93	20.000
235.31	10.526
235.68	15.385
236.05	107.692
236.43	77.778
236.80	9.091
237.17	33.333
237.55	35.294
237.92	10.345
238.29	29.630
238.67	52.778
239.04	22.581
239.41	25.532
239.79	55.319
240.16	62.791
240.53	37.500
240.91	35.714
241.28	51.786
241.65	32.258
242.02	22.368
242.40	43.478
242.77	26.087
243.14	33.333
243.51	26.596
243.89	30.769
244.26	42.453
244.63	27.885
245.00	40.625
245.38	35.294
245.75	32.787
246.12	35.338
246.49	28.455
246.87	26.050
247.24	35.811
247.61	34.437
247.98	37.821
248.36	34.911
248.73	30.899
249.10	24.747
249.47	33.871
249.84	34.737
250.22	32.836
250.59	35.047
250.96	35.000
251.33	29.187
251.70	35.983
252.08	32.218
252.45	37.860
252.82	34.601
253.19	35.798
253.56	29.496
253.94	37.011
254.31	35.563
254.68	31.879
255.05	31.683
255.42	31.469
255.79	31.288
256.16	30.915
256.54	33.016
256.91	26.899
257.28	30.189
257.65	28.981
258.02	31.672
258.39	33.918
258.76	32.267
259.14	33.239
259.51	31.461
259.88	32.520
260.25	33.056
260.62	31.180
260.99	34.218
261.36	33.679
261.73	31.111
262.10	30.280
262.47	26.420
262.85	33.582
263.22	32.051
263.59	34.545
263.96	32.603
264.33	29.327
264.70	35.349
265.07	31.019
265.44	34.713
265.81	32.265
266.18	30.068
266.55	30.568
266.92	32.203
267.29	30.658
267.66	33.121
268.03	31.481
268.40	29.661
268.77	33.264
269.14	32.041
269.51	34.292
269.88	31.365
270.25	34.322
270.62	32.172
270.99	33.465
271.36	32.341
271.73	32.530
272.10	32.952
272.47	31.478
272.84	31.693
273.21	31.311
273.58	31.762
273.95	33.585
274.32	30.410
274.69	32.058
275.06	32.862
275.43	33.145
275.80	29.787
276.17	32.044
276.54	30.373
276.91	31.533
277.28	29.964
277.65	30.245
278.02	31.429
278.39	32.682
278.76	32.107
279.13	31.218
279.50	31.552
279.87	30.978
280.23	32.072
280.60	30.796
280.97	27.922
281.34	31.546
281.71	30.244
282.08	31.624
282.45	31.311
282.82	31.150
283.19	31.098
283.56	30.469
283.92	30.428
284.29	28.705
284.66	30.807
285.03	29.153
285.40	29.305
285.77	30.030
286.14	31.307
286.51	32.834
286.87	29.077
287.24	29.941
287.61	31.024
287.98	29.118
288.35	29.508
288.72	28.981
289.08	29.060
289.45	28.488
289.82	28.744
290.19	30.575
290.56	26.847
290.93	27.210
291.29	27.633
291.66	29.098
292.03	26.975
292.40	27.995
292.77	25.569
293.13	27.057
293.50	28.366
293.87	27.067
294.24	27.116
294.60	27.048
294.97	26.323
295.34	23.219
295.71	25.230
296.08	24.738
296.44	23.852
296.81	24.117
297.18	26.375
297.55	25.472
297.91	24.969
298.28	23.850
298.65	26.232
299.02	26.496
299.38	24.540
299.75	24.639
300.12	22.907
300.48	23.392
300.85	24.018
301.22	25.319
301.59	23.474
301.95	24.623
302.32	23.804
302.69	23.616
303.05	24.031
303.42	24.545
303.79	23.449
304.15	21.906
304.52	24.409
304.89	21.041
305.25	22.173
305.62	22.234
305.99	22.198
306.35	23.929
306.72	23.194
307.09	23.566
307.45	22.151
307.82	22.632
308.19	21.526
308.55	23.337
308.92	22.495
309.29	22.222
309.65	22.577
310.02	23.658
310.38	23.780
310.75	22.781
311.12	21.866
311.48	23.244
311.85	24.114
312.22	23.308
312.58	22.415
312.95	22.388
313.31	23.049
313.68	21.756
314.05	21.645
314.41	22.574
314.78	22.581
315.14	22.593
315.51	23.406
315.87	22.335
316.24	22.957
316.61	21.461
316.97	21.667
317.34	21.390
317.70	23.461
318.07	24.490
318.43	22.855
318.80	22.600
319.16	22.546
319.53	22.760
319.89	22.855
320.26	23.845
320.62	22.984
320.99	23.256
321.35	22.357
321.72	23.003
322.08	23.708
322.45	23.867
322.81	25.139
323.18	25.045
323.54	25.542
323.91	25.203
324.27	26.733
324.64	25.610
325.00	23.272
325.37	26.621
325.73	24.242
326.10	26.241
326.46	25.418
326.83	27.994
327.19	25.203
327.56	26.833
327.92	26.388
328.29	25.876
328.65	28.221
329.01	26.209
329.38	27.739
329.74	27.639
330.11	28.584
330.47	25.781
330.84	26.986
331.20	28.010
331.56	28.714
331.93	28.424
332.29	28.149
332.66	27.712
333.02	28.063
333.38	27.105
333.75	27.133
334.11	30.035
334.48	28.684
334.84	27.915
335.20	28.731
335.57	28.198
335.93	28.608
336.29	28.284
336.66	27.863
337.02	29.913
337.38	27.763
337.75	28.941
338.11	27.498
338.47	27.997
338.84	29.725
339.20	29.541
339.56	29.352
339.93	27.831
340.29	29.120
340.65	28.828
341.02	28.453
341.38	28.125
341.74	27.731
342.11	28.406
342.47	27.448
342.83	28.595
343.20	30.203
343.56	28.209
343.92	28.432
344.28	29.058
344.65	28.571
345.01	28.733
345.37	29.112
345.73	29.412
346.10	28.571
346.46	30.081
346.82	28.411
347.19	28.165
347.55	29.321
347.91	29.618
348.27	28.943
348.63	28.846
349.00	29.638
349.36	28.571
349.72	29.234
350.08	28.627
350.45	28.348
350.81	28.873
351.17	29.715
351.53	28.515
351.89	28.276
352.26	27.799
352.62	28.450
352.98	29.073
353.34	30.032
353.70	29.517
354.07	29.098
354.43	29.082
354.79	29.087
355.15	29.814
355.51	28.853
355.87	29.554
356.24	28.812
356.60	27.756
356.96	29.087
357.32	29.257
357.68	29.106
358.04	29.015
358.40	28.915
358.77	28.746
359.13	30.039
359.49	28.766
359.85	29.416
360.21	28.682
360.57	29.202
360.93	30.046
361.29	29.830
361.66	29.689
362.02	30.022
362.38	30.355
362.74	28.934
363.10	29.790
363.46	28.818
363.82	30.599
364.18	30.312
364.54	29.176
364.90	30.662
365.26	29.653
365.62	30.682
365.98	30.036
366.35	31.064
366.71	30.599
367.07	31.467
367.43	30.314
367.79	31.272
368.15	31.224
368.51	31.364
368.87	31.193
369.23	31.174
369.59	30.867
369.95	30.261
370.31	29.916
370.67	30.920
371.03	31.477
371.39	30.802
371.75	31.357
372.11	31.695
372.47	30.353
372.83	32.108
373.19	31.727
373.55	31.142
373.91	31.754
374.27	31.051
374.63	32.148
374.99	32.033
375.35	31.233
375.71	31.250
376.07	32.145
376.42	30.615
376.78	32.365
377.14	32.542
377.50	32.529
377.86	31.806
378.22	33.059
378.58	31.211
378.94	33.000
379.30	32.854
379.66	32.799
380.02	33.211
380.38	32.892
380.74	33.353
381.09	32.449
381.45	32.830
381.81	34.134
382.17	33.270
382.53	34.092
382.89	32.388
383.25	34.630
383.61	33.838
383.97	33.625
384.32	32.451
384.68	33.066
385.04	32.254
385.40	34.309
385.76	33.881
386.12	34.280
386.48	33.103
386.83	34.230
387.19	33.991
387.55	34.273
387.91	33.825
388.27	33.046
388.62	34.769
388.98	34.668
389.34	34.837
389.70	33.883
390.06	34.188
390.42	35.180
390.77	33.632
391.13	34.470
391.49	34.345
391.85	34.505
392.20	34.712
392.56	34.984
392.92	34.991
393.28	33.876
393.64	35.352
393.99	34.823
394.35	35.926
394.71	35.192
395.07	33.836
395.42	35.405
395.78	35.586
396.14	35.574
396.50	35.828
396.85	35.182
397.21	35.019
397.57	35.093
397.92	35.150
398.28	35.364
398.64	34.062
399.00	34.877
399.35	35.812
399.71	35.061
400.07	36.506
400.42	35.862
400.78	34.924
401.14	36.481
401.49	35.890
401.85	35.565
402.21	36.409
402.57	36.358
402.92	36.483
403.28	35.835
403.63	36.020
403.99	36.084
404.35	36.347
404.70	34.502
405.06	35.937
405.42	34.673
405.77	35.599
406.13	35.257
406.49	35.830
406.84	37.424
407.20	34.636
407.55	35.974
407.91	36.003
408.27	35.621
408.62	37.139
408.98	35.388
409.34	36.077
409.69	37.557
410.05	35.883
410.40	35.240
410.76	36.161
411.11	37.313
411.47	37.359
411.83	36.556
412.18	36.020
412.54	36.967
412.89	36.050
413.25	35.634
413.60	36.677
413.96	35.955
414.31	36.745
414.67	36.317
415.03	36.604
415.38	36.658
415.74	36.387
416.09	37.343
416.45	37.731
416.80	36.846
417.16	36.707
417.51	37.040
417.87	37.302
418.22	36.652
418.58	37.057
418.93	37.476
419.29	36.304
419.64	36.387
420.00	37.587
420.35	37.298
420.71	37.416
421.06	37.638
421.42	37.105
421.77	37.399
422.12	37.880
422.48	36.968
422.83	37.271
423.19	36.458
423.54	37.456
423.90	37.233
424.25	37.724
424.61	37.338
424.96	36.014
425.31	36.568
425.67	37.684
426.02	38.634
426.38	39.117
426.73	38.302
427.09	37.523
427.44	36.935
427.79	37.648
428.15	37.309
428.50	37.160
428.85	38.253
429.21	37.760
429.56	38.257
429.92	38.313
430.27	38.241
430.62	37.513
430.98	38.287
431.33	38.904
431.68	38.658
432.04	38.085
432.39	37.933
432.74	38.381
433.10	38.640
433.45	37.692
433.80	39.483
434.16	38.067
434.51	38.424
434.86	38.751
435.22	39.162
435.57	39.128
435.92	38.782
436.28	38.078
436.63	39.030
436.98	39.013
437.34	39.621
437.69	38.076
438.04	38.257
438.39	40.224
438.75	39.809
439.10	40.486
439.45	38.923
439.81	39.594
440.16	38.783
440.51	39.358
440.86	39.182
441.22	39.071
441.57	38.503
441.92	38.828
442.27	39.069
442.63	38.536
442.98	38.889
443.33	39.278
443.68	38.587
444.03	40.288
444.39	38.969
444.74	38.432
445.09	39.042
445.44	40.000
445.79	39.133
446.15	39.878
446.50	38.822
446.85	39.498
447.20	38.630
447.55	40.067
447.91	39.213
448.26	39.280
448.61	39.183
448.96	39.237
449.31	39.178
449.66	38.751
450.02	39.113
450.37	40.247
450.72	38.978
451.07	39.687
451.42	38.615
451.77	39.562
452.12	38.562
452.47	39.961
452.83	38.561
453.18	39.338
453.53	38.777
453.88	39.518
454.23	39.308
454.58	38.725
454.93	38.614
455.28	38.921
455.63	38.865
455.98	39.623
456.34	38.207
456.69	39.744
457.04	38.452
457.39	39.747
457.74	39.497
458.09	39.396
458.44	39.600
458.79	38.880
459.14	37.809
459.49	40.915
459.84	37.768
460.19	38.896
460.54	39.355
460.89	39.358
461.24	39.457
461.59	40.278
461.94	39.381
462.29	39.154
462.64	40.303
462.99	39.034
463.34	40.262
463.69	39.240
464.04	39.136
464.39	40.146
464.74	39.066
465.09	39.616
465.44	39.731
465.79	39.620
466.14	39.852
466.49	40.059
466.84	38.613
467.19	38.790
467.54	39.015
467.89	38.906
468.24	40.258
468.59	40.089
468.94	40.166
469.29	39.921
469.64	39.819
469.99	41.586
470.34	38.570
470.68	40.595
471.03	40.056
471.38	39.638
471.73	39.506
472.08	40.756
472.43	40.699
472.78	39.554
473.13	38.127
473.48	38.356
473.83	39.674
474.17	38.411
474.52	41.036
474.87	39.083
475.22	39.372
475.57	39.431
475.92	39.258
476.27	39.452
476.61	38.335
476.96	40.148
477.31	38.943
477.66	39.831
478.01	38.132
478.36	38.638
478.70	39.098
479.05	38.901
479.40	39.054
479.75	39.532
480.10	39.164
480.45	38.597
480.79	39.373
481.14	38.956
481.49	38.875
481.84	37.370
482.19	38.629
482.53	38.905
482.88	37.536
483.23	38.595
483.58	39.792
483.92	38.424
484.27	37.557
484.62	37.905
484.97	38.200
485.31	36.604
485.66	35.914
486.01	35.169
486.36	35.505
486.70	35.971
487.05	36.266
487.40	37.073
487.75	37.410
488.09	37.285
488.44	38.170
488.79	39.516
489.13	38.569
489.48	38.179
489.83	37.919
490.17	37.767
490.52	38.850
490.87	37.599
491.22	38.201
491.56	38.955
491.91	38.118
492.26	38.830
492.60	38.528
492.95	38.435
493.30	36.967
493.64	37.218
493.99	37.681
494.34	37.765
494.68	38.425
495.03	38.439
495.37	38.637
495.72	38.195
496.07	38.383
496.41	37.810
496.76	37.934
497.11	37.840
497.45	38.375
497.80	38.465
498.14	38.388
498.49	38.124
498.84	38.462
499.18	38.527
499.53	37.962
499.87	36.778
500.22	37.631
500.56	38.064
500.91	38.581
501.26	37.635
501.60	37.059
501.95	37.230
502.29	37.184
502.64	38.428
502.98	37.428
503.33	37.275
503.67	36.952
504.02	37.206
504.36	36.751
504.71	38.516
505.06	38.360
505.40	37.423
505.75	38.861
506.09	38.068
506.44	37.097
506.78	37.075
507.13	36.850
507.47	38.123
507.82	37.729
508.16	38.364
508.51	37.448
508.85	37.170
509.19	37.725
509.54	38.820
509.88	37.527
510.23	37.421
510.57	37.500
510.92	36.961
511.26	38.009
511.61	37.761
511.95	38.203
512.30	37.812
512.64	39.160
512.98	37.507
513.33	38.366
513.67	37.990
514.02	38.198
514.36	37.528
514.70	37.818
515.05	38.092
515.39	37.795
515.74	37.715
516.08	37.286
516.42	37.097
516.77	37.317
517.11	37.449
517.46	39.016
517.80	38.680
518.14	38.212
518.49	38.156
518.83	38.126
519.17	38.916
519.52	38.179
519.86	38.494
520.20	36.750
520.55	38.433
520.89	38.520
521.23	38.846
521.58	38.622
521.92	38.466
522.26	37.345
522.61	38.785
522.95	38.536
523.29	38.286
523.64	36.618
523.98	38.183
524.32	37.303
524.66	37.792
525.01	38.401
525.35	37.920
525.69	39.165
526.04	37.785
526.38	37.922
526.72	37.410
527.06	37.975
527.41	36.797
527.75	36.649
528.09	38.870
528.43	38.331
528.78	38.243
529.12	37.646
529.46	36.468
529.80	37.411
530.15	36.229
530.49	39.690
530.83	37.915
531.17	38.151
531.51	37.424
531.86	36.585
532.20	36.802
532.54	36.828
532.88	37.985
533.22	37.508
533.57	37.417
533.91	38.065
534.25	36.589
534.59	37.130
534.93	36.416
535.27	37.452
535.62	37.303
535.96	36.435
536.30	37.301
536.64	35.680
536.98	36.790
537.32	37.722
537.66	37.377
538.01	37.725
538.35	37.086
538.69	36.187
539.03	35.570
539.37	35.412
539.71	37.108
540.05	36.167
540.39	36.270
540.73	36.662
541.07	35.986
541.42	35.488
541.76	35.453
542.10	35.748
542.44	36.383
542.78	36.849
543.12	36.927
543.46	36.006
543.80	35.438
544.14	36.476
544.48	33.908
544.82	36.516
545.16	35.767
545.50	36.664
545.84	35.694
546.18	36.255
546.52	35.709
546.86	34.488
547.20	35.954
547.54	35.954
547.88	35.965
548.22	34.658
548.56	35.357
548.90	35.318
549.24	35.833
549.58	36.228
549.92	36.244
550.26	37.122
550.60	36.637
550.94	34.925
551.28	35.201
551.62	35.489
551.96	35.505
552.30	34.862
552.64	34.605
552.98	35.582
553.32	35.689
553.66	35.510
554.00	35.637
554.34	34.505
554.68	35.421
555.02	35.928
555.36	35.703
555.69	35.470
556.03	34.882
556.37	35.135
556.71	34.618
557.05	35.351
557.39	34.966
557.73	35.930
558.07	35.870
558.41	35.882
558.75	35.181
559.08	35.204
559.42	35.877
559.76	34.404
560.10	35.665
560.44	34.193
560.78	35.252
561.12	33.707
561.45	33.469
561.79	34.938
562.13	34.529
562.47	35.214
562.81	35.354
563.15	34.632
563.48	34.136
563.82	33.789
564.16	33.920
564.50	34.939
564.84	33.919
565.17	33.907
565.51	33.957
565.85	32.845
566.19	34.305
566.52	33.355
566.86	33.059
567.20	33.842
567.54	32.642
567.88	32.867
568.21	31.722
568.55	33.073
568.89	32.004
569.23	31.806
569.56	31.706
569.90	31.020
570.24	30.469
570.57	30.740
570.91	30.093
571.25	29.968
571.59	30.367
571.92	30.038
572.26	30.621
572.60	31.044
572.93	30.709
573.27	29.639
573.61	30.867
573.95	29.693
574.28	29.801
574.62	28.882
574.96	29.626
575.29	29.514
575.63	29.742
575.97	29.810
576.30	30.204
576.64	29.238
576.98	30.247
577.31	29.606
577.65	28.982
577.98	28.968
578.32	28.729
578.66	29.274
578.99	29.812
579.33	29.510
579.67	29.710
580.00	28.795
580.34	29.350
580.67	30.010
581.01	28.918
581.35	28.616
581.68	28.412
582.02	28.523
582.35	28.758
582.69	29.314
583.02	29.045
583.36	29.446
583.70	30.151
584.03	29.900
584.37	29.044
584.70	29.534
585.04	29.457
585.37	28.821
585.71	27.834
586.04	29.198
586.38	28.808
586.72	28.969
587.05	29.865
587.39	29.134
587.72	28.750
588.06	29.357
588.39	29.751
588.73	29.212
589.06	29.454
589.40	29.825
589.73	29.752
590.07	29.457
590.40	29.686
590.73	30.632
591.07	30.380
591.40	30.130
591.74	31.036
592.07	30.032
592.41	29.987
592.74	30.208
593.08	29.436
593.41	28.484
593.75	28.908
594.08	28.877
594.41	29.653
594.75	29.573
595.08	30.134
595.42	29.098
595.75	29.248
596.09	30.100
596.42	30.106
596.75	29.925
597.09	30.528
597.42	30.462
597.75	30.089
598.09	30.146
598.42	29.843
598.76	29.303
599.09	29.452
599.42	28.776
599.76	29.403
600.09	29.179
600.42	28.701
600.76	28.603
601.09	28.851
601.42	28.851
601.76	28.726
602.09	30.645
602.42	30.252
602.76	29.153
603.09	30.185
603.42	28.549
603.76	27.981
604.09	28.775
604.42	28.757
604.76	29.201
605.09	29.633
605.42	29.510
605.75	29.336
606.09	29.015
606.42	28.886
606.75	28.615
607.09	28.989
607.42	29.116
607.75	28.578
608.08	29.441
608.42	29.522
608.75	29.575
609.08	29.397
609.41	29.608
609.75	28.996
610.08	29.734
610.41	29.446
610.74	29.259
611.07	29.108
611.41	30.706
611.74	29.658
612.07	28.973
612.40	29.568
612.73	28.979
613.07	29.878
613.40	29.956
613.73	29.415
614.06	29.574
614.39	28.905
614.72	30.150
615.06	28.056
615.39	29.084
615.72	28.240
616.05	29.505
616.38	29.152
616.71	29.154
617.05	30.098
617.38	28.959
617.71	29.105
618.04	28.946
618.37	29.590
618.70	29.495
619.03	30.515
619.36	29.609
619.69	29.167
620.03	29.965
620.36	29.367
620.69	29.193
621.02	30.231
621.35	29.926
621.68	29.666
622.01	29.773
622.34	30.056
622.67	30.384
623.00	30.319
623.33	28.871
623.66	29.071
623.99	29.932
624.32	29.127
624.65	28.561
624.99	29.904
625.32	30.396
625.65	29.147
625.98	29.542
626.31	30.367
626.64	30.095
626.97	30.450
627.30	30.710
627.63	28.979
627.96	28.139
628.29	31.814
628.62	30.851
628.95	31.463
629.28	30.739
629.61	30.526
629.94	31.721
630.26	31.527
630.59	28.971
630.92	30.422
631.25	31.514
631.58	31.585
631.91	30.223
632.24	30.955
632.57	30.667
632.90	31.855
633.23	29.257
633.56	33.094
633.89	32.297
634.22	33.569
