SpectraSuite Data File
++++++++++++++++++++++++++++++++++++
Date: Wed May 13 20:44:52 PDT 2015
User: schluterlab
Dark Spectrum Present: Yes
Reference Spectrum Present: Yes
Number of Sampled Component Spectra: 1
Spectrometers: USB2E3373
Integration Time (usec): 3000 (USB2E3373)
Spectra Averaged: 3 (USB2E3373)
Boxcar Smoothing: 0 (USB2E3373)
Correct for Electrical Dark: No (USB2E3373)
Strobe/Lamp Enabled: No (USB2E3373)
Correct for Detector Non-linearity: No (USB2E3373)
Correct for Stray Light: No (USB2E3373)
Number of Pixels in Processed Spectrum: 2048
>>>>>Begin Processed Spectral Data<<<<<
178.53	0.000
178.91	-850.000
179.29	-875.000
179.67	-138.889
180.04	-725.000
180.42	1450.000
180.80	840.000
181.18	-625.000
181.56	371.429
181.94	0.000
182.31	-371.429
182.69	1133.333
183.07	-362.500
183.45	-355.556
183.83	418.182
184.20	-190.000
184.58	1500.000
184.96	3600.000
185.34	-480.000
185.72	-387.500
186.09	-1200.000
186.47	1750.000
186.85	1350.000
187.23	3000.000
187.61	-900.000
187.98	800.000
188.36	354.545
188.74	227.273
189.12	-420.000
189.49	320.000
189.87	-2900.000
190.25	-825.000
190.63	257.143
191.00	215.385
191.38	650.000
191.76	-875.000
192.14	850.000
192.51	375.000
192.89	650.000
193.27	325.000
193.65	-625.000
194.02	360.000
194.40	640.000
194.78	360.000
195.15	300.000
195.53	450.000
195.91	-1350.000
196.29	243.750
196.66	221.053
197.04	-140.000
197.42	0.000
197.79	450.000
198.17	-2600.000
198.55	457.143
198.92	512.500
199.30	420.000
199.68	0.000
200.05	277.778
200.43	400.000
200.81	2400.000
201.18	933.333
201.56	-966.667
201.94	322.222
202.31	355.556
202.69	308.333
203.07	380.000
203.44	0.000
203.82	675.000
204.19	528.571
204.57	335.714
204.95	412.500
205.32	800.000
205.70	381.818
206.08	321.429
206.45	1650.000
206.83	243.750
207.20	550.000
207.58	320.000
207.96	211.111
208.33	487.500
208.71	-583.333
209.08	514.286
209.46	344.444
209.84	300.000
210.21	-966.667
210.59	925.000
210.96	-325.000
211.34	1500.000
211.71	330.000
212.09	483.333
212.46	0.000
212.84	1133.333
213.22	750.000
213.59	-2400.000
213.97	633.333
214.34	585.714
214.72	372.727
215.09	660.000
215.47	-900.000
215.84	-1550.000
216.22	966.667
216.59	278.571
216.97	725.000
217.34	318.182
217.72	-366.667
218.09	0.000
218.47	-3700.000
218.84	444.444
219.22	528.571
219.59	1066.667
219.97	-371.429
220.34	520.000
220.72	-966.667
221.09	242.857
221.47	1075.000
221.84	-483.333
222.22	0.000
222.59	675.000
222.97	-1600.000
223.34	700.000
223.72	230.769
224.09	660.000
224.46	1450.000
224.84	-2500.000
225.21	-580.000
225.59	-2600.000
225.96	450.000
226.34	210.000
226.71	1550.000
227.08	387.500
227.46	370.000
227.83	-700.000
228.21	-1600.000
228.58	433.333
228.95	-1250.000
229.33	-1050.000
229.70	966.667
230.08	614.286
230.45	-460.000
230.82	225.000
231.20	483.333
231.57	228.571
231.95	308.333
232.32	204.545
232.69	190.909
233.07	500.000
233.44	253.846
233.81	-900.000
234.19	200.000
234.56	366.667
234.93	175.000
235.31	254.545
235.68	176.923
236.05	271.429
236.43	118.182
236.80	168.421
237.17	1400.000
237.55	171.429
237.92	139.286
238.29	161.905
238.67	125.806
239.04	141.379
239.41	94.444
239.79	82.609
240.16	76.190
240.53	88.636
240.91	76.471
241.28	60.000
241.65	76.000
242.02	62.319
242.40	58.065
242.77	55.000
243.14	47.312
243.51	52.809
243.89	50.588
244.26	51.111
244.63	40.860
245.00	41.489
245.38	42.574
245.75	37.383
246.12	39.450
246.49	40.146
246.87	50.400
247.24	41.538
247.61	37.143
247.98	39.869
248.36	31.081
248.73	35.669
249.10	37.580
249.47	29.379
249.84	28.342
250.22	27.807
250.59	32.544
250.96	35.354
251.33	32.701
251.70	34.653
252.08	31.905
252.45	29.148
252.82	27.826
253.19	28.511
253.56	29.804
253.94	28.631
254.31	25.391
254.68	25.769
255.05	24.723
255.42	26.016
255.79	28.309
256.16	30.686
256.54	23.675
256.91	25.979
257.28	22.662
257.65	26.073
258.02	22.981
258.39	22.082
258.76	25.418
259.14	25.595
259.51	23.100
259.88	25.776
260.25	23.263
260.62	24.566
260.99	24.534
261.36	27.027
261.73	22.350
262.10	23.547
262.47	25.070
262.85	21.170
263.22	22.222
263.59	25.926
263.96	23.901
264.33	20.104
264.70	22.368
265.07	23.785
265.44	22.727
265.81	21.655
266.18	24.121
266.55	20.488
266.92	22.113
267.29	22.917
267.66	22.018
268.03	23.409
268.40	22.430
268.77	22.673
269.14	20.270
269.51	22.799
269.88	22.611
270.25	21.219
270.62	20.449
270.99	23.871
271.36	20.172
271.73	19.159
272.10	20.217
272.47	25.376
272.84	22.944
273.21	21.803
273.58	20.742
273.95	20.964
274.32	19.421
274.69	20.771
275.06	20.079
275.43	23.404
275.80	20.842
276.17	18.737
276.54	21.414
276.91	21.344
277.28	21.094
277.65	20.309
278.02	17.598
278.39	21.289
278.76	20.727
279.13	19.434
279.50	19.553
279.87	21.514
280.23	18.962
280.60	20.503
280.97	19.039
281.34	19.823
281.71	20.182
282.08	20.537
282.45	17.091
282.82	19.538
283.19	16.756
283.56	20.351
283.92	18.613
284.29	19.929
284.66	18.330
285.03	16.637
285.40	21.479
285.77	17.845
286.14	19.862
286.51	20.667
286.87	19.658
287.24	19.381
287.61	18.941
287.98	16.396
288.35	17.433
288.72	17.601
289.08	17.058
289.45	16.804
289.82	17.886
290.19	17.896
290.56	16.386
290.93	16.465
291.29	15.798
291.66	15.634
292.03	19.331
292.40	18.649
292.77	15.089
293.13	15.821
293.50	16.910
293.87	16.444
294.24	14.074
294.60	14.993
294.97	15.552
295.34	15.797
295.71	16.477
296.08	15.100
296.44	14.580
296.81	14.927
297.18	15.583
297.55	13.984
297.91	14.380
298.28	16.064
298.65	15.927
299.02	14.756
299.38	13.679
299.75	12.803
300.12	14.176
300.48	15.500
300.85	13.687
301.22	13.376
301.59	12.626
301.95	15.743
302.32	13.992
302.69	14.337
303.05	13.576
303.42	13.827
303.79	13.590
304.15	12.238
304.52	11.472
304.89	12.079
305.25	13.225
305.62	14.043
305.99	13.459
306.35	13.423
306.72	13.453
307.09	13.319
307.45	13.288
307.82	12.054
308.19	13.687
308.55	13.700
308.92	13.856
309.29	13.411
309.65	12.831
310.02	11.839
310.38	12.903
310.75	12.672
311.12	12.590
311.48	14.002
311.85	12.055
312.22	13.632
312.58	12.786
312.95	13.305
313.31	11.942
313.68	12.578
314.05	14.004
314.41	12.864
314.78	12.790
315.14	11.420
315.51	13.182
315.87	12.178
316.24	12.512
316.61	12.086
316.97	12.524
317.34	12.329
317.70	11.759
318.07	13.282
318.43	12.720
318.80	13.308
319.16	11.959
319.53	11.069
319.89	12.000
320.26	12.800
320.62	12.401
320.99	12.222
321.35	11.313
321.72	10.780
322.08	12.438
322.45	13.930
322.81	13.275
323.18	13.584
323.54	13.544
323.91	13.208
324.27	12.428
324.64	10.997
325.00	12.353
325.37	11.920
325.73	13.914
326.10	12.445
326.46	12.455
326.83	14.064
327.19	11.956
327.56	11.498
327.92	12.598
328.29	13.132
328.65	13.628
329.01	12.184
329.38	11.101
329.74	11.634
330.11	11.404
330.47	12.764
330.84	12.500
331.20	12.568
331.56	12.294
331.93	11.852
332.29	12.245
332.66	13.363
333.02	11.974
333.38	13.098
333.75	12.389
334.11	12.544
334.48	12.422
334.84	12.776
335.20	12.545
335.57	11.605
335.93	11.071
336.29	12.088
336.66	12.444
337.02	10.588
337.38	11.667
337.75	12.299
338.11	11.996
338.47	12.431
338.84	12.466
339.20	11.468
339.56	12.591
339.93	12.182
340.29	11.866
340.65	11.052
341.02	12.129
341.38	12.367
341.74	12.105
342.11	11.528
342.47	12.423
342.83	12.671
343.20	12.554
343.56	12.384
343.92	11.754
344.28	11.395
344.65	12.296
345.01	11.532
345.37	10.635
345.73	11.675
346.10	12.447
346.46	11.780
346.82	12.356
347.19	10.944
347.55	11.166
347.91	12.864
348.27	12.736
348.63	12.458
349.00	12.055
349.36	12.479
349.72	12.189
350.08	12.156
350.45	12.042
350.81	12.104
351.17	12.156
351.53	12.039
351.89	11.056
352.26	13.339
352.62	12.109
352.98	11.426
353.34	12.736
353.70	11.129
354.07	12.419
354.43	11.667
354.79	11.102
355.15	11.492
355.51	12.390
355.87	11.592
356.24	12.622
356.60	11.227
356.96	11.183
357.32	11.120
357.68	12.441
358.04	11.718
358.40	11.876
358.77	12.050
359.13	11.760
359.49	12.235
359.85	10.476
360.21	10.606
360.57	12.763
360.93	12.769
361.29	11.036
361.66	11.378
362.02	12.015
362.38	11.407
362.74	11.830
363.10	10.437
363.46	11.225
363.82	11.262
364.18	11.233
364.54	11.516
364.90	11.331
365.26	11.618
365.62	10.738
365.98	10.592
366.35	10.602
366.71	11.352
367.07	11.508
367.43	11.176
367.79	11.563
368.15	11.351
368.51	10.901
368.87	11.420
369.23	10.461
369.59	11.731
369.95	10.294
370.31	10.969
370.67	11.594
371.03	11.086
371.39	11.297
371.75	11.103
372.11	10.811
372.47	11.730
372.83	12.176
373.19	10.694
373.55	11.086
373.91	11.193
374.27	11.134
374.63	11.782
374.99	11.370
375.35	10.468
375.71	10.898
376.07	11.660
376.42	10.591
376.78	11.199
377.14	10.651
377.50	11.523
377.86	10.638
378.22	11.441
378.58	9.900
378.94	10.371
379.30	9.924
379.66	10.787
380.02	10.504
380.38	10.200
380.74	10.864
381.09	10.697
381.45	10.264
381.81	10.934
382.17	10.892
382.53	10.881
382.89	10.679
383.25	10.256
383.61	10.409
383.97	11.194
384.32	10.293
384.68	10.347
385.04	9.650
385.40	10.588
385.76	9.398
386.12	10.363
386.48	10.321
386.83	10.584
387.19	10.823
387.55	10.699
387.91	11.125
388.27	9.933
388.62	10.756
388.98	9.337
389.34	11.702
389.70	10.239
390.06	11.027
390.42	10.571
390.77	10.496
391.13	10.785
391.49	10.596
391.85	10.185
392.20	9.085
392.56	10.859
392.92	10.477
393.28	9.231
393.64	10.552
393.99	10.690
394.35	10.050
394.71	11.041
395.07	10.218
395.42	9.827
395.78	9.542
396.14	10.428
396.50	11.090
396.85	10.299
397.21	10.419
397.57	10.167
397.92	9.255
398.28	9.641
398.64	10.215
399.00	10.353
399.35	9.250
399.71	10.243
400.07	11.413
400.42	10.123
400.78	11.158
401.14	9.573
401.49	10.627
401.85	10.345
402.21	9.102
402.57	10.241
402.92	9.899
403.28	10.681
403.63	9.839
403.99	9.682
404.35	10.545
404.70	9.412
405.06	10.367
405.42	9.919
405.77	10.343
406.13	9.594
406.49	9.758
406.84	10.041
407.20	9.397
407.55	10.657
407.91	10.267
408.27	9.892
408.62	9.512
408.98	10.049
409.34	10.640
409.69	10.000
410.05	9.851
410.40	9.725
410.76	10.155
411.11	10.253
411.47	10.543
411.83	10.629
412.18	10.142
412.54	9.900
412.89	10.843
413.25	10.272
413.60	10.006
413.96	10.079
414.31	9.842
414.67	11.217
415.03	10.397
415.38	10.760
415.74	9.904
416.09	10.908
416.45	10.643
416.80	9.782
417.16	10.322
417.51	10.285
417.87	10.597
418.22	10.284
418.58	11.104
418.93	10.688
419.29	10.821
419.64	10.139
420.00	10.305
420.35	10.609
420.71	10.759
421.06	10.561
421.42	10.819
421.77	10.370
422.12	9.994
422.48	9.336
422.83	10.367
423.19	10.221
423.54	10.853
423.90	9.971
424.25	10.329
424.61	10.238
424.96	10.087
425.31	10.576
425.67	9.719
426.02	10.629
426.38	10.684
426.73	10.006
427.09	9.848
427.44	10.351
427.79	10.178
428.15	10.714
428.50	10.181
428.85	10.548
429.21	10.271
429.56	10.161
429.92	10.418
430.27	9.732
430.62	9.933
430.98	10.742
431.33	10.206
431.68	10.314
432.04	9.904
432.39	9.652
432.74	10.114
433.10	10.470
433.45	10.612
433.80	8.814
434.16	10.470
434.51	10.211
434.86	10.433
435.22	9.950
435.57	10.760
435.92	9.889
436.28	11.447
436.63	10.817
436.98	9.788
437.34	9.779
437.69	11.319
438.04	9.893
438.39	9.910
438.75	10.924
439.10	9.888
439.45	10.980
439.81	10.514
440.16	10.390
440.51	10.779
440.86	10.770
441.22	9.844
441.57	10.456
441.92	10.133
442.27	10.980
442.63	9.637
442.98	11.211
443.33	10.543
443.68	9.912
444.03	10.298
444.39	9.542
444.74	10.498
445.09	10.782
445.44	10.771
445.79	10.242
446.15	10.429
446.50	9.693
446.85	10.123
447.20	10.607
447.55	10.497
447.91	10.480
448.26	10.796
448.61	10.232
448.96	11.130
449.31	10.517
449.66	10.917
450.02	9.972
450.37	10.374
450.72	10.321
451.07	10.847
451.42	10.213
451.77	11.333
452.12	10.219
452.47	10.323
452.83	10.373
453.18	10.941
453.53	10.761
453.88	10.396
454.23	10.640
454.58	11.508
454.93	11.697
455.28	10.100
455.63	10.983
455.98	11.190
456.34	10.930
456.69	10.207
457.04	11.331
457.39	11.455
457.74	10.911
458.09	11.673
458.44	10.262
458.79	9.816
459.14	10.948
459.49	11.033
459.84	10.582
460.19	10.784
460.54	11.343
460.89	11.026
461.24	10.990
461.59	11.621
461.94	10.666
462.29	11.869
462.64	11.232
462.99	10.800
463.34	12.067
463.69	10.819
464.04	11.304
464.39	11.246
464.74	10.873
465.09	10.796
465.44	11.080
465.79	9.955
466.14	11.056
466.49	10.734
466.84	10.683
467.19	10.441
467.54	10.875
467.89	10.504
468.24	11.576
468.59	10.989
468.94	11.729
469.29	11.183
469.64	11.780
469.99	12.179
470.34	10.964
470.68	11.925
471.03	11.769
471.38	10.354
471.73	11.326
472.08	11.776
472.43	11.307
472.78	11.652
473.13	11.617
473.48	11.673
473.83	10.854
474.17	10.828
474.52	11.725
474.87	11.792
475.22	11.434
475.57	11.660
475.92	10.887
476.27	10.034
476.61	10.535
476.96	10.940
477.31	11.041
477.66	10.722
478.01	10.873
478.36	11.264
478.70	10.955
479.05	10.703
479.40	10.798
479.75	11.540
480.10	10.239
480.45	10.900
480.79	10.368
481.14	11.742
481.49	11.343
481.84	10.288
482.19	11.131
482.53	10.917
482.88	10.796
483.23	10.794
483.58	11.374
483.92	11.200
484.27	10.632
484.62	10.345
484.97	10.564
485.31	10.240
485.66	9.341
486.01	8.677
486.36	8.750
486.70	9.187
487.05	9.585
487.40	9.857
487.75	10.350
488.09	10.282
488.44	9.773
488.79	10.090
489.13	10.619
489.48	10.481
489.83	10.445
490.17	10.566
490.52	10.629
490.87	10.945
491.22	10.687
491.56	10.888
491.91	10.656
492.26	11.116
492.60	11.014
492.95	10.103
493.30	11.308
493.64	11.479
493.99	10.585
494.34	11.008
494.68	11.081
495.03	11.654
495.37	11.587
495.72	11.306
496.07	11.369
496.41	10.221
496.76	11.258
497.11	11.481
497.45	11.225
497.80	10.653
498.14	11.111
498.49	10.683
498.84	11.505
499.18	10.952
499.53	11.206
499.87	10.997
500.22	11.964
500.56	12.087
500.91	10.817
501.26	11.143
501.60	11.011
501.95	11.366
502.29	11.340
502.64	10.801
502.98	11.173
503.33	11.380
503.67	11.276
504.02	11.833
504.36	11.558
504.71	11.480
505.06	11.325
505.40	10.987
505.75	10.945
506.09	11.467
506.44	11.889
506.78	11.398
507.13	11.156
507.47	11.212
507.82	11.905
508.16	11.601
508.51	11.974
508.85	11.817
509.19	11.633
509.54	11.020
509.88	11.437
510.23	11.825
510.57	12.332
510.92	11.807
511.26	11.459
511.61	11.722
511.95	11.326
512.30	11.559
512.64	11.660
512.98	12.058
513.33	12.473
513.67	11.633
514.02	11.634
514.36	12.125
514.70	12.230
515.05	12.103
515.39	12.283
515.74	12.162
516.08	12.353
516.42	11.876
516.77	12.932
517.11	11.987
517.46	12.867
517.80	12.485
518.14	11.986
518.49	12.194
518.83	12.386
519.17	11.836
519.52	12.903
519.86	13.120
520.20	12.775
520.55	13.645
520.89	12.470
521.23	12.425
521.58	12.905
521.92	13.595
522.26	12.813
522.61	12.648
522.95	13.137
523.29	12.842
523.64	13.110
523.98	13.062
524.32	12.967
524.66	12.928
525.01	12.806
525.35	12.082
525.69	12.438
526.04	13.022
526.38	13.118
526.72	12.515
527.06	12.994
527.41	11.572
527.75	13.505
528.09	13.552
528.43	12.492
528.78	13.276
529.12	12.909
529.46	13.533
529.80	12.995
530.15	13.396
530.49	11.877
530.83	13.228
531.17	13.708
531.51	14.332
531.86	12.774
532.20	13.364
532.54	13.773
532.88	12.516
533.22	13.492
533.57	13.519
533.91	12.824
534.25	12.819
534.59	13.179
534.93	12.968
535.27	13.096
535.62	13.370
535.96	14.124
536.30	12.778
536.64	13.909
536.98	14.001
537.32	12.706
537.66	13.000
538.01	12.903
538.35	13.510
538.69	13.274
539.03	13.125
539.37	12.907
539.71	11.406
540.05	12.941
540.39	13.488
540.73	13.777
541.07	13.498
541.42	13.046
541.76	13.290
542.10	13.389
542.44	12.848
542.78	12.714
543.12	14.075
543.46	14.033
543.80	12.947
544.14	12.003
544.48	13.333
544.82	12.700
545.16	13.403
545.50	12.918
545.84	12.970
546.18	13.468
546.52	13.489
546.86	13.471
547.20	13.823
547.54	12.826
547.88	14.286
548.22	13.699
548.56	13.082
548.90	12.932
549.24	12.795
549.58	13.847
549.92	13.187
550.26	13.494
550.60	14.246
550.94	14.085
551.28	13.241
551.62	13.084
551.96	12.702
552.30	14.334
552.64	13.793
552.98	14.576
553.32	13.082
553.66	14.588
554.00	14.345
554.34	14.286
554.68	14.306
555.02	13.752
555.36	13.918
555.69	13.532
556.03	13.863
556.37	12.824
556.71	13.029
557.05	13.165
557.39	13.436
557.73	13.973
558.07	14.648
558.41	13.603
558.75	14.475
559.08	13.721
559.42	13.454
559.76	13.309
560.10	14.418
560.44	13.976
560.78	13.174
561.12	13.259
561.45	14.211
561.79	12.327
562.13	13.950
562.47	14.754
562.81	13.808
563.15	13.445
563.48	13.660
563.82	12.981
564.16	13.604
564.50	13.151
564.84	13.338
565.17	13.127
565.51	13.291
565.85	12.944
566.19	13.024
566.52	13.236
566.86	12.779
567.20	13.915
567.54	12.785
567.88	12.276
568.21	12.751
568.55	12.892
568.89	12.403
569.23	12.032
569.56	11.984
569.90	11.132
570.24	11.231
570.57	11.153
570.91	10.860
571.25	10.531
571.59	10.928
571.92	10.599
572.26	10.630
572.60	10.691
572.93	10.645
573.27	11.091
573.61	10.581
573.95	10.879
574.28	10.101
574.62	10.447
574.96	10.275
575.29	9.796
575.63	10.417
575.97	10.544
576.30	10.701
576.64	10.184
576.98	10.233
577.31	9.727
577.65	9.967
577.98	9.992
578.32	10.068
578.66	10.084
578.99	10.294
579.33	10.143
579.67	9.949
580.00	10.189
580.34	10.228
580.67	10.376
581.01	10.749
581.35	9.736
581.68	9.913
582.02	9.743
582.35	9.729
582.69	10.138
583.02	9.981
583.36	10.468
583.70	10.664
584.03	10.371
584.37	10.382
584.70	10.319
585.04	10.274
585.37	10.275
585.71	10.573
586.04	10.389
586.38	10.632
586.72	10.467
587.05	10.350
587.39	10.264
587.72	10.513
588.06	10.165
588.39	10.508
588.73	10.766
589.06	11.031
589.40	11.010
589.73	10.700
590.07	11.103
590.40	10.449
590.73	10.812
591.07	11.274
591.40	11.556
591.74	12.381
592.07	11.867
592.41	11.162
592.74	10.861
593.08	10.993
593.41	10.914
593.75	10.775
594.08	11.130
594.41	11.594
594.75	11.091
595.08	10.880
595.42	11.384
595.75	11.040
596.09	11.603
596.42	11.395
596.75	11.819
597.09	12.208
597.42	11.130
597.75	11.212
598.09	12.000
598.42	10.954
598.76	11.228
599.09	10.186
599.42	11.426
599.76	11.640
600.09	11.038
600.42	11.286
600.76	11.321
601.09	11.475
601.42	11.073
601.76	11.309
602.09	11.304
602.42	11.744
602.76	11.971
603.09	11.566
603.42	12.456
603.76	11.166
604.09	11.167
604.42	11.211
604.76	11.936
605.09	11.970
605.42	11.928
605.75	11.796
606.09	11.509
606.42	11.075
606.75	11.987
607.09	11.888
607.42	11.297
607.75	11.224
608.08	11.637
608.42	12.147
608.75	11.587
609.08	11.795
609.41	11.661
609.75	11.386
610.08	12.300
610.41	11.639
610.74	11.447
611.07	12.154
611.41	12.267
611.74	12.619
612.07	12.215
612.40	11.962
612.73	12.474
613.07	12.338
613.40	12.322
613.73	12.008
614.06	11.720
614.39	12.323
614.72	12.000
615.06	12.447
615.39	11.624
615.72	11.656
616.05	12.068
616.38	12.285
616.71	12.530
617.05	13.310
617.38	12.207
617.71	12.372
618.04	12.380
618.37	13.010
618.70	12.570
619.03	13.882
619.36	13.646
619.69	13.451
620.03	13.736
620.36	14.505
620.69	14.521
621.02	15.487
621.35	12.764
621.68	13.707
622.01	14.164
622.34	12.935
622.67	14.297
623.00	13.206
623.33	13.295
623.66	14.582
623.99	14.065
624.32	13.195
624.65	13.206
624.99	13.031
625.32	13.396
625.65	13.373
625.98	13.912
626.31	13.453
626.64	15.102
626.97	14.796
627.30	14.214
627.63	14.520
627.96	15.559
628.29	14.961
628.62	16.560
628.95	17.453
629.28	15.055
629.61	16.499
629.94	14.095
630.26	14.585
630.59	14.585
630.92	14.751
631.25	15.597
631.58	15.415
631.91	16.430
632.24	15.295
632.57	16.579
632.90	16.009
633.23	16.667
