SpectraSuite Data File
++++++++++++++++++++++++++++++++++++
Date: Wed May 13 21:05:06 PDT 2015
User: schluterlab
Dark Spectrum Present: Yes
Reference Spectrum Present: Yes
Number of Sampled Component Spectra: 1
Spectrometers: USB2E3373
Integration Time (usec): 3000 (USB2E3373)
Spectra Averaged: 3 (USB2E3373)
Boxcar Smoothing: 0 (USB2E3373)
Correct for Electrical Dark: No (USB2E3373)
Strobe/Lamp Enabled: No (USB2E3373)
Correct for Detector Non-linearity: No (USB2E3373)
Correct for Stray Light: No (USB2E3373)
Number of Pixels in Processed Spectrum: 2048
>>>>>Begin Processed Spectral Data<<<<<
178.53	0.000
178.91	50.000
179.29	100.000
179.67	150.000
180.04	-66.667
180.42	120.000
180.80	900.000
181.18	133.333
181.56	-325.000
181.94	-250.000
182.31	-9.091
182.69	92.308
183.07	20.000
183.45	200.000
183.83	177.778
184.20	200.000
184.58	233.333
184.96	166.667
185.34	57.143
185.72	0.000
186.09	-400.000
186.47	-80.000
186.85	200.000
187.23	100.000
187.61	300.000
187.98	1400.000
188.36	-100.000
188.74	0.000
189.12	18.182
189.49	70.000
189.87	33.333
190.25	160.000
190.63	1200.000
191.00	140.000
191.38	80.000
191.76	175.000
192.14	116.667
192.51	15.789
192.89	166.667
193.27	325.000
193.65	-140.000
194.02	227.273
194.40	190.000
194.78	-600.000
195.15	180.000
195.53	-100.000
195.91	-125.000
196.29	-266.667
196.66	0.000
197.04	550.000
197.42	20.000
197.79	50.000
198.17	-37.500
198.55	-66.667
198.92	50.000
199.30	-200.000
199.68	0.000
200.05	350.000
200.43	33.333
200.81	-400.000
201.18	0.000
201.56	-133.333
201.94	650.000
202.31	30.435
202.69	-28.571
203.07	-400.000
203.44	-140.000
203.82	-166.667
204.19	40.000
204.57	0.000
204.95	-83.333
205.32	0.000
205.70	200.000
206.08	-250.000
206.45	-133.333
206.83	200.000
207.20	-300.000
207.58	-100.000
207.96	-1500.000
208.33	-71.429
208.71	-400.000
209.08	112.500
209.46	200.000
209.84	0.000
210.21	50.000
210.59	700.000
210.96	320.000
211.34	900.000
211.71	-550.000
212.09	-66.667
212.46	40.000
212.84	0.000
213.22	125.000
213.59	-400.000
213.97	-550.000
214.34	-700.000
214.72	-15.385
215.09	187.500
215.47	111.111
215.84	400.000
216.22	-37.500
216.59	300.000
216.97	533.333
217.34	166.667
217.72	0.000
218.09	100.000
218.47	600.000
218.84	-42.857
219.22	-12.500
219.59	100.000
219.97	-300.000
220.34	-62.500
220.72	-80.000
221.09	0.000
221.47	-66.667
221.84	-400.000
222.22	0.000
222.59	200.000
222.97	-233.333
223.34	-133.333
223.72	-1100.000
224.09	-250.000
224.46	72.727
224.84	-62.500
225.21	-100.000
225.59	-475.000
225.96	-66.667
226.34	-20.000
226.71	-71.429
227.08	150.000
227.46	0.000
227.83	-400.000
228.21	12.500
228.58	-225.000
228.95	-29.412
229.33	81.250
229.70	-25.000
230.08	-7.692
230.45	-150.000
230.82	-16.667
231.20	171.429
231.57	-300.000
231.95	500.000
232.32	125.000
232.69	52.941
233.07	-400.000
233.44	60.870
233.81	-550.000
234.19	20.833
234.56	-13.333
234.93	46.667
235.31	42.105
235.68	-38.462
236.05	92.308
236.43	-22.222
236.80	15.152
237.17	6.667
237.55	-5.882
237.92	6.897
238.29	-3.704
238.67	11.111
239.04	0.000
239.41	29.787
239.79	19.149
240.16	30.233
240.53	32.143
240.91	39.286
241.28	10.714
241.65	43.548
242.02	17.105
242.40	28.986
242.77	33.333
243.14	33.333
243.51	25.532
243.89	33.654
244.26	45.283
244.63	22.115
245.00	33.333
245.38	41.176
245.75	36.885
246.12	22.556
246.49	18.699
246.87	30.252
247.24	29.730
247.61	37.748
247.98	39.744
248.36	29.586
248.73	32.022
249.10	30.808
249.47	26.882
249.84	33.684
250.22	32.836
250.59	34.112
250.96	35.909
251.33	32.057
251.70	33.891
252.08	33.891
252.45	34.156
252.82	31.939
253.19	34.241
253.56	37.410
253.94	34.520
254.31	34.859
254.68	36.577
255.05	34.653
255.42	31.818
255.79	32.822
256.16	37.539
256.54	35.238
256.91	31.013
257.28	33.648
257.65	32.803
258.02	32.845
258.39	35.380
258.76	33.140
259.14	36.932
259.51	36.798
259.88	30.894
260.25	33.333
260.62	35.674
260.99	32.626
261.36	33.420
261.73	32.593
262.10	33.842
262.47	33.827
262.85	32.836
263.22	34.615
263.59	31.948
263.96	31.873
264.33	32.933
264.70	31.628
265.07	34.028
265.44	37.241
265.81	33.867
266.18	35.763
266.55	36.026
266.92	34.110
267.29	31.070
267.66	33.333
268.03	33.745
268.40	30.297
268.77	34.504
269.14	32.653
269.51	37.166
269.88	33.809
270.25	33.686
270.62	31.352
270.99	33.661
271.36	33.135
271.73	35.341
272.10	32.762
272.47	34.357
272.84	33.661
273.21	33.855
273.58	35.656
273.95	31.132
274.32	32.463
274.69	33.698
275.06	32.686
275.43	33.710
275.80	33.156
276.17	34.070
276.54	32.860
276.91	33.449
277.28	33.394
277.65	31.993
278.02	33.929
278.39	31.261
278.76	33.946
279.13	31.904
279.50	33.276
279.87	32.428
280.23	33.694
280.60	31.142
280.97	31.656
281.34	33.281
281.71	30.244
282.08	34.359
282.45	33.443
282.82	32.428
283.19	33.232
283.56	31.563
283.92	31.804
284.29	30.421
284.66	32.455
285.03	29.805
285.40	31.571
285.77	32.132
286.14	29.787
286.51	31.934
286.87	30.923
287.24	29.646
287.61	32.380
287.98	31.912
288.35	29.210
288.72	31.133
289.08	31.766
289.45	29.809
289.82	31.316
290.19	30.575
290.56	29.403
290.93	28.315
291.29	27.497
291.66	29.508
292.03	29.700
292.40	29.206
292.77	29.183
293.13	28.870
293.50	28.627
293.87	30.000
294.24	27.116
294.60	25.618
294.97	27.778
295.34	28.232
295.71	25.756
296.08	26.702
296.44	27.679
296.81	25.335
297.18	27.375
297.55	27.005
297.91	27.702
298.28	26.998
298.65	27.709
299.02	27.350
299.38	25.399
299.75	24.399
300.12	24.535
300.48	25.029
300.85	26.559
301.22	24.971
301.59	25.117
301.95	24.042
302.32	25.204
302.69	23.616
303.05	25.249
303.42	24.091
303.79	24.711
304.15	25.411
304.52	26.667
304.89	24.474
305.25	25.796
305.62	24.078
305.99	24.157
306.35	27.795
306.72	25.025
307.09	23.462
307.45	24.920
307.82	25.895
308.19	22.571
308.55	25.793
308.92	25.639
309.29	23.824
309.65	23.177
310.02	23.260
310.38	22.663
310.75	23.570
311.12	24.684
311.48	23.442
311.85	24.409
312.22	24.952
312.58	23.865
312.95	24.279
313.31	24.702
313.68	22.996
314.05	24.575
314.41	25.744
314.78	24.573
315.14	24.444
315.51	25.214
315.87	24.004
316.24	24.151
316.61	24.018
316.97	24.907
317.34	24.332
317.70	24.978
318.07	25.111
318.43	24.752
318.80	24.607
319.16	24.050
319.53	23.656
319.89	25.203
320.26	25.139
320.62	24.189
320.99	24.516
321.35	23.480
321.72	24.350
322.08	25.369
322.45	26.457
322.81	25.786
323.18	26.297
323.54	25.451
323.91	27.010
324.27	26.643
324.64	24.564
325.00	25.722
325.37	26.536
325.73	26.431
326.10	27.334
326.46	25.836
326.83	26.699
327.19	26.098
327.56	28.122
327.92	27.434
328.29	27.796
328.65	28.133
329.01	27.177
329.38	28.870
329.74	28.155
330.11	28.043
330.47	27.170
330.84	28.700
331.20	28.950
331.56	29.438
331.93	28.338
332.29	28.758
332.66	28.644
333.02	29.279
333.38	28.860
333.75	27.901
334.11	28.472
334.48	27.812
334.84	29.152
335.20	27.959
335.57	28.808
335.93	28.608
336.29	28.897
336.66	28.291
337.02	29.043
337.38	28.285
337.75	28.596
338.11	27.071
338.47	27.740
338.84	28.351
339.20	29.894
339.56	27.730
339.93	28.522
340.29	27.071
340.65	28.486
341.02	27.621
341.38	28.209
341.74	28.151
342.11	29.397
342.47	28.285
342.83	29.167
343.20	28.426
343.56	28.945
343.92	28.026
344.28	29.951
344.65	29.469
345.01	27.926
345.37	29.523
345.73	30.065
346.10	28.331
346.46	29.350
346.82	28.571
347.19	27.611
347.55	29.564
347.91	27.670
348.27	27.366
348.63	28.205
349.00	28.616
349.36	28.807
349.72	29.080
350.08	29.173
350.45	29.366
350.81	28.404
351.17	27.791
351.53	28.672
351.89	28.594
352.26	27.954
352.62	29.457
352.98	28.514
353.34	28.905
353.70	29.128
354.07	29.255
354.43	28.616
354.79	29.808
355.15	28.261
355.51	28.474
355.87	28.772
356.24	28.090
356.60	29.398
356.96	29.163
357.32	29.876
357.68	29.794
358.04	28.860
358.40	29.457
358.77	29.740
359.13	29.572
359.49	28.842
359.85	30.402
360.21	29.453
360.57	28.517
360.93	30.349
361.29	29.460
361.66	30.068
362.02	30.096
362.38	30.428
362.74	29.007
363.10	29.790
363.46	29.395
363.82	29.860
364.18	29.297
364.54	30.270
364.90	29.477
365.26	29.512
365.62	29.901
365.98	29.964
366.35	30.780
366.71	31.526
367.07	30.050
367.43	30.314
367.79	31.272
368.15	31.364
368.51	30.731
368.87	31.752
369.23	31.744
369.59	30.374
369.95	30.406
370.31	31.241
370.67	31.861
371.03	32.220
371.39	31.867
371.75	30.357
372.11	31.197
372.47	33.670
372.83	31.969
373.19	32.086
373.55	32.081
373.91	31.400
374.27	32.227
374.63	31.935
374.99	31.476
375.35	32.466
375.71	33.152
376.07	33.448
376.42	33.356
376.78	33.884
377.14	34.237
377.50	33.898
377.86	33.599
378.22	33.565
378.58	33.985
378.94	33.438
379.30	34.041
379.66	33.970
380.02	34.436
380.38	35.000
380.74	35.326
381.09	34.138
381.45	34.764
381.81	35.182
382.17	35.035
382.53	35.631
382.89	34.439
383.25	35.062
383.61	36.138
383.97	34.625
384.32	36.295
384.68	35.410
385.04	35.980
385.40	37.422
385.76	35.949
386.12	36.733
386.48	36.238
386.83	36.546
387.19	36.336
387.55	36.787
387.91	36.039
388.27	36.621
388.62	35.955
388.98	37.860
389.34	36.967
389.70	37.118
390.06	38.250
390.42	38.466
390.77	37.924
391.13	38.826
391.49	37.571
391.85	36.741
392.20	37.782
392.56	37.460
392.92	38.327
393.28	37.827
393.64	38.104
393.99	37.515
394.35	38.457
394.71	38.141
395.07	36.730
395.42	39.001
395.78	37.967
396.14	39.252
396.50	39.379
396.85	39.388
397.21	38.577
397.57	39.379
397.92	39.880
398.28	38.861
398.64	38.616
399.00	39.062
399.35	38.422
399.71	38.556
400.07	39.518
400.42	39.687
400.78	38.610
401.14	38.994
401.49	40.144
401.85	40.848
402.21	40.743
402.57	39.975
402.92	40.676
403.28	39.587
403.63	41.166
403.99	40.563
404.35	41.521
404.70	39.758
405.06	40.399
405.42	40.138
405.77	40.956
406.13	39.943
406.49	39.605
406.84	40.232
407.20	40.912
407.55	40.519
407.91	39.444
408.27	39.488
408.62	40.209
408.98	40.074
409.34	40.161
409.69	42.235
410.05	40.299
410.40	40.231
410.76	40.794
411.11	41.045
411.47	41.871
411.83	41.422
412.18	41.121
412.54	41.541
412.89	40.752
413.25	40.236
413.60	41.066
413.96	40.886
414.31	40.259
414.67	41.333
415.03	40.392
415.38	41.215
415.74	42.300
416.09	42.102
416.45	41.969
416.80	41.275
417.16	42.713
417.51	41.929
417.87	40.939
418.22	41.888
418.58	40.802
418.93	42.059
419.29	41.782
419.64	42.939
420.00	43.365
420.35	42.857
420.71	42.352
421.06	44.649
421.42	43.613
421.77	43.179
422.12	43.381
422.48	42.803
422.83	44.064
423.19	44.048
423.54	44.346
423.90	44.656
424.25	45.118
424.61	44.917
424.96	44.412
425.31	43.242
425.67	45.150
426.02	45.583
426.38	46.020
426.73	46.060
427.09	44.903
427.44	45.449
427.79	44.299
428.15	45.199
428.50	45.861
428.85	45.633
429.21	45.470
429.56	45.696
429.92	45.757
430.27	46.472
430.62	45.908
430.98	46.430
431.33	46.427
431.68	46.273
432.04	47.549
432.39	46.478
432.74	46.229
433.10	47.066
433.45	47.219
433.80	46.667
434.16	46.914
434.51	47.554
434.86	48.528
435.22	48.840
435.57	46.929
435.92	48.492
436.28	47.688
436.63	47.460
436.98	48.355
437.34	49.451
437.69	47.521
438.04	47.085
438.39	50.125
438.75	48.868
439.10	50.087
439.45	48.063
439.81	50.062
440.16	49.623
440.51	48.335
440.86	49.674
441.22	50.717
441.57	50.597
441.92	48.834
442.27	48.755
442.63	49.247
442.98	49.537
443.33	50.113
443.68	49.710
444.03	50.273
444.39	49.628
444.74	50.248
445.09	49.504
445.44	51.718
445.79	50.955
446.15	50.638
446.50	51.046
446.85	52.218
447.20	50.288
447.55	51.371
447.91	49.944
448.26	50.086
448.61	51.841
448.96	50.626
449.31	51.057
449.66	51.417
450.02	50.767
450.37	51.410
450.72	50.918
451.07	51.160
451.42	50.530
451.77	51.613
452.12	51.277
452.47	52.163
452.83	51.651
453.18	50.477
453.53	50.694
453.88	51.687
454.23	51.236
454.58	51.225
454.93	52.085
455.28	52.152
455.63	50.468
455.98	50.943
456.34	51.240
456.69	52.332
457.04	52.260
457.39	51.052
457.74	51.646
458.09	50.592
458.44	52.585
458.79	50.632
459.14	50.056
459.49	51.951
459.84	50.958
460.19	51.801
460.54	51.886
460.89	50.169
461.24	50.370
461.59	52.597
461.94	51.960
462.29	50.306
462.64	51.253
462.99	53.052
463.34	52.072
463.69	52.062
464.04	50.900
464.39	50.580
464.74	50.921
465.09	50.093
465.44	50.730
465.79	51.179
466.14	50.627
466.49	51.554
466.84	52.421
467.19	52.548
467.54	52.041
467.89	52.106
468.24	52.674
468.59	51.307
468.94	51.341
469.29	51.619
469.64	52.789
469.99	52.759
470.34	51.922
470.68	52.491
471.03	52.398
471.38	52.503
471.73	51.852
472.08	52.577
472.43	52.507
472.78	52.062
473.13	51.121
473.48	51.533
473.83	51.664
474.17	52.018
474.52	52.686
474.87	51.508
475.22	51.570
475.57	51.366
475.92	51.963
476.27	51.807
476.61	50.396
476.96	52.770
477.31	51.726
477.66	51.299
478.01	49.835
478.36	50.845
478.70	51.074
479.05	52.275
479.40	49.974
479.75	51.966
480.10	52.677
480.45	50.907
480.79	50.672
481.14	51.013
481.49	51.258
481.84	49.670
482.19	49.977
482.53	50.952
482.88	50.144
483.23	50.770
483.58	50.473
483.92	50.632
484.27	50.732
484.62	49.312
484.97	50.477
485.31	49.590
485.66	46.494
486.01	46.278
486.36	46.249
486.70	47.021
487.05	48.232
487.40	48.450
487.75	48.981
488.09	49.234
488.44	49.071
488.79	49.546
489.13	50.219
489.48	49.979
489.83	49.397
490.17	50.295
490.52	50.304
490.87	49.096
491.22	49.317
491.56	50.503
491.91	49.496
492.26	50.532
492.60	49.303
492.95	49.757
493.30	47.965
493.64	48.489
493.99	48.792
494.34	49.566
494.68	49.690
495.03	49.407
495.37	48.710
495.72	49.323
496.07	49.781
496.41	48.386
496.76	48.309
497.11	49.437
497.45	48.979
497.80	50.379
498.14	49.572
498.49	48.714
498.84	48.937
499.18	49.079
499.53	48.646
499.87	48.035
500.22	49.676
500.56	49.097
500.91	49.296
501.26	49.212
501.60	48.971
501.95	47.820
502.29	48.398
502.64	48.120
502.98	48.651
503.33	48.516
503.67	48.832
504.02	48.676
504.36	48.787
504.71	48.628
505.06	48.701
505.40	49.536
505.75	49.034
506.09	48.288
506.44	46.875
506.78	48.095
507.13	48.389
507.47	48.993
507.82	48.456
508.16	48.707
508.51	48.502
508.85	47.693
509.19	48.413
509.54	47.936
509.88	48.333
510.23	48.053
510.57	47.828
510.92	48.491
511.26	48.735
511.61	47.530
511.95	47.685
512.30	48.418
512.64	48.354
512.98	49.141
513.33	48.394
513.67	48.666
514.02	49.544
514.36	47.809
514.70	47.748
515.05	49.854
515.39	47.995
515.74	49.201
516.08	47.434
516.42	47.638
516.77	47.510
517.11	48.207
517.46	48.800
517.80	49.274
518.14	48.622
518.49	48.764
518.83	47.673
519.17	47.229
519.52	48.733
519.86	48.330
520.20	47.665
520.55	47.575
520.89	47.628
521.23	49.615
521.58	48.483
521.92	48.020
522.26	48.276
522.61	49.644
522.95	49.482
523.29	47.619
523.64	49.650
523.98	47.522
524.32	46.755
524.66	48.247
525.01	49.476
525.35	49.506
525.69	47.979
526.04	47.752
526.38	47.674
526.72	49.573
527.06	46.937
527.41	47.849
527.75	47.463
528.09	49.898
528.43	48.304
528.78	47.158
529.12	47.413
529.46	46.833
529.80	47.184
530.15	47.619
530.49	48.383
530.83	48.477
531.17	48.288
531.51	46.392
531.86	47.764
532.20	46.589
532.54	46.897
532.88	46.767
533.22	46.801
533.57	46.689
533.91	47.677
534.25	48.177
534.59	46.010
534.93	46.429
535.27	46.433
535.62	47.039
535.96	46.584
536.30	46.077
536.64	46.343
536.98	46.321
537.32	47.687
537.66	46.403
538.01	45.284
538.35	45.373
538.69	45.217
539.03	45.369
539.37	45.540
539.71	46.658
540.05	44.737
540.39	43.909
540.73	45.810
541.07	45.510
541.42	44.310
541.76	45.332
542.10	45.024
542.44	45.114
542.78	45.593
543.12	44.070
543.46	44.990
543.80	44.128
544.14	45.561
544.48	43.995
544.82	45.730
545.16	44.084
545.50	45.645
545.84	43.408
546.18	43.478
546.52	45.166
546.86	44.099
547.20	43.531
547.54	45.175
547.88	44.399
548.22	43.322
548.56	43.229
548.90	43.031
549.24	44.792
549.58	43.416
549.92	44.314
550.26	45.609
550.60	43.844
550.94	44.701
551.28	44.285
551.62	43.910
551.96	44.436
552.30	43.231
552.64	43.008
552.98	44.105
553.32	44.989
553.66	44.241
554.00	44.204
554.34	43.077
554.68	44.146
555.02	42.889
555.36	43.116
555.69	43.044
556.03	42.530
556.37	42.959
556.71	42.116
557.05	43.838
557.39	44.461
557.73	43.722
558.07	43.029
558.41	43.830
558.75	44.727
559.08	43.224
559.42	43.745
559.76	41.896
560.10	43.274
560.44	43.552
560.78	41.511
561.12	41.696
561.45	42.313
561.79	43.466
562.13	42.968
562.47	42.500
562.81	42.641
563.15	41.218
563.48	41.156
563.82	41.450
564.16	42.654
564.50	42.402
564.84	42.297
565.17	40.927
565.51	41.778
565.85	39.773
566.19	41.722
566.52	40.564
566.86	40.202
567.20	40.684
567.54	39.781
567.88	40.258
568.21	39.326
568.55	39.384
568.89	39.282
569.23	38.222
569.56	37.756
569.90	37.807
570.24	36.137
570.57	36.779
570.91	36.684
571.25	35.955
571.59	36.560
571.92	36.081
572.26	36.858
572.60	36.988
572.93	36.426
573.27	36.319
573.61	36.021
573.95	35.405
574.28	35.757
574.62	35.176
574.96	35.507
575.29	35.080
575.63	35.695
575.97	35.788
576.30	35.325
576.64	35.342
576.98	35.923
577.31	35.079
577.65	34.946
577.98	34.327
578.32	34.696
578.66	34.857
578.99	34.977
579.33	35.632
579.67	35.362
580.00	34.807
580.34	34.634
580.67	35.277
581.01	34.608
581.35	34.335
581.68	34.034
582.02	34.126
582.35	34.454
582.69	34.609
583.02	34.507
583.36	34.393
583.70	35.053
584.03	35.589
584.37	35.683
584.70	35.313
585.04	34.886
585.37	34.070
585.71	34.346
586.04	34.812
586.38	34.254
586.72	34.982
587.05	35.138
587.39	35.134
587.72	35.346
588.06	35.294
588.39	34.957
588.73	34.868
589.06	35.112
589.40	35.948
589.73	34.459
590.07	35.691
590.40	35.895
590.73	36.750
591.07	35.855
591.40	36.652
591.74	36.727
592.07	36.650
592.41	35.221
592.74	35.224
593.08	34.564
593.41	35.003
593.75	33.979
594.08	34.715
594.41	34.625
594.75	35.195
595.08	35.736
595.42	34.574
595.75	35.033
596.09	36.374
596.42	34.355
596.75	35.454
597.09	36.169
597.42	35.891
597.75	35.422
598.09	36.020
598.42	35.168
598.76	34.215
599.09	34.894
599.42	34.592
599.76	34.698
600.09	34.563
600.42	34.689
600.76	34.257
601.09	35.028
601.42	34.065
601.76	34.710
602.09	35.549
602.42	34.915
602.76	34.396
603.09	35.400
603.42	34.226
603.76	33.983
604.09	33.794
604.42	34.115
604.76	34.134
605.09	35.070
605.42	35.313
605.75	34.047
606.09	33.402
606.42	33.998
606.75	34.156
607.09	34.929
607.42	33.800
607.75	33.829
608.08	34.896
608.42	35.567
608.75	35.022
609.08	34.493
609.41	34.575
609.75	34.392
610.08	35.404
610.41	34.548
610.74	34.937
611.07	34.419
611.41	35.312
611.74	35.041
612.07	33.872
612.40	35.027
612.73	33.754
613.07	35.144
613.40	34.857
613.73	34.724
614.06	34.107
614.39	34.130
614.72	34.203
615.06	33.944
615.39	34.658
615.72	33.909
616.05	34.797
616.38	34.250
616.71	34.493
617.05	35.258
617.38	34.566
617.71	34.252
618.04	32.846
618.37	36.215
618.70	35.058
619.03	34.845
619.36	35.374
619.69	34.649
620.03	35.265
620.36	34.168
620.69	34.690
621.02	34.154
621.35	36.631
621.68	35.289
622.01	36.570
622.34	35.448
622.67	35.709
623.00	36.094
623.33	33.433
623.66	34.201
623.99	36.459
624.32	34.703
624.65	35.979
624.99	34.093
625.32	34.727
625.65	36.047
625.98	35.703
626.31	35.837
626.64	36.199
626.97	37.284
627.30	36.270
627.63	34.602
627.96	33.939
628.29	37.767
628.62	36.944
628.95	35.271
629.28	35.961
629.61	35.407
629.94	35.493
630.26	36.256
630.59	35.265
630.92	35.141
631.25	35.633
631.58	37.259
631.91	36.479
632.24	35.675
632.57	36.444
632.90	37.690
633.23	36.451
633.56	39.329
