SpectraSuite Data File
++++++++++++++++++++++++++++++++++++
Date: Wed May 13 20:47:03 PDT 2015
User: schluterlab
Dark Spectrum Present: Yes
Reference Spectrum Present: Yes
Number of Sampled Component Spectra: 1
Spectrometers: USB2E3373
Integration Time (usec): 3000 (USB2E3373)
Spectra Averaged: 3 (USB2E3373)
Boxcar Smoothing: 0 (USB2E3373)
Correct for Electrical Dark: No (USB2E3373)
Strobe/Lamp Enabled: No (USB2E3373)
Correct for Detector Non-linearity: No (USB2E3373)
Correct for Stray Light: No (USB2E3373)
Number of Pixels in Processed Spectrum: 2048
>>>>>Begin Processed Spectral Data<<<<<
178.53	0.000
178.91	-700.000
179.29	-875.000
179.67	-72.222
180.04	-625.000
180.42	1150.000
180.80	700.000
181.18	-325.000
181.56	371.429
181.94	0.000
182.31	-314.286
182.69	966.667
183.07	-325.000
183.45	-288.889
183.83	363.636
184.20	-160.000
184.58	1550.000
184.96	3300.000
185.34	-360.000
185.72	-312.500
186.09	-1050.000
186.47	1500.000
186.85	1400.000
187.23	2600.000
187.61	-1000.000
187.98	900.000
188.36	372.727
188.74	390.909
189.12	-480.000
189.49	370.000
189.87	-3100.000
190.25	-550.000
190.63	221.429
191.00	269.231
191.38	466.667
191.76	-675.000
192.14	925.000
192.51	475.000
192.89	466.667
193.27	362.500
193.65	-525.000
194.02	280.000
194.40	540.000
194.78	270.000
195.15	291.667
195.53	390.000
195.91	-1050.000
196.29	231.250
196.66	178.947
197.04	-130.000
197.42	0.000
197.79	390.000
198.17	-1800.000
198.55	400.000
198.92	300.000
199.30	420.000
199.68	0.000
200.05	205.556
200.43	485.714
200.81	2400.000
201.18	1000.000
201.56	-1033.333
201.94	311.111
202.31	300.000
202.69	241.667
203.07	240.000
203.44	0.000
203.82	725.000
204.19	442.857
204.57	292.857
204.95	337.500
205.32	766.667
205.70	309.091
206.08	250.000
206.45	1200.000
206.83	206.250
207.20	616.667
207.58	400.000
207.96	233.333
208.33	312.500
208.71	-533.333
209.08	400.000
209.46	311.111
209.84	300.000
210.21	-1066.667
210.59	875.000
210.96	-262.500
211.34	2000.000
211.71	310.000
212.09	400.000
212.46	0.000
212.84	1266.667
213.22	875.000
213.59	-2900.000
213.97	483.333
214.34	542.857
214.72	327.273
215.09	760.000
215.47	-1350.000
215.84	-1350.000
216.22	766.667
216.59	185.714
216.97	650.000
217.34	227.273
217.72	-300.000
218.09	0.000
218.47	-2200.000
218.84	511.111
219.22	500.000
219.59	1000.000
219.97	-371.429
220.34	640.000
220.72	-933.333
221.09	300.000
221.47	1000.000
221.84	-500.000
222.22	0.000
222.59	875.000
222.97	-1350.000
223.34	720.000
223.72	300.000
224.09	600.000
224.46	1100.000
224.84	-3300.000
225.21	-500.000
225.59	-2100.000
225.96	420.000
226.34	215.000
226.71	1400.000
227.08	412.500
227.46	300.000
227.83	-825.000
228.21	-1750.000
228.58	388.889
228.95	-2000.000
229.33	-1000.000
229.70	900.000
230.08	571.429
230.45	-260.000
230.82	241.667
231.20	516.667
231.57	342.857
231.95	250.000
232.32	95.455
232.69	190.909
233.07	285.714
233.44	200.000
233.81	-900.000
234.19	194.737
234.56	275.000
234.93	275.000
235.31	236.364
235.68	138.462
236.05	242.857
236.43	124.242
236.80	215.789
237.17	2100.000
237.55	147.619
237.92	150.000
238.29	133.333
238.67	93.548
239.04	144.828
239.41	72.222
239.79	63.043
240.16	90.476
240.53	104.545
240.91	74.510
241.28	60.000
241.65	66.000
242.02	68.116
242.40	54.839
242.77	61.667
243.14	59.140
243.51	51.685
243.89	52.941
244.26	38.889
244.63	39.785
245.00	47.872
245.38	46.535
245.75	40.187
246.12	36.697
246.49	49.635
246.87	40.000
247.24	46.923
247.61	42.857
247.98	39.216
248.36	31.757
248.73	37.580
249.10	35.669
249.47	35.028
249.84	35.294
250.22	37.433
250.59	37.870
250.96	38.889
251.33	32.701
251.70	34.653
252.08	30.000
252.45	30.045
252.82	32.174
253.19	29.362
253.56	28.235
253.94	29.046
254.31	32.031
254.68	28.846
255.05	32.103
255.42	30.894
255.79	34.926
256.16	30.686
256.54	26.148
256.91	30.961
257.28	29.137
257.65	28.053
258.02	29.193
258.39	28.076
258.76	30.435
259.14	27.083
259.51	24.620
259.88	28.571
260.25	24.471
260.62	26.301
260.99	28.261
261.36	28.228
261.73	24.928
262.10	25.000
262.47	25.634
262.85	27.298
263.22	23.932
263.59	27.635
263.96	27.198
264.33	25.326
264.70	24.474
265.07	25.064
265.44	23.990
265.81	27.494
266.18	25.628
266.55	25.610
266.92	24.570
267.29	27.083
267.66	24.312
268.03	25.000
268.40	26.636
268.77	21.957
269.14	25.225
269.51	25.959
269.88	26.107
270.25	25.056
270.62	25.618
270.99	28.817
271.36	25.107
271.73	24.299
272.10	25.000
272.47	26.237
272.84	23.160
273.21	24.319
273.58	23.362
273.95	21.803
274.32	24.587
274.69	22.484
275.06	21.457
275.43	23.404
275.80	24.649
276.17	20.570
276.54	24.948
276.91	23.123
277.28	22.852
277.65	23.598
278.02	21.946
278.39	24.609
278.76	24.000
279.13	23.208
279.50	21.229
279.87	24.303
280.23	22.954
280.60	21.663
280.97	22.736
281.34	22.832
281.71	23.273
282.08	23.992
282.45	23.818
282.82	21.492
283.19	20.677
283.56	23.509
283.92	21.997
284.29	23.104
284.66	21.779
285.03	21.338
285.40	22.359
285.77	21.886
286.14	21.244
286.51	23.667
286.87	23.077
287.24	23.290
287.61	21.990
287.98	20.455
288.35	19.968
288.72	21.340
289.08	21.753
289.45	22.076
289.82	20.650
290.19	18.681
290.56	20.674
290.93	19.486
291.29	21.012
291.66	21.386
292.03	20.494
292.40	20.558
292.77	17.899
293.13	21.194
293.50	19.679
293.87	17.926
294.24	18.963
294.60	18.777
294.97	19.913
295.34	19.887
295.71	20.312
296.08	18.946
296.44	18.157
296.81	17.437
297.18	18.564
297.55	17.678
297.91	18.074
298.28	18.876
298.65	18.799
299.02	17.918
299.38	17.530
299.75	16.712
300.12	17.369
300.48	17.625
300.85	18.002
301.22	16.561
301.59	17.172
301.95	17.254
302.32	16.560
302.69	18.041
303.05	16.000
303.42	16.420
303.79	17.214
304.15	16.667
304.52	16.802
304.89	16.376
305.25	16.473
305.62	17.780
305.99	18.064
306.35	17.673
306.72	17.601
307.09	18.313
307.45	18.131
307.82	16.071
308.19	16.998
308.55	17.799
308.92	16.864
309.29	17.951
309.65	17.285
310.02	16.173
310.38	17.742
310.75	17.001
311.12	17.810
311.48	17.555
311.85	17.191
312.22	17.898
312.58	16.632
312.95	18.268
313.31	17.476
313.68	18.191
314.05	20.020
314.41	18.291
314.78	19.940
315.14	18.669
315.51	19.258
315.87	18.911
316.24	19.662
316.61	20.078
316.97	19.667
317.34	19.765
317.70	21.415
318.07	21.270
318.43	21.233
318.80	22.306
319.16	22.976
319.53	21.107
319.89	22.952
320.26	24.600
320.62	24.107
320.99	23.535
321.35	25.455
321.72	25.873
322.08	26.752
322.45	26.866
322.81	27.519
323.18	28.516
323.54	27.551
323.91	29.057
324.27	29.159
324.64	30.103
325.00	30.388
325.37	32.666
325.73	33.124
326.10	34.334
326.46	34.409
326.83	35.116
327.19	35.354
327.56	36.237
327.92	36.745
328.29	37.356
328.65	37.569
329.01	39.350
329.38	40.796
329.74	39.612
330.11	41.847
330.47	41.322
330.84	41.544
331.20	41.985
331.56	43.853
331.93	43.056
332.29	43.301
332.66	45.221
333.02	45.064
333.38	44.444
333.75	44.920
334.11	43.327
334.48	45.963
334.84	46.415
335.20	46.000
335.57	45.875
335.93	45.000
336.29	45.788
336.66	46.438
337.02	46.787
337.38	47.407
337.75	47.326
338.11	47.896
338.47	48.158
338.84	47.204
339.20	48.073
339.56	48.540
339.93	47.182
340.29	47.283
340.65	46.881
341.02	47.818
341.38	49.110
341.74	47.368
342.11	48.122
342.47	49.075
342.83	48.801
343.20	48.745
343.56	48.357
343.92	47.807
344.28	48.384
344.65	49.441
345.01	47.811
345.37	47.942
345.73	47.631
346.10	49.531
346.46	49.237
346.82	47.446
347.19	48.956
347.55	47.619
347.91	48.625
348.27	49.055
348.63	48.829
349.00	48.786
349.36	46.962
349.72	47.073
350.08	47.812
350.45	48.657
350.81	47.035
351.17	48.784
351.53	47.093
351.89	46.452
352.26	46.882
352.62	50.120
352.98	47.083
353.34	48.891
353.70	47.136
354.07	48.548
354.43	47.460
354.79	48.190
355.15	46.768
355.51	47.322
355.87	47.510
356.24	47.476
356.60	46.993
356.96	48.029
357.32	49.060
357.68	48.504
358.04	46.873
358.40	47.506
358.77	47.183
359.13	46.488
359.49	46.745
359.85	46.508
360.21	46.890
360.57	47.626
360.93	47.615
361.29	46.863
361.66	45.898
362.02	48.209
362.38	46.464
362.74	46.726
363.10	46.188
363.46	46.368
363.82	46.334
364.18	46.329
364.54	48.663
364.90	46.742
365.26	46.471
365.62	47.334
365.98	46.603
366.35	45.057
366.71	46.855
367.07	47.924
367.43	46.589
367.79	48.323
368.15	47.701
368.51	46.439
368.87	47.537
369.23	46.891
369.59	46.850
369.95	45.221
370.31	46.439
370.67	45.507
371.03	46.742
371.39	47.230
371.75	46.029
372.11	47.582
372.47	47.507
372.83	47.406
373.19	44.942
373.55	46.785
373.91	47.791
374.27	45.842
374.63	47.855
374.99	47.599
375.35	45.848
375.71	44.894
376.07	46.914
376.42	45.805
376.78	46.720
377.14	46.879
377.50	46.821
377.86	45.213
378.22	47.219
378.58	44.048
378.94	46.009
379.30	46.883
379.66	46.891
380.02	47.174
380.38	45.962
380.74	46.098
381.09	44.927
381.45	47.326
381.81	46.622
382.17	46.433
382.53	47.736
382.89	46.049
383.25	46.904
383.61	47.088
383.97	45.528
384.32	45.727
384.68	46.344
385.04	45.421
385.40	45.882
385.76	45.700
386.12	45.466
386.48	46.822
386.83	46.761
387.19	47.990
387.55	45.949
387.91	46.796
388.27	45.003
388.62	46.466
388.98	45.700
389.34	46.558
389.70	46.720
390.06	46.451
390.42	45.655
390.77	46.565
391.13	45.565
391.49	46.891
391.85	44.876
392.20	44.984
392.56	47.285
392.92	45.026
393.28	45.621
393.64	45.923
393.99	46.121
394.35	46.774
394.71	45.671
395.07	45.047
395.42	47.281
395.78	45.356
396.14	46.182
396.50	46.178
396.85	45.582
397.21	44.575
397.57	46.063
397.92	45.913
398.28	45.572
398.64	45.400
399.00	45.943
399.35	44.783
399.71	45.602
400.07	45.121
400.42	44.663
400.78	45.899
401.14	45.061
401.49	45.731
401.85	44.888
402.21	45.569
402.57	44.540
402.92	46.658
403.28	46.533
403.63	44.369
403.99	44.586
404.35	44.667
404.70	45.564
405.06	44.438
405.42	45.664
405.77	44.800
406.13	44.582
406.49	43.998
406.84	44.064
407.20	44.090
407.55	45.118
407.91	44.667
408.27	45.310
408.62	44.852
408.98	45.282
409.34	44.711
409.69	44.774
410.05	45.043
410.40	45.260
410.76	44.504
411.11	44.753
411.47	44.089
411.83	45.449
412.18	43.414
412.54	44.334
412.89	44.036
413.25	45.277
413.60	45.028
413.96	43.109
414.31	43.985
414.67	44.360
415.03	44.106
415.38	46.070
415.74	45.531
416.09	45.199
416.45	44.645
416.80	44.812
417.16	43.968
417.51	45.388
417.87	43.738
418.22	43.975
418.58	44.739
418.93	44.472
419.29	44.685
419.64	45.403
420.00	44.573
420.35	44.406
420.71	44.471
421.06	44.511
421.42	43.626
421.77	44.675
422.12	43.010
422.48	43.335
422.83	44.438
423.19	44.088
423.54	43.703
423.90	44.870
424.25	44.165
424.61	42.976
424.96	44.723
425.31	44.795
425.67	43.427
426.02	43.486
426.38	45.482
426.73	43.885
427.09	44.559
427.44	43.128
427.79	43.531
428.15	43.750
428.50	43.768
428.85	43.564
429.21	43.125
429.56	43.909
429.92	43.986
430.27	43.793
430.62	43.318
430.98	44.006
431.33	43.351
431.68	43.613
432.04	43.131
432.39	43.518
432.74	43.866
433.10	44.199
433.45	44.082
433.80	42.960
434.16	44.391
434.51	43.263
434.86	44.983
435.22	44.080
435.57	44.498
435.92	43.885
436.28	43.594
436.63	44.371
436.98	44.591
437.34	44.305
437.69	43.932
438.04	43.957
438.39	43.701
438.75	44.800
439.10	42.682
439.45	44.038
439.81	44.894
440.16	44.325
440.51	43.878
440.86	44.470
441.22	43.159
441.57	43.790
441.92	44.217
442.27	44.026
442.63	43.918
442.98	44.451
443.33	43.098
443.68	43.418
444.03	44.314
444.39	43.963
444.74	45.455
445.09	43.019
445.44	43.685
445.79	43.790
446.15	43.250
446.50	43.942
446.85	43.577
447.20	43.243
447.55	45.449
447.91	44.181
448.26	44.352
448.61	43.471
448.96	44.020
449.31	45.051
449.66	43.219
450.02	43.287
450.37	44.218
450.72	43.880
451.07	43.693
451.42	42.371
451.77	44.862
452.12	43.014
452.47	44.714
452.83	44.522
453.18	42.726
453.53	43.970
453.88	43.946
454.23	44.351
454.58	44.821
454.93	44.437
455.28	44.451
455.63	44.417
455.98	46.131
456.34	44.347
456.69	44.897
457.04	44.892
457.39	44.009
457.74	43.877
458.09	42.898
458.44	43.672
458.79	42.625
459.14	43.905
459.49	44.542
459.84	44.211
460.19	44.137
460.54	42.535
460.89	44.652
461.24	44.019
461.59	44.277
461.94	43.958
462.29	44.214
462.64	43.076
462.99	43.461
463.34	43.600
463.69	44.841
464.04	42.899
464.39	43.652
464.74	43.434
465.09	44.150
465.44	43.601
465.79	43.680
466.14	42.912
466.49	42.547
466.84	43.608
467.19	43.512
467.54	44.438
467.89	42.617
468.24	43.339
468.59	44.505
468.94	42.211
469.29	44.087
469.64	44.645
469.99	43.708
470.34	43.395
470.68	44.540
471.03	42.857
471.38	43.780
471.73	44.370
472.08	44.211
472.43	43.342
472.78	44.700
473.13	42.875
473.48	44.569
473.83	43.537
474.17	43.933
474.52	43.052
474.87	42.499
475.22	43.122
475.57	42.719
475.92	42.007
476.27	42.672
476.61	43.629
476.96	43.815
477.31	42.334
477.66	44.201
478.01	41.871
478.36	43.469
478.70	42.575
479.05	43.450
479.40	43.603
479.75	42.654
480.10	43.588
480.45	43.075
480.79	42.140
481.14	43.640
481.49	42.240
481.84	42.844
482.19	42.481
482.53	42.798
482.88	42.578
483.23	42.804
483.58	42.539
483.92	43.158
484.27	41.264
484.62	41.681
484.97	41.466
485.31	41.473
485.66	40.438
486.01	39.886
486.36	40.010
486.70	40.977
487.05	40.731
487.40	40.552
487.75	40.444
488.09	41.159
488.44	40.494
488.79	41.519
489.13	41.215
489.48	41.476
489.83	42.080
490.17	42.350
490.52	41.718
490.87	42.831
491.22	41.746
491.56	42.096
491.91	41.973
492.26	41.387
492.60	41.751
492.95	41.207
493.30	41.168
493.64	41.857
493.99	41.829
494.34	41.952
494.68	43.452
495.03	42.481
495.37	42.066
495.72	42.544
496.07	43.155
496.41	40.885
496.76	42.348
497.11	41.918
497.45	42.571
497.80	42.418
498.14	41.159
498.49	42.293
498.84	42.090
499.18	41.095
499.53	42.260
499.87	41.892
500.22	41.639
500.56	42.864
500.91	42.500
501.26	41.110
501.60	42.905
501.95	41.522
502.29	41.799
502.64	41.108
502.98	41.234
503.33	41.453
503.67	40.742
504.02	41.908
504.36	41.179
504.71	42.452
505.06	40.771
505.40	41.322
505.75	40.646
506.09	41.059
506.44	40.997
506.78	41.208
507.13	42.453
507.47	42.020
507.82	42.199
508.16	41.084
508.51	41.350
508.85	41.758
509.19	41.633
509.54	41.429
509.88	41.731
510.23	41.697
510.57	42.828
510.92	41.947
511.26	41.161
511.61	41.753
511.95	40.344
512.30	41.888
512.64	41.376
512.98	41.640
513.33	40.578
513.67	40.555
514.02	41.775
514.36	41.562
514.70	42.059
515.05	41.774
515.39	40.437
515.74	41.836
516.08	42.650
516.42	42.675
516.77	42.921
517.11	41.898
517.46	41.817
517.80	42.973
518.14	42.096
518.49	41.774
518.83	42.045
519.17	41.397
519.52	41.766
519.86	41.757
520.20	41.445
520.55	41.472
520.89	41.606
521.23	43.245
521.58	41.176
521.92	41.825
522.26	41.123
522.61	42.991
522.95	41.682
523.29	41.814
523.64	41.890
523.98	41.282
524.32	40.953
524.66	41.070
525.01	42.341
525.35	41.760
525.69	40.887
526.04	42.368
526.38	40.940
526.72	41.656
527.06	42.498
527.41	40.718
527.75	41.479
528.09	42.325
528.43	41.364
528.78	41.610
529.12	40.727
529.46	42.498
529.80	42.079
530.15	42.305
530.49	40.431
530.83	41.329
531.17	42.102
531.51	41.180
531.86	41.161
532.20	42.634
532.54	42.088
532.88	42.169
533.22	40.475
533.57	40.062
533.91	40.879
534.25	41.434
534.59	40.635
534.93	41.225
535.27	40.978
535.62	41.514
535.96	40.741
536.30	41.195
536.64	40.373
536.98	41.075
537.32	41.145
537.66	40.933
538.01	40.882
538.35	40.853
538.69	40.970
539.03	40.741
539.37	39.617
539.71	39.793
540.05	40.523
540.39	40.731
540.73	39.004
541.07	41.142
541.42	41.161
541.76	41.032
542.10	41.462
542.44	41.589
542.78	41.831
543.12	39.859
543.46	40.393
543.80	41.509
544.14	40.372
544.48	41.587
544.82	39.897
545.16	41.054
545.50	40.938
545.84	39.919
546.18	41.010
546.52	41.294
546.86	40.962
547.20	40.728
547.54	40.147
547.88	41.071
548.22	39.975
548.56	39.371
548.90	39.437
549.24	39.192
549.58	41.337
549.92	40.522
550.26	40.199
550.60	40.041
550.94	40.845
551.28	39.649
551.62	39.971
551.96	40.140
552.30	39.386
552.64	39.351
552.98	40.678
553.32	39.649
553.66	39.809
554.00	40.357
554.34	38.509
554.68	40.200
555.02	38.858
555.36	38.970
555.69	38.769
556.03	38.964
556.37	40.041
556.71	38.745
557.05	39.916
557.39	38.069
557.73	38.885
558.07	39.231
558.41	40.232
558.75	38.942
559.08	39.896
559.42	39.380
559.76	38.676
560.10	39.186
560.44	39.762
560.78	39.122
561.12	39.248
561.45	38.201
561.79	38.893
562.13	37.693
562.47	39.481
562.81	38.633
563.15	38.729
563.48	38.660
563.82	38.552
564.16	37.737
564.50	38.477
564.84	37.863
565.17	37.645
565.51	38.594
565.85	38.642
566.19	37.445
566.52	38.442
566.86	36.407
567.20	38.031
567.54	38.071
567.88	37.588
568.21	38.148
568.55	36.603
568.89	36.479
569.23	36.854
569.56	35.992
569.90	36.566
570.24	35.414
570.57	34.954
570.91	34.777
571.25	34.651
571.59	35.052
571.92	34.101
572.26	34.575
572.60	34.625
572.93	33.463
573.27	34.161
573.61	33.780
573.95	33.928
574.28	34.070
574.62	33.455
574.96	33.047
575.29	33.681
575.63	33.232
575.97	33.012
576.30	32.740
576.64	33.156
576.98	33.034
577.31	33.711
577.65	33.225
577.98	33.152
578.32	32.784
578.66	32.579
578.99	33.052
579.33	32.994
579.67	32.717
580.00	33.038
580.34	33.033
580.67	32.900
581.01	32.449
581.35	33.013
581.68	32.583
582.02	32.255
582.35	32.459
582.69	32.803
583.02	33.082
583.36	33.249
583.70	32.667
584.03	32.210
584.37	33.043
584.70	32.524
585.04	32.705
585.37	32.199
585.71	32.777
586.04	32.351
586.38	33.647
586.72	33.389
587.05	32.763
587.39	32.427
587.72	32.724
588.06	32.791
588.39	33.032
588.73	32.209
589.06	33.313
589.40	32.963
589.73	32.629
590.07	33.238
590.40	32.554
590.73	32.631
591.07	33.944
591.40	33.868
591.74	34.113
592.07	33.464
592.41	33.733
592.74	33.258
593.08	32.345
593.41	32.585
593.75	31.980
594.08	33.054
594.41	33.121
594.75	32.865
595.08	33.071
595.42	32.785
595.75	32.443
596.09	32.783
596.42	33.595
596.75	31.954
597.09	32.597
597.42	32.589
597.75	33.678
598.09	32.304
598.42	32.990
598.76	32.063
599.09	32.573
599.42	32.205
599.76	32.467
600.09	32.568
600.42	32.359
600.76	31.536
601.09	32.022
601.42	32.040
601.76	32.258
602.09	32.253
602.42	32.285
602.76	32.769
603.09	32.140
603.42	31.980
603.76	32.088
604.09	32.183
604.42	32.450
604.76	32.307
605.09	31.717
605.42	32.193
605.75	32.285
606.09	31.924
606.42	32.080
606.75	31.730
607.09	32.315
607.42	32.264
607.75	31.899
608.08	31.958
608.42	32.452
608.75	30.794
609.08	31.360
609.41	31.652
609.75	31.634
610.08	32.328
610.41	32.169
610.74	31.646
611.07	31.769
611.41	32.679
611.74	33.183
612.07	32.816
612.40	33.631
612.73	32.737
613.07	33.082
613.40	33.281
613.73	32.459
614.06	32.151
614.39	32.250
614.72	31.421
615.06	31.618
615.39	32.059
615.72	31.851
616.05	31.898
616.38	31.907
616.71	32.720
617.05	32.744
617.38	32.291
617.71	32.252
618.04	33.413
618.37	32.466
618.70	32.545
619.03	32.500
619.36	32.858
619.69	32.746
620.03	33.104
620.36	33.088
620.69	33.493
621.02	32.817
621.35	32.655
621.68	33.022
622.01	34.133
622.34	32.829
622.67	32.471
623.00	32.795
623.33	32.881
623.66	33.167
623.99	33.579
624.32	33.381
624.65	32.980
624.99	32.649
625.32	33.599
625.65	33.283
625.98	33.282
626.31	34.292
626.64	34.776
626.97	33.998
627.30	34.331
627.63	33.388
627.96	34.399
628.29	33.246
628.62	34.584
628.95	35.566
629.28	33.485
629.61	32.906
629.94	34.952
630.26	33.365
630.59	34.414
630.92	34.100
631.25	34.353
631.58	35.936
