SpectraSuite Data File
++++++++++++++++++++++++++++++++++++
Date: Wed May 13 20:48:57 PDT 2015
User: schluterlab
Dark Spectrum Present: Yes
Reference Spectrum Present: Yes
Number of Sampled Component Spectra: 1
Spectrometers: USB2E3373
Integration Time (usec): 3000 (USB2E3373)
Spectra Averaged: 3 (USB2E3373)
Boxcar Smoothing: 0 (USB2E3373)
Correct for Electrical Dark: No (USB2E3373)
Strobe/Lamp Enabled: No (USB2E3373)
Correct for Detector Non-linearity: No (USB2E3373)
Correct for Stray Light: No (USB2E3373)
Number of Pixels in Processed Spectrum: 2048
>>>>>Begin Processed Spectral Data<<<<<
178.53	0.000
178.91	-825.000
179.29	-775.000
179.67	-72.222
180.04	-725.000
180.42	1500.000
180.80	520.000
181.18	-725.000
181.56	271.429
181.94	0.000
182.31	-114.286
182.69	966.667
183.07	-212.500
183.45	-233.333
183.83	281.818
184.20	-150.000
184.58	650.000
184.96	3300.000
185.34	-320.000
185.72	-225.000
186.09	-1450.000
186.47	1400.000
186.85	1100.000
187.23	2800.000
187.61	-700.000
187.98	975.000
188.36	290.909
188.74	290.909
189.12	-360.000
189.49	210.000
189.87	-2000.000
190.25	-825.000
190.63	271.429
191.00	253.846
191.38	433.333
191.76	-600.000
192.14	625.000
192.51	275.000
192.89	550.000
193.27	275.000
193.65	-500.000
194.02	270.000
194.40	520.000
194.78	340.000
195.15	308.333
195.53	370.000
195.91	-700.000
196.29	187.500
196.66	168.421
197.04	-110.000
197.42	0.000
197.79	330.000
198.17	-2400.000
198.55	414.286
198.92	350.000
199.30	460.000
199.68	0.000
200.05	183.333
200.43	571.429
200.81	2000.000
201.18	666.667
201.56	-800.000
201.94	322.222
202.31	433.333
202.69	208.333
203.07	290.000
203.44	0.000
203.82	750.000
204.19	500.000
204.57	257.143
204.95	350.000
205.32	733.333
205.70	281.818
206.08	200.000
206.45	1450.000
206.83	218.750
207.20	383.333
207.58	260.000
207.96	238.889
208.33	437.500
208.71	-516.667
209.08	371.429
209.46	333.333
209.84	263.636
210.21	-700.000
210.59	750.000
210.96	-237.500
211.34	1150.000
211.71	300.000
212.09	416.667
212.46	0.000
212.84	600.000
213.22	750.000
213.59	-2500.000
213.97	366.667
214.34	614.286
214.72	345.455
215.09	620.000
215.47	-950.000
215.84	-1300.000
216.22	833.333
216.59	214.286
216.97	550.000
217.34	263.636
217.72	-233.333
218.09	0.000
218.47	-1900.000
218.84	377.778
219.22	442.857
219.59	833.333
219.97	-214.286
220.34	540.000
220.72	-800.000
221.09	178.571
221.47	900.000
221.84	-333.333
222.22	0.000
222.59	600.000
222.97	-1300.000
223.34	680.000
223.72	276.923
224.09	800.000
224.46	1000.000
224.84	-2000.000
225.21	-480.000
225.59	-2300.000
225.96	320.000
226.34	180.000
226.71	1600.000
227.08	350.000
227.46	260.000
227.83	-350.000
228.21	-1250.000
228.58	333.333
228.95	-1200.000
229.33	-1100.000
229.70	1033.333
230.08	528.571
230.45	-320.000
230.82	266.667
231.20	400.000
231.57	271.429
231.95	216.667
232.32	118.182
232.69	200.000
233.07	400.000
233.44	200.000
233.81	-766.667
234.19	205.263
234.56	158.333
234.93	233.333
235.31	290.909
235.68	192.308
236.05	228.571
236.43	118.182
236.80	168.421
237.17	2500.000
237.55	109.524
237.92	135.714
238.29	128.571
238.67	106.452
239.04	117.241
239.41	75.000
239.79	76.087
240.16	66.667
240.53	70.455
240.91	47.059
241.28	86.000
241.65	46.000
242.02	65.217
242.40	38.710
242.77	45.000
243.14	46.237
243.51	57.303
243.89	41.176
244.26	37.778
244.63	43.011
245.00	32.979
245.38	36.634
245.75	38.318
246.12	26.606
246.49	44.526
246.87	44.000
247.24	36.923
247.61	27.143
247.98	26.797
248.36	28.378
248.73	33.121
249.10	31.847
249.47	25.424
249.84	33.690
250.22	35.294
250.59	23.077
250.96	26.768
251.33	27.962
251.70	26.733
252.08	27.619
252.45	28.700
252.82	24.348
253.19	27.234
253.56	27.059
253.94	28.216
254.31	25.781
254.68	23.077
255.05	26.199
255.42	21.951
255.79	22.426
256.16	27.076
256.54	21.201
256.91	24.199
257.28	20.863
257.65	24.752
258.02	22.360
258.39	23.344
258.76	20.736
259.14	21.131
259.51	22.492
259.88	17.391
260.25	22.356
260.62	24.566
260.99	22.981
261.36	19.219
261.73	19.771
262.10	18.605
262.47	20.563
262.85	21.727
263.22	18.234
263.59	19.943
263.96	21.978
264.33	17.493
264.70	19.211
265.07	22.506
265.44	24.495
265.81	19.951
266.18	19.095
266.55	21.463
266.92	20.147
267.29	22.917
267.66	20.872
268.03	19.545
268.40	19.860
268.77	19.570
269.14	21.171
269.51	20.542
269.88	22.145
270.25	20.767
270.62	20.449
270.99	22.796
271.36	19.099
271.73	18.925
272.10	18.696
272.47	21.720
272.84	18.831
273.21	21.384
273.58	17.904
273.95	18.239
274.32	19.628
274.69	16.702
275.06	20.472
275.43	19.362
275.80	19.639
276.17	18.126
276.54	20.998
276.91	20.356
277.28	18.164
277.65	20.503
278.02	15.942
278.39	21.484
278.76	18.545
279.13	18.679
279.50	20.112
279.87	18.327
280.23	17.964
280.60	15.474
280.97	17.190
281.34	21.062
281.71	19.818
282.08	18.042
282.45	17.091
282.82	17.052
283.19	16.934
283.56	20.175
283.92	17.936
284.29	17.108
284.66	18.693
285.03	17.360
285.40	16.549
285.77	17.845
286.14	17.789
286.51	17.000
286.87	17.949
287.24	19.707
287.61	18.620
287.98	18.182
288.35	17.116
288.72	17.757
289.08	17.840
289.45	15.980
289.82	16.585
290.19	15.699
290.56	16.233
290.93	15.710
291.29	16.411
291.66	16.667
292.03	16.860
292.40	17.768
292.77	14.941
293.13	14.925
293.50	16.618
293.87	16.000
294.24	16.444
294.60	14.119
294.97	14.971
295.34	16.502
295.71	16.193
296.08	14.387
296.44	14.443
296.81	15.059
297.18	17.886
297.55	13.852
297.91	15.963
298.28	15.930
298.65	16.057
299.02	16.206
299.38	14.874
299.75	13.073
300.12	13.282
300.48	14.125
300.85	15.290
301.22	14.268
301.59	13.131
301.95	13.980
302.32	12.965
302.69	14.456
303.05	13.333
303.42	13.457
303.79	14.723
304.15	13.520
304.52	13.557
304.89	13.937
305.25	12.877
305.62	15.176
305.99	12.633
306.35	14.094
306.72	13.901
307.09	14.650
307.45	13.851
307.82	13.281
308.19	13.024
308.55	13.053
308.92	14.071
309.29	14.784
309.65	13.680
310.02	14.165
310.38	13.871
310.75	15.100
311.12	14.739
311.48	14.734
311.85	15.828
312.22	15.088
312.58	14.969
312.95	15.312
313.31	14.854
313.68	16.424
314.05	16.371
314.41	16.482
314.78	16.818
315.14	15.690
315.51	16.890
315.87	16.832
316.24	16.385
316.61	17.251
316.97	16.634
317.34	17.025
317.70	18.164
318.07	19.346
318.43	18.982
318.80	19.681
319.16	20.056
319.53	18.011
319.89	19.143
320.26	20.900
320.62	19.544
320.99	20.606
321.35	20.909
321.72	21.458
322.08	22.113
322.45	22.786
322.81	24.322
323.18	23.507
323.54	22.356
323.91	23.491
324.27	23.327
324.64	24.418
325.00	23.895
325.37	25.205
325.73	25.853
326.10	26.302
326.46	25.896
326.83	26.488
327.19	26.815
327.56	27.091
327.92	27.734
328.29	28.217
328.65	28.085
329.01	26.625
329.38	28.677
329.74	27.424
330.11	28.464
330.47	29.385
330.84	30.055
331.20	28.142
331.56	29.633
331.93	29.815
332.29	29.547
332.66	30.708
333.02	29.799
333.38	29.720
333.75	30.036
334.11	29.537
334.48	30.257
334.84	29.596
335.20	30.909
335.57	28.830
335.93	29.554
336.29	29.304
336.66	30.568
337.02	29.593
337.38	30.093
337.75	29.323
338.11	31.782
338.47	31.308
338.84	31.714
339.20	30.275
339.56	32.391
339.93	30.818
340.29	30.435
340.65	30.125
341.02	32.286
341.38	30.961
341.74	30.702
342.11	31.528
342.47	30.044
342.83	31.849
343.20	31.515
343.56	30.329
343.92	32.719
344.28	31.803
344.65	31.212
345.01	29.630
345.37	29.588
345.73	31.218
346.10	31.287
346.46	31.949
346.82	31.301
347.19	30.994
347.55	31.034
347.91	31.634
348.27	32.375
348.63	30.184
349.00	30.583
349.36	31.034
349.72	30.634
350.08	31.524
350.45	31.326
350.81	32.088
351.17	32.172
351.53	31.368
351.89	30.776
352.26	31.807
352.62	31.756
352.98	32.577
353.34	31.142
353.70	31.424
354.07	31.290
354.43	31.270
354.79	30.652
355.15	32.163
355.51	32.694
355.87	33.061
356.24	32.980
356.60	32.318
356.96	31.778
357.32	33.197
357.68	32.520
358.04	31.987
358.40	33.254
358.77	32.394
359.13	32.281
359.49	32.941
359.85	32.698
360.21	32.855
360.57	34.008
360.93	33.615
361.29	32.502
361.66	32.043
362.02	32.612
362.38	33.308
362.74	32.961
363.10	32.346
363.46	32.135
363.82	32.653
364.18	33.186
364.54	34.250
364.90	33.144
365.26	32.647
365.62	33.820
365.98	32.652
366.35	33.023
366.71	33.044
367.07	33.940
367.43	34.325
367.79	34.190
368.15	34.914
368.51	33.212
368.87	33.191
369.23	33.943
369.59	34.106
369.95	32.941
370.31	33.547
370.67	33.261
371.03	33.633
371.39	33.746
371.75	34.412
372.11	33.428
372.47	34.238
372.83	34.726
373.19	33.382
373.55	34.072
373.91	34.978
374.27	33.746
374.63	32.218
374.99	34.887
375.35	33.636
375.71	33.448
376.07	34.156
376.42	34.663
376.78	34.327
377.14	35.075
377.50	34.106
377.86	33.378
378.22	33.375
378.58	33.333
378.94	33.501
379.30	33.651
379.66	33.693
380.02	34.029
380.38	33.333
380.74	33.373
381.09	34.902
381.45	35.526
381.81	34.951
382.17	34.268
382.53	33.208
382.89	33.765
383.25	34.396
383.61	35.564
383.97	34.146
384.32	35.309
384.68	34.139
385.04	34.419
385.40	33.808
385.76	33.845
386.12	34.780
386.48	35.620
386.83	35.536
387.19	34.694
387.55	33.333
387.91	34.704
388.27	34.090
388.62	34.050
388.98	33.170
389.34	35.044
389.70	33.967
390.06	34.030
390.42	33.787
390.77	34.288
391.13	34.907
391.49	34.391
391.85	33.927
392.20	33.628
392.56	33.333
392.92	33.726
393.28	33.432
393.64	33.753
393.99	32.865
394.35	33.809
394.71	34.316
395.07	33.333
395.42	33.684
395.78	34.796
396.14	33.582
396.50	35.276
396.85	35.156
397.21	33.785
397.57	34.594
397.92	33.534
398.28	33.464
398.64	34.289
399.00	33.968
399.35	34.010
399.71	34.491
400.07	34.536
400.42	34.724
400.78	33.836
401.14	33.902
401.49	34.448
401.85	33.273
402.21	33.054
402.57	32.326
402.92	33.922
403.28	33.354
403.63	33.168
403.99	34.713
404.35	34.061
404.70	33.333
405.06	33.081
405.42	33.936
405.77	33.143
406.13	33.183
406.49	33.708
406.84	32.546
407.20	33.570
407.55	33.184
407.91	33.533
408.27	33.312
408.62	32.390
408.98	32.598
409.34	32.841
409.69	33.613
410.05	32.776
410.40	33.700
410.76	32.915
411.11	33.957
411.47	32.652
411.83	32.987
412.18	32.096
412.54	33.188
412.89	32.651
413.25	33.353
413.60	33.972
413.96	32.848
414.31	32.564
414.67	32.890
415.03	32.914
415.38	33.312
415.74	32.733
416.09	33.703
416.45	32.530
416.80	32.783
417.16	33.311
417.51	33.378
417.87	32.306
418.22	33.502
418.58	33.118
418.93	32.248
419.29	31.891
419.64	32.809
420.00	32.134
420.35	31.710
420.71	33.293
421.06	33.055
421.42	32.222
421.77	32.119
422.12	32.622
422.48	32.542
422.83	32.732
423.19	32.762
423.54	32.676
423.90	32.986
424.25	33.892
424.61	31.905
424.96	32.420
425.31	32.171
425.67	32.191
426.02	31.771
426.38	33.394
426.73	32.475
427.09	31.854
427.44	31.282
427.79	31.512
428.15	31.131
428.50	32.124
428.85	31.287
429.21	31.861
429.56	31.778
429.92	31.052
430.27	30.785
430.62	31.183
430.98	31.604
431.33	31.598
431.68	32.461
432.04	31.629
432.39	31.639
432.74	31.418
433.10	31.636
433.45	30.904
433.80	30.432
434.16	31.677
434.51	31.368
434.86	31.414
435.22	31.240
435.57	31.793
435.92	31.890
436.28	32.028
436.63	31.512
436.98	31.998
437.34	32.081
437.69	31.505
438.04	31.759
438.39	31.224
438.75	31.551
439.10	30.782
439.45	31.582
439.81	31.420
440.16	31.733
440.51	30.580
440.86	31.905
441.22	30.979
441.57	30.786
441.92	31.269
442.27	31.378
442.63	30.437
442.98	32.394
443.33	31.522
443.68	30.666
444.03	30.796
444.39	30.867
444.74	30.249
445.09	31.482
445.44	30.782
445.79	30.084
446.15	30.228
446.50	29.779
446.85	30.678
447.20	30.954
447.55	30.653
447.91	29.564
448.26	30.996
448.61	30.978
448.96	30.399
449.31	30.427
449.66	30.726
450.02	29.304
450.37	30.102
450.72	30.231
451.07	29.372
451.42	29.301
451.77	29.536
452.12	30.312
452.47	29.540
452.83	30.478
453.18	31.174
453.53	30.303
453.88	29.238
454.23	30.424
454.58	29.982
454.93	31.214
455.28	28.865
455.63	29.612
455.98	30.833
456.34	29.397
456.69	28.741
457.04	30.031
457.39	29.749
457.74	28.787
458.09	29.557
458.44	29.475
458.79	28.579
459.14	29.853
459.49	29.247
459.84	29.141
460.19	29.758
460.54	28.472
460.89	29.731
461.24	29.630
461.59	29.576
461.94	28.730
462.29	29.555
462.64	29.355
462.99	28.042
463.34	29.200
463.69	29.081
464.04	28.986
464.39	27.710
464.74	29.055
465.09	28.649
465.44	27.922
465.79	27.237
466.14	28.517
466.49	28.699
466.84	28.313
467.19	28.244
467.54	29.500
467.89	28.331
468.24	27.749
468.59	28.510
468.94	28.039
469.29	28.663
469.64	29.317
469.99	28.958
470.34	28.005
470.68	29.454
471.03	28.980
471.38	28.562
471.73	27.981
472.08	28.882
472.43	27.198
472.78	27.584
473.13	28.113
473.48	28.152
473.83	27.866
474.17	28.065
474.52	27.978
474.87	27.612
475.22	27.220
475.57	26.760
475.92	27.562
476.27	27.734
476.61	27.413
476.96	27.653
477.31	27.316
477.66	27.954
478.01	26.346
478.36	27.816
478.70	27.466
479.05	27.263
479.40	27.226
479.75	26.945
480.10	26.690
480.45	26.511
480.79	26.135
481.14	26.076
481.49	26.768
481.84	26.978
482.19	27.260
482.53	26.239
482.88	26.291
483.23	27.383
483.58	26.524
483.92	26.570
484.27	25.098
484.62	25.690
484.97	25.936
485.31	25.548
485.66	23.673
486.01	23.784
486.36	23.928
486.70	24.433
487.05	25.237
487.40	25.000
487.75	25.657
488.09	25.387
488.44	24.650
488.79	24.991
489.13	24.943
489.48	25.163
489.83	25.507
490.17	25.471
490.52	25.554
490.87	25.328
491.22	25.466
491.56	24.920
491.91	25.593
492.26	25.402
492.60	26.129
492.95	24.602
493.30	24.439
493.64	24.638
493.99	25.627
494.34	25.994
494.68	25.549
495.03	25.752
495.37	25.361
495.72	25.341
496.07	24.919
496.41	24.469
496.76	25.726
497.11	25.169
497.45	24.406
497.80	24.712
498.14	24.348
498.49	24.537
498.84	25.360
499.18	24.762
499.53	25.024
499.87	24.231
500.22	24.682
500.56	24.806
500.91	24.808
501.26	24.419
501.60	25.297
501.95	24.060
502.29	24.836
502.64	24.255
502.98	24.638
503.33	23.903
503.67	24.362
504.02	25.070
504.36	23.818
504.71	23.889
505.06	23.807
505.40	23.578
505.75	24.494
506.09	24.052
506.44	24.667
506.78	24.403
507.13	24.382
507.47	24.697
507.82	24.519
508.16	23.759
508.51	24.404
508.85	23.784
509.19	24.541
509.54	23.673
509.88	23.493
510.23	23.393
510.57	24.871
510.92	23.563
511.26	24.563
511.61	24.793
511.95	23.434
512.30	23.807
512.64	24.019
512.98	23.633
513.33	24.411
513.67	23.212
514.02	23.539
514.36	24.686
514.70	24.184
515.05	23.926
515.39	23.780
515.74	24.718
516.08	24.371
516.42	23.696
516.77	24.916
517.11	24.473
517.46	24.831
517.80	24.681
518.14	23.683
518.49	24.446
518.83	24.091
519.17	24.480
519.52	24.731
519.86	23.959
520.20	24.335
520.55	24.656
520.89	25.304
521.23	25.090
521.58	23.289
521.92	24.556
522.26	23.429
522.61	24.424
522.95	23.143
523.29	23.311
523.64	24.512
523.98	23.537
524.32	23.221
524.66	24.474
525.01	23.775
525.35	23.792
525.69	23.276
526.04	23.801
526.38	23.856
526.72	23.742
527.06	23.101
527.41	23.205
527.75	24.116
528.09	24.085
528.43	24.793
528.78	23.540
529.12	23.152
529.46	23.454
529.80	23.886
530.15	24.237
530.49	23.569
530.83	23.165
531.17	24.282
531.51	24.384
531.86	23.032
532.20	24.511
532.54	23.639
532.88	23.107
533.22	23.173
533.57	23.519
533.91	22.818
534.25	23.815
534.59	23.002
534.93	22.427
535.27	23.899
535.62	23.199
535.96	23.227
536.30	22.632
536.64	23.503
536.98	23.026
537.32	23.568
537.66	22.600
538.01	22.581
538.35	23.142
538.69	23.357
539.03	22.677
539.37	21.789
539.71	21.322
540.05	23.007
540.39	22.857
540.73	22.251
541.07	23.102
541.42	22.766
541.76	24.000
542.10	22.768
542.44	22.119
542.78	23.715
543.12	21.753
543.46	22.230
543.80	22.251
544.14	21.887
544.48	22.413
544.82	21.873
545.16	23.032
545.50	21.530
545.84	22.648
546.18	22.828
546.52	23.331
546.86	22.887
547.20	22.387
547.54	22.578
547.88	23.087
548.22	21.856
548.56	21.572
548.90	22.279
549.24	21.077
549.58	22.920
549.92	22.734
550.26	22.443
550.60	22.476
550.94	22.887
551.28	21.873
551.62	22.142
551.96	21.123
552.30	22.457
552.64	22.515
552.98	22.034
553.32	21.780
553.66	21.745
554.00	21.894
554.34	22.429
554.68	21.674
555.02	21.580
555.36	21.851
555.69	21.516
556.03	21.736
556.37	21.487
556.71	21.828
557.05	22.479
557.39	22.533
557.73	21.030
558.07	22.553
558.41	21.563
558.75	21.161
559.08	21.849
559.42	22.071
559.76	22.721
560.10	21.913
560.44	21.384
560.78	21.690
561.12	21.768
561.45	21.708
561.79	21.753
562.13	20.858
562.47	21.448
562.81	21.688
563.15	21.271
563.48	20.358
563.82	21.135
564.16	20.667
564.50	20.703
564.84	20.228
565.17	20.914
565.51	22.045
565.85	21.003
566.19	20.163
566.52	21.786
566.86	20.313
567.20	21.344
567.54	20.833
567.88	20.043
568.21	20.582
568.55	19.869
568.89	19.309
569.23	19.563
569.56	19.474
569.90	18.943
570.24	18.730
570.57	18.871
570.91	18.455
571.25	17.974
571.59	18.409
571.92	18.001
572.26	18.313
572.60	18.408
572.93	17.631
573.27	18.249
573.61	18.174
573.95	18.114
574.28	17.688
574.62	17.323
574.96	17.634
575.29	17.580
575.63	17.861
575.97	17.860
576.30	17.924
576.64	17.437
576.98	17.623
577.31	17.652
577.65	17.177
577.98	17.029
578.32	17.017
578.66	17.254
578.99	17.576
579.33	16.897
579.67	16.979
580.00	17.502
580.34	17.608
580.67	17.206
581.01	17.270
581.35	16.916
581.68	17.054
582.02	16.862
582.35	16.745
582.69	17.529
583.02	17.179
583.36	17.593
583.70	17.383
584.03	17.268
584.37	17.470
584.70	16.954
585.04	16.781
585.37	16.822
585.71	17.199
586.04	17.106
586.38	17.189
586.72	17.150
587.05	17.278
587.39	17.045
587.72	17.470
588.06	16.836
588.39	17.449
588.73	16.926
589.06	17.420
589.40	17.542
589.73	17.423
590.07	17.936
590.40	16.953
590.73	17.642
591.07	17.460
591.40	17.798
591.74	18.139
592.07	18.019
592.41	17.239
592.74	17.266
593.08	17.089
593.41	16.957
593.75	17.302
594.08	16.963
594.41	17.002
594.75	16.895
595.08	17.466
595.42	17.408
595.75	17.023
596.09	17.499
596.42	17.642
596.75	17.222
597.09	18.225
597.42	16.821
597.75	18.111
598.09	17.652
598.42	17.397
598.76	17.349
599.09	16.534
599.42	16.994
599.76	16.654
600.09	15.993
600.42	16.874
600.76	16.750
601.09	16.612
601.42	17.199
601.76	16.622
602.09	16.719
602.42	17.197
602.76	17.211
603.09	17.073
603.42	17.220
603.76	16.692
604.09	16.789
604.42	17.203
604.76	16.913
605.09	17.169
605.42	17.016
605.75	16.556
606.09	16.267
606.42	16.755
606.75	17.254
607.09	17.664
607.42	16.346
607.75	16.709
608.08	16.587
608.42	17.212
608.75	16.997
609.08	17.160
609.41	17.040
609.75	16.627
610.08	16.730
610.41	16.201
610.74	17.219
611.07	17.342
611.41	17.272
611.74	17.144
612.07	17.857
612.40	17.104
612.73	16.632
613.07	17.780
613.40	17.957
613.73	17.095
614.06	17.796
614.39	17.147
614.72	17.737
615.06	17.122
615.39	16.985
615.72	17.127
616.05	16.693
616.38	17.176
616.71	17.637
617.05	17.197
617.38	16.957
617.71	17.357
618.04	17.428
618.37	16.913
618.70	17.610
619.03	17.434
619.36	17.583
619.69	17.394
620.03	18.269
620.36	18.249
620.69	18.973
621.02	18.732
621.35	18.403
621.68	17.991
622.01	18.421
622.34	19.213
622.67	18.479
623.00	17.828
623.33	17.870
623.66	18.370
623.99	17.378
624.32	18.046
624.65	17.867
624.99	16.501
625.32	17.451
625.65	18.182
625.98	18.140
626.31	18.118
626.64	18.694
626.97	18.620
627.30	18.620
627.63	18.048
627.96	19.092
628.29	19.160
628.62	18.573
628.95	19.811
629.28	19.708
629.61	19.248
629.94	20.476
630.26	19.256
630.59	19.066
630.92	17.912
631.25	19.052
631.58	18.819
631.91	18.357
