SpectraSuite Data File
++++++++++++++++++++++++++++++++++++
Date: Wed May 13 20:59:19 PDT 2015
User: schluterlab
Dark Spectrum Present: Yes
Reference Spectrum Present: Yes
Number of Sampled Component Spectra: 1
Spectrometers: USB2E3373
Integration Time (usec): 3000 (USB2E3373)
Spectra Averaged: 3 (USB2E3373)
Boxcar Smoothing: 0 (USB2E3373)
Correct for Electrical Dark: No (USB2E3373)
Strobe/Lamp Enabled: No (USB2E3373)
Correct for Detector Non-linearity: No (USB2E3373)
Correct for Stray Light: No (USB2E3373)
Number of Pixels in Processed Spectrum: 2048
>>>>>Begin Processed Spectral Data<<<<<
178.53	0.000
178.91	100.000
179.29	125.000
179.67	100.000
180.04	-100.000
180.42	260.000
180.80	100.000
181.18	266.667
181.56	-225.000
181.94	-50.000
182.31	-27.273
182.69	100.000
183.07	-120.000
183.45	183.333
183.83	88.889
184.20	28.571
184.58	33.333
184.96	-66.667
185.34	128.571
185.72	0.000
186.09	600.000
186.47	-80.000
186.85	80.000
187.23	-50.000
187.61	-0.000
187.98	700.000
188.36	62.500
188.74	0.000
189.12	-27.273
189.49	110.000
189.87	33.333
190.25	180.000
190.63	600.000
191.00	0.000
191.38	40.000
191.76	25.000
192.14	91.667
192.51	10.526
192.89	333.333
193.27	25.000
193.65	-100.000
194.02	127.273
194.40	90.000
194.78	300.000
195.15	-20.000
195.53	-120.000
195.91	-37.500
196.29	166.667
196.66	0.000
197.04	250.000
197.42	240.000
197.79	30.000
198.17	37.500
198.55	200.000
198.92	-100.000
199.30	-66.667
199.68	90.000
200.05	-200.000
200.43	-16.667
200.81	-100.000
201.18	-40.000
201.56	100.000
201.94	275.000
202.31	17.391
202.69	-114.286
203.07	33.333
203.44	40.000
203.82	-66.667
204.19	-40.000
204.57	0.000
204.95	0.000
205.32	0.000
205.70	150.000
206.08	-125.000
206.45	33.333
206.83	100.000
207.20	-200.000
207.58	80.000
207.96	-1600.000
208.33	-85.714
208.71	-1100.000
209.08	112.500
209.46	-0.000
209.84	0.000
210.21	50.000
210.59	1500.000
210.96	120.000
211.34	-100.000
211.71	-250.000
212.09	-216.667
212.46	-70.000
212.84	-100.000
213.22	175.000
213.59	-400.000
213.97	-100.000
214.34	0.000
214.72	0.000
215.09	225.000
215.47	22.222
215.84	-400.000
216.22	50.000
216.59	200.000
216.97	166.667
217.34	100.000
217.72	0.000
218.09	200.000
218.47	400.000
218.84	85.714
219.22	125.000
219.59	300.000
219.97	-25.000
220.34	-12.500
220.72	40.000
221.09	0.000
221.47	66.667
221.84	400.000
222.22	0.000
222.59	900.000
222.97	33.333
223.34	25.000
223.72	-1500.000
224.09	50.000
224.46	0.000
224.84	225.000
225.21	28.571
225.59	-100.000
225.96	-16.667
226.34	90.000
226.71	-28.571
227.08	250.000
227.46	-37.500
227.83	1400.000
228.21	-12.500
228.58	-75.000
228.95	-41.176
229.33	18.750
229.70	25.000
230.08	23.077
230.45	-112.500
230.82	-16.667
231.20	85.714
231.57	75.000
231.95	-200.000
232.32	125.000
232.69	0.000
233.07	-1000.000
233.44	-26.087
233.81	-300.000
234.19	25.000
234.56	13.333
234.93	6.667
235.31	73.684
235.68	15.385
236.05	53.846
236.43	22.222
236.80	0.000
237.17	-33.333
237.55	0.000
237.92	-13.793
238.29	-29.630
238.67	-5.556
239.04	-19.355
239.41	8.511
239.79	12.766
240.16	4.651
240.53	8.929
240.91	5.357
241.28	5.357
241.65	4.839
242.02	0.000
242.40	17.391
242.77	-1.449
243.14	7.692
243.51	5.319
243.89	11.538
244.26	13.208
244.63	2.885
245.00	8.333
245.38	13.445
245.75	7.377
246.12	10.526
246.49	-3.252
246.87	0.840
247.24	12.838
247.61	4.636
247.98	5.128
248.36	2.959
248.73	6.742
249.10	7.576
249.47	6.989
249.84	6.316
250.22	5.473
250.59	6.542
250.96	13.182
251.33	1.435
251.70	9.623
252.08	5.439
252.45	6.173
252.82	6.844
253.19	3.891
253.56	7.554
253.94	8.541
254.31	5.634
254.68	7.047
255.05	7.591
255.42	8.392
255.79	4.908
256.16	4.416
256.54	6.667
256.91	2.215
257.28	7.233
257.65	3.503
258.02	3.519
258.39	5.556
258.76	4.942
259.14	7.670
259.51	5.056
259.88	3.252
260.25	3.056
260.62	3.933
260.99	6.897
261.36	5.699
261.73	6.173
262.10	3.053
262.47	5.432
262.85	5.224
263.22	2.564
263.59	5.455
263.96	6.569
264.33	5.288
264.70	5.581
265.07	6.481
265.44	5.287
265.81	5.263
266.18	5.695
266.55	4.803
266.92	6.356
267.29	4.527
267.66	7.219
268.03	5.556
268.40	6.568
268.77	6.405
269.14	6.327
269.51	9.035
269.88	4.888
270.25	5.720
270.62	2.254
270.99	6.693
271.36	5.159
271.73	5.221
272.10	6.095
272.47	5.950
272.84	5.512
273.21	6.458
273.58	4.918
273.95	4.717
274.32	6.903
274.69	6.740
275.06	6.184
275.43	4.896
275.80	5.496
276.17	5.525
276.54	6.217
276.91	5.052
277.28	4.874
277.65	6.119
278.02	6.250
278.39	4.085
278.76	6.522
279.13	4.974
279.50	3.966
279.87	5.435
280.23	5.946
280.60	4.152
280.97	5.032
281.34	6.151
281.71	4.553
282.08	3.590
282.45	5.410
282.82	4.792
283.19	6.860
283.56	4.688
283.92	3.211
284.29	4.368
284.66	5.437
285.03	4.072
285.40	2.266
285.77	6.306
286.14	4.863
286.51	7.046
286.87	4.769
287.24	3.540
287.61	4.367
287.98	4.559
288.35	2.683
288.72	6.456
289.08	5.983
289.45	6.167
289.82	6.051
290.19	5.891
290.56	3.977
290.93	4.696
291.29	4.651
291.66	3.552
292.03	3.951
292.40	4.711
292.77	5.489
293.13	4.742
293.50	3.791
293.87	4.933
294.24	3.968
294.60	4.941
294.97	5.159
295.34	4.222
295.71	4.336
296.08	3.534
296.44	3.444
296.81	4.994
297.18	4.375
297.55	4.009
297.91	6.335
298.28	5.690
298.65	5.296
299.02	5.495
299.38	3.926
299.75	5.649
300.12	3.488
300.48	4.561
300.85	4.042
301.22	4.878
301.59	4.812
301.95	2.904
302.32	3.501
302.69	4.181
303.05	4.762
303.42	4.773
303.79	6.730
304.15	4.053
304.52	5.699
304.89	3.876
305.25	4.720
305.62	5.206
305.99	4.788
306.35	6.270
306.72	6.002
307.09	5.735
307.45	4.153
307.82	5.158
308.19	4.284
308.55	4.708
308.92	5.796
309.29	4.905
309.65	4.695
310.02	6.859
310.38	4.980
310.75	4.339
311.12	6.706
311.48	5.638
311.85	5.610
312.22	6.770
312.58	6.280
312.95	6.269
313.31	7.163
313.68	6.584
314.05	6.427
314.41	7.205
314.78	8.159
315.14	7.315
315.51	6.946
315.87	7.322
316.24	7.805
316.61	8.950
316.97	7.407
317.34	7.843
317.70	8.921
318.07	9.317
318.43	8.672
318.80	8.115
319.16	7.604
319.53	7.616
319.89	9.124
320.26	8.965
320.62	9.917
320.99	8.430
321.35	9.355
321.72	9.721
322.08	9.502
322.45	11.008
322.81	9.982
323.18	11.181
323.54	10.199
323.91	10.027
324.27	11.431
324.64	10.017
325.00	11.549
325.37	11.177
325.73	12.374
326.10	11.859
326.46	10.201
326.83	11.408
327.19	11.301
327.56	12.006
327.92	12.953
328.29	14.023
328.65	13.322
329.01	11.434
329.38	13.304
329.74	12.189
330.11	12.353
330.47	11.892
330.84	13.177
331.20	12.468
331.56	12.772
331.93	13.006
332.29	14.248
332.66	13.220
333.02	14.075
333.38	13.596
333.75	14.505
334.11	13.281
334.48	13.775
334.84	13.163
335.20	13.722
335.57	13.577
335.93	12.543
336.29	14.186
336.66	14.017
337.02	15.391
337.38	13.925
337.75	14.298
338.11	13.066
338.47	13.271
338.84	14.089
339.20	12.787
339.56	13.055
339.93	15.039
340.29	13.237
340.65	14.286
341.02	14.725
341.38	14.358
341.74	13.445
342.11	13.955
342.47	14.310
342.83	14.379
343.20	14.213
343.56	15.127
343.92	13.729
344.28	14.529
344.65	14.776
345.01	13.721
345.37	14.309
345.73	15.359
346.10	15.490
346.46	14.797
346.82	14.526
347.19	14.636
347.55	14.943
347.91	14.341
348.27	14.353
348.63	14.744
349.00	14.230
349.36	15.856
349.72	15.777
350.08	15.055
350.45	15.583
350.81	15.728
351.17	15.627
351.53	15.475
351.89	15.330
352.26	14.981
352.62	15.271
352.98	14.617
353.34	15.298
353.70	16.121
354.07	15.686
354.43	14.774
354.79	15.385
355.15	15.062
355.51	15.945
355.87	15.950
356.24	15.329
356.60	15.794
356.96	15.886
357.32	15.867
357.68	16.196
358.04	16.369
358.40	15.116
358.77	16.667
359.13	16.654
359.49	17.411
359.85	16.452
360.21	16.808
360.57	16.122
360.93	17.299
361.29	17.246
361.66	17.464
362.02	16.012
362.38	15.953
362.74	17.549
363.10	16.341
363.46	16.138
363.82	16.851
364.18	16.824
364.54	16.047
364.90	15.749
365.26	16.702
365.62	17.045
365.98	17.509
366.35	16.950
366.71	16.833
367.07	16.371
367.43	17.700
367.79	17.582
368.15	16.878
368.51	18.214
368.87	18.004
369.23	17.794
369.59	18.605
369.95	17.054
370.31	16.457
370.67	16.872
371.03	18.411
371.39	18.169
371.75	17.786
372.11	17.236
372.47	18.457
372.83	17.684
373.19	17.554
373.55	17.413
373.91	17.680
374.27	17.220
374.63	17.781
374.99	17.479
375.35	17.808
375.71	17.867
376.07	17.546
376.42	17.714
376.78	18.032
377.14	17.627
377.50	17.275
377.86	18.061
378.22	17.952
378.58	17.087
378.94	18.187
379.30	17.552
379.66	17.694
380.02	18.137
380.38	17.952
380.74	18.231
381.09	18.577
381.45	17.836
381.81	17.560
382.17	17.328
382.53	18.154
382.89	18.456
383.25	16.852
383.61	19.128
383.97	18.437
384.32	17.643
384.68	18.260
385.04	17.471
385.40	18.306
385.76	18.248
386.12	17.237
386.48	16.740
386.83	18.148
387.19	17.705
387.55	18.087
387.91	18.020
388.27	17.756
388.62	17.978
388.98	18.210
389.34	17.857
389.70	17.827
390.06	18.000
390.42	18.363
390.77	17.873
391.13	17.803
391.49	18.153
391.85	17.827
392.20	17.982
392.56	18.159
392.92	17.613
393.28	18.129
393.64	17.920
393.99	16.401
394.35	17.593
394.71	18.141
395.07	17.358
395.42	17.550
395.78	17.568
396.14	18.326
396.50	18.072
396.85	18.866
397.21	17.603
397.57	17.826
397.92	16.587
398.28	17.654
398.64	17.851
399.00	17.746
399.35	17.480
399.71	16.773
400.07	17.229
400.42	16.677
400.78	17.100
401.14	16.186
401.49	16.597
401.85	17.445
402.21	17.090
402.57	18.271
402.92	18.335
403.28	17.949
403.63	16.181
403.99	17.019
404.35	17.082
404.70	16.133
405.06	17.557
405.42	16.457
405.77	16.302
406.13	16.857
406.49	17.016
406.84	16.606
407.20	16.696
407.55	17.143
407.91	15.817
408.27	16.719
408.62	17.004
408.98	16.400
409.34	16.584
409.69	18.324
410.05	16.667
410.40	16.129
410.76	16.185
411.11	17.226
411.47	16.788
411.83	15.970
412.18	16.310
412.54	17.732
412.89	16.552
413.25	14.572
413.60	16.552
413.96	15.605
414.31	16.215
414.67	16.571
415.03	14.953
415.38	15.522
415.74	15.140
416.09	16.523
416.45	16.268
416.80	16.779
417.16	16.734
417.51	16.276
417.87	16.402
418.22	15.966
418.58	15.506
418.93	16.447
419.29	15.908
419.64	14.631
420.00	15.937
420.35	15.780
420.71	15.905
421.06	15.252
421.42	16.545
421.77	16.127
422.12	16.390
422.48	15.758
422.83	16.775
423.19	15.411
423.54	15.430
423.90	15.736
424.25	15.251
424.61	15.712
424.96	15.612
425.31	15.816
425.67	16.108
426.02	16.490
426.38	15.796
426.73	15.516
427.09	16.073
427.44	15.796
427.79	15.618
428.15	15.352
428.50	14.743
428.85	15.314
429.21	15.757
429.56	15.197
429.92	15.044
430.27	14.008
430.62	15.005
430.98	15.547
431.33	15.422
431.68	15.229
432.04	15.155
432.39	14.723
432.74	15.451
433.10	15.805
433.45	14.320
433.80	15.230
434.16	15.238
434.51	15.000
434.86	14.841
435.22	15.167
435.57	14.803
435.92	15.199
436.28	15.556
436.63	14.896
436.98	14.865
437.34	15.140
437.69	14.404
438.04	14.318
438.39	15.567
438.75	14.601
439.10	15.442
439.45	14.407
439.81	14.594
440.16	15.826
440.51	14.982
440.86	15.116
441.22	15.605
441.57	14.425
441.92	14.774
442.27	14.177
442.63	14.693
442.98	14.815
443.33	14.898
443.68	14.075
444.03	14.555
444.39	14.774
444.74	14.964
445.09	14.372
445.44	15.268
445.79	14.920
446.15	14.698
446.50	14.648
446.85	14.484
447.20	14.271
447.55	14.941
447.91	14.045
448.26	14.008
448.61	14.845
448.96	14.863
449.31	14.906
449.66	15.038
450.02	14.724
450.37	14.806
450.72	14.237
451.07	14.859
451.42	13.662
451.77	15.033
452.12	14.141
452.47	13.751
452.83	13.915
453.18	14.449
453.53	14.061
453.88	14.578
454.23	14.339
454.58	13.725
454.93	14.496
455.28	15.350
455.63	13.412
455.98	13.938
456.34	13.414
456.69	13.355
457.04	13.932
457.39	14.131
457.74	13.405
458.09	13.507
458.44	14.101
458.79	13.344
459.14	13.146
459.49	14.146
459.84	13.472
460.19	13.145
460.54	12.774
460.89	13.908
461.24	13.748
461.59	13.345
461.94	13.274
462.29	13.480
462.64	12.665
462.99	13.615
463.34	14.434
463.69	13.724
464.04	12.305
464.39	12.935
464.74	12.899
465.09	12.461
465.44	14.085
465.79	12.823
466.14	12.714
466.49	12.434
466.84	12.732
467.19	11.465
467.54	13.610
467.89	13.262
468.24	12.600
468.59	12.874
468.94	13.155
469.29	13.020
469.64	12.483
469.99	13.586
470.34	12.407
470.68	12.193
471.03	11.848
471.38	12.865
471.73	13.032
472.08	12.715
472.43	13.259
472.78	13.049
473.13	11.544
473.48	12.003
473.83	12.053
474.17	12.370
474.52	11.650
474.87	12.063
475.22	12.319
475.57	11.991
475.92	12.268
476.27	11.830
476.61	12.401
476.96	12.164
477.31	12.298
477.66	11.469
478.01	11.319
478.36	11.935
478.70	11.869
479.05	11.543
479.40	11.856
479.75	11.158
480.10	11.423
480.45	11.574
480.79	11.399
481.14	11.550
481.49	11.741
481.84	11.357
482.19	11.116
482.53	11.286
482.88	11.314
483.23	10.876
483.58	11.437
483.92	10.895
484.27	10.704
484.62	10.697
484.97	11.240
485.31	10.667
485.66	10.254
486.01	10.113
486.36	10.415
486.70	10.478
487.05	11.070
487.40	10.930
487.75	11.398
488.09	11.073
488.44	11.356
488.79	10.863
489.13	11.252
489.48	10.945
489.83	10.362
490.17	10.531
490.52	10.799
490.87	10.524
491.22	11.446
491.56	11.069
491.91	10.514
492.26	10.880
492.60	10.774
492.95	10.496
493.30	10.174
493.64	10.072
493.99	11.256
494.34	10.260
494.68	10.358
495.03	9.881
495.37	9.927
495.72	9.624
496.07	10.862
496.41	9.453
496.76	10.558
497.11	10.235
497.45	9.630
497.80	10.752
498.14	10.680
498.49	10.237
498.84	10.071
499.18	9.507
499.53	9.897
499.87	9.558
500.22	10.254
500.56	10.582
500.91	10.262
501.26	10.837
501.60	9.657
501.95	9.966
502.29	10.097
502.64	9.932
502.98	9.923
503.33	9.440
503.67	10.467
504.02	9.216
504.36	9.460
504.71	9.756
505.06	10.290
505.40	9.691
505.75	10.834
506.09	10.475
506.44	9.929
506.78	9.243
507.13	9.407
507.47	9.915
507.82	9.576
508.16	10.396
508.51	9.659
508.85	9.487
509.19	10.000
509.54	9.223
509.88	10.161
510.23	9.316
510.57	9.428
510.92	10.614
511.26	9.901
511.61	9.111
511.95	9.206
512.30	8.939
512.64	9.421
512.98	9.640
513.33	9.746
513.67	9.710
514.02	9.806
514.36	9.944
514.70	9.758
515.05	9.596
515.39	9.965
515.74	9.118
516.08	8.732
516.42	8.986
516.77	8.963
517.11	9.112
517.46	9.904
517.80	9.383
518.14	8.573
518.49	9.102
518.83	10.143
519.17	9.518
519.52	9.047
519.86	9.472
520.20	8.793
520.55	9.142
520.89	9.677
521.23	9.872
521.58	9.166
521.92	8.485
522.26	9.239
522.61	9.373
522.95	9.003
523.29	8.762
523.64	9.282
523.98	8.767
524.32	9.137
524.66	8.636
525.01	8.781
525.35	9.612
525.69	8.681
526.04	9.251
526.38	8.987
526.72	9.270
527.06	8.640
527.41	9.067
527.75	8.678
528.09	8.986
528.43	9.566
528.78	9.496
529.12	8.538
529.46	9.597
529.80	8.867
530.15	8.108
530.49	9.232
530.83	8.802
531.17	8.630
531.51	7.755
531.86	8.875
532.20	9.166
532.54	7.793
532.88	8.781
533.22	8.350
533.57	8.808
533.91	9.548
534.25	9.180
534.59	8.172
534.93	8.929
535.27	8.471
535.62	8.026
535.96	8.913
536.30	9.375
536.64	8.066
536.98	8.619
537.32	9.324
537.66	9.450
538.01	8.599
538.35	7.873
538.69	8.294
539.03	8.389
539.37	7.713
539.71	8.117
540.05	8.232
540.39	8.672
540.73	8.101
541.07	8.299
541.42	8.956
541.76	8.593
542.10	8.463
542.44	8.455
542.78	8.119
543.12	8.356
543.46	8.569
543.80	8.758
544.14	7.571
544.48	7.565
544.82	7.935
545.16	8.114
545.50	8.778
545.84	8.415
546.18	8.696
546.52	8.116
546.86	7.491
547.20	8.149
547.54	8.292
547.88	8.097
548.22	7.752
548.56	7.538
548.90	8.390
549.24	8.958
549.58	7.900
549.92	8.144
550.26	8.782
550.60	8.033
550.94	7.239
551.28	8.781
551.62	8.421
551.96	7.321
552.30	7.569
552.64	7.203
552.98	8.097
553.32	8.075
553.66	7.263
554.00	7.487
554.34	7.473
554.68	8.352
555.02	7.710
555.36	7.791
555.69	7.502
556.03	7.005
556.37	6.899
556.71	8.339
557.05	7.823
557.39	7.988
557.73	7.943
558.07	7.913
558.41	7.797
558.75	8.160
559.08	7.137
559.42	8.655
559.76	7.416
560.10	8.148
560.44	8.696
560.78	7.122
561.12	7.148
561.45	7.687
561.79	7.221
562.13	7.103
562.47	8.000
562.81	7.359
563.15	8.144
563.48	7.639
563.82	7.729
564.16	8.734
564.50	7.531
564.84	6.284
565.17	7.417
565.51	7.420
565.85	7.062
566.19	6.954
566.52	7.274
566.86	7.269
567.20	7.575
567.54	7.311
567.88	6.495
568.21	7.550
568.55	6.990
568.89	6.281
569.23	6.737
569.56	7.635
569.90	7.209
570.24	6.751
570.57	7.131
570.91	7.024
571.25	6.401
571.59	6.735
571.92	6.923
572.26	7.366
572.60	6.775
572.93	6.654
573.27	6.772
573.61	7.400
573.95	6.663
574.28	6.677
574.62	6.517
574.96	6.644
575.29	6.620
575.63	6.401
575.97	6.929
576.30	6.580
576.64	6.550
576.98	6.837
577.31	7.030
577.65	6.737
577.98	6.331
578.32	6.212
578.66	6.726
578.99	6.901
579.33	6.597
579.67	6.670
580.00	6.484
580.34	6.859
580.67	6.688
581.01	6.623
581.35	6.470
581.68	6.625
582.02	6.486
582.35	6.597
582.69	6.609
583.02	6.497
583.36	7.161
583.70	6.980
584.03	7.199
584.37	6.995
584.70	7.084
585.04	6.869
585.37	6.610
585.71	6.826
586.04	6.416
586.38	6.604
586.72	6.687
587.05	7.078
587.39	6.489
587.72	6.729
588.06	6.621
588.39	6.549
588.73	6.919
589.06	6.208
589.40	6.742
589.73	6.504
590.07	6.635
590.40	7.232
590.73	6.645
591.07	6.937
591.40	7.348
591.74	6.981
592.07	7.211
592.41	6.864
592.74	6.752
593.08	6.427
593.41	6.680
593.75	6.686
594.08	6.425
594.41	6.618
594.75	6.672
595.08	6.759
595.42	6.586
595.75	6.941
596.09	7.198
596.42	6.577
596.75	6.494
597.09	6.915
597.42	7.044
597.75	7.067
598.09	6.694
598.42	7.025
598.76	6.297
599.09	6.483
599.42	6.118
599.76	6.759
600.09	6.664
600.42	6.478
600.76	6.874
601.09	6.742
601.42	6.703
601.76	7.104
602.09	6.972
602.42	7.264
602.76	6.334
603.09	6.776
603.42	6.957
603.76	6.391
604.09	5.810
604.42	6.446
604.76	7.071
605.09	5.981
605.42	7.063
605.75	6.296
606.09	6.084
606.42	6.816
606.75	6.147
607.09	6.472
607.42	6.830
607.75	6.389
608.08	6.898
608.42	6.373
608.75	6.785
609.08	5.683
609.41	7.501
609.75	6.253
610.08	6.164
610.41	6.560
610.74	6.737
611.07	6.814
611.41	6.346
611.74	6.988
612.07	6.983
612.40	7.027
612.73	5.982
613.07	6.652
613.40	7.434
613.73	7.421
614.06	6.302
614.39	6.392
614.72	7.718
615.06	5.833
615.39	6.733
615.72	6.263
616.05	6.588
616.38	7.159
616.71	6.659
617.05	6.818
617.38	6.778
617.71	6.066
618.04	6.520
618.37	6.877
618.70	7.503
619.03	6.873
619.36	6.690
619.69	6.213
620.03	6.502
620.36	6.124
620.69	6.138
621.02	6.308
621.35	6.623
621.68	6.927
622.01	6.958
622.34	6.027
622.67	6.343
623.00	6.839
623.33	7.105
623.66	6.394
623.99	6.902
624.32	6.310
624.65	7.047
624.99	6.172
625.32	6.647
625.65	6.124
625.98	5.529
626.31	7.102
626.64	7.567
626.97	6.488
627.30	7.956
627.63	7.266
627.96	6.753
628.29	7.256
628.62	7.834
628.95	7.916
629.28	6.108
629.61	7.560
629.94	6.673
630.26	7.094
630.59	8.292
630.92	6.627
631.25	5.767
631.58	7.816
631.91	6.363
632.24	7.355
632.57	5.667
632.90	7.701
633.23	5.755
633.56	8.153
633.89	8.134
634.22	8.834
634.55	7.065
634.88	6.618
635.20	7.000
635.53	6.589
635.86	6.538
636.19	7.816
636.52	5.854
636.85	5.669
637.18	5.847
637.51	6.617
637.83	8.225
638.16	7.200
638.49	5.741
638.82	7.582
639.15	5.053
639.48	7.219
639.81	6.667
640.13	7.887
640.46	8.898
640.79	7.194
641.12	4.882
641.45	6.841
641.77	6.922
642.10	7.716
642.43	6.604
642.76	7.729
643.09	5.911
643.41	7.974
643.74	7.754
644.07	5.502
644.40	8.126
644.73	7.288
645.05	5.759
645.38	5.150
645.71	7.483
646.04	6.902
646.36	6.944
646.69	7.867
647.02	7.104
647.35	6.947
647.67	7.209
648.00	5.072
648.33	7.627
