SpectraSuite Data File
++++++++++++++++++++++++++++++++++++
Date: Wed May 13 21:09:31 PDT 2015
User: schluterlab
Dark Spectrum Present: Yes
Reference Spectrum Present: Yes
Number of Sampled Component Spectra: 1
Spectrometers: USB2E3373
Integration Time (usec): 3000 (USB2E3373)
Spectra Averaged: 3 (USB2E3373)
Boxcar Smoothing: 0 (USB2E3373)
Correct for Electrical Dark: No (USB2E3373)
Strobe/Lamp Enabled: No (USB2E3373)
Correct for Detector Non-linearity: No (USB2E3373)
Correct for Stray Light: No (USB2E3373)
Number of Pixels in Processed Spectrum: 2048
>>>>>Begin Processed Spectral Data<<<<<
178.53	0.000
178.91	600.000
179.29	183.333
179.67	-1050.000
180.04	-366.667
180.42	340.000
180.80	2200.000
181.18	350.000
181.56	-400.000
181.94	-75.000
182.31	45.455
182.69	123.077
183.07	20.000
183.45	233.333
183.83	188.889
184.20	85.714
184.58	-166.667
184.96	300.000
185.34	28.571
185.72	0.000
186.09	0.000
186.47	-120.000
186.85	180.000
187.23	-500.000
187.61	550.000
187.98	1200.000
188.36	-100.000
188.74	0.000
189.12	-9.091
189.49	-60.000
189.87	166.667
190.25	400.000
190.63	500.000
191.00	-100.000
191.38	200.000
191.76	300.000
192.14	133.333
192.51	10.526
192.89	500.000
193.27	450.000
193.65	-200.000
194.02	145.455
194.40	220.000
194.78	-500.000
195.15	280.000
195.53	-240.000
195.91	0.000
196.29	233.333
196.66	0.000
197.04	450.000
197.42	0.000
197.79	40.000
198.17	-62.500
198.55	-333.333
198.92	-125.000
199.30	-500.000
199.68	-100.000
200.05	500.000
200.43	-0.000
200.81	-400.000
201.18	-180.000
201.56	-116.667
201.94	500.000
202.31	-17.391
202.69	28.571
203.07	-466.667
203.44	-240.000
203.82	-433.333
204.19	-70.000
204.57	0.000
204.95	-66.667
205.32	0.000
205.70	-550.000
206.08	-350.000
206.45	-100.000
206.83	400.000
207.20	-433.333
207.58	30.000
207.96	-2000.000
208.33	-128.571
208.71	-1400.000
209.08	150.000
209.46	225.000
209.84	0.000
210.21	30.000
210.59	1300.000
210.96	100.000
211.34	1300.000
211.71	0.000
212.09	-166.667
212.46	-110.000
212.84	-100.000
213.22	175.000
213.59	-1500.000
213.97	-700.000
214.34	-1050.000
214.72	46.154
215.09	162.500
215.47	88.889
215.84	700.000
216.22	-150.000
216.59	-700.000
216.97	700.000
217.34	111.111
217.72	0.000
218.09	233.333
218.47	-1100.000
218.84	-71.429
219.22	37.500
219.59	-300.000
219.97	-150.000
220.34	-37.500
220.72	-320.000
221.09	0.000
221.47	-133.333
221.84	-600.000
222.22	0.000
222.59	200.000
222.97	-100.000
223.34	16.667
223.72	-400.000
224.09	-500.000
224.46	-18.182
224.84	-112.500
225.21	-171.429
225.59	-250.000
225.96	33.333
226.34	-20.000
226.71	-200.000
227.08	550.000
227.46	-37.500
227.83	-800.000
228.21	-18.750
228.58	-375.000
228.95	-29.412
229.33	31.250
229.70	0.000
230.08	-7.692
230.45	62.500
230.82	-25.000
231.20	185.714
231.57	-50.000
231.95	800.000
232.32	8.333
232.69	-35.294
233.07	-900.000
233.44	17.391
233.81	50.000
234.19	50.000
234.56	-73.333
234.93	-13.333
235.31	47.368
235.68	0.000
236.05	-15.385
236.43	33.333
236.80	6.061
237.17	-26.667
237.55	-41.176
237.92	3.448
238.29	-18.519
238.67	30.556
239.04	45.161
239.41	34.043
239.79	70.213
240.16	41.860
240.53	46.429
240.91	32.143
241.28	48.214
241.65	53.226
242.02	38.158
242.40	50.725
242.77	40.580
243.14	39.744
243.51	29.787
243.89	43.269
244.26	58.491
244.63	43.269
245.00	51.042
245.38	46.218
245.75	49.180
246.12	38.346
246.49	30.894
246.87	46.218
247.24	49.324
247.61	50.331
247.98	46.795
248.36	48.521
248.73	39.888
249.10	49.495
249.47	43.011
249.84	49.474
250.22	41.791
250.59	42.523
250.96	54.091
251.33	45.933
251.70	50.209
252.08	46.025
252.45	47.325
252.82	46.388
253.19	49.027
253.56	45.683
253.94	46.975
254.31	46.479
254.68	49.329
255.05	48.845
255.42	50.350
255.79	52.147
256.16	49.842
256.54	51.429
256.91	45.886
257.28	49.057
257.65	48.089
258.02	48.680
258.39	48.246
258.76	47.384
259.14	49.716
259.51	47.472
259.88	49.051
260.25	52.778
260.62	49.438
260.99	48.806
261.36	47.668
261.73	49.383
262.10	51.145
262.47	47.407
262.85	46.766
263.22	50.769
263.59	51.429
263.96	49.148
264.33	48.317
264.70	48.140
265.07	50.926
265.44	51.954
265.81	48.284
266.18	51.253
266.55	48.690
266.92	48.729
267.29	50.000
267.66	50.743
268.03	52.263
268.40	46.610
268.77	47.314
269.14	50.408
269.51	51.745
269.88	47.251
270.25	51.059
270.62	51.434
270.99	49.803
271.36	48.214
271.73	51.406
272.10	48.952
272.47	46.833
272.84	50.000
273.21	49.902
273.58	51.434
273.95	47.170
274.32	49.067
274.69	49.362
275.06	49.293
275.43	48.023
275.80	47.695
276.17	47.145
276.54	44.938
276.91	47.735
277.28	48.195
277.65	48.951
278.02	49.464
278.39	49.911
278.76	45.652
279.13	48.027
279.50	47.241
279.87	46.920
280.23	50.450
280.60	47.924
280.97	46.429
281.34	47.634
281.71	44.878
282.08	48.718
282.45	47.705
282.82	46.965
283.19	47.713
283.56	47.187
283.92	47.095
284.29	47.270
284.66	47.776
285.03	46.580
285.40	47.130
285.77	46.396
286.14	45.897
286.51	47.976
286.87	44.923
287.24	45.133
287.61	45.030
287.98	47.206
288.35	44.560
288.72	45.481
289.08	44.302
289.45	43.172
289.82	45.083
290.19	42.076
290.56	41.335
290.93	42.127
291.29	43.639
291.66	42.213
292.03	44.823
292.40	42.127
292.77	43.507
293.13	41.283
293.50	41.830
293.87	41.600
294.24	40.741
294.60	40.962
294.97	40.608
295.34	37.863
295.71	39.685
296.08	39.529
296.44	40.689
296.81	38.733
297.18	38.750
297.55	36.675
297.91	39.752
298.28	36.925
298.65	37.931
299.02	39.194
299.38	39.264
299.75	36.779
300.12	36.279
300.48	37.427
300.85	37.644
301.22	37.747
301.59	36.385
301.95	36.934
302.32	36.756
302.69	36.158
303.05	36.434
303.42	38.409
303.79	35.331
304.15	36.692
304.52	36.882
304.89	36.213
305.25	33.370
305.62	35.249
305.99	36.888
306.35	35.110
306.72	34.791
307.09	36.288
307.45	34.292
307.82	36.000
308.19	35.214
308.55	34.596
308.92	35.756
309.29	34.635
309.65	34.066
310.02	33.400
310.38	35.061
310.75	34.517
311.12	34.014
311.48	34.322
311.85	35.039
312.22	34.429
312.58	33.913
312.95	34.826
313.31	33.058
313.68	34.065
314.05	36.767
314.41	36.023
314.78	35.389
315.14	33.889
315.51	34.539
315.87	33.179
316.24	33.425
316.61	35.068
316.97	34.444
317.34	32.620
317.70	34.523
318.07	34.073
318.43	34.056
318.80	32.286
319.16	32.891
319.53	33.602
319.89	31.527
320.26	33.641
320.62	33.828
320.99	32.752
321.35	33.957
321.72	31.858
322.08	33.948
322.45	32.470
322.81	35.213
323.18	34.705
323.54	34.025
323.91	34.779
324.27	32.313
324.64	32.317
325.00	32.983
325.37	34.044
325.73	31.987
326.10	32.632
326.46	32.441
326.83	32.443
327.19	33.902
327.56	32.716
327.92	32.261
328.29	33.890
328.65	34.093
329.01	32.278
329.38	33.130
329.74	31.416
330.11	32.281
330.47	31.510
330.84	32.942
331.20	32.622
331.56	33.514
331.93	32.989
332.29	34.057
332.66	31.780
333.02	32.754
333.38	33.509
333.75	32.253
334.11	33.767
334.48	32.868
334.84	32.244
335.20	33.190
335.57	31.767
335.93	32.045
336.29	32.224
336.66	32.137
337.02	33.565
337.38	31.245
337.75	32.472
338.11	29.974
338.47	31.507
338.84	31.014
339.20	32.275
339.56	31.911
339.93	32.411
340.29	31.853
340.65	31.138
341.02	31.531
341.38	30.912
341.74	30.756
342.11	30.471
342.47	32.552
342.83	30.147
343.20	31.641
343.56	31.398
343.92	30.950
344.28	31.006
344.65	31.510
345.01	30.347
345.37	32.648
345.73	31.373
346.10	31.541
346.46	29.919
346.82	30.979
347.19	31.725
347.55	31.179
347.91	30.709
348.27	30.205
348.63	30.609
349.00	31.053
349.36	31.162
349.72	30.240
350.08	30.499
350.45	30.775
350.81	30.751
351.17	30.408
351.53	30.793
351.89	29.468
352.26	28.803
352.62	30.698
352.98	29.872
353.34	30.113
353.70	29.439
354.07	29.804
354.43	30.404
354.79	29.567
355.15	30.901
355.51	29.765
355.87	30.102
356.24	29.053
356.60	29.711
356.96	30.545
357.32	29.180
357.68	31.092
358.04	30.799
358.40	29.302
358.77	29.358
359.13	31.128
359.49	30.507
359.85	30.174
360.21	30.378
360.57	31.179
360.93	29.818
361.29	29.978
361.66	29.765
362.02	29.503
362.38	29.394
362.74	29.442
363.10	28.633
363.46	28.386
363.82	30.599
364.18	30.094
364.54	29.686
364.90	29.686
365.26	28.521
365.62	28.835
365.98	29.039
366.35	29.362
366.71	29.387
367.07	30.050
367.43	29.477
367.79	30.090
368.15	29.325
368.51	28.481
368.87	29.658
369.23	29.609
369.59	29.457
369.95	28.520
370.31	29.079
370.67	29.327
371.03	30.141
371.39	28.815
371.75	28.714
372.11	29.274
372.47	29.416
372.83	28.849
373.19	28.561
373.55	28.540
373.91	27.864
374.27	28.354
374.63	27.952
374.99	28.273
375.35	28.425
375.71	28.872
376.07	28.650
376.42	28.810
376.78	28.402
377.14	29.627
377.50	29.009
377.86	28.552
378.22	29.077
378.58	28.625
378.94	29.688
379.30	29.169
379.66	28.052
380.02	29.167
380.38	28.253
380.74	28.571
381.09	28.528
381.45	28.960
381.81	28.835
382.17	28.166
382.53	28.615
382.89	28.106
383.25	28.148
383.61	27.966
383.97	29.250
384.32	27.410
384.68	27.205
385.04	28.345
385.40	28.829
385.76	28.589
386.12	29.438
386.48	28.150
386.83	28.160
387.19	27.637
387.55	28.571
387.91	28.782
388.27	27.805
388.62	28.277
388.98	28.536
389.34	27.694
389.70	28.022
390.06	27.813
390.42	29.768
390.77	28.059
391.13	27.715
391.49	27.957
391.85	27.987
392.20	27.381
392.56	28.381
392.92	27.853
393.28	28.181
393.64	28.196
393.99	27.785
394.35	27.469
394.71	28.718
395.07	27.044
395.42	28.032
395.78	27.284
396.14	28.408
396.50	28.725
396.85	29.063
397.21	27.965
397.57	27.081
397.92	27.425
398.28	27.524
398.64	27.505
399.00	27.790
399.35	29.058
399.71	28.422
400.07	28.614
400.42	28.213
400.78	28.157
401.14	27.345
401.49	27.741
401.85	27.641
402.21	27.740
402.57	27.774
402.92	27.785
403.28	27.705
403.63	27.526
403.99	28.279
404.35	27.057
404.70	26.405
405.06	27.892
405.42	27.136
405.77	27.477
406.13	27.714
406.49	27.801
406.84	28.022
407.20	26.880
407.55	27.987
407.91	27.531
408.27	27.573
408.62	27.317
408.98	27.682
409.34	27.475
409.69	28.915
410.05	27.425
410.40	27.206
410.76	27.677
411.11	28.109
411.47	28.003
411.83	27.137
412.18	27.645
412.54	27.444
412.89	27.649
413.25	26.726
413.60	27.900
413.96	27.403
414.31	27.435
414.67	27.238
415.03	28.349
415.38	27.279
415.74	27.160
416.09	27.495
416.45	27.273
416.80	27.651
417.16	28.205
417.51	27.595
417.87	27.646
418.22	27.214
418.58	27.792
418.93	27.244
419.29	28.053
419.64	28.308
420.00	27.937
420.35	27.256
420.71	26.630
421.06	27.737
421.42	27.433
421.77	27.110
422.12	28.080
422.48	27.208
422.83	27.939
423.19	26.912
423.54	27.091
423.90	26.900
424.25	26.805
424.61	27.665
424.96	27.794
425.31	26.865
425.67	28.160
426.02	28.033
426.38	27.425
426.73	25.840
427.09	27.142
427.44	26.718
427.79	27.078
428.15	27.095
428.50	26.042
428.85	28.106
429.21	26.730
429.56	27.683
429.92	27.746
430.27	27.301
430.62	27.125
430.98	27.604
431.33	27.297
431.68	28.062
432.04	28.563
432.39	27.425
432.74	26.671
433.10	27.891
433.45	26.391
433.80	25.690
434.16	26.434
434.51	27.554
434.86	27.326
435.22	26.429
435.57	27.703
435.92	28.227
436.28	27.207
436.63	26.270
436.98	27.732
437.34	27.900
437.69	26.682
438.04	26.372
438.39	27.397
438.75	27.533
439.10	26.721
439.45	26.634
439.81	27.771
440.16	27.072
440.51	27.527
440.86	27.267
441.22	27.424
441.57	28.091
441.92	26.698
442.27	26.623
442.63	27.126
442.98	27.662
443.33	27.314
443.68	26.885
444.03	27.819
444.39	27.665
444.74	27.333
445.09	26.872
445.44	26.817
445.79	26.846
446.15	27.011
446.50	27.313
446.85	27.900
447.20	27.130
447.55	27.588
447.91	27.079
448.26	27.616
448.61	26.812
448.96	26.879
449.31	26.956
449.66	27.415
450.02	28.084
450.37	27.438
450.72	26.751
451.07	27.586
451.42	26.575
451.77	27.389
452.12	26.619
452.47	27.243
452.83	27.182
453.18	26.735
453.53	26.608
453.88	26.747
454.23	27.379
454.58	26.838
454.93	26.940
455.28	26.718
455.63	26.263
455.98	26.963
456.34	25.874
456.69	27.284
457.04	26.316
457.39	26.939
457.74	26.092
458.09	26.540
458.44	26.616
458.79	25.151
459.14	26.236
459.49	27.439
459.84	26.776
460.19	27.011
460.54	26.277
460.89	26.745
461.24	26.326
461.59	27.355
461.94	27.686
462.29	26.532
462.64	27.045
462.99	27.297
463.34	27.624
463.69	27.062
464.04	26.291
464.39	26.602
464.74	26.597
465.09	26.162
465.44	26.599
465.79	27.487
466.14	26.112
466.49	27.214
466.84	27.555
467.19	26.242
467.54	27.609
467.89	27.278
468.24	27.597
468.59	26.896
468.94	26.245
469.29	26.371
469.64	26.918
469.99	26.759
470.34	26.433
470.68	26.097
471.03	25.599
471.38	26.912
471.73	26.132
472.08	26.598
472.43	25.462
472.78	27.181
473.13	25.858
473.48	25.701
473.83	26.365
474.17	25.977
474.52	26.084
474.87	25.513
475.22	26.570
475.57	26.213
475.92	25.573
476.27	27.273
476.61	26.104
476.96	25.985
477.31	25.728
477.66	26.893
478.01	25.000
478.36	26.594
478.70	26.262
479.05	26.415
479.40	25.897
479.75	26.142
480.10	25.854
480.45	26.042
480.79	26.182
481.14	26.342
481.49	26.788
481.84	25.825
482.19	25.660
482.53	25.667
482.88	26.750
483.23	25.553
483.58	26.087
483.92	25.924
484.27	25.984
484.62	26.010
484.97	26.255
485.31	26.436
485.66	25.408
486.01	25.808
486.36	26.505
486.70	27.799
487.05	27.423
487.40	27.824
487.75	28.137
488.09	27.713
488.44	27.690
488.79	28.009
489.13	26.918
489.48	26.721
489.83	26.217
490.17	25.783
490.52	26.928
490.87	25.545
491.22	26.095
491.56	26.977
491.91	26.068
492.26	26.112
492.60	26.118
492.95	25.753
493.30	26.017
493.64	25.228
493.99	25.942
494.34	25.819
494.68	26.683
495.03	26.186
495.37	25.839
495.72	25.865
496.07	26.011
496.41	25.222
496.76	26.645
497.11	26.103
497.45	26.119
497.80	26.300
498.14	26.851
498.49	25.164
498.84	25.607
499.18	25.585
499.53	25.751
499.87	24.745
500.22	25.983
500.56	25.928
500.91	26.258
501.26	26.010
501.60	25.392
501.95	25.970
502.29	26.019
502.64	26.615
502.98	25.578
503.33	25.450
503.67	25.511
504.02	25.588
504.36	25.854
504.71	24.848
505.06	26.592
505.40	25.825
505.75	26.501
506.09	26.622
506.44	25.554
506.78	25.444
507.13	26.091
507.47	25.822
507.82	25.432
508.16	26.332
508.51	25.620
508.85	25.402
509.19	25.450
509.54	24.879
509.88	25.376
510.23	26.474
510.57	26.112
510.92	26.131
511.26	26.128
511.61	24.973
511.95	24.862
512.30	25.153
512.64	26.504
512.98	24.765
513.33	25.183
513.67	26.122
514.02	25.941
514.36	25.169
514.70	25.115
515.05	25.395
515.39	25.177
515.74	24.808
516.08	24.248
516.42	25.173
516.77	24.780
517.11	24.633
517.46	26.050
517.80	25.605
518.14	24.495
518.49	24.593
518.83	24.523
519.17	24.458
519.52	25.392
519.86	25.744
520.20	24.378
520.55	25.000
520.89	24.415
521.23	25.513
521.58	25.411
521.92	24.450
522.26	24.854
522.61	24.822
522.95	25.065
523.29	24.825
523.64	24.793
523.98	25.349
524.32	24.953
524.66	24.675
525.01	26.212
525.35	24.885
525.69	25.514
526.04	25.342
526.38	24.602
526.72	24.918
527.06	24.307
527.41	24.884
527.75	24.566
528.09	26.140
528.43	25.645
528.78	25.452
529.12	25.226
529.46	25.208
529.80	24.401
530.15	24.775
530.49	27.224
530.83	25.254
531.17	24.932
531.51	24.477
531.86	25.136
532.20	25.086
532.54	25.172
532.88	25.323
533.22	25.724
533.57	25.033
533.91	26.516
534.25	25.716
534.59	25.290
534.93	24.745
535.27	26.242
535.62	24.934
535.96	25.960
536.30	25.798
536.64	24.402
536.98	24.597
537.32	25.623
537.66	25.247
538.01	25.243
538.35	24.724
538.69	24.348
539.03	24.698
539.37	24.279
539.71	24.693
540.05	23.549
540.39	24.845
540.73	25.349
541.07	24.898
541.42	24.579
541.76	25.304
542.10	24.712
542.44	25.225
542.78	24.358
543.12	25.270
543.46	25.155
543.80	24.440
544.14	25.740
544.48	25.216
544.82	24.748
545.16	24.611
545.50	25.523
545.84	25.175
546.18	24.755
546.52	25.406
546.86	24.452
547.20	24.017
547.54	25.232
547.88	24.966
548.22	25.016
548.56	24.416
548.90	24.763
549.24	25.139
549.58	25.196
549.92	25.532
550.26	26.125
550.60	25.225
550.94	25.224
551.28	23.921
551.62	24.586
551.96	24.524
552.30	24.381
552.64	24.576
552.98	25.284
553.32	25.451
553.66	25.238
554.00	24.550
554.34	24.029
554.68	24.459
555.02	24.551
555.36	24.054
555.69	24.690
556.03	24.732
556.37	25.178
556.71	24.247
557.05	24.354
557.39	24.039
557.73	25.643
558.07	23.888
558.41	25.435
558.75	24.788
559.08	23.416
559.42	25.649
559.76	24.694
560.10	24.904
560.44	24.097
560.78	24.317
561.12	24.597
561.45	24.694
561.79	24.484
562.13	25.246
562.47	25.143
562.81	24.675
563.15	23.159
563.48	24.708
563.82	25.034
564.16	24.712
564.50	25.305
564.84	25.405
565.17	25.232
565.51	24.933
565.85	23.518
566.19	25.960
566.52	24.377
566.86	24.779
567.20	25.718
567.54	25.101
567.88	25.308
568.21	24.606
568.55	26.082
568.89	24.925
569.23	25.298
569.56	25.282
569.90	25.767
570.24	25.235
570.57	26.407
570.91	26.198
571.25	26.306
571.59	26.188
571.92	26.225
572.26	25.928
572.60	26.794
572.93	26.523
573.27	26.572
573.61	26.231
573.95	26.970
574.28	26.527
574.62	25.994
574.96	26.427
575.29	26.981
575.63	26.686
575.97	26.413
576.30	26.459
576.64	26.513
576.98	26.413
577.31	26.115
577.65	26.088
577.98	26.133
578.32	26.073
578.66	26.859
578.99	27.136
579.33	26.787
579.67	26.986
580.00	26.932
580.34	26.539
580.67	26.948
581.01	26.399
581.35	26.278
581.68	25.913
582.02	26.396
582.35	27.122
582.69	26.667
583.02	26.935
583.36	27.114
583.70	27.431
584.03	27.312
584.37	26.967
584.70	26.711
585.04	26.962
585.37	26.197
585.71	26.411
586.04	26.241
586.38	26.493
586.72	26.300
587.05	26.706
587.39	26.554
587.72	26.489
588.06	26.676
588.39	26.700
588.73	26.715
589.06	26.156
589.40	26.832
589.73	25.835
590.07	26.978
590.40	26.429
590.73	27.026
591.07	26.870
591.40	26.348
591.74	26.945
592.07	26.518
592.41	25.397
592.74	25.849
593.08	25.402
593.41	25.787
593.75	25.872
594.08	25.941
594.41	26.179
594.75	26.012
595.08	26.363
595.42	25.913
595.75	26.103
596.09	26.559
596.42	26.348
596.75	26.371
597.09	26.206
597.42	26.110
597.75	25.556
598.09	26.366
598.42	25.906
598.76	25.777
599.09	26.691
599.42	26.095
599.76	25.986
600.09	25.979
600.42	26.554
600.76	26.534
601.09	25.951
601.42	25.872
601.76	26.216
602.09	26.834
602.42	26.744
602.76	25.881
603.09	26.612
603.42	26.669
603.76	25.409
604.09	25.889
604.42	25.743
604.76	26.146
605.09	26.280
605.42	26.586
605.75	25.225
606.09	25.166
606.42	25.935
606.75	25.801
607.09	26.241
607.42	25.876
607.75	24.333
608.08	26.736
608.42	25.961
608.75	26.039
609.08	26.164
609.41	26.428
609.75	25.567
610.08	25.542
610.41	26.774
610.74	26.323
611.07	25.701
611.41	26.817
611.74	25.880
612.07	26.055
612.40	25.081
612.73	25.521
613.07	25.499
613.40	26.156
613.73	25.677
614.06	25.041
614.39	25.236
614.72	26.097
615.06	25.722
615.39	25.166
615.72	24.622
616.05	25.225
616.38	25.143
616.71	25.435
617.05	25.737
617.38	24.646
617.71	25.674
618.04	24.619
618.37	25.300
618.70	24.968
619.03	25.086
619.36	25.338
619.69	25.146
620.03	25.018
620.36	23.730
620.69	23.769
621.02	24.231
621.35	23.140
621.68	24.776
622.01	24.434
622.34	23.711
622.67	25.998
623.00	25.684
623.33	25.729
623.66	24.312
623.99	25.056
624.32	23.991
624.65	24.036
624.99	24.908
625.32	25.467
625.65	23.953
625.98	24.487
626.31	25.388
626.64	24.248
626.97	25.519
627.30	24.551
627.63	22.491
627.96	23.723
628.29	24.651
628.62	23.404
628.95	23.246
629.28	22.956
629.61	23.541
629.94	24.275
630.26	24.335
630.59	23.177
630.92	23.695
631.25	23.378
631.58	23.769
631.91	22.694
632.24	22.613
632.57	22.000
632.90	23.921
