SpectraSuite Data File
++++++++++++++++++++++++++++++++++++
Date: Wed May 13 21:33:36 PDT 2015
User: schluterlab
Dark Spectrum Present: Yes
Reference Spectrum Present: Yes
Number of Sampled Component Spectra: 1
Spectrometers: USB2E3373
Integration Time (usec): 3000 (USB2E3373)
Spectra Averaged: 3 (USB2E3373)
Boxcar Smoothing: 0 (USB2E3373)
Correct for Electrical Dark: No (USB2E3373)
Strobe/Lamp Enabled: No (USB2E3373)
Correct for Detector Non-linearity: No (USB2E3373)
Correct for Stray Light: No (USB2E3373)
Number of Pixels in Processed Spectrum: 2048
>>>>>Begin Processed Spectral Data<<<<<
178.53	0.000
178.91	700.000
179.29	191.667
179.67	-650.000
180.04	-166.667
180.42	420.000
180.80	1800.000
181.18	316.667
181.56	-500.000
181.94	-375.000
182.31	-72.727
182.69	176.923
183.07	-100.000
183.45	316.667
183.83	166.667
184.20	157.143
184.58	-100.000
184.96	400.000
185.34	157.143
185.72	0.000
186.09	-1300.000
186.47	-340.000
186.85	200.000
187.23	-550.000
187.61	650.000
187.98	1000.000
188.36	-37.500
188.74	0.000
189.12	-9.091
189.49	10.000
189.87	108.333
190.25	400.000
190.63	800.000
191.00	-240.000
191.38	220.000
191.76	425.000
192.14	158.333
192.51	15.789
192.89	566.667
193.27	375.000
193.65	-240.000
194.02	163.636
194.40	170.000
194.78	-900.000
195.15	320.000
195.53	-120.000
195.91	-112.500
196.29	-266.667
196.66	0.000
197.04	700.000
197.42	-100.000
197.79	20.000
198.17	-112.500
198.55	-366.667
198.92	425.000
199.30	-533.333
199.68	-30.000
200.05	850.000
200.43	100.000
200.81	-2000.000
201.18	-260.000
201.56	-183.333
201.94	800.000
202.31	-43.478
202.69	-85.714
203.07	-533.333
203.44	-100.000
203.82	-600.000
204.19	-80.000
204.57	0.000
204.95	-283.333
205.32	0.000
205.70	-500.000
206.08	-225.000
206.45	-266.667
206.83	200.000
207.20	-100.000
207.58	-20.000
207.96	-1800.000
208.33	-114.286
208.71	-2400.000
209.08	275.000
209.46	400.000
209.84	0.000
210.21	140.000
210.59	3400.000
210.96	440.000
211.34	1000.000
211.71	-1050.000
212.09	-250.000
212.46	-190.000
212.84	-66.667
213.22	-100.000
213.59	-1000.000
213.97	-750.000
214.34	-1150.000
214.72	-84.615
215.09	225.000
215.47	266.667
215.84	950.000
216.22	-75.000
216.59	-250.000
216.97	500.000
217.34	166.667
217.72	0.000
218.09	366.667
218.47	-600.000
218.84	-257.143
219.22	-200.000
219.59	-433.333
219.97	-300.000
220.34	-125.000
220.72	-100.000
221.09	0.000
221.47	-133.333
221.84	-200.000
222.22	0.000
222.59	2500.000
222.97	-533.333
223.34	-133.333
223.72	-1300.000
224.09	-850.000
224.46	-163.636
224.84	-62.500
225.21	-271.429
225.59	-550.000
225.96	-150.000
226.34	-60.000
226.71	-257.143
227.08	450.000
227.46	-175.000
227.83	-1400.000
228.21	-37.500
228.58	-375.000
228.95	-11.765
229.33	-37.500
229.70	-62.500
230.08	-23.077
230.45	-75.000
230.82	-58.333
231.20	271.429
231.57	-575.000
231.95	1100.000
232.32	25.000
232.69	-70.588
233.07	-1800.000
233.44	-56.522
233.81	-550.000
234.19	-33.333
234.56	-113.333
234.93	-93.333
235.31	-15.789
235.68	-153.846
236.05	-38.462
236.43	-44.444
236.80	6.061
237.17	-93.333
237.55	-82.353
237.92	-62.069
238.29	-77.778
238.67	-25.000
239.04	-29.032
239.41	-29.787
239.79	-19.149
240.16	-2.326
240.53	-19.643
240.91	7.143
241.28	-5.357
241.65	-17.742
242.02	-5.263
242.40	10.145
242.77	-15.942
243.14	-3.846
243.51	6.383
243.89	0.000
244.26	9.434
244.63	-4.808
245.00	0.000
245.38	5.882
245.75	4.098
246.12	-1.504
246.49	-6.504
246.87	-10.924
247.24	8.784
247.61	1.325
247.98	5.128
248.36	-3.550
248.73	-2.809
249.10	1.515
249.47	-3.226
249.84	-0.526
250.22	2.488
250.59	3.271
250.96	7.273
251.33	-5.742
251.70	10.460
252.08	4.184
252.45	6.996
252.82	7.985
253.19	2.335
253.56	2.518
253.94	6.406
254.31	3.873
254.68	3.691
255.05	3.960
255.42	2.448
255.79	5.215
256.16	4.101
256.54	3.175
256.91	1.582
257.28	6.918
257.65	1.592
258.02	6.158
258.39	2.924
258.76	2.616
259.14	6.818
259.51	5.337
259.88	6.233
260.25	4.167
260.62	3.652
260.99	7.958
261.36	8.031
261.73	5.185
262.10	6.870
262.47	5.679
262.85	3.731
263.22	6.667
263.59	5.455
263.96	4.866
264.33	4.327
264.70	5.581
265.07	4.630
265.44	8.966
265.81	5.721
266.18	7.745
266.55	3.275
266.92	6.144
267.29	4.527
267.66	6.794
268.03	5.556
268.40	2.542
268.77	6.198
269.14	6.531
269.51	8.008
269.88	3.870
270.25	6.780
270.62	4.508
270.99	7.087
271.36	7.540
271.73	6.627
272.10	7.429
272.47	6.142
272.84	7.087
273.21	6.067
273.58	6.557
273.95	6.038
274.32	6.530
274.69	4.372
275.06	6.360
275.43	5.273
275.80	5.674
276.17	6.998
276.54	5.684
276.91	5.052
277.28	4.874
277.65	5.769
278.02	7.857
278.39	4.973
278.76	6.856
279.13	4.803
279.50	3.448
279.87	4.710
280.23	5.946
280.60	6.228
280.97	6.331
281.34	6.151
281.71	4.715
282.08	5.470
282.45	5.738
282.82	5.272
283.19	6.250
283.56	5.625
283.92	5.046
284.29	6.708
284.66	5.107
285.03	4.235
285.40	3.776
285.77	6.456
286.14	5.775
286.51	6.747
286.87	4.769
287.24	6.047
287.61	5.572
287.98	6.471
288.35	4.173
288.72	6.887
289.08	7.550
289.45	4.993
289.82	5.144
290.19	5.610
290.56	4.545
290.93	5.663
291.29	5.882
291.66	5.191
292.03	5.177
292.40	5.653
292.77	6.158
293.13	6.695
293.50	5.229
293.87	7.200
294.24	5.159
294.60	6.242
294.97	7.011
295.34	3.958
295.71	3.942
296.08	4.843
296.44	4.464
296.81	3.776
297.18	5.750
297.55	5.425
297.91	4.845
298.28	6.901
298.65	4.433
299.02	7.570
299.38	3.926
299.75	5.889
300.12	3.721
300.48	3.743
300.85	4.619
301.22	5.343
301.59	4.577
301.95	4.181
302.32	6.184
302.69	3.164
303.05	5.094
303.42	5.909
303.79	6.204
304.15	4.272
304.52	7.097
304.89	4.983
305.25	3.183
305.62	5.206
305.99	5.114
306.35	6.897
306.72	5.799
307.09	4.067
307.45	5.112
307.82	4.632
308.19	3.866
308.55	4.913
308.92	5.894
309.29	3.904
309.65	4.196
310.02	5.169
310.38	6.098
310.75	4.241
311.12	5.539
311.48	4.649
311.85	4.626
312.22	5.899
312.58	4.831
312.95	5.373
313.31	5.693
313.68	5.534
314.05	5.766
314.41	5.476
314.78	5.977
315.14	5.648
315.51	6.185
315.87	5.283
316.24	5.142
316.61	6.667
316.97	5.833
317.34	5.793
317.70	7.226
318.07	6.744
318.43	6.143
318.80	5.148
319.16	5.924
319.53	6.093
319.89	7.227
320.26	7.024
320.62	6.858
320.99	6.589
321.35	5.987
321.72	6.449
322.08	7.934
322.45	8.418
322.81	8.410
323.18	8.050
323.54	8.032
323.91	8.672
324.27	8.101
324.64	7.666
325.00	8.574
325.37	8.532
325.73	7.997
326.10	8.999
326.46	10.201
326.83	9.223
327.19	10.325
327.56	10.798
327.92	9.332
328.29	11.269
328.65	10.868
329.01	9.763
329.38	11.652
329.74	10.987
330.11	9.919
330.47	10.764
330.84	11.643
331.20	11.699
331.56	11.232
331.93	11.714
332.29	12.337
332.66	11.271
333.02	12.772
333.38	11.754
333.75	11.775
334.11	11.285
334.48	12.380
334.84	11.484
335.20	11.921
335.57	11.140
335.93	12.113
336.29	12.609
336.66	11.880
337.02	11.739
337.38	12.359
337.75	12.575
338.11	11.016
338.47	12.671
338.84	12.371
339.20	11.728
339.56	13.140
339.93	12.100
340.29	12.212
340.65	13.345
341.02	11.897
341.38	12.669
341.74	12.269
342.11	12.386
342.47	13.222
342.83	11.846
343.20	11.929
343.56	13.328
343.92	12.266
344.28	12.581
344.65	13.469
345.01	12.672
345.37	13.076
345.73	14.624
346.10	12.279
346.46	13.415
346.82	12.520
347.19	12.342
347.55	13.086
347.91	13.172
348.27	13.565
348.63	13.381
349.00	12.186
349.36	13.030
349.72	13.070
350.08	11.856
350.45	12.373
350.81	12.754
351.17	14.165
351.53	11.705
351.89	12.153
352.26	12.124
352.62	12.636
352.98	12.780
353.34	11.916
353.70	13.240
354.07	13.333
354.43	12.753
354.79	12.901
355.15	13.043
355.51	13.136
355.87	12.744
356.24	11.396
356.60	13.135
356.96	14.045
357.32	12.616
357.68	12.223
358.04	13.111
358.40	12.558
358.77	13.685
359.13	11.907
359.49	13.323
359.85	13.950
360.21	13.030
360.57	12.319
360.93	12.747
361.29	13.768
361.66	12.832
362.02	13.047
362.38	13.442
362.74	13.125
363.10	13.232
363.46	12.104
363.82	14.486
364.18	12.545
364.54	13.931
364.90	12.334
365.26	13.234
365.62	12.997
365.98	12.598
366.35	14.255
366.71	12.767
367.07	12.473
367.43	13.519
367.79	13.899
368.15	13.361
368.51	13.572
368.87	13.608
369.23	13.808
369.59	13.672
369.95	12.700
370.31	14.296
370.67	12.672
371.03	13.734
371.39	14.123
371.75	14.429
372.11	14.815
372.47	14.131
372.83	13.939
373.19	13.885
373.55	13.367
373.91	13.366
374.27	12.932
374.63	15.292
374.99	14.136
375.35	14.041
375.71	13.791
376.07	14.325
376.42	14.505
376.78	13.937
377.14	15.390
377.50	14.146
377.86	14.077
378.22	14.033
378.58	14.502
378.94	14.687
379.30	14.304
379.66	14.735
380.02	14.522
380.38	14.639
380.74	15.601
381.09	14.113
381.45	14.752
381.81	14.233
382.17	14.430
382.53	15.077
382.89	14.053
383.25	14.691
383.61	15.375
383.97	15.812
384.32	14.178
384.68	14.374
385.04	14.050
385.40	15.068
385.76	15.450
386.12	14.913
386.48	14.734
386.83	15.645
387.19	15.669
387.55	16.002
387.91	16.236
388.27	14.982
388.62	15.293
388.98	15.332
389.34	15.602
389.70	15.446
390.06	15.125
390.42	16.302
390.77	14.990
391.13	15.783
391.49	15.180
391.85	15.527
392.20	15.727
392.56	15.302
392.92	15.155
393.28	15.224
393.64	15.229
393.99	14.994
394.35	15.926
394.71	15.128
395.07	14.465
395.42	16.332
395.78	16.345
396.14	16.297
396.50	15.599
396.85	17.017
397.21	15.605
397.57	16.398
397.92	15.329
398.28	16.356
398.64	16.576
399.00	16.071
399.35	16.345
399.71	15.084
400.07	16.386
400.42	15.987
400.78	15.770
401.14	15.941
401.49	16.058
401.85	16.646
402.21	16.347
402.57	16.800
402.92	16.708
403.28	16.448
403.63	16.367
403.99	15.931
404.35	16.085
404.70	15.408
405.06	17.322
405.42	15.704
405.77	16.187
406.13	16.514
406.49	16.717
406.84	17.216
407.20	15.986
407.55	17.403
407.91	16.744
408.27	16.220
408.62	17.618
408.98	16.400
409.34	16.337
409.69	18.064
410.05	16.791
410.40	16.372
410.76	16.606
411.11	16.729
411.47	17.386
411.83	16.656
412.18	16.814
412.54	16.604
412.89	15.925
413.25	16.342
413.60	16.614
413.96	16.292
414.31	17.941
414.67	16.571
415.03	16.035
415.38	16.446
415.74	16.244
416.09	16.788
416.45	16.815
416.80	17.047
417.16	17.814
417.51	17.080
417.87	17.791
418.22	16.871
418.58	16.623
418.93	16.573
419.29	17.558
419.64	17.239
420.00	16.762
420.35	16.497
420.71	16.819
421.06	17.036
421.42	17.275
421.77	17.110
422.12	17.765
422.48	17.230
422.83	17.188
423.19	17.711
423.54	17.432
423.90	17.518
424.25	17.273
424.61	17.807
424.96	17.741
425.31	17.667
425.67	17.931
426.02	18.669
426.38	18.284
426.73	17.838
427.09	18.199
427.44	17.968
427.79	17.162
428.15	17.798
428.50	17.281
428.85	17.897
429.21	17.952
429.56	18.438
429.92	17.595
430.27	17.536
430.62	17.261
430.98	18.244
431.33	18.968
431.68	18.424
432.04	18.423
432.39	17.610
432.74	17.229
433.10	19.233
433.45	18.225
433.80	17.586
434.16	18.624
434.51	17.772
434.86	17.845
435.22	18.506
435.57	17.629
435.92	18.275
436.28	18.318
436.63	18.187
436.98	18.331
437.34	18.315
437.69	17.769
438.04	17.770
438.39	18.804
438.75	17.521
439.10	17.872
439.45	18.826
439.81	19.212
440.16	19.130
440.51	18.133
440.86	18.554
441.22	18.876
441.57	18.167
441.92	19.440
442.27	18.182
442.63	18.138
442.98	18.229
443.33	19.244
443.68	18.345
444.03	19.175
444.39	19.187
444.74	18.940
445.09	18.007
445.44	19.493
445.79	18.895
446.15	19.412
446.50	19.053
446.85	19.669
447.20	19.237
447.55	19.250
447.91	19.494
448.26	18.868
448.61	18.987
448.96	19.077
449.31	19.475
449.66	19.838
450.02	18.874
450.37	18.801
450.72	19.116
451.07	18.495
451.42	17.966
451.77	19.111
452.12	18.776
452.47	19.819
452.83	18.750
453.18	19.351
453.53	20.050
453.88	20.060
454.23	19.036
454.58	20.282
454.93	20.141
455.28	19.011
455.63	18.902
455.98	19.659
456.34	19.326
456.69	19.744
457.04	19.567
457.39	19.302
457.74	19.330
458.09	19.017
458.44	18.684
458.79	19.055
459.14	18.258
459.49	19.878
459.84	19.955
460.19	20.228
460.54	19.708
460.89	19.538
461.24	19.729
461.59	19.626
461.94	20.164
462.29	19.118
462.64	19.525
462.99	20.523
463.34	20.097
463.69	19.072
464.04	19.328
464.39	19.219
464.74	19.656
465.09	19.529
465.44	19.921
465.79	20.587
466.14	20.468
466.49	20.352
466.84	19.307
467.19	18.790
467.54	20.026
467.89	19.422
468.24	20.221
468.59	20.268
468.94	20.434
469.29	21.481
469.64	19.805
469.99	21.034
470.34	19.353
470.68	20.595
471.03	20.592
471.38	20.445
471.73	21.193
472.08	20.619
472.43	20.646
472.78	20.419
473.13	20.580
473.48	20.091
473.83	20.402
474.17	20.443
474.52	20.647
474.87	20.748
475.22	20.713
475.57	20.692
475.92	20.229
476.27	20.746
476.61	20.498
476.96	21.359
477.31	20.388
477.66	21.186
478.01	20.385
478.36	20.327
478.70	20.516
479.05	21.199
479.40	21.269
479.75	20.404
480.10	21.469
480.45	20.255
480.79	21.254
481.14	21.429
481.49	21.510
481.84	21.206
482.19	21.028
482.53	20.857
482.88	20.853
483.23	20.500
483.58	20.463
483.92	20.720
484.27	20.952
484.62	20.994
484.97	20.946
485.31	20.763
485.66	19.955
486.01	19.962
486.36	20.188
486.70	20.255
487.05	20.946
487.40	20.809
487.75	21.275
488.09	20.738
488.44	20.610
488.79	21.196
489.13	21.312
489.48	20.393
489.83	21.304
490.17	21.198
490.52	21.973
490.87	20.955
491.22	21.479
491.56	21.179
491.91	21.267
492.26	21.083
492.60	21.116
492.95	20.797
493.30	20.979
493.64	21.007
493.99	21.643
494.34	20.761
494.68	21.432
495.03	21.097
495.37	21.460
495.72	21.504
496.07	22.017
496.41	21.432
496.76	21.709
497.11	21.737
497.45	21.109
497.80	22.312
498.14	21.965
498.49	21.281
498.84	22.318
499.18	21.702
499.53	21.123
499.87	21.980
500.22	22.250
500.56	22.217
500.91	22.082
501.26	21.823
501.60	20.931
501.95	21.418
502.29	22.524
502.64	22.179
502.98	22.254
503.33	21.411
503.67	22.298
504.02	22.794
504.36	22.041
504.71	21.850
505.06	22.924
505.40	22.320
505.75	22.380
506.09	21.870
506.44	23.236
506.78	23.007
507.13	23.389
507.47	21.792
507.82	22.449
508.16	22.744
508.51	23.037
508.85	22.447
509.19	22.487
509.54	22.949
509.88	22.957
510.23	22.684
510.57	23.093
510.92	23.545
511.26	23.212
511.61	23.052
511.95	23.429
512.30	23.931
512.64	24.064
512.98	23.767
513.33	23.775
513.67	23.964
514.02	23.660
514.36	23.202
514.70	23.672
515.05	23.581
515.39	23.349
515.74	24.097
516.08	23.363
516.42	23.445
516.77	23.726
517.11	23.751
517.46	24.430
517.80	24.334
518.14	23.576
518.49	24.412
518.83	24.045
519.17	25.060
519.52	25.030
519.86	24.954
520.20	24.136
520.55	24.938
520.89	25.427
521.23	25.000
521.58	25.158
521.92	23.884
522.26	24.854
522.61	23.982
522.95	25.194
523.29	24.444
523.64	25.493
523.98	25.222
524.32	24.890
524.66	24.610
525.01	25.033
525.35	25.280
525.69	25.514
526.04	25.863
526.38	25.558
526.72	26.036
527.06	26.048
527.41	24.884
527.75	25.167
528.09	26.140
528.43	25.509
528.78	25.323
529.12	26.132
529.46	24.696
529.80	25.825
530.15	24.839
530.49	25.067
530.83	25.389
531.17	25.342
531.51	25.219
531.86	25.407
532.20	24.190
532.54	24.207
532.88	25.868
533.22	26.195
533.57	25.762
533.91	25.484
534.25	25.716
534.59	25.547
534.93	25.638
535.27	25.478
535.62	26.645
535.96	25.764
536.30	26.064
536.64	24.197
536.98	24.317
537.32	24.484
537.66	26.305
538.01	25.520
538.35	24.724
538.69	25.217
539.03	25.638
539.37	24.950
539.71	25.512
540.05	24.224
540.39	25.327
540.73	25.000
541.07	26.327
541.42	25.657
541.76	25.575
542.10	24.509
542.44	26.334
542.78	24.913
543.12	25.337
543.46	25.294
543.80	24.915
544.14	26.153
544.48	24.021
544.82	25.353
545.16	24.882
545.50	25.591
545.84	25.666
546.18	24.614
546.52	25.688
546.86	23.887
547.20	24.518
547.54	24.946
547.88	24.764
548.22	24.495
548.56	24.817
548.90	24.763
549.24	25.069
549.58	25.765
549.92	26.559
550.26	25.978
550.60	25.300
550.94	24.925
551.28	24.527
551.62	24.962
551.96	25.037
552.30	24.745
552.64	25.141
552.98	26.136
553.32	24.802
553.66	25.018
554.00	24.550
554.34	24.542
554.68	25.578
555.02	24.626
555.36	24.433
555.69	25.492
556.03	25.161
556.37	24.253
556.71	24.387
557.05	25.461
557.39	24.717
557.73	26.097
558.07	25.697
558.41	26.344
558.75	24.711
559.08	23.577
559.42	25.098
559.76	25.459
560.10	25.749
560.44	25.792
560.78	25.468
561.12	24.947
561.45	24.558
561.79	24.691
562.13	24.754
562.47	24.571
562.81	25.180
563.15	24.504
563.48	23.813
563.82	25.239
564.16	24.509
564.50	24.491
564.84	24.054
565.17	25.033
565.51	24.332
565.85	23.185
566.19	25.166
566.52	25.033
566.86	24.273
567.20	24.313
567.54	24.410
567.88	23.012
568.21	23.954
568.55	23.735
568.89	23.579
569.23	23.052
569.56	23.488
569.90	22.853
570.24	22.635
570.57	22.347
570.91	22.803
571.25	22.325
571.59	22.369
571.92	21.942
572.26	22.631
572.60	22.513
572.93	23.024
573.27	22.168
573.61	23.121
573.95	22.105
574.28	22.171
574.62	21.970
574.96	22.096
575.29	22.367
575.63	22.550
575.97	22.853
576.30	21.944
576.64	21.954
576.98	22.376
577.31	22.199
577.65	21.979
577.98	21.850
578.32	21.741
578.66	21.793
578.99	21.831
579.33	22.264
579.67	22.378
580.00	21.963
580.34	21.571
580.67	22.048
581.01	21.898
581.35	21.311
581.68	21.408
582.02	21.712
582.35	21.812
582.69	21.449
583.02	21.409
583.36	22.238
583.70	22.068
584.03	22.216
584.37	22.104
584.70	21.838
585.04	21.971
585.37	21.531
585.71	21.780
586.04	21.779
586.38	21.810
586.72	21.832
587.05	22.250
587.39	22.319
587.72	21.755
588.06	22.052
588.39	22.138
588.73	21.661
589.06	21.920
589.40	21.878
589.73	21.955
590.07	21.728
590.40	21.658
590.73	22.731
591.07	22.064
591.40	22.348
591.74	21.965
592.07	22.592
592.41	22.523
592.74	22.377
593.08	21.538
593.41	22.190
593.75	21.641
594.08	21.969
594.41	22.084
594.75	22.414
595.08	22.367
595.42	22.298
595.75	22.126
596.09	22.363
596.42	21.977
596.75	22.466
597.09	22.202
597.42	22.790
597.75	22.133
598.09	22.177
598.42	23.221
598.76	21.872
599.09	21.969
599.42	21.866
599.76	22.306
600.09	21.423
600.42	21.808
600.76	21.766
601.09	21.544
601.42	21.717
601.76	21.390
602.09	22.173
602.42	22.328
602.76	21.477
603.09	21.602
603.42	21.591
603.76	21.434
604.09	22.016
604.42	22.562
604.76	21.519
605.09	21.976
605.42	22.717
605.75	21.413
606.09	21.109
606.42	21.862
606.75	21.342
607.09	21.277
607.42	22.110
607.75	20.656
608.08	21.506
608.42	21.603
608.75	22.265
609.08	21.754
609.41	22.255
609.75	21.029
610.08	21.795
610.41	22.546
610.74	21.607
611.07	21.593
611.41	22.262
611.74	21.687
612.07	20.948
612.40	22.595
612.73	22.613
613.07	21.120
613.40	22.467
613.73	22.481
614.06	22.278
614.39	22.123
614.72	22.599
615.06	21.722
615.39	21.799
615.72	21.436
616.05	21.340
616.38	22.509
616.71	20.756
617.05	22.543
617.38	21.935
617.71	20.466
618.04	20.963
618.37	21.703
618.70	22.380
619.03	21.581
619.36	22.135
619.69	21.930
620.03	21.555
620.36	22.199
620.69	21.770
621.02	22.308
621.35	22.404
621.68	21.679
622.01	21.764
622.34	21.174
622.67	21.613
623.00	23.328
623.33	22.364
623.66	21.115
623.99	21.755
624.32	21.423
624.65	21.810
624.99	21.381
625.32	21.135
625.65	21.395
625.98	21.406
626.31	22.776
626.64	22.614
626.97	21.194
627.30	23.097
627.63	21.799
627.96	21.212
628.29	22.698
628.62	22.050
628.95	20.341
629.28	22.463
629.61	23.062
629.94	23.017
630.26	23.744
630.59	22.078
630.92	22.088
631.25	22.348
631.58	23.126
631.91	22.163
632.24	22.283
632.57	20.889
632.90	23.104
633.23	22.062
633.56	23.501
633.89	22.368
634.22	23.910
634.55	23.143
634.88	22.549
635.20	23.500
635.53	22.997
635.86	21.026
636.19	23.449
636.52	21.585
