SpectraSuite Data File
++++++++++++++++++++++++++++++++++++
Date: Wed May 13 21:30:37 PDT 2015
User: schluterlab
Dark Spectrum Present: Yes
Reference Spectrum Present: Yes
Number of Sampled Component Spectra: 1
Spectrometers: USB2E3373
Integration Time (usec): 3000 (USB2E3373)
Spectra Averaged: 3 (USB2E3373)
Boxcar Smoothing: 0 (USB2E3373)
Correct for Electrical Dark: No (USB2E3373)
Strobe/Lamp Enabled: No (USB2E3373)
Correct for Detector Non-linearity: No (USB2E3373)
Correct for Stray Light: No (USB2E3373)
Number of Pixels in Processed Spectrum: 2048
>>>>>Begin Processed Spectral Data<<<<<
178.53	0.000
178.91	750.000
179.29	191.667
179.67	-800.000
180.04	-400.000
180.42	140.000
180.80	1400.000
181.18	416.667
181.56	-375.000
181.94	-100.000
182.31	9.091
182.69	92.308
183.07	-200.000
183.45	333.333
183.83	211.111
184.20	171.429
184.58	-266.667
184.96	733.333
185.34	285.714
185.72	0.000
186.09	-100.000
186.47	-260.000
186.85	140.000
187.23	-50.000
187.61	800.000
187.98	900.000
188.36	-87.500
188.74	0.000
189.12	-45.455
189.49	-20.000
189.87	91.667
190.25	400.000
190.63	1800.000
191.00	-200.000
191.38	280.000
191.76	350.000
192.14	183.333
192.51	-47.368
192.89	633.333
193.27	300.000
193.65	-260.000
194.02	118.182
194.40	240.000
194.78	-1200.000
195.15	160.000
195.53	-80.000
195.91	-87.500
196.29	-666.667
196.66	0.000
197.04	150.000
197.42	-60.000
197.79	-20.000
198.17	-87.500
198.55	-266.667
198.92	75.000
199.30	-566.667
199.68	-110.000
200.05	350.000
200.43	116.667
200.81	-1600.000
201.18	-140.000
201.56	-200.000
201.94	600.000
202.31	21.739
202.69	-128.571
203.07	-300.000
203.44	-140.000
203.82	-166.667
204.19	-60.000
204.57	0.000
204.95	-233.333
205.32	0.000
205.70	-50.000
206.08	-150.000
206.45	-283.333
206.83	425.000
207.20	-333.333
207.58	-80.000
207.96	-900.000
208.33	-185.714
208.71	-1500.000
209.08	225.000
209.46	350.000
209.84	0.000
210.21	180.000
210.59	2000.000
210.96	300.000
211.34	1100.000
211.71	-850.000
212.09	-216.667
212.46	-140.000
212.84	-300.000
213.22	25.000
213.59	-1300.000
213.97	-450.000
214.34	-900.000
214.72	-76.923
215.09	187.500
215.47	66.667
215.84	850.000
216.22	-125.000
216.59	50.000
216.97	800.000
217.34	233.333
217.72	0.000
218.09	233.333
218.47	-700.000
218.84	-157.143
219.22	-112.500
219.59	-266.667
219.97	-75.000
220.34	0.000
220.72	-240.000
221.09	0.000
221.47	-150.000
221.84	-800.000
222.22	0.000
222.59	1100.000
222.97	-333.333
223.34	-125.000
223.72	-1600.000
224.09	-450.000
224.46	18.182
224.84	-112.500
225.21	-171.429
225.59	-375.000
225.96	-100.000
226.34	-110.000
226.71	-242.857
227.08	750.000
227.46	-225.000
227.83	-1000.000
228.21	-6.250
228.58	-425.000
228.95	-105.882
229.33	31.250
229.70	-137.500
230.08	-23.077
230.45	-75.000
230.82	-133.333
231.20	128.571
231.57	-550.000
231.95	900.000
232.32	0.000
232.69	-35.294
233.07	-1700.000
233.44	-30.435
233.81	-650.000
234.19	-33.333
234.56	-126.667
234.93	-80.000
235.31	-10.526
235.68	-92.308
236.05	-61.538
236.43	-55.556
236.80	-15.152
237.17	-93.333
237.55	-76.471
237.92	-58.621
238.29	-81.481
238.67	-16.667
239.04	-32.258
239.41	-21.277
239.79	17.021
240.16	-18.605
240.53	-8.929
240.91	0.000
241.28	-21.429
241.65	-17.742
242.02	-10.526
242.40	1.449
242.77	-13.043
243.14	-3.846
243.51	2.128
243.89	-5.769
244.26	7.547
244.63	-0.962
245.00	1.042
245.38	5.042
245.75	-4.098
246.12	-1.504
246.49	-14.634
246.87	-5.882
247.24	2.703
247.61	2.649
247.98	-1.282
248.36	2.367
248.73	-6.742
249.10	5.051
249.47	-1.075
249.84	1.053
250.22	5.473
250.59	0.935
250.96	2.727
251.33	-5.263
251.70	7.531
252.08	0.418
252.45	6.173
252.82	4.563
253.19	1.556
253.56	6.475
253.94	6.050
254.31	2.113
254.68	5.705
255.05	5.281
255.42	-0.350
255.79	1.534
256.16	6.625
256.54	4.762
256.91	1.582
257.28	3.459
257.65	-1.592
258.02	4.985
258.39	3.216
258.76	1.744
259.14	1.420
259.51	0.562
259.88	3.252
260.25	5.000
260.62	4.494
260.99	5.040
261.36	4.404
261.73	4.444
262.10	0.509
262.47	4.691
262.85	2.985
263.22	1.026
263.59	2.338
263.96	4.136
264.33	1.442
264.70	4.884
265.07	5.556
265.44	5.747
265.81	4.805
266.18	5.923
266.55	2.402
266.92	0.212
267.29	2.469
267.66	2.972
268.03	4.733
268.40	2.754
268.77	5.785
269.14	1.633
269.51	7.392
269.88	1.426
270.25	4.661
270.62	2.254
270.99	3.346
271.36	6.151
271.73	3.815
272.10	3.810
272.47	3.647
272.84	3.937
273.21	4.110
273.58	3.279
273.95	4.528
274.32	3.172
274.69	5.829
275.06	4.240
275.43	1.318
275.80	3.014
276.17	4.236
276.54	3.020
276.91	4.530
277.28	2.166
277.65	5.420
278.02	5.357
278.39	3.552
278.76	4.348
279.13	3.774
279.50	2.069
279.87	2.355
280.23	4.685
280.60	2.595
280.97	4.221
281.34	5.205
281.71	4.065
282.08	3.077
282.45	2.951
282.82	4.633
283.19	4.116
283.56	4.219
283.92	4.128
284.29	4.836
284.66	5.107
285.03	2.443
285.40	4.230
285.77	3.904
286.14	4.863
286.51	4.648
286.87	4.615
287.24	3.687
287.61	3.614
287.98	3.382
288.35	2.683
288.72	5.165
289.08	5.128
289.45	3.377
289.82	3.782
290.19	4.208
290.56	2.557
290.93	3.867
291.29	1.778
291.66	5.328
292.03	4.223
292.40	4.172
292.77	3.079
293.13	3.208
293.50	3.791
293.87	4.267
294.24	1.720
294.60	5.332
294.97	4.365
295.34	2.111
295.71	2.234
296.08	3.403
296.44	2.806
296.81	4.141
297.18	4.250
297.55	3.420
297.91	2.981
298.28	2.542
298.65	3.202
299.02	3.297
299.38	3.190
299.75	3.005
300.12	3.256
300.48	4.211
300.85	2.887
301.22	3.020
301.59	4.460
301.95	2.323
302.32	2.567
302.69	3.051
303.05	2.990
303.42	2.273
303.79	4.101
304.15	2.957
304.52	4.516
304.89	3.876
305.25	2.195
305.62	3.145
305.99	3.808
306.35	3.762
306.72	4.680
307.09	4.067
307.45	2.982
307.82	2.526
308.19	2.717
308.55	2.764
308.92	3.733
309.29	3.504
309.65	3.397
310.02	2.883
310.38	3.862
310.75	3.156
311.12	4.276
311.48	4.847
311.85	4.331
312.22	4.062
312.58	3.768
312.95	4.179
313.31	4.224
313.68	3.435
314.05	3.214
314.41	4.515
314.78	4.459
315.14	5.093
315.51	4.186
315.87	5.468
316.24	5.051
316.61	5.114
316.97	4.537
317.34	3.832
317.70	4.282
318.07	4.791
318.43	5.420
318.80	4.538
319.16	5.305
319.53	5.466
319.89	5.510
320.26	6.562
320.62	6.673
320.99	5.039
321.35	5.893
321.72	5.294
322.08	6.642
322.45	6.660
322.81	7.301
323.18	6.351
323.54	6.227
323.91	7.498
324.27	7.831
324.64	8.101
325.00	7.174
325.37	8.362
325.73	7.492
326.10	8.579
326.46	8.528
326.83	9.466
327.19	9.106
327.56	9.347
327.92	10.619
328.29	10.017
328.65	9.378
329.01	9.675
329.38	10.783
329.74	11.073
330.11	10.640
330.47	9.896
330.84	11.372
331.20	11.016
331.56	10.779
331.93	12.145
332.29	11.903
332.66	11.695
333.02	12.858
333.38	11.842
333.75	12.116
334.11	12.153
334.48	12.119
334.84	11.131
335.20	11.835
335.57	11.140
335.93	11.168
336.29	11.208
336.66	10.769
337.02	12.522
337.38	11.749
337.75	12.748
338.11	10.418
338.47	11.301
338.84	11.856
339.20	11.640
339.56	12.543
339.93	12.100
340.29	12.126
340.65	11.976
341.02	11.148
341.38	12.922
341.74	13.277
342.11	11.726
342.47	11.297
342.83	13.480
343.20	12.014
343.56	12.592
343.92	12.348
344.28	12.581
344.65	13.551
345.01	12.349
345.37	13.322
345.73	14.134
346.10	12.761
346.46	11.789
346.82	12.199
347.19	11.392
347.55	12.682
347.91	12.159
348.27	12.697
348.63	13.782
349.00	12.736
349.36	13.187
349.72	13.612
350.08	13.261
350.45	12.373
350.81	13.302
351.17	13.087
351.53	13.511
351.89	12.708
352.26	12.587
352.62	12.868
352.98	12.939
353.34	13.849
353.70	13.006
354.07	12.863
354.43	13.375
354.79	13.141
355.15	13.199
355.51	13.743
355.87	12.666
356.24	11.557
356.60	12.979
356.96	13.661
357.32	14.009
357.68	12.529
358.04	13.421
358.40	12.791
358.77	14.297
359.13	13.152
359.49	13.550
359.85	13.495
360.21	13.570
360.57	15.057
360.93	13.961
361.29	13.175
361.66	13.819
362.02	14.678
362.38	14.032
362.74	13.851
363.10	14.244
363.46	14.481
363.82	13.969
364.18	13.778
364.54	13.421
364.90	13.589
365.26	12.951
365.62	14.276
365.98	14.448
366.35	14.468
366.71	14.622
367.07	14.812
367.43	13.868
367.79	14.385
368.15	14.979
368.51	13.994
368.87	15.283
369.23	14.448
369.59	14.376
369.95	14.804
370.31	14.365
370.67	15.496
371.03	15.887
371.39	14.762
371.75	15.429
372.11	14.744
372.47	14.852
372.83	15.673
373.19	14.604
373.55	14.884
373.91	14.993
374.27	14.315
374.63	15.434
374.99	15.251
375.35	16.644
375.71	16.033
376.07	16.107
376.42	15.775
376.78	16.446
377.14	15.932
377.50	16.297
377.86	15.604
378.22	16.625
378.58	15.826
378.94	16.687
379.30	16.427
379.66	15.598
380.02	16.728
380.38	16.084
380.74	16.916
381.09	16.405
381.45	17.352
381.81	15.712
382.17	17.895
382.53	17.046
382.89	16.526
383.25	17.654
383.61	16.828
383.97	17.437
384.32	16.761
384.68	17.397
385.04	17.227
385.40	17.808
385.76	17.518
386.12	17.560
386.48	18.119
386.83	18.398
387.19	17.582
387.55	18.884
387.91	18.204
388.27	18.866
388.62	17.728
388.98	17.584
389.34	18.358
389.70	17.949
390.06	18.875
390.42	19.137
390.77	18.001
391.13	19.571
391.49	17.710
391.85	18.083
392.20	18.108
392.56	18.921
392.92	18.081
393.28	19.175
393.64	18.532
393.99	19.033
394.35	19.383
394.71	19.615
395.07	18.365
395.42	20.171
395.78	19.755
396.14	19.341
396.50	19.404
396.85	21.287
397.21	19.913
397.57	19.627
397.92	19.820
398.28	19.346
398.64	18.640
399.00	19.866
399.35	20.318
399.71	20.443
400.07	19.578
400.42	19.498
400.78	19.819
401.14	20.049
401.49	20.431
401.85	20.393
402.21	20.681
402.57	19.865
402.92	21.089
403.28	21.388
403.63	20.707
403.99	20.218
404.35	20.698
404.70	20.725
405.06	21.198
405.42	20.791
405.77	20.622
406.13	20.800
406.49	21.390
406.84	20.818
407.20	20.485
407.55	22.078
407.91	20.384
408.27	20.898
408.62	21.915
408.98	20.838
409.34	21.782
409.69	22.092
410.05	20.709
410.40	21.181
410.76	21.661
411.11	20.958
411.47	22.097
411.83	20.898
412.18	21.096
412.54	22.243
412.89	21.066
413.25	21.475
413.60	21.567
413.96	21.348
414.31	21.393
414.67	21.587
415.03	22.463
415.38	21.400
415.74	21.053
416.09	21.481
416.45	22.078
416.80	22.215
417.16	22.874
417.51	22.572
417.87	22.817
418.22	22.624
418.58	22.011
418.93	22.034
419.29	22.178
419.64	22.455
420.00	22.730
420.35	22.475
420.71	21.755
421.06	22.509
421.42	23.175
421.77	22.659
422.12	23.095
422.48	22.246
422.83	23.213
423.19	22.542
423.54	23.086
423.90	22.684
424.25	22.357
424.61	22.921
424.96	22.708
425.31	23.388
425.67	23.633
426.02	23.380
426.38	23.818
426.73	23.580
427.09	23.702
427.44	24.075
427.79	23.337
428.15	22.997
428.50	22.840
428.85	23.739
429.21	24.142
429.56	23.804
429.92	24.050
430.27	23.722
430.62	24.187
430.98	23.321
431.33	24.181
431.68	24.867
432.04	24.620
432.39	23.095
432.74	24.157
433.10	25.044
433.45	24.911
433.80	23.908
434.16	24.904
434.51	23.913
434.86	24.146
435.22	24.731
435.57	23.771
435.92	24.789
436.28	23.904
436.63	24.538
436.98	24.207
437.34	24.786
437.69	24.852
438.04	24.618
438.39	25.342
438.75	24.255
439.10	25.564
439.45	25.000
439.81	25.369
440.16	25.623
440.51	25.089
440.86	24.659
441.22	25.301
441.57	24.566
441.92	25.505
442.27	24.892
442.63	24.812
442.98	24.711
443.33	25.000
443.68	24.829
444.03	25.286
444.39	25.930
444.74	25.953
445.09	24.835
445.44	26.535
445.79	26.020
446.15	25.901
446.50	26.487
446.85	26.724
447.20	26.032
447.55	25.462
447.91	25.674
448.26	26.644
448.61	26.122
448.96	26.993
449.31	26.556
449.66	26.952
450.02	26.606
450.37	25.617
450.72	25.373
451.07	25.141
451.42	26.014
451.77	26.111
452.12	26.144
452.47	25.565
452.83	25.000
453.18	27.116
453.53	25.788
453.88	26.506
454.23	26.885
454.58	26.103
454.93	25.978
455.28	26.140
455.63	25.203
455.98	26.233
456.34	24.793
456.69	26.390
457.04	25.820
457.39	26.458
457.74	25.554
458.09	26.422
458.44	25.264
458.79	25.700
459.14	25.000
459.49	26.829
459.84	26.099
460.19	25.390
460.54	26.217
460.89	27.083
461.24	26.880
461.59	26.449
461.94	26.485
462.29	26.777
462.64	25.923
462.99	26.023
463.34	26.727
463.69	25.773
464.04	25.750
464.39	27.090
464.74	25.184
465.09	26.596
465.44	25.926
465.79	26.740
466.14	26.397
466.49	26.569
466.84	26.479
467.19	26.051
467.54	27.285
467.89	27.593
468.24	26.921
468.59	27.151
468.94	26.501
469.29	27.363
469.64	26.778
469.99	27.931
470.34	26.972
470.68	27.435
471.03	28.279
471.38	26.426
471.73	27.846
472.08	27.698
472.43	28.034
472.78	28.127
473.13	26.121
473.48	26.549
473.83	28.186
474.17	27.148
474.52	27.702
474.87	27.744
475.22	27.959
475.57	27.830
475.92	27.644
476.27	27.681
476.61	27.690
476.96	28.498
477.31	27.184
477.66	28.588
478.01	28.132
478.36	26.812
478.70	27.873
479.05	29.079
479.40	27.665
479.75	27.577
480.10	27.639
480.45	28.691
480.79	28.173
481.14	28.977
481.49	28.416
481.84	27.380
482.19	27.281
482.53	28.095
482.88	28.571
483.23	27.141
483.58	27.836
483.92	27.335
484.27	27.310
484.62	27.164
484.97	28.494
485.31	27.292
485.66	25.986
486.01	25.959
486.36	26.045
486.70	26.674
487.05	26.849
487.40	27.299
487.75	27.792
488.09	27.557
488.44	27.550
488.79	27.290
489.13	28.151
489.48	27.790
489.83	27.468
490.17	27.054
490.52	28.284
490.87	27.585
491.22	27.508
491.56	28.606
491.91	27.412
492.26	28.482
492.60	27.321
492.95	28.037
493.30	28.004
493.64	27.338
493.99	28.164
494.34	28.035
494.68	27.399
495.03	27.075
495.37	28.127
495.72	28.822
496.07	27.910
496.41	26.579
496.76	27.971
497.11	28.216
497.45	28.502
497.80	28.521
498.14	27.960
498.49	27.887
498.84	27.885
499.18	27.576
499.53	28.607
499.87	27.754
500.22	28.372
500.56	28.736
500.91	28.270
501.26	28.374
501.60	29.216
501.95	29.372
502.29	29.612
502.64	29.026
502.98	28.420
503.33	29.002
503.67	28.432
504.02	29.118
504.36	28.678
504.71	28.659
505.06	29.241
505.40	28.969
505.75	29.858
506.09	29.484
506.44	29.486
506.78	29.101
507.13	29.678
507.47	29.852
507.82	29.880
508.16	29.235
508.51	29.132
508.85	30.067
509.19	30.159
509.54	30.402
509.88	29.570
510.23	29.579
510.57	30.508
510.92	30.388
511.26	31.188
511.61	30.571
511.95	29.989
512.30	30.372
512.64	31.328
512.98	30.471
513.33	30.704
513.67	31.232
514.02	31.015
514.36	31.685
514.70	31.524
515.05	31.129
515.39	31.545
515.74	31.498
516.08	31.799
516.42	31.279
516.77	30.931
517.11	32.687
517.46	33.553
517.80	33.111
518.14	31.721
518.49	32.309
518.83	32.100
519.17	31.506
519.52	32.449
519.86	32.058
520.20	32.201
520.55	32.400
520.89	33.586
521.23	33.141
521.58	33.186
521.92	32.935
522.26	33.312
522.61	33.226
522.95	33.161
523.29	32.635
523.64	33.121
523.98	32.846
524.32	32.892
524.66	33.117
525.01	33.552
525.35	34.299
525.69	34.062
526.04	33.094
526.38	33.971
526.72	33.859
527.06	32.560
527.41	33.951
527.75	33.712
528.09	36.079
528.43	34.396
528.78	34.173
529.12	34.929
529.46	34.997
529.80	33.204
530.15	34.041
530.49	34.232
530.83	34.123
531.17	34.589
531.51	32.030
531.86	32.453
532.20	33.770
532.54	34.000
532.88	33.901
533.22	33.199
533.57	33.311
533.91	35.226
534.25	34.245
534.59	33.526
534.93	33.036
535.27	34.331
535.62	34.211
535.96	33.962
536.30	33.910
536.64	33.630
536.98	33.076
537.32	33.594
537.66	34.274
538.01	34.050
538.35	33.356
538.69	33.244
539.03	32.282
539.37	32.663
539.71	33.765
540.05	32.591
540.39	33.379
540.73	33.450
541.07	32.721
541.42	34.209
541.76	33.356
542.10	32.701
542.44	33.125
542.78	33.033
543.12	33.086
543.46	32.757
543.80	32.858
544.14	33.517
544.48	31.918
544.82	33.894
545.16	31.711
545.50	33.288
545.84	33.240
546.18	31.417
546.52	31.969
546.86	32.226
547.20	31.880
547.54	32.666
547.88	32.996
548.22	31.857
548.56	32.889
548.90	30.988
549.24	33.194
549.58	32.028
549.92	33.896
550.26	34.539
550.60	32.057
550.94	31.343
551.28	33.005
551.62	32.556
551.96	32.723
552.30	31.441
552.64	32.486
552.98	31.960
553.32	31.723
553.66	33.382
554.00	31.893
554.34	32.161
554.68	33.110
555.02	31.737
555.36	31.997
555.69	32.119
556.03	31.022
556.37	32.148
556.71	31.465
557.05	32.989
557.39	32.253
557.73	31.467
558.07	31.575
558.41	32.400
558.75	32.256
559.08	31.596
559.42	31.314
559.76	31.728
560.10	31.975
560.44	31.319
560.78	31.942
561.12	31.605
561.45	30.612
561.79	31.155
562.13	31.294
562.47	31.571
562.81	30.519
563.15	30.737
563.48	31.383
563.82	30.780
564.16	31.144
564.50	31.682
564.84	30.405
565.17	30.993
565.51	31.217
565.85	30.913
566.19	30.397
566.52	29.882
566.86	30.025
567.20	29.505
567.54	29.246
567.88	28.555
568.21	28.680
568.55	29.421
568.89	28.764
569.23	29.331
569.56	29.328
569.90	28.067
570.24	27.581
570.57	28.045
570.91	28.495
571.25	27.930
571.59	27.420
571.92	27.633
572.26	27.354
572.60	27.841
572.93	28.085
573.27	27.786
573.61	28.016
573.95	27.975
574.28	27.198
574.62	26.364
574.96	27.288
575.29	26.881
575.63	27.503
575.97	27.310
576.30	27.203
576.64	26.775
576.98	27.018
577.31	27.105
577.65	26.397
577.98	26.319
578.32	26.543
578.66	26.601
578.99	26.737
579.33	27.286
579.67	26.757
580.00	26.584
580.34	26.539
580.67	26.409
581.01	26.446
581.35	26.258
581.68	25.819
582.02	25.910
582.35	26.093
582.69	26.087
583.02	26.260
583.36	26.431
583.70	26.944
584.03	26.881
584.37	26.639
584.70	26.631
585.04	26.550
585.37	26.051
585.71	25.712
586.04	26.241
586.38	25.467
586.72	25.822
587.05	26.622
587.39	25.876
587.72	25.612
588.06	26.183
588.39	26.224
588.73	26.564
589.06	26.156
589.40	26.385
589.73	26.051
590.07	26.467
590.40	26.126
590.73	27.026
591.07	26.578
591.40	26.348
591.74	26.501
592.07	26.426
592.41	26.126
592.74	26.003
593.08	25.265
593.41	25.690
593.75	25.484
594.08	25.699
594.41	26.325
594.75	26.387
595.08	25.504
595.42	24.946
595.75	26.211
596.09	25.674
596.42	25.858
596.75	26.591
597.09	26.661
597.42	26.066
597.75	26.400
598.09	25.774
598.42	26.353
598.76	25.693
599.09	26.170
599.42	25.000
599.76	25.235
600.09	25.640
600.42	25.537
600.76	24.797
601.09	25.122
601.42	25.441
601.76	24.865
602.09	25.578
602.42	25.794
602.76	25.336
603.09	24.641
603.42	25.510
603.76	24.786
604.09	25.336
604.42	25.785
604.76	25.447
605.09	25.872
605.42	25.776
605.75	24.839
606.09	24.586
606.42	25.603
606.75	24.416
607.09	23.980
607.42	24.956
607.75	23.545
608.08	24.977
608.42	24.742
608.75	24.606
609.08	24.400
609.41	25.882
609.75	24.609
610.08	24.951
610.41	24.393
610.74	24.832
611.07	24.800
611.41	25.077
611.74	25.104
612.07	24.805
612.40	25.730
612.73	25.082
613.07	24.002
613.40	25.330
613.73	24.269
614.06	24.820
614.39	24.236
614.72	25.486
615.06	23.833
615.39	24.669
615.72	23.758
616.05	24.662
616.38	24.800
616.71	24.055
617.05	25.184
617.38	24.399
617.71	24.326
618.04	24.132
618.37	24.353
618.70	25.032
619.03	24.399
619.36	25.267
619.69	24.488
620.03	24.382
620.36	24.217
620.69	24.554
621.02	24.769
621.35	23.794
621.68	24.205
622.01	24.434
622.34	24.584
622.67	25.059
623.00	24.924
623.33	24.458
623.66	23.941
623.99	25.131
624.32	24.431
624.65	24.629
624.99	23.218
625.32	23.749
625.65	24.186
625.98	23.855
626.31	24.245
626.64	24.334
626.97	23.789
627.30	24.551
627.63	23.702
627.96	23.290
628.29	25.953
628.62	25.048
628.95	23.848
629.28	24.433
629.61	25.742
629.94	25.242
630.26	25.025
630.59	24.276
630.92	24.197
631.25	24.305
631.58	25.696
631.91	24.178
632.24	22.722
632.57	24.444
632.90	24.621
633.23	24.101
633.56	24.700
633.89	24.761
634.22	25.795
634.55	25.700
634.88	22.794
635.20	25.250
635.53	23.127
635.86	23.974
636.19	25.310
636.52	23.293
636.85	23.402
