SpectraSuite Data File
++++++++++++++++++++++++++++++++++++
Date: Wed May 13 21:13:17 PDT 2015
User: schluterlab
Dark Spectrum Present: Yes
Reference Spectrum Present: Yes
Number of Sampled Component Spectra: 1
Spectrometers: USB2E3373
Integration Time (usec): 3000 (USB2E3373)
Spectra Averaged: 3 (USB2E3373)
Boxcar Smoothing: 0 (USB2E3373)
Correct for Electrical Dark: No (USB2E3373)
Strobe/Lamp Enabled: No (USB2E3373)
Correct for Detector Non-linearity: No (USB2E3373)
Correct for Stray Light: No (USB2E3373)
Number of Pixels in Processed Spectrum: 2048
>>>>>Begin Processed Spectral Data<<<<<
178.53	0.000
178.91	150.000
179.29	225.000
179.67	-1200.000
180.04	-600.000
180.42	260.000
180.80	1600.000
181.18	300.000
181.56	-325.000
181.94	-100.000
182.31	9.091
182.69	161.538
183.07	-340.000
183.45	200.000
183.83	122.222
184.20	214.286
184.58	-200.000
184.96	433.333
185.34	214.286
185.72	0.000
186.09	-1000.000
186.47	-200.000
186.85	60.000
187.23	-500.000
187.61	650.000
187.98	1400.000
188.36	-12.500
188.74	0.000
189.12	-145.455
189.49	60.000
189.87	150.000
190.25	320.000
190.63	1400.000
191.00	-160.000
191.38	460.000
191.76	425.000
192.14	275.000
192.51	-52.632
192.89	600.000
193.27	575.000
193.65	-380.000
194.02	163.636
194.40	230.000
194.78	-1000.000
195.15	220.000
195.53	-360.000
195.91	-175.000
196.29	66.667
196.66	0.000
197.04	500.000
197.42	-140.000
197.79	-70.000
198.17	-225.000
198.55	-400.000
198.92	425.000
199.30	-433.333
199.68	-40.000
200.05	300.000
200.43	200.000
200.81	-900.000
201.18	-240.000
201.56	-116.667
201.94	500.000
202.31	-26.087
202.69	-57.143
203.07	-466.667
203.44	-260.000
203.82	-200.000
204.19	-60.000
204.57	0.000
204.95	-133.333
205.32	0.000
205.70	-200.000
206.08	-200.000
206.45	-16.667
206.83	425.000
207.20	-400.000
207.58	-40.000
207.96	-1200.000
208.33	-171.429
208.71	-2000.000
209.08	275.000
209.46	550.000
209.84	0.000
210.21	170.000
210.59	1200.000
210.96	400.000
211.34	1200.000
211.71	-650.000
212.09	-200.000
212.46	-200.000
212.84	-233.333
213.22	-50.000
213.59	-400.000
213.97	-550.000
214.34	-900.000
214.72	-38.462
215.09	162.500
215.47	277.778
215.84	1000.000
216.22	-37.500
216.59	-650.000
216.97	633.333
217.34	211.111
217.72	0.000
218.09	400.000
218.47	-200.000
218.84	-85.714
219.22	-100.000
219.59	-500.000
219.97	-375.000
220.34	-137.500
220.72	-260.000
221.09	0.000
221.47	-50.000
221.84	-800.000
222.22	0.000
222.59	1000.000
222.97	-366.667
223.34	-91.667
223.72	-2000.000
224.09	-550.000
224.46	-100.000
224.84	-25.000
225.21	-300.000
225.59	-350.000
225.96	-216.667
226.34	-100.000
226.71	-285.714
227.08	950.000
227.46	-175.000
227.83	-600.000
228.21	-25.000
228.58	-550.000
228.95	-47.059
229.33	0.000
229.70	-75.000
230.08	-46.154
230.45	-137.500
230.82	-25.000
231.20	271.429
231.57	-475.000
231.95	900.000
232.32	41.667
232.69	-47.059
233.07	-1400.000
233.44	-34.783
233.81	-850.000
234.19	-12.500
234.56	-106.667
234.93	-20.000
235.31	-10.526
235.68	-76.923
236.05	-30.769
236.43	-66.667
236.80	-6.061
237.17	-106.667
237.55	-94.118
237.92	-55.172
238.29	-74.074
238.67	-27.778
239.04	-83.871
239.41	-31.915
239.79	-4.255
240.16	-25.581
240.53	-26.786
240.91	-5.357
241.28	-23.214
241.65	-4.839
242.02	-9.211
242.40	1.449
242.77	-26.087
243.14	-8.974
243.51	-11.702
243.89	-9.615
244.26	-7.547
244.63	-16.346
245.00	-12.500
245.38	-15.966
245.75	-3.279
246.12	-10.526
246.49	-15.447
246.87	-12.605
247.24	-7.432
247.61	-7.947
247.98	-5.128
248.36	-2.367
248.73	-7.865
249.10	-3.535
249.47	-8.602
249.84	-2.105
250.22	-2.985
250.59	-3.271
250.96	-1.818
251.33	-12.440
251.70	2.092
252.08	-3.347
252.45	0.823
252.82	-3.042
253.19	-6.615
253.56	-7.194
253.94	-0.356
254.31	-2.465
254.68	1.678
255.05	-2.640
255.42	-5.944
255.79	-1.227
256.16	0.000
256.54	-6.032
256.91	-7.595
257.28	-3.459
257.65	-6.688
258.02	-3.226
258.39	-1.170
258.76	-1.744
259.14	-0.568
259.51	-1.124
259.88	-2.710
260.25	-4.444
260.62	-0.843
260.99	-1.326
261.36	0.000
261.73	-2.222
262.10	-4.835
262.47	-4.444
262.85	-1.990
263.22	-3.846
263.59	-4.156
263.96	-1.703
264.33	-5.048
264.70	-0.233
265.07	-2.546
265.44	-2.529
265.81	-1.373
266.18	-4.100
266.55	-2.183
266.92	-0.847
267.29	-2.675
267.66	-1.699
268.03	-1.029
268.40	-2.331
268.77	-0.413
269.14	0.204
269.51	0.411
269.88	-3.666
270.25	-0.847
270.62	-2.869
270.99	0.787
271.36	-1.190
271.73	-2.410
272.10	-0.952
272.47	-1.152
272.84	-1.378
273.21	-2.740
273.58	-3.689
273.95	-0.377
274.32	-1.306
274.69	-1.275
275.06	-0.707
275.43	-2.825
275.80	-1.418
276.17	-1.105
276.54	-2.309
276.91	-2.613
277.28	-3.610
277.65	-1.573
278.02	-0.179
278.39	-4.263
278.76	-0.334
279.13	-1.887
279.50	-3.103
279.87	-1.993
280.23	-3.964
280.60	-0.692
280.97	-2.435
281.34	-0.631
281.71	-1.951
282.08	-2.051
282.45	-0.820
282.82	-2.716
283.19	0.305
283.56	-1.250
283.92	-1.376
284.29	-2.028
284.66	-2.801
285.03	-3.420
285.40	-1.662
285.77	-0.300
286.14	-1.976
286.51	0.150
286.87	-2.308
287.24	-0.590
287.61	-2.108
287.98	-2.059
288.35	-2.832
288.72	-1.435
289.08	-0.855
289.45	-1.615
289.82	-2.421
290.19	-0.140
290.56	-1.847
290.93	-0.552
291.29	0.000
291.66	-0.683
292.03	-0.681
292.40	-1.480
292.77	-1.473
293.13	-1.395
293.50	-0.915
293.87	0.267
294.24	-0.397
294.60	-0.390
294.97	0.000
295.34	-2.507
295.71	-3.154
296.08	-1.440
296.44	-1.020
296.81	-1.218
297.18	-1.125
297.55	-0.708
297.91	-1.366
298.28	-1.211
298.65	-2.340
299.02	-0.733
299.38	-1.595
299.75	-0.240
300.12	-1.279
300.48	-2.105
300.85	-0.577
301.22	-2.323
301.59	-1.291
301.95	-1.974
302.32	-0.700
302.69	-2.373
303.05	-1.993
303.42	-1.477
303.79	-0.105
304.15	-1.424
304.52	-0.538
304.89	-1.883
305.25	-2.195
305.62	-1.193
305.99	-1.415
306.35	-0.731
306.72	0.509
307.09	-0.938
307.45	-0.639
307.82	-2.000
308.19	-2.612
308.55	-1.433
308.92	-0.196
309.29	-0.701
309.65	-0.500
310.02	-1.093
310.38	-0.305
310.75	-0.986
311.12	-0.486
311.48	-1.484
311.85	-1.476
312.22	0.290
312.58	-1.159
312.95	-1.791
313.31	-0.643
313.68	-0.763
314.05	-0.284
314.41	-0.576
314.78	-1.423
315.14	0.370
315.51	-0.571
315.87	-0.463
316.24	-0.643
316.61	0.000
316.97	-0.278
317.34	-0.357
317.70	-0.178
318.07	-0.089
318.43	-0.994
318.80	-0.175
319.16	-1.415
319.53	-0.896
319.89	-0.994
320.26	-0.555
320.62	-1.019
320.99	-1.453
321.35	-1.123
321.72	-1.155
322.08	0.000
322.45	0.370
322.81	0.277
323.18	-0.089
323.54	-0.903
323.91	-0.271
324.27	-0.450
324.64	-1.568
325.00	-0.962
325.37	0.256
325.73	-1.431
326.10	-0.925
326.46	-0.084
326.83	-0.162
327.19	-0.407
327.56	0.322
327.92	-0.483
328.29	0.918
328.65	0.438
329.01	-1.495
329.38	0.609
329.74	1.030
330.11	-0.721
330.47	-0.347
330.84	-0.451
331.20	0.256
331.56	-0.725
331.93	0.517
332.29	0.521
332.66	0.508
333.02	1.216
333.38	-0.088
333.75	0.171
334.11	0.087
334.48	0.087
334.84	-0.795
335.20	0.600
335.57	-0.174
335.93	0.344
336.29	-0.525
336.66	0.085
337.02	0.000
337.38	0.087
337.75	-0.517
338.11	0.769
338.47	-0.856
338.84	0.430
339.20	-0.529
339.56	-0.256
339.93	-0.432
340.29	0.256
340.65	-0.257
341.02	0.166
341.38	0.422
341.74	-0.756
342.11	0.165
342.47	-0.418
342.83	0.408
343.20	0.592
343.56	0.245
343.92	0.244
344.28	0.649
344.65	-0.245
345.01	-0.323
345.37	-0.411
345.73	0.082
346.10	0.963
346.46	0.081
346.82	0.241
347.19	0.396
347.55	-0.162
347.91	0.156
348.27	0.000
348.63	0.080
349.00	-0.629
349.36	0.392
349.72	0.773
350.08	0.156
350.45	0.626
350.81	0.939
351.17	1.155
351.53	-0.471
351.89	-0.715
352.26	-1.236
352.62	0.155
352.98	-0.319
353.34	-0.564
353.70	-0.312
354.07	0.471
354.43	-0.544
354.79	0.080
355.15	-0.466
355.51	0.304
355.87	0.391
356.24	-1.043
356.60	0.156
356.96	0.460
357.32	0.774
357.68	-0.153
358.04	0.233
358.40	0.698
358.77	0.841
359.13	-0.778
359.49	0.379
359.85	0.758
360.21	-0.463
360.57	-0.152
360.93	0.152
361.29	0.666
361.66	0.532
362.02	-0.593
362.38	-0.148
362.74	-0.725
363.10	0.506
363.46	0.000
363.82	0.370
364.18	-0.073
364.54	0.000
364.90	0.139
365.26	-0.495
365.62	-0.355
365.98	0.071
366.35	-0.638
366.71	0.143
367.07	-0.283
367.43	0.209
367.79	0.139
368.15	0.703
368.51	-0.633
368.87	-0.070
369.23	0.498
369.59	0.211
369.95	-1.016
370.31	0.349
370.67	-0.290
371.03	0.445
371.39	0.355
371.75	0.571
372.11	0.071
372.47	0.072
372.83	0.555
373.19	0.000
373.55	0.072
373.91	0.283
374.27	-0.553
374.63	-0.142
374.99	-0.209
375.35	0.616
375.71	0.000
376.07	-0.069
376.42	0.000
376.78	0.396
377.14	0.542
377.50	0.587
377.86	0.000
378.22	-0.316
378.58	0.000
378.94	0.938
379.30	-0.250
379.66	0.432
380.02	-0.306
380.38	-0.120
380.74	0.239
381.09	0.724
381.45	0.363
381.81	0.678
382.17	-0.315
382.53	-0.062
382.89	0.241
383.25	0.123
383.61	0.605
383.97	0.000
384.32	0.252
384.68	0.925
385.04	-0.305
385.40	-0.187
385.76	1.156
386.12	-0.065
386.48	0.690
386.83	0.188
387.19	-0.617
387.55	0.613
387.91	-0.677
388.27	-0.493
388.62	-0.749
388.98	-0.188
389.34	0.376
389.70	-0.122
390.06	-0.250
390.42	0.902
390.77	0.064
391.13	0.189
391.49	-0.190
391.85	-0.128
392.20	-0.627
392.56	0.127
392.92	0.468
393.28	0.232
393.64	-0.856
393.99	-0.612
394.35	0.741
394.71	0.641
395.07	-0.566
395.42	0.792
395.78	-0.193
396.14	0.444
396.50	0.000
396.85	0.956
397.21	-0.125
397.57	0.186
397.92	0.299
398.28	-0.113
398.64	0.425
399.00	0.725
399.35	0.000
399.71	0.175
400.07	0.060
400.42	-0.627
400.78	0.363
401.14	-0.245
401.49	0.300
401.85	-0.369
402.21	0.310
402.57	0.797
402.92	0.751
403.28	0.250
403.63	0.682
403.99	0.192
404.35	0.312
404.70	-0.181
405.06	0.411
405.42	0.063
405.77	0.173
406.13	0.286
406.49	-0.240
406.84	-0.549
407.20	0.118
407.55	-0.130
407.91	-0.265
408.27	-0.312
408.62	0.491
408.98	-0.247
409.34	-0.248
409.69	1.105
410.05	0.373
410.40	-0.426
410.76	0.301
411.11	-0.062
411.47	0.398
411.83	-0.686
412.18	0.441
412.54	0.877
412.89	-0.188
413.25	0.000
413.60	-0.376
413.96	0.000
414.31	-0.308
414.67	1.016
415.03	-0.203
415.38	-0.396
415.74	0.000
416.09	-0.066
416.45	0.342
416.80	0.336
417.16	0.067
417.51	0.737
417.87	-0.728
418.22	-0.776
418.58	-0.066
418.93	0.063
419.29	0.132
419.64	0.636
420.00	0.063
420.35	-0.239
420.71	0.305
421.06	0.431
421.42	0.608
421.77	0.405
422.12	0.630
422.48	-0.382
422.83	0.650
423.19	-0.230
423.54	0.000
423.90	0.594
424.25	0.116
424.61	-0.062
424.96	-0.177
425.31	0.112
425.67	0.059
426.02	0.942
426.38	0.062
426.73	-0.733
427.09	-0.375
427.44	0.587
427.79	-0.178
428.15	0.000
428.50	-0.363
428.85	0.308
429.21	0.113
429.56	0.691
429.92	0.469
430.27	0.409
430.62	0.157
430.98	0.370
431.33	-0.054
431.68	0.799
432.04	-0.169
432.39	0.115
432.74	0.000
433.10	0.232
433.45	0.533
433.80	0.172
434.16	0.546
434.51	0.217
434.86	-0.177
435.22	0.509
435.57	-0.184
435.92	0.121
436.28	0.180
436.63	0.173
436.98	-0.059
437.34	0.672
437.69	-0.177
438.04	0.566
438.39	0.062
438.75	0.179
439.10	0.116
439.45	0.000
439.81	0.123
440.16	0.812
440.51	0.238
440.86	0.711
441.22	0.402
441.57	0.922
441.92	0.207
442.27	0.541
442.63	0.054
442.98	-0.347
443.33	-0.226
443.68	0.211
444.03	-0.050
444.39	0.645
444.74	0.331
445.09	0.165
445.44	0.563
445.79	-0.465
446.15	0.666
446.50	0.716
446.85	-0.053
447.20	0.732
447.55	0.616
447.91	-0.281
448.26	0.400
448.61	0.806
448.96	0.456
449.31	0.400
449.66	0.810
450.02	0.966
450.37	0.000
450.72	0.000
451.07	0.313
451.42	0.000
451.77	0.365
452.12	0.416
452.47	0.258
452.83	0.295
453.18	0.382
453.53	0.567
453.88	0.301
454.23	-0.247
454.58	0.674
454.93	0.641
455.28	0.642
455.63	0.000
455.98	-0.061
456.34	0.127
456.69	0.447
457.04	0.619
457.39	0.000
457.74	0.000
458.09	0.533
458.44	0.411
458.79	0.988
459.14	0.562
459.49	-0.183
459.84	0.282
460.19	0.300
460.54	1.034
460.89	0.282
461.24	0.678
461.59	0.000
461.94	0.442
462.29	-0.551
462.64	0.396
462.99	1.341
463.34	0.760
463.69	0.515
464.04	0.000
464.39	-0.305
464.74	0.061
465.09	0.062
465.44	1.010
465.79	0.518
466.14	-0.114
466.49	-0.059
466.84	0.538
467.19	-0.127
467.54	0.518
467.89	0.691
468.24	-0.369
468.59	0.574
468.94	0.319
469.29	0.330
469.64	0.558
469.99	0.621
470.34	0.337
470.68	0.074
471.03	0.353
471.38	0.487
471.73	1.097
472.08	0.687
472.43	0.462
472.78	1.217
473.13	0.132
473.48	-0.391
473.83	0.439
474.17	-0.130
474.52	-0.129
474.87	0.422
475.22	0.483
475.57	0.781
475.92	0.927
476.27	-0.058
476.61	0.566
476.96	0.343
477.31	0.701
477.66	0.113
478.01	-0.385
478.36	-0.381
478.70	0.322
479.05	1.054
479.40	0.884
479.75	0.106
480.10	0.561
480.45	0.834
480.79	0.796
481.14	0.709
481.49	0.740
481.84	0.236
482.19	0.324
482.53	0.619
482.88	0.719
483.23	-0.337
483.58	1.087
483.92	0.292
484.27	0.137
484.62	0.266
484.97	0.995
485.31	0.678
485.66	1.005
486.01	1.259
486.36	0.823
486.70	0.849
487.05	0.804
487.40	0.788
487.75	0.746
488.09	0.719
488.44	0.491
488.79	1.173
489.13	0.676
489.48	0.385
489.83	0.983
490.17	0.318
490.52	0.935
490.87	0.325
491.22	0.377
491.56	0.910
491.91	1.008
492.26	0.435
492.60	0.673
492.95	0.632
493.30	0.678
493.64	-0.144
493.99	1.208
494.34	0.530
494.68	0.668
495.03	-0.049
495.37	0.584
495.72	0.301
496.07	0.292
496.41	0.094
496.76	0.960
497.11	0.516
497.45	0.243
497.80	1.111
498.14	0.554
498.49	-0.252
498.84	0.202
499.18	0.498
499.53	0.394
499.87	0.437
500.22	0.846
500.56	0.652
500.91	0.553
501.26	0.739
501.60	0.049
501.95	0.815
502.29	0.340
502.64	0.482
502.98	0.145
503.33	0.049
503.67	0.195
504.02	-0.098
504.36	0.396
504.71	0.051
505.06	1.019
505.40	0.567
505.75	0.814
506.09	0.358
506.44	1.159
506.78	0.508
507.13	0.884
507.47	0.212
507.82	0.628
508.16	0.686
508.51	0.103
508.85	0.518
509.19	-0.159
509.54	0.375
509.88	0.645
510.23	0.789
510.57	0.477
510.92	0.431
511.26	0.660
511.61	-0.274
511.95	-0.110
512.30	0.389
512.64	0.681
512.98	0.443
513.33	0.451
513.67	0.738
514.02	0.513
514.36	0.506
514.70	0.404
515.05	0.293
515.39	0.413
515.74	0.770
516.08	-0.059
516.42	0.691
516.77	0.000
517.11	-0.294
517.46	0.660
517.80	0.666
518.14	-0.367
518.49	-0.482
518.83	1.253
519.17	0.663
519.52	0.241
519.86	0.121
520.20	0.364
520.55	0.933
520.89	-0.127
521.23	0.513
521.58	0.506
521.92	0.691
522.26	0.195
522.61	0.517
522.95	0.583
523.29	0.127
523.64	0.381
523.98	0.572
524.32	0.441
524.66	-0.130
525.01	0.459
525.35	0.395
525.69	0.265
526.04	0.195
526.38	0.701
526.72	0.460
527.06	0.774
527.41	-0.265
527.75	0.200
528.09	0.817
528.43	0.407
528.78	0.388
529.12	1.294
529.46	0.640
529.80	0.906
530.15	0.515
530.49	0.943
530.83	0.609
531.17	0.616
531.51	0.472
531.86	0.474
532.20	0.276
532.54	0.138
532.88	-0.068
533.22	-0.067
533.57	0.530
533.91	1.097
534.25	0.977
534.59	0.000
534.93	0.829
535.27	0.637
535.62	0.132
535.96	1.171
536.30	0.864
536.64	0.205
536.98	-0.210
537.32	0.142
537.66	-0.071
538.01	-0.069
538.35	-0.069
538.69	0.134
539.03	0.403
539.37	0.268
539.71	0.546
540.05	-0.135
540.39	0.551
540.73	-0.349
541.07	0.340
541.42	1.549
541.76	1.083
542.10	-0.203
542.44	0.277
542.78	0.763
543.12	0.943
543.46	0.207
543.80	0.543
544.14	0.413
544.48	-0.464
544.82	0.874
545.16	0.135
545.50	1.823
545.84	0.140
546.18	0.140
546.52	0.776
546.86	0.141
547.20	0.643
547.54	0.000
547.88	1.012
548.22	0.456
548.56	0.200
548.90	0.338
549.24	0.764
549.58	0.071
549.92	0.880
550.26	1.033
550.60	0.075
550.94	0.149
551.28	0.681
551.62	-0.376
551.96	1.098
552.30	-0.509
552.64	0.706
552.98	1.136
553.32	0.577
553.66	0.073
554.00	0.864
554.34	-0.073
554.68	1.268
555.02	-0.823
555.36	-0.605
555.69	-0.146
556.03	-0.286
556.37	0.640
556.71	0.491
557.05	0.221
557.39	0.301
557.73	1.135
558.07	1.055
558.41	1.211
558.75	0.924
559.08	-1.203
559.42	0.944
559.76	1.147
560.10	0.307
560.44	0.295
560.78	0.144
561.12	0.981
561.45	0.952
561.79	0.688
562.13	0.774
562.47	0.143
562.81	0.938
563.15	0.425
563.48	0.482
563.82	0.274
564.16	0.542
564.50	0.475
564.84	0.270
565.17	1.457
565.51	-0.401
565.85	-0.200
566.19	0.132
566.52	0.000
566.86	0.442
567.20	0.672
567.54	1.094
567.88	0.672
568.21	0.869
568.55	0.835
568.89	0.199
569.23	0.687
569.56	1.126
569.90	1.150
570.24	0.650
570.57	1.058
570.91	0.699
571.25	0.478
571.59	0.872
571.92	0.821
572.26	1.010
572.60	0.739
572.93	0.750
573.27	1.215
573.61	1.181
573.95	1.190
574.28	0.851
574.62	1.037
574.96	1.058
575.29	0.928
575.63	0.553
575.97	1.141
576.30	0.964
576.64	0.865
576.98	0.832
577.31	1.345
577.65	0.928
577.98	0.807
578.32	0.919
578.66	1.164
578.99	1.291
579.33	1.024
579.67	0.815
580.00	0.969
580.34	1.042
580.67	1.225
581.01	1.189
581.35	0.898
581.68	1.155
582.02	1.099
582.35	1.194
582.69	1.121
583.02	1.223
583.36	1.107
583.70	1.360
584.03	1.294
584.37	0.902
584.70	0.905
585.04	1.055
585.37	0.705
585.71	1.327
586.04	0.952
586.38	0.973
586.72	0.927
587.05	0.931
587.39	1.249
587.72	0.718
588.06	1.040
588.39	1.287
588.73	1.113
589.06	0.711
589.40	1.135
589.73	0.611
590.07	0.984
590.40	1.136
590.73	0.972
591.07	1.045
591.40	0.696
591.74	0.622
592.07	0.411
592.41	0.858
592.74	1.003
593.08	0.718
593.41	0.867
593.75	0.775
594.08	0.449
594.41	0.914
594.75	0.900
595.08	0.896
595.42	0.573
595.75	0.976
596.09	0.770
596.42	0.490
596.75	0.746
597.09	1.137
597.42	0.718
597.75	0.800
598.09	0.638
598.42	1.655
598.76	0.546
599.09	1.281
599.42	0.755
599.76	1.014
600.09	1.092
600.42	0.791
600.76	0.850
601.09	1.168
601.42	0.549
601.76	1.042
602.09	1.216
602.42	0.949
602.76	0.965
603.09	0.698
603.42	1.000
603.76	1.091
604.09	0.988
604.42	0.879
604.76	0.917
605.09	0.861
605.42	1.260
605.75	0.300
606.09	0.745
606.42	0.914
606.75	0.390
607.09	0.754
607.42	0.832
607.75	0.481
608.08	1.037
608.42	0.609
608.75	0.764
609.08	0.441
609.41	1.043
609.75	0.756
610.08	0.937
610.41	1.166
610.74	0.818
611.07	1.453
611.41	1.075
611.74	1.242
612.07	1.042
612.40	1.135
612.73	0.329
613.07	0.111
613.40	0.551
613.73	1.463
614.06	0.995
614.39	0.556
614.72	1.277
615.06	-0.333
615.39	0.552
615.72	0.756
616.05	0.676
616.38	0.687
616.71	0.360
617.05	0.921
617.38	0.739
617.71	0.429
618.04	0.366
618.37	0.442
618.70	1.294
619.03	0.137
619.36	0.142
619.69	0.950
620.03	0.353
620.36	0.278
620.69	-0.143
621.02	0.308
621.35	-0.082
621.68	0.407
622.01	1.133
622.34	-0.317
622.67	1.175
623.00	1.368
623.33	-0.224
623.66	-0.446
623.99	1.050
624.32	1.027
624.65	0.668
624.99	0.220
625.32	0.971
625.65	0.233
625.98	0.632
626.31	0.816
626.64	0.344
626.97	0.692
627.30	0.513
627.63	0.000
627.96	0.433
628.29	0.093
628.62	0.870
628.95	0.401
629.28	-0.394
629.61	0.957
629.94	-0.387
630.26	0.296
630.59	0.300
630.92	-0.301
631.25	0.000
631.58	0.107
631.91	-0.848
632.24	-1.098
632.57	-0.111
632.90	0.817
633.23	-2.158
633.56	0.959
633.89	0.837
634.22	2.002
634.55	-0.244
634.88	-0.123
635.20	1.500
635.53	-1.680
635.86	-0.256
636.19	-0.868
636.52	0.122
636.85	-0.844
637.18	-1.462
637.51	0.125
637.83	0.653
638.16	-1.867
638.49	0.000
638.82	-0.131
639.15	-0.931
639.48	1.070
639.81	-1.111
640.13	0.141
640.46	0.282
640.79	-2.014
641.12	-0.592
641.45	-0.873
641.77	-0.442
642.10	-0.151
642.43	-0.472
642.76	-1.104
643.09	0.479
643.41	0.957
643.74	0.646
644.07	-1.942
644.40	-0.829
644.73	-3.220
645.05	-1.047
645.38	-2.658
645.71	0.000
646.04	-1.178
646.36	0.000
646.69	0.000
647.02	-0.729
647.35	1.097
647.67	-0.370
