SpectraSuite Data File
++++++++++++++++++++++++++++++++++++
Date: Wed May 13 21:07:19 PDT 2015
User: schluterlab
Dark Spectrum Present: Yes
Reference Spectrum Present: Yes
Number of Sampled Component Spectra: 1
Spectrometers: USB2E3373
Integration Time (usec): 3000 (USB2E3373)
Spectra Averaged: 3 (USB2E3373)
Boxcar Smoothing: 0 (USB2E3373)
Correct for Electrical Dark: No (USB2E3373)
Strobe/Lamp Enabled: No (USB2E3373)
Correct for Detector Non-linearity: No (USB2E3373)
Correct for Stray Light: No (USB2E3373)
Number of Pixels in Processed Spectrum: 2048
>>>>>Begin Processed Spectral Data<<<<<
178.53	0.000
178.91	600.000
179.29	266.667
179.67	-550.000
180.04	-300.000
180.42	20.000
180.80	1900.000
181.18	50.000
181.56	-450.000
181.94	-150.000
182.31	-54.545
182.69	169.231
183.07	-160.000
183.45	216.667
183.83	122.222
184.20	157.143
184.58	-166.667
184.96	66.667
185.34	228.571
185.72	0.000
186.09	-1000.000
186.47	-240.000
186.85	260.000
187.23	-250.000
187.61	500.000
187.98	1000.000
188.36	-75.000
188.74	0.000
189.12	72.727
189.49	60.000
189.87	83.333
190.25	280.000
190.63	400.000
191.00	-40.000
191.38	120.000
191.76	225.000
192.14	158.333
192.51	-52.632
192.89	700.000
193.27	225.000
193.65	-240.000
194.02	163.636
194.40	60.000
194.78	-500.000
195.15	280.000
195.53	-60.000
195.91	-25.000
196.29	-66.667
196.66	0.000
197.04	200.000
197.42	-120.000
197.79	0.000
198.17	-150.000
198.55	-400.000
198.92	-75.000
199.30	-200.000
199.68	0.000
200.05	100.000
200.43	50.000
200.81	-300.000
201.18	-240.000
201.56	-66.667
201.94	450.000
202.31	39.130
202.69	-100.000
203.07	-266.667
203.44	-200.000
203.82	-266.667
204.19	40.000
204.57	0.000
204.95	-133.333
205.32	0.000
205.70	-250.000
206.08	25.000
206.45	50.000
206.83	-25.000
207.20	-100.000
207.58	30.000
207.96	-200.000
208.33	-171.429
208.71	-1100.000
209.08	87.500
209.46	250.000
209.84	0.000
210.21	180.000
210.59	1500.000
210.96	220.000
211.34	400.000
211.71	-250.000
212.09	-100.000
212.46	-170.000
212.84	133.333
213.22	225.000
213.59	-600.000
213.97	-500.000
214.34	-600.000
214.72	-61.538
215.09	212.500
215.47	200.000
215.84	200.000
216.22	-50.000
216.59	-150.000
216.97	566.667
217.34	133.333
217.72	0.000
218.09	133.333
218.47	100.000
218.84	-142.857
219.22	12.500
219.59	0.000
219.97	-150.000
220.34	-112.500
220.72	40.000
221.09	0.000
221.47	-150.000
221.84	-200.000
222.22	0.000
222.59	900.000
222.97	-366.667
223.34	-41.667
223.72	-1300.000
224.09	-150.000
224.46	-118.182
224.84	137.500
225.21	-128.571
225.59	-50.000
225.96	-150.000
226.34	0.000
226.71	114.286
227.08	500.000
227.46	-112.500
227.83	-400.000
228.21	-31.250
228.58	-425.000
228.95	23.529
229.33	-6.250
229.70	-12.500
230.08	38.462
230.45	-62.500
230.82	-66.667
231.20	285.714
231.57	-200.000
231.95	800.000
232.32	-8.333
232.69	58.824
233.07	-800.000
233.44	-17.391
233.81	-550.000
234.19	33.333
234.56	-73.333
234.93	6.667
235.31	10.526
235.68	-7.692
236.05	92.308
236.43	-5.556
236.80	12.121
237.17	26.667
237.55	0.000
237.92	6.897
238.29	22.222
238.67	19.444
239.04	16.129
239.41	21.277
239.79	34.043
240.16	20.930
240.53	23.214
240.91	42.857
241.28	28.571
241.65	22.581
242.02	23.684
242.40	17.391
242.77	28.986
243.14	23.077
243.51	28.723
243.89	24.038
244.26	35.849
244.63	27.885
245.00	30.208
245.38	21.849
245.75	36.066
246.12	23.308
246.49	21.138
246.87	17.647
247.24	30.405
247.61	23.841
247.98	30.769
248.36	32.544
248.73	27.528
249.10	29.798
249.47	25.806
249.84	29.474
250.22	25.373
250.59	30.841
250.96	34.091
251.33	27.751
251.70	35.565
252.08	32.218
252.45	33.745
252.82	36.122
253.19	28.405
253.56	29.856
253.94	30.961
254.31	30.986
254.68	34.899
255.05	34.983
255.42	31.469
255.79	30.061
256.16	32.492
256.54	28.571
256.91	28.797
257.28	34.591
257.65	28.662
258.02	34.018
258.39	33.041
258.76	32.849
259.14	31.818
259.51	30.337
259.88	29.539
260.25	33.333
260.62	33.989
260.99	31.565
261.36	31.606
261.73	31.358
262.10	30.025
262.47	26.420
262.85	29.104
263.22	36.154
263.59	29.351
263.96	29.927
264.33	30.529
264.70	31.860
265.07	32.176
265.44	32.184
265.81	32.037
266.18	33.030
266.55	31.441
266.92	30.297
267.29	29.630
267.66	30.573
268.03	33.128
268.40	29.449
268.77	31.198
269.14	34.082
269.51	34.086
269.88	29.532
270.25	33.475
270.62	29.303
270.99	32.480
271.36	31.746
271.73	32.530
272.10	32.571
272.47	30.326
272.84	31.890
273.21	31.115
273.58	32.377
273.95	28.302
274.32	32.649
274.69	32.423
275.06	31.979
275.43	33.710
275.80	30.496
276.17	31.123
276.54	29.840
276.91	32.230
277.28	31.408
277.65	33.042
278.02	32.500
278.39	31.261
278.76	32.943
279.13	28.130
279.50	33.276
279.87	29.529
280.23	33.153
280.60	33.564
280.97	32.468
281.34	32.019
281.71	30.569
282.08	33.162
282.45	33.279
282.82	30.032
283.19	32.012
283.56	30.000
283.92	30.887
284.29	30.109
284.66	29.654
285.03	31.922
285.40	28.399
285.77	31.532
286.14	31.003
286.51	32.684
286.87	29.692
287.24	30.088
287.61	30.723
287.98	29.118
288.35	28.465
288.72	29.555
289.08	28.917
289.45	30.690
289.82	30.560
290.19	30.014
290.56	29.972
290.93	27.210
291.29	27.223
291.66	28.552
292.03	27.248
292.40	28.668
292.77	29.050
293.13	27.615
293.50	27.582
293.87	26.400
294.24	27.513
294.60	26.918
294.97	27.910
295.34	25.594
295.71	25.099
296.08	25.785
296.44	25.128
296.81	23.873
297.18	27.125
297.55	24.410
297.91	25.714
298.28	25.424
298.65	24.507
299.02	26.862
299.38	25.153
299.75	24.519
300.12	23.023
300.48	24.912
300.85	22.979
301.22	24.855
301.59	25.117
301.95	24.506
302.32	24.504
302.69	22.712
303.05	24.474
303.42	24.773
303.79	24.816
304.15	24.863
304.52	22.473
304.89	25.028
305.25	23.161
305.62	22.885
305.99	23.069
306.35	24.974
306.72	24.924
307.09	24.400
307.45	23.323
307.82	24.316
308.19	22.362
308.55	23.541
308.92	25.737
309.29	24.925
309.65	23.277
310.02	24.453
310.38	22.459
310.75	23.373
311.12	25.948
311.48	24.827
311.85	25.689
312.22	25.532
312.58	25.024
312.95	25.871
313.31	26.171
313.68	25.763
314.05	28.355
314.41	27.570
314.78	27.135
315.14	26.389
315.51	27.593
315.87	28.360
316.24	27.548
316.61	29.680
316.97	30.370
317.34	29.501
317.70	30.955
318.07	31.056
318.43	32.791
318.80	31.588
319.16	32.449
319.53	32.975
319.89	33.424
320.26	34.935
320.62	35.589
320.99	35.465
321.35	36.015
321.72	36.959
322.08	37.269
322.45	39.315
322.81	40.758
323.18	40.429
323.54	41.697
323.91	43.451
324.27	44.194
324.64	44.338
325.00	44.969
325.37	45.563
325.73	46.886
326.10	47.939
326.46	49.331
326.83	50.162
327.19	50.569
327.56	51.652
327.92	52.132
328.29	54.508
328.65	55.478
329.01	56.025
329.38	56.261
329.74	56.652
330.11	57.078
330.47	57.465
330.84	58.574
331.20	57.814
331.56	60.236
331.93	59.948
332.29	62.381
332.66	60.000
333.02	60.295
333.38	61.491
333.75	61.604
334.11	62.760
334.48	63.993
334.84	64.753
335.20	62.693
335.57	63.446
335.93	63.316
336.29	62.697
336.66	64.017
337.02	62.609
337.38	62.576
337.75	64.255
338.11	62.596
338.47	64.555
338.84	64.433
339.20	64.727
339.56	65.273
339.93	66.811
340.29	64.816
340.65	64.414
341.02	64.892
341.38	65.541
341.74	64.790
342.11	64.162
342.47	63.431
342.83	64.379
343.20	66.582
343.56	65.086
343.92	64.338
344.28	65.260
344.65	65.224
345.01	63.196
345.37	66.118
345.73	66.095
346.10	65.570
346.46	65.366
346.82	66.051
347.19	65.506
347.55	65.428
347.91	65.316
348.27	64.353
348.63	64.503
349.00	65.252
349.36	65.463
349.72	65.507
350.08	65.601
350.45	66.562
350.81	65.493
351.17	65.666
351.53	64.650
351.89	65.369
352.26	66.023
352.62	66.589
352.98	66.454
353.34	66.184
353.70	66.900
354.07	65.333
354.43	65.785
354.79	66.747
355.15	64.829
355.51	65.148
355.87	67.005
356.24	67.416
356.60	67.084
356.96	66.462
357.32	67.337
357.68	66.692
358.04	65.787
358.40	65.504
358.77	66.131
359.13	67.860
359.49	67.449
359.85	67.779
360.21	66.847
360.57	66.996
360.93	67.299
361.29	67.283
361.66	66.970
362.02	66.864
362.38	66.100
362.74	65.410
363.10	66.667
363.46	67.147
363.82	67.406
364.18	66.570
364.54	68.271
364.90	66.760
365.26	65.605
365.62	67.472
365.98	66.975
366.35	67.872
366.71	67.261
367.07	67.824
367.43	67.317
367.79	68.103
368.15	68.425
368.51	66.878
368.87	68.876
369.23	69.537
369.59	68.781
369.95	67.562
370.31	66.946
370.67	66.980
371.03	70.824
371.39	68.843
371.75	68.286
372.11	68.519
372.47	68.709
372.83	68.863
373.19	68.489
373.55	70.159
373.91	68.883
374.27	67.911
374.63	68.421
374.99	68.175
375.35	69.863
375.71	68.546
376.07	70.459
376.42	68.783
376.78	70.872
377.14	69.898
377.50	69.557
377.86	70.120
378.22	69.279
378.58	70.366
378.94	70.812
379.30	70.081
379.66	69.790
380.02	69.669
380.38	67.590
380.74	69.635
381.09	69.421
381.45	70.798
381.81	69.624
382.17	69.124
382.53	69.846
382.89	69.240
383.25	70.370
383.61	71.429
383.97	71.500
384.32	70.321
384.68	70.697
385.04	70.067
385.40	71.046
385.76	71.168
386.12	70.820
386.48	70.031
386.83	70.025
387.19	70.820
387.55	70.570
387.91	71.771
388.27	71.270
388.62	70.787
388.98	70.776
389.34	71.554
389.70	69.658
390.06	70.187
390.42	71.585
390.77	71.365
391.13	72.222
391.49	71.917
391.85	71.310
392.20	71.241
392.56	70.095
392.92	71.504
393.28	70.540
393.64	72.232
393.99	70.196
394.35	71.173
394.71	72.051
395.07	70.440
395.42	72.090
395.78	71.557
396.14	70.831
396.50	71.084
396.85	72.148
397.21	71.598
397.57	71.677
397.92	71.317
398.28	71.856
398.64	70.978
399.00	71.540
399.35	71.623
399.71	71.578
400.07	71.566
400.42	73.417
400.78	71.903
401.14	70.815
401.49	72.379
401.85	73.710
402.21	73.808
402.57	72.103
402.92	72.403
403.28	70.919
403.63	71.234
403.99	71.721
404.35	71.696
404.70	71.843
405.06	72.108
405.42	71.545
405.77	70.276
406.13	71.486
406.49	72.139
406.84	73.504
407.20	71.522
407.55	72.273
407.91	71.145
408.27	70.243
408.62	72.437
408.98	72.256
409.34	71.597
409.69	72.645
410.05	71.455
410.40	71.150
410.76	72.984
411.11	71.891
411.47	73.391
411.83	71.366
412.18	71.977
412.54	72.431
412.89	72.727
413.25	70.973
413.60	73.417
413.96	72.909
414.31	71.517
414.67	73.524
415.03	74.222
415.38	71.664
415.74	72.190
416.09	74.488
416.45	73.958
416.80	73.423
417.16	72.807
417.51	73.945
417.87	72.884
418.22	73.756
418.58	73.259
418.93	74.765
419.29	74.455
419.64	72.201
420.00	73.968
420.35	73.102
420.71	73.187
421.06	73.985
421.42	74.148
421.77	73.757
422.12	74.957
422.48	73.664
422.83	74.542
423.19	73.548
423.54	75.442
423.90	74.050
424.25	76.314
424.61	75.970
424.96	73.329
425.31	72.574
425.67	75.309
426.02	75.677
426.38	75.000
426.73	75.870
427.09	76.298
427.44	75.338
427.79	75.891
428.15	74.190
428.50	75.347
428.85	74.354
429.21	74.508
429.56	76.993
429.92	74.909
430.27	74.080
430.62	75.498
430.98	74.828
431.33	75.981
431.68	76.890
432.04	77.690
432.39	75.693
432.74	77.560
433.10	75.828
433.45	76.746
433.80	76.724
434.16	75.751
434.51	76.033
434.86	77.856
435.22	76.570
435.57	76.106
435.92	78.649
436.28	77.057
436.63	77.771
436.98	77.321
437.34	77.473
437.69	76.800
438.04	76.174
438.39	78.892
438.75	79.261
439.10	78.600
439.45	78.814
439.81	79.495
440.16	77.739
440.51	78.419
440.86	77.949
441.22	79.289
441.57	77.983
441.92	79.679
442.27	78.463
442.63	79.548
442.98	80.093
443.33	80.361
443.68	78.861
444.03	80.576
444.39	80.813
444.74	80.839
445.09	78.469
445.44	80.225
445.79	81.002
446.15	79.312
446.50	78.524
446.85	82.095
447.20	80.293
447.55	80.806
447.91	80.056
448.26	79.760
448.61	81.415
448.96	81.435
449.31	80.011
449.66	80.220
450.02	82.149
450.37	82.550
450.72	81.171
451.07	83.323
451.42	81.410
451.77	82.167
452.12	80.452
452.47	81.536
452.83	81.309
453.18	81.795
453.53	82.282
453.88	83.012
454.23	83.251
454.58	81.250
454.93	81.655
455.28	83.237
455.63	82.408
455.98	84.054
456.34	80.483
456.69	83.962
457.04	82.539
457.39	83.704
457.74	82.525
458.09	82.464
458.44	84.019
458.79	81.933
459.14	80.674
459.49	85.061
459.84	81.962
460.19	82.113
460.54	83.333
460.89	84.234
461.24	83.662
461.59	84.420
461.94	83.818
462.29	83.395
462.64	83.245
462.99	84.038
463.34	85.290
463.69	84.858
464.04	82.713
464.39	83.893
464.74	82.924
465.09	84.315
465.44	83.446
465.79	83.209
466.14	82.212
466.49	84.692
466.84	84.280
467.19	84.904
467.54	83.668
467.89	84.035
468.24	86.294
468.59	85.086
468.94	83.780
469.29	84.798
469.64	86.611
469.99	85.103
470.34	84.761
470.68	86.766
471.03	85.614
471.38	85.118
471.73	84.294
472.08	86.667
472.43	86.741
472.78	83.638
473.13	84.037
473.48	85.323
473.83	84.306
474.17	85.221
474.52	85.243
474.87	83.896
475.22	85.386
475.57	84.495
475.92	85.605
476.27	86.655
476.61	84.258
476.96	85.494
477.31	85.383
477.66	87.232
478.01	84.890
478.36	84.033
478.70	85.983
479.05	87.181
479.40	83.879
479.75	85.707
480.10	84.294
480.45	85.483
480.79	85.864
481.14	84.954
481.49	86.532
481.84	85.203
482.19	84.484
482.53	85.619
482.88	85.762
483.23	85.852
483.58	86.248
483.92	85.944
484.27	86.048
484.62	84.288
484.97	85.815
485.31	83.411
485.66	79.492
486.01	78.816
486.36	80.405
486.70	81.959
487.05	83.900
487.40	83.684
487.75	84.324
488.09	84.266
488.44	86.961
488.79	86.980
489.13	86.004
489.48	86.233
489.83	85.127
490.17	86.337
490.52	88.453
490.87	85.628
491.22	86.010
491.56	87.446
491.91	87.182
492.26	86.025
492.60	86.051
492.95	86.929
493.30	85.029
493.64	85.468
493.99	85.990
494.34	86.946
494.68	87.542
495.03	85.870
495.37	86.326
495.72	87.218
496.07	87.920
496.41	85.634
496.76	86.700
497.11	86.808
497.45	87.451
497.80	88.743
498.14	88.514
498.49	86.435
498.84	88.057
499.18	87.307
499.53	87.001
499.87	86.463
500.22	88.352
500.56	87.813
500.91	88.179
501.26	86.355
501.60	86.814
501.95	87.015
502.29	87.282
502.64	86.837
502.98	86.898
503.33	87.299
503.67	86.271
504.02	87.304
504.36	87.320
504.71	86.738
505.06	86.959
505.40	88.557
505.75	87.742
506.09	88.861
506.44	86.593
506.78	88.116
507.13	88.150
507.47	88.494
507.82	87.179
508.16	88.179
508.51	86.674
508.85	85.899
509.19	87.725
509.54	88.097
509.88	86.667
510.23	86.737
510.57	87.606
510.92	87.716
511.26	89.604
511.61	88.694
511.95	87.817
512.30	88.173
512.64	88.422
512.98	87.978
513.33	88.169
513.67	88.813
514.02	88.483
514.36	87.809
514.70	88.684
515.05	88.941
515.39	90.271
515.74	90.349
516.08	87.493
516.42	87.270
516.77	87.873
517.11	89.300
517.46	91.056
517.80	90.557
518.14	90.018
518.49	89.813
518.83	88.007
519.17	90.060
519.52	89.867
519.86	89.678
520.20	87.871
520.55	89.677
520.89	90.449
521.23	92.756
521.58	90.771
521.92	87.869
522.26	89.525
522.61	90.045
522.95	89.832
523.29	89.016
523.64	89.765
523.98	88.247
524.32	89.477
524.66	90.390
525.01	92.005
525.35	90.520
525.69	89.927
526.04	89.446
526.38	89.038
526.72	91.124
527.06	88.395
527.41	87.889
527.75	88.852
528.09	91.014
528.43	90.638
528.78	87.726
529.12	89.909
529.46	88.292
529.80	86.990
530.15	88.546
530.49	90.633
530.83	90.386
531.17	90.342
531.51	89.953
531.86	90.108
532.20	89.249
532.54	87.931
532.88	87.747
533.22	89.158
533.57	86.358
533.91	89.161
534.25	89.062
534.59	88.739
534.93	86.990
535.27	88.535
535.62	89.342
535.96	86.402
536.30	88.032
536.64	88.585
536.98	89.488
537.32	89.822
537.66	89.069
538.01	88.141
538.35	86.671
538.69	86.890
539.03	85.705
539.37	87.257
539.71	86.221
540.05	86.370
540.39	87.061
540.73	86.592
541.07	86.735
541.42	86.599
541.76	85.115
542.10	85.037
542.44	86.833
542.78	88.341
543.12	84.838
543.46	87.284
543.80	86.897
544.14	87.130
544.48	84.738
544.82	85.743
545.16	86.815
545.50	85.213
545.84	84.642
546.18	86.606
546.52	86.662
546.86	85.654
547.20	84.989
547.54	87.491
547.88	85.493
548.22	83.844
548.56	84.990
548.90	84.709
549.24	85.764
549.58	84.982
549.92	88.335
550.26	87.011
550.60	88.288
550.94	85.597
551.28	85.541
551.62	85.338
551.96	83.309
552.30	84.862
552.64	85.593
552.98	84.943
553.32	85.004
553.66	87.601
554.00	85.025
554.34	84.542
554.68	84.415
555.02	84.132
555.36	86.536
555.69	85.506
556.03	83.703
556.37	83.926
556.71	81.640
557.05	83.911
557.39	86.285
557.73	86.309
558.07	85.833
558.41	86.071
558.75	85.142
559.08	84.282
559.42	85.681
559.76	82.492
560.10	85.857
560.44	85.114
560.78	83.741
561.12	85.214
561.45	82.925
561.79	81.637
562.13	84.669
562.47	84.071
562.81	83.045
563.15	81.799
563.48	81.074
563.82	84.542
564.16	81.787
564.50	82.090
564.84	82.703
565.17	82.517
565.51	84.291
565.85	82.212
566.19	83.510
566.52	81.717
566.86	81.542
567.20	81.185
567.54	78.411
567.88	78.667
568.21	79.305
568.55	78.352
568.89	78.016
569.23	76.123
569.56	77.096
569.90	75.077
570.24	74.152
570.57	74.514
570.91	73.635
571.25	73.758
571.59	73.031
571.92	73.775
572.26	73.953
572.60	74.623
572.93	74.196
573.27	72.609
573.61	72.876
573.95	72.739
574.28	72.209
574.62	71.291
574.96	72.195
575.29	71.765
575.63	72.129
575.97	72.663
576.30	71.806
576.64	72.125
576.98	71.544
577.31	71.196
577.65	70.797
577.98	71.157
578.32	70.985
578.66	71.761
578.99	71.479
579.33	71.539
579.67	72.989
580.00	70.708
580.34	70.868
580.67	71.558
581.01	70.965
581.35	70.131
581.68	68.692
582.02	69.766
582.35	69.901
582.69	70.280
583.02	69.542
583.36	71.072
583.70	71.953
584.03	72.176
584.37	71.421
584.70	71.158
585.04	70.800
585.37	70.207
585.71	68.934
586.04	70.150
586.38	69.561
586.72	70.778
587.05	70.981
587.39	70.214
587.72	70.293
588.06	71.655
588.39	70.305
588.73	70.036
589.06	71.419
589.40	70.726
589.73	70.967
590.07	69.778
590.40	70.163
590.73	72.042
591.07	71.500
591.40	70.435
591.74	72.254
592.07	72.296
592.41	72.201
592.74	69.907
593.08	68.513
593.41	68.658
593.75	68.411
594.08	69.672
594.41	69.580
594.75	69.340
595.08	69.978
595.42	68.933
595.75	69.559
596.09	69.400
596.42	70.588
596.75	69.680
597.09	71.975
597.42	70.749
597.75	69.956
598.09	70.492
598.42	71.096
598.76	69.060
599.09	70.588
599.42	68.505
599.76	68.119
600.09	68.223
600.42	67.684
600.76	68.810
601.09	67.834
601.42	68.209
601.76	66.718
602.09	68.464
602.42	69.542
602.76	68.456
603.09	68.994
603.42	67.293
603.76	67.810
604.09	67.510
604.42	68.104
604.76	67.831
605.09	68.781
605.42	70.085
605.75	66.467
606.09	66.349
606.42	68.080
606.75	67.835
607.09	67.332
607.42	67.119
607.75	65.689
608.08	67.899
608.42	67.713
608.75	67.702
609.08	67.761
609.41	67.909
609.75	68.180
610.08	67.949
610.41	67.736
610.74	66.795
611.07	67.335
611.41	68.168
611.74	66.925
612.07	66.389
612.40	67.135
612.73	66.905
613.07	67.295
613.40	67.841
613.73	66.251
614.06	66.777
614.39	66.203
614.72	68.351
615.06	66.278
615.39	66.998
615.72	65.875
616.05	66.498
616.38	66.552
616.71	65.987
617.05	67.568
617.38	66.667
617.71	66.054
618.04	65.996
618.37	67.445
618.70	68.241
619.03	67.285
619.36	68.968
619.69	67.617
620.03	66.502
620.36	65.692
620.69	65.953
621.02	68.692
621.35	68.029
621.68	67.971
622.01	68.528
622.34	67.248
622.67	66.249
623.00	67.705
623.33	65.295
623.66	65.874
623.99	66.092
624.32	64.784
624.65	67.582
624.99	65.614
625.32	67.662
625.65	64.419
625.98	66.430
626.31	67.755
626.64	66.380
626.97	65.830
627.30	68.691
627.63	66.522
627.96	65.887
628.29	68.279
628.62	69.342
628.95	68.537
629.28	69.261
629.61	67.464
629.94	68.375
630.26	69.163
630.59	65.435
630.92	65.663
631.25	66.426
631.58	67.773
631.91	65.854
632.24	67.947
632.57	66.667
632.90	70.128
633.23	67.746
