SpectraSuite Data File
++++++++++++++++++++++++++++++++++++
Date: Wed May 13 21:07:34 PDT 2015
User: schluterlab
Dark Spectrum Present: Yes
Reference Spectrum Present: Yes
Number of Sampled Component Spectra: 1
Spectrometers: USB2E3373
Integration Time (usec): 3000 (USB2E3373)
Spectra Averaged: 3 (USB2E3373)
Boxcar Smoothing: 0 (USB2E3373)
Correct for Electrical Dark: No (USB2E3373)
Strobe/Lamp Enabled: No (USB2E3373)
Correct for Detector Non-linearity: No (USB2E3373)
Correct for Stray Light: No (USB2E3373)
Number of Pixels in Processed Spectrum: 2048
>>>>>Begin Processed Spectral Data<<<<<
178.53	0.000
178.91	150.000
179.29	175.000
179.67	-900.000
180.04	-400.000
180.42	100.000
180.80	500.000
181.18	250.000
181.56	-300.000
181.94	-225.000
182.31	-45.455
182.69	84.615
183.07	-140.000
183.45	133.333
183.83	111.111
184.20	142.857
184.58	-266.667
184.96	166.667
185.34	185.714
185.72	0.000
186.09	0.000
186.47	-260.000
186.85	160.000
187.23	-450.000
187.61	300.000
187.98	700.000
188.36	25.000
188.74	0.000
189.12	18.182
189.49	-20.000
189.87	91.667
190.25	300.000
190.63	900.000
191.00	-140.000
191.38	220.000
191.76	450.000
192.14	150.000
192.51	-63.158
192.89	400.000
193.27	400.000
193.65	-220.000
194.02	163.636
194.40	210.000
194.78	-900.000
195.15	-40.000
195.53	0.000
195.91	-75.000
196.29	-133.333
196.66	0.000
197.04	250.000
197.42	-60.000
197.79	-40.000
198.17	-112.500
198.55	300.000
198.92	150.000
199.30	-333.333
199.68	-30.000
200.05	400.000
200.43	166.667
200.81	-1600.000
201.18	-300.000
201.56	-150.000
201.94	650.000
202.31	17.391
202.69	-100.000
203.07	-266.667
203.44	-60.000
203.82	-100.000
204.19	-40.000
204.57	0.000
204.95	16.667
205.32	0.000
205.70	-100.000
206.08	-200.000
206.45	-150.000
206.83	150.000
207.20	-133.333
207.58	20.000
207.96	-1700.000
208.33	-28.571
208.71	-1100.000
209.08	200.000
209.46	350.000
209.84	0.000
210.21	110.000
210.59	1700.000
210.96	320.000
211.34	1400.000
211.71	-850.000
212.09	-100.000
212.46	-140.000
212.84	-100.000
213.22	75.000
213.59	-1000.000
213.97	-550.000
214.34	-800.000
214.72	-61.538
215.09	250.000
215.47	288.889
215.84	450.000
216.22	-25.000
216.59	-750.000
216.97	500.000
217.34	55.556
217.72	0.000
218.09	233.333
218.47	-500.000
218.84	-100.000
219.22	-112.500
219.59	-233.333
219.97	-125.000
220.34	-100.000
220.72	-100.000
221.09	0.000
221.47	-183.333
221.84	-300.000
222.22	0.000
222.59	1300.000
222.97	-300.000
223.34	-58.333
223.72	-300.000
224.09	-550.000
224.46	-81.818
224.84	-37.500
225.21	-114.286
225.59	-200.000
225.96	-133.333
226.34	10.000
226.71	-114.286
227.08	450.000
227.46	0.000
227.83	0.000
228.21	-31.250
228.58	-250.000
228.95	-5.882
229.33	56.250
229.70	25.000
230.08	-38.462
230.45	-87.500
230.82	-108.333
231.20	271.429
231.57	-300.000
231.95	1000.000
232.32	-25.000
232.69	-11.765
233.07	-500.000
233.44	4.348
233.81	-250.000
234.19	29.167
234.56	-40.000
234.93	-20.000
235.31	-5.263
235.68	-7.692
236.05	-30.769
236.43	61.111
236.80	9.091
237.17	-46.667
237.55	11.765
237.92	-17.241
238.29	-25.926
238.67	-2.778
239.04	16.129
239.41	4.255
239.79	14.894
240.16	11.628
240.53	14.286
240.91	23.214
241.28	21.429
241.65	8.065
242.02	13.158
242.40	24.638
242.77	15.942
243.14	16.667
243.51	20.213
243.89	12.500
244.26	20.755
244.63	15.385
245.00	22.917
245.38	18.487
245.75	22.131
246.12	14.286
246.49	13.008
246.87	5.882
247.24	22.297
247.61	16.556
247.98	14.103
248.36	16.568
248.73	20.225
249.10	17.172
249.47	14.516
249.84	21.053
250.22	22.886
250.59	18.692
250.96	23.182
251.33	19.617
251.70	24.686
252.08	21.757
252.45	23.868
252.82	23.194
253.19	19.066
253.56	15.108
253.94	24.555
254.31	20.070
254.68	24.832
255.05	22.442
255.42	19.231
255.79	20.245
256.16	25.237
256.54	18.413
256.91	20.886
257.28	23.899
257.65	19.108
258.02	21.114
258.39	21.930
258.76	24.419
259.14	21.875
259.51	18.820
259.88	22.222
260.25	20.278
260.62	19.382
260.99	23.873
261.36	19.948
261.73	20.494
262.10	23.664
262.47	19.753
262.85	18.159
263.22	24.359
263.59	23.636
263.96	21.655
264.33	19.471
264.70	20.465
265.07	23.148
265.44	23.448
265.81	22.426
266.18	22.551
266.55	18.559
266.92	19.915
267.29	19.959
267.66	21.868
268.03	23.045
268.40	19.703
268.77	22.314
269.14	21.837
269.51	23.614
269.88	21.181
270.25	20.763
270.62	18.033
270.99	21.654
271.36	22.421
271.73	21.285
272.10	20.000
272.47	18.618
272.84	23.228
273.21	22.114
273.58	22.951
273.95	20.000
274.32	22.201
274.69	20.765
275.06	21.731
275.43	19.774
275.80	20.745
276.17	21.547
276.54	21.847
276.91	19.861
277.28	20.939
277.65	22.203
278.02	21.964
278.39	21.492
278.76	21.572
279.13	21.269
279.50	19.655
279.87	21.196
280.23	21.982
280.60	18.858
280.97	21.104
281.34	21.924
281.71	18.211
282.08	18.974
282.45	21.148
282.82	21.086
283.19	20.579
283.56	19.063
283.92	21.101
284.29	19.969
284.66	20.593
285.03	19.870
285.40	18.580
285.77	21.321
286.14	20.669
286.51	23.388
286.87	20.154
287.24	18.584
287.61	21.235
287.98	20.000
288.35	18.182
288.72	19.943
289.08	21.795
289.45	17.327
289.82	18.003
290.19	18.233
290.56	18.324
290.93	17.818
291.29	19.289
291.66	18.443
292.03	19.346
292.40	18.170
292.77	17.135
293.13	17.852
293.50	18.170
293.87	18.000
294.24	15.873
294.60	19.376
294.97	20.238
295.34	16.491
295.71	15.769
296.08	15.707
296.44	16.709
296.81	17.783
297.18	17.500
297.55	18.278
297.91	16.894
298.28	16.707
298.65	17.611
299.02	18.803
299.38	16.196
299.75	16.707
300.12	16.047
300.48	17.076
300.85	15.127
301.22	16.725
301.59	15.962
301.95	16.376
302.32	15.869
302.69	14.350
303.05	15.504
303.42	14.773
303.79	16.299
304.15	15.882
304.52	15.699
304.89	15.615
305.25	15.477
305.62	13.991
305.99	16.431
306.35	17.137
306.72	16.785
307.09	15.641
307.45	16.187
307.82	15.579
308.19	13.898
308.55	15.660
308.92	15.422
309.29	16.817
309.65	16.084
310.02	15.408
310.38	14.837
310.75	15.483
311.12	15.452
311.48	15.331
311.85	17.323
312.22	17.698
312.58	15.266
312.95	17.612
313.31	17.355
313.68	16.889
314.05	16.919
314.41	18.732
314.78	18.027
315.14	19.444
315.51	17.793
315.87	18.721
316.24	19.008
316.61	18.539
316.97	18.519
317.34	19.697
317.70	20.339
318.07	20.674
318.43	20.777
318.80	20.593
319.16	20.690
319.53	20.609
319.89	20.506
320.26	23.198
320.62	22.335
320.99	22.674
321.35	22.544
321.72	23.099
322.08	23.432
322.45	24.514
322.81	25.508
323.18	24.597
323.54	26.625
323.91	25.203
324.27	26.193
324.64	25.871
325.00	25.722
325.37	28.498
325.73	26.599
326.10	26.325
326.46	27.676
326.83	28.155
327.19	27.805
327.56	29.895
327.92	29.364
328.29	30.134
328.65	31.989
329.01	30.431
329.38	32.348
329.74	31.159
330.11	31.560
330.47	29.948
330.84	31.859
331.20	30.145
331.56	31.431
331.93	32.127
332.29	31.798
332.66	31.186
333.02	33.884
333.38	33.596
333.75	31.741
334.11	32.899
334.48	32.781
334.84	31.890
335.20	33.105
335.57	33.420
335.93	32.474
336.29	33.100
336.66	33.333
337.02	33.391
337.38	32.550
337.75	33.850
338.11	32.109
338.47	32.449
338.84	32.732
339.20	34.656
339.56	33.447
339.93	33.535
340.29	34.073
340.65	34.217
341.02	32.446
341.38	32.939
341.74	32.689
342.11	33.443
342.47	33.891
342.83	32.761
343.20	34.010
343.56	33.279
343.92	32.656
344.28	33.360
344.65	33.796
345.01	34.140
345.37	33.635
345.73	34.069
346.10	33.628
346.46	34.309
346.82	33.788
347.19	34.177
347.55	34.814
347.91	33.437
348.27	35.095
348.63	33.814
349.00	34.434
349.36	33.909
349.72	33.952
350.08	33.619
350.45	34.064
350.81	33.490
351.17	33.718
351.53	34.407
351.89	34.790
352.26	33.591
352.62	34.186
352.98	33.466
353.34	33.333
353.70	33.255
354.07	33.961
354.43	33.826
354.79	34.696
355.15	33.618
355.51	34.169
355.87	33.776
356.24	33.788
356.60	33.464
356.96	32.924
357.32	34.365
357.68	34.989
358.04	33.670
358.40	33.721
358.77	33.563
359.13	34.319
359.49	34.217
359.85	34.344
360.21	34.079
360.57	33.080
360.93	33.991
361.29	34.345
361.66	32.954
362.02	34.544
362.38	33.604
362.74	34.373
363.10	33.478
363.46	33.429
363.82	34.146
364.18	33.140
364.54	33.552
364.90	33.868
365.26	33.900
365.62	34.020
365.98	34.520
366.35	34.397
366.71	33.738
367.07	33.806
367.43	33.728
367.79	34.399
368.15	35.513
368.51	34.248
368.87	34.613
369.23	33.665
369.59	33.615
369.95	33.672
370.31	32.775
370.67	33.382
371.03	34.076
371.39	34.280
371.75	34.857
372.11	33.903
372.47	33.526
372.83	33.495
373.19	34.173
373.55	33.526
373.91	33.451
374.27	32.019
374.63	34.211
374.99	33.148
375.35	33.630
375.71	33.016
376.07	33.927
376.42	33.556
376.78	34.676
377.14	34.169
377.50	33.638
377.86	34.595
378.22	33.186
378.58	33.165
378.94	34.000
379.30	33.979
379.66	33.970
380.02	34.069
380.38	34.940
380.74	34.071
381.09	33.655
381.45	33.676
381.81	34.504
382.17	33.522
382.53	33.292
382.89	33.896
383.25	33.395
383.61	34.383
383.97	34.000
384.32	33.270
384.68	34.300
385.04	32.926
385.40	32.814
385.76	33.759
386.12	34.216
386.48	33.417
386.83	32.666
387.19	33.806
387.55	34.212
387.91	33.579
388.27	32.614
388.62	33.833
388.98	31.977
389.34	32.143
389.70	32.418
390.06	32.938
390.42	32.796
390.77	33.184
391.13	31.944
391.49	32.511
391.85	33.610
392.20	32.895
392.56	32.444
392.92	32.651
393.28	33.295
393.64	33.028
393.99	31.212
394.35	32.531
394.71	33.397
395.07	31.258
395.42	33.333
395.78	32.625
396.14	33.164
396.50	31.706
396.85	31.931
397.21	31.835
397.57	31.491
397.92	31.677
398.28	32.092
398.64	32.240
399.00	31.585
399.35	32.520
399.71	32.033
400.07	30.964
400.42	31.661
400.78	30.634
401.14	32.066
401.49	31.516
401.85	31.388
402.21	31.703
402.57	31.330
402.92	31.790
403.28	32.083
403.63	31.060
403.99	31.286
404.35	32.294
404.70	31.239
405.06	31.474
405.42	31.281
405.77	31.336
406.13	30.457
406.49	31.156
406.84	31.013
407.20	30.669
407.55	32.338
407.91	30.046
408.27	30.318
408.62	31.369
408.98	29.531
409.34	30.260
409.69	31.189
410.05	30.473
410.40	29.945
410.76	30.084
411.11	30.721
411.47	31.321
411.83	30.692
412.18	29.345
412.54	29.825
412.89	29.781
413.25	29.499
413.60	30.408
413.96	30.025
414.31	30.210
414.67	28.635
415.03	30.447
415.38	30.185
415.74	29.955
416.09	30.866
416.45	30.485
416.80	30.134
417.16	29.487
417.51	29.940
417.87	30.026
418.22	29.541
418.58	28.581
418.93	28.500
419.29	29.901
419.64	29.835
420.00	28.889
420.35	29.169
420.71	29.738
421.06	29.643
421.42	30.414
421.77	29.827
422.12	30.888
422.48	29.335
422.83	29.888
423.19	29.500
423.54	28.857
423.90	28.563
424.25	30.098
424.61	28.651
424.96	29.213
425.31	27.482
425.67	30.805
426.02	30.271
426.38	29.664
426.73	29.139
427.09	29.706
427.44	29.536
427.79	29.038
428.15	28.991
428.50	28.580
428.85	30.012
429.21	28.700
429.56	29.171
429.92	29.308
430.27	28.783
430.62	29.119
430.98	29.825
431.33	28.694
431.68	29.553
432.04	29.352
432.39	28.753
432.74	29.123
433.10	29.227
433.45	28.994
433.80	28.966
434.16	28.837
434.51	28.913
434.86	29.859
435.22	28.806
435.57	28.563
435.92	29.674
436.28	27.748
436.63	28.984
436.98	28.613
437.34	29.365
437.69	28.749
438.04	27.731
438.39	28.829
438.75	28.784
439.10	28.976
439.45	29.661
439.81	28.695
440.16	28.638
440.51	28.894
440.86	29.816
441.22	28.227
441.57	29.121
441.92	28.253
442.27	28.788
442.63	29.064
442.98	28.704
443.33	28.555
443.68	28.150
444.03	28.962
444.39	29.797
444.74	28.382
445.09	28.249
445.44	28.901
445.79	28.756
446.15	28.619
446.50	27.808
446.85	28.167
447.20	28.803
447.55	27.420
447.91	27.865
448.26	28.473
448.61	27.906
448.96	28.132
449.31	27.870
449.66	28.224
450.02	28.766
450.37	28.202
450.72	27.555
451.07	27.524
451.42	27.324
451.77	27.937
452.12	27.510
452.47	28.793
452.83	27.241
453.18	27.944
453.53	27.932
453.88	27.229
454.23	27.812
454.58	27.451
454.93	27.838
455.28	27.746
455.63	27.074
455.98	26.963
456.34	26.637
456.69	28.371
457.04	27.616
457.39	27.721
457.74	27.050
458.09	27.666
458.44	27.027
458.79	25.975
459.14	26.629
459.49	27.378
459.84	27.396
460.19	26.471
460.54	27.311
460.89	27.083
461.24	26.880
461.59	27.657
461.94	27.054
462.29	26.471
462.64	26.583
462.99	26.895
463.34	27.693
463.69	26.546
464.04	26.711
464.39	26.541
464.74	26.658
465.09	26.162
465.44	27.666
465.79	27.832
466.14	25.713
466.49	27.097
466.84	26.121
467.19	25.605
467.54	26.701
467.89	25.519
468.24	26.490
468.59	27.087
468.94	26.884
469.29	26.173
469.64	26.918
469.99	26.828
470.34	25.421
470.68	25.948
471.03	26.446
471.38	26.078
471.73	25.171
472.08	26.460
472.43	26.979
472.78	25.355
473.13	24.802
473.48	25.310
473.83	25.926
474.17	25.977
474.52	26.472
474.87	25.090
475.22	25.785
475.57	25.432
475.92	26.336
476.27	25.583
476.61	25.538
476.96	25.642
477.31	24.865
477.66	25.763
478.01	24.670
478.36	25.123
478.70	25.242
479.05	25.305
479.40	25.065
479.75	25.292
480.10	25.497
480.45	24.620
480.79	24.888
481.14	25.633
481.49	24.963
481.84	24.788
482.19	24.965
482.53	24.429
482.88	25.264
483.23	24.013
483.58	24.149
483.92	24.125
484.27	23.788
484.62	23.746
484.97	24.844
485.31	25.294
485.66	24.855
486.01	25.545
486.36	25.633
486.70	24.977
487.05	25.494
487.40	25.407
487.75	24.806
488.09	24.148
488.44	23.940
488.79	23.959
489.13	24.095
489.48	24.027
489.83	23.895
490.17	23.423
490.52	24.123
490.87	23.366
491.22	23.976
491.56	24.245
491.91	23.860
492.26	24.226
492.60	23.136
492.95	23.615
493.30	23.159
493.64	22.494
493.99	22.850
494.34	23.459
494.68	23.437
495.03	23.073
495.37	22.725
495.72	22.657
496.07	23.721
496.41	22.836
496.76	23.537
497.11	22.770
497.45	23.298
497.80	24.180
498.14	24.584
498.49	22.340
498.84	22.419
499.18	23.494
499.53	24.077
499.87	22.222
500.22	23.295
500.56	24.022
500.91	23.843
501.26	23.941
501.60	22.108
501.95	23.335
502.29	22.476
502.64	23.674
502.98	23.025
503.33	22.968
503.67	23.612
504.02	23.039
504.36	22.338
504.71	22.256
505.06	22.771
505.40	22.990
505.75	22.787
506.09	22.688
506.44	22.530
506.78	22.448
507.13	23.181
507.47	22.057
507.82	21.926
508.16	22.744
508.51	21.849
508.85	22.032
509.19	21.958
509.54	22.466
509.88	21.559
510.23	21.842
510.57	21.981
510.92	22.091
511.26	22.662
511.61	20.692
511.95	22.381
512.30	21.544
512.64	22.815
512.98	21.662
513.33	22.254
513.67	21.181
514.02	22.121
514.36	21.798
514.70	21.824
515.05	22.235
515.39	21.403
515.74	21.670
516.08	20.767
516.42	20.795
516.77	20.562
517.11	20.635
517.46	21.729
517.80	21.913
518.14	21.249
518.49	20.796
518.83	20.883
519.17	21.205
519.52	21.049
519.86	20.826
520.20	19.770
520.55	20.896
520.89	20.367
521.23	21.795
521.58	21.176
521.92	20.302
522.26	20.560
522.61	20.233
522.95	20.725
523.29	20.571
523.64	20.661
523.98	20.267
524.32	21.298
524.66	20.519
525.01	20.773
525.35	19.882
525.69	20.146
526.04	20.521
526.38	21.096
526.72	19.790
527.06	20.181
527.41	19.523
527.75	20.494
528.09	21.307
528.43	20.421
528.78	20.220
529.12	20.828
529.46	21.049
529.80	20.194
530.15	21.300
530.49	20.687
530.83	19.838
531.17	20.205
531.51	19.218
531.86	19.444
532.20	19.986
532.54	19.655
532.88	20.354
533.22	20.741
533.57	20.000
533.91	20.645
534.25	21.094
534.59	19.949
534.93	20.472
535.27	20.127
535.62	19.737
535.96	20.950
536.30	20.279
536.64	19.686
536.98	19.201
537.32	19.431
537.66	19.817
538.01	19.972
538.35	19.406
538.69	18.930
539.03	19.195
539.37	19.651
539.71	19.577
540.05	19.703
540.39	19.546
540.73	19.344
541.07	20.000
541.42	20.471
541.76	19.824
542.10	19.093
542.44	20.305
542.78	19.917
543.12	20.148
543.46	18.521
543.80	20.299
544.14	19.615
544.48	19.111
544.82	19.704
545.16	19.946
545.50	19.919
545.84	18.794
546.18	18.724
546.52	18.560
546.86	18.799
547.20	18.942
547.54	18.442
547.88	18.354
548.22	18.893
548.56	19.079
548.90	18.945
549.24	19.097
549.58	19.075
549.92	19.076
550.26	18.893
550.60	18.243
550.94	19.179
551.28	18.092
551.62	19.098
551.96	18.375
552.30	17.831
552.64	18.715
552.98	19.034
553.32	18.529
553.66	18.562
554.00	18.359
554.34	17.729
554.68	18.717
555.02	17.964
555.36	18.457
555.69	18.572
556.03	18.370
556.37	18.848
556.71	18.290
557.05	18.893
557.39	18.312
557.73	18.003
558.07	18.237
558.41	18.622
558.75	18.707
559.08	16.760
559.42	18.332
559.76	18.119
560.10	18.294
560.44	19.086
560.78	18.489
561.12	18.570
561.45	18.844
561.79	18.776
562.13	19.339
562.47	17.786
562.81	16.667
563.15	17.564
563.48	17.825
563.82	17.647
564.16	18.213
564.50	18.046
564.84	18.378
565.17	18.344
565.51	18.382
565.85	17.655
566.19	18.212
566.52	17.431
566.86	17.257
567.20	18.021
567.54	19.171
567.88	18.197
568.21	18.088
568.55	18.675
568.89	17.747
569.23	18.286
569.56	18.148
569.90	18.443
570.24	18.736
570.57	18.731
570.91	18.442
571.25	18.376
571.59	18.611
571.92	18.950
572.26	19.008
572.60	18.479
572.93	18.713
573.27	18.585
573.61	18.860
573.95	19.170
574.28	19.051
574.62	18.736
574.96	19.267
575.29	18.531
575.63	18.862
575.97	18.505
576.30	18.420
576.64	18.706
576.98	19.122
577.31	19.155
577.65	18.489
577.98	19.305
578.32	18.942
578.66	18.711
578.99	18.920
579.33	18.716
579.67	18.712
580.00	18.236
580.34	18.783
580.67	19.059
581.01	18.540
581.35	18.910
581.68	18.550
582.02	19.099
582.35	19.092
582.69	18.705
583.02	18.540
583.36	18.751
583.70	18.373
584.03	18.226
584.37	18.169
584.70	18.162
585.04	18.858
585.37	18.420
585.71	18.669
586.04	18.647
586.38	18.179
586.72	18.264
587.05	18.528
587.39	18.137
587.72	18.484
588.06	18.413
588.39	18.444
588.73	17.870
589.06	17.426
589.40	17.922
589.73	17.499
590.07	18.775
590.40	18.326
590.73	18.639
591.07	18.136
591.40	17.522
591.74	17.386
592.07	17.891
592.41	18.490
592.74	18.441
593.08	17.299
593.41	18.593
593.75	18.120
594.08	18.100
594.41	17.879
594.75	18.553
595.08	18.596
595.42	17.573
595.75	18.257
596.09	17.513
596.42	17.606
596.75	17.595
597.09	18.380
597.42	17.811
597.75	17.556
598.09	17.441
598.42	17.897
598.76	17.674
599.09	18.007
599.42	17.711
599.76	17.987
600.09	18.072
600.42	18.117
600.76	17.664
601.09	18.041
601.42	17.366
601.76	16.834
602.09	17.268
602.42	17.582
602.76	16.779
603.09	17.864
603.42	17.233
603.76	17.537
604.09	17.115
604.42	17.162
604.76	17.460
605.09	16.901
605.42	18.129
605.75	17.259
606.09	17.219
606.42	17.539
606.75	17.056
607.09	17.376
607.42	17.688
607.75	16.674
608.08	17.493
608.42	16.870
608.75	17.105
609.08	17.099
609.41	16.592
609.75	16.843
610.08	16.913
610.41	16.958
610.74	16.891
611.07	17.184
611.41	16.837
611.74	17.029
612.07	16.258
612.40	17.405
612.73	17.069
613.07	16.574
613.40	17.126
613.73	16.468
614.06	16.528
614.39	17.399
614.72	17.435
615.06	16.333
615.39	16.887
615.72	16.145
616.05	16.329
616.38	16.094
616.71	16.017
617.05	16.032
617.38	16.513
617.71	15.319
618.04	16.453
618.37	16.782
618.70	16.688
619.03	16.014
619.36	15.374
619.69	15.424
620.03	15.406
620.36	15.240
620.69	14.704
621.02	15.923
621.35	15.454
621.68	15.403
622.01	16.343
622.34	15.464
622.67	15.897
623.00	15.805
623.33	16.156
623.66	15.539
623.99	15.979
624.32	16.214
624.65	15.430
624.99	15.283
625.32	16.281
625.65	15.194
625.98	15.482
626.31	15.837
626.64	15.305
626.97	16.090
627.30	15.997
627.63	14.533
627.96	14.286
628.29	15.814
628.62	15.957
628.95	13.327
629.28	14.483
629.61	16.077
629.94	14.313
630.26	14.483
630.59	14.685
630.92	13.855
631.25	14.418
631.58	15.096
631.91	13.892
632.24	13.831
632.57	14.000
632.90	13.769
