SpectraSuite Data File
++++++++++++++++++++++++++++++++++++
Date: Wed May 13 21:06:38 PDT 2015
User: schluterlab
Dark Spectrum Present: Yes
Reference Spectrum Present: Yes
Number of Sampled Component Spectra: 1
Spectrometers: USB2E3373
Integration Time (usec): 3000 (USB2E3373)
Spectra Averaged: 3 (USB2E3373)
Boxcar Smoothing: 0 (USB2E3373)
Correct for Electrical Dark: No (USB2E3373)
Strobe/Lamp Enabled: No (USB2E3373)
Correct for Detector Non-linearity: No (USB2E3373)
Correct for Stray Light: No (USB2E3373)
Number of Pixels in Processed Spectrum: 2048
>>>>>Begin Processed Spectral Data<<<<<
178.53	0.000
178.91	350.000
179.29	200.000
179.67	-400.000
180.04	-400.000
180.42	80.000
180.80	400.000
181.18	233.333
181.56	-400.000
181.94	0.000
182.31	9.091
182.69	130.769
183.07	-180.000
183.45	183.333
183.83	200.000
184.20	171.429
184.58	-33.333
184.96	166.667
185.34	114.286
185.72	0.000
186.09	-200.000
186.47	-220.000
186.85	20.000
187.23	-400.000
187.61	300.000
187.98	1400.000
188.36	0.000
188.74	0.000
189.12	-27.273
189.49	100.000
189.87	83.333
190.25	300.000
190.63	1000.000
191.00	-240.000
191.38	320.000
191.76	300.000
192.14	75.000
192.51	-21.053
192.89	300.000
193.27	50.000
193.65	-220.000
194.02	63.636
194.40	170.000
194.78	-300.000
195.15	80.000
195.53	-120.000
195.91	0.000
196.29	-66.667
196.66	0.000
197.04	550.000
197.42	-40.000
197.79	-30.000
198.17	-100.000
198.55	0.000
198.92	200.000
199.30	-333.333
199.68	0.000
200.05	200.000
200.43	83.333
200.81	-700.000
201.18	-40.000
201.56	33.333
201.94	525.000
202.31	-4.348
202.69	-28.571
203.07	-366.667
203.44	-60.000
203.82	-33.333
204.19	50.000
204.57	0.000
204.95	-33.333
205.32	0.000
205.70	-350.000
206.08	-225.000
206.45	-16.667
206.83	175.000
207.20	-233.333
207.58	40.000
207.96	-1100.000
208.33	-114.286
208.71	-1100.000
209.08	162.500
209.46	250.000
209.84	0.000
210.21	110.000
210.59	500.000
210.96	180.000
211.34	1100.000
211.71	-800.000
212.09	-133.333
212.46	-60.000
212.84	-233.333
213.22	25.000
213.59	-400.000
213.97	-550.000
214.34	-250.000
214.72	30.769
215.09	162.500
215.47	155.556
215.84	800.000
216.22	-125.000
216.59	-50.000
216.97	400.000
217.34	188.889
217.72	0.000
218.09	333.333
218.47	0.000
218.84	-228.571
219.22	25.000
219.59	-233.333
219.97	-175.000
220.34	87.500
220.72	40.000
221.09	0.000
221.47	-116.667
221.84	500.000
222.22	0.000
222.59	900.000
222.97	133.333
223.34	0.000
223.72	-400.000
224.09	50.000
224.46	18.182
224.84	-12.500
225.21	-100.000
225.59	-275.000
225.96	-83.333
226.34	-70.000
226.71	-114.286
227.08	400.000
227.46	-25.000
227.83	-1000.000
228.21	-50.000
228.58	-400.000
228.95	-35.294
229.33	37.500
229.70	-25.000
230.08	-30.769
230.45	-75.000
230.82	-58.333
231.20	242.857
231.57	-125.000
231.95	1700.000
232.32	100.000
232.69	-29.412
233.07	-900.000
233.44	-21.739
233.81	-350.000
234.19	25.000
234.56	-13.333
234.93	-20.000
235.31	31.579
235.68	-69.231
236.05	7.692
236.43	0.000
236.80	18.182
237.17	-53.333
237.55	-5.882
237.92	13.793
238.29	0.000
238.67	-11.111
239.04	-12.903
239.41	14.894
239.79	21.277
240.16	37.209
240.53	33.929
240.91	35.714
241.28	41.071
241.65	32.258
242.02	22.368
242.40	36.232
242.77	20.290
243.14	25.641
243.51	22.340
243.89	29.808
244.26	39.623
244.63	27.885
245.00	28.125
245.38	26.891
245.75	31.148
246.12	38.346
246.49	19.512
246.87	21.849
247.24	35.811
247.61	33.113
247.98	30.128
248.36	30.769
248.73	30.337
249.10	35.859
249.47	32.258
249.84	33.158
250.22	33.831
250.59	33.645
250.96	33.182
251.33	27.751
251.70	33.473
252.08	34.728
252.45	33.745
252.82	32.700
253.19	32.685
253.56	33.094
253.94	33.452
254.31	33.099
254.68	38.255
255.05	33.333
255.42	36.364
255.79	34.356
256.16	37.224
256.54	32.698
256.91	37.342
257.28	35.535
257.65	29.936
258.02	30.499
258.39	35.965
258.76	29.360
259.14	32.955
259.51	32.865
259.88	39.295
260.25	34.444
260.62	34.270
260.99	33.687
261.36	33.679
261.73	34.815
262.10	34.606
262.47	33.827
262.85	30.348
263.22	35.641
263.59	34.805
263.96	32.603
264.33	34.135
264.70	35.349
265.07	37.037
265.44	34.253
265.81	35.698
266.18	34.852
266.55	32.096
266.92	34.110
267.29	32.922
267.66	31.635
268.03	34.774
268.40	32.415
268.77	32.645
269.14	33.061
269.51	34.292
269.88	32.179
270.25	35.169
270.62	32.172
270.99	32.480
271.36	32.540
271.73	34.739
272.10	32.381
272.47	33.013
272.84	33.661
273.21	31.703
273.58	33.607
273.95	32.642
274.32	33.955
274.69	33.515
275.06	34.629
275.43	31.073
275.80	30.496
276.17	34.438
276.54	32.504
276.91	33.101
277.28	31.588
277.65	31.818
278.02	33.393
278.39	30.551
278.76	32.776
279.13	32.075
279.50	33.448
279.87	27.899
280.23	31.712
280.60	31.488
280.97	32.143
281.34	33.912
281.71	31.707
282.08	31.966
282.45	33.443
282.82	31.310
283.19	32.317
283.56	32.344
283.92	31.193
284.29	32.761
284.66	31.137
285.03	31.107
285.40	32.628
285.77	31.532
286.14	31.459
286.51	31.334
286.87	28.462
287.24	29.351
287.61	31.627
287.98	29.853
288.35	30.402
288.72	30.129
289.08	30.199
289.45	30.396
289.82	29.803
290.19	29.453
290.56	28.551
290.93	27.762
291.29	28.181
291.66	29.235
292.03	28.610
292.40	27.995
292.77	27.443
293.13	29.289
293.50	29.542
293.87	27.600
294.24	27.646
294.60	27.438
294.97	29.365
295.34	25.066
295.71	25.756
296.08	26.832
296.44	24.872
296.81	24.604
297.18	27.375
297.55	24.646
297.91	25.466
298.28	25.908
298.65	25.862
299.02	26.252
299.38	27.730
299.75	25.721
300.12	24.070
300.48	26.316
300.85	24.249
301.22	25.087
301.59	25.117
301.95	24.158
302.32	24.387
302.69	23.616
303.05	23.920
303.42	23.977
303.79	24.501
304.15	24.535
304.52	24.946
304.89	23.699
305.25	23.052
305.62	25.054
305.99	23.286
306.35	24.451
306.72	22.787
307.09	23.045
307.45	23.642
307.82	22.211
308.19	22.466
308.55	23.439
308.92	23.772
309.29	24.224
309.65	23.477
310.02	23.559
310.38	23.171
310.75	22.288
311.12	22.935
311.48	24.233
311.85	21.949
312.22	23.017
312.58	22.802
312.95	22.488
313.31	23.049
313.68	22.042
314.05	24.197
314.41	23.151
314.78	22.770
315.14	22.037
315.51	22.931
315.87	23.911
316.24	22.314
316.61	23.653
316.97	21.296
317.34	21.747
317.70	23.104
318.07	22.893
318.43	21.680
318.80	21.815
319.16	22.104
319.53	21.953
319.89	22.493
320.26	21.165
320.62	22.799
320.99	20.349
321.35	20.393
321.72	21.752
322.08	21.771
322.45	22.202
322.81	21.257
323.18	20.930
323.54	20.758
323.91	22.222
324.27	21.782
324.64	21.516
325.00	22.222
325.37	23.208
325.73	21.801
326.10	20.942
326.46	21.237
326.83	21.278
327.19	21.626
327.56	22.401
327.92	20.595
328.29	21.703
328.65	21.385
329.01	20.580
329.38	22.261
329.74	22.232
330.11	21.371
330.47	20.486
330.84	21.751
331.20	21.349
331.56	21.105
331.93	21.102
332.29	21.807
332.66	20.593
333.02	22.415
333.38	21.053
333.75	20.990
334.11	21.701
334.48	22.406
334.84	20.318
335.20	20.755
335.57	20.104
335.93	20.876
336.29	20.315
336.66	20.513
337.02	21.826
337.38	21.410
337.75	20.758
338.11	20.922
338.47	20.120
338.84	21.134
339.20	20.988
339.56	20.137
339.93	20.916
340.29	20.666
340.65	20.274
341.02	20.632
341.38	21.284
341.74	19.832
342.11	20.314
342.47	20.167
342.83	20.425
343.20	20.305
343.56	21.014
343.92	21.933
344.28	20.455
344.65	20.000
345.01	20.500
345.37	21.793
345.73	21.242
346.10	20.144
346.46	19.756
346.82	21.108
347.19	19.304
347.55	21.405
347.91	19.018
348.27	20.899
348.63	19.872
349.00	20.362
349.36	19.780
349.72	20.495
350.08	19.501
350.45	20.439
350.81	19.092
351.17	21.170
351.53	20.581
351.89	19.380
352.26	19.382
352.62	20.078
352.98	19.808
353.34	20.129
353.70	20.249
354.07	20.000
354.43	18.740
354.79	20.353
355.15	19.798
355.51	19.590
355.87	20.954
356.24	19.823
356.60	19.625
356.96	19.417
357.32	20.511
357.68	20.015
358.04	19.317
358.40	19.535
358.77	18.960
359.13	19.533
359.49	19.985
359.85	19.333
360.21	20.046
360.57	19.620
360.93	19.499
361.29	19.689
361.66	21.033
362.02	19.792
362.38	20.310
362.74	18.564
363.10	19.884
363.46	18.804
363.82	20.473
364.18	18.999
364.54	19.183
364.90	19.721
365.26	19.179
365.62	19.886
365.98	19.217
366.35	20.071
366.71	18.688
367.07	19.277
367.43	19.164
367.79	19.944
368.15	19.620
368.51	18.917
368.87	21.563
369.23	19.217
369.59	18.816
369.95	18.360
370.31	18.410
370.67	17.886
371.03	20.193
371.39	19.092
371.75	19.143
372.11	19.658
372.47	18.169
372.83	19.417
373.19	18.129
373.55	19.653
373.91	19.448
374.27	18.880
374.63	19.701
374.99	17.758
375.35	18.973
375.71	18.886
376.07	19.123
376.42	18.182
376.78	18.824
377.14	18.712
377.50	19.557
377.86	18.858
378.22	19.406
378.58	18.474
378.94	18.375
379.30	18.926
379.66	19.605
380.02	19.056
380.38	18.133
380.74	18.410
381.09	18.456
381.45	18.984
381.81	18.608
382.17	18.463
382.53	19.138
382.89	18.637
383.25	18.210
383.61	19.189
383.97	19.062
384.32	18.463
384.68	19.247
385.04	17.654
385.40	19.116
385.76	18.431
386.12	18.980
386.48	17.931
386.83	18.398
387.19	18.692
387.55	18.332
387.91	18.635
388.27	18.249
388.62	18.227
388.98	19.024
389.34	18.734
389.70	18.315
390.06	18.875
390.42	19.394
390.77	18.834
391.13	18.624
391.49	17.837
391.85	17.572
392.20	18.233
392.56	18.095
392.92	18.256
393.28	18.536
393.64	18.532
393.99	17.503
394.35	18.333
394.71	17.885
395.07	17.484
395.42	18.038
395.78	18.404
396.14	18.960
396.50	18.136
396.85	19.057
397.21	18.539
397.57	18.075
397.92	18.862
398.28	18.331
398.64	18.276
399.00	18.694
399.35	17.367
399.71	17.647
400.07	18.253
400.42	18.056
400.78	17.644
401.14	17.658
401.49	18.035
401.85	18.550
402.21	17.771
402.57	18.823
402.92	19.462
403.28	18.199
403.63	18.103
403.99	18.618
404.35	17.955
404.70	16.979
405.06	18.790
405.42	18.216
405.77	18.145
406.13	18.114
406.49	17.436
406.84	17.888
407.20	17.407
407.55	18.442
407.91	18.332
408.27	18.091
408.62	18.478
408.98	17.139
409.34	17.760
409.69	18.324
410.05	17.848
410.40	17.346
410.76	17.990
411.11	17.040
411.47	18.580
411.83	17.342
412.18	18.388
412.54	18.296
412.89	18.119
413.25	17.699
413.60	17.555
413.96	18.227
414.31	17.818
414.67	18.667
415.03	17.794
415.38	17.503
415.74	16.764
416.09	17.978
416.45	18.113
416.80	17.718
417.16	18.084
417.51	17.549
417.87	17.262
418.22	17.453
418.58	18.463
418.93	17.389
419.29	18.086
419.64	17.748
420.00	18.222
420.35	18.350
420.71	17.550
421.06	18.696
421.42	18.917
421.77	17.572
422.12	17.937
422.48	16.739
422.83	17.366
423.19	17.711
423.54	18.139
423.90	16.865
424.25	17.273
424.61	17.683
424.96	17.209
425.31	17.386
425.67	18.166
426.02	17.962
426.38	17.662
426.73	17.654
427.09	17.573
427.44	16.676
427.79	17.102
428.15	17.982
428.50	16.858
428.85	17.897
429.21	17.107
429.56	17.535
429.92	17.491
430.27	18.098
430.62	17.471
430.98	17.398
431.33	18.055
431.68	17.359
432.04	16.676
432.39	17.206
432.74	17.719
433.10	17.374
433.45	16.923
433.80	17.184
434.16	17.804
434.51	17.446
434.86	17.138
435.22	17.827
435.57	17.629
435.92	17.008
436.28	16.456
436.63	17.090
436.98	17.509
437.34	17.155
437.69	17.237
438.04	16.865
438.39	16.812
438.75	16.508
439.10	17.640
439.45	17.312
439.81	17.303
440.16	16.812
440.51	17.241
440.86	16.775
441.22	16.236
441.57	17.842
441.92	17.574
442.27	16.342
442.63	16.416
442.98	16.956
443.33	17.664
443.68	17.238
444.03	17.635
444.39	17.700
444.74	17.338
445.09	16.630
445.44	17.803
445.79	17.811
446.15	17.360
446.50	18.062
446.85	17.745
447.20	17.303
447.55	17.571
447.91	17.022
448.26	17.439
448.61	17.434
448.96	17.426
449.31	17.704
449.66	17.814
450.02	17.567
450.37	17.391
450.72	17.049
451.07	17.868
451.42	17.280
451.77	17.346
452.12	15.983
452.47	17.495
452.83	16.922
453.18	16.996
453.53	16.393
453.88	16.687
454.23	18.047
454.58	16.728
454.93	16.613
455.28	17.213
455.63	16.407
455.98	17.346
456.34	16.720
456.69	17.252
457.04	16.718
457.39	16.657
457.74	15.919
458.09	17.121
458.44	16.980
458.79	16.255
459.14	15.899
459.49	17.561
459.84	16.573
460.19	16.206
460.54	17.883
460.89	16.779
461.24	16.523
461.59	16.365
461.94	17.383
462.29	16.299
462.64	16.557
462.99	16.901
463.34	16.436
463.69	17.719
464.04	16.267
464.39	17.755
464.74	16.892
465.09	17.111
465.44	17.228
465.79	17.251
466.14	16.477
466.49	16.364
466.84	16.019
467.19	16.943
467.54	16.915
467.89	16.279
468.24	16.841
468.59	16.380
468.94	16.475
469.29	17.118
469.64	16.318
469.99	16.966
470.34	15.711
470.68	16.283
471.03	16.220
471.38	17.385
471.73	16.735
472.08	15.876
472.43	16.953
472.78	16.903
473.13	15.501
473.48	15.917
473.83	16.698
474.17	16.276
474.52	16.699
474.87	16.466
475.22	16.304
475.57	17.066
475.92	16.249
476.27	16.200
476.61	16.025
476.96	16.619
477.31	16.451
477.66	16.667
478.01	16.099
478.36	15.913
478.70	16.004
479.05	16.537
479.40	16.277
479.75	16.312
480.10	16.471
480.45	16.430
480.79	16.675
481.14	17.021
481.49	16.330
481.84	15.457
482.19	16.119
482.53	16.476
482.88	15.916
483.23	15.640
483.58	16.304
483.92	15.856
484.27	16.560
484.62	16.067
484.97	16.093
485.31	16.732
485.66	17.517
486.01	18.195
486.36	18.032
486.70	17.654
487.05	17.570
487.40	17.078
487.75	17.083
488.09	16.891
488.44	16.088
488.79	16.276
489.13	15.984
489.48	15.861
489.83	16.391
490.17	15.615
490.52	16.597
490.87	15.809
491.22	16.392
491.56	16.195
491.91	15.843
492.26	15.861
492.60	15.344
492.95	16.035
493.30	15.843
493.64	15.492
493.99	15.845
494.34	16.667
494.68	15.800
495.03	15.563
495.37	15.426
495.72	16.190
496.07	16.025
496.41	15.817
496.76	15.905
497.11	15.634
497.45	15.807
497.80	15.750
498.14	15.718
498.49	15.835
498.84	15.739
499.18	15.231
499.53	16.347
499.87	15.623
500.22	15.182
500.56	15.898
500.91	15.543
501.26	15.665
501.60	15.784
501.95	16.052
502.29	16.117
502.64	16.345
502.98	16.474
503.33	15.766
503.67	15.920
504.02	15.784
504.36	15.255
504.71	14.990
505.06	15.996
505.40	15.979
505.75	16.734
506.09	15.534
506.44	15.927
506.78	16.252
507.13	16.112
507.47	15.854
507.82	16.327
508.16	16.042
508.51	16.167
508.85	15.863
509.19	15.344
509.54	15.603
509.88	16.075
510.23	15.368
510.57	15.890
510.92	15.356
511.26	15.457
511.61	14.984
511.95	15.270
512.30	14.714
512.64	16.288
512.98	15.069
513.33	15.606
513.67	14.651
514.02	15.450
514.36	15.955
514.70	15.820
515.05	15.331
515.39	14.446
515.74	14.920
516.08	15.103
516.42	14.747
516.77	15.173
517.11	14.638
517.46	16.447
517.80	17.010
518.14	14.268
518.49	14.647
518.83	15.394
519.17	14.699
519.52	15.139
519.86	14.815
520.20	14.494
520.55	15.236
520.89	14.042
521.23	15.321
521.58	15.550
521.92	14.205
522.26	15.810
522.61	15.385
522.95	15.026
523.29	15.048
523.64	14.940
523.98	15.311
524.32	15.249
524.66	15.130
525.01	15.334
525.35	14.352
525.69	14.911
526.04	14.984
526.38	14.723
526.72	14.596
527.06	14.700
527.41	14.758
527.75	14.419
528.09	15.385
528.43	15.265
528.78	15.310
529.12	15.524
529.46	14.715
529.80	15.793
530.15	14.607
530.49	15.970
530.83	14.692
531.17	15.137
531.51	14.700
531.86	15.041
532.20	14.404
532.54	13.655
532.88	15.180
533.22	14.343
533.57	14.570
533.91	16.000
534.25	15.885
534.59	14.801
534.93	15.625
535.27	15.541
535.62	15.000
535.96	16.526
536.30	15.359
536.64	15.038
536.98	13.805
537.32	14.947
537.66	15.233
538.01	14.702
538.35	14.848
538.69	15.853
539.03	14.631
539.37	14.286
539.71	15.553
540.05	13.563
540.39	14.591
540.73	14.455
541.07	14.626
541.42	15.286
541.76	14.682
542.10	15.166
542.44	14.761
542.78	15.267
543.12	14.892
543.46	14.720
543.80	15.479
544.14	15.279
544.48	14.930
544.82	15.871
545.16	15.010
545.50	15.530
545.84	15.147
546.18	14.586
546.52	14.044
546.86	14.558
547.20	14.510
547.54	14.939
547.88	15.789
548.22	15.179
548.56	15.477
548.90	15.223
549.24	15.625
549.58	14.733
549.92	15.627
550.26	16.974
550.60	14.264
550.94	14.403
551.28	14.610
551.62	15.564
551.96	14.934
552.30	14.920
552.64	14.477
552.98	14.418
553.32	15.429
553.66	15.701
554.00	14.399
554.34	13.919
554.68	15.660
555.02	15.269
555.36	15.431
555.69	14.712
556.03	15.082
556.37	15.078
556.71	14.926
557.05	14.760
557.39	14.846
557.73	15.204
558.07	14.921
558.41	15.443
558.75	14.781
559.08	13.953
559.42	14.713
559.76	14.144
560.10	13.836
560.44	15.254
560.78	15.036
561.12	16.258
561.45	14.218
561.79	14.993
562.13	14.487
562.47	15.143
562.81	14.430
563.15	14.943
563.48	15.348
563.82	15.595
564.16	15.843
564.50	16.282
564.84	14.865
565.17	15.762
565.51	16.176
565.85	15.123
566.19	15.629
566.52	15.727
566.86	15.360
567.20	16.005
567.54	16.292
567.88	15.789
568.21	16.024
568.55	17.162
568.89	15.952
569.23	16.499
569.56	16.771
569.90	17.638
570.24	16.570
570.57	16.957
570.91	17.776
571.25	17.357
571.59	17.288
571.92	17.571
572.26	17.850
572.60	17.308
572.93	17.182
573.27	17.279
573.61	17.708
573.95	17.742
574.28	17.891
574.62	17.749
574.96	17.913
575.29	17.828
575.63	17.677
575.97	17.446
576.30	16.905
576.64	17.658
576.98	17.735
577.31	18.235
577.65	18.091
577.98	17.939
578.32	18.104
578.66	18.258
578.99	17.394
579.33	18.216
579.67	17.668
580.00	16.969
580.34	17.644
580.67	18.177
581.01	17.957
581.35	18.201
581.68	18.739
582.02	18.450
582.35	18.559
582.69	18.106
583.02	18.013
583.36	17.762
583.70	17.732
584.03	17.552
584.37	16.831
584.70	17.870
585.04	17.520
585.37	17.521
585.71	17.824
586.04	17.945
586.38	17.522
586.72	17.842
587.05	17.597
587.39	17.947
587.72	17.846
588.06	17.866
588.39	17.940
588.73	17.238
589.06	17.038
589.40	17.131
589.73	16.852
590.07	17.718
590.40	17.266
590.73	17.747
591.07	17.133
591.40	16.217
591.74	16.763
592.07	17.389
592.41	17.589
592.74	17.245
593.08	17.470
593.41	17.694
593.75	17.668
594.08	17.444
594.41	17.660
594.75	17.954
595.08	16.804
595.42	17.394
595.75	17.462
596.09	17.206
596.42	17.320
596.75	16.542
597.09	17.106
597.42	17.586
597.75	17.067
598.09	17.122
598.42	16.913
598.76	16.583
599.09	17.367
599.42	17.598
599.76	17.649
600.09	17.319
600.42	17.213
600.76	17.295
601.09	17.552
601.42	17.131
601.76	17.104
602.09	17.673
602.42	17.375
602.76	16.904
603.09	17.741
603.42	18.073
603.76	17.810
604.09	17.115
604.42	16.618
604.76	16.936
605.09	16.991
605.42	17.499
605.75	17.088
606.09	17.094
606.42	17.165
606.75	16.667
607.09	17.021
607.42	17.075
607.75	16.718
608.08	16.772
608.42	16.261
608.75	16.961
609.08	16.365
609.41	17.486
609.75	16.742
610.08	16.174
610.41	17.638
610.74	17.469
611.07	17.234
611.41	16.888
611.74	16.667
612.07	16.415
612.40	17.297
612.73	16.630
613.07	16.685
613.40	17.015
613.73	16.035
614.06	16.750
614.39	16.398
614.72	17.157
615.06	16.833
615.39	16.280
615.72	16.577
616.05	15.709
616.38	17.010
616.71	15.657
617.05	16.708
617.38	16.020
617.71	16.483
618.04	16.514
618.37	16.404
618.70	16.171
619.03	15.533
619.36	16.157
619.69	15.497
620.03	15.406
620.36	16.006
620.69	15.275
621.02	15.077
621.35	14.800
621.68	14.751
622.01	15.615
622.34	15.464
622.67	15.818
623.00	16.489
623.33	15.931
623.66	15.539
623.99	17.179
624.32	15.627
624.65	15.950
624.99	15.283
625.32	17.252
625.65	16.124
625.98	16.035
626.31	16.000
626.64	15.133
626.97	14.360
627.30	15.398
627.63	15.398
627.96	14.026
628.29	14.791
628.62	14.990
628.95	14.228
629.28	14.089
629.61	15.885
629.94	14.410
630.26	14.877
630.59	14.685
630.92	14.558
631.25	15.757
631.58	14.454
631.91	12.725
632.24	12.843
632.57	13.444
632.90	14.702
633.23	13.189
