SpectraSuite Data File
++++++++++++++++++++++++++++++++++++
Date: Wed May 13 21:10:04 PDT 2015
User: schluterlab
Dark Spectrum Present: Yes
Reference Spectrum Present: Yes
Number of Sampled Component Spectra: 1
Spectrometers: USB2E3373
Integration Time (usec): 3000 (USB2E3373)
Spectra Averaged: 3 (USB2E3373)
Boxcar Smoothing: 0 (USB2E3373)
Correct for Electrical Dark: No (USB2E3373)
Strobe/Lamp Enabled: No (USB2E3373)
Correct for Detector Non-linearity: No (USB2E3373)
Correct for Stray Light: No (USB2E3373)
Number of Pixels in Processed Spectrum: 2048
>>>>>Begin Processed Spectral Data<<<<<
178.53	0.000
178.91	400.000
179.29	133.333
179.67	-750.000
180.04	-233.333
180.42	320.000
180.80	800.000
181.18	166.667
181.56	-475.000
181.94	-75.000
182.31	-27.273
182.69	130.769
183.07	-340.000
183.45	250.000
183.83	144.444
184.20	114.286
184.58	200.000
184.96	400.000
185.34	185.714
185.72	0.000
186.09	-400.000
186.47	-340.000
186.85	100.000
187.23	-350.000
187.61	500.000
187.98	900.000
188.36	-62.500
188.74	0.000
189.12	-27.273
189.49	160.000
189.87	91.667
190.25	300.000
190.63	900.000
191.00	-140.000
191.38	340.000
191.76	75.000
192.14	166.667
192.51	-63.158
192.89	566.667
193.27	300.000
193.65	-180.000
194.02	209.091
194.40	230.000
194.78	100.000
195.15	260.000
195.53	-320.000
195.91	-62.500
196.29	-100.000
196.66	0.000
197.04	450.000
197.42	-40.000
197.79	-20.000
198.17	-87.500
198.55	-33.333
198.92	225.000
199.30	-266.667
199.68	10.000
200.05	400.000
200.43	133.333
200.81	-1700.000
201.18	-180.000
201.56	-233.333
201.94	400.000
202.31	26.087
202.69	-42.857
203.07	-433.333
203.44	-60.000
203.82	-300.000
204.19	-150.000
204.57	0.000
204.95	-16.667
205.32	0.000
205.70	-150.000
206.08	-275.000
206.45	-250.000
206.83	400.000
207.20	-100.000
207.58	30.000
207.96	-600.000
208.33	-228.571
208.71	-1400.000
209.08	150.000
209.46	400.000
209.84	0.000
210.21	140.000
210.59	1300.000
210.96	280.000
211.34	400.000
211.71	-550.000
212.09	-83.333
212.46	-150.000
212.84	-100.000
213.22	50.000
213.59	-1200.000
213.97	-750.000
214.34	-900.000
214.72	38.462
215.09	162.500
215.47	222.222
215.84	900.000
216.22	-12.500
216.59	-200.000
216.97	466.667
217.34	166.667
217.72	0.000
218.09	33.333
218.47	-200.000
218.84	-71.429
219.22	0.000
219.59	-166.667
219.97	-125.000
220.34	0.000
220.72	-220.000
221.09	0.000
221.47	-150.000
221.84	0.000
222.22	0.000
222.59	600.000
222.97	-533.333
223.34	-8.333
223.72	-400.000
224.09	-100.000
224.46	-109.091
224.84	175.000
225.21	-114.286
225.59	-175.000
225.96	-33.333
226.34	-100.000
226.71	-200.000
227.08	500.000
227.46	-162.500
227.83	500.000
228.21	6.250
228.58	-175.000
228.95	-58.824
229.33	-6.250
229.70	-25.000
230.08	-23.077
230.45	-112.500
230.82	-75.000
231.20	85.714
231.57	-50.000
231.95	1300.000
232.32	33.333
232.69	-11.765
233.07	-2000.000
233.44	-8.696
233.81	-800.000
234.19	25.000
234.56	-13.333
234.93	0.000
235.31	31.579
235.68	-38.462
236.05	-53.846
236.43	-44.444
236.80	-3.030
237.17	6.667
237.55	-100.000
237.92	-20.690
238.29	-37.037
238.67	2.778
239.04	-19.355
239.41	-25.532
239.79	10.638
240.16	6.977
240.53	7.143
240.91	-3.571
241.28	-7.143
241.65	14.516
242.02	14.474
242.40	13.043
242.77	5.797
243.14	2.564
243.51	6.383
243.89	9.615
244.26	15.094
244.63	5.769
245.00	12.500
245.38	2.521
245.75	6.557
246.12	-0.752
246.49	1.626
246.87	-7.563
247.24	6.757
247.61	5.298
247.98	4.487
248.36	9.467
248.73	4.494
249.10	8.586
249.47	3.763
249.84	9.474
250.22	3.980
250.59	5.140
250.96	13.182
251.33	4.785
251.70	12.971
252.08	12.971
252.45	8.230
252.82	10.266
253.19	9.339
253.56	7.914
253.94	8.541
254.31	9.859
254.68	11.074
255.05	10.891
255.42	7.692
255.79	9.509
256.16	10.095
256.54	8.254
256.91	7.595
257.28	11.321
257.65	4.777
258.02	6.452
258.39	9.064
258.76	6.686
259.14	8.807
259.51	7.303
259.88	9.756
260.25	8.611
260.62	10.393
260.99	10.610
261.36	11.399
261.73	6.914
262.10	7.888
262.47	8.889
262.85	9.204
263.22	10.769
263.59	7.792
263.96	7.786
264.33	8.654
264.70	10.000
265.07	10.185
265.44	11.494
265.81	9.611
266.18	10.023
266.55	6.769
266.92	10.169
267.29	8.848
267.66	9.766
268.03	12.346
268.40	10.381
268.77	9.917
269.14	11.020
269.51	11.910
269.88	7.128
270.25	7.627
270.62	7.992
270.99	10.039
271.36	9.127
271.73	7.831
272.10	12.000
272.47	10.173
272.84	9.055
273.21	7.828
273.58	6.967
273.95	6.792
274.32	9.515
274.69	9.836
275.06	11.661
275.43	9.416
275.80	9.043
276.17	9.761
276.54	10.302
276.91	8.537
277.28	6.137
277.65	10.664
278.02	9.107
278.39	7.815
278.76	9.699
279.13	8.748
279.50	10.000
279.87	9.058
280.23	9.369
280.60	8.824
280.97	8.766
281.34	11.830
281.71	9.756
282.08	9.402
282.45	10.820
282.82	9.425
283.19	10.823
283.56	9.531
283.92	10.550
284.29	9.048
284.66	11.367
285.03	7.492
285.40	7.553
285.77	9.610
286.14	8.359
286.51	9.595
286.87	7.385
287.24	8.850
287.61	10.693
287.98	10.735
288.35	9.091
288.72	9.469
289.08	9.259
289.45	8.370
289.82	9.985
290.19	7.854
290.56	9.517
290.93	8.564
291.29	8.892
291.66	8.333
292.03	9.128
292.40	9.152
292.77	9.772
293.13	8.368
293.50	8.889
293.87	9.067
294.24	9.259
294.60	9.363
294.97	8.598
295.34	6.860
295.71	7.490
296.08	7.592
296.44	7.143
296.81	6.943
297.18	9.125
297.55	9.552
297.91	7.702
298.28	7.990
298.65	7.143
299.02	8.425
299.38	7.607
299.75	8.293
300.12	6.628
300.48	7.368
300.85	6.928
301.22	7.898
301.59	6.690
301.95	7.433
302.32	7.351
302.69	6.441
303.05	7.530
303.42	8.068
303.79	7.571
304.15	7.558
304.52	8.065
304.89	7.973
305.25	6.696
305.62	7.918
305.99	8.379
306.35	7.732
306.72	8.240
307.09	7.716
307.45	6.070
307.82	7.789
308.19	6.061
308.55	7.165
308.92	9.332
309.29	6.907
309.65	8.791
310.02	7.952
310.38	7.724
310.75	7.101
311.12	7.580
311.48	8.111
311.85	8.071
312.22	8.511
312.58	7.923
312.95	7.562
313.31	7.989
313.68	6.584
314.05	8.601
314.41	8.838
314.78	9.772
315.14	10.185
315.51	9.229
315.87	9.082
316.24	9.826
316.61	10.046
316.97	10.000
317.34	9.893
317.70	11.418
318.07	11.358
318.43	10.479
318.80	11.780
319.16	12.025
319.53	12.097
319.89	13.098
320.26	13.771
320.62	12.975
320.99	14.050
321.35	14.312
321.72	15.207
322.08	16.144
322.45	17.576
322.81	17.375
323.18	19.141
323.54	18.321
323.91	18.970
324.27	21.422
324.64	18.902
325.00	22.222
325.37	23.464
325.73	23.653
326.10	23.633
326.46	27.174
326.83	26.942
327.19	28.374
327.56	30.298
327.92	29.445
328.29	31.553
328.65	33.479
329.01	32.982
329.38	34.522
329.74	33.305
330.11	36.159
330.47	35.677
330.84	37.094
331.20	37.746
331.56	38.768
331.93	39.449
332.29	40.400
332.66	39.831
333.02	41.355
333.38	42.544
333.75	40.956
334.11	43.142
334.48	42.459
334.84	42.403
335.20	41.767
335.57	42.994
335.93	43.729
336.29	44.921
336.66	44.274
337.02	45.739
337.38	44.735
337.75	45.564
338.11	44.492
338.47	46.062
338.84	45.876
339.20	46.649
339.56	45.904
339.93	47.882
340.29	47.395
340.65	48.161
341.02	47.421
341.38	46.791
341.74	46.134
342.11	47.399
342.47	46.778
342.83	46.569
343.20	48.646
343.56	49.387
343.92	47.197
344.28	49.269
344.65	49.306
345.01	48.588
345.37	49.178
345.73	49.510
346.10	50.883
346.46	50.000
346.82	50.161
347.19	48.655
347.55	49.919
347.91	50.039
348.27	50.315
348.63	50.721
349.00	51.022
349.36	50.706
349.72	51.508
350.08	50.936
350.45	51.684
350.81	51.330
351.17	50.808
351.53	52.003
351.89	50.437
352.26	51.042
352.62	51.395
352.98	51.597
353.34	53.221
353.70	52.259
354.07	51.529
354.43	52.877
354.79	55.449
355.15	52.640
355.51	51.557
355.87	54.027
356.24	53.371
356.60	52.072
356.96	53.031
357.32	52.554
357.68	54.775
358.04	53.142
358.40	53.566
358.77	54.358
359.13	53.852
359.49	53.671
359.85	54.132
360.21	54.819
360.57	55.589
360.93	55.918
361.29	56.181
361.66	55.809
362.02	55.893
362.38	53.619
362.74	54.315
363.10	55.821
363.46	56.124
363.82	56.024
364.18	55.620
364.54	57.112
364.90	54.495
365.26	55.980
365.62	56.108
365.98	56.512
366.35	55.887
366.71	57.275
367.07	56.485
367.43	56.794
367.79	58.374
368.15	56.681
368.51	56.540
368.87	58.200
369.23	58.221
369.59	55.814
369.95	58.273
370.31	56.834
370.67	58.146
371.03	59.317
371.39	58.055
371.75	59.143
372.11	59.330
372.47	58.616
372.83	57.836
373.19	58.345
373.55	59.754
373.91	59.689
374.27	58.783
374.63	59.602
374.99	59.053
375.35	59.863
375.71	59.783
376.07	60.384
376.42	60.027
376.78	61.493
377.14	61.559
377.50	61.343
377.86	59.097
378.22	61.062
378.58	60.845
378.94	61.250
379.30	60.837
379.66	61.467
380.02	61.275
380.38	60.843
380.74	62.224
381.09	62.485
381.45	60.641
381.81	61.553
382.17	62.886
382.53	60.677
382.89	61.942
383.25	61.235
383.61	61.985
383.97	62.250
384.32	62.634
384.68	62.986
385.04	60.843
385.40	62.578
385.76	61.071
386.12	61.975
386.48	62.759
386.83	61.890
387.19	63.664
387.55	62.109
387.91	64.207
388.27	63.009
388.62	61.985
388.98	64.018
389.34	61.654
389.70	63.492
390.06	62.625
390.42	63.402
390.77	63.421
391.13	63.258
391.49	63.125
391.85	63.195
392.20	63.534
392.56	63.111
392.92	63.370
393.28	63.510
393.64	64.648
393.99	60.526
394.35	64.012
394.71	64.423
395.07	62.767
395.42	64.473
395.78	63.707
396.14	64.109
396.50	65.060
396.85	64.308
397.21	62.797
397.57	63.789
397.92	63.413
398.28	62.888
398.64	62.599
399.00	63.002
399.35	64.132
399.71	63.192
400.07	64.217
400.42	63.636
400.78	62.659
401.14	62.784
401.49	63.571
401.85	65.356
402.21	62.291
402.57	63.458
402.92	63.204
403.28	64.165
403.63	63.422
403.99	63.916
404.35	62.905
404.70	62.961
405.06	63.594
405.42	63.379
405.77	62.961
406.13	63.029
406.49	63.571
406.84	64.774
407.20	62.049
407.55	64.026
407.91	63.071
408.27	62.508
408.62	63.413
408.98	63.379
409.34	63.119
409.69	63.353
410.05	63.060
410.40	62.568
410.76	63.839
411.11	63.682
411.47	64.698
411.83	62.944
412.18	62.972
412.54	63.471
412.89	63.009
413.25	61.416
413.60	62.884
413.96	63.608
414.31	63.317
414.67	62.984
415.03	64.276
415.38	62.087
415.74	62.508
416.09	62.789
416.45	62.953
416.80	63.557
417.16	64.103
417.51	62.224
417.87	63.492
418.22	61.603
418.58	63.469
418.93	63.026
419.29	64.422
419.64	61.959
420.00	64.000
420.35	62.582
420.71	62.706
421.06	61.931
421.42	64.781
421.77	62.775
422.12	63.725
422.48	62.323
422.83	63.615
423.19	63.485
423.54	64.311
423.90	62.292
424.25	64.009
424.61	64.079
424.96	62.153
425.31	62.423
425.67	63.668
426.02	64.429
426.38	63.619
426.73	62.798
427.09	61.288
427.44	62.772
427.79	62.767
428.15	61.713
428.50	61.692
428.85	62.423
429.21	61.508
429.56	63.337
429.92	63.873
430.27	63.088
430.62	62.225
430.98	62.295
431.33	63.138
431.68	63.152
432.04	63.493
432.39	62.413
432.74	63.335
433.10	62.870
433.45	62.722
433.80	62.816
434.16	62.261
434.51	62.283
434.86	63.545
435.22	61.460
435.57	60.811
435.92	62.666
436.28	61.682
436.63	62.991
436.98	62.808
437.34	62.515
437.69	60.921
438.04	61.290
438.39	62.765
438.75	62.574
439.10	62.753
439.45	61.259
439.81	62.254
440.16	63.478
440.51	61.237
440.86	61.885
441.22	62.593
441.57	62.690
441.92	61.897
442.27	61.418
442.63	61.464
442.98	60.822
443.33	61.738
443.68	61.255
444.03	61.848
444.39	62.717
444.74	61.458
445.09	61.619
445.44	62.930
445.79	61.280
446.15	60.788
446.50	60.407
446.85	62.908
447.20	61.892
447.55	61.444
447.91	60.787
448.26	61.349
448.61	60.357
448.96	61.048
449.31	61.679
449.66	62.175
450.02	61.569
450.37	61.986
450.72	61.079
451.07	61.003
451.42	60.387
451.77	61.595
452.12	59.952
452.47	61.394
452.83	60.318
453.18	60.917
453.53	60.908
453.88	61.446
454.23	61.990
454.58	60.478
454.93	60.167
455.28	61.015
455.63	60.574
455.98	61.412
456.34	60.903
456.69	60.383
457.04	60.929
457.39	60.012
457.74	59.366
458.09	59.064
458.44	60.106
458.79	58.375
459.14	58.427
459.49	60.427
459.84	58.399
460.19	61.104
460.54	59.854
460.89	59.628
461.24	60.727
461.59	59.420
461.94	59.166
462.29	58.762
462.64	59.301
462.99	58.417
463.34	60.497
463.69	59.729
464.04	58.343
464.39	59.304
464.74	59.705
465.09	59.578
465.44	59.259
465.79	58.367
466.14	57.583
466.49	58.240
466.84	58.577
467.19	59.554
467.54	58.717
467.89	59.019
468.24	58.758
468.59	57.871
468.94	59.579
469.29	56.709
469.64	58.996
469.99	59.310
470.34	57.451
470.68	59.033
471.03	57.969
471.38	57.510
471.73	57.682
472.08	58.763
472.43	58.575
472.78	59.297
473.13	57.586
473.48	57.078
473.83	57.878
474.17	59.115
474.52	58.252
474.87	56.695
475.22	57.790
475.57	57.334
475.92	57.852
476.27	56.993
476.61	57.135
476.96	57.796
477.31	57.012
477.66	57.966
478.01	56.703
478.36	57.112
478.70	58.056
479.05	58.657
479.40	55.590
479.75	57.120
480.10	56.757
480.45	55.566
480.79	57.690
481.14	57.700
481.49	57.622
481.84	56.315
482.19	56.044
482.53	56.333
482.88	56.616
483.23	56.208
483.58	56.380
483.92	56.226
484.27	55.672
484.62	55.881
484.97	56.242
485.31	54.941
485.66	53.054
486.01	54.211
486.36	54.771
486.70	54.473
487.05	55.627
487.40	55.623
487.75	56.359
488.09	55.208
488.44	56.081
488.79	56.245
489.13	55.189
489.48	55.366
489.83	55.293
490.17	54.925
490.52	55.727
490.87	53.639
491.22	55.393
491.56	56.157
491.91	55.161
492.26	55.077
492.60	54.834
492.95	56.365
493.30	54.748
493.64	54.580
493.99	54.348
494.34	54.913
494.68	55.561
495.03	54.447
495.37	54.745
495.72	54.637
496.07	55.285
496.41	53.907
496.76	54.022
497.11	54.789
497.45	55.399
497.80	54.871
498.14	54.861
498.49	54.614
498.84	53.644
499.18	54.256
499.53	54.210
499.87	54.148
500.22	53.609
500.56	54.263
500.91	54.125
501.26	53.596
501.60	53.627
501.95	53.666
502.29	53.592
502.64	53.905
502.98	53.998
503.33	53.869
503.67	52.726
504.02	53.824
504.36	53.839
504.71	54.624
505.06	54.610
505.40	53.763
505.75	53.713
506.09	53.807
506.44	53.427
506.78	53.733
507.13	53.794
507.47	54.560
507.82	53.480
508.16	54.406
508.51	53.616
508.85	53.862
509.19	53.228
509.54	54.424
509.88	52.903
510.23	53.263
510.57	53.284
510.92	53.772
511.26	54.125
511.61	53.238
511.95	52.811
512.30	53.470
512.64	54.086
512.98	52.853
513.33	52.901
513.67	53.606
514.02	52.509
514.36	52.191
514.70	53.811
515.05	53.540
515.39	52.830
515.74	53.227
516.08	52.212
516.42	52.535
516.77	53.603
517.11	53.380
517.46	53.541
517.80	54.540
518.14	52.358
518.49	52.743
518.83	52.625
519.17	51.867
519.52	53.619
519.86	54.341
520.20	51.546
520.55	53.172
520.89	54.143
521.23	53.910
521.58	54.046
521.92	52.420
522.26	52.115
522.61	53.135
522.95	53.368
523.29	52.127
523.64	52.066
523.98	51.715
524.32	51.859
524.66	53.117
525.01	53.997
525.35	53.127
525.69	51.955
526.04	51.531
526.38	52.772
526.72	52.202
527.06	51.773
527.41	52.349
527.75	52.069
528.09	54.255
528.43	53.324
528.78	51.809
529.12	51.294
529.46	52.079
529.80	52.557
530.15	50.322
530.49	52.291
530.83	52.674
531.17	53.904
531.51	51.585
531.86	52.507
532.20	52.378
532.54	53.034
532.88	52.961
533.22	52.256
533.57	51.987
533.91	50.968
534.25	52.409
534.59	50.064
534.93	52.232
535.27	51.146
535.62	52.039
535.96	51.529
536.30	50.731
536.64	50.991
536.98	51.647
537.32	52.456
537.66	51.834
538.01	51.318
538.35	51.588
538.69	50.435
539.03	50.403
539.37	50.905
539.71	51.296
540.05	51.215
540.39	51.755
540.73	52.165
541.07	49.864
541.42	51.246
541.76	52.030
542.10	51.049
542.44	50.866
542.78	51.908
543.12	50.067
543.46	50.035
543.80	50.916
544.14	50.447
544.48	50.033
544.82	50.841
545.16	49.966
545.50	50.574
545.84	49.299
546.18	50.631
546.52	50.741
546.86	50.106
547.20	49.464
547.54	50.036
547.88	50.742
548.22	49.707
548.56	50.834
548.90	49.865
549.24	50.278
549.58	49.964
549.92	50.917
550.26	50.701
550.60	51.201
550.94	50.075
551.28	50.416
551.62	50.526
551.96	49.268
552.30	49.127
552.64	49.223
552.98	49.148
553.32	49.387
553.66	50.404
554.00	48.884
554.34	48.718
554.68	49.739
555.02	50.225
555.36	50.605
555.69	50.182
556.03	50.393
556.37	48.720
556.71	48.143
557.05	48.782
557.39	49.586
557.73	49.395
558.07	49.435
558.41	49.584
558.75	50.808
559.08	49.960
559.42	49.882
559.76	48.930
560.10	48.885
560.44	51.584
560.78	48.489
561.12	48.844
561.45	47.211
561.79	49.037
562.13	48.664
562.47	50.429
562.81	48.485
563.15	47.450
563.48	48.107
563.82	48.700
564.16	47.055
564.50	47.897
564.84	48.581
565.17	48.212
565.51	48.730
565.85	47.502
566.19	49.073
566.52	47.051
566.86	47.155
567.20	47.159
567.54	47.611
567.88	46.473
568.21	47.094
568.55	47.314
568.89	46.610
569.23	46.334
569.56	46.391
569.90	46.549
570.24	45.451
570.57	45.002
570.91	45.839
571.25	45.605
571.59	44.919
571.92	45.351
572.26	45.708
572.60	44.657
572.93	45.392
573.27	44.762
573.61	45.465
573.95	44.765
574.28	44.986
574.62	44.631
574.96	44.833
575.29	44.860
575.63	44.968
575.97	45.788
576.30	44.191
576.64	44.695
576.98	45.232
577.31	44.468
577.65	44.091
577.98	44.382
578.32	44.340
578.66	44.923
578.99	45.188
579.33	44.828
579.67	44.985
580.00	44.149
580.34	44.038
580.67	44.488
581.01	44.590
581.35	44.145
581.68	44.426
582.02	44.270
582.35	44.451
582.69	44.406
583.02	44.252
583.36	44.711
583.70	44.008
584.03	45.080
584.37	44.098
584.70	44.820
585.04	44.147
585.37	43.815
585.71	44.404
586.04	44.436
586.38	43.804
586.72	44.029
587.05	45.234
587.39	44.312
587.72	44.388
588.06	44.815
588.39	44.053
588.73	44.254
589.06	44.876
589.40	43.928
589.73	45.203
590.07	43.930
590.40	43.885
590.73	44.814
591.07	44.254
591.40	44.304
591.74	44.820
592.07	45.596
592.41	44.788
592.74	44.213
593.08	43.556
593.41	44.637
593.75	44.348
594.08	44.041
594.41	44.826
594.75	43.403
595.08	44.511
595.42	43.629
595.75	43.601
596.09	43.687
596.42	44.322
596.75	43.923
597.09	45.086
597.42	45.626
597.75	44.489
598.09	44.353
598.42	44.877
598.76	43.451
599.09	44.098
599.42	43.542
599.76	43.673
600.09	43.712
600.42	44.256
600.76	43.755
601.09	43.089
601.42	43.787
601.76	42.896
602.09	43.535
602.42	43.293
602.76	43.582
603.09	44.353
603.42	42.983
603.76	42.946
604.09	42.846
604.42	43.114
604.76	43.431
605.09	45.492
605.42	44.130
605.75	43.555
606.09	42.715
606.42	42.976
606.75	43.506
607.09	42.996
607.42	43.433
607.75	41.882
608.08	43.102
608.42	43.018
608.75	43.478
609.08	43.655
609.41	42.971
609.75	43.772
610.08	43.540
610.41	44.461
610.74	44.081
611.07	43.537
611.41	44.115
611.74	42.909
612.07	43.200
612.40	44.378
612.73	43.304
613.07	43.404
613.40	44.383
613.73	43.012
614.06	43.560
614.39	43.246
614.72	43.143
615.06	43.722
615.39	44.260
615.72	43.035
616.05	43.694
616.38	43.471
616.71	41.992
617.05	43.735
617.38	42.514
617.71	43.137
618.04	43.083
618.37	44.101
618.70	42.755
619.03	44.948
619.36	43.488
619.69	44.006
620.03	43.251
620.36	43.424
620.69	43.754
621.02	42.308
621.35	42.437
621.68	43.032
622.01	42.799
622.34	42.347
622.67	43.383
623.00	44.225
623.33	42.408
623.66	42.677
623.99	43.586
624.32	42.333
624.65	43.101
624.99	42.469
625.32	42.196
625.65	43.178
625.98	43.444
626.31	43.102
626.64	43.766
626.97	42.993
627.30	43.884
627.63	43.858
627.96	41.991
628.29	45.209
628.62	43.037
628.95	44.188
629.28	42.365
629.61	43.445
629.94	42.843
630.26	45.123
630.59	43.457
630.92	44.478
631.25	44.078
631.58	44.540
631.91	44.008
632.24	43.359
632.57	42.889
632.90	45.508
633.23	43.405
633.56	44.724
633.89	45.933
634.22	44.994
634.55	44.702
634.88	44.240
635.20	44.875
635.53	44.315
635.86	44.359
636.19	44.665
