SpectraSuite Data File
++++++++++++++++++++++++++++++++++++
Date: Wed May 13 21:28:57 PDT 2015
User: schluterlab
Dark Spectrum Present: Yes
Reference Spectrum Present: Yes
Number of Sampled Component Spectra: 1
Spectrometers: USB2E3373
Integration Time (usec): 3000 (USB2E3373)
Spectra Averaged: 3 (USB2E3373)
Boxcar Smoothing: 0 (USB2E3373)
Correct for Electrical Dark: No (USB2E3373)
Strobe/Lamp Enabled: No (USB2E3373)
Correct for Detector Non-linearity: No (USB2E3373)
Correct for Stray Light: No (USB2E3373)
Number of Pixels in Processed Spectrum: 2048
>>>>>Begin Processed Spectral Data<<<<<
178.53	0.000
178.91	750.000
179.29	241.667
179.67	-600.000
180.04	-266.667
180.42	120.000
180.80	1800.000
181.18	216.667
181.56	-375.000
181.94	-250.000
182.31	-36.364
182.69	176.923
183.07	-380.000
183.45	333.333
183.83	200.000
184.20	85.714
184.58	-166.667
184.96	466.667
185.34	185.714
185.72	0.000
186.09	-1200.000
186.47	-340.000
186.85	220.000
187.23	-200.000
187.61	800.000
187.98	1500.000
188.36	87.500
188.74	0.000
189.12	-54.545
189.49	-30.000
189.87	158.333
190.25	320.000
190.63	2300.000
191.00	-180.000
191.38	260.000
191.76	350.000
192.14	175.000
192.51	-21.053
192.89	866.667
193.27	225.000
193.65	-200.000
194.02	181.818
194.40	280.000
194.78	-1000.000
195.15	440.000
195.53	-380.000
195.91	-62.500
196.29	-500.000
196.66	0.000
197.04	350.000
197.42	-220.000
197.79	-40.000
198.17	-75.000
198.55	-233.333
198.92	50.000
199.30	-366.667
199.68	-110.000
200.05	700.000
200.43	183.333
200.81	-1700.000
201.18	-340.000
201.56	-283.333
201.94	775.000
202.31	-13.043
202.69	0.000
203.07	-533.333
203.44	-100.000
203.82	-100.000
204.19	-120.000
204.57	0.000
204.95	0.000
205.32	0.000
205.70	150.000
206.08	-275.000
206.45	-216.667
206.83	300.000
207.20	-633.333
207.58	-10.000
207.96	-1500.000
208.33	-142.857
208.71	-1000.000
209.08	300.000
209.46	450.000
209.84	0.000
210.21	210.000
210.59	1800.000
210.96	280.000
211.34	1500.000
211.71	-1050.000
212.09	-233.333
212.46	-160.000
212.84	-300.000
213.22	-100.000
213.59	-200.000
213.97	-600.000
214.34	-550.000
214.72	-61.538
215.09	300.000
215.47	111.111
215.84	650.000
216.22	-37.500
216.59	-50.000
216.97	400.000
217.34	66.667
217.72	0.000
218.09	466.667
218.47	0.000
218.84	-100.000
219.22	-162.500
219.59	-300.000
219.97	-375.000
220.34	-87.500
220.72	-240.000
221.09	0.000
221.47	-250.000
221.84	-1200.000
222.22	0.000
222.59	500.000
222.97	-333.333
223.34	-100.000
223.72	-1600.000
224.09	-450.000
224.46	-90.909
224.84	-50.000
225.21	-28.571
225.59	-375.000
225.96	-233.333
226.34	-70.000
226.71	-300.000
227.08	500.000
227.46	-150.000
227.83	0.000
228.21	-6.250
228.58	-325.000
228.95	-35.294
229.33	-18.750
229.70	12.500
230.08	7.692
230.45	-162.500
230.82	-66.667
231.20	228.571
231.57	-275.000
231.95	1100.000
232.32	8.333
232.69	-52.941
233.07	-1100.000
233.44	-4.348
233.81	-350.000
234.19	29.167
234.56	-73.333
234.93	-60.000
235.31	15.789
235.68	-30.769
236.05	-53.846
236.43	-16.667
236.80	-6.061
237.17	-86.667
237.55	-94.118
237.92	-37.931
238.29	-44.444
238.67	-30.556
239.04	-29.032
239.41	6.383
239.79	-4.255
240.16	9.302
240.53	7.143
240.91	7.143
241.28	7.143
241.65	9.677
242.02	5.263
242.40	14.493
242.77	-5.797
243.14	7.692
243.51	14.894
243.89	8.654
244.26	32.075
244.63	8.654
245.00	8.333
245.38	16.807
245.75	7.377
246.12	19.549
246.49	8.130
246.87	19.328
247.24	19.595
247.61	20.530
247.98	15.385
248.36	10.651
248.73	12.921
249.10	19.192
249.47	17.204
249.84	16.842
250.22	22.886
250.59	19.159
250.96	20.000
251.33	14.354
251.70	25.941
252.08	20.502
252.45	23.457
252.82	21.293
253.19	21.401
253.56	19.424
253.94	19.573
254.31	17.958
254.68	23.154
255.05	21.122
255.42	19.930
255.79	21.472
256.16	18.927
256.54	20.952
256.91	20.570
257.28	21.069
257.65	19.427
258.02	22.874
258.39	24.561
258.76	18.023
259.14	23.864
259.51	19.382
259.88	21.951
260.25	18.611
260.62	20.506
260.99	22.281
261.36	22.021
261.73	20.741
262.10	20.611
262.47	19.753
262.85	19.403
263.22	22.308
263.59	20.000
263.96	21.655
264.33	21.154
264.70	21.860
265.07	23.611
265.44	21.609
265.81	20.137
266.18	20.046
266.55	22.052
266.92	19.280
267.29	20.370
267.66	22.930
268.03	20.782
268.40	19.703
268.77	19.835
269.14	22.041
269.51	24.025
269.88	21.385
270.25	20.763
270.62	21.107
270.99	20.866
271.36	20.635
271.73	19.478
272.10	20.190
272.47	20.345
272.84	21.260
273.21	20.744
273.58	17.828
273.95	20.755
274.32	20.896
274.69	21.676
275.06	22.615
275.43	20.716
275.80	19.504
276.17	21.363
276.54	21.314
276.91	19.164
277.28	19.314
277.65	19.580
278.02	21.607
278.39	18.472
278.76	19.398
279.13	18.868
279.50	20.000
279.87	18.659
280.23	21.622
280.60	18.339
280.97	18.994
281.34	21.451
281.71	18.211
282.08	17.949
282.45	21.148
282.82	19.489
283.19	20.579
283.56	18.906
283.92	20.031
284.29	20.905
284.66	19.769
285.03	17.752
285.40	19.789
285.77	21.772
286.14	19.149
286.51	20.990
286.87	19.538
287.24	19.027
287.61	18.373
287.98	19.265
288.35	20.268
288.72	20.373
289.08	18.519
289.45	19.677
289.82	18.608
290.19	19.495
290.56	16.477
290.93	18.094
291.29	18.331
291.66	17.486
292.03	17.847
292.40	18.708
292.77	20.348
293.13	18.550
293.50	17.778
293.87	17.467
294.24	17.725
294.60	17.555
294.97	17.460
295.34	16.359
295.71	16.163
296.08	17.277
296.44	16.071
296.81	16.443
297.18	17.875
297.55	16.745
297.91	16.646
298.28	16.586
298.65	16.256
299.02	16.484
299.38	16.687
299.75	17.428
300.12	15.581
300.48	15.322
300.85	15.473
301.22	16.725
301.59	15.141
301.95	14.170
302.32	16.219
302.69	15.254
303.05	15.393
303.42	17.273
303.79	16.509
304.15	15.553
304.52	16.022
304.89	14.618
305.25	14.599
305.62	16.052
305.99	16.975
306.35	15.256
306.72	15.768
307.09	15.433
307.45	15.016
307.82	14.526
308.19	13.898
308.55	14.534
308.92	16.994
309.29	15.415
309.65	14.486
310.02	16.402
310.38	14.837
310.75	15.779
311.12	15.841
311.48	13.749
311.85	15.846
312.22	16.248
312.58	14.493
312.95	15.622
313.31	15.427
313.68	15.935
314.05	15.217
314.41	16.427
314.78	16.698
315.14	16.111
315.51	15.319
315.87	16.497
316.24	15.152
316.61	16.438
316.97	15.278
317.34	16.578
317.70	16.057
318.07	16.593
318.43	16.531
318.80	16.318
319.16	16.180
319.53	15.860
319.89	17.435
320.26	16.359
320.62	16.867
320.99	17.054
321.35	17.025
321.72	17.324
322.08	17.435
322.45	20.259
322.81	18.946
323.18	19.410
323.54	18.141
323.91	20.687
324.27	19.352
324.64	20.819
325.00	19.423
325.37	20.904
325.73	19.192
326.10	19.344
326.46	20.485
326.83	20.065
327.19	21.707
327.56	22.079
327.92	20.837
328.29	22.788
328.65	23.050
329.01	21.636
329.38	23.130
329.74	22.318
330.11	23.354
330.47	22.743
330.84	22.563
331.20	23.484
331.56	23.098
331.93	23.170
332.29	23.979
332.66	23.729
333.02	25.369
333.38	23.509
333.75	24.488
334.11	24.219
334.48	23.540
334.84	24.293
335.20	25.901
335.57	25.500
335.93	23.883
336.29	23.643
336.66	23.675
337.02	25.217
337.38	25.065
337.75	25.065
338.11	24.338
338.47	24.229
338.84	24.313
339.20	24.250
339.56	25.000
339.93	23.596
340.29	25.619
340.65	26.005
341.02	23.877
341.38	24.155
341.74	24.202
342.11	24.773
342.47	23.431
342.83	24.510
343.20	24.619
343.56	24.857
343.92	25.589
344.28	25.487
344.65	24.490
345.01	24.455
345.37	25.247
345.73	26.062
346.10	25.441
346.46	24.959
346.82	24.398
347.19	24.921
347.55	25.444
347.91	25.019
348.27	24.290
348.63	24.359
349.00	25.472
349.36	24.333
349.72	24.671
350.08	25.429
350.45	25.372
350.81	24.804
351.17	25.558
351.53	25.609
351.89	24.702
352.26	24.015
352.62	24.806
352.98	25.719
353.34	25.282
353.70	24.611
354.07	26.196
354.43	25.117
354.79	26.603
355.15	25.932
355.51	25.513
355.87	25.489
356.24	26.083
356.60	24.785
356.96	25.940
357.32	25.000
357.68	25.286
358.04	26.299
358.40	25.426
358.77	26.529
359.13	25.914
359.49	25.587
359.85	26.763
360.21	26.137
360.57	25.932
360.93	26.100
361.29	27.461
361.66	27.639
362.02	26.019
362.38	25.554
362.74	25.816
363.10	27.187
363.46	26.585
363.82	27.051
364.18	27.049
364.54	27.133
364.90	26.481
365.26	26.964
365.62	26.776
365.98	27.473
366.35	27.234
366.71	26.177
367.07	26.648
367.43	27.805
367.79	27.936
368.15	27.496
368.51	27.356
368.87	27.704
369.23	27.687
369.59	27.555
369.95	28.157
370.31	27.406
370.67	28.530
371.03	28.656
371.39	28.034
371.75	29.143
372.11	28.561
372.47	29.200
372.83	28.779
373.19	27.986
373.55	29.191
373.91	28.289
374.27	28.354
374.63	28.521
374.99	28.900
375.35	29.384
375.71	29.076
376.07	30.021
376.42	29.144
376.78	29.921
377.14	30.712
377.50	29.791
377.86	30.080
378.22	29.709
378.58	29.508
378.94	31.375
379.30	29.419
379.66	31.504
380.02	30.515
380.38	31.446
380.74	31.201
381.09	31.122
381.45	31.681
381.81	31.793
382.17	31.191
382.53	31.138
382.89	30.881
383.25	31.852
383.61	31.598
383.97	32.312
384.32	31.506
384.68	31.524
385.04	31.521
385.40	32.254
385.76	33.212
386.12	33.054
386.48	33.103
386.83	31.727
387.19	33.004
387.55	33.354
387.91	33.272
388.27	32.676
388.62	33.645
388.98	34.355
389.34	33.145
389.70	34.127
390.06	33.312
390.42	35.309
390.77	34.337
391.13	34.848
391.49	33.460
391.85	35.016
392.20	34.649
392.56	35.048
392.92	35.225
393.28	33.527
393.64	34.557
393.99	34.088
394.35	35.309
394.71	34.936
395.07	34.088
395.42	35.893
395.78	35.071
396.14	36.081
396.50	35.193
396.85	35.883
397.21	34.831
397.57	34.969
397.92	35.269
398.28	36.323
398.64	34.730
399.00	36.272
399.35	36.947
399.71	35.702
400.07	36.205
400.42	35.987
400.78	36.193
401.14	35.929
401.49	35.890
401.85	38.452
402.21	37.833
402.57	35.868
402.92	37.046
403.28	36.585
403.63	36.144
403.99	36.980
404.35	37.032
404.70	35.952
405.06	37.463
405.42	36.935
405.77	36.751
406.13	37.143
406.49	37.448
406.84	38.095
407.20	36.412
407.55	36.948
407.91	36.995
408.27	36.182
408.62	38.613
408.98	38.224
409.34	37.438
409.69	38.726
410.05	37.189
410.40	38.223
410.76	38.207
411.11	37.687
411.47	38.421
411.83	38.303
412.18	37.783
412.54	38.847
412.89	37.555
413.25	37.758
413.60	38.495
413.96	37.203
414.31	37.793
414.67	38.667
415.03	38.498
415.38	37.913
415.74	37.882
416.09	38.995
416.45	38.414
416.80	39.262
417.16	38.394
417.51	37.508
417.87	38.889
418.22	38.720
418.58	38.830
418.93	38.418
419.29	39.208
419.64	39.122
420.00	38.413
420.35	38.255
420.71	38.269
421.06	38.561
421.42	38.625
421.77	39.538
422.12	39.198
422.48	38.768
422.83	38.984
423.19	38.298
423.54	38.575
423.90	38.183
424.25	39.226
424.61	38.694
424.96	38.734
425.31	37.577
425.67	40.035
426.02	38.987
426.38	39.117
426.73	38.790
427.09	39.462
427.44	38.579
427.79	39.014
428.15	39.021
428.50	37.704
428.85	38.499
429.21	37.985
429.56	39.639
429.92	39.459
430.27	39.162
430.62	38.667
430.98	38.445
431.33	39.172
431.68	39.723
432.04	39.380
432.39	38.684
432.74	38.565
433.10	40.151
433.45	38.225
433.80	38.218
434.16	39.159
434.51	39.022
434.86	37.986
435.22	39.615
435.57	39.066
435.92	38.902
436.28	38.559
436.63	38.972
436.98	39.894
437.34	40.720
437.69	38.430
438.04	39.389
438.39	39.352
438.75	38.915
439.10	39.271
439.45	38.801
439.81	40.271
440.16	40.000
440.51	39.536
440.86	39.715
441.22	38.210
441.57	39.208
441.92	39.295
442.27	39.177
442.63	38.751
442.98	39.525
443.33	38.770
443.68	38.693
444.03	40.288
444.39	39.762
444.74	38.708
445.09	38.767
445.44	40.845
445.79	39.649
446.15	39.933
446.50	39.703
446.85	40.246
447.20	39.310
447.55	39.675
447.91	39.831
448.26	39.051
448.61	39.413
448.96	39.408
449.31	39.692
449.66	39.850
450.02	39.454
450.37	39.953
450.72	39.208
451.07	39.373
451.42	39.301
451.77	39.744
452.12	38.919
452.47	40.219
452.83	39.682
453.18	39.274
453.53	40.101
453.88	39.398
454.23	39.617
454.58	39.767
454.93	38.871
455.28	38.921
455.63	38.178
455.98	38.344
456.34	38.589
456.69	39.169
457.04	38.019
457.39	39.206
457.74	39.019
458.09	38.507
458.44	37.720
458.79	38.276
459.14	37.360
459.49	39.146
459.84	38.613
460.19	37.515
460.54	38.564
460.89	39.189
461.24	38.903
461.59	38.587
461.94	38.685
462.29	38.787
462.64	38.786
462.99	38.565
463.34	38.122
463.69	39.497
464.04	38.175
464.39	38.987
464.74	37.654
465.09	38.748
465.44	38.215
465.79	39.218
466.14	39.111
466.49	39.824
466.84	38.972
467.19	38.854
467.54	38.691
467.89	39.283
468.24	38.660
468.59	39.069
468.94	39.591
469.29	38.797
469.64	39.331
469.99	39.034
470.34	38.031
470.68	40.297
471.03	39.210
471.38	39.013
471.73	38.820
472.08	39.931
472.43	40.435
472.78	38.878
473.13	37.863
473.48	39.269
473.83	39.297
474.17	39.518
474.52	39.935
474.87	38.842
475.22	39.251
475.57	40.100
475.92	38.877
476.27	38.403
476.61	39.807
476.96	39.121
477.31	40.076
477.66	39.266
478.01	38.407
478.36	39.401
478.70	39.903
479.05	40.178
479.40	39.054
479.75	40.011
480.10	38.960
480.45	38.794
480.79	39.472
481.14	39.514
481.49	39.862
481.84	37.700
482.19	38.675
482.53	39.952
482.88	39.693
483.23	38.450
483.58	39.887
483.92	38.521
484.27	38.884
484.62	38.660
484.97	39.527
485.31	38.316
485.66	35.637
486.01	36.278
486.36	36.344
486.70	36.709
487.05	37.758
487.40	38.282
487.75	38.674
488.09	39.349
488.44	39.292
488.79	40.348
489.13	38.807
489.48	38.521
489.83	39.080
490.17	38.901
490.52	39.925
490.87	37.830
491.22	39.049
491.56	39.099
491.91	38.118
492.26	39.410
492.60	38.576
492.95	38.970
493.30	38.372
493.64	38.321
493.99	40.000
494.34	39.210
494.68	39.379
495.03	39.476
495.37	39.903
495.72	39.950
496.07	40.721
496.41	37.857
496.76	39.031
497.11	39.202
497.45	39.591
497.80	40.384
498.14	39.899
498.49	39.284
498.84	39.676
499.18	39.771
499.53	38.651
499.87	37.894
500.22	40.717
500.56	39.870
500.91	39.588
501.26	39.803
501.60	39.755
501.95	39.770
502.29	40.243
502.64	39.923
502.98	39.788
503.33	40.487
503.67	40.604
504.02	40.245
504.36	40.119
504.71	39.634
505.06	41.009
505.40	40.206
505.75	40.743
506.09	40.470
506.44	40.575
506.78	40.325
507.13	41.476
507.47	42.153
507.82	40.764
508.16	41.161
508.51	41.839
508.85	41.109
509.19	41.164
509.54	42.252
509.88	42.258
510.23	41.105
510.57	41.684
510.92	43.211
511.26	41.859
511.61	42.371
511.95	42.889
512.30	41.977
512.64	42.452
512.98	42.271
513.33	43.042
513.67	42.817
514.02	43.558
514.36	42.303
514.70	43.649
515.05	43.242
515.39	42.571
515.74	43.517
516.08	43.186
516.42	42.512
516.77	42.648
517.11	44.621
517.46	44.898
517.80	44.613
518.14	43.968
518.49	44.304
518.83	44.212
519.17	44.699
519.52	44.692
519.86	46.145
520.20	44.451
520.55	45.647
520.89	44.149
521.23	46.667
521.58	45.259
521.92	44.186
522.26	43.917
522.61	45.960
522.95	45.466
523.29	46.794
523.64	45.963
523.98	45.743
524.32	46.755
524.66	45.779
525.01	45.937
525.35	45.622
525.69	45.991
526.04	46.254
526.38	45.061
526.72	46.154
527.06	45.261
527.41	47.055
527.75	46.262
528.09	46.562
528.43	45.726
528.78	44.897
529.12	47.025
529.46	46.193
529.80	45.631
530.15	45.174
530.49	46.361
530.83	45.972
531.17	46.918
531.51	46.595
531.86	46.545
532.20	46.244
532.54	46.276
532.88	46.290
533.22	46.734
533.57	45.033
533.91	47.032
534.25	47.005
534.59	46.396
534.93	45.727
535.27	46.178
535.62	46.250
535.96	45.999
536.30	46.144
536.64	45.455
536.98	47.092
537.32	47.829
537.66	46.333
538.01	45.354
538.35	45.166
538.69	44.482
539.03	46.107
539.37	45.070
539.71	45.293
540.05	44.939
540.39	44.873
540.73	45.531
541.07	45.646
541.42	45.320
541.76	45.264
542.10	44.888
542.44	44.560
542.78	45.385
543.12	45.755
543.46	45.197
543.80	47.047
544.14	45.079
544.48	43.796
544.82	44.250
545.16	43.137
545.50	45.780
545.84	45.582
546.18	44.460
546.52	44.531
546.86	43.958
547.20	44.889
547.54	44.675
547.88	45.749
548.22	44.039
548.56	44.563
548.90	44.587
549.24	44.444
549.58	44.128
549.92	47.249
550.26	46.716
550.60	45.195
550.94	45.224
551.28	43.679
551.62	45.639
551.96	43.411
552.30	43.814
552.64	44.280
552.98	44.105
553.32	43.475
553.66	44.461
554.00	43.844
554.34	44.762
554.68	44.519
555.02	43.937
555.36	45.159
555.69	44.210
556.03	44.818
556.37	43.528
556.71	44.219
557.05	45.018
557.39	43.331
557.73	44.478
558.07	44.386
558.41	45.117
558.75	43.572
559.08	43.224
559.42	44.532
559.76	44.037
560.10	44.581
560.44	44.215
560.78	43.885
561.12	42.467
561.45	43.605
561.79	44.429
562.13	43.460
562.47	44.357
562.81	44.372
563.15	43.130
563.48	42.464
563.82	43.434
564.16	43.602
564.50	42.605
564.84	42.432
565.17	43.377
565.51	43.516
565.85	42.372
566.19	43.775
566.52	42.071
566.86	42.035
567.20	42.517
567.54	42.660
567.88	41.265
568.21	40.304
568.55	41.367
568.89	41.874
569.23	40.467
569.56	40.008
569.90	39.647
570.24	38.448
570.57	38.246
570.91	38.615
571.25	38.408
571.59	38.605
571.92	38.369
572.26	38.432
572.60	38.805
572.93	38.113
573.27	37.990
573.61	38.439
573.95	38.049
574.28	38.025
574.62	37.176
574.96	38.115
575.29	37.788
575.63	38.435
575.97	38.179
576.30	37.748
576.64	38.591
576.98	37.765
577.31	37.674
577.65	37.442
577.98	37.120
578.32	36.923
578.66	37.357
578.99	37.653
579.33	38.031
579.67	38.009
580.00	37.391
580.34	37.567
580.67	37.776
581.01	37.174
581.35	36.819
581.68	36.438
582.02	36.468
582.35	36.861
582.69	37.449
583.02	36.659
583.36	37.479
583.70	37.875
584.03	37.854
584.37	37.322
584.70	37.417
585.04	37.947
585.37	36.938
585.71	37.361
586.04	36.491
586.38	36.675
586.72	37.201
587.05	37.563
587.39	36.682
587.72	37.314
588.06	37.291
588.39	37.000
588.73	37.184
589.06	37.730
589.40	37.289
589.73	36.867
590.07	37.842
590.40	37.637
590.73	38.331
591.07	38.111
591.40	37.870
591.74	37.972
592.07	38.430
592.41	38.610
592.74	37.346
593.08	36.068
593.41	36.095
593.75	36.305
594.08	36.684
594.41	36.197
594.75	36.769
595.08	36.968
595.42	37.115
595.75	36.732
596.09	36.836
596.42	37.786
596.75	37.429
597.09	38.171
597.42	36.878
597.75	37.422
598.09	37.477
598.42	38.568
598.76	36.440
599.09	36.535
599.42	36.707
599.76	37.326
600.09	35.617
600.42	36.573
600.76	36.031
601.09	36.648
601.42	36.378
601.76	35.869
602.09	37.090
602.42	36.401
602.76	36.074
603.09	36.756
603.42	36.265
603.76	35.542
604.09	36.522
604.42	36.375
604.76	36.360
605.09	36.973
605.42	37.787
605.75	36.231
606.09	35.927
606.42	36.284
606.75	37.143
607.09	36.392
607.42	36.077
607.75	35.536
608.08	36.835
608.42	36.739
608.75	36.359
609.08	36.943
609.41	35.519
609.75	37.317
610.08	36.391
610.41	36.832
610.74	36.141
611.07	36.623
611.41	37.820
611.74	36.542
612.07	35.748
612.40	37.459
612.73	36.389
613.07	35.532
613.40	36.068
613.73	36.403
614.06	36.705
614.39	35.742
614.72	36.646
615.06	35.722
615.39	35.872
615.72	35.907
616.05	36.318
616.38	36.140
616.71	35.693
617.05	37.285
617.38	36.599
617.71	36.152
618.04	36.502
618.37	36.845
618.70	36.417
619.03	35.739
619.36	36.868
619.69	35.819
620.03	36.184
620.36	36.047
620.69	36.046
621.02	37.000
621.35	36.304
621.68	35.615
622.01	37.540
622.34	36.558
622.67	36.335
623.00	36.246
623.33	35.976
623.66	35.019
623.99	36.159
624.32	34.263
624.65	37.537
624.99	35.562
625.32	35.698
625.65	35.426
625.98	36.098
626.31	36.653
626.64	35.770
626.97	36.765
627.30	37.040
627.63	37.457
627.96	35.671
628.29	36.930
628.62	37.041
628.95	36.172
629.28	37.537
629.61	36.555
629.94	37.331
630.26	37.044
630.59	37.263
630.92	35.944
631.25	36.148
631.58	35.546
631.91	35.737
632.24	36.443
632.57	37.444
