SpectraSuite Data File
++++++++++++++++++++++++++++++++++++
Date: Wed May 13 21:33:34 PDT 2015
User: schluterlab
Dark Spectrum Present: Yes
Reference Spectrum Present: Yes
Number of Sampled Component Spectra: 1
Spectrometers: USB2E3373
Integration Time (usec): 3000 (USB2E3373)
Spectra Averaged: 3 (USB2E3373)
Boxcar Smoothing: 0 (USB2E3373)
Correct for Electrical Dark: No (USB2E3373)
Strobe/Lamp Enabled: No (USB2E3373)
Correct for Detector Non-linearity: No (USB2E3373)
Correct for Stray Light: No (USB2E3373)
Number of Pixels in Processed Spectrum: 2048
>>>>>Begin Processed Spectral Data<<<<<
178.53	0.000
178.91	600.000
179.29	216.667
179.67	-1100.000
180.04	-700.000
180.42	140.000
180.80	300.000
181.18	350.000
181.56	-525.000
181.94	-275.000
182.31	-72.727
182.69	69.231
183.07	-220.000
183.45	383.333
183.83	144.444
184.20	157.143
184.58	33.333
184.96	333.333
185.34	242.857
185.72	0.000
186.09	-1700.000
186.47	-580.000
186.85	300.000
187.23	-350.000
187.61	950.000
187.98	2500.000
188.36	-87.500
188.74	0.000
189.12	-63.636
189.49	0.000
189.87	83.333
190.25	420.000
190.63	1000.000
191.00	-360.000
191.38	340.000
191.76	350.000
192.14	150.000
192.51	-21.053
192.89	666.667
193.27	100.000
193.65	-300.000
194.02	190.909
194.40	200.000
194.78	-600.000
195.15	420.000
195.53	-80.000
195.91	-62.500
196.29	-533.333
196.66	0.000
197.04	300.000
197.42	-160.000
197.79	-70.000
198.17	-112.500
198.55	-233.333
198.92	100.000
199.30	-600.000
199.68	-70.000
200.05	600.000
200.43	233.333
200.81	-1000.000
201.18	-180.000
201.56	-300.000
201.94	625.000
202.31	4.348
202.69	-128.571
203.07	-600.000
203.44	-240.000
203.82	-466.667
204.19	-70.000
204.57	0.000
204.95	-233.333
205.32	0.000
205.70	-700.000
206.08	-400.000
206.45	-100.000
206.83	675.000
207.20	-300.000
207.58	-130.000
207.96	-2400.000
208.33	-128.571
208.71	-1200.000
209.08	200.000
209.46	550.000
209.84	0.000
210.21	240.000
210.59	2900.000
210.96	380.000
211.34	2300.000
211.71	-550.000
212.09	-383.333
212.46	-210.000
212.84	-266.667
213.22	-275.000
213.59	-700.000
213.97	-1100.000
214.34	-650.000
214.72	-69.231
215.09	337.500
215.47	200.000
215.84	550.000
216.22	-112.500
216.59	-750.000
216.97	733.333
217.34	188.889
217.72	0.000
218.09	166.667
218.47	-400.000
218.84	-128.571
219.22	-137.500
219.59	-233.333
219.97	-200.000
220.34	-100.000
220.72	-280.000
221.09	0.000
221.47	-183.333
221.84	-1100.000
222.22	0.000
222.59	1500.000
222.97	-366.667
223.34	-58.333
223.72	-1100.000
224.09	-400.000
224.46	-45.455
224.84	-137.500
225.21	-228.571
225.59	-450.000
225.96	-183.333
226.34	0.000
226.71	-271.429
227.08	1000.000
227.46	-100.000
227.83	-200.000
228.21	-18.750
228.58	-225.000
228.95	-88.235
229.33	-37.500
229.70	-100.000
230.08	-100.000
230.45	-162.500
230.82	-116.667
231.20	185.714
231.57	-250.000
231.95	1100.000
232.32	58.333
232.69	-35.294
233.07	-1000.000
233.44	8.696
233.81	-850.000
234.19	8.333
234.56	-53.333
234.93	-33.333
235.31	-68.421
235.68	-100.000
236.05	-38.462
236.43	-38.889
236.80	-6.061
237.17	-26.667
237.55	-94.118
237.92	-31.034
238.29	-85.185
238.67	0.000
239.04	-45.161
239.41	-29.787
239.79	25.532
240.16	-11.628
240.53	-14.286
240.91	14.286
241.28	-3.571
241.65	6.452
242.02	-6.579
242.40	15.942
242.77	-24.638
243.14	-8.974
243.51	-2.128
243.89	0.962
244.26	8.491
244.63	1.923
245.00	4.167
245.38	5.882
245.75	0.000
246.12	7.519
246.49	-2.439
246.87	-8.403
247.24	2.027
247.61	1.325
247.98	7.051
248.36	9.467
248.73	3.371
249.10	2.525
249.47	2.688
249.84	4.737
250.22	6.468
250.59	7.009
250.96	5.455
251.33	-1.914
251.70	9.205
252.08	10.042
252.45	8.230
252.82	9.125
253.19	6.226
253.56	6.835
253.94	11.744
254.31	10.915
254.68	10.403
255.05	11.221
255.42	7.692
255.79	10.123
256.16	10.726
256.54	10.476
256.91	7.595
257.28	11.321
257.65	2.229
258.02	8.211
258.39	11.111
258.76	8.140
259.14	9.943
259.51	9.270
259.88	9.756
260.25	10.278
260.62	9.831
260.99	11.936
261.36	11.399
261.73	10.123
262.10	9.669
262.47	7.160
262.85	9.453
263.22	10.769
263.59	9.610
263.96	8.759
264.33	10.096
264.70	9.767
265.07	10.185
265.44	10.345
265.81	9.840
266.18	8.428
266.55	9.825
266.92	7.203
267.29	11.934
267.66	9.766
268.03	10.288
268.40	9.322
268.77	12.603
269.14	11.020
269.51	11.704
269.88	7.943
270.25	11.017
270.62	8.402
270.99	9.843
271.36	11.111
271.73	9.839
272.10	12.381
272.47	10.749
272.84	12.008
273.21	9.785
273.58	11.475
273.95	7.925
274.32	10.634
274.69	10.747
275.06	13.781
275.43	9.605
275.80	12.766
276.17	9.761
276.54	10.124
276.91	11.150
277.28	10.830
277.65	9.965
278.02	9.643
278.39	9.236
278.76	10.870
279.13	10.120
279.50	11.207
279.87	9.058
280.23	11.351
280.60	8.997
280.97	11.039
281.34	12.934
281.71	10.894
282.08	9.573
282.45	11.311
282.82	9.585
283.19	12.043
283.56	10.000
283.92	10.703
284.29	10.452
284.66	10.873
285.03	9.446
285.40	9.668
285.77	9.910
286.14	11.550
286.51	12.294
286.87	7.692
287.24	9.735
287.61	10.843
287.98	11.029
288.35	9.836
288.72	11.047
289.08	8.547
289.45	9.985
289.82	9.834
290.19	9.677
290.56	9.233
290.93	10.497
291.29	9.302
291.66	9.153
292.03	9.128
292.40	9.421
292.77	11.647
293.13	11.158
293.50	10.065
293.87	9.333
294.24	7.407
294.60	10.143
294.97	10.582
295.34	6.992
295.71	7.753
296.08	8.508
296.44	8.291
296.81	8.283
297.18	10.250
297.55	9.906
297.91	8.075
298.28	8.838
298.65	8.374
299.02	10.134
299.38	9.080
299.75	8.053
300.12	7.907
300.48	8.304
300.85	8.891
301.22	9.292
301.59	8.451
301.95	6.852
302.32	7.818
302.69	6.667
303.05	9.524
303.42	10.114
303.79	9.043
304.15	8.543
304.52	8.925
304.89	8.084
305.25	8.891
305.62	8.351
305.99	9.467
306.35	9.509
306.72	9.766
307.09	8.655
307.45	9.052
307.82	8.421
308.19	7.315
308.55	6.551
308.92	8.841
309.29	8.609
309.65	9.690
310.02	7.853
310.38	7.927
310.75	7.495
311.12	9.232
311.48	8.309
311.85	8.760
312.22	8.704
312.58	7.440
312.95	8.159
313.31	9.183
313.68	8.111
314.05	8.979
314.41	8.646
314.78	9.108
315.14	8.704
315.51	10.657
315.87	9.361
316.24	9.917
316.61	9.406
316.97	9.167
317.34	8.645
317.70	9.277
318.07	10.115
318.43	8.943
318.80	9.337
319.16	9.019
319.53	9.050
319.89	9.756
320.26	8.872
320.62	10.009
320.99	9.787
321.35	9.542
321.72	9.817
322.08	10.240
322.45	10.731
322.81	11.275
323.18	10.376
323.54	11.552
323.91	11.653
324.27	11.521
324.64	11.585
325.00	10.324
325.37	11.604
325.73	10.859
326.10	11.018
326.46	10.870
326.83	11.974
327.19	12.602
327.56	11.442
327.92	12.068
328.29	13.523
328.65	13.409
329.01	11.961
329.38	14.000
329.74	12.017
330.11	12.173
330.47	12.066
330.84	12.545
331.20	11.956
331.56	12.772
331.93	13.523
332.29	12.685
332.66	13.390
333.02	14.248
333.38	13.333
333.75	12.628
334.11	13.108
334.48	13.514
334.84	12.633
335.20	13.979
335.57	12.881
335.93	12.027
336.29	13.135
336.66	14.786
337.02	13.391
337.38	12.707
337.75	13.006
338.11	13.066
338.47	12.671
338.84	14.089
339.20	14.021
339.56	13.737
339.93	14.434
340.29	13.151
340.65	12.831
341.02	14.143
341.38	14.189
341.74	13.361
342.11	13.873
342.47	13.054
342.83	13.399
343.20	13.706
343.56	13.164
343.92	13.729
344.28	14.448
344.65	13.714
345.01	13.479
345.37	14.309
345.73	14.052
346.10	14.286
346.46	13.252
346.82	13.804
347.19	13.054
347.55	14.459
347.91	13.016
348.27	13.328
348.63	13.782
349.00	13.443
349.36	12.480
349.72	14.385
350.08	13.105
350.45	12.999
350.81	14.319
351.17	13.857
351.53	12.883
351.89	12.550
352.26	13.359
352.62	14.109
352.98	13.179
353.34	13.205
353.70	13.863
354.07	14.588
354.43	12.753
354.79	14.183
355.15	14.752
355.51	13.364
355.87	14.073
356.24	13.483
356.60	13.057
356.96	14.275
357.32	13.235
357.68	14.515
358.04	14.818
358.40	13.333
358.77	14.526
359.13	13.463
359.49	13.702
359.85	13.798
360.21	15.035
360.57	13.080
360.93	14.264
361.29	14.434
361.66	14.275
362.02	12.824
362.38	14.549
362.74	13.923
363.10	13.449
363.46	13.401
363.82	15.152
364.18	14.286
364.54	14.150
364.90	13.380
365.26	14.791
365.62	13.920
365.98	14.021
366.35	14.752
366.71	13.195
367.07	14.458
367.43	14.007
367.79	14.593
368.15	14.416
368.51	14.135
368.87	14.236
369.23	14.093
369.59	14.517
369.95	14.006
370.31	14.365
370.67	13.831
371.03	15.145
371.39	14.194
371.75	14.286
372.11	14.103
372.47	13.843
372.83	14.286
373.19	14.892
373.55	14.162
373.91	14.498
374.27	14.523
374.63	14.651
374.99	14.345
375.35	15.205
375.71	13.995
376.07	14.873
376.42	15.174
376.78	14.663
377.14	15.729
377.50	14.668
377.86	14.874
378.22	15.171
378.58	15.889
378.94	15.000
379.30	14.678
379.66	15.660
380.02	14.461
380.38	14.578
380.74	14.943
381.09	14.897
381.45	15.175
381.81	15.096
382.17	14.745
382.53	14.831
382.89	15.320
383.25	14.630
383.61	15.678
383.97	15.875
384.32	15.501
384.68	14.621
385.04	14.294
385.40	16.189
385.76	15.024
386.12	15.494
386.48	14.984
386.83	15.645
387.19	15.114
387.55	15.819
387.91	15.806
388.27	15.351
388.62	14.669
388.98	15.519
389.34	15.226
389.70	15.629
390.06	15.187
390.42	16.237
390.77	15.759
391.13	15.593
391.49	15.686
391.85	15.080
392.20	15.789
392.56	15.810
392.92	15.623
393.28	15.805
393.64	15.229
393.99	15.239
394.35	15.679
394.71	15.321
395.07	14.843
395.42	16.332
395.78	15.830
396.14	16.043
396.50	15.472
396.85	16.316
397.21	16.042
397.57	15.466
397.92	15.210
398.28	16.018
398.64	15.483
399.00	16.350
399.35	15.380
399.71	15.900
400.07	15.422
400.42	14.796
400.78	16.073
401.14	14.470
401.49	14.859
401.85	16.155
402.21	15.170
402.57	16.064
402.92	16.083
403.28	15.385
403.63	16.305
403.99	15.675
404.35	15.461
404.70	15.166
405.06	16.442
405.42	15.452
405.77	15.495
406.13	14.571
406.49	15.698
406.84	16.484
407.20	16.163
407.55	15.844
407.91	16.479
408.27	14.785
408.62	16.575
408.98	15.413
409.34	15.470
409.69	17.674
410.05	15.858
410.40	14.486
410.76	16.125
411.11	15.609
411.47	16.191
411.83	15.783
412.18	15.932
412.54	15.977
412.89	15.423
413.25	15.575
413.60	15.925
413.96	15.855
414.31	16.030
414.67	15.619
415.03	15.088
415.38	15.588
415.74	15.400
416.09	15.796
416.45	15.448
416.80	16.309
417.16	16.667
417.51	15.941
417.87	15.079
418.22	16.290
418.58	15.440
418.93	15.568
419.29	15.446
419.64	15.903
420.00	15.746
420.35	16.378
420.71	15.783
421.06	16.236
421.42	15.998
421.77	15.029
422.12	16.275
422.48	15.649
422.83	16.125
423.19	15.469
423.54	16.431
423.90	16.390
424.25	16.811
424.61	16.081
424.96	15.435
425.31	16.545
425.67	16.461
426.02	16.549
426.38	16.729
426.73	15.761
427.09	15.635
427.44	16.618
427.79	16.152
428.15	16.269
428.50	15.710
428.85	16.236
429.21	15.588
429.56	16.525
429.92	16.398
430.27	16.564
430.62	16.894
430.98	16.288
431.33	16.658
431.68	16.933
432.04	16.676
432.39	15.935
432.74	15.328
433.10	17.141
433.45	17.101
433.80	16.667
434.16	15.674
434.51	16.685
434.86	17.079
435.22	16.525
435.57	16.400
435.92	16.707
436.28	16.577
436.63	16.455
436.98	16.863
437.34	17.155
437.69	15.821
438.04	16.695
438.39	17.123
438.75	17.223
439.10	16.484
439.45	16.949
439.81	16.810
440.16	17.855
440.51	16.231
440.86	17.546
441.22	16.638
441.57	16.703
441.92	17.159
442.27	16.721
442.63	16.900
442.98	16.667
443.33	17.212
443.68	16.921
444.03	17.536
444.39	17.551
444.74	16.510
445.09	17.070
445.44	18.197
445.79	16.624
446.15	17.304
446.50	17.401
446.85	17.691
447.20	16.989
447.55	17.627
447.91	16.854
448.26	16.981
448.61	17.146
448.96	17.084
449.31	17.419
449.66	17.235
450.02	17.624
450.37	18.038
450.72	16.762
451.07	17.179
451.42	15.721
451.77	17.103
452.12	17.647
452.47	17.883
452.83	17.217
453.18	17.505
453.53	17.844
453.88	16.928
454.23	17.676
454.58	18.015
454.93	17.383
455.28	16.763
455.63	16.220
455.98	17.468
456.34	17.292
456.69	17.444
457.04	16.966
457.39	16.957
457.74	16.637
458.09	16.588
458.44	17.156
458.79	17.243
459.14	16.461
459.49	16.585
459.84	17.080
460.19	16.387
460.54	16.971
460.89	17.286
461.24	17.571
461.59	17.512
461.94	17.193
462.29	17.218
462.64	18.074
462.99	17.840
463.34	17.610
463.69	18.235
464.04	17.107
464.39	17.511
464.74	17.506
465.09	16.863
465.44	17.957
465.79	17.941
466.14	18.301
466.49	17.654
466.84	17.932
467.19	17.389
467.54	17.952
467.89	17.850
468.24	18.439
468.59	17.463
468.94	18.455
469.29	17.449
469.64	18.131
469.99	17.862
470.34	17.869
470.68	16.654
471.03	17.489
471.38	18.289
471.73	18.313
472.08	18.969
472.43	18.074
472.78	18.729
473.13	16.623
473.48	16.830
473.83	17.765
474.17	17.708
474.52	16.958
474.87	17.973
475.22	17.754
475.57	18.405
475.92	18.702
476.27	17.949
476.61	17.837
476.96	17.818
477.31	17.314
477.66	18.475
478.01	17.582
478.36	18.256
478.70	17.723
479.05	19.256
479.40	18.565
479.75	17.375
480.10	17.848
480.45	18.538
480.79	18.915
481.14	18.541
481.49	18.500
481.84	18.096
482.19	17.508
482.53	17.619
482.88	18.217
483.23	17.902
483.58	17.864
483.92	17.996
484.27	18.024
484.62	17.754
484.97	18.955
485.31	18.016
485.66	17.416
486.01	17.914
486.36	17.753
486.70	17.303
487.05	17.639
487.40	18.208
487.75	18.375
488.09	17.673
488.44	18.437
488.79	18.698
489.13	18.211
489.48	18.469
489.83	18.088
490.17	18.293
490.52	17.952
490.87	18.683
491.22	18.464
491.56	18.783
491.91	17.811
492.26	18.472
492.60	18.182
492.95	18.853
493.30	17.733
493.64	17.074
493.99	18.792
494.34	18.545
494.68	18.807
495.03	18.725
495.37	18.102
495.72	18.947
496.07	18.071
496.41	17.735
496.76	18.739
497.11	18.357
497.45	18.434
497.80	19.586
498.14	18.892
498.49	18.003
498.84	18.117
499.18	18.268
499.53	18.415
499.87	18.583
500.22	18.666
500.56	19.107
500.91	18.813
501.26	19.557
501.60	18.431
501.95	18.639
502.29	18.738
502.64	18.949
502.98	19.509
503.33	19.367
503.67	18.987
504.02	19.167
504.36	19.217
504.71	19.055
505.06	19.817
505.40	19.330
505.75	19.583
506.09	19.315
506.44	19.405
506.78	19.756
507.13	20.166
507.47	19.353
507.82	20.147
508.16	19.842
508.51	19.525
508.85	19.129
509.19	18.730
509.54	20.268
509.88	20.430
510.23	20.263
510.57	20.551
510.92	19.612
511.26	20.462
511.61	19.649
511.95	19.791
512.30	19.212
512.64	19.637
512.98	19.114
513.33	19.549
513.67	19.989
514.02	20.924
514.36	20.393
514.70	21.016
515.05	20.889
515.39	21.050
515.74	20.782
516.08	20.413
516.42	19.873
516.77	20.152
517.11	20.635
517.46	20.948
517.80	21.186
518.14	20.024
518.49	21.157
518.83	20.704
519.17	20.783
519.52	20.567
519.86	22.040
520.20	21.225
520.55	20.709
520.89	21.252
521.23	21.538
521.58	21.745
521.92	21.559
522.26	21.080
522.61	20.879
522.95	22.085
523.29	21.397
523.64	21.869
523.98	21.347
524.32	21.550
524.66	21.688
525.01	21.953
525.35	22.120
525.69	22.134
526.04	20.521
526.38	21.542
526.72	22.354
527.06	21.599
527.41	20.384
527.75	21.295
528.09	22.805
528.43	21.099
528.78	21.382
529.12	21.992
529.46	21.817
529.80	21.100
530.15	21.750
530.49	21.698
530.83	22.546
531.17	22.671
531.51	22.185
531.86	21.206
532.20	22.123
532.54	22.000
532.88	22.260
533.22	22.424
533.57	21.854
533.91	22.645
534.25	22.331
534.59	21.622
534.93	21.237
535.27	22.102
535.62	22.566
535.96	22.316
536.30	22.473
536.64	21.326
536.98	20.953
537.32	22.633
537.66	22.426
538.01	21.082
538.35	22.652
538.69	22.007
539.03	21.544
539.37	21.596
539.71	21.896
540.05	20.783
540.39	21.886
540.73	21.508
541.07	21.769
541.42	22.492
541.76	21.651
542.10	21.462
542.44	20.444
542.78	21.929
543.12	21.631
543.46	20.871
543.80	21.317
544.14	21.679
544.48	20.703
544.82	20.915
545.16	21.163
545.50	21.945
545.84	20.687
546.18	21.318
546.52	22.442
546.86	20.919
547.20	20.729
547.54	21.372
547.88	21.930
548.22	21.629
548.56	21.281
548.90	21.989
549.24	21.736
549.58	21.139
549.92	22.304
550.26	23.026
550.60	21.772
550.94	21.119
551.28	21.196
551.62	21.955
551.96	21.523
552.30	20.888
552.64	20.480
552.98	22.301
553.32	21.846
553.66	21.937
554.00	20.446
554.34	21.392
554.68	21.104
555.02	21.482
555.36	21.936
555.69	21.486
556.03	21.086
556.37	21.124
556.71	20.953
557.05	21.255
557.39	21.176
557.73	20.953
558.07	21.703
558.41	22.029
558.75	21.170
559.08	21.331
559.42	21.400
559.76	20.183
560.10	20.600
560.44	22.108
560.78	20.719
561.12	20.883
561.45	20.680
561.79	21.045
562.13	20.675
562.47	21.714
562.81	21.068
563.15	20.892
563.48	20.096
563.82	21.272
564.16	21.192
564.50	21.303
564.84	21.216
565.17	21.523
565.51	20.789
565.85	19.121
566.19	21.325
566.52	20.773
566.86	20.417
567.20	20.403
567.54	19.862
567.88	20.325
568.21	20.750
568.55	20.344
568.89	20.339
569.23	19.615
569.56	19.441
569.90	19.555
570.24	18.989
570.57	19.208
570.91	19.674
571.25	19.586
571.59	19.363
571.92	19.273
572.26	19.691
572.60	19.834
572.93	19.400
573.27	19.557
573.61	19.551
573.95	19.328
574.28	19.490
574.62	18.810
574.96	19.562
575.29	19.283
575.63	19.099
575.97	18.859
576.30	19.273
576.64	19.518
576.98	19.248
577.31	19.344
577.65	18.997
577.98	18.994
578.32	19.105
578.66	19.358
578.99	19.155
579.33	19.415
579.67	19.603
580.00	19.230
580.34	19.098
580.67	19.427
581.01	18.843
581.35	19.161
581.68	18.626
582.02	19.063
582.35	19.074
582.69	18.957
583.02	19.173
583.36	18.634
583.70	19.143
584.03	19.817
584.37	18.443
584.70	19.041
585.04	18.858
585.37	18.931
585.71	18.717
586.04	18.421
586.38	18.548
586.72	19.612
587.05	19.543
587.39	18.518
587.72	18.883
588.06	19.124
588.39	19.535
588.73	19.374
589.06	18.881
589.40	19.126
589.73	18.721
590.07	18.921
590.40	19.197
590.73	19.287
591.07	19.056
591.40	18.783
591.74	19.520
592.07	19.124
592.41	18.576
592.74	18.364
593.08	18.222
593.41	19.236
593.75	18.443
594.08	18.687
594.41	19.086
594.75	19.678
595.08	19.343
595.42	19.005
595.75	18.547
596.09	18.938
596.42	18.668
596.75	18.824
597.09	19.017
597.42	19.201
597.75	18.533
598.09	18.670
598.42	19.016
598.76	18.346
599.09	18.447
599.42	18.807
599.76	19.452
600.09	18.750
600.42	19.021
600.76	18.995
601.09	18.606
601.42	19.247
601.76	18.185
602.09	18.484
602.42	18.985
602.76	18.792
603.09	18.768
603.42	18.313
603.76	19.096
604.09	18.261
604.42	18.753
604.76	18.333
605.09	18.487
605.42	19.028
605.75	18.501
606.09	18.005
606.42	18.869
606.75	17.446
607.09	17.996
607.42	19.002
607.75	17.462
608.08	18.620
608.42	18.416
608.75	19.780
609.08	19.353
609.41	19.225
609.75	17.902
610.08	18.047
610.41	19.048
610.74	17.902
611.07	18.086
611.41	18.628
611.74	18.685
612.07	17.353
612.40	18.865
612.73	17.947
613.07	18.570
613.40	18.943
613.73	18.635
614.06	18.574
614.39	18.066
614.72	19.212
615.06	18.167
615.39	18.433
615.72	18.197
616.05	18.243
616.38	17.869
616.71	17.636
617.05	19.656
617.38	18.238
617.71	17.708
618.04	18.525
618.37	18.864
618.70	18.435
619.03	18.694
619.36	18.434
619.69	18.275
620.03	16.820
620.36	19.276
620.69	17.202
621.02	18.308
621.35	18.152
621.68	17.359
622.01	19.417
622.34	18.398
622.67	18.168
623.00	18.237
623.33	18.325
623.66	17.844
623.99	16.804
624.32	18.195
624.65	18.472
624.99	17.561
625.32	19.268
625.65	18.062
625.98	17.062
626.31	19.429
626.64	18.659
626.97	18.512
627.30	18.477
627.63	17.993
627.96	17.662
628.29	18.419
628.62	19.149
628.95	18.838
629.28	19.409
629.61	20.478
629.94	19.052
630.26	18.227
630.59	17.283
630.92	18.373
631.25	18.435
631.58	20.236
631.91	17.603
632.24	19.649
632.57	18.556
632.90	19.487
633.23	18.106
633.56	19.424
633.89	19.019
634.22	19.435
634.55	20.706
634.88	18.995
