SpectraSuite Data File
++++++++++++++++++++++++++++++++++++
Date: Wed May 13 21:35:13 PDT 2015
User: schluterlab
Dark Spectrum Present: Yes
Reference Spectrum Present: Yes
Number of Sampled Component Spectra: 1
Spectrometers: USB2E3373
Integration Time (usec): 3000 (USB2E3373)
Spectra Averaged: 3 (USB2E3373)
Boxcar Smoothing: 0 (USB2E3373)
Correct for Electrical Dark: No (USB2E3373)
Strobe/Lamp Enabled: No (USB2E3373)
Correct for Detector Non-linearity: No (USB2E3373)
Correct for Stray Light: No (USB2E3373)
Number of Pixels in Processed Spectrum: 2048
>>>>>Begin Processed Spectral Data<<<<<
178.53	0.000
178.91	600.000
179.29	166.667
179.67	-950.000
180.04	-666.667
180.42	300.000
180.80	2000.000
181.18	266.667
181.56	-550.000
181.94	-125.000
182.31	-45.455
182.69	153.846
183.07	-320.000
183.45	266.667
183.83	200.000
184.20	171.429
184.58	-233.333
184.96	300.000
185.34	300.000
185.72	0.000
186.09	-1600.000
186.47	-360.000
186.85	260.000
187.23	-400.000
187.61	600.000
187.98	1600.000
188.36	-150.000
188.74	0.000
189.12	-45.455
189.49	-10.000
189.87	183.333
190.25	420.000
190.63	1700.000
191.00	-300.000
191.38	340.000
191.76	275.000
192.14	191.667
192.51	-57.895
192.89	600.000
193.27	150.000
193.65	-320.000
194.02	200.000
194.40	290.000
194.78	-1300.000
195.15	260.000
195.53	-240.000
195.91	-175.000
196.29	-666.667
196.66	0.000
197.04	600.000
197.42	-360.000
197.79	-30.000
198.17	-50.000
198.55	-366.667
198.92	350.000
199.30	-633.333
199.68	60.000
200.05	450.000
200.43	250.000
200.81	-1700.000
201.18	-260.000
201.56	-200.000
201.94	450.000
202.31	-39.130
202.69	-228.571
203.07	-666.667
203.44	-300.000
203.82	-500.000
204.19	-10.000
204.57	0.000
204.95	-250.000
205.32	0.000
205.70	-800.000
206.08	-325.000
206.45	-250.000
206.83	325.000
207.20	-400.000
207.58	-70.000
207.96	-1300.000
208.33	-385.714
208.71	-1700.000
209.08	187.500
209.46	475.000
209.84	0.000
210.21	190.000
210.59	3000.000
210.96	560.000
211.34	1900.000
211.71	-1050.000
212.09	-266.667
212.46	-100.000
212.84	-33.333
213.22	50.000
213.59	-1000.000
213.97	-550.000
214.34	-950.000
214.72	-23.077
215.09	287.500
215.47	233.333
215.84	750.000
216.22	-125.000
216.59	-500.000
216.97	600.000
217.34	100.000
217.72	0.000
218.09	566.667
218.47	-1700.000
218.84	-100.000
219.22	-262.500
219.59	-366.667
219.97	-350.000
220.34	-225.000
220.72	-280.000
221.09	0.000
221.47	-300.000
221.84	-1200.000
222.22	0.000
222.59	1400.000
222.97	-433.333
223.34	-50.000
223.72	-700.000
224.09	-650.000
224.46	-54.545
224.84	-112.500
225.21	-214.286
225.59	-450.000
225.96	-50.000
226.34	-10.000
226.71	-300.000
227.08	450.000
227.46	-112.500
227.83	-500.000
228.21	-50.000
228.58	-150.000
228.95	-94.118
229.33	-43.750
229.70	-187.500
230.08	38.462
230.45	-150.000
230.82	-125.000
231.20	171.429
231.57	-250.000
231.95	2100.000
232.32	-8.333
232.69	-41.176
233.07	-1400.000
233.44	-52.174
233.81	-350.000
234.19	-20.833
234.56	-53.333
234.93	-53.333
235.31	-26.316
235.68	-53.846
236.05	-38.462
236.43	-33.333
236.80	-9.091
237.17	-100.000
237.55	-76.471
237.92	-31.034
238.29	-33.333
238.67	-30.556
239.04	-3.226
239.41	-12.766
239.79	36.170
240.16	9.302
240.53	-1.786
240.91	23.214
241.28	10.714
241.65	8.065
242.02	18.421
242.40	13.043
242.77	10.145
243.14	17.949
243.51	9.574
243.89	21.154
244.26	27.358
244.63	20.192
245.00	18.750
245.38	21.849
245.75	22.131
246.12	22.556
246.49	17.886
246.87	16.807
247.24	22.973
247.61	23.841
247.98	20.513
248.36	20.710
248.73	20.787
249.10	23.737
249.47	24.731
249.84	22.105
250.22	25.373
250.59	21.495
250.96	22.273
251.33	21.053
251.70	27.615
252.08	26.360
252.45	22.222
252.82	25.475
253.19	23.735
253.56	28.417
253.94	31.673
254.31	29.930
254.68	26.846
255.05	30.033
255.42	29.021
255.79	29.141
256.16	26.498
256.54	24.762
256.91	25.633
257.28	26.415
257.65	26.433
258.02	25.513
258.39	25.731
258.76	25.872
259.14	27.557
259.51	25.562
259.88	24.390
260.25	29.722
260.62	26.685
260.99	29.443
261.36	29.016
261.73	24.938
262.10	27.990
262.47	27.407
262.85	28.358
263.22	28.205
263.59	26.234
263.96	24.818
264.33	26.923
264.70	26.977
265.07	28.935
265.44	29.425
265.81	28.146
266.18	27.107
266.55	26.201
266.92	30.297
267.29	29.218
267.66	28.450
268.03	30.041
268.40	24.788
268.77	29.339
269.14	28.776
269.51	31.417
269.88	25.458
270.25	30.508
270.62	26.434
270.99	27.362
271.36	29.365
271.73	27.309
272.10	27.619
272.47	28.983
272.84	28.346
273.21	31.507
273.58	27.254
273.95	26.415
274.32	26.679
274.69	26.594
275.06	26.678
275.43	27.119
275.80	27.482
276.17	27.256
276.54	26.288
276.91	27.875
277.28	27.076
277.65	28.846
278.02	28.393
278.39	26.821
278.76	27.926
279.13	28.302
279.50	25.862
279.87	27.536
280.23	29.550
280.60	26.817
280.97	27.273
281.34	29.495
281.71	24.715
282.08	26.667
282.45	25.574
282.82	28.115
283.19	27.591
283.56	27.187
283.92	28.746
284.29	26.989
284.66	25.206
285.03	24.756
285.40	25.680
285.77	26.126
286.14	25.836
286.51	29.535
286.87	25.385
287.24	26.696
287.61	25.602
287.98	25.882
288.35	26.080
288.72	26.255
289.08	26.923
289.45	23.935
289.82	23.752
290.19	25.386
290.56	24.574
290.93	24.586
291.29	23.940
291.66	24.044
292.03	24.796
292.40	24.226
292.77	24.766
293.13	25.105
293.50	24.314
293.87	23.333
294.24	24.339
294.60	23.667
294.97	23.810
295.34	23.879
295.71	23.259
296.08	22.906
296.44	22.449
296.81	21.072
297.18	22.375
297.55	21.816
297.91	23.602
298.28	23.366
298.65	22.044
299.02	24.176
299.38	21.840
299.75	21.755
300.12	21.163
300.48	21.754
300.85	19.515
301.22	21.370
301.59	19.953
301.95	20.209
302.32	21.354
302.69	19.209
303.05	20.266
303.42	21.250
303.79	20.925
304.15	21.139
304.52	22.688
304.89	19.712
305.25	20.198
305.62	20.716
305.99	20.566
306.35	22.048
306.72	20.448
307.09	20.125
307.45	20.873
307.82	20.000
308.19	20.690
308.55	19.243
308.92	20.923
309.29	20.320
309.65	20.480
310.02	19.185
310.38	19.512
310.75	20.611
311.12	19.339
311.48	18.793
311.85	19.783
312.22	19.923
312.58	19.903
312.95	21.194
313.31	19.376
313.68	20.324
314.05	20.605
314.41	19.885
314.78	20.019
315.14	20.278
315.51	19.791
315.87	20.297
316.24	18.733
316.61	19.909
316.97	20.185
317.34	18.360
317.70	19.893
318.07	22.005
318.43	19.693
318.80	18.848
319.16	18.921
319.53	18.280
319.89	19.874
320.26	21.349
320.62	20.019
320.99	19.864
321.35	18.896
321.72	20.212
322.08	20.387
322.45	20.629
322.81	19.778
323.18	20.036
323.54	19.585
323.91	18.880
324.27	19.982
324.64	19.338
325.00	19.773
325.37	20.648
325.73	19.360
326.10	19.933
326.46	20.067
326.83	20.631
327.19	19.268
327.56	21.112
327.92	19.469
328.29	21.953
328.65	20.421
329.01	18.294
329.38	21.043
329.74	20.000
330.11	19.116
330.47	19.792
330.84	20.126
331.20	19.983
331.56	19.565
331.93	19.552
332.29	21.112
332.66	19.492
333.02	20.156
333.38	20.789
333.75	19.113
334.11	20.660
334.48	21.796
334.84	18.993
335.20	20.154
335.57	19.582
335.93	17.612
336.29	19.089
336.66	18.803
337.02	19.739
337.38	18.886
337.75	19.294
338.11	19.385
338.47	19.178
338.84	19.158
339.20	19.577
339.56	18.686
339.93	20.138
340.29	20.495
340.65	19.076
341.02	19.384
341.38	19.932
341.74	17.479
342.11	18.993
342.47	18.410
342.83	19.935
343.20	19.966
343.56	19.706
343.92	18.440
344.28	19.968
344.65	19.673
345.01	20.016
345.37	19.819
345.73	19.281
346.10	18.941
346.46	19.919
346.82	19.422
347.19	18.671
347.55	19.063
347.91	18.239
348.27	17.666
348.63	18.510
349.00	18.868
349.36	19.702
349.72	18.794
350.08	18.721
350.45	18.403
350.81	18.388
351.17	19.938
351.53	18.617
351.89	17.712
352.26	18.224
352.62	19.302
352.98	18.930
353.34	18.196
353.70	18.224
354.07	18.588
354.43	19.207
354.79	18.670
355.15	18.323
355.51	18.679
355.87	18.139
356.24	18.620
356.60	17.983
356.96	18.880
357.32	18.576
357.68	18.717
358.04	18.154
358.40	18.372
358.77	18.349
359.13	18.288
359.49	17.260
359.85	18.423
360.21	18.813
360.57	17.338
360.93	17.527
361.29	18.727
361.66	17.540
362.02	17.050
362.38	18.021
362.74	17.621
363.10	17.787
363.46	17.723
363.82	18.551
364.18	17.259
364.54	18.673
364.90	17.003
365.26	17.834
365.62	17.116
365.98	16.940
366.35	17.376
366.71	18.474
367.07	18.498
367.43	17.770
367.79	17.860
368.15	17.862
368.51	17.229
368.87	17.655
369.23	17.936
369.59	18.111
369.95	17.417
370.31	18.061
370.67	17.017
371.03	17.520
371.39	17.459
371.75	18.571
372.11	18.590
372.47	17.448
372.83	18.516
373.19	18.417
373.55	17.197
373.91	17.963
374.27	16.736
374.63	16.856
374.99	17.827
375.35	16.986
375.71	16.916
376.07	18.300
376.42	17.179
376.78	17.635
377.14	16.610
377.50	17.536
377.86	17.596
378.22	18.268
378.58	17.339
378.94	17.875
379.30	16.427
379.66	17.448
380.02	16.912
380.38	17.711
380.74	18.530
381.09	17.189
381.45	17.775
381.81	17.498
382.17	16.824
382.53	17.169
382.89	17.913
383.25	16.975
383.61	17.373
383.97	16.813
384.32	17.328
384.68	17.027
385.04	17.471
385.40	18.057
385.76	16.788
386.12	17.818
386.48	16.489
386.83	17.084
387.19	17.212
387.55	17.842
387.91	17.589
388.27	17.139
388.62	17.915
388.98	17.459
389.34	17.356
389.70	17.399
390.06	17.375
390.42	18.428
390.77	17.873
391.13	17.361
391.49	16.192
391.85	16.358
392.20	17.607
392.56	17.841
392.92	16.852
393.28	16.851
393.64	17.125
393.99	16.830
394.35	17.407
394.71	16.603
395.07	16.478
395.42	17.672
395.78	16.988
396.14	17.058
396.50	16.424
396.85	17.527
397.21	16.854
397.57	16.832
397.92	16.826
398.28	16.413
398.64	16.818
399.00	17.188
399.35	17.480
399.71	16.424
400.07	16.867
400.42	16.803
400.78	18.006
401.14	16.800
401.49	16.777
401.85	17.015
402.21	17.276
402.57	17.229
402.92	18.586
403.28	17.386
403.63	17.731
403.99	17.083
404.35	17.145
404.70	16.556
405.06	17.675
405.42	16.834
405.77	17.166
406.13	16.686
406.49	16.956
406.84	17.460
407.20	16.578
407.55	17.532
407.91	16.148
408.27	16.469
408.62	17.495
408.98	18.126
409.34	16.832
409.69	17.739
410.05	16.978
410.40	16.677
410.76	16.968
411.11	17.164
411.47	17.784
411.83	17.342
412.18	17.317
412.54	17.105
412.89	16.614
413.25	17.050
413.60	16.677
413.96	17.353
414.31	16.461
414.67	17.524
415.03	17.591
415.38	16.711
415.74	16.764
416.09	17.713
416.45	17.020
416.80	17.248
417.16	17.544
417.51	16.879
417.87	16.667
418.22	18.164
418.58	16.426
418.93	16.761
419.29	17.228
419.64	17.430
420.00	17.079
420.35	17.394
420.71	17.367
421.06	17.159
421.42	17.275
421.77	18.208
422.12	17.020
422.48	17.121
422.83	16.834
423.19	16.389
423.54	17.314
423.90	16.390
424.25	17.042
424.61	17.190
424.96	16.203
425.31	16.826
425.67	18.107
426.02	17.609
426.38	17.289
426.73	17.288
427.09	17.511
427.44	17.440
427.79	17.399
428.15	17.125
428.50	16.677
428.85	16.359
429.21	16.714
429.56	17.109
429.92	17.543
430.27	16.769
430.62	17.261
430.98	17.028
431.33	17.571
431.68	17.785
432.04	17.239
432.39	16.975
432.74	17.167
433.10	17.199
433.45	16.805
433.80	16.667
434.16	17.040
434.51	17.717
434.86	17.962
435.22	17.544
435.57	17.383
435.92	17.732
436.28	17.237
436.63	17.783
436.98	17.098
437.34	17.216
437.69	17.414
438.04	17.374
438.39	18.493
438.75	16.746
439.10	17.409
439.45	17.131
439.81	17.980
440.16	17.507
440.51	16.350
440.86	17.427
441.22	17.097
441.57	17.950
441.92	17.729
442.27	17.370
442.63	17.330
442.98	17.188
443.33	17.212
443.68	16.816
444.03	17.437
444.39	17.551
444.74	17.173
445.09	17.070
445.44	18.197
445.79	16.985
446.15	17.915
446.50	17.566
446.85	17.531
447.20	18.087
447.55	17.236
447.91	17.135
448.26	17.724
448.61	17.837
448.96	17.084
449.31	17.533
449.66	18.103
450.02	17.510
450.37	17.156
450.72	17.738
451.07	16.991
451.42	16.594
451.77	17.955
452.12	17.944
452.47	17.043
452.83	17.099
453.18	17.823
453.53	17.465
453.88	17.289
454.23	17.305
454.58	17.708
454.93	17.960
455.28	17.405
455.63	17.280
455.98	17.651
456.34	16.974
456.69	18.019
457.04	17.276
457.39	17.078
457.74	17.893
458.09	17.476
458.44	17.685
458.79	17.024
459.14	17.416
459.49	16.951
459.84	17.418
460.19	16.267
460.54	18.431
460.89	17.624
461.24	17.633
461.59	17.089
461.94	17.383
462.29	16.973
462.64	17.150
462.99	17.572
463.34	18.577
463.69	18.428
464.04	17.047
464.39	17.206
464.74	17.138
465.09	17.111
465.44	18.013
465.79	17.424
466.14	16.648
466.49	18.065
466.84	18.410
467.19	17.325
467.54	18.017
467.89	18.039
468.24	17.701
468.59	17.272
468.94	18.135
469.29	17.713
469.64	18.131
469.99	17.724
470.34	18.139
470.68	17.026
471.03	18.124
471.38	18.150
471.73	18.107
472.08	17.045
472.43	18.602
472.78	17.174
473.13	17.216
473.48	17.482
473.83	18.456
474.17	17.578
474.52	17.799
474.87	17.069
475.22	17.814
475.57	17.959
475.92	18.212
476.27	17.774
476.61	17.610
476.96	18.332
477.31	17.476
477.66	17.740
478.01	17.692
478.36	17.820
478.70	17.723
479.05	18.368
479.40	17.681
479.75	18.278
480.10	18.307
480.45	18.048
480.79	17.770
481.14	18.338
481.49	18.599
481.84	17.908
482.19	17.925
482.53	17.667
482.88	17.785
483.23	17.806
483.58	18.620
483.92	18.093
484.27	17.887
484.62	17.932
484.97	18.540
485.31	17.731
485.66	17.492
486.01	17.951
486.36	17.588
486.70	18.078
487.05	17.915
487.40	17.630
487.75	18.145
488.09	17.579
488.44	17.560
488.79	17.941
489.13	17.813
489.48	17.358
489.83	18.178
490.17	18.021
490.52	18.607
490.87	17.432
491.22	17.522
491.56	18.352
491.91	18.099
492.26	18.133
492.60	17.797
492.95	18.659
493.30	17.684
493.64	17.026
493.99	18.502
494.34	17.967
494.68	17.995
495.03	18.281
495.37	18.248
495.72	17.644
496.07	17.974
496.41	17.782
496.76	18.327
497.11	18.685
497.45	17.996
497.80	19.081
498.14	18.388
498.49	17.902
498.84	18.623
499.18	18.069
499.53	18.168
499.87	17.613
500.22	19.014
500.56	18.606
500.91	18.561
501.26	18.522
501.60	18.039
501.95	18.400
502.29	17.767
502.64	18.515
502.98	17.486
503.33	18.443
503.67	18.208
504.02	17.696
504.36	18.425
504.71	17.683
505.06	18.951
505.40	18.918
505.75	19.278
506.09	18.447
506.44	18.448
506.78	18.233
507.13	18.607
507.47	18.081
507.82	18.524
508.16	18.259
508.51	18.285
508.85	18.248
509.19	18.413
509.54	18.660
509.88	18.763
510.23	18.842
510.57	18.962
510.92	18.750
511.26	18.647
511.61	18.277
511.95	17.530
512.30	18.767
512.64	17.991
512.98	18.726
513.33	18.141
513.67	18.058
514.02	19.042
514.36	18.596
514.70	18.649
515.05	18.958
515.39	18.868
515.74	18.828
516.08	17.345
516.42	17.857
516.77	17.926
517.11	18.754
517.46	19.148
517.80	19.976
518.14	17.881
518.49	17.601
518.83	19.033
519.17	18.253
519.52	18.697
519.86	18.094
520.20	18.375
520.55	19.092
520.89	19.292
521.23	19.167
521.58	19.216
521.92	19.107
522.26	19.323
522.61	19.198
522.95	18.847
523.29	18.984
523.64	19.008
523.98	19.187
524.32	18.967
524.66	18.896
525.01	19.659
525.35	18.828
525.69	18.423
526.04	17.720
526.38	19.312
526.72	18.475
527.06	19.020
527.41	18.862
527.75	18.558
528.09	19.129
528.43	19.539
528.78	19.574
529.12	19.146
529.46	19.962
529.80	19.029
530.15	18.855
530.49	19.946
530.83	19.973
531.17	19.315
531.51	18.341
531.86	19.106
532.20	19.504
532.54	18.000
532.88	18.244
533.22	19.798
533.57	19.073
533.91	19.613
534.25	20.312
534.59	18.597
534.93	18.750
535.27	19.236
535.62	19.211
535.96	19.063
536.30	19.880
536.64	18.729
536.98	18.641
537.32	18.363
537.66	18.829
538.01	18.377
538.35	18.646
538.69	19.532
539.03	18.523
539.37	19.450
539.71	18.622
540.05	17.611
540.39	17.550
540.73	19.274
541.07	19.184
541.42	18.990
541.76	19.147
542.10	18.551
542.44	18.503
542.78	18.737
543.12	19.272
543.46	17.484
543.80	19.145
544.14	18.582
544.48	18.646
544.82	19.032
545.16	18.256
545.50	18.839
545.84	18.794
546.18	19.355
546.52	19.054
546.86	17.880
547.20	18.656
547.54	18.871
547.88	19.163
548.22	18.632
548.56	18.746
548.90	18.606
549.24	20.278
549.58	18.221
549.92	19.076
550.26	20.000
550.60	18.619
550.94	17.463
551.28	18.622
551.62	18.496
551.96	18.302
552.30	17.758
552.64	18.291
552.98	19.105
553.32	18.601
553.66	18.929
554.00	19.006
554.34	18.168
554.68	19.090
555.02	18.263
555.36	19.894
555.69	19.009
556.03	18.442
556.37	19.132
556.71	18.781
557.05	18.376
557.39	18.011
557.73	18.230
558.07	18.387
558.41	18.395
558.75	19.400
559.08	18.605
559.42	18.725
559.76	18.807
560.10	18.217
560.44	19.307
560.78	18.489
561.12	19.131
561.45	18.776
561.79	18.363
562.13	18.847
562.47	19.143
562.81	18.687
563.15	18.130
563.48	18.445
563.82	18.331
564.16	18.416
564.50	18.385
564.84	17.500
565.17	20.662
565.51	18.850
565.85	18.388
566.19	18.543
566.52	18.414
566.86	19.090
567.20	18.571
567.54	18.077
567.88	18.085
568.21	17.762
568.55	17.840
568.89	17.547
569.23	18.286
569.56	18.189
569.90	18.405
570.24	17.690
570.57	18.560
570.91	18.009
571.25	17.707
571.59	17.799
571.92	18.099
572.26	17.969
572.60	17.863
572.93	17.432
573.27	17.765
573.61	18.457
573.95	18.033
574.28	17.633
574.62	17.897
574.96	18.184
575.29	17.578
575.63	17.887
575.97	17.663
576.30	17.731
576.64	17.946
576.98	18.214
577.31	17.551
577.65	17.340
577.98	17.484
578.32	17.511
578.66	17.676
578.99	17.817
579.33	17.916
579.67	18.050
580.00	17.043
580.34	17.571
580.67	17.540
581.01	17.701
581.35	18.096
581.68	17.641
582.02	18.108
582.35	17.714
582.69	17.700
583.02	17.254
583.36	17.244
583.70	17.578
584.03	17.579
584.37	17.432
584.70	17.284
585.04	17.957
585.37	17.375
585.71	17.487
586.04	17.594
586.38	17.469
586.72	16.999
587.05	17.710
587.39	17.296
587.72	17.580
588.06	17.729
588.39	17.856
588.73	17.720
589.06	17.135
589.40	17.097
589.73	17.463
590.07	17.390
590.40	17.380
590.73	17.909
591.07	17.384
591.40	17.348
591.74	17.208
592.07	18.028
592.41	18.018
592.74	17.284
593.08	17.778
593.41	17.887
593.75	17.700
594.08	18.100
594.41	17.221
594.75	17.841
595.08	17.476
595.42	17.645
595.75	17.498
596.09	17.206
596.42	17.851
596.75	17.332
597.09	18.016
597.42	17.541
597.75	17.600
598.09	17.213
598.42	17.852
598.76	17.884
599.09	18.527
599.42	17.409
599.76	17.311
600.09	17.620
600.42	16.911
600.76	16.814
601.09	18.267
601.42	17.679
601.76	17.761
602.09	17.349
602.42	17.747
602.76	17.785
603.09	18.316
603.42	18.433
603.76	17.615
604.09	17.431
604.42	17.329
604.76	17.023
605.09	17.173
605.42	18.309
605.75	17.088
606.09	17.301
606.42	17.041
606.75	17.100
607.09	17.420
607.42	17.294
607.75	16.761
608.08	17.583
608.42	17.385
608.75	17.439
609.08	17.099
609.41	18.182
609.75	17.146
610.08	17.850
610.41	18.222
610.74	17.950
611.07	17.385
611.41	17.605
611.74	17.029
612.07	17.509
612.40	17.622
612.73	17.618
613.07	17.406
613.40	17.952
613.73	18.093
614.06	17.081
614.39	17.676
614.72	18.046
615.06	16.722
615.39	17.770
615.72	17.333
616.05	17.511
616.38	17.411
616.71	17.636
617.05	18.059
617.38	18.053
617.71	16.605
618.04	17.063
618.37	17.098
618.70	17.529
619.03	17.113
619.36	18.505
619.69	16.520
620.03	18.304
620.36	16.701
620.69	17.773
621.02	16.692
621.35	16.680
621.68	17.359
622.01	18.528
622.34	16.891
622.67	17.776
623.00	17.249
623.33	17.277
623.66	17.695
623.99	18.155
624.32	17.461
624.65	17.211
624.99	17.340
625.32	17.924
625.65	17.984
625.98	16.509
626.31	18.367
626.64	17.025
626.97	17.128
627.30	18.050
627.63	16.263
627.96	15.584
628.29	17.767
628.62	17.892
628.95	17.535
629.28	17.931
629.61	18.086
629.94	18.762
630.26	18.916
630.59	16.883
630.92	18.173
631.25	17.405
631.58	18.415
