SpectraSuite Data File
++++++++++++++++++++++++++++++++++++
Date: Wed May 13 21:29:01 PDT 2015
User: schluterlab
Dark Spectrum Present: Yes
Reference Spectrum Present: Yes
Number of Sampled Component Spectra: 1
Spectrometers: USB2E3373
Integration Time (usec): 3000 (USB2E3373)
Spectra Averaged: 3 (USB2E3373)
Boxcar Smoothing: 0 (USB2E3373)
Correct for Electrical Dark: No (USB2E3373)
Strobe/Lamp Enabled: No (USB2E3373)
Correct for Detector Non-linearity: No (USB2E3373)
Correct for Stray Light: No (USB2E3373)
Number of Pixels in Processed Spectrum: 2048
>>>>>Begin Processed Spectral Data<<<<<
178.53	0.000
178.91	400.000
179.29	191.667
179.67	-550.000
180.04	-333.333
180.42	160.000
180.80	1100.000
181.18	100.000
181.56	-375.000
181.94	-300.000
182.31	-18.182
182.69	192.308
183.07	-200.000
183.45	100.000
183.83	144.444
184.20	200.000
184.58	-66.667
184.96	333.333
185.34	214.286
185.72	0.000
186.09	-300.000
186.47	-260.000
186.85	80.000
187.23	-250.000
187.61	650.000
187.98	1100.000
188.36	37.500
188.74	0.000
189.12	-18.182
189.49	20.000
189.87	141.667
190.25	220.000
190.63	1500.000
191.00	-200.000
191.38	400.000
191.76	225.000
192.14	208.333
192.51	-5.263
192.89	600.000
193.27	475.000
193.65	-220.000
194.02	200.000
194.40	140.000
194.78	-1500.000
195.15	360.000
195.53	-300.000
195.91	-50.000
196.29	-300.000
196.66	0.000
197.04	700.000
197.42	-60.000
197.79	-20.000
198.17	-137.500
198.55	0.000
198.92	200.000
199.30	-366.667
199.68	-50.000
200.05	-0.000
200.43	183.333
200.81	-1700.000
201.18	-180.000
201.56	-66.667
201.94	450.000
202.31	4.348
202.69	-171.429
203.07	-400.000
203.44	-160.000
203.82	-200.000
204.19	-30.000
204.57	0.000
204.95	-116.667
205.32	0.000
205.70	-500.000
206.08	-250.000
206.45	-100.000
206.83	425.000
207.20	-200.000
207.58	-60.000
207.96	-1400.000
208.33	-114.286
208.71	-1800.000
209.08	225.000
209.46	375.000
209.84	0.000
210.21	160.000
210.59	2500.000
210.96	400.000
211.34	900.000
211.71	-550.000
212.09	-200.000
212.46	-190.000
212.84	33.333
213.22	-150.000
213.59	-1200.000
213.97	-750.000
214.34	-650.000
214.72	-23.077
215.09	237.500
215.47	233.333
215.84	950.000
216.22	-100.000
216.59	-600.000
216.97	800.000
217.34	255.556
217.72	0.000
218.09	700.000
218.47	0.000
218.84	-42.857
219.22	0.000
219.59	-166.667
219.97	-450.000
220.34	-175.000
220.72	-160.000
221.09	0.000
221.47	-50.000
221.84	-100.000
222.22	0.000
222.59	1000.000
222.97	-466.667
223.34	-75.000
223.72	-400.000
224.09	-700.000
224.46	-36.364
224.84	-112.500
225.21	-128.571
225.59	-225.000
225.96	16.667
226.34	20.000
226.71	-100.000
227.08	700.000
227.46	-125.000
227.83	-300.000
228.21	-62.500
228.58	-425.000
228.95	-47.059
229.33	-12.500
229.70	-87.500
230.08	-46.154
230.45	-100.000
230.82	-83.333
231.20	128.571
231.57	-75.000
231.95	900.000
232.32	25.000
232.69	0.000
233.07	-1200.000
233.44	-21.739
233.81	-600.000
234.19	-29.167
234.56	-73.333
234.93	-26.667
235.31	-42.105
235.68	-84.615
236.05	-23.077
236.43	11.111
236.80	12.121
237.17	-40.000
237.55	-111.765
237.92	6.897
238.29	-7.407
238.67	27.778
239.04	6.452
239.41	2.128
239.79	21.277
240.16	6.977
240.53	7.143
240.91	17.857
241.28	10.714
241.65	11.290
242.02	15.789
242.40	26.087
242.77	8.696
243.14	11.538
243.51	25.532
243.89	17.308
244.26	32.075
244.63	21.154
245.00	31.250
245.38	18.487
245.75	18.033
246.12	30.075
246.49	21.138
246.87	15.966
247.24	30.405
247.61	18.543
247.98	20.513
248.36	26.036
248.73	25.281
249.10	18.182
249.47	24.194
249.84	29.474
250.22	23.881
250.59	24.766
250.96	28.182
251.33	18.660
251.70	33.054
252.08	28.452
252.45	27.572
252.82	31.179
253.19	27.237
253.56	28.058
253.94	27.758
254.31	27.113
254.68	29.866
255.05	28.383
255.42	23.427
255.79	27.301
256.16	27.445
256.54	27.937
256.91	24.367
257.28	27.987
257.65	24.522
258.02	28.152
258.39	28.070
258.76	23.547
259.14	27.841
259.51	24.719
259.88	28.455
260.25	27.778
260.62	28.371
260.99	30.239
261.36	28.238
261.73	25.185
262.10	26.209
262.47	26.420
262.85	27.114
263.22	27.436
263.59	23.377
263.96	27.007
264.33	25.962
264.70	26.977
265.07	27.315
265.44	28.736
265.81	27.002
266.18	28.018
266.55	31.441
266.92	26.271
267.29	26.132
267.66	28.875
268.03	30.658
268.40	26.695
268.77	27.273
269.14	27.755
269.51	28.747
269.88	26.069
270.25	27.542
270.62	26.639
270.99	26.181
271.36	27.579
271.73	28.112
272.10	26.476
272.47	26.871
272.84	27.953
273.21	25.832
273.58	27.869
273.95	23.962
274.32	26.866
274.69	25.501
275.06	28.622
275.43	25.800
275.80	26.064
276.17	27.440
276.54	26.288
276.91	27.178
277.28	23.466
277.65	27.098
278.02	27.679
278.39	24.689
278.76	25.920
279.13	26.072
279.50	25.000
279.87	25.543
280.23	23.784
280.60	25.606
280.97	25.162
281.34	25.552
281.71	24.390
282.08	26.667
282.45	26.885
282.82	25.559
283.19	26.220
283.56	25.625
283.92	26.453
284.29	25.273
284.66	24.712
285.03	22.638
285.40	25.680
285.77	26.276
286.14	24.316
286.51	28.036
286.87	25.846
287.24	25.369
287.61	26.657
287.98	25.441
288.35	23.398
288.72	24.964
289.08	27.778
289.45	25.844
289.82	24.508
290.19	24.404
290.56	23.580
290.93	24.171
291.29	24.077
291.66	24.317
292.03	24.796
292.40	25.303
292.77	23.293
293.13	23.989
293.50	24.314
293.87	22.400
294.24	23.016
294.60	23.667
294.97	25.265
295.34	23.351
295.71	21.025
296.08	21.204
296.44	23.214
296.81	21.803
297.18	21.625
297.55	22.995
297.91	23.230
298.28	22.397
298.65	20.813
299.02	23.443
299.38	21.227
299.75	20.313
300.12	20.349
300.48	21.871
300.85	21.478
301.22	20.790
301.59	20.892
301.95	22.532
302.32	21.820
302.69	20.339
303.05	20.819
303.42	21.250
303.79	22.187
304.15	21.249
304.52	23.548
304.89	20.377
305.25	20.088
305.62	22.017
305.99	21.872
306.35	20.481
306.72	21.567
307.09	21.064
307.45	21.406
307.82	21.474
308.19	21.526
308.55	20.778
308.92	22.397
309.29	21.622
309.65	21.179
310.02	19.583
310.38	22.663
310.75	21.302
311.12	22.643
311.48	21.068
311.85	22.441
312.22	23.211
312.58	20.966
312.95	20.100
313.31	22.957
313.68	21.565
314.05	21.928
314.41	23.631
314.78	23.340
315.14	22.963
315.51	23.026
315.87	22.243
316.24	22.957
316.61	24.110
316.97	22.130
317.34	21.836
317.70	24.353
318.07	24.224
318.43	23.939
318.80	23.560
319.16	25.022
319.53	23.656
319.89	23.216
320.26	24.769
320.62	23.262
320.99	23.837
321.35	25.351
321.72	25.602
322.08	25.830
322.45	24.237
322.81	25.970
323.18	26.029
323.54	26.444
323.91	26.287
324.27	27.723
324.64	26.045
325.00	25.809
325.37	26.621
325.73	26.094
326.10	27.250
326.46	27.007
326.83	26.456
327.19	28.049
327.56	28.525
327.92	28.962
328.29	29.299
328.65	28.834
329.01	27.529
329.38	30.609
329.74	28.584
330.11	28.224
330.47	27.865
330.84	29.242
331.20	29.462
331.56	29.438
331.93	28.682
332.29	29.366
332.66	27.288
333.02	29.192
333.38	28.509
333.75	29.181
334.11	30.122
334.48	29.991
334.84	28.710
335.20	28.388
335.57	29.069
335.93	29.467
336.29	29.335
336.66	28.120
337.02	29.130
337.38	29.939
337.75	28.941
338.11	28.523
338.47	27.997
338.84	29.811
339.20	29.012
339.56	29.181
339.93	29.991
340.29	29.291
340.65	29.256
341.02	30.033
341.38	28.885
341.74	27.983
342.11	27.993
342.47	28.536
342.83	28.676
343.20	28.934
343.56	30.090
343.92	29.245
344.28	29.951
344.65	28.816
345.01	28.168
345.37	30.016
345.73	28.840
346.10	29.936
346.46	27.398
346.82	28.571
347.19	28.560
347.55	30.291
347.91	28.917
348.27	29.338
348.63	28.365
349.00	27.987
349.36	29.042
349.72	28.616
350.08	28.315
350.45	30.384
350.81	29.734
351.17	30.023
351.53	29.694
351.89	28.515
352.26	29.189
352.62	29.767
352.98	29.473
353.34	29.469
353.70	29.439
354.07	29.725
354.43	29.238
354.79	29.728
355.15	29.969
355.51	30.600
355.87	29.163
356.24	29.053
356.60	30.493
356.96	29.547
357.32	29.799
357.68	29.794
358.04	29.635
358.40	31.628
358.77	30.275
359.13	29.805
359.49	29.902
359.85	29.947
360.21	30.455
360.57	30.875
360.93	30.425
361.29	31.310
361.66	29.385
362.02	29.355
362.38	31.536
362.74	30.529
363.10	31.381
363.46	30.980
363.82	31.633
364.18	30.239
364.54	29.686
364.90	30.035
365.26	30.361
365.62	30.469
365.98	32.456
366.35	31.702
366.71	30.100
367.07	30.971
367.43	31.359
367.79	31.550
368.15	31.786
368.51	31.786
368.87	32.659
369.23	31.388
369.59	31.642
369.95	32.366
370.31	31.172
370.67	31.354
371.03	32.368
371.39	31.867
371.75	32.929
372.11	32.265
372.47	33.814
372.83	32.802
373.19	32.878
373.55	34.393
373.91	32.885
374.27	32.019
374.63	32.504
374.99	32.869
375.35	34.041
375.71	33.152
376.07	34.133
376.42	33.556
376.78	34.346
377.14	33.898
377.50	34.224
377.86	33.732
378.22	34.829
378.58	34.741
378.94	34.250
379.30	35.290
379.66	35.388
380.02	35.478
380.38	35.663
380.74	35.386
381.09	35.163
381.45	35.490
381.81	35.182
382.17	34.846
382.53	35.569
382.89	36.068
383.25	36.296
383.61	36.199
383.97	37.062
384.32	35.665
384.68	36.891
385.04	36.225
385.40	37.920
385.76	37.044
386.12	36.992
386.48	37.053
386.83	37.297
387.19	35.904
387.55	38.381
387.91	38.192
388.27	37.793
388.62	37.890
388.98	37.422
389.34	38.033
389.70	37.546
390.06	37.813
390.42	39.304
390.77	38.437
391.13	38.384
391.49	38.773
391.85	38.466
392.20	38.158
392.56	39.238
392.92	38.912
393.28	39.105
393.64	40.489
393.99	39.106
394.35	38.889
394.71	39.359
395.07	38.931
395.42	38.696
395.78	39.511
396.14	39.442
396.50	40.520
396.85	40.408
397.21	40.137
397.57	41.242
397.92	39.461
398.28	40.891
398.64	39.587
399.00	40.569
399.35	40.692
399.71	39.546
400.07	41.084
400.42	42.320
400.78	40.725
401.14	40.895
401.49	40.983
401.85	41.093
402.21	41.300
402.57	41.324
402.92	41.802
403.28	41.338
403.63	40.484
403.99	42.290
404.35	41.459
404.70	40.181
405.06	41.515
405.42	40.955
405.77	41.590
406.13	41.086
406.49	42.900
406.84	41.697
407.20	41.978
407.55	41.948
407.91	42.356
408.27	40.736
408.62	43.155
408.98	42.109
409.34	43.131
409.69	43.730
410.05	42.910
410.40	42.788
410.76	42.900
411.11	42.289
411.47	43.729
411.83	43.044
412.18	42.695
412.54	43.045
412.89	42.320
413.25	41.947
413.60	43.135
413.96	42.884
414.31	42.478
414.67	42.667
415.03	43.708
415.38	42.933
415.74	42.820
416.09	44.283
416.45	44.087
416.80	43.960
417.16	43.050
417.51	43.269
417.87	42.857
418.22	42.922
418.58	43.298
418.93	44.005
419.29	44.488
419.64	43.766
420.00	44.063
420.35	43.694
420.71	43.205
421.06	43.850
421.42	43.187
421.77	44.624
422.12	44.699
422.48	42.912
422.83	44.714
423.19	44.221
423.54	45.289
423.90	44.240
424.25	44.425
424.61	43.808
424.96	45.831
425.31	44.532
425.67	44.033
426.02	45.819
426.38	44.341
426.73	44.349
427.09	44.903
427.44	44.275
427.79	45.428
428.15	45.199
428.50	44.834
428.85	44.219
429.21	43.557
429.56	45.324
429.92	44.560
430.27	44.376
430.62	45.173
430.98	43.998
431.33	43.901
431.68	46.006
432.04	45.127
432.39	45.035
432.74	45.800
433.10	45.148
433.45	45.325
433.80	43.908
434.16	44.293
434.51	45.054
434.86	45.230
435.22	44.878
435.57	44.779
435.92	45.115
436.28	44.865
436.63	45.208
436.98	44.830
437.34	44.383
437.69	45.041
438.04	45.331
438.39	45.890
438.75	45.650
439.10	45.865
439.45	44.552
439.81	46.429
440.16	45.217
440.51	44.946
440.86	45.525
441.22	45.955
441.57	45.662
441.92	45.257
442.27	44.751
442.63	46.017
442.98	45.197
443.33	45.655
443.68	43.806
444.03	45.306
444.39	46.059
444.74	44.009
445.09	45.650
445.44	45.972
445.79	45.534
446.15	46.256
446.50	45.154
446.85	46.285
447.20	45.687
447.55	45.943
447.91	44.775
448.26	45.569
448.61	45.570
448.96	45.558
449.31	46.488
449.66	45.518
450.02	46.219
450.37	46.886
450.72	44.546
451.07	45.643
451.42	44.791
451.77	45.892
452.12	44.563
452.47	46.094
452.83	45.873
453.18	46.658
453.53	45.523
453.88	45.723
454.23	44.685
454.58	45.037
454.93	44.836
455.28	45.472
455.63	45.727
455.98	46.318
456.34	45.645
456.69	45.815
457.04	44.768
457.39	44.919
457.74	43.926
458.09	45.557
458.44	45.241
458.79	44.371
459.14	44.663
459.49	46.280
459.84	45.265
460.19	43.277
460.54	45.377
460.89	44.989
461.24	45.314
461.59	45.169
461.94	46.839
462.29	45.650
462.64	44.789
462.99	44.668
463.34	46.685
463.69	45.296
464.04	44.298
464.39	44.600
464.74	44.595
465.09	44.513
465.44	44.725
465.79	45.198
466.14	45.268
466.49	46.569
466.84	44.889
467.19	43.885
467.54	45.237
467.89	45.820
468.24	45.482
468.59	45.570
468.94	45.722
469.29	46.266
469.64	47.001
469.99	47.448
470.34	45.651
470.68	46.691
471.03	45.910
471.38	45.758
471.73	45.199
472.08	47.010
472.43	46.108
472.78	45.233
473.13	45.449
473.48	44.879
473.83	46.014
474.17	45.443
474.52	46.408
474.87	44.692
475.22	44.867
475.57	44.841
475.92	46.074
476.27	46.329
476.61	44.847
476.96	45.802
477.31	46.009
477.66	45.650
478.01	45.220
478.36	44.687
478.70	44.844
479.05	46.670
479.40	45.398
479.75	45.855
480.10	45.181
480.45	44.630
480.79	47.237
481.14	46.201
481.49	47.213
481.84	44.863
482.19	44.558
482.53	44.905
482.88	45.542
483.23	44.610
483.58	45.274
483.92	45.039
484.27	45.197
484.62	44.829
484.97	44.131
485.31	43.346
485.66	41.216
486.01	41.447
486.36	41.214
486.70	42.797
487.05	43.316
487.40	43.878
487.75	44.961
488.09	45.637
488.44	44.725
488.79	45.307
489.13	44.692
489.48	45.233
489.83	45.645
490.17	44.712
490.52	46.891
490.87	44.599
491.22	44.889
491.56	46.239
491.91	45.175
492.26	45.503
492.60	44.348
492.95	45.675
493.30	45.010
493.64	45.276
493.99	45.121
494.34	44.557
494.68	45.776
495.03	45.158
495.37	44.623
495.72	46.366
496.07	45.348
496.41	45.204
496.76	45.064
497.11	45.211
497.45	46.060
497.80	46.189
498.14	45.844
498.49	46.142
498.84	45.901
499.18	45.645
499.53	45.495
499.87	44.250
500.22	45.645
500.56	45.787
500.91	46.680
501.26	44.828
501.60	44.461
501.95	45.232
502.29	45.728
502.64	46.287
502.98	44.605
503.33	45.109
503.67	45.521
504.02	45.833
504.36	45.072
504.71	45.579
505.06	47.224
505.40	46.753
505.75	46.185
506.09	45.784
506.44	45.413
506.78	46.166
507.13	46.518
507.47	46.448
507.82	46.206
508.16	45.488
508.51	46.281
508.85	45.982
509.19	46.772
509.54	46.702
509.88	47.043
510.23	46.474
510.57	46.292
510.92	46.659
511.26	47.360
511.61	46.872
511.95	46.141
512.30	46.641
512.64	47.787
512.98	46.371
513.33	48.282
513.67	47.530
514.02	47.149
514.36	48.371
514.70	47.286
515.05	47.747
515.39	47.583
515.74	48.194
516.08	47.316
516.42	47.120
516.77	47.862
517.11	48.031
517.46	48.860
517.80	50.303
518.14	48.377
518.49	47.619
518.83	47.673
519.17	48.434
519.52	49.156
519.86	48.998
520.20	48.757
520.55	48.134
520.89	48.450
521.23	49.359
521.58	49.052
521.92	48.649
522.26	49.057
522.61	49.968
522.95	48.964
523.29	49.270
523.64	49.332
523.98	49.238
524.32	47.574
524.66	48.701
525.01	50.983
525.35	51.020
525.69	50.431
526.04	49.446
526.38	48.630
526.72	48.586
527.06	48.936
527.41	48.511
527.75	49.666
528.09	50.442
528.43	49.864
528.78	49.483
529.12	49.483
529.46	49.392
529.80	50.097
530.15	47.683
530.49	49.798
530.83	50.102
531.17	50.548
531.51	49.090
531.86	49.458
532.20	48.587
532.54	48.690
532.88	49.285
533.22	48.889
533.57	50.199
533.91	48.452
534.25	49.609
534.59	48.327
534.93	49.490
535.27	49.363
535.62	48.882
535.96	49.642
536.30	50.532
536.64	48.667
536.98	48.563
537.32	47.544
537.66	49.577
538.01	48.960
538.35	49.378
538.69	47.492
539.03	47.315
539.37	47.753
539.71	48.226
540.05	47.908
540.39	47.694
540.73	48.184
541.07	48.503
541.42	49.360
541.76	49.188
542.10	48.409
542.44	48.233
542.78	47.189
543.12	46.900
543.46	46.303
543.80	47.047
544.14	48.383
544.48	46.251
544.82	49.025
545.16	48.005
545.50	48.548
545.84	48.387
546.18	48.387
546.52	48.412
546.86	46.007
547.20	48.463
547.54	47.534
547.88	47.233
548.22	46.254
548.56	46.965
548.90	47.091
549.24	47.986
549.58	46.690
549.92	48.936
550.26	48.635
550.60	49.399
550.94	49.030
551.28	47.161
551.62	47.519
551.96	46.779
552.30	45.997
552.64	46.257
552.98	47.656
553.32	46.503
553.66	47.249
554.00	46.436
554.34	46.154
554.68	46.160
555.02	47.231
555.36	47.504
555.69	46.540
556.03	47.677
556.37	45.875
556.71	46.181
557.05	47.454
557.39	46.797
557.73	46.293
558.07	46.647
558.41	46.934
558.75	46.420
559.08	47.554
559.42	46.499
559.76	46.330
560.10	46.964
560.44	47.458
560.78	46.547
561.12	45.971
561.45	44.966
561.79	45.117
562.13	46.554
562.47	47.643
562.81	46.104
563.15	45.326
563.48	45.630
563.82	45.417
564.16	45.430
564.50	46.133
564.84	45.338
565.17	46.159
565.51	45.856
565.85	45.370
566.19	46.291
566.52	44.692
566.86	44.753
567.20	45.205
567.54	43.005
567.88	42.609
568.21	43.292
568.55	43.714
568.89	41.825
569.23	42.667
569.56	41.469
569.90	40.798
570.24	39.819
570.57	39.850
570.91	39.947
571.25	39.745
571.59	39.838
571.92	40.100
572.26	40.392
572.60	40.715
572.93	40.800
573.27	39.447
573.61	40.081
573.95	40.005
574.28	39.778
574.62	38.534
574.96	39.026
575.29	39.544
575.63	39.331
575.97	39.973
576.30	38.822
576.64	39.114
576.98	39.026
577.31	39.066
577.65	38.326
577.98	38.341
578.32	37.965
578.66	38.888
578.99	39.061
579.33	39.580
579.67	39.588
580.00	38.559
580.34	39.069
580.67	38.902
581.01	38.363
581.35	37.925
581.68	37.517
582.02	37.387
582.35	38.221
582.69	38.029
583.02	38.304
583.36	39.317
583.70	39.184
584.03	38.878
584.37	39.672
584.70	38.535
585.04	38.796
585.37	38.202
585.71	37.820
586.04	38.045
586.38	38.016
586.72	38.382
587.05	39.594
587.39	38.583
587.72	38.218
588.06	38.413
588.39	38.847
588.73	38.478
589.06	39.185
589.40	38.528
589.73	38.987
590.07	38.425
590.40	38.660
590.73	39.344
591.07	39.323
591.40	38.957
591.74	39.306
592.07	39.799
592.41	38.310
592.74	38.117
593.08	36.923
593.41	37.572
593.75	36.983
594.08	37.409
594.41	38.501
594.75	39.393
595.08	37.603
595.42	38.153
595.75	37.672
596.09	38.568
596.42	38.562
596.75	38.921
597.09	39.991
597.42	38.986
597.75	38.667
598.09	38.024
598.42	38.881
598.76	37.867
599.09	37.695
599.42	37.424
599.76	37.514
600.09	37.538
600.42	37.137
600.76	36.992
601.09	37.100
601.42	37.397
601.76	37.259
602.09	37.860
602.42	38.300
602.76	37.626
603.09	38.111
603.42	37.585
603.76	36.360
604.09	36.443
604.42	37.003
604.76	37.800
605.09	37.608
605.42	38.776
605.75	37.645
606.09	37.169
606.42	37.282
606.75	36.710
607.09	36.791
607.42	37.172
607.75	36.193
608.08	37.241
608.42	37.488
608.75	37.602
609.08	37.090
609.41	37.705
609.75	37.368
610.08	37.426
610.41	37.464
610.74	36.526
611.07	37.575
611.41	38.025
611.74	37.060
612.07	36.686
612.40	38.432
612.73	37.651
613.07	37.084
613.40	37.225
613.73	37.324
614.06	36.650
614.39	37.799
614.72	38.368
615.06	36.944
615.39	36.865
615.72	36.825
616.05	36.374
616.38	37.457
616.71	36.413
617.05	37.346
617.38	37.092
617.71	36.887
618.04	37.416
618.37	37.413
618.70	38.098
619.03	38.007
619.36	39.573
619.69	37.135
620.03	37.456
620.36	36.952
620.69	37.402
621.02	37.846
621.35	36.877
621.68	38.386
622.01	39.563
622.34	38.462
622.67	37.666
623.00	38.450
623.33	37.771
623.66	36.729
623.99	38.035
624.32	37.638
624.65	37.240
624.99	37.325
625.32	37.640
625.65	38.372
625.98	37.283
626.31	38.694
626.64	38.693
626.97	38.581
627.30	37.810
627.63	38.149
627.96	36.277
628.29	38.884
628.62	37.911
628.95	39.178
629.28	38.621
629.61	39.713
629.94	38.878
630.26	39.310
630.59	39.161
630.92	38.855
631.25	39.238
631.58	39.186
631.91	38.070
632.24	38.639
632.57	37.444
