SpectraSuite Data File
++++++++++++++++++++++++++++++++++++
Date: Wed May 13 21:24:50 PDT 2015
User: schluterlab
Dark Spectrum Present: Yes
Reference Spectrum Present: Yes
Number of Sampled Component Spectra: 1
Spectrometers: USB2E3373
Integration Time (usec): 3000 (USB2E3373)
Spectra Averaged: 3 (USB2E3373)
Boxcar Smoothing: 0 (USB2E3373)
Correct for Electrical Dark: No (USB2E3373)
Strobe/Lamp Enabled: No (USB2E3373)
Correct for Detector Non-linearity: No (USB2E3373)
Correct for Stray Light: No (USB2E3373)
Number of Pixels in Processed Spectrum: 2048
>>>>>Begin Processed Spectral Data<<<<<
178.53	0.000
178.91	150.000
179.29	250.000
179.67	-750.000
180.04	-666.667
180.42	180.000
180.80	1400.000
181.18	300.000
181.56	-375.000
181.94	-375.000
182.31	-81.818
182.69	107.692
183.07	-120.000
183.45	283.333
183.83	166.667
184.20	200.000
184.58	-100.000
184.96	566.667
185.34	242.857
185.72	0.000
186.09	-600.000
186.47	-200.000
186.85	240.000
187.23	-400.000
187.61	550.000
187.98	1500.000
188.36	-87.500
188.74	0.000
189.12	9.091
189.49	30.000
189.87	158.333
190.25	280.000
190.63	600.000
191.00	-180.000
191.38	200.000
191.76	100.000
192.14	141.667
192.51	0.000
192.89	500.000
193.27	225.000
193.65	-340.000
194.02	181.818
194.40	310.000
194.78	-1000.000
195.15	280.000
195.53	-180.000
195.91	-75.000
196.29	-333.333
196.66	0.000
197.04	600.000
197.42	-320.000
197.79	-60.000
198.17	-212.500
198.55	-300.000
198.92	425.000
199.30	-500.000
199.68	-150.000
200.05	450.000
200.43	316.667
200.81	-1900.000
201.18	-20.000
201.56	-16.667
201.94	525.000
202.31	-8.696
202.69	-157.143
203.07	-433.333
203.44	-320.000
203.82	-266.667
204.19	-30.000
204.57	0.000
204.95	-33.333
205.32	0.000
205.70	-350.000
206.08	-200.000
206.45	-200.000
206.83	475.000
207.20	-66.667
207.58	-140.000
207.96	-1700.000
208.33	-114.286
208.71	-1700.000
209.08	262.500
209.46	250.000
209.84	0.000
210.21	90.000
210.59	1900.000
210.96	280.000
211.34	1600.000
211.71	-650.000
212.09	-166.667
212.46	-150.000
212.84	-233.333
213.22	-100.000
213.59	-600.000
213.97	-950.000
214.34	-1200.000
214.72	-38.462
215.09	275.000
215.47	177.778
215.84	600.000
216.22	-112.500
216.59	-400.000
216.97	766.667
217.34	111.111
217.72	0.000
218.09	633.333
218.47	-200.000
218.84	-114.286
219.22	-100.000
219.59	-400.000
219.97	-300.000
220.34	-150.000
220.72	-260.000
221.09	0.000
221.47	-83.333
221.84	-600.000
222.22	0.000
222.59	800.000
222.97	-200.000
223.34	-133.333
223.72	-900.000
224.09	-500.000
224.46	-127.273
224.84	-87.500
225.21	-142.857
225.59	-275.000
225.96	-83.333
226.34	50.000
226.71	28.571
227.08	250.000
227.46	-150.000
227.83	-900.000
228.21	12.500
228.58	-200.000
228.95	-47.059
229.33	-68.750
229.70	-162.500
230.08	7.692
230.45	-212.500
230.82	-91.667
231.20	185.714
231.57	-375.000
231.95	1700.000
232.32	33.333
232.69	-76.471
233.07	-1600.000
233.44	-39.130
233.81	50.000
234.19	20.833
234.56	-60.000
234.93	-20.000
235.31	0.000
235.68	-76.923
236.05	-53.846
236.43	-38.889
236.80	-15.152
237.17	-26.667
237.55	-11.765
237.92	-24.138
238.29	-44.444
238.67	0.000
239.04	-19.355
239.41	10.638
239.79	34.043
240.16	20.930
240.53	7.143
240.91	26.786
241.28	32.143
241.65	48.387
242.02	25.000
242.40	30.435
242.77	10.145
243.14	19.231
243.51	25.532
243.89	25.962
244.26	38.679
244.63	26.923
245.00	27.083
245.38	25.210
245.75	27.869
246.12	22.556
246.49	17.886
246.87	19.328
247.24	31.081
247.61	24.503
247.98	35.897
248.36	27.219
248.73	29.775
249.10	25.758
249.47	27.957
249.84	34.737
250.22	26.866
250.59	28.037
250.96	33.182
251.33	24.880
251.70	35.146
252.08	33.891
252.45	35.802
252.82	36.122
253.19	38.911
253.56	33.094
253.94	36.299
254.31	33.451
254.68	39.262
255.05	33.333
255.42	30.420
255.79	33.436
256.16	37.539
256.54	36.825
256.91	33.544
257.28	35.849
257.65	34.395
258.02	33.724
258.39	36.842
258.76	31.105
259.14	35.227
259.51	31.180
259.88	35.230
260.25	37.778
260.62	33.146
260.99	33.687
261.36	33.938
261.73	32.840
262.10	34.351
262.47	34.074
262.85	34.826
263.22	36.667
263.59	37.403
263.96	35.280
264.33	32.212
264.70	36.279
265.07	36.111
265.44	37.701
265.81	32.494
266.18	34.852
266.55	33.624
266.92	32.627
267.29	35.597
267.66	36.093
268.03	36.008
268.40	34.110
268.77	35.331
269.14	34.082
269.51	35.318
269.88	34.012
270.25	34.110
270.62	32.582
270.99	35.433
271.36	38.095
271.73	35.141
272.10	35.429
272.47	35.125
272.84	34.646
273.21	34.247
273.58	34.836
273.95	36.038
274.32	36.381
274.69	35.701
275.06	38.869
275.43	33.145
275.80	33.333
276.17	34.807
276.54	33.215
276.91	36.760
277.28	32.130
277.65	34.965
278.02	32.679
278.39	33.925
278.76	34.448
279.13	36.364
279.50	33.793
279.87	34.058
280.23	34.054
280.60	32.526
280.97	33.279
281.34	35.647
281.71	32.683
282.08	34.872
282.45	31.475
282.82	32.907
283.19	33.841
283.56	33.750
283.92	33.180
284.29	33.853
284.66	32.784
285.03	31.596
285.40	32.175
285.77	34.384
286.14	32.675
286.51	33.433
286.87	32.000
287.24	32.153
287.61	33.584
287.98	32.794
288.35	32.489
288.72	32.138
289.08	32.764
289.45	33.186
289.82	32.224
290.19	32.118
290.56	29.687
290.93	31.630
291.29	32.285
291.66	30.328
292.03	30.790
292.40	30.013
292.77	31.861
293.13	31.241
293.50	30.588
293.87	30.667
294.24	30.952
294.60	30.299
294.97	29.233
295.34	29.420
295.71	26.150
296.08	28.403
296.44	27.423
296.81	27.649
297.18	28.750
297.55	29.363
297.91	29.193
298.28	28.814
298.65	26.847
299.02	28.327
299.38	28.344
299.75	27.163
300.12	26.047
300.48	27.485
300.85	26.212
301.22	26.945
301.59	27.230
301.95	26.945
302.32	26.021
302.69	24.859
303.05	27.353
303.42	27.386
303.79	27.340
304.15	27.711
304.52	27.312
304.89	26.024
305.25	26.125
305.62	26.139
305.99	28.509
306.35	27.273
306.72	26.144
307.09	27.007
307.45	27.796
307.82	25.895
308.19	24.660
308.55	26.714
308.92	27.603
309.29	25.626
309.65	26.474
310.02	26.243
310.38	26.220
310.75	26.331
311.12	27.017
311.48	27.003
311.85	26.575
312.22	27.466
312.58	25.894
312.95	25.970
313.31	27.916
313.68	27.290
314.05	27.505
314.41	29.395
314.78	29.412
315.14	27.870
315.51	27.973
315.87	30.677
316.24	28.650
316.61	30.137
316.97	29.444
317.34	29.323
317.70	30.419
318.07	31.854
318.43	30.623
318.80	30.628
319.16	31.034
319.53	32.616
319.89	32.791
320.26	32.440
320.62	33.086
320.99	32.752
321.35	33.209
321.72	34.841
322.08	35.148
322.45	36.725
322.81	37.431
323.18	36.852
323.54	37.184
323.91	37.308
324.27	38.344
324.64	40.244
325.00	39.020
325.37	40.358
325.73	39.310
326.10	39.445
326.46	41.304
326.83	41.181
327.19	42.927
327.56	42.869
327.92	42.317
328.29	43.907
328.65	45.399
329.01	43.272
329.38	45.478
329.74	45.408
330.11	46.709
330.47	45.747
330.84	45.487
331.20	45.687
331.56	48.551
331.93	45.909
332.29	48.480
332.66	46.102
333.02	47.089
333.38	47.456
333.75	46.416
334.11	46.094
334.48	48.561
334.84	48.587
335.20	47.256
335.57	46.214
335.93	47.337
336.29	47.723
336.66	47.436
337.02	48.609
337.38	46.910
337.75	48.234
338.11	47.481
338.47	47.517
338.84	47.852
339.20	48.236
339.56	47.270
339.93	48.401
340.29	48.676
340.65	47.648
341.02	47.504
341.38	47.382
341.74	46.723
342.11	47.481
342.47	47.448
342.83	46.405
343.20	47.970
343.56	46.361
343.92	47.279
344.28	46.591
344.65	47.429
345.01	46.973
345.37	49.095
345.73	48.775
346.10	47.592
346.46	47.073
346.82	47.753
347.19	46.123
347.55	48.061
347.91	46.999
348.27	47.950
348.63	46.554
349.00	46.226
349.36	46.939
349.72	48.260
350.08	47.660
350.45	46.359
350.81	47.731
351.17	46.497
351.53	46.897
351.89	46.227
352.26	46.332
352.62	46.202
352.98	46.885
353.34	47.665
353.70	46.262
354.07	46.667
354.43	46.267
354.79	48.077
355.15	46.584
355.51	46.241
355.87	47.537
356.24	47.030
356.60	46.052
356.96	47.199
357.32	46.904
357.68	46.295
358.04	45.617
358.40	45.659
358.77	44.954
359.13	46.226
359.49	45.572
359.85	46.475
360.21	46.877
360.57	45.627
360.93	45.827
361.29	46.484
361.66	45.634
362.02	46.256
362.38	46.160
362.74	44.670
363.10	45.481
363.46	45.749
363.82	45.455
364.18	45.975
364.54	45.222
364.90	46.063
365.26	46.001
365.62	45.597
365.98	46.335
366.35	46.383
366.71	45.221
367.07	45.500
367.43	44.878
367.79	45.448
368.15	44.866
368.51	44.023
368.87	46.476
369.23	45.125
369.59	46.371
369.95	44.557
370.31	44.282
370.67	45.185
371.03	46.548
371.39	45.422
371.75	45.357
372.11	44.943
372.47	45.278
372.83	44.660
373.19	44.964
373.55	46.676
373.91	45.403
374.27	43.499
374.63	47.084
374.99	44.638
375.35	45.137
375.71	42.867
376.07	44.825
376.42	44.051
376.78	44.650
377.14	44.610
377.50	45.437
377.86	45.817
378.22	43.869
378.58	44.767
378.94	45.188
379.30	45.534
379.66	44.390
380.02	43.934
380.38	44.578
380.74	43.993
381.09	43.908
381.45	44.377
381.81	43.623
382.17	43.793
382.53	44.000
382.89	43.546
383.25	43.642
383.61	44.855
383.97	43.312
384.32	43.793
384.68	43.183
385.04	42.944
385.40	44.334
385.76	44.221
386.12	44.416
386.48	43.072
386.83	44.305
387.19	43.430
387.55	43.899
387.91	44.157
388.27	43.465
388.62	44.507
388.98	43.116
389.34	43.985
389.70	42.552
390.06	43.250
390.42	44.330
390.77	43.242
391.13	43.182
391.49	41.050
391.85	42.045
392.20	42.544
392.56	41.524
392.92	42.188
393.28	42.127
393.64	44.098
393.99	40.942
394.35	41.605
394.71	41.923
395.07	41.572
395.42	42.048
395.78	40.991
396.14	41.027
396.50	42.169
396.85	41.619
397.21	41.011
397.57	41.429
397.92	40.659
398.28	40.835
398.64	41.226
399.00	41.462
399.35	41.771
399.71	40.885
400.07	41.446
400.42	41.693
400.78	40.242
401.14	40.650
401.49	41.762
401.85	41.032
402.21	42.105
402.57	41.079
402.92	42.115
403.28	41.151
403.63	41.042
403.99	41.203
404.35	41.085
404.70	40.363
405.06	40.517
405.42	39.573
405.77	40.150
406.13	39.829
406.49	39.245
406.84	40.171
407.20	38.958
407.55	40.390
407.91	39.709
408.27	39.488
408.62	39.963
408.98	39.519
409.34	39.728
409.69	40.351
410.05	40.547
410.40	38.892
410.76	38.809
411.11	39.988
411.47	40.080
411.83	38.927
412.18	39.043
412.54	40.414
412.89	38.495
413.25	37.994
413.60	39.185
413.96	37.953
414.31	38.964
414.67	37.460
415.03	38.972
415.38	38.309
415.74	38.012
416.09	38.533
416.45	40.055
416.80	39.530
417.16	40.081
417.51	39.652
417.87	39.153
418.22	39.108
418.58	38.896
418.93	38.418
419.29	39.802
419.64	37.786
420.00	39.683
420.35	37.956
420.71	38.087
421.06	39.545
421.42	39.234
421.77	38.960
422.12	38.166
422.48	38.168
422.83	39.220
423.19	38.988
423.54	37.515
423.90	38.836
424.25	37.839
424.61	37.954
424.96	38.853
425.31	37.970
425.67	39.918
426.02	39.340
426.38	39.552
426.73	39.279
427.09	38.024
427.44	38.462
427.79	39.430
428.15	38.716
428.50	38.731
428.85	39.914
429.21	38.267
429.56	37.885
429.92	38.313
430.27	39.110
430.62	38.930
430.98	37.599
431.33	38.796
431.68	39.297
432.04	39.155
432.39	38.799
432.74	38.443
433.10	39.105
433.45	37.929
433.80	38.161
434.16	37.520
434.51	37.609
434.86	38.280
435.22	38.596
435.57	38.698
435.92	37.877
436.28	38.739
436.63	38.799
436.98	37.779
437.34	38.400
437.69	38.371
438.04	37.521
438.39	38.792
438.75	37.843
439.10	39.445
439.45	38.983
439.81	38.732
440.16	39.014
440.51	37.990
440.86	38.767
441.22	39.415
441.57	38.232
441.92	37.792
442.27	36.851
442.63	38.375
442.98	37.847
443.33	37.923
443.68	37.849
444.03	37.904
444.39	39.167
444.74	37.604
445.09	37.775
445.44	38.366
445.79	37.636
446.15	38.159
446.50	38.987
446.85	39.337
447.20	38.787
447.55	38.388
447.91	38.596
448.26	38.765
448.61	37.917
448.96	37.984
449.31	38.150
449.66	38.172
450.02	38.374
450.37	38.308
450.72	38.347
451.07	37.492
451.42	38.178
451.77	38.710
452.12	37.908
452.47	37.508
452.83	37.087
453.18	38.192
453.53	38.209
453.88	38.494
454.23	39.184
454.58	37.990
454.93	38.037
455.28	39.178
455.63	36.806
455.98	37.675
456.34	36.364
456.69	38.466
457.04	37.833
457.39	38.485
457.74	38.420
458.09	37.441
458.44	37.662
458.79	37.672
459.14	37.247
459.49	38.049
459.84	37.091
460.19	36.555
460.54	37.835
460.89	38.232
461.24	37.485
461.59	37.379
461.94	37.105
462.29	37.868
462.64	38.325
462.99	38.364
463.34	37.983
463.69	37.371
464.04	38.055
464.39	36.974
464.74	36.548
465.09	37.074
465.44	37.486
465.79	37.493
466.14	38.084
466.49	38.240
466.84	37.478
467.19	37.197
467.54	37.719
467.89	37.838
468.24	38.599
468.59	37.349
468.94	37.676
469.29	37.938
469.64	37.796
469.99	38.483
470.34	37.694
470.68	38.067
471.03	38.293
471.38	37.413
471.73	37.723
472.08	38.144
472.43	38.522
472.78	37.390
473.13	36.214
473.48	37.769
473.83	37.916
474.17	37.500
474.52	37.476
474.87	38.058
475.22	38.466
475.57	37.312
475.92	37.841
476.27	37.471
476.61	37.486
476.96	37.693
477.31	37.648
477.66	37.232
478.01	36.374
478.36	36.785
478.70	37.111
479.05	38.346
479.40	37.650
479.75	38.576
480.10	37.022
480.45	36.587
480.79	36.884
481.14	38.349
481.49	37.050
481.84	36.098
482.19	36.313
482.53	37.381
482.88	36.577
483.23	36.333
483.58	37.382
483.92	36.965
484.27	36.734
484.62	36.085
484.97	36.624
485.31	35.926
485.66	33.400
486.01	33.947
486.36	33.794
486.70	34.532
487.05	35.186
487.40	35.681
487.75	36.090
488.09	36.065
488.44	36.733
488.79	37.245
489.13	36.660
489.48	36.939
489.83	36.311
490.17	37.086
490.52	38.008
490.87	35.883
491.22	37.306
491.56	37.710
491.91	36.534
492.26	37.331
492.60	37.037
492.95	36.978
493.30	37.064
493.64	35.827
493.99	37.778
494.34	36.657
494.68	37.041
495.03	37.401
495.37	36.837
495.72	37.093
496.07	37.263
496.41	36.453
496.76	35.740
497.11	36.761
497.45	36.965
497.80	37.506
498.14	37.834
498.49	37.620
498.84	37.095
499.18	37.183
499.53	37.223
499.87	36.293
500.22	36.237
500.56	37.412
500.91	37.726
501.26	36.552
501.60	36.667
501.95	36.320
502.29	35.388
502.64	36.837
502.98	36.609
503.33	36.691
503.67	36.271
504.02	36.471
504.36	36.850
504.71	36.433
505.06	37.035
505.40	37.423
505.75	37.792
506.09	36.536
506.44	36.341
506.78	36.211
507.13	36.590
507.47	36.532
507.82	36.054
508.16	37.309
508.51	35.795
508.85	36.288
509.19	36.402
509.54	37.587
509.88	37.151
510.23	37.000
510.57	35.699
510.92	36.907
511.26	37.679
511.61	36.334
511.95	36.218
512.30	37.035
512.64	37.911
512.98	36.842
513.33	37.127
513.67	37.365
514.02	37.628
514.36	36.685
514.70	37.471
515.05	37.390
515.39	37.028
515.74	36.945
516.08	36.696
516.42	36.694
516.77	36.262
517.11	37.390
517.46	37.995
517.80	38.499
518.14	36.252
518.49	38.216
518.83	37.232
519.17	37.108
519.52	37.817
519.86	37.766
520.20	36.992
520.55	37.313
520.89	38.204
521.23	38.654
521.58	37.168
521.92	36.455
522.26	37.215
522.61	37.815
522.95	37.565
523.29	37.016
523.64	37.254
523.98	37.166
524.32	37.366
524.66	37.078
525.01	36.173
525.35	37.722
525.69	36.912
526.04	37.199
526.38	37.157
526.72	37.278
527.06	38.362
527.41	37.790
527.75	37.116
528.09	37.849
528.43	38.399
528.78	36.757
529.12	36.287
529.46	36.916
529.80	36.828
530.15	36.680
530.49	38.208
530.83	36.764
531.17	37.397
531.51	37.154
531.86	36.653
532.20	37.560
532.54	37.241
532.88	37.168
533.22	36.498
533.57	36.689
533.91	36.645
534.25	37.174
534.59	36.358
534.93	36.990
535.27	36.752
535.62	37.368
535.96	37.476
536.30	36.702
536.64	37.252
536.98	36.020
537.32	36.228
537.66	37.518
538.01	37.448
538.35	36.740
538.69	35.719
539.03	35.705
539.37	35.211
539.71	35.744
540.05	35.223
540.39	36.820
540.73	37.221
541.07	37.075
541.42	36.566
541.76	35.589
542.10	35.884
542.44	35.759
542.78	36.988
543.12	36.186
543.46	35.660
543.80	36.049
544.14	36.683
544.48	35.036
544.82	35.508
545.16	36.105
545.50	36.799
545.84	36.255
546.18	36.185
546.52	36.697
546.86	34.912
547.20	34.739
547.54	35.597
547.88	35.560
548.22	35.309
548.56	35.690
548.90	34.912
549.24	35.625
549.58	33.879
549.92	37.197
550.26	37.269
550.60	35.285
550.94	36.119
551.28	35.882
551.62	35.714
551.96	36.018
552.30	34.716
552.64	34.887
552.98	36.009
553.32	36.410
553.66	35.803
554.00	36.429
554.34	36.410
554.68	36.242
555.02	35.928
555.36	36.611
555.69	34.887
556.03	34.167
556.37	35.562
556.71	34.968
557.05	35.498
557.39	34.665
557.73	34.947
558.07	35.644
558.41	35.958
558.75	36.798
559.08	35.605
559.42	36.428
559.76	35.245
560.10	35.972
560.44	36.256
560.78	34.676
561.12	35.669
561.45	35.238
561.79	34.388
562.13	35.091
562.47	36.071
562.81	35.281
563.15	35.057
563.48	34.136
563.82	34.405
564.16	34.733
564.50	34.803
564.84	33.649
565.17	35.629
565.51	34.492
565.85	33.178
566.19	34.570
566.52	34.404
566.86	33.881
567.20	34.209
567.54	33.621
567.88	33.763
568.21	33.188
568.55	32.916
568.89	32.054
569.23	31.714
569.56	32.082
569.90	32.017
570.24	30.325
570.57	31.116
570.91	30.526
571.25	30.414
571.59	30.667
571.92	30.595
572.26	30.650
572.60	31.290
572.93	31.459
573.27	30.519
573.61	30.723
573.95	30.301
574.28	30.394
574.62	30.486
574.96	30.512
575.29	30.065
575.63	30.400
575.97	31.114
576.30	30.011
576.64	30.338
576.98	30.499
577.31	29.936
577.65	29.070
577.98	29.981
578.32	29.812
578.66	30.093
578.99	30.047
579.33	30.385
579.67	30.295
580.00	29.938
580.34	30.344
580.67	30.279
581.01	30.247
581.35	29.743
581.68	29.188
582.02	29.928
582.35	29.309
582.69	29.469
583.02	29.846
583.36	29.517
583.70	30.228
584.03	30.035
584.37	30.164
584.70	30.013
585.04	29.997
585.37	29.891
585.71	29.619
586.04	29.850
586.38	29.466
586.72	30.177
587.05	29.977
587.39	30.329
587.72	29.947
588.06	29.932
588.39	29.471
588.73	30.355
589.06	30.294
589.40	30.616
589.73	30.004
590.07	31.061
590.40	30.481
590.73	31.483
591.07	31.174
591.40	31.348
591.74	31.481
592.07	30.899
592.41	31.188
592.74	30.247
593.08	30.427
593.41	29.801
593.75	29.974
594.08	29.326
594.41	30.128
594.75	30.510
595.08	30.993
595.42	29.528
595.75	29.899
596.09	30.600
596.42	31.658
596.75	31.330
597.09	30.619
597.42	31.045
597.75	31.733
598.09	31.922
598.42	31.902
598.76	30.772
599.09	30.772
599.42	30.476
599.76	30.342
600.09	29.782
600.42	29.906
600.76	30.340
601.09	30.621
601.42	31.047
601.76	30.000
602.09	30.847
602.42	31.325
602.76	30.243
603.09	30.760
603.42	29.868
603.76	30.320
604.09	30.474
604.42	29.929
604.76	30.685
605.09	30.766
605.42	31.264
605.75	30.364
606.09	29.760
606.42	30.382
606.75	30.000
607.09	30.319
607.42	30.473
607.75	30.678
608.08	30.748
608.42	30.787
608.75	30.769
609.08	30.034
609.41	31.694
609.75	30.207
610.08	30.966
610.41	31.390
610.74	30.606
611.07	30.962
611.41	31.269
611.74	31.108
612.07	30.172
612.40	30.919
612.73	30.790
613.07	30.543
613.40	31.222
613.73	31.203
614.06	30.017
614.39	30.906
614.72	32.093
615.06	31.111
615.39	31.291
615.72	30.238
616.05	30.518
616.38	31.157
616.71	30.654
617.05	31.757
617.38	31.423
617.71	30.331
618.04	30.043
618.37	31.041
618.70	30.854
619.03	31.409
619.36	31.673
619.69	31.360
620.03	31.378
620.36	31.176
620.69	32.120
621.02	31.231
621.35	32.216
621.68	32.029
622.01	32.686
622.34	32.514
622.67	33.281
623.00	32.143
623.33	32.386
623.66	31.301
623.99	30.908
624.32	32.062
624.65	32.938
624.99	30.713
625.32	31.889
625.65	31.240
625.98	31.991
626.31	32.571
626.64	32.674
626.97	32.526
627.30	33.191
627.63	32.266
627.96	31.342
628.29	34.605
628.62	33.172
628.95	33.868
629.28	34.089
629.61	33.684
629.94	32.108
630.26	33.103
630.59	32.667
630.92	31.827
631.25	31.720
631.58	34.261
631.91	33.616
632.24	32.821
