SpectraSuite Data File
++++++++++++++++++++++++++++++++++++
Date: Wed May 13 21:33:21 PDT 2015
User: schluterlab
Dark Spectrum Present: Yes
Reference Spectrum Present: Yes
Number of Sampled Component Spectra: 1
Spectrometers: USB2E3373
Integration Time (usec): 3000 (USB2E3373)
Spectra Averaged: 3 (USB2E3373)
Boxcar Smoothing: 0 (USB2E3373)
Correct for Electrical Dark: No (USB2E3373)
Strobe/Lamp Enabled: No (USB2E3373)
Correct for Detector Non-linearity: No (USB2E3373)
Correct for Stray Light: No (USB2E3373)
Number of Pixels in Processed Spectrum: 2048
>>>>>Begin Processed Spectral Data<<<<<
178.53	0.000
178.91	600.000
179.29	158.333
179.67	-1000.000
180.04	-266.667
180.42	280.000
180.80	2000.000
181.18	283.333
181.56	-650.000
181.94	-200.000
182.31	-100.000
182.69	169.231
183.07	-300.000
183.45	266.667
183.83	300.000
184.20	128.571
184.58	-200.000
184.96	566.667
185.34	228.571
185.72	0.000
186.09	-1300.000
186.47	-300.000
186.85	220.000
187.23	-200.000
187.61	350.000
187.98	400.000
188.36	25.000
188.74	0.000
189.12	-54.545
189.49	50.000
189.87	158.333
190.25	380.000
190.63	1100.000
191.00	-300.000
191.38	160.000
191.76	250.000
192.14	158.333
192.51	-31.579
192.89	333.333
193.27	200.000
193.65	-200.000
194.02	127.273
194.40	170.000
194.78	-1600.000
195.15	340.000
195.53	-440.000
195.91	-25.000
196.29	-366.667
196.66	0.000
197.04	650.000
197.42	0.000
197.79	-70.000
198.17	-137.500
198.55	-466.667
198.92	300.000
199.30	-133.333
199.68	-130.000
200.05	550.000
200.43	333.333
200.81	-1900.000
201.18	60.000
201.56	-33.333
201.94	575.000
202.31	-8.696
202.69	-100.000
203.07	-266.667
203.44	-280.000
203.82	-633.333
204.19	-120.000
204.57	0.000
204.95	-233.333
205.32	0.000
205.70	-750.000
206.08	-100.000
206.45	-183.333
206.83	500.000
207.20	-700.000
207.58	-60.000
207.96	-800.000
208.33	-185.714
208.71	-2400.000
209.08	262.500
209.46	450.000
209.84	0.000
210.21	280.000
210.59	2900.000
210.96	380.000
211.34	1500.000
211.71	-1100.000
212.09	-400.000
212.46	-120.000
212.84	-166.667
213.22	-500.000
213.59	-1600.000
213.97	-850.000
214.34	-1050.000
214.72	-92.308
215.09	237.500
215.47	177.778
215.84	550.000
216.22	-75.000
216.59	-650.000
216.97	766.667
217.34	133.333
217.72	0.000
218.09	166.667
218.47	-600.000
218.84	-114.286
219.22	-212.500
219.59	-333.333
219.97	-600.000
220.34	-162.500
220.72	-360.000
221.09	0.000
221.47	-183.333
221.84	-300.000
222.22	0.000
222.59	1700.000
222.97	-200.000
223.34	-58.333
223.72	-1500.000
224.09	-550.000
224.46	-45.455
224.84	-100.000
225.21	-157.143
225.59	-250.000
225.96	-166.667
226.34	-100.000
226.71	-100.000
227.08	800.000
227.46	-162.500
227.83	-800.000
228.21	-25.000
228.58	-250.000
228.95	-35.294
229.33	-43.750
229.70	-62.500
230.08	-23.077
230.45	-75.000
230.82	-108.333
231.20	271.429
231.57	-425.000
231.95	1300.000
232.32	-125.000
232.69	0.000
233.07	-2100.000
233.44	-39.130
233.81	-650.000
234.19	-20.833
234.56	-86.667
234.93	-26.667
235.31	-21.053
235.68	-153.846
236.05	-130.769
236.43	-50.000
236.80	-36.364
237.17	-60.000
237.55	-135.294
237.92	-24.138
238.29	-44.444
238.67	0.000
239.04	-3.226
239.41	-14.894
239.79	-4.255
240.16	-18.605
240.53	-7.143
240.91	-5.357
241.28	-3.571
241.65	-12.903
242.02	-2.632
242.40	-4.348
242.77	-11.594
243.14	3.846
243.51	5.319
243.89	5.769
244.26	15.094
244.63	6.731
245.00	-4.167
245.38	-2.521
245.75	8.197
246.12	12.030
246.49	5.691
246.87	-1.681
247.24	8.784
247.61	11.258
247.98	5.769
248.36	5.325
248.73	2.809
249.10	9.091
249.47	5.376
249.84	11.053
250.22	8.955
250.59	12.150
250.96	11.818
251.33	2.392
251.70	13.808
252.08	11.297
252.45	7.407
252.82	10.646
253.19	10.506
253.56	8.273
253.94	10.320
254.31	10.915
254.68	6.711
255.05	9.241
255.42	10.490
255.79	7.975
256.16	11.987
256.54	13.333
256.91	10.127
257.28	14.151
257.65	10.191
258.02	10.557
258.39	13.158
258.76	11.628
259.14	12.500
259.51	12.079
259.88	12.195
260.25	12.222
260.62	10.955
260.99	12.467
261.36	11.658
261.73	8.642
262.10	9.924
262.47	10.864
262.85	8.955
263.22	12.821
263.59	10.649
263.96	12.409
264.33	9.135
264.70	12.093
265.07	11.574
265.44	12.644
265.81	11.442
266.18	11.617
266.55	8.734
266.92	10.805
267.29	9.877
267.66	11.677
268.03	12.963
268.40	10.593
268.77	11.364
269.14	12.857
269.51	13.758
269.88	10.183
270.25	11.017
270.62	9.426
270.99	12.598
271.36	12.302
271.73	12.048
272.10	12.571
272.47	13.244
272.84	11.220
273.21	12.720
273.58	11.885
273.95	11.509
274.32	14.366
274.69	12.933
275.06	13.604
275.43	9.981
275.80	11.879
276.17	11.786
276.54	11.723
276.91	12.544
277.28	9.025
277.65	13.811
278.02	11.429
278.39	9.947
278.76	11.037
279.13	11.492
279.50	12.414
279.87	12.681
280.23	12.252
280.60	13.149
280.97	11.688
281.34	12.934
281.71	11.220
282.08	11.453
282.45	12.623
282.82	12.300
283.19	12.652
283.56	12.031
283.92	12.080
284.29	9.828
284.66	10.544
285.03	10.749
285.40	12.085
285.77	13.814
286.14	12.310
286.51	13.943
286.87	9.538
287.24	11.947
287.61	12.199
287.98	12.353
288.35	9.687
288.72	12.195
289.08	12.963
289.45	12.041
289.82	12.708
290.19	12.202
290.56	9.517
290.93	10.635
291.29	10.123
291.66	10.519
292.03	11.172
292.40	10.094
292.77	11.780
293.13	10.600
293.50	11.373
293.87	9.733
294.24	11.243
294.60	12.094
294.97	10.979
295.34	8.707
295.71	9.724
296.08	9.817
296.44	8.163
296.81	10.353
297.18	10.875
297.55	10.024
297.91	10.683
298.28	9.927
298.65	10.345
299.02	10.745
299.38	9.693
299.75	9.976
300.12	8.953
300.48	9.123
300.85	9.122
301.22	8.479
301.59	7.512
301.95	8.130
302.32	8.985
302.69	9.605
303.05	9.745
303.42	8.977
303.79	9.253
304.15	8.105
304.52	10.108
304.89	8.416
305.25	9.001
305.62	9.761
305.99	9.032
306.35	11.076
306.72	9.257
307.09	9.593
307.45	9.372
307.82	9.684
308.19	8.882
308.55	7.984
308.92	10.904
309.29	9.109
309.65	9.590
310.02	8.648
310.38	9.451
310.75	8.580
311.12	9.038
311.48	9.001
311.85	9.350
312.22	9.381
312.58	8.116
312.95	8.358
313.31	9.826
313.68	8.397
314.05	10.019
314.41	8.934
314.78	10.531
315.14	8.889
315.51	9.610
315.87	9.175
316.24	10.744
316.61	9.680
316.97	8.796
317.34	8.913
317.70	9.456
318.07	10.470
318.43	8.853
318.80	9.162
319.16	8.311
319.53	9.319
319.89	8.401
320.26	9.612
320.62	9.361
320.99	9.109
321.35	8.326
321.72	7.892
322.08	8.948
322.45	11.193
322.81	8.965
323.18	9.302
323.54	9.657
323.91	9.575
324.27	9.271
324.64	9.059
325.00	9.274
325.37	10.239
325.73	8.923
326.10	9.588
326.46	9.783
326.83	10.599
327.19	9.268
327.56	10.637
327.92	9.010
328.29	10.351
328.65	9.816
329.01	9.235
329.38	10.087
329.74	10.472
330.11	8.747
330.47	9.115
330.84	9.025
331.20	10.077
331.56	8.605
331.93	9.733
332.29	10.339
332.66	9.576
333.02	10.165
333.38	9.211
333.75	9.727
334.11	8.854
334.48	9.677
334.84	9.011
335.20	9.777
335.57	9.312
335.93	8.505
336.29	9.107
336.66	9.573
337.02	9.130
337.38	10.096
337.75	9.991
338.11	9.735
338.47	8.048
338.84	9.794
339.20	9.612
339.56	9.130
339.93	8.557
340.29	9.650
340.65	10.351
341.02	9.651
341.38	9.459
341.74	8.739
342.11	9.331
342.47	8.285
342.83	8.578
343.20	9.983
343.56	9.812
343.92	9.586
344.28	10.633
344.65	9.306
345.01	8.636
345.37	10.362
345.73	9.722
346.10	9.872
346.46	8.699
346.82	8.748
347.19	9.415
347.55	9.208
347.91	8.262
348.27	8.596
348.63	8.814
349.00	9.198
349.36	8.948
349.72	10.363
350.08	9.204
350.45	9.084
350.81	9.468
351.17	10.778
351.53	8.877
351.89	8.975
352.26	7.490
352.62	9.457
352.98	8.227
353.34	8.776
353.70	9.112
354.07	8.471
354.43	8.320
354.79	8.734
355.15	9.084
355.51	8.884
355.87	8.679
356.24	8.507
356.60	8.131
356.96	8.826
357.32	9.443
357.68	9.473
358.04	10.240
358.40	9.147
358.77	8.869
359.13	8.794
359.49	8.706
359.85	9.401
360.21	8.558
360.57	9.354
360.93	8.801
361.29	9.400
361.66	8.656
362.02	9.044
362.38	9.306
362.74	8.774
363.10	8.460
363.46	8.357
363.82	8.721
364.18	8.847
364.54	8.607
364.90	8.014
365.26	9.271
365.62	8.523
365.98	8.826
366.35	9.078
366.71	8.131
367.07	8.646
367.43	8.780
367.79	8.826
368.15	8.790
368.51	7.947
368.87	8.583
369.23	8.114
369.59	8.386
369.95	7.692
370.31	8.717
370.67	8.110
371.03	9.577
371.39	8.588
371.75	8.571
372.11	8.476
372.47	9.012
372.83	8.738
373.19	7.914
373.55	9.393
373.91	8.699
374.27	7.815
374.63	8.393
374.99	9.262
375.35	8.288
375.71	8.764
376.07	9.390
376.42	8.356
376.78	9.313
377.14	7.729
377.50	8.735
377.86	8.167
378.22	8.154
378.58	9.016
378.94	8.562
379.30	8.807
379.66	9.309
380.02	8.027
380.38	8.494
380.74	9.325
381.09	8.504
381.45	8.525
381.81	8.626
382.17	8.318
382.53	9.046
382.89	8.263
383.25	8.148
383.61	9.262
383.97	8.562
384.32	7.435
384.68	8.575
385.04	7.636
385.40	8.842
385.76	9.307
386.12	8.393
386.48	8.025
386.83	8.323
387.19	8.760
387.55	8.645
387.91	8.364
388.27	8.693
388.62	7.928
388.98	8.824
389.34	8.208
389.70	8.486
390.06	9.188
390.42	8.634
390.77	8.969
391.13	8.902
391.49	9.108
391.85	8.371
392.20	8.020
392.56	8.444
392.92	7.958
393.28	8.948
393.64	8.135
393.99	7.956
394.35	8.395
394.71	8.654
395.07	7.673
395.42	8.897
395.78	8.301
396.14	9.258
396.50	7.800
396.85	9.624
397.21	8.302
397.57	8.634
397.92	7.186
398.28	8.742
398.64	8.925
399.00	9.542
399.35	9.024
399.71	8.503
400.07	8.675
400.42	7.461
400.78	8.520
401.14	7.848
401.49	8.688
401.85	8.231
402.21	8.483
402.57	8.645
402.92	9.825
403.28	8.630
403.63	8.679
403.99	8.893
404.35	7.668
404.70	8.218
405.06	9.043
405.42	8.543
405.77	8.468
406.13	8.286
406.49	8.388
406.84	8.852
407.20	7.934
407.55	9.026
407.91	8.339
408.27	8.359
408.62	9.515
408.98	8.385
409.34	7.550
409.69	9.032
410.05	8.644
410.40	8.704
410.76	9.146
411.11	8.209
411.47	9.290
411.83	8.734
412.18	8.312
412.54	8.709
412.89	7.837
413.25	8.555
413.60	8.088
413.96	8.677
414.31	9.186
414.67	8.381
415.03	8.931
415.38	8.256
415.74	8.382
416.09	9.055
416.45	8.271
416.80	8.456
417.16	9.514
417.51	7.904
417.87	8.267
418.22	8.145
418.58	8.607
418.93	8.663
419.29	9.043
419.64	8.842
420.00	8.190
420.35	8.488
420.71	8.897
421.06	8.672
421.42	9.124
421.77	9.249
422.12	9.169
422.48	8.615
422.83	9.096
423.19	8.971
423.54	9.069
423.90	9.204
424.25	8.434
424.61	8.811
424.96	7.924
425.31	8.861
425.67	8.995
426.02	8.893
426.38	8.271
426.73	8.491
427.09	8.318
427.44	8.925
427.79	8.551
428.15	8.869
428.50	8.580
428.85	9.471
429.21	8.948
429.56	9.245
429.92	8.641
430.27	8.793
430.62	9.444
430.98	9.201
431.33	9.081
431.68	9.531
432.04	8.901
432.39	9.180
432.74	8.706
433.10	9.297
433.45	9.053
433.80	7.874
434.16	8.738
434.51	9.293
434.86	8.657
435.22	8.715
435.57	9.337
435.92	9.047
436.28	8.949
436.63	8.256
436.98	9.048
437.34	8.425
437.69	9.091
438.04	8.998
438.39	9.091
438.75	8.641
439.10	9.601
439.45	8.414
439.81	8.805
440.16	10.435
440.51	8.561
440.86	9.899
441.22	8.376
441.57	8.406
441.92	9.228
442.27	8.658
442.63	8.881
442.98	8.854
443.33	9.086
443.68	8.118
444.03	9.240
444.39	9.073
444.74	8.227
445.09	8.921
445.44	9.183
445.79	8.570
446.15	8.819
446.50	8.425
446.85	9.514
447.20	8.939
447.55	9.345
447.91	8.596
448.26	8.176
448.61	9.091
448.96	8.827
449.31	8.909
449.66	8.791
450.02	9.494
450.37	9.048
450.72	9.242
451.07	9.028
451.42	8.359
451.77	9.251
452.12	8.853
452.47	9.167
452.83	8.314
453.18	8.211
453.53	9.332
453.88	9.036
454.23	8.962
454.58	8.640
454.93	8.852
455.28	9.056
455.63	8.297
455.98	8.278
456.34	8.773
456.69	9.137
457.04	9.412
457.39	8.779
457.74	8.977
458.09	8.768
458.44	7.932
458.79	8.731
459.14	8.596
459.49	9.268
459.84	8.230
460.19	8.523
460.54	9.428
460.89	9.065
461.24	9.494
461.59	8.454
461.94	8.850
462.29	8.578
462.64	9.235
462.99	8.987
463.34	9.323
463.69	9.085
464.04	8.283
464.39	9.335
464.74	8.415
465.09	9.175
465.44	9.091
465.79	9.488
466.14	9.749
466.49	8.798
466.84	9.085
467.19	8.408
467.54	9.462
467.89	9.491
468.24	9.711
468.59	9.178
468.94	10.089
469.29	9.914
469.64	9.484
469.99	9.862
470.34	9.171
470.68	8.178
471.03	9.097
471.38	9.736
471.73	10.219
472.08	9.210
472.43	9.697
472.78	10.210
473.13	8.377
473.48	9.067
473.83	9.479
474.17	9.570
474.52	8.932
474.87	9.409
475.22	9.118
475.57	8.924
475.92	9.433
476.27	8.450
476.61	9.400
476.96	9.252
477.31	9.817
477.66	9.266
478.01	8.956
478.36	9.046
478.70	9.452
479.05	9.711
479.40	9.828
479.75	8.555
480.10	9.485
480.45	8.975
480.79	9.607
481.14	9.676
481.49	8.929
481.84	8.812
482.19	8.291
482.53	8.810
482.88	9.492
483.23	8.662
483.58	9.546
483.92	8.804
484.27	8.829
484.62	9.454
484.97	9.664
485.31	9.561
485.66	8.872
486.01	9.060
486.36	9.033
486.70	9.186
487.05	9.554
487.40	9.327
487.75	9.704
488.09	9.290
488.44	9.569
488.79	9.614
489.13	9.821
489.48	9.448
489.83	9.469
490.17	9.033
490.52	9.397
490.87	9.643
491.22	9.750
491.56	9.583
491.91	9.458
492.26	9.188
492.60	9.428
492.95	10.253
493.30	9.448
493.64	8.345
493.99	9.275
494.34	9.634
494.68	9.499
495.03	8.547
495.37	10.122
495.72	10.226
496.07	9.742
496.41	8.891
496.76	9.598
497.11	9.202
497.45	9.582
497.80	9.743
498.14	10.378
498.49	9.329
498.84	9.666
499.18	9.706
499.53	9.749
499.87	9.219
500.22	9.955
500.56	9.278
500.91	9.457
501.26	9.409
501.60	9.020
501.95	9.823
502.29	10.146
502.64	9.740
502.98	9.586
503.33	9.635
503.67	9.834
504.02	9.216
504.36	10.154
504.71	9.451
505.06	9.679
505.40	10.000
505.75	10.173
506.09	10.015
506.44	9.526
506.78	9.192
507.13	9.511
507.47	9.756
507.82	9.576
508.16	10.818
508.51	9.452
508.85	9.694
509.19	9.312
509.54	10.295
509.88	9.355
510.23	10.263
510.57	9.799
510.92	9.806
511.26	10.011
511.61	10.154
511.95	9.316
512.30	9.717
512.64	10.613
512.98	9.474
513.33	10.535
513.67	9.767
514.02	10.091
514.36	10.112
514.70	9.527
515.05	9.713
515.39	10.024
515.74	9.651
516.08	9.381
516.42	9.850
516.77	9.900
517.11	9.877
517.46	10.144
517.80	11.320
518.14	10.043
518.49	9.644
518.83	9.964
519.17	10.361
519.52	9.831
519.86	10.625
520.20	9.218
520.55	10.510
520.89	9.677
521.23	10.385
521.58	10.430
521.92	10.245
522.26	9.759
522.61	10.407
522.95	10.622
523.29	10.286
523.64	9.854
523.98	10.102
524.32	9.578
524.66	10.065
525.01	10.026
525.35	10.665
525.69	10.603
526.04	9.511
526.38	10.389
526.72	10.454
527.06	9.800
527.41	9.993
527.75	10.280
528.09	10.415
528.43	10.312
528.78	10.594
529.12	10.349
529.46	11.196
529.80	11.327
530.15	10.746
530.49	10.580
530.83	10.088
531.17	9.658
531.51	10.384
531.86	10.772
532.20	10.269
532.54	10.069
532.88	10.143
533.22	10.774
533.57	9.934
533.91	10.839
534.25	10.352
534.59	9.395
534.93	10.395
535.27	11.210
535.62	10.000
535.96	10.735
536.30	10.106
536.64	9.706
536.98	9.250
537.32	10.463
537.66	11.072
538.01	10.472
538.35	10.152
538.69	10.502
539.03	9.732
539.37	9.859
539.71	9.550
540.05	10.459
540.39	9.979
540.73	10.056
541.07	11.361
541.42	10.707
541.76	11.231
542.10	9.140
542.44	10.118
542.78	10.062
543.12	10.714
543.46	9.606
543.80	9.640
544.14	9.773
544.48	9.887
544.82	9.280
545.16	9.060
545.50	10.263
545.84	9.607
546.18	9.888
546.52	10.233
546.86	9.611
547.20	9.578
547.54	10.579
547.88	10.256
548.22	10.814
548.56	9.940
548.90	10.217
549.24	11.458
549.58	10.463
549.92	10.345
550.26	11.882
550.60	10.586
550.94	9.328
551.28	9.538
551.62	10.376
551.96	10.322
552.30	9.825
552.64	9.534
552.98	10.014
553.32	9.805
553.66	10.858
554.00	10.151
554.34	10.256
554.68	9.993
555.02	10.479
555.36	10.590
555.69	10.197
556.03	10.007
556.37	10.953
556.71	11.282
557.05	9.963
557.39	10.023
557.73	10.666
558.07	10.098
558.41	10.522
558.75	10.547
559.08	8.340
559.42	10.307
559.76	10.398
560.10	10.069
560.44	10.464
560.78	9.928
561.12	9.460
561.45	9.660
561.79	10.248
562.13	10.900
562.47	9.857
562.81	9.740
563.15	9.915
563.48	9.291
563.82	9.918
564.16	9.749
564.50	10.380
564.84	9.865
565.17	10.199
565.51	9.693
565.85	10.127
566.19	10.066
566.52	10.354
566.86	9.671
567.20	9.469
567.54	10.248
567.88	9.630
568.21	10.538
568.55	9.807
568.89	10.020
569.23	10.449
569.56	10.096
569.90	10.238
570.24	9.350
570.57	9.826
570.91	9.687
571.25	9.650
571.59	9.591
571.92	9.534
572.26	10.217
572.60	9.855
572.93	9.622
573.27	9.991
573.61	10.107
573.95	9.757
574.28	9.977
574.62	9.603
574.96	9.843
575.29	9.529
575.63	9.747
575.97	9.973
576.30	9.912
576.64	9.667
576.98	9.712
577.31	9.814
577.65	9.233
577.98	9.849
578.32	9.501
578.66	9.830
578.99	9.460
579.33	9.945
579.67	9.852
580.00	9.689
580.34	9.598
580.67	9.971
581.01	9.865
581.35	9.518
581.68	9.824
582.02	9.730
582.35	9.537
582.69	9.662
583.02	9.892
583.36	9.988
583.70	9.751
584.03	9.841
584.37	9.836
584.70	10.093
585.04	9.828
585.37	9.672
585.71	10.130
586.04	9.850
586.38	9.524
586.72	9.722
587.05	10.152
587.39	10.128
587.72	9.309
588.06	9.767
588.39	9.964
588.73	9.657
589.06	9.311
589.40	9.838
589.73	9.666
590.07	9.989
590.40	9.618
590.73	10.008
591.07	9.862
591.40	9.783
591.74	9.471
592.07	9.813
592.41	10.511
592.74	9.838
593.08	9.162
593.41	9.859
593.75	9.625
594.08	9.775
594.41	9.616
594.75	10.382
595.08	9.522
595.42	9.198
595.75	10.484
596.09	9.854
596.42	10.172
596.75	10.136
597.09	10.510
597.42	10.139
597.75	10.356
598.09	10.018
598.42	9.664
598.76	10.202
599.09	9.764
599.42	9.856
599.76	9.425
600.09	9.714
600.42	9.718
600.76	9.387
601.09	9.831
601.42	10.388
601.76	9.691
602.09	10.782
602.42	10.153
602.76	9.354
603.09	10.349
603.42	9.996
603.76	9.899
604.09	9.684
604.42	9.627
604.76	9.385
605.09	10.331
605.42	10.751
605.75	9.722
606.09	9.478
606.42	9.975
606.75	9.524
607.09	9.087
607.42	9.676
607.75	8.928
608.08	9.919
608.42	9.466
608.75	9.890
609.08	10.093
609.41	9.786
609.75	9.481
610.08	9.813
610.41	10.690
610.74	10.058
611.07	10.170
611.41	9.826
611.74	10.197
612.07	10.214
612.40	10.108
612.73	10.154
613.07	9.534
613.40	10.132
613.73	9.751
614.06	10.392
614.39	9.616
614.72	10.938
615.06	9.944
615.39	10.486
615.72	9.233
616.05	8.953
616.38	9.966
616.71	9.118
617.05	9.889
617.38	9.982
617.71	9.743
618.04	9.445
618.37	9.464
618.70	9.961
619.03	9.003
619.36	9.466
619.69	10.526
620.03	10.247
620.36	9.603
620.69	8.423
621.02	8.692
621.35	9.894
621.68	9.372
622.01	9.951
622.34	9.120
622.67	9.397
623.00	9.878
623.33	8.975
623.66	8.996
623.99	9.152
624.32	10.125
624.65	10.015
624.99	10.287
625.32	9.783
625.65	9.070
625.98	9.874
626.31	9.469
626.64	9.372
626.97	9.948
627.30	10.094
627.63	9.602
627.96	8.745
628.29	11.070
628.62	10.251
628.95	9.820
629.28	9.557
629.61	10.048
629.94	8.994
630.26	9.261
630.59	9.890
630.92	10.341
631.25	9.475
631.58	10.600
631.91	9.650
632.24	8.452
632.57	8.444
632.90	10.618
633.23	8.753
633.56	11.871
633.89	10.048
634.22	11.190
634.55	10.840
634.88	9.926
635.20	11.750
635.53	9.044
635.86	9.359
636.19	9.801
636.52	8.537
636.85	9.047
637.18	8.648
637.51	7.740
637.83	10.313
638.16	7.067
638.49	8.545
638.82	9.281
639.15	9.043
639.48	9.759
639.81	9.583
640.13	9.577
640.46	11.441
640.79	8.921
641.12	8.580
641.45	10.044
641.77	9.573
642.10	9.834
642.43	10.220
642.76	8.991
643.09	9.585
643.41	11.164
643.74	9.047
644.07	8.414
644.40	10.116
644.73	9.661
645.05	8.726
645.38	8.638
645.71	10.204
646.04	7.744
646.36	10.417
646.69	10.140
647.02	9.290
647.35	8.775
647.67	7.948
648.00	7.609
648.33	8.983
648.66	6.845
648.98	9.006
649.31	8.896
649.64	8.607
649.96	9.637
