SpectraSuite Data File
++++++++++++++++++++++++++++++++++++
Date: Wed May 13 21:07:02 PDT 2015
User: schluterlab
Dark Spectrum Present: Yes
Reference Spectrum Present: Yes
Number of Sampled Component Spectra: 1
Spectrometers: USB2E3373
Integration Time (usec): 3000 (USB2E3373)
Spectra Averaged: 3 (USB2E3373)
Boxcar Smoothing: 0 (USB2E3373)
Correct for Electrical Dark: No (USB2E3373)
Strobe/Lamp Enabled: No (USB2E3373)
Correct for Detector Non-linearity: No (USB2E3373)
Correct for Stray Light: No (USB2E3373)
Number of Pixels in Processed Spectrum: 2048
>>>>>Begin Processed Spectral Data<<<<<
178.53	0.000
178.91	50.000
179.29	133.333
179.67	-800.000
180.04	-300.000
180.42	120.000
180.80	2000.000
181.18	183.333
181.56	-250.000
181.94	-225.000
182.31	72.727
182.69	69.231
183.07	0.000
183.45	216.667
183.83	144.444
184.20	285.714
184.58	-266.667
184.96	400.000
185.34	128.571
185.72	0.000
186.09	-500.000
186.47	-100.000
186.85	140.000
187.23	100.000
187.61	400.000
187.98	-0.000
188.36	37.500
188.74	0.000
189.12	9.091
189.49	-70.000
189.87	83.333
190.25	280.000
190.63	500.000
191.00	-140.000
191.38	-60.000
191.76	350.000
192.14	166.667
192.51	-31.579
192.89	433.333
193.27	-75.000
193.65	-280.000
194.02	136.364
194.40	180.000
194.78	-500.000
195.15	280.000
195.53	-60.000
195.91	-37.500
196.29	-266.667
196.66	0.000
197.04	250.000
197.42	-60.000
197.79	-40.000
198.17	-137.500
198.55	-233.333
198.92	325.000
199.30	-500.000
199.68	0.000
200.05	50.000
200.43	83.333
200.81	-1200.000
201.18	60.000
201.56	-50.000
201.94	475.000
202.31	-8.696
202.69	14.286
203.07	-400.000
203.44	-180.000
203.82	-266.667
204.19	60.000
204.57	0.000
204.95	-133.333
205.32	0.000
205.70	50.000
206.08	-225.000
206.45	-250.000
206.83	350.000
207.20	-300.000
207.58	-70.000
207.96	-2200.000
208.33	-257.143
208.71	-700.000
209.08	212.500
209.46	425.000
209.84	0.000
210.21	180.000
210.59	2000.000
210.96	280.000
211.34	500.000
211.71	-700.000
212.09	0.000
212.46	-140.000
212.84	-266.667
213.22	-225.000
213.59	-500.000
213.97	-50.000
214.34	-100.000
214.72	-23.077
215.09	125.000
215.47	77.778
215.84	500.000
216.22	-225.000
216.59	-400.000
216.97	266.667
217.34	144.444
217.72	0.000
218.09	166.667
218.47	-500.000
218.84	-85.714
219.22	-25.000
219.59	-33.333
219.97	-225.000
220.34	12.500
220.72	60.000
221.09	0.000
221.47	-133.333
221.84	0.000
222.22	0.000
222.59	1900.000
222.97	-166.667
223.34	-50.000
223.72	-900.000
224.09	-650.000
224.46	-9.091
224.84	-25.000
225.21	-142.857
225.59	-175.000
225.96	-183.333
226.34	60.000
226.71	-142.857
227.08	450.000
227.46	-37.500
227.83	0.000
228.21	-6.250
228.58	-300.000
228.95	-58.824
229.33	37.500
229.70	12.500
230.08	23.077
230.45	25.000
230.82	-41.667
231.20	128.571
231.57	-175.000
231.95	600.000
232.32	0.000
232.69	41.176
233.07	-1100.000
233.44	-4.348
233.81	-950.000
234.19	12.500
234.56	-20.000
234.93	-33.333
235.31	-36.842
235.68	-92.308
236.05	-30.769
236.43	-33.333
236.80	-15.152
237.17	-46.667
237.55	-23.529
237.92	-27.586
238.29	-48.148
238.67	-8.333
239.04	-25.806
239.41	-17.021
239.79	10.638
240.16	9.302
240.53	-5.357
240.91	-1.786
241.28	10.714
241.65	-4.839
242.02	-9.211
242.40	11.594
242.77	-4.348
243.14	5.128
243.51	-3.191
243.89	11.538
244.26	17.925
244.63	-2.885
245.00	5.208
245.38	-1.681
245.75	10.656
246.12	11.278
246.49	-4.065
246.87	-7.563
247.24	5.405
247.61	1.987
247.98	7.692
248.36	3.550
248.73	2.247
249.10	8.586
249.47	2.688
249.84	12.105
250.22	5.473
250.59	5.140
250.96	6.364
251.33	3.828
251.70	9.623
252.08	4.603
252.45	6.996
252.82	10.266
253.19	5.837
253.56	9.353
253.94	8.185
254.31	7.746
254.68	10.067
255.05	9.571
255.42	5.245
255.79	9.202
256.16	8.833
256.54	5.714
256.91	3.481
257.28	10.063
257.65	3.822
258.02	9.971
258.39	8.187
258.76	4.070
259.14	6.818
259.51	7.022
259.88	8.401
260.25	8.056
260.62	5.056
260.99	8.488
261.36	7.513
261.73	5.926
262.10	7.888
262.47	7.160
262.85	7.214
263.22	7.179
263.59	5.974
263.96	7.543
264.33	5.048
264.70	8.837
265.07	7.639
265.44	9.195
265.81	7.780
266.18	8.200
266.55	6.332
266.92	7.415
267.29	7.407
267.66	7.856
268.03	9.877
268.40	7.415
268.77	6.818
269.14	6.531
269.51	12.936
269.88	7.128
270.25	8.263
270.62	7.787
270.99	8.268
271.36	7.540
271.73	7.631
272.10	8.190
272.47	9.213
272.84	7.677
273.21	7.241
273.58	4.508
273.95	7.736
274.32	8.396
274.69	6.740
275.06	10.247
275.43	10.358
275.80	6.738
276.17	7.919
276.54	6.039
276.91	7.840
277.28	5.596
277.65	9.441
278.02	8.750
278.39	5.151
278.76	8.863
279.13	7.376
279.50	7.069
279.87	5.616
280.23	8.288
280.60	6.401
280.97	8.117
281.34	9.464
281.71	6.016
282.08	6.838
282.45	7.869
282.82	7.508
283.19	9.299
283.56	7.344
283.92	7.187
284.29	7.956
284.66	7.743
285.03	6.840
285.40	6.647
285.77	8.709
286.14	7.295
286.51	10.045
286.87	7.077
287.24	7.227
287.61	7.681
287.98	7.059
288.35	5.663
288.72	8.034
289.08	7.977
289.45	8.076
289.82	7.867
290.19	7.854
290.56	6.960
290.93	7.320
291.29	6.566
291.66	7.923
292.03	6.540
292.40	9.287
292.77	6.961
293.13	7.950
293.50	6.797
293.87	7.200
294.24	6.878
294.60	6.372
294.97	7.011
295.34	6.332
295.71	5.650
296.08	5.628
296.44	5.612
296.81	6.699
297.18	7.250
297.55	6.840
297.91	6.460
298.28	6.174
298.65	5.911
299.02	8.059
299.38	6.871
299.75	7.452
300.12	5.930
300.48	6.316
300.85	4.965
301.22	5.691
301.59	5.516
301.95	6.156
302.32	6.768
302.69	5.311
303.05	5.759
303.42	7.386
303.79	6.625
304.15	6.681
304.52	6.882
304.89	6.091
305.25	4.830
305.62	7.375
305.99	5.985
306.35	6.165
306.72	6.816
307.09	6.882
307.45	6.816
307.82	6.000
308.19	5.329
308.55	5.425
308.92	7.662
309.29	6.106
309.65	5.994
310.02	5.666
310.38	5.691
310.75	6.016
311.12	6.997
311.48	6.726
311.85	6.299
312.22	6.963
312.58	5.797
312.95	6.468
313.31	7.622
313.68	7.061
314.05	6.805
314.41	7.012
314.78	8.065
315.14	8.241
315.51	7.231
315.87	7.785
316.24	8.724
316.61	7.945
316.97	7.685
317.34	7.843
317.70	9.010
318.07	8.696
318.43	9.124
318.80	8.639
319.16	7.692
319.53	8.871
319.89	8.582
320.26	9.519
320.62	9.268
320.99	9.205
321.35	10.103
321.72	10.395
322.08	11.070
322.45	10.731
322.81	10.351
323.18	10.644
323.54	12.635
323.91	12.195
324.27	11.791
324.64	11.324
325.00	11.111
325.37	13.225
325.73	12.121
326.10	12.279
326.46	13.462
326.83	13.754
327.19	14.228
327.56	14.424
327.92	14.883
328.29	15.275
328.65	15.337
329.01	13.369
329.38	15.043
329.74	15.021
330.11	14.337
330.47	13.715
330.84	14.801
331.20	15.201
331.56	14.040
331.93	15.762
332.29	14.770
332.66	14.153
333.02	16.507
333.38	15.439
333.75	15.444
334.11	15.625
334.48	14.996
334.84	14.753
335.20	15.780
335.57	15.666
335.93	14.433
336.29	15.849
336.66	15.214
337.02	16.609
337.38	15.057
337.75	15.676
338.11	15.286
338.47	13.527
338.84	15.034
339.20	15.168
339.56	15.358
339.93	15.557
340.29	16.652
340.65	15.569
341.02	16.140
341.38	15.878
341.74	14.118
342.11	15.029
342.47	16.318
342.83	15.278
343.20	16.413
343.56	15.290
343.92	15.435
344.28	15.584
344.65	14.939
345.01	15.093
345.37	17.105
345.73	16.095
346.10	16.934
346.46	15.935
346.82	15.650
347.19	16.218
347.55	17.124
347.91	16.056
348.27	16.167
348.63	16.346
349.00	17.296
349.36	17.033
349.72	17.247
350.08	15.991
350.45	15.897
350.81	16.119
351.17	16.474
351.53	16.496
351.89	15.965
352.26	16.448
352.62	16.899
352.98	15.655
353.34	15.620
353.70	16.199
354.07	17.569
354.43	17.107
354.79	15.946
355.15	16.615
355.51	17.084
355.87	16.497
356.24	16.292
356.60	15.872
356.96	16.193
357.32	15.867
357.68	17.112
358.04	16.835
358.40	17.132
358.77	16.284
359.13	17.354
359.49	16.881
359.85	17.665
360.21	16.962
360.57	16.882
360.93	16.844
361.29	16.580
361.66	17.160
362.02	16.383
362.38	16.174
362.74	16.534
363.10	16.920
363.46	16.787
363.82	16.334
364.18	15.954
364.54	17.360
364.90	16.307
365.26	16.914
365.62	16.335
365.98	16.584
366.35	16.738
366.71	16.049
367.07	16.230
367.43	16.655
367.79	17.373
368.15	16.596
368.51	16.948
368.87	17.097
369.23	17.153
369.59	17.407
369.95	16.546
370.31	17.085
370.67	16.510
371.03	17.446
371.39	16.820
371.75	17.714
372.11	17.806
372.47	17.087
372.83	17.476
373.19	16.259
373.55	16.474
373.91	16.973
374.27	16.183
374.63	16.927
374.99	16.922
375.35	17.329
375.71	16.780
376.07	17.615
376.42	16.644
376.78	17.173
377.14	16.746
377.50	16.297
377.86	16.667
378.22	16.372
378.58	16.520
378.94	17.812
379.30	17.114
379.66	16.215
380.02	16.483
380.38	16.928
380.74	17.394
381.09	17.008
381.45	17.291
381.81	17.129
382.17	17.580
382.53	17.662
382.89	18.154
383.25	17.716
383.61	18.160
383.97	16.312
384.32	16.824
384.68	17.458
385.04	16.799
385.40	16.625
385.76	18.248
386.12	17.689
386.48	15.987
386.83	16.020
387.19	17.088
387.55	16.861
387.91	18.020
388.27	16.523
388.62	17.603
388.98	17.647
389.34	17.231
389.70	17.094
390.06	17.375
390.42	18.492
390.77	17.745
391.13	17.551
391.49	17.521
391.85	16.997
392.20	17.105
392.56	18.159
392.92	17.028
393.28	17.664
393.64	16.575
393.99	17.197
394.35	16.667
394.71	17.436
395.07	17.044
395.42	17.489
395.78	16.216
396.14	17.628
396.50	16.931
396.85	17.591
397.21	16.792
397.57	16.708
397.92	16.647
398.28	17.202
398.64	17.061
399.00	17.969
399.35	17.140
399.71	17.472
400.07	17.590
400.42	16.552
400.78	17.281
401.14	16.861
401.49	17.316
401.85	16.646
402.21	16.285
402.57	18.332
402.92	17.897
403.28	17.073
403.63	17.793
403.99	16.507
404.35	16.833
404.70	16.012
405.06	17.264
405.42	16.583
405.77	17.051
406.13	16.286
406.49	17.376
406.84	17.766
407.20	16.637
407.55	17.532
407.91	16.744
408.27	15.970
408.62	17.557
408.98	17.139
409.34	17.141
409.69	18.259
410.05	16.418
410.40	16.312
410.76	16.546
411.11	17.413
411.47	17.452
411.83	16.532
412.18	16.751
412.54	17.607
412.89	16.176
413.25	16.106
413.60	16.677
413.96	17.541
414.31	16.831
414.67	16.825
415.03	16.035
415.38	16.116
415.74	16.894
416.09	17.250
416.45	18.045
416.80	16.510
417.16	17.004
417.51	17.816
417.87	16.865
418.22	17.130
418.58	17.083
418.93	16.259
419.29	17.558
419.64	16.858
420.00	17.079
420.35	17.095
420.71	16.271
421.06	17.220
421.42	17.214
421.77	16.532
422.12	16.905
422.48	16.848
422.83	17.366
423.19	17.424
423.54	17.373
423.90	17.458
424.25	17.331
424.61	17.006
424.96	17.386
425.31	16.433
425.67	17.637
426.02	18.375
426.38	17.973
426.73	17.960
427.09	17.511
427.44	17.264
427.79	17.577
428.15	17.187
428.50	16.254
428.85	18.204
429.21	16.826
429.56	17.481
429.92	17.699
430.27	17.025
430.62	17.996
430.98	17.504
431.33	16.926
431.68	18.158
432.04	17.408
432.39	17.321
432.74	17.229
433.10	18.187
433.45	17.811
433.80	17.759
434.16	17.641
434.51	17.826
434.86	17.903
435.22	17.827
435.57	17.875
435.92	17.250
436.28	16.697
436.63	17.841
436.98	18.508
437.34	18.010
437.69	17.591
438.04	18.336
438.39	18.120
438.75	16.925
439.10	18.392
439.45	17.918
439.81	18.473
440.16	18.783
440.51	18.074
440.86	18.435
441.22	18.531
441.57	18.547
441.92	18.974
442.27	18.885
442.63	18.138
442.98	17.766
443.33	18.341
443.68	17.870
444.03	18.579
444.39	18.691
444.74	18.443
445.09	19.218
445.44	20.113
445.79	18.482
446.15	18.802
446.50	18.888
446.85	18.600
447.20	19.185
447.55	18.747
447.91	18.708
448.26	18.811
448.61	19.563
448.96	19.021
449.31	19.246
449.66	19.607
450.02	19.102
450.37	19.330
450.72	18.944
451.07	19.436
451.42	19.339
451.77	19.416
452.12	19.548
452.47	19.819
452.83	18.750
453.18	19.478
453.53	19.546
453.88	19.759
454.23	19.778
454.58	19.363
454.93	19.949
455.28	19.268
455.63	19.464
455.98	19.051
456.34	19.199
456.69	19.681
457.04	19.876
457.39	19.964
457.74	19.509
458.09	18.957
458.44	18.449
458.79	18.561
459.14	18.652
459.49	19.329
459.84	18.602
460.19	19.688
460.54	19.830
460.89	19.313
461.24	19.236
461.59	19.324
461.94	19.722
462.29	18.811
462.64	19.525
462.99	18.779
463.34	19.613
463.69	19.652
464.04	19.928
464.39	19.036
464.74	19.349
465.09	19.343
465.44	20.370
465.79	20.299
466.14	18.985
466.49	19.179
466.84	20.801
467.19	19.490
467.54	20.415
467.89	20.553
468.24	19.176
468.59	19.567
468.94	20.115
469.29	19.960
469.64	20.223
469.99	20.414
470.34	19.960
470.68	21.041
471.03	20.733
471.38	20.097
471.73	20.439
472.08	20.893
472.43	21.174
472.78	20.554
473.13	19.261
473.48	19.961
473.83	20.151
474.17	20.703
474.52	20.065
474.87	20.507
475.22	20.109
475.57	20.190
475.92	21.429
476.27	20.396
476.61	20.385
476.96	20.445
477.31	20.550
477.66	20.847
478.01	20.000
478.36	20.763
478.70	20.032
479.05	20.200
479.40	20.281
479.75	20.457
480.10	20.245
480.45	19.421
480.79	20.856
481.14	20.871
481.49	21.312
481.84	20.641
482.19	20.287
482.53	20.333
482.88	20.182
483.23	19.827
483.58	20.605
483.92	20.233
484.27	19.488
484.62	19.973
484.97	20.033
485.31	19.479
485.66	19.427
486.01	20.019
486.36	19.283
486.70	19.222
487.05	20.096
487.40	19.469
487.75	19.638
488.09	19.737
488.44	19.699
488.79	20.061
489.13	19.841
489.48	20.351
489.83	19.920
490.17	20.517
490.52	20.991
490.87	19.611
491.22	20.490
491.56	21.179
491.91	20.451
492.26	20.116
492.60	20.010
492.95	20.894
493.30	20.010
493.64	20.048
493.99	20.821
494.34	20.328
494.68	19.952
495.03	19.862
495.37	19.611
495.72	20.501
496.07	20.214
496.41	19.654
496.76	20.018
497.11	19.390
497.45	20.671
497.80	20.747
498.14	20.050
498.49	20.222
498.84	20.294
499.18	19.413
499.53	19.892
499.87	19.748
500.22	19.861
500.56	21.063
500.91	20.724
501.26	20.246
501.60	20.245
501.95	20.843
502.29	19.612
502.64	20.154
502.98	20.183
503.33	19.951
503.67	20.691
504.02	20.343
504.36	19.663
504.71	20.020
505.06	20.581
505.40	20.052
505.75	20.956
506.09	20.439
506.44	20.565
506.78	20.620
507.13	20.270
507.47	20.255
507.82	20.827
508.16	20.633
508.51	20.455
508.85	20.632
509.19	20.423
509.54	20.322
509.88	20.430
510.23	20.947
510.57	20.869
510.92	20.636
511.26	20.682
511.61	20.856
511.95	19.735
512.30	20.489
512.64	20.999
512.98	20.886
513.33	20.169
513.67	20.386
514.02	21.323
514.36	20.337
514.70	20.497
515.05	20.889
515.39	20.165
515.74	20.959
516.08	20.413
516.42	20.565
516.77	20.445
517.11	20.341
517.46	21.068
517.80	21.852
518.14	19.596
518.49	20.193
518.83	21.659
519.17	20.181
519.52	19.662
519.86	20.522
520.20	20.558
520.55	20.522
520.89	21.252
521.23	21.090
521.58	20.986
521.92	21.496
522.26	20.299
522.61	21.138
522.95	20.661
523.29	19.873
523.64	20.788
523.98	20.712
524.32	20.794
524.66	20.584
525.01	21.625
525.35	20.803
525.69	20.345
526.04	20.651
526.38	21.542
526.72	21.105
527.06	19.987
527.41	19.854
527.75	20.227
528.09	20.694
528.43	21.438
528.78	19.897
529.12	20.505
529.46	21.305
529.80	20.388
530.15	20.077
530.49	21.226
530.83	21.192
531.17	20.685
531.51	19.488
531.86	20.257
532.20	20.124
532.54	20.483
532.88	20.422
533.22	21.481
533.57	20.199
533.91	20.258
534.25	20.378
534.59	20.335
534.93	19.707
535.27	20.000
535.62	20.263
535.96	20.429
536.30	20.545
536.64	19.822
536.98	20.112
537.32	20.854
537.66	20.804
538.01	19.626
538.35	18.577
538.69	19.599
539.03	19.664
539.37	19.987
539.71	20.191
540.05	19.501
540.39	19.821
540.73	20.042
541.07	20.272
541.42	19.865
541.76	19.283
542.10	19.567
542.44	19.889
542.78	20.125
543.12	20.216
543.46	19.558
543.80	19.756
544.14	20.647
544.48	19.044
544.82	19.704
545.16	18.526
545.50	20.392
545.84	19.004
546.18	18.934
546.52	20.819
546.86	19.223
547.20	19.728
547.54	20.229
547.88	19.636
548.22	17.720
548.56	18.746
548.90	18.945
549.24	19.653
549.58	19.786
549.92	19.222
550.26	20.221
550.60	18.844
550.94	20.448
551.28	19.379
551.62	19.624
551.96	19.693
552.30	19.578
552.64	18.785
552.98	20.241
553.32	19.971
553.66	19.369
554.00	19.222
554.34	18.462
554.68	19.463
555.02	19.237
555.36	18.230
555.69	19.301
556.03	18.084
556.37	18.137
556.71	17.940
557.05	18.007
557.39	18.915
557.73	19.062
558.07	18.839
558.41	19.833
558.75	18.938
559.08	18.845
559.42	18.017
559.76	18.272
560.10	18.985
560.44	19.307
560.78	18.058
561.12	18.711
561.45	17.687
561.79	19.051
562.13	18.987
562.47	17.857
562.81	18.182
563.15	18.059
563.48	18.513
563.82	17.305
564.16	17.536
564.50	18.725
564.84	18.784
565.17	18.278
565.51	18.249
565.85	17.189
566.19	18.079
566.52	17.955
566.86	16.941
567.20	18.021
567.54	18.480
567.88	16.685
568.21	17.219
568.55	17.475
568.89	16.401
569.23	17.782
569.56	17.230
569.90	16.871
570.24	16.498
570.57	16.718
570.91	16.778
571.25	16.561
571.59	16.146
571.92	16.222
572.26	17.048
572.60	16.692
572.93	15.839
573.27	16.307
573.61	16.815
573.95	16.684
574.28	16.216
574.62	16.021
574.96	15.994
575.29	16.474
575.63	16.386
575.97	16.630
576.30	15.804
576.64	15.876
576.98	15.817
577.31	16.372
577.65	15.927
577.98	15.953
578.32	16.224
578.66	16.146
578.99	16.315
579.33	15.892
579.67	15.911
580.00	15.354
580.34	15.487
580.67	15.899
581.01	15.532
581.35	15.947
581.68	15.862
582.02	15.946
582.35	16.005
582.69	15.903
583.02	15.545
583.36	15.665
583.70	15.807
584.03	16.015
584.37	15.137
584.70	15.712
585.04	15.745
585.37	15.164
585.71	15.605
586.04	15.288
586.38	15.785
586.72	15.341
587.05	15.877
587.39	16.020
587.72	15.718
588.06	15.787
588.39	15.337
588.73	15.463
589.06	15.519
589.40	15.858
589.73	15.092
590.07	15.275
590.40	15.979
590.73	16.370
591.07	15.462
591.40	15.696
591.74	15.296
592.07	15.244
592.41	15.959
592.74	15.818
593.08	15.350
593.41	15.157
593.75	15.342
594.08	14.853
594.41	15.539
594.75	15.592
595.08	14.937
595.42	14.603
595.75	15.727
596.09	15.512
596.42	15.400
596.75	14.787
597.09	15.287
597.42	15.298
597.75	15.289
598.09	15.164
598.42	15.973
598.76	15.197
599.09	15.326
599.42	14.992
599.76	14.720
600.09	14.985
600.42	15.367
600.76	15.447
601.09	14.539
601.42	14.543
601.76	15.097
602.09	15.647
602.42	15.683
602.76	15.227
603.09	15.688
603.42	15.114
603.76	15.121
604.09	14.625
604.42	14.734
604.76	14.753
605.09	15.134
605.42	15.565
605.75	14.690
606.09	14.238
606.42	14.838
606.75	14.762
607.09	14.716
607.42	14.317
607.75	14.004
608.08	14.518
608.42	14.761
608.75	15.432
609.08	14.405
609.41	15.499
609.75	14.322
610.08	14.842
610.41	15.063
610.74	15.207
611.07	14.078
611.41	15.609
611.74	15.321
612.07	14.174
612.40	14.703
612.73	14.380
613.07	14.246
613.40	14.097
613.73	14.951
614.06	14.594
614.39	13.897
614.72	15.880
615.06	13.667
615.39	13.962
615.72	14.093
616.05	14.245
616.38	14.433
616.71	14.217
617.05	14.373
617.38	14.849
617.71	13.971
618.04	14.199
618.37	14.574
618.70	15.006
619.03	14.021
619.36	14.662
619.69	14.620
620.03	14.064
620.36	14.614
620.69	13.276
621.02	14.231
621.35	13.900
621.68	14.751
622.01	14.644
622.34	14.433
622.67	14.957
623.00	14.818
623.33	14.734
623.66	13.532
623.99	14.329
624.32	14.967
624.65	14.763
624.99	14.622
625.32	14.040
625.65	14.961
625.98	14.929
626.31	14.122
626.64	14.875
626.97	14.360
627.30	16.681
627.63	14.619
627.96	14.113
628.29	15.256
628.62	14.797
628.95	13.327
629.28	15.074
629.61	15.215
629.94	14.894
630.26	15.567
630.59	15.385
630.92	15.060
631.25	13.697
631.58	15.310
631.91	14.210
632.24	14.380
632.57	14.333
632.90	14.352
633.23	15.108
633.56	14.388
633.89	15.311
634.22	16.726
634.55	14.007
634.88	12.623
635.20	14.000
635.53	14.858
635.86	14.359
636.19	16.625
636.52	14.146
636.85	15.199
637.18	14.007
637.51	14.357
