SpectraSuite Data File
++++++++++++++++++++++++++++++++++++
Date: Wed May 13 21:09:18 PDT 2015
User: schluterlab
Dark Spectrum Present: Yes
Reference Spectrum Present: Yes
Number of Sampled Component Spectra: 1
Spectrometers: USB2E3373
Integration Time (usec): 3000 (USB2E3373)
Spectra Averaged: 3 (USB2E3373)
Boxcar Smoothing: 0 (USB2E3373)
Correct for Electrical Dark: No (USB2E3373)
Strobe/Lamp Enabled: No (USB2E3373)
Correct for Detector Non-linearity: No (USB2E3373)
Correct for Stray Light: No (USB2E3373)
Number of Pixels in Processed Spectrum: 2048
>>>>>Begin Processed Spectral Data<<<<<
178.53	0.000
178.91	600.000
179.29	166.667
179.67	-350.000
180.04	-333.333
180.42	-0.000
180.80	1200.000
181.18	283.333
181.56	-200.000
181.94	-450.000
182.31	-45.455
182.69	184.615
183.07	-240.000
183.45	250.000
183.83	144.444
184.20	-0.000
184.58	-66.667
184.96	233.333
185.34	285.714
185.72	0.000
186.09	-200.000
186.47	-120.000
186.85	220.000
187.23	-500.000
187.61	600.000
187.98	2100.000
188.36	-12.500
188.74	0.000
189.12	9.091
189.49	20.000
189.87	133.333
190.25	480.000
190.63	800.000
191.00	-320.000
191.38	160.000
191.76	425.000
192.14	141.667
192.51	-68.421
192.89	633.333
193.27	300.000
193.65	-260.000
194.02	145.455
194.40	190.000
194.78	100.000
195.15	260.000
195.53	-240.000
195.91	-125.000
196.29	33.333
196.66	0.000
197.04	600.000
197.42	120.000
197.79	-40.000
198.17	-137.500
198.55	-433.333
198.92	100.000
199.30	-133.333
199.68	-80.000
200.05	150.000
200.43	66.667
200.81	-100.000
201.18	-260.000
201.56	-100.000
201.94	600.000
202.31	-26.087
202.69	-185.714
203.07	-300.000
203.44	-340.000
203.82	-66.667
204.19	-130.000
204.57	0.000
204.95	-166.667
205.32	0.000
205.70	100.000
206.08	-175.000
206.45	-33.333
206.83	225.000
207.20	-500.000
207.58	40.000
207.96	-2600.000
208.33	-157.143
208.71	-1900.000
209.08	187.500
209.46	475.000
209.84	0.000
210.21	200.000
210.59	2300.000
210.96	200.000
211.34	1100.000
211.71	-600.000
212.09	-316.667
212.46	-230.000
212.84	133.333
213.22	150.000
213.59	-700.000
213.97	-700.000
214.34	-600.000
214.72	-46.154
215.09	212.500
215.47	155.556
215.84	650.000
216.22	-125.000
216.59	-250.000
216.97	700.000
217.34	166.667
217.72	0.000
218.09	466.667
218.47	-400.000
218.84	-100.000
219.22	-150.000
219.59	-266.667
219.97	-125.000
220.34	-75.000
220.72	-140.000
221.09	0.000
221.47	-233.333
221.84	-500.000
222.22	0.000
222.59	500.000
222.97	-266.667
223.34	-58.333
223.72	-1200.000
224.09	-700.000
224.46	-63.636
224.84	-87.500
225.21	-28.571
225.59	-225.000
225.96	-100.000
226.34	0.000
226.71	-85.714
227.08	450.000
227.46	-150.000
227.83	-400.000
228.21	-56.250
228.58	-50.000
228.95	-35.294
229.33	-18.750
229.70	-112.500
230.08	-15.385
230.45	-162.500
230.82	-8.333
231.20	214.286
231.57	-225.000
231.95	1500.000
232.32	91.667
232.69	-47.059
233.07	-1800.000
233.44	13.043
233.81	-250.000
234.19	25.000
234.56	-26.667
234.93	13.333
235.31	-26.316
235.68	-15.385
236.05	7.692
236.43	11.111
236.80	-21.212
237.17	-20.000
237.55	5.882
237.92	3.448
238.29	-18.519
238.67	11.111
239.04	41.935
239.41	10.638
239.79	38.298
240.16	34.884
240.53	21.429
240.91	46.429
241.28	19.643
241.65	24.194
242.02	30.263
242.40	36.232
242.77	24.638
243.14	26.923
243.51	36.170
243.89	35.577
244.26	39.623
244.63	36.538
245.00	48.958
245.38	40.336
245.75	42.623
246.12	36.090
246.49	35.772
246.87	30.252
247.24	37.838
247.61	39.735
247.98	45.513
248.36	39.053
248.73	38.764
249.10	33.333
249.47	40.860
249.84	41.053
250.22	44.279
250.59	41.121
250.96	41.364
251.33	30.622
251.70	42.259
252.08	42.259
252.45	44.033
252.82	43.346
253.19	42.023
253.56	46.403
253.94	43.060
254.31	38.732
254.68	44.966
255.05	41.254
255.42	44.755
255.79	39.571
256.16	45.741
256.54	42.222
256.91	39.241
257.28	45.912
257.65	43.631
258.02	41.056
258.39	43.860
258.76	40.988
259.14	42.614
259.51	44.663
259.88	43.631
260.25	45.556
260.62	43.258
260.99	42.175
261.36	45.078
261.73	44.938
262.10	43.257
262.47	39.259
262.85	41.294
263.22	43.333
263.59	45.195
263.96	44.039
264.33	42.548
264.70	42.791
265.07	40.972
265.44	45.057
265.81	41.648
266.18	44.419
266.55	41.703
266.92	41.737
267.29	41.770
267.66	41.614
268.03	44.033
268.40	42.797
268.77	42.562
269.14	45.306
269.51	45.791
269.88	44.196
270.25	42.585
270.62	42.418
270.99	43.898
271.36	41.270
271.73	42.369
272.10	43.048
272.47	43.186
272.84	44.094
273.21	41.879
273.58	42.418
273.95	40.000
274.32	43.843
274.69	44.080
275.06	43.463
275.43	44.068
275.80	41.312
276.17	41.252
276.54	38.544
276.91	43.380
277.28	41.336
277.65	42.483
278.02	44.107
278.39	41.563
278.76	41.472
279.13	39.623
279.50	41.034
279.87	41.667
280.23	39.640
280.60	39.792
280.97	40.097
281.34	42.902
281.71	38.537
282.08	40.684
282.45	40.164
282.82	42.332
283.19	42.530
283.56	40.469
283.92	41.743
284.29	40.718
284.66	40.362
285.03	39.902
285.40	39.879
285.77	39.039
286.14	40.729
286.51	43.328
286.87	40.615
287.24	39.381
287.61	41.114
287.98	41.618
288.35	37.854
288.72	40.746
289.08	39.316
289.45	40.675
289.82	38.427
290.19	37.588
290.56	36.364
290.93	36.188
291.29	37.620
291.66	37.842
292.03	36.104
292.40	36.339
292.77	36.412
293.13	36.262
293.50	37.516
293.87	38.400
294.24	34.392
294.60	35.501
294.97	34.788
295.34	34.169
295.71	33.640
296.08	34.686
296.44	33.929
296.81	33.496
297.18	34.000
297.55	33.491
297.91	33.913
298.28	35.109
298.65	31.897
299.02	34.066
299.38	33.374
299.75	31.370
300.12	31.047
300.48	32.047
300.85	30.600
301.22	32.172
301.59	32.864
301.95	31.591
302.32	32.322
302.69	29.492
303.05	30.786
303.42	32.159
303.79	33.123
304.15	29.573
304.52	32.258
304.89	30.676
305.25	30.626
305.62	30.260
305.99	31.774
306.35	30.825
306.72	29.298
307.09	31.491
307.45	30.458
307.82	29.158
308.19	29.676
308.55	30.194
308.92	32.122
309.29	30.230
309.65	31.269
310.02	29.523
310.38	29.878
310.75	30.375
311.12	29.155
311.48	30.465
311.85	30.020
312.22	30.851
312.58	28.309
312.95	28.856
313.31	28.650
313.68	28.244
314.05	28.828
314.41	29.779
314.78	30.361
315.14	29.352
315.51	29.210
315.87	29.842
316.24	28.466
316.61	29.680
316.97	27.500
317.34	29.857
317.70	28.903
318.07	29.636
318.43	29.991
318.80	28.447
319.16	28.559
319.53	29.570
319.89	28.455
320.26	29.020
320.62	27.711
320.99	29.651
321.35	28.718
321.72	28.874
322.08	29.059
322.45	28.677
322.81	29.760
323.18	28.712
323.54	30.596
323.91	29.991
324.27	29.613
324.64	28.310
325.00	29.484
325.37	29.522
325.73	28.114
326.10	28.595
326.46	28.595
326.83	28.398
327.19	29.106
327.56	29.009
327.92	28.721
328.29	30.384
328.65	29.623
329.01	27.529
329.38	30.174
329.74	28.240
330.11	28.404
330.47	28.038
330.84	27.978
331.20	29.633
331.56	29.438
331.93	28.596
332.29	28.584
332.66	27.797
333.02	27.281
333.38	27.632
333.75	28.242
334.11	27.865
334.48	27.812
334.84	28.710
335.20	29.588
335.57	27.154
335.93	27.577
336.29	28.196
336.66	28.376
337.02	28.348
337.38	29.243
337.75	28.596
338.11	27.327
338.47	26.969
338.84	27.577
339.20	26.190
339.56	27.730
339.93	27.485
340.29	27.839
340.65	29.341
341.02	27.454
341.38	28.209
341.74	26.723
342.11	27.828
342.47	26.611
342.83	27.124
343.20	27.750
343.56	28.455
343.92	26.970
344.28	27.597
344.65	26.286
345.01	26.634
345.37	27.220
345.73	27.451
346.10	26.966
346.46	26.179
346.82	26.485
347.19	25.870
347.55	26.575
347.91	26.812
348.27	26.735
348.63	26.122
349.00	26.258
349.36	27.473
349.72	26.991
350.08	27.067
350.45	26.233
350.81	27.387
351.17	25.866
351.53	26.787
351.89	25.179
352.26	26.100
352.62	27.287
352.98	25.479
353.34	26.409
353.70	26.090
354.07	26.353
354.43	27.216
354.79	25.962
355.15	25.932
355.51	26.120
355.87	27.131
356.24	26.083
356.60	26.583
356.96	26.861
357.32	26.625
357.68	26.203
358.04	26.610
358.40	26.279
358.77	26.682
359.13	25.759
359.49	25.435
359.85	25.322
360.21	26.523
360.57	26.312
360.93	27.011
361.29	26.499
361.66	25.588
362.02	26.093
362.38	26.366
362.74	24.946
363.10	26.320
363.46	25.793
363.82	25.721
364.18	25.453
364.54	26.623
364.90	25.505
365.26	25.195
365.62	26.136
365.98	25.979
366.35	26.170
366.71	25.250
367.07	25.230
367.43	25.366
367.79	25.990
368.15	25.949
368.51	24.543
368.87	25.611
369.23	25.979
369.59	25.793
369.95	25.980
370.31	25.035
370.67	25.344
371.03	26.503
371.39	24.556
371.75	25.214
372.11	25.855
372.47	25.162
372.83	25.589
373.19	25.180
373.55	25.795
373.91	26.096
374.27	24.689
374.63	24.751
374.99	25.070
375.35	25.205
375.71	24.592
376.07	25.977
376.42	25.401
376.78	25.561
377.14	25.627
377.50	26.076
377.86	25.764
378.22	25.284
378.58	24.653
378.94	26.250
379.30	24.859
379.66	24.661
380.02	25.245
380.38	24.819
380.74	25.583
381.09	24.970
381.45	25.212
381.81	24.769
382.17	25.520
382.53	25.169
382.89	24.065
383.25	25.741
383.61	25.121
383.97	24.187
384.32	24.071
384.68	24.121
385.04	24.801
385.40	25.093
385.76	25.669
386.12	25.694
386.48	24.138
386.83	25.094
387.19	24.306
387.55	25.322
387.91	24.785
388.27	24.969
388.62	24.969
388.98	24.844
389.34	25.063
389.70	24.847
390.06	24.813
390.42	25.000
390.77	23.959
391.13	25.694
391.49	24.035
391.85	24.856
392.20	24.373
392.56	24.698
392.92	24.693
393.28	25.160
393.64	25.382
393.99	24.602
394.35	25.679
394.71	24.295
395.07	23.459
395.42	25.472
395.78	25.290
396.14	25.682
396.50	25.111
396.85	25.303
397.21	24.532
397.57	23.789
397.92	24.072
398.28	24.986
398.64	24.104
399.00	24.386
399.35	24.915
399.71	24.752
400.07	25.241
400.42	24.451
400.78	24.230
401.14	24.464
401.49	24.566
401.85	24.939
402.21	23.963
402.57	24.280
402.92	25.594
403.28	24.390
403.63	24.365
403.99	24.568
404.35	24.751
404.70	24.411
405.06	25.250
405.42	24.623
405.77	24.942
406.13	24.571
406.49	24.146
406.84	24.847
407.20	24.216
407.55	24.416
407.91	24.156
408.27	24.641
408.62	25.169
408.98	24.106
409.34	24.134
409.69	25.796
410.05	24.689
410.40	24.407
410.76	24.549
411.11	25.187
411.47	25.680
411.83	24.891
412.18	24.433
412.54	25.313
412.89	24.765
413.25	24.248
413.60	24.138
413.96	24.095
414.31	24.908
414.67	24.508
415.03	23.884
415.38	24.571
415.74	24.172
416.09	24.389
416.45	25.085
416.80	25.570
417.16	25.169
417.51	24.113
417.87	24.735
418.22	24.305
418.58	23.719
418.93	24.482
419.29	24.488
419.64	25.127
420.00	25.016
420.35	25.164
420.71	23.644
421.06	23.985
421.42	25.061
421.77	24.682
422.12	25.731
422.48	24.373
422.83	24.808
423.19	24.842
423.54	25.324
423.90	25.178
424.25	25.188
424.61	25.262
424.96	24.601
425.31	24.397
425.67	25.220
426.02	25.736
426.38	25.498
426.73	23.946
427.09	25.203
427.44	24.075
427.79	24.941
428.15	24.771
428.50	24.169
428.85	24.231
429.21	24.705
429.56	25.080
429.92	25.143
430.27	25.051
430.62	24.974
430.98	25.066
431.33	25.363
431.68	25.612
432.04	25.239
432.39	24.711
432.74	24.647
433.10	26.380
433.45	24.615
433.80	24.598
434.16	24.140
434.51	24.783
434.86	25.029
435.22	25.354
435.57	25.000
435.92	24.608
436.28	23.844
436.63	25.346
436.98	25.558
437.34	25.580
437.69	24.911
438.04	25.071
438.39	25.592
438.75	25.209
439.10	25.333
439.45	24.758
439.81	25.493
440.16	25.275
440.51	25.208
440.86	25.370
441.22	24.727
441.57	24.512
441.92	25.298
442.27	24.784
442.63	24.381
442.98	25.463
443.33	24.944
443.68	24.249
444.03	25.335
444.39	25.880
444.74	26.229
445.09	24.339
445.44	25.972
445.79	25.194
446.15	25.125
446.50	25.165
446.85	25.601
447.20	25.353
447.55	25.294
447.91	24.775
448.26	24.643
448.61	24.856
448.96	25.171
449.31	25.528
449.66	25.622
450.02	25.355
450.37	25.911
450.72	25.373
451.07	25.141
451.42	24.641
451.77	24.954
452.12	25.312
452.47	26.081
452.83	25.000
453.18	25.589
453.53	25.473
453.88	24.940
454.23	24.845
454.58	25.245
454.93	25.914
455.28	25.177
455.63	24.641
455.98	25.198
456.34	24.921
456.69	26.709
457.04	25.201
457.39	25.256
457.74	24.417
458.09	25.829
458.44	25.382
458.79	25.700
459.14	24.663
459.49	25.793
459.84	24.915
460.19	24.910
460.54	25.061
460.89	24.718
461.24	25.709
461.59	24.819
461.94	26.422
462.29	25.980
462.64	26.187
462.99	25.486
463.34	25.898
463.69	26.224
464.04	25.330
464.39	25.686
464.74	25.676
465.09	25.232
465.44	25.253
465.79	26.049
466.14	25.200
466.49	25.396
466.84	25.583
467.19	25.414
467.54	26.248
467.89	26.776
468.24	25.446
468.59	25.813
468.94	26.437
469.29	26.570
469.64	26.011
469.99	27.655
470.34	25.893
470.68	25.204
471.03	26.023
471.38	25.591
471.73	25.446
472.08	27.216
472.43	26.385
472.78	26.369
473.13	24.736
473.48	25.179
473.83	25.800
474.17	26.172
474.52	26.990
474.87	25.814
475.22	26.208
475.57	25.209
475.92	26.499
476.27	25.758
476.61	25.142
476.96	26.099
477.31	25.998
477.66	26.667
478.01	25.549
478.36	25.831
478.70	25.994
479.05	26.193
479.40	26.053
479.75	26.089
480.10	26.466
480.45	25.405
480.79	25.734
481.14	25.887
481.49	25.851
481.84	25.778
482.19	25.845
482.53	26.095
482.88	26.462
483.23	25.890
483.58	26.229
483.92	25.924
484.27	25.069
484.62	25.655
484.97	25.881
485.31	25.259
485.66	24.177
486.01	24.436
486.36	24.564
486.70	25.106
487.05	25.586
487.40	26.064
487.75	25.983
488.09	25.618
488.44	26.183
488.79	26.911
489.13	26.083
489.48	25.481
489.83	25.592
490.17	25.874
490.52	26.508
490.87	26.657
491.22	26.566
491.56	26.306
491.91	26.068
492.26	27.176
492.60	26.022
492.95	26.531
493.30	26.405
493.64	26.043
493.99	26.425
494.34	26.879
494.68	26.014
495.03	26.038
495.37	26.569
495.72	26.767
496.07	26.839
496.41	25.877
496.76	26.005
497.11	26.056
497.45	26.411
497.80	26.502
498.14	27.053
498.49	26.223
498.84	26.518
499.18	26.580
499.53	25.899
499.87	25.230
500.22	26.680
500.56	27.031
500.91	26.811
501.26	26.995
501.60	26.078
501.95	26.881
502.29	27.427
502.64	27.387
502.98	26.445
503.33	26.813
503.67	26.728
504.02	26.127
504.36	26.994
504.71	26.982
505.06	26.999
505.40	26.804
505.75	27.263
506.09	27.082
506.44	26.663
506.78	26.257
507.13	27.079
507.47	27.413
507.82	26.949
508.16	27.652
508.51	26.756
508.85	26.957
509.19	27.143
509.54	27.024
509.88	27.151
510.23	26.737
510.57	26.483
510.92	27.263
511.26	26.458
511.61	27.278
511.95	26.351
512.30	27.818
512.64	27.866
512.98	26.648
513.33	27.380
513.67	28.052
514.02	27.594
514.36	27.528
514.70	27.425
515.05	27.794
515.39	27.300
515.74	27.709
516.08	27.670
516.42	27.247
516.77	27.417
517.11	27.690
517.46	27.911
517.80	28.511
518.14	27.128
518.49	27.306
518.83	26.850
519.17	27.711
519.52	27.382
519.86	27.808
520.20	27.411
520.55	27.736
520.89	28.273
521.23	28.910
521.58	28.129
521.92	27.781
522.26	27.977
522.61	28.054
522.95	27.979
523.29	28.190
523.64	28.544
523.98	27.891
524.32	27.473
524.66	27.338
525.01	28.440
525.35	28.440
525.69	29.026
526.04	27.752
526.38	27.852
526.72	28.008
527.06	27.402
527.41	27.796
527.75	27.503
528.09	28.659
528.43	28.562
528.78	27.907
529.12	28.396
529.46	27.447
529.80	28.155
530.15	27.799
530.49	28.908
530.83	28.504
531.17	28.767
531.51	26.972
531.86	28.049
532.20	28.325
532.54	27.517
532.88	28.114
533.22	28.283
533.57	29.007
533.91	29.161
534.25	28.711
534.59	27.671
534.93	27.997
535.27	27.771
535.62	28.026
535.96	28.822
536.30	28.790
536.64	27.614
536.98	27.751
537.32	28.327
537.66	28.773
538.01	27.947
538.35	28.177
538.69	27.090
539.03	27.450
539.37	27.230
539.71	28.445
540.05	27.935
540.39	27.185
540.73	27.933
541.07	27.687
541.42	28.956
541.76	28.552
542.10	27.691
542.44	28.274
542.78	28.175
543.12	28.706
543.46	27.367
543.80	27.223
544.14	28.975
544.48	26.941
544.82	28.716
545.16	27.924
545.50	27.752
545.84	27.980
546.18	28.050
546.52	28.158
546.86	28.410
547.20	28.091
547.54	28.234
547.88	27.463
548.22	27.948
548.56	27.151
548.90	27.334
549.24	27.986
549.58	28.541
549.92	29.054
550.26	29.963
550.60	27.853
550.94	28.433
551.28	28.085
551.62	29.549
551.96	27.745
552.30	27.875
552.64	26.766
552.98	28.338
553.32	27.902
553.66	29.861
554.00	28.150
554.34	27.619
554.68	28.412
555.02	28.219
555.36	29.576
555.69	27.312
556.03	28.735
556.37	27.525
556.71	27.610
557.05	28.266
557.39	27.656
557.73	28.064
558.07	28.033
558.41	28.312
558.75	28.406
559.08	27.666
559.42	27.065
559.76	28.976
560.10	28.363
560.44	28.887
560.78	27.770
561.12	28.031
561.45	27.551
561.79	28.061
562.13	28.129
562.47	28.786
562.81	28.571
563.15	28.116
563.48	28.424
563.82	28.454
564.16	27.894
564.50	28.290
564.84	27.703
565.17	27.815
565.51	27.607
565.85	27.182
566.19	27.550
566.52	27.195
566.86	27.181
567.20	27.917
567.54	26.885
567.88	26.092
568.21	26.453
568.55	27.074
568.89	26.969
569.23	25.848
569.56	26.700
569.90	25.383
570.24	25.162
570.57	25.896
570.91	25.766
571.25	24.586
571.59	25.045
571.92	25.345
572.26	25.750
572.60	24.946
572.93	25.617
573.27	24.962
573.61	25.252
573.95	25.172
574.28	25.213
574.62	25.056
574.96	25.221
575.29	25.050
575.63	24.974
575.97	25.462
576.30	25.716
576.64	25.046
576.98	24.798
577.31	25.100
577.65	24.431
577.98	24.684
578.32	24.785
578.66	24.553
578.99	25.000
579.33	25.237
579.67	24.949
580.00	25.043
580.34	24.842
580.67	25.747
581.01	24.883
581.35	24.212
581.68	24.399
582.02	24.685
582.35	24.770
582.69	24.522
583.02	24.931
583.36	25.253
583.70	25.404
584.03	25.020
584.37	24.945
584.70	24.820
585.04	24.492
585.37	24.739
585.71	24.578
586.04	25.013
586.38	25.204
586.72	24.838
587.05	25.296
587.39	24.871
587.72	25.239
588.06	25.007
588.39	24.349
588.73	25.060
589.06	25.445
589.40	25.456
589.73	24.865
590.07	24.936
590.40	25.369
590.73	25.770
591.07	25.909
591.40	25.217
591.74	25.567
592.07	26.107
592.41	25.783
592.74	25.502
593.08	24.855
593.41	24.920
593.75	24.903
594.08	24.594
594.41	25.411
594.75	25.412
595.08	25.915
595.42	25.197
595.75	25.524
596.09	25.597
596.42	25.082
596.75	25.932
597.09	26.024
597.42	26.694
597.75	25.422
598.09	26.138
598.42	25.593
598.76	25.567
599.09	25.770
599.42	26.284
599.76	25.385
600.09	25.264
600.42	25.386
600.76	24.612
601.09	25.763
601.42	25.323
601.76	25.290
602.09	25.983
602.42	25.794
602.76	25.210
603.09	25.133
603.42	25.910
603.76	25.448
604.09	25.296
604.42	25.785
604.76	25.753
605.09	25.419
605.42	25.776
605.75	25.225
606.09	24.917
606.42	25.769
606.75	25.325
607.09	25.310
607.42	25.219
607.75	24.245
608.08	26.150
608.42	25.961
608.75	26.039
609.08	25.870
609.41	25.037
609.75	25.517
610.08	25.690
610.41	26.288
610.74	25.602
611.07	25.802
611.41	25.230
611.74	25.983
612.07	25.378
612.40	26.595
612.73	25.412
613.07	26.053
613.40	26.322
613.73	26.598
614.06	26.479
614.39	25.014
614.72	26.319
615.06	25.778
615.39	26.104
615.72	25.972
616.05	26.126
616.38	26.002
616.71	25.855
617.05	26.658
617.38	25.878
617.71	25.123
618.04	26.082
618.37	26.057
618.70	25.097
619.03	26.804
619.36	26.904
619.69	26.754
620.03	26.502
620.36	26.026
620.69	25.339
621.02	26.923
621.35	27.065
621.68	25.835
622.01	26.375
622.34	27.201
622.67	26.782
623.00	27.128
623.33	26.627
623.66	26.245
623.99	26.782
624.32	26.339
624.65	26.484
624.99	26.819
625.32	27.110
625.65	26.202
625.98	27.567
626.31	26.776
626.64	26.655
626.97	26.730
627.30	27.973
627.63	28.287
627.96	26.234
628.29	29.209
628.62	28.143
628.95	28.457
629.28	28.177
629.61	29.378
629.94	28.143
630.26	28.374
630.59	27.572
630.92	27.410
631.25	28.527
631.58	28.908
631.91	27.253
632.24	27.662
632.57	26.667
