SpectraSuite Data File
++++++++++++++++++++++++++++++++++++
Date: Wed May 13 21:25:00 PDT 2015
User: schluterlab
Dark Spectrum Present: Yes
Reference Spectrum Present: Yes
Number of Sampled Component Spectra: 1
Spectrometers: USB2E3373
Integration Time (usec): 3000 (USB2E3373)
Spectra Averaged: 3 (USB2E3373)
Boxcar Smoothing: 0 (USB2E3373)
Correct for Electrical Dark: No (USB2E3373)
Strobe/Lamp Enabled: No (USB2E3373)
Correct for Detector Non-linearity: No (USB2E3373)
Correct for Stray Light: No (USB2E3373)
Number of Pixels in Processed Spectrum: 2048
>>>>>Begin Processed Spectral Data<<<<<
178.53	0.000
178.91	150.000
179.29	258.333
179.67	-500.000
180.04	-300.000
180.42	240.000
180.80	1800.000
181.18	233.333
181.56	-400.000
181.94	-300.000
182.31	-54.545
182.69	130.769
183.07	-100.000
183.45	416.667
183.83	111.111
184.20	157.143
184.58	0.000
184.96	633.333
185.34	314.286
185.72	0.000
186.09	-1400.000
186.47	-300.000
186.85	240.000
187.23	-850.000
187.61	900.000
187.98	500.000
188.36	-25.000
188.74	0.000
189.12	-36.364
189.49	-70.000
189.87	58.333
190.25	160.000
190.63	900.000
191.00	-40.000
191.38	260.000
191.76	150.000
192.14	150.000
192.51	-10.526
192.89	333.333
193.27	250.000
193.65	-160.000
194.02	181.818
194.40	280.000
194.78	-1000.000
195.15	220.000
195.53	-360.000
195.91	37.500
196.29	-266.667
196.66	0.000
197.04	-0.000
197.42	-80.000
197.79	30.000
198.17	-200.000
198.55	0.000
198.92	150.000
199.30	-233.333
199.68	-10.000
200.05	750.000
200.43	166.667
200.81	-1500.000
201.18	-20.000
201.56	-233.333
201.94	725.000
202.31	13.043
202.69	-14.286
203.07	-400.000
203.44	-260.000
203.82	-300.000
204.19	-50.000
204.57	0.000
204.95	-83.333
205.32	0.000
205.70	-400.000
206.08	-325.000
206.45	-166.667
206.83	500.000
207.20	-333.333
207.58	-10.000
207.96	-1800.000
208.33	-42.857
208.71	-1800.000
209.08	200.000
209.46	375.000
209.84	0.000
210.21	200.000
210.59	2500.000
210.96	280.000
211.34	1000.000
211.71	-1100.000
212.09	-183.333
212.46	-210.000
212.84	-133.333
213.22	25.000
213.59	-400.000
213.97	-450.000
214.34	-1050.000
214.72	38.462
215.09	225.000
215.47	177.778
215.84	1150.000
216.22	-25.000
216.59	100.000
216.97	766.667
217.34	122.222
217.72	0.000
218.09	300.000
218.47	-500.000
218.84	-85.714
219.22	-37.500
219.59	-433.333
219.97	-325.000
220.34	-175.000
220.72	-120.000
221.09	0.000
221.47	-183.333
221.84	-700.000
222.22	0.000
222.59	1400.000
222.97	-333.333
223.34	-41.667
223.72	-1900.000
224.09	-950.000
224.46	0.000
224.84	-37.500
225.21	-128.571
225.59	-300.000
225.96	-283.333
226.34	-130.000
226.71	-42.857
227.08	350.000
227.46	-200.000
227.83	-700.000
228.21	-87.500
228.58	-375.000
228.95	-76.471
229.33	-6.250
229.70	-25.000
230.08	46.154
230.45	-175.000
230.82	-66.667
231.20	228.571
231.57	-250.000
231.95	1100.000
232.32	50.000
232.69	70.588
233.07	-1800.000
233.44	-21.739
233.81	-300.000
234.19	0.000
234.56	-53.333
234.93	-26.667
235.31	21.053
235.68	-61.538
236.05	-92.308
236.43	-27.778
236.80	3.030
237.17	6.667
237.55	-11.765
237.92	-17.241
238.29	0.000
238.67	5.556
239.04	25.806
239.41	0.000
239.79	44.681
240.16	32.558
240.53	8.929
240.91	32.143
241.28	17.857
241.65	12.903
242.02	34.211
242.40	31.884
242.77	14.493
243.14	23.077
243.51	31.915
243.89	27.885
244.26	34.906
244.63	25.000
245.00	45.833
245.38	31.933
245.75	33.607
246.12	30.827
246.49	36.585
246.87	23.529
247.24	39.189
247.61	41.722
247.98	40.385
248.36	36.095
248.73	34.831
249.10	31.313
249.47	36.022
249.84	31.053
250.22	37.313
250.59	29.907
250.96	35.909
251.33	31.579
251.70	41.423
252.08	40.586
252.45	35.391
252.82	38.023
253.19	38.132
253.56	32.374
253.94	41.993
254.31	35.915
254.68	37.248
255.05	37.954
255.42	33.916
255.79	34.969
256.16	39.748
256.54	39.683
256.91	36.076
257.28	35.849
257.65	33.758
258.02	36.070
258.39	35.965
258.76	35.174
259.14	38.068
259.51	35.393
259.88	38.211
260.25	36.944
260.62	34.270
260.99	38.196
261.36	38.601
261.73	35.309
262.10	35.369
262.47	38.519
262.85	35.572
263.22	40.513
263.59	36.104
263.96	36.010
264.33	36.779
264.70	35.116
265.07	35.880
265.44	38.851
265.81	35.698
266.18	38.269
266.55	36.245
266.92	38.347
267.29	36.008
267.66	39.278
268.03	41.358
268.40	35.381
268.77	36.157
269.14	36.939
269.51	37.988
269.88	35.438
270.25	39.831
270.62	38.525
270.99	38.780
271.36	35.913
271.73	40.763
272.10	39.238
272.47	37.620
272.84	37.402
273.21	35.029
273.58	37.705
273.95	37.358
274.32	40.299
274.69	37.158
275.06	37.809
275.43	36.535
275.80	37.589
276.17	37.937
276.54	36.590
276.91	36.237
277.28	36.462
277.65	37.762
278.02	39.643
278.39	37.655
278.76	35.452
279.13	37.907
279.50	37.414
279.87	35.145
280.23	37.658
280.60	36.678
280.97	36.039
281.34	38.170
281.71	35.610
282.08	36.410
282.45	39.344
282.82	37.380
283.19	35.366
283.56	35.938
283.92	35.627
284.29	36.817
284.66	37.397
285.03	33.388
285.40	33.686
285.77	37.538
286.14	36.626
286.51	37.481
286.87	34.769
287.24	37.611
287.61	36.145
287.98	35.294
288.35	34.873
288.72	35.438
289.08	36.040
289.45	33.333
289.82	33.888
290.19	34.222
290.56	32.955
290.93	33.287
291.29	34.063
291.66	32.923
292.03	33.379
292.40	31.763
292.77	33.066
293.13	34.449
293.50	32.549
293.87	33.467
294.24	32.804
294.60	32.380
294.97	31.481
295.34	31.794
295.71	30.355
296.08	31.021
296.44	32.143
296.81	31.547
297.18	30.625
297.55	29.835
297.91	30.807
298.28	30.751
298.65	29.803
299.02	30.647
299.38	30.920
299.75	29.687
300.12	28.023
300.48	28.772
300.85	28.522
301.22	30.314
301.59	28.521
301.95	28.804
302.32	30.572
302.69	26.667
303.05	29.790
303.42	30.227
303.79	30.494
304.15	28.478
304.52	30.323
304.89	29.014
305.25	28.979
305.62	29.501
305.99	28.618
306.35	30.094
306.72	29.807
307.09	29.301
307.45	30.351
307.82	29.684
308.19	27.586
308.55	31.013
308.92	30.354
309.29	30.130
309.65	29.970
310.02	31.710
310.38	31.402
310.75	30.079
311.12	30.418
311.48	31.751
311.85	33.465
312.22	32.012
312.58	32.271
312.95	31.741
313.31	32.599
313.68	33.015
314.05	33.176
314.41	33.814
314.78	36.338
315.14	35.093
315.51	35.300
315.87	35.959
316.24	37.557
316.61	38.265
316.97	38.056
317.34	37.344
317.70	40.321
318.07	39.574
318.43	41.463
318.80	40.401
319.16	42.263
319.53	41.846
319.89	42.638
320.26	42.699
320.62	44.300
320.99	44.283
321.35	43.124
321.72	46.198
322.08	45.203
322.45	46.161
322.81	47.782
323.18	46.691
323.54	47.112
323.91	47.967
324.27	49.415
324.64	49.303
325.00	50.306
325.37	50.597
325.73	49.327
326.10	51.135
326.46	51.505
326.83	51.052
327.19	52.520
327.56	51.974
327.92	50.442
328.29	53.339
328.65	52.936
329.01	51.539
329.38	52.696
329.74	52.532
330.11	53.381
330.47	52.431
330.84	53.881
331.20	53.373
331.56	54.529
331.93	53.402
332.29	53.779
332.66	52.966
333.02	54.301
333.38	55.088
333.75	50.512
334.11	53.559
334.48	55.013
334.84	53.357
335.20	53.602
335.57	53.177
335.93	53.351
336.29	54.816
336.66	53.419
337.02	54.000
337.38	53.264
337.75	53.747
338.11	52.092
338.47	52.226
338.84	52.921
339.20	53.968
339.56	51.962
339.93	54.278
340.29	51.580
340.65	53.208
341.02	52.163
341.38	51.943
341.74	51.849
342.11	51.858
342.47	51.967
342.83	51.552
343.20	51.184
343.56	51.840
343.92	50.203
344.28	52.922
344.65	50.939
345.01	48.507
345.37	51.891
345.73	50.980
346.10	51.124
346.46	50.488
346.82	51.364
347.19	49.763
347.55	51.777
347.91	48.714
348.27	49.132
348.63	50.080
349.00	50.000
349.36	50.157
349.72	49.729
350.08	49.922
350.45	51.135
350.81	50.861
351.17	48.268
351.53	49.411
351.89	48.769
352.26	49.035
352.62	49.225
352.98	50.719
353.34	49.436
353.70	48.754
354.07	49.490
354.43	49.378
354.79	50.240
355.15	49.922
355.51	47.912
355.87	48.319
356.24	49.197
356.60	48.319
356.96	48.043
357.32	48.375
357.68	48.205
358.04	48.487
358.40	47.984
358.77	47.859
359.13	48.327
359.49	48.524
359.85	47.839
360.21	48.959
360.57	49.354
360.93	47.876
361.29	48.631
361.66	46.849
362.02	47.813
362.38	47.710
362.74	46.773
363.10	47.795
363.46	46.758
363.82	47.154
364.18	46.483
364.54	47.192
364.90	46.829
365.26	46.638
365.62	46.378
365.98	47.402
366.35	47.730
366.71	47.290
367.07	47.768
367.43	47.596
367.79	47.603
368.15	47.117
368.51	45.359
368.87	47.244
369.23	46.477
369.59	47.146
369.95	47.242
370.31	44.979
370.67	45.836
371.03	46.177
371.39	46.274
371.75	46.000
372.11	46.652
372.47	46.215
372.83	46.602
373.19	45.468
373.55	45.087
373.91	44.484
374.27	45.574
374.63	45.946
374.99	45.752
375.35	46.233
375.71	45.109
376.07	45.374
376.42	45.655
376.78	45.641
377.14	46.983
377.50	46.741
377.86	46.746
378.22	45.702
378.58	46.154
378.94	45.750
379.30	45.846
379.66	43.650
380.02	45.404
380.38	45.301
380.74	45.846
381.09	44.994
381.45	44.619
381.81	44.239
382.17	44.865
382.53	44.615
382.89	44.994
383.25	45.123
383.61	45.097
383.97	45.562
384.32	44.423
384.68	45.034
385.04	43.128
385.40	45.019
385.76	44.465
386.12	46.030
386.48	44.389
386.83	43.680
387.19	43.738
387.55	44.819
387.91	45.080
388.27	45.931
388.62	44.007
388.98	45.307
389.34	44.486
389.70	44.078
390.06	43.813
390.42	44.394
390.77	44.202
391.13	44.508
391.49	42.948
391.85	43.387
392.20	44.799
392.56	44.127
392.92	43.593
393.28	43.637
393.64	44.954
393.99	43.268
394.35	43.025
394.71	44.167
395.07	42.704
395.42	43.693
395.78	43.436
396.14	44.071
396.50	44.134
396.85	43.531
397.21	43.508
397.57	42.671
397.92	43.772
398.28	43.542
398.64	43.594
399.00	43.415
399.35	43.190
399.71	43.797
400.07	43.675
400.42	43.009
400.78	42.477
401.14	42.735
401.49	42.241
401.85	43.857
402.21	43.220
402.57	41.937
402.92	43.116
403.28	42.339
403.63	42.591
403.99	42.354
404.35	42.706
404.70	42.175
405.06	42.689
405.42	41.080
405.77	42.108
406.13	41.657
406.49	42.061
406.84	42.430
407.20	42.629
407.55	42.078
407.91	41.628
408.27	41.485
408.62	43.033
408.98	41.554
409.34	41.275
409.69	41.910
410.05	41.729
410.40	41.935
410.76	41.396
411.11	42.102
411.47	42.269
411.83	41.173
412.18	41.625
412.54	41.228
412.89	40.815
413.25	41.239
413.60	41.567
413.96	40.824
414.31	41.307
414.67	41.524
415.03	41.137
415.38	40.753
415.74	41.131
416.09	41.573
416.45	41.012
416.80	42.081
417.16	41.093
417.51	41.862
417.87	41.005
418.22	40.336
418.58	39.947
418.93	40.866
419.29	40.660
419.64	40.204
420.00	42.540
420.35	40.885
420.71	40.098
421.06	40.098
421.42	40.998
421.77	41.214
422.12	40.000
422.48	39.804
422.83	40.579
423.19	40.541
423.54	41.932
423.90	42.043
424.25	40.555
424.61	40.727
424.96	39.858
425.31	40.830
425.67	39.859
426.02	41.814
426.38	40.734
426.73	40.929
427.09	40.963
427.44	40.752
427.79	40.380
428.15	40.979
428.50	39.033
428.85	40.590
429.21	40.574
429.56	40.011
429.92	40.656
430.27	40.542
430.62	40.504
430.98	40.508
431.33	41.107
431.68	40.788
432.04	40.394
432.39	39.550
432.74	39.608
433.10	40.848
433.45	40.710
433.80	39.828
434.16	39.978
434.51	40.598
434.86	40.106
435.22	40.351
435.57	40.049
435.92	41.013
436.28	39.640
436.63	39.954
436.98	40.364
437.34	41.392
437.69	40.083
438.04	39.445
438.39	39.477
438.75	40.346
439.10	41.932
439.45	39.649
439.81	39.717
440.16	40.116
440.51	39.180
440.86	40.249
441.22	39.874
441.57	39.696
441.92	40.332
442.27	39.177
442.63	39.343
442.98	39.931
443.33	39.503
443.68	39.431
444.03	39.245
444.39	39.613
444.74	38.432
445.09	39.758
445.44	39.887
445.79	39.959
446.15	39.933
446.50	40.033
446.85	40.246
447.20	40.565
447.55	40.179
447.91	38.371
448.26	39.680
448.61	39.988
448.96	39.009
449.31	40.263
449.66	39.213
450.02	40.250
450.37	40.776
450.72	38.806
451.07	39.812
451.42	38.740
451.77	39.014
452.12	38.740
452.47	39.638
452.83	40.094
453.18	39.975
453.53	39.092
453.88	39.337
454.23	39.617
454.58	38.419
454.93	39.384
455.28	39.563
455.63	38.116
455.98	39.501
456.34	38.843
456.69	38.722
457.04	38.824
457.39	39.447
457.74	38.719
458.09	39.159
458.44	38.778
458.79	38.990
459.14	38.202
459.49	39.024
459.84	38.388
460.19	38.355
460.54	40.389
460.89	38.908
461.24	38.594
461.59	38.527
461.94	38.306
462.29	38.909
462.64	37.599
462.99	38.229
463.34	39.710
463.69	38.595
464.04	37.395
464.39	37.340
464.74	37.408
465.09	38.748
465.44	38.328
465.79	38.585
466.14	38.483
466.49	38.240
466.84	38.195
467.19	38.599
467.54	37.654
467.89	37.775
468.24	39.152
468.59	38.241
468.94	38.506
469.29	38.070
469.64	37.517
469.99	38.483
470.34	37.289
470.68	36.803
471.03	37.729
471.38	37.483
471.73	36.488
472.08	38.351
472.43	37.005
472.78	37.999
473.13	36.214
473.48	36.399
473.83	36.911
474.17	38.607
474.52	36.958
474.87	37.214
475.22	37.017
475.57	37.646
475.92	37.732
476.27	37.121
476.61	36.523
476.96	38.435
477.31	36.516
477.66	37.684
478.01	35.824
478.36	36.349
478.70	35.553
479.05	37.569
479.40	36.817
479.75	37.194
480.10	37.634
480.45	36.881
480.79	36.585
481.14	37.335
481.49	37.790
481.84	36.993
482.19	36.406
482.53	36.333
482.88	36.337
483.23	35.419
483.58	36.531
483.92	35.798
484.27	35.865
484.62	35.686
484.97	36.665
485.31	36.140
485.66	36.316
486.01	37.011
486.36	37.101
486.70	37.429
487.05	37.161
487.40	37.073
487.75	37.554
488.09	36.128
488.44	36.558
488.79	36.071
489.13	35.348
489.48	35.956
489.83	35.552
490.17	35.089
490.52	36.466
490.87	34.631
491.22	35.657
491.56	35.649
491.91	35.382
492.26	36.122
492.60	34.921
492.95	35.666
493.30	34.690
493.64	34.868
493.99	34.783
494.34	34.538
494.68	35.227
495.03	33.992
495.37	35.474
495.72	34.486
496.07	35.412
496.41	35.096
496.76	35.695
497.11	35.305
497.45	35.117
497.80	35.285
498.14	35.013
498.49	34.544
498.84	34.312
499.18	33.848
499.53	34.564
499.87	32.800
500.22	34.495
500.56	34.955
500.91	34.759
501.26	34.039
501.60	34.314
501.95	33.972
502.29	34.320
502.64	34.282
502.98	33.671
503.33	34.355
503.67	34.275
504.02	34.559
504.36	33.928
504.71	33.587
505.06	35.303
505.40	33.608
505.75	34.130
506.09	33.214
506.44	33.972
506.78	34.129
507.13	33.108
507.47	33.828
507.82	33.490
508.16	33.720
508.51	32.645
508.85	32.348
509.19	33.122
509.54	33.458
509.88	33.280
510.23	32.789
510.57	32.733
510.92	33.244
511.26	33.553
511.61	32.986
511.95	32.690
512.30	32.537
512.64	32.747
512.98	32.632
513.33	32.620
513.67	31.857
514.02	32.440
514.36	32.865
514.70	31.928
515.05	32.300
515.39	32.134
515.74	32.386
516.08	30.914
516.42	31.740
516.77	31.166
517.11	33.275
517.46	32.893
517.80	33.111
518.14	31.843
518.49	31.826
518.83	31.802
519.17	31.084
519.52	31.544
519.86	32.726
520.20	31.959
520.55	30.535
520.89	30.740
521.23	32.500
521.58	31.353
521.92	31.427
522.26	31.100
522.61	30.511
522.95	31.347
523.29	31.302
523.64	31.341
523.98	30.813
524.32	30.561
524.66	30.844
525.01	31.651
525.35	31.336
525.69	31.146
526.04	30.098
526.38	31.358
526.72	30.901
527.06	30.239
527.41	30.113
527.75	29.172
528.09	30.701
528.43	32.090
528.78	29.780
529.12	31.177
529.46	30.774
529.80	30.421
530.15	29.858
530.49	31.604
530.83	30.806
531.17	31.027
531.51	30.074
531.86	30.352
532.20	30.117
532.54	29.310
532.88	30.769
533.22	30.707
533.57	30.993
533.91	31.032
534.25	30.794
534.59	30.309
534.93	29.592
535.27	30.764
535.62	30.395
535.96	30.059
536.30	31.184
536.64	29.733
536.98	29.643
537.32	29.537
537.66	29.831
538.01	28.779
538.35	30.387
538.69	28.696
539.03	29.664
539.37	30.047
539.71	29.468
540.05	29.217
540.39	29.663
540.73	29.330
541.07	29.660
541.42	29.630
541.76	29.026
542.10	29.384
542.44	29.314
542.78	30.257
543.12	30.189
543.46	28.887
543.80	29.396
544.14	29.387
544.48	28.600
544.82	29.254
545.16	28.600
545.50	29.169
545.84	29.243
546.18	28.822
546.52	28.440
546.86	28.551
547.20	28.520
547.54	28.234
547.88	29.352
548.22	28.404
548.56	28.419
548.90	29.364
549.24	28.542
549.58	27.402
549.92	29.420
550.26	29.373
550.60	28.303
550.94	27.761
551.28	27.782
551.62	29.398
551.96	28.404
552.30	28.967
552.64	28.390
552.98	29.474
553.32	27.686
553.66	28.173
554.00	28.438
554.34	27.326
554.68	28.262
555.02	28.069
555.36	27.912
555.69	28.696
556.03	27.877
556.37	28.023
556.71	27.751
557.05	27.528
557.39	27.581
557.73	28.517
558.07	27.506
558.41	27.252
558.75	27.945
559.08	27.185
559.42	27.695
559.76	26.606
560.10	27.287
560.44	28.814
560.78	27.626
561.12	28.031
561.45	27.347
561.79	27.992
562.13	28.270
562.47	27.643
562.81	27.850
563.15	27.266
563.48	27.598
563.82	28.181
564.16	28.504
564.50	27.476
564.84	28.514
565.17	28.278
565.51	27.607
565.85	27.249
566.19	27.815
566.52	27.457
566.86	26.865
567.20	28.161
567.54	27.116
567.88	27.380
568.21	28.191
568.55	28.430
568.89	28.415
569.23	28.689
569.56	29.078
569.90	29.064
570.24	27.870
570.57	29.069
570.91	29.261
571.25	28.981
571.59	29.525
571.92	30.009
572.26	30.146
572.60	30.028
572.93	29.709
573.27	28.849
573.61	29.773
573.95	29.535
574.28	29.080
574.62	29.524
574.96	29.355
575.29	29.614
575.63	29.399
575.97	29.457
576.30	29.570
576.64	29.500
576.98	29.919
577.31	29.535
577.65	28.960
577.98	29.402
578.32	29.689
578.66	29.748
578.99	29.155
579.33	29.360
579.67	29.328
580.00	28.894
580.34	29.229
580.67	29.275
581.01	29.198
581.35	30.119
581.68	29.491
582.02	30.072
582.35	29.915
582.69	29.643
583.02	29.382
583.36	29.164
583.70	29.330
584.03	28.930
584.37	28.825
584.70	28.762
585.04	29.380
585.37	29.356
585.71	29.378
586.04	29.148
586.38	28.940
586.72	28.547
587.05	29.357
587.39	29.242
587.72	29.255
588.06	28.700
588.39	29.135
588.73	28.941
589.06	28.936
589.40	27.933
589.73	28.135
590.07	28.691
590.40	28.285
590.73	28.768
591.07	28.165
591.40	28.043
591.74	28.235
592.07	28.115
592.41	28.228
592.74	28.819
593.08	28.376
593.41	28.773
593.75	28.456
594.08	28.152
594.41	28.044
594.75	28.411
595.08	28.603
595.42	28.346
595.75	28.127
596.09	28.214
596.42	28.064
596.75	27.293
597.09	28.207
597.42	28.757
597.75	27.822
598.09	28.415
598.42	27.964
598.76	28.505
599.09	28.291
599.42	28.512
599.76	28.952
600.09	28.614
600.42	28.249
600.76	28.271
601.09	28.512
601.42	28.342
601.76	28.456
602.09	28.942
602.42	28.395
602.76	28.565
603.09	29.076
603.42	28.389
603.76	27.007
604.09	28.063
604.42	27.417
604.76	28.285
605.09	27.685
605.42	28.250
605.75	27.495
606.09	27.483
606.42	27.889
606.75	27.662
607.09	28.236
607.42	28.152
607.75	26.521
608.08	28.269
608.42	26.710
608.75	27.998
609.08	27.585
609.41	27.620
609.75	26.576
610.08	27.219
610.41	28.037
610.74	27.141
611.07	26.653
611.41	28.096
611.74	27.329
612.07	26.159
612.40	27.568
612.73	26.729
613.07	26.663
613.40	27.478
613.73	28.115
614.06	26.423
614.39	26.737
614.72	27.818
615.06	27.222
615.39	27.042
615.72	26.350
616.05	26.745
616.38	26.747
616.71	25.495
617.05	27.211
617.38	26.186
617.71	26.716
618.04	26.447
618.37	26.562
618.70	26.973
619.03	25.773
619.36	26.477
619.69	24.415
620.03	25.159
620.36	25.678
620.69	25.125
621.02	25.615
621.35	24.285
621.68	24.287
622.01	25.243
622.34	25.852
622.67	26.468
623.00	26.900
623.33	25.954
623.66	25.874
623.99	26.332
624.32	25.605
624.65	25.445
624.99	25.569
625.32	26.288
625.65	25.659
625.98	25.750
626.31	25.306
626.64	24.420
626.97	25.346
627.30	24.636
627.63	24.827
627.96	23.810
628.29	25.395
628.62	25.725
628.95	23.347
629.28	23.744
629.61	25.550
629.94	24.371
630.26	24.729
630.59	23.976
630.92	24.900
631.25	22.863
631.58	25.161
631.91	23.012
632.24	24.259
632.57	23.444
