SpectraSuite Data File
++++++++++++++++++++++++++++++++++++
Date: Wed May 13 21:13:30 PDT 2015
User: schluterlab
Dark Spectrum Present: Yes
Reference Spectrum Present: Yes
Number of Sampled Component Spectra: 1
Spectrometers: USB2E3373
Integration Time (usec): 3000 (USB2E3373)
Spectra Averaged: 3 (USB2E3373)
Boxcar Smoothing: 0 (USB2E3373)
Correct for Electrical Dark: No (USB2E3373)
Strobe/Lamp Enabled: No (USB2E3373)
Correct for Detector Non-linearity: No (USB2E3373)
Correct for Stray Light: No (USB2E3373)
Number of Pixels in Processed Spectrum: 2048
>>>>>Begin Processed Spectral Data<<<<<
178.53	0.000
178.91	350.000
179.29	233.333
179.67	-950.000
180.04	-600.000
180.42	280.000
180.80	1500.000
181.18	283.333
181.56	-475.000
181.94	-325.000
182.31	-18.182
182.69	138.462
183.07	-120.000
183.45	200.000
183.83	200.000
184.20	71.429
184.58	-200.000
184.96	233.333
185.34	214.286
185.72	0.000
186.09	-1000.000
186.47	-300.000
186.85	80.000
187.23	-700.000
187.61	600.000
187.98	900.000
188.36	-62.500
188.74	0.000
189.12	-72.727
189.49	-10.000
189.87	133.333
190.25	340.000
190.63	1100.000
191.00	-200.000
191.38	380.000
191.76	400.000
192.14	216.667
192.51	-21.053
192.89	466.667
193.27	250.000
193.65	-280.000
194.02	181.818
194.40	170.000
194.78	-800.000
195.15	340.000
195.53	-400.000
195.91	25.000
196.29	66.667
196.66	0.000
197.04	750.000
197.42	60.000
197.79	-60.000
198.17	-87.500
198.55	-300.000
198.92	350.000
199.30	-500.000
199.68	-60.000
200.05	400.000
200.43	183.333
200.81	-300.000
201.18	-400.000
201.56	-83.333
201.94	700.000
202.31	17.391
202.69	-14.286
203.07	-466.667
203.44	-280.000
203.82	-333.333
204.19	-40.000
204.57	0.000
204.95	-66.667
205.32	0.000
205.70	-150.000
206.08	-300.000
206.45	-250.000
206.83	550.000
207.20	-233.333
207.58	-40.000
207.96	-1500.000
208.33	-271.429
208.71	-1200.000
209.08	262.500
209.46	475.000
209.84	0.000
210.21	150.000
210.59	2100.000
210.96	260.000
211.34	1100.000
211.71	-500.000
212.09	-133.333
212.46	-60.000
212.84	-66.667
213.22	25.000
213.59	-800.000
213.97	-550.000
214.34	-850.000
214.72	-84.615
215.09	275.000
215.47	222.222
215.84	900.000
216.22	-175.000
216.59	-250.000
216.97	633.333
217.34	155.556
217.72	0.000
218.09	200.000
218.47	-600.000
218.84	-114.286
219.22	-50.000
219.59	-266.667
219.97	-200.000
220.34	-25.000
220.72	-300.000
221.09	0.000
221.47	-416.667
221.84	-600.000
222.22	0.000
222.59	900.000
222.97	33.333
223.34	-75.000
223.72	-200.000
224.09	-450.000
224.46	-145.455
224.84	-12.500
225.21	-114.286
225.59	-225.000
225.96	16.667
226.34	-60.000
226.71	-228.571
227.08	250.000
227.46	-62.500
227.83	-400.000
228.21	0.000
228.58	-275.000
228.95	-64.706
229.33	0.000
229.70	-150.000
230.08	-53.846
230.45	-137.500
230.82	-41.667
231.20	257.143
231.57	-350.000
231.95	600.000
232.32	16.667
232.69	-11.765
233.07	-800.000
233.44	0.000
233.81	-850.000
234.19	0.000
234.56	-80.000
234.93	-13.333
235.31	21.053
235.68	-153.846
236.05	-69.231
236.43	-16.667
236.80	-9.091
237.17	-86.667
237.55	-11.765
237.92	-48.276
238.29	0.000
238.67	0.000
239.04	-9.677
239.41	-2.128
239.79	17.021
240.16	11.628
240.53	14.286
240.91	19.643
241.28	10.714
241.65	12.903
242.02	9.211
242.40	34.783
242.77	-8.696
243.14	-5.128
243.51	17.021
243.89	12.500
244.26	26.415
244.63	6.731
245.00	10.417
245.38	7.563
245.75	9.016
246.12	16.541
246.49	13.008
246.87	6.723
247.24	25.000
247.61	18.543
247.98	18.590
248.36	17.160
248.73	14.045
249.10	18.182
249.47	17.742
249.84	15.789
250.22	16.418
250.59	21.028
250.96	22.727
251.33	11.962
251.70	20.084
252.08	20.502
252.45	24.280
252.82	19.392
253.19	20.233
253.56	18.345
253.94	22.776
254.31	19.366
254.68	20.470
255.05	21.122
255.42	22.378
255.79	22.086
256.16	20.505
256.54	20.952
256.91	17.722
257.28	22.956
257.65	20.064
258.02	22.287
258.39	21.345
258.76	19.477
259.14	18.750
259.51	19.663
259.88	20.596
260.25	21.111
260.62	20.225
260.99	20.690
261.36	20.466
261.73	20.741
262.10	21.374
262.47	19.012
262.85	20.149
263.22	22.308
263.59	20.519
263.96	22.384
264.33	21.875
264.70	23.721
265.07	22.917
265.44	22.989
265.81	20.824
266.18	18.223
266.55	19.214
266.92	19.492
267.29	20.782
267.66	23.992
268.03	22.840
268.40	20.551
268.77	22.107
269.14	22.449
269.51	24.025
269.88	18.126
270.25	22.669
270.62	19.262
270.99	22.835
271.36	23.810
271.73	21.687
272.10	20.190
272.47	20.921
272.84	21.063
273.21	21.918
273.58	22.336
273.95	21.698
274.32	22.575
274.69	20.583
275.06	23.145
275.43	22.411
275.80	21.277
276.17	20.074
276.54	21.670
276.91	17.247
277.28	20.578
277.65	20.280
278.02	21.964
278.39	19.183
278.76	20.736
279.13	22.470
279.50	20.862
279.87	20.471
280.23	21.982
280.60	20.069
280.97	20.292
281.34	25.079
281.71	20.650
282.08	20.513
282.45	19.508
282.82	21.086
283.19	20.884
283.56	21.719
283.92	20.795
284.29	20.749
284.66	21.252
285.03	19.544
285.40	19.940
285.77	20.270
286.14	19.453
286.51	22.939
286.87	20.462
287.24	19.027
287.61	20.331
287.98	19.118
288.35	18.927
288.72	18.938
289.08	18.946
289.45	19.383
289.82	21.180
290.19	18.093
290.56	18.608
290.93	19.061
291.29	20.109
291.66	17.623
292.03	20.572
292.40	19.919
292.77	18.340
293.13	19.247
293.50	16.863
293.87	18.000
294.24	19.841
294.60	18.596
294.97	18.386
295.34	17.810
295.71	15.900
296.08	15.838
296.44	16.071
296.81	16.565
297.18	17.125
297.55	18.986
297.91	16.273
298.28	17.918
298.65	16.502
299.02	17.094
299.38	16.074
299.75	17.067
300.12	16.744
300.48	17.076
300.85	16.513
301.22	16.957
301.59	15.845
301.95	15.796
302.32	15.053
302.69	15.706
303.05	15.725
303.42	15.227
303.79	17.455
304.15	16.210
304.52	17.097
304.89	15.725
305.25	15.368
305.62	16.269
305.99	18.172
306.35	16.823
306.72	16.887
307.09	15.641
307.45	15.442
307.82	16.737
308.19	14.525
308.55	15.251
308.92	16.699
309.29	15.816
309.65	14.685
310.02	16.799
310.38	16.768
310.75	15.976
311.12	15.646
311.48	16.222
311.85	15.748
312.22	16.925
312.58	16.425
312.95	16.617
313.31	16.896
313.68	17.939
314.05	15.974
314.41	18.060
314.78	17.078
315.14	16.574
315.51	17.031
315.87	18.258
316.24	17.998
316.61	17.808
316.97	18.333
317.34	17.112
317.70	17.930
318.07	19.698
318.43	18.970
318.80	19.459
319.16	19.540
319.53	19.444
319.89	18.790
320.26	20.795
320.62	20.389
320.99	19.961
321.35	21.048
321.72	21.367
322.08	23.063
322.45	22.387
322.81	23.383
323.18	22.809
323.54	24.278
323.91	24.210
324.27	25.203
324.64	23.693
325.00	25.459
325.37	26.451
325.73	24.663
326.10	27.586
326.46	27.341
326.83	27.832
327.19	28.780
327.56	29.170
327.92	29.686
328.29	30.801
328.65	31.025
329.01	30.079
329.38	32.348
329.74	31.674
330.11	31.921
330.47	32.205
330.84	32.852
331.20	33.817
331.56	34.420
331.93	33.936
332.29	35.361
332.66	33.559
333.02	34.318
333.38	35.175
333.75	35.068
334.11	35.069
334.48	36.617
334.84	34.011
335.20	35.163
335.57	35.683
335.93	34.536
336.29	34.151
336.66	35.214
337.02	35.652
337.38	35.596
337.75	35.831
338.11	35.611
338.47	35.616
338.84	36.942
339.20	36.508
339.56	35.410
339.93	36.560
340.29	36.465
340.65	36.612
341.02	36.273
341.38	36.402
341.74	35.714
342.11	36.168
342.47	36.569
342.83	36.601
343.20	36.294
343.56	38.185
343.92	36.149
344.28	36.769
344.65	37.143
345.01	37.530
345.37	36.842
345.73	38.317
346.10	38.363
346.46	36.585
346.82	38.604
347.19	38.291
347.55	38.772
347.91	37.958
348.27	38.801
348.63	38.381
349.00	38.601
349.36	39.403
349.72	38.979
350.08	39.548
350.45	38.215
350.81	39.124
351.17	39.184
351.53	38.649
351.89	38.205
352.26	39.073
352.62	39.612
352.98	38.578
353.34	39.775
353.70	38.629
354.07	39.373
354.43	38.569
354.79	39.984
355.15	39.519
355.51	39.408
355.87	39.953
356.24	39.165
356.60	38.702
356.96	40.215
357.32	41.176
357.68	40.183
358.04	39.566
358.40	41.008
358.77	40.673
359.13	41.556
359.49	41.635
359.85	40.788
360.21	41.635
360.57	41.597
360.93	41.730
361.29	42.191
361.66	41.989
362.02	41.290
362.38	41.285
362.74	42.132
363.10	42.516
363.46	41.282
363.82	42.720
364.18	42.495
364.54	42.524
364.90	42.369
365.26	41.472
365.62	43.963
365.98	42.206
366.35	42.908
366.71	42.439
367.07	43.019
367.43	44.111
367.79	44.058
368.15	44.093
368.51	42.897
368.87	44.173
369.23	45.196
369.59	43.340
369.95	44.267
370.31	44.840
370.67	44.316
371.03	45.954
371.39	45.706
371.75	45.857
372.11	45.014
372.47	44.773
372.83	45.215
373.19	44.820
373.55	45.303
373.91	46.535
374.27	46.196
374.63	47.013
374.99	46.309
375.35	46.918
375.71	46.739
376.07	47.430
376.42	47.326
376.78	48.151
377.14	48.271
377.50	46.871
377.86	48.938
378.22	47.724
378.58	48.108
378.94	49.438
379.30	49.094
379.66	48.027
380.02	48.346
380.38	48.434
380.74	48.894
381.09	48.552
381.45	48.609
381.81	49.107
382.17	49.275
382.53	48.800
382.89	50.724
383.25	49.568
383.61	50.545
383.97	49.937
384.32	50.410
384.68	51.511
385.04	49.908
385.40	50.934
385.76	50.365
386.12	51.711
386.48	51.223
386.83	51.439
387.19	51.511
387.55	51.870
387.91	53.137
388.27	52.466
388.62	51.498
388.98	52.753
389.34	52.256
389.70	52.015
390.06	52.625
390.42	52.191
390.77	53.748
391.13	53.788
391.49	52.815
391.85	52.332
392.20	52.068
392.56	54.794
392.92	53.482
393.28	54.213
393.64	54.801
393.99	51.958
394.35	53.951
394.71	54.231
395.07	52.013
395.42	53.626
395.78	53.990
396.14	54.914
396.50	54.851
396.85	56.150
397.21	54.057
397.57	54.286
397.92	53.174
398.28	54.315
398.64	55.191
399.00	54.688
399.35	56.243
399.71	56.377
400.07	55.723
400.42	56.614
400.78	55.166
401.14	56.223
401.49	55.842
401.85	55.160
402.21	56.904
402.57	56.652
402.92	55.257
403.28	56.348
403.63	56.231
403.99	57.774
404.35	56.484
404.70	56.073
405.06	56.547
405.42	56.721
405.77	55.991
406.13	55.943
406.49	55.842
406.84	56.838
407.20	56.720
407.55	57.987
407.91	57.114
408.27	54.835
408.62	56.967
408.98	57.090
409.34	56.931
409.69	58.155
410.05	56.405
410.40	56.360
410.76	57.461
411.11	57.338
411.47	59.589
411.83	57.268
412.18	58.375
412.54	57.644
412.89	56.865
413.25	55.221
413.60	57.743
413.96	57.678
414.31	57.830
414.67	57.016
415.03	59.134
415.38	56.737
415.74	58.674
416.09	59.088
416.45	59.535
416.80	58.255
417.16	57.962
417.51	59.344
417.87	58.598
418.22	59.858
418.58	59.855
418.93	59.385
419.29	59.538
419.64	58.206
420.00	59.683
420.35	59.235
420.71	58.927
421.06	59.594
421.42	60.219
421.77	58.266
422.12	58.968
422.48	58.833
422.83	59.421
423.19	58.712
423.54	60.424
423.90	59.679
424.25	59.619
424.61	59.704
424.96	59.846
425.31	58.777
425.67	59.906
426.02	61.190
426.38	61.381
426.73	61.332
427.09	59.475
427.44	59.836
427.79	61.105
428.15	60.183
428.50	60.483
428.85	60.763
429.21	59.764
429.56	60.627
429.92	60.437
430.27	60.225
430.62	61.333
430.98	60.286
431.33	60.881
431.68	60.383
432.04	62.085
432.39	60.855
432.74	60.822
433.10	61.360
433.45	61.183
433.80	60.517
434.16	61.169
434.51	61.033
434.86	62.426
435.22	61.121
435.57	60.995
435.92	61.339
436.28	63.063
436.63	61.201
436.98	61.692
437.34	62.149
437.69	62.043
438.04	60.555
438.39	63.014
438.75	61.561
439.10	62.580
439.45	61.804
439.81	62.623
440.16	61.623
440.51	62.247
440.86	61.114
441.22	61.675
441.57	61.714
441.92	61.742
442.27	60.660
442.63	60.441
442.98	62.442
443.33	61.851
443.68	60.358
444.03	61.500
444.39	62.122
444.74	61.071
445.09	61.123
445.44	61.465
445.79	62.932
446.15	62.063
446.50	61.344
446.85	62.266
447.20	62.154
447.55	61.947
447.91	60.955
448.26	62.550
448.61	61.795
448.96	61.105
449.31	62.307
449.66	62.290
450.02	61.569
450.37	62.985
450.72	61.883
451.07	63.448
451.42	61.634
451.77	62.751
452.12	60.606
452.47	62.556
452.83	62.382
453.18	62.317
453.53	62.926
453.88	62.048
454.23	62.546
454.58	62.377
454.93	62.668
455.28	61.785
455.63	62.445
455.98	62.325
456.34	62.810
456.69	63.834
457.04	61.424
457.39	61.936
457.74	61.281
458.09	62.737
458.44	62.573
458.79	60.956
459.14	59.944
459.49	63.415
459.84	60.879
460.19	61.465
460.54	62.105
460.89	61.768
461.24	60.666
461.59	62.319
461.94	61.315
462.29	62.377
462.64	61.544
462.99	61.704
463.34	62.569
463.69	60.760
464.04	60.924
464.39	61.379
464.74	60.012
465.09	59.888
465.44	60.157
465.79	61.645
466.14	60.205
466.49	61.584
466.84	60.550
467.19	60.510
467.54	60.985
467.89	61.785
468.24	61.463
468.59	60.803
468.94	60.600
469.29	60.212
469.64	62.204
469.99	62.483
470.34	61.160
470.68	60.818
471.03	61.566
471.38	60.431
471.73	61.043
472.08	62.612
472.43	63.456
472.78	60.784
473.13	59.169
473.48	59.622
473.83	60.891
474.17	61.523
474.52	61.683
474.87	59.831
475.22	60.930
475.57	60.011
475.92	60.523
476.27	60.548
476.61	60.193
476.96	59.909
477.31	59.331
477.66	59.209
478.01	58.736
478.36	61.144
478.70	60.634
479.05	59.767
479.40	59.594
479.75	59.936
480.10	59.765
480.45	58.656
480.79	59.632
481.14	61.145
481.49	59.743
481.84	58.435
482.19	58.731
482.53	59.762
482.88	60.163
483.23	58.951
483.58	59.263
483.92	58.998
484.27	58.463
484.62	58.633
484.97	58.565
485.31	56.547
485.66	53.983
486.01	54.079
486.36	54.311
486.70	55.857
487.05	56.844
487.40	56.963
487.75	57.594
488.09	56.866
488.44	57.168
488.79	58.365
489.13	57.893
489.48	58.187
489.83	57.972
490.17	58.738
490.52	58.953
490.87	57.441
491.22	58.267
491.56	59.559
491.91	57.801
492.26	60.106
492.60	58.153
492.95	59.427
493.30	58.188
493.64	58.993
493.99	59.469
494.34	58.333
494.68	58.616
495.03	58.893
495.37	58.540
495.72	58.396
496.07	60.010
496.41	57.370
496.76	58.501
497.11	58.920
497.45	58.901
497.80	60.172
498.14	57.935
498.49	57.943
498.84	58.148
499.18	57.790
499.53	57.262
499.87	57.496
500.22	59.134
500.56	57.823
500.91	58.803
501.26	58.522
501.60	57.500
501.95	57.499
502.29	57.913
502.64	58.341
502.98	57.274
503.33	58.345
503.67	58.033
504.02	57.206
504.36	57.801
504.71	58.486
505.06	59.348
505.40	57.423
505.75	58.037
506.09	58.355
506.44	57.712
506.78	57.897
507.13	57.588
507.47	58.165
507.82	57.928
508.16	57.573
508.51	57.541
508.85	57.543
509.19	57.407
509.54	57.909
509.88	58.118
510.23	57.474
510.57	57.256
510.92	57.920
511.26	58.636
511.61	58.178
511.95	59.151
512.30	58.634
512.64	57.548
512.98	56.898
513.33	57.239
513.67	57.694
514.02	58.039
514.36	56.966
514.70	57.968
515.05	59.099
515.39	59.021
515.74	59.088
516.08	58.820
516.42	57.200
516.77	58.231
517.11	59.788
517.46	59.004
517.80	58.838
518.14	58.604
518.49	57.866
518.83	58.353
519.17	57.590
519.52	58.082
519.86	58.591
520.20	57.611
520.55	57.960
520.89	59.519
521.23	60.064
521.58	58.597
521.92	58.140
522.26	58.165
522.61	58.759
522.95	59.909
523.29	57.270
523.64	57.978
523.98	58.132
524.32	58.223
524.66	59.286
525.01	60.223
525.35	58.723
525.69	58.449
526.04	58.241
526.38	58.126
526.72	58.251
527.06	57.834
527.41	58.703
527.75	57.677
528.09	59.632
528.43	59.905
528.78	58.204
529.12	59.250
529.46	58.669
529.80	57.735
530.15	56.628
530.49	59.838
530.83	58.429
531.17	59.452
531.51	58.058
531.86	57.317
532.20	58.925
532.54	57.034
532.88	58.203
533.22	56.700
533.57	57.881
533.91	58.129
534.25	57.552
534.59	56.757
534.93	56.059
535.27	57.006
535.62	58.355
535.96	57.710
536.30	58.444
536.64	56.596
536.98	57.323
537.32	58.149
537.66	58.181
538.01	56.033
538.35	57.390
538.69	55.385
539.03	55.570
539.37	56.942
539.71	56.685
540.05	55.533
540.39	56.022
540.73	58.380
541.07	56.395
541.42	57.239
541.76	55.683
542.10	54.976
542.44	56.272
542.78	57.252
543.12	56.065
543.46	55.771
543.80	55.261
544.14	57.811
544.48	54.479
544.82	54.876
545.16	56.457
545.50	55.773
545.84	55.820
546.18	55.750
546.52	54.058
546.86	56.537
547.20	55.826
547.54	56.183
547.88	54.858
548.22	54.593
548.56	54.436
548.90	55.413
549.24	56.667
549.58	56.014
549.92	57.153
550.26	57.565
550.60	56.982
550.94	55.896
551.28	55.413
551.62	56.391
551.96	54.758
552.30	56.332
552.64	55.226
552.98	56.960
553.32	55.083
553.66	56.126
554.00	56.731
554.34	55.311
554.68	56.078
555.02	55.389
555.36	56.430
555.69	55.790
556.03	54.610
556.37	55.761
556.71	54.029
557.05	55.572
557.39	55.539
557.73	56.354
558.07	54.861
558.41	55.942
558.75	55.812
559.08	55.814
559.42	55.389
559.76	54.740
560.10	55.111
560.44	55.048
560.78	54.245
561.12	55.011
561.45	53.946
561.79	54.952
562.13	54.360
562.47	55.643
562.81	55.195
563.15	53.895
563.48	52.856
563.82	53.420
564.16	53.284
564.50	55.224
564.84	54.527
565.17	52.781
565.51	53.877
565.85	52.765
566.19	53.907
566.52	52.949
566.86	51.770
567.20	53.268
567.54	51.295
567.88	50.840
568.21	51.114
568.55	50.861
568.89	50.299
569.23	50.412
569.56	49.103
569.90	49.540
570.24	47.509
570.57	47.834
570.91	47.670
571.25	47.166
571.59	46.813
571.92	46.671
572.26	47.876
572.60	47.644
572.93	47.235
573.27	46.705
573.61	47.481
573.95	46.510
574.28	46.326
574.62	45.199
574.96	46.506
575.29	46.640
575.63	45.890
575.97	46.848
576.30	46.393
576.64	46.502
576.98	46.140
577.31	45.813
577.65	44.908
577.98	46.038
578.32	45.260
578.66	44.923
578.99	46.197
579.33	46.202
579.67	46.309
580.00	45.590
580.34	45.613
580.67	46.007
581.01	45.079
581.35	45.043
581.68	43.971
582.02	44.901
582.35	44.892
582.69	45.353
583.02	44.822
583.36	45.889
583.70	46.343
584.03	45.807
584.37	45.929
584.70	45.353
585.04	45.511
585.37	45.589
585.71	44.814
586.04	44.687
586.38	45.435
586.72	44.591
587.05	46.136
587.39	45.343
587.72	45.186
588.06	45.198
588.39	45.900
588.73	45.066
589.06	46.395
589.40	45.958
589.73	44.951
590.07	46.373
590.40	46.422
590.73	47.771
591.07	48.015
591.40	46.609
591.74	46.821
592.07	47.284
592.41	45.345
592.74	45.988
593.08	44.581
593.41	45.151
593.75	45.284
594.08	45.734
594.41	46.069
594.75	45.877
595.08	46.004
595.42	44.846
595.75	45.589
596.09	46.382
596.42	46.364
596.75	47.082
597.09	47.634
597.42	46.164
597.75	46.533
598.09	45.902
598.42	45.861
598.76	45.340
599.09	45.618
599.42	45.053
599.76	45.775
600.09	45.444
600.42	44.595
600.76	44.050
601.09	44.896
601.42	45.080
601.76	44.247
602.09	46.210
602.42	46.265
602.76	45.554
603.09	46.407
603.42	45.942
603.76	44.622
604.09	44.822
604.42	45.793
604.76	45.701
605.09	46.035
605.42	46.469
605.75	45.353
606.09	45.571
606.42	45.885
606.75	45.152
607.09	45.301
607.42	45.184
607.75	44.420
608.08	46.078
608.42	46.111
608.75	46.106
609.08	45.909
609.41	45.902
609.75	46.394
610.08	46.203
610.41	46.064
610.74	45.428
611.07	45.842
611.41	46.929
611.74	46.170
612.07	45.076
612.40	47.135
612.73	45.829
613.07	45.843
613.40	47.467
613.73	46.154
614.06	46.434
614.39	45.247
614.72	46.141
615.06	45.667
615.39	46.413
615.72	44.816
616.05	47.185
616.38	46.163
616.71	45.171
617.05	46.806
617.38	46.519
617.71	45.772
618.04	45.704
618.37	48.013
618.70	46.313
619.03	47.010
619.36	46.975
619.69	47.003
620.03	47.633
620.36	45.999
620.69	45.753
621.02	47.923
621.35	47.915
621.68	48.085
622.01	48.139
622.34	47.264
622.67	49.021
623.00	46.960
623.33	47.494
623.66	46.691
623.99	45.986
624.32	47.395
624.65	46.365
624.99	46.804
625.32	48.170
625.65	46.279
625.98	47.077
626.31	48.490
626.64	48.237
626.97	47.405
627.30	47.990
627.63	47.232
627.96	47.273
628.29	49.302
628.62	49.420
628.95	50.902
629.28	49.557
629.61	49.665
629.94	48.936
630.26	50.049
630.59	48.751
630.92	47.189
631.25	50.051
631.58	51.178
631.91	48.144
632.24	49.177
632.57	48.444
