SpectraSuite Data File
++++++++++++++++++++++++++++++++++++
Date: Wed May 13 21:33:14 PDT 2015
User: schluterlab
Dark Spectrum Present: Yes
Reference Spectrum Present: Yes
Number of Sampled Component Spectra: 1
Spectrometers: USB2E3373
Integration Time (usec): 3000 (USB2E3373)
Spectra Averaged: 3 (USB2E3373)
Boxcar Smoothing: 0 (USB2E3373)
Correct for Electrical Dark: No (USB2E3373)
Strobe/Lamp Enabled: No (USB2E3373)
Correct for Detector Non-linearity: No (USB2E3373)
Correct for Stray Light: No (USB2E3373)
Number of Pixels in Processed Spectrum: 2048
>>>>>Begin Processed Spectral Data<<<<<
178.53	0.000
178.91	850.000
179.29	250.000
179.67	-700.000
180.04	-666.667
180.42	220.000
180.80	1600.000
181.18	366.667
181.56	-550.000
181.94	-400.000
182.31	-72.727
182.69	161.538
183.07	-300.000
183.45	366.667
183.83	111.111
184.20	200.000
184.58	-333.333
184.96	466.667
185.34	285.714
185.72	0.000
186.09	-1600.000
186.47	-220.000
186.85	120.000
187.23	-650.000
187.61	1000.000
187.98	1000.000
188.36	-50.000
188.74	0.000
189.12	-118.182
189.49	10.000
189.87	133.333
190.25	260.000
190.63	1200.000
191.00	-280.000
191.38	360.000
191.76	450.000
192.14	216.667
192.51	-36.842
192.89	233.333
193.27	325.000
193.65	-240.000
194.02	227.273
194.40	210.000
194.78	-900.000
195.15	420.000
195.53	-220.000
195.91	-62.500
196.29	-333.333
196.66	0.000
197.04	800.000
197.42	-180.000
197.79	-140.000
198.17	-187.500
198.55	-266.667
198.92	275.000
199.30	-600.000
199.68	-10.000
200.05	100.000
200.43	300.000
200.81	-2400.000
201.18	-180.000
201.56	-133.333
201.94	600.000
202.31	-34.783
202.69	-71.429
203.07	-400.000
203.44	-340.000
203.82	-600.000
204.19	-20.000
204.57	0.000
204.95	-283.333
205.32	0.000
205.70	-750.000
206.08	-275.000
206.45	-233.333
206.83	425.000
207.20	-233.333
207.58	-120.000
207.96	-2100.000
208.33	-100.000
208.71	-300.000
209.08	187.500
209.46	525.000
209.84	0.000
210.21	50.000
210.59	2600.000
210.96	380.000
211.34	1800.000
211.71	-700.000
212.09	-250.000
212.46	-210.000
212.84	-233.333
213.22	0.000
213.59	-1000.000
213.97	-750.000
214.34	-800.000
214.72	-130.769
215.09	200.000
215.47	277.778
215.84	1000.000
216.22	-37.500
216.59	-100.000
216.97	900.000
217.34	222.222
217.72	0.000
218.09	233.333
218.47	100.000
218.84	-214.286
219.22	-175.000
219.59	-633.333
219.97	-275.000
220.34	-112.500
220.72	-180.000
221.09	0.000
221.47	-216.667
221.84	-1000.000
222.22	0.000
222.59	800.000
222.97	-300.000
223.34	-83.333
223.72	-1800.000
224.09	-1350.000
224.46	-136.364
224.84	-137.500
225.21	-114.286
225.59	-300.000
225.96	-116.667
226.34	-100.000
226.71	-314.286
227.08	700.000
227.46	-125.000
227.83	-1400.000
228.21	-43.750
228.58	-425.000
228.95	-64.706
229.33	-12.500
229.70	-162.500
230.08	-61.538
230.45	-225.000
230.82	-150.000
231.20	314.286
231.57	-325.000
231.95	1500.000
232.32	-8.333
232.69	-5.882
233.07	-1900.000
233.44	-65.217
233.81	-750.000
234.19	-20.833
234.56	-100.000
234.93	-93.333
235.31	-26.316
235.68	-130.769
236.05	-76.923
236.43	-66.667
236.80	-9.091
237.17	-66.667
237.55	-35.294
237.92	-17.241
238.29	-48.148
238.67	-19.444
239.04	-58.065
239.41	-38.298
239.79	-2.128
240.16	-18.605
240.53	-21.429
240.91	-5.357
241.28	-17.857
241.65	9.677
242.02	-5.263
242.40	-13.043
242.77	-24.638
243.14	0.000
243.51	-1.064
243.89	-8.654
244.26	22.642
244.63	-3.846
245.00	0.000
245.38	0.840
245.75	2.459
246.12	12.030
246.49	-4.878
246.87	-4.202
247.24	3.378
247.61	5.298
247.98	-2.564
248.36	0.000
248.73	3.371
249.10	4.545
249.47	1.613
249.84	6.842
250.22	4.975
250.59	8.879
250.96	8.636
251.33	0.478
251.70	10.879
252.08	8.368
252.45	12.346
252.82	11.787
253.19	11.284
253.56	6.475
253.94	13.167
254.31	5.634
254.68	12.752
255.05	8.251
255.42	6.294
255.79	10.429
256.16	11.672
256.54	7.302
256.91	7.278
257.28	8.176
257.65	5.096
258.02	12.023
258.39	7.018
258.76	9.884
259.14	7.955
259.51	7.584
259.88	10.027
260.25	9.167
260.62	8.427
260.99	11.141
261.36	9.845
261.73	8.395
262.10	12.214
262.47	10.123
262.85	7.960
263.22	9.231
263.59	7.013
263.96	10.219
264.33	6.731
264.70	7.209
265.07	10.417
265.44	11.034
265.81	8.696
266.18	8.656
266.55	8.734
266.92	10.805
267.29	10.288
267.66	9.554
268.03	11.317
268.40	8.686
268.77	9.711
269.14	8.980
269.51	12.731
269.88	8.147
270.25	10.805
270.62	10.041
270.99	10.433
271.36	11.905
271.73	8.434
272.10	11.048
272.47	9.021
272.84	12.402
273.21	9.198
273.58	9.426
273.95	10.000
274.32	11.007
274.69	9.836
275.06	10.777
275.43	9.981
275.80	11.525
276.17	7.551
276.54	9.591
276.91	9.233
277.28	8.303
277.65	11.014
278.02	12.500
278.39	9.591
278.76	11.204
279.13	9.262
279.50	10.000
279.87	8.152
280.23	9.550
280.60	10.381
280.97	10.227
281.34	9.779
281.71	8.293
282.08	10.256
282.45	10.656
282.82	10.543
283.19	11.433
283.56	8.750
283.92	9.327
284.29	11.388
284.66	10.544
285.03	7.655
285.40	8.610
285.77	9.760
286.14	10.942
286.51	10.345
286.87	8.923
287.24	10.767
287.61	9.789
287.98	8.971
288.35	7.452
288.72	10.617
289.08	11.396
289.45	8.370
289.82	9.380
290.19	9.537
290.56	8.523
290.93	8.011
291.29	9.166
291.66	8.880
292.03	8.719
292.40	9.556
292.77	9.103
293.13	8.089
293.50	10.588
293.87	8.400
294.24	7.804
294.60	9.883
294.97	11.111
295.34	8.839
295.71	8.279
296.08	7.853
296.44	8.163
296.81	8.283
297.18	8.875
297.55	9.198
297.91	9.441
298.28	8.596
298.65	8.251
299.02	8.669
299.38	7.362
299.75	8.053
300.12	7.674
300.48	8.538
300.85	9.007
301.22	7.782
301.59	8.568
301.95	7.782
302.32	8.751
302.69	6.667
303.05	7.641
303.42	8.068
303.79	10.200
304.15	8.324
304.52	8.172
304.89	7.973
305.25	6.476
305.62	8.243
305.99	7.726
306.35	8.673
306.72	7.630
307.09	9.802
307.45	7.455
307.82	6.421
308.19	7.001
308.55	6.960
308.92	9.234
309.29	7.508
309.65	7.093
310.02	8.946
310.38	7.724
310.75	6.607
311.12	7.969
311.48	7.319
311.85	7.382
312.22	9.768
312.58	6.860
312.95	6.866
313.31	8.632
313.68	7.538
314.05	8.129
314.41	8.646
314.78	8.159
315.14	8.148
315.51	8.088
315.87	6.951
316.24	8.448
316.61	7.945
316.97	8.148
317.34	7.754
317.70	8.564
318.07	8.607
318.43	8.401
318.80	7.679
319.16	7.162
319.53	7.706
319.89	8.220
320.26	7.579
320.62	7.507
320.99	6.880
321.35	7.764
321.72	7.218
322.08	8.672
322.45	8.881
322.81	7.948
323.18	8.587
323.54	8.303
323.91	9.304
324.27	7.291
324.64	8.362
325.00	7.962
325.37	8.106
325.73	9.091
326.10	7.906
326.46	7.943
326.83	8.333
327.19	8.618
327.56	10.073
327.92	8.769
328.29	8.598
328.65	9.027
329.01	8.091
329.38	9.217
329.74	8.841
330.11	8.296
330.47	8.247
330.84	7.671
331.20	8.796
331.56	8.605
331.93	8.872
332.29	8.862
332.66	8.220
333.02	9.383
333.38	8.596
333.75	8.106
334.11	9.549
334.48	8.370
334.84	7.509
335.20	10.120
335.57	8.181
335.93	7.474
336.29	7.268
336.66	8.205
337.02	8.609
337.38	8.181
337.75	9.475
338.11	7.942
338.47	7.962
338.84	8.763
339.20	7.937
339.56	8.362
339.93	8.816
340.29	9.052
340.65	7.956
341.02	8.153
341.38	8.615
341.74	7.479
342.11	8.836
342.47	8.117
342.83	8.415
343.20	8.037
343.56	8.013
343.92	9.098
344.28	7.792
344.65	7.184
345.01	7.990
345.37	8.717
345.73	8.824
346.10	8.587
346.46	8.943
346.82	7.143
347.19	8.782
347.55	9.208
347.91	7.716
348.27	7.965
348.63	8.413
349.00	8.255
349.36	7.849
349.72	8.275
350.08	8.112
350.45	8.066
350.81	8.998
351.17	8.391
351.53	7.777
351.89	8.817
352.26	7.104
352.62	8.682
352.98	8.307
353.34	8.535
353.70	8.333
354.07	8.706
354.43	8.087
354.79	7.051
355.15	8.307
355.51	8.200
355.87	7.662
356.24	7.705
356.60	7.115
356.96	8.058
357.32	8.204
357.68	8.098
358.04	8.534
358.40	7.907
358.77	7.645
359.13	7.860
359.49	7.721
359.85	7.657
360.21	7.556
360.57	8.517
360.93	8.270
361.29	8.216
361.66	7.213
362.02	7.709
362.38	9.084
362.74	7.542
363.10	7.954
363.46	7.565
363.82	7.834
364.18	7.977
364.54	8.315
364.90	7.526
365.26	7.360
365.62	6.960
365.98	7.758
366.35	8.014
366.71	7.061
367.07	7.654
367.43	8.014
367.79	7.853
368.15	7.876
368.51	7.736
368.87	8.234
369.23	8.327
369.59	6.977
369.95	7.547
370.31	7.322
370.67	7.024
371.03	8.537
371.39	7.949
371.75	7.214
372.11	8.262
372.47	7.787
372.83	7.906
373.19	7.554
373.55	7.659
373.91	8.133
374.27	6.916
374.63	7.397
374.99	6.894
375.35	7.055
375.71	6.929
376.07	8.362
376.42	8.155
376.78	7.001
377.14	7.186
377.50	8.735
377.86	7.968
378.22	8.028
378.58	7.881
378.94	8.687
379.30	7.683
379.66	8.508
380.02	7.782
380.38	8.313
380.74	8.368
381.09	7.057
381.45	7.920
381.81	6.901
382.17	6.868
382.53	7.692
382.89	7.720
383.25	7.099
383.61	8.475
383.97	8.125
384.32	7.940
384.68	7.588
385.04	6.536
385.40	7.347
385.76	8.151
386.12	7.101
386.48	7.712
386.83	7.697
387.19	6.601
387.55	8.461
387.91	8.303
388.27	7.213
388.62	7.990
388.98	7.572
389.34	7.832
389.70	7.814
390.06	7.500
390.42	8.054
390.77	7.816
391.13	7.955
391.49	7.337
391.85	7.476
392.20	7.268
392.56	7.683
392.92	7.958
393.28	7.612
393.64	6.911
393.99	7.160
394.35	7.654
394.71	7.372
395.07	7.044
395.42	7.617
395.78	6.950
396.14	7.990
396.50	7.229
396.85	8.668
397.21	7.928
397.57	7.516
397.92	8.323
398.28	8.122
398.64	7.590
399.00	8.482
399.35	7.548
399.71	7.804
400.07	7.771
400.42	6.771
400.78	8.218
401.14	7.787
401.49	7.130
401.85	7.310
402.21	7.678
402.57	8.645
402.92	8.135
403.28	7.567
403.63	7.812
403.99	7.742
404.35	7.980
404.70	7.432
405.06	8.514
405.42	7.726
405.77	7.373
406.13	7.543
406.49	7.609
406.84	8.242
407.20	7.697
407.55	7.468
407.91	7.346
408.27	6.925
408.62	8.717
408.98	8.385
409.34	7.921
409.69	8.382
410.05	8.147
410.40	7.304
410.76	8.424
411.11	8.147
411.47	8.626
411.83	7.174
412.18	7.620
412.54	8.083
412.89	8.025
413.25	7.434
413.60	7.586
413.96	8.240
414.31	7.645
414.67	7.746
415.03	6.563
415.38	7.530
415.74	7.212
416.09	8.328
416.45	8.476
416.80	8.658
417.16	8.030
417.51	7.435
417.87	7.738
418.22	7.886
418.58	7.622
418.93	7.407
419.29	8.119
419.64	8.524
420.00	8.444
420.35	8.069
420.71	7.313
421.06	8.856
421.42	8.455
421.77	8.497
422.12	8.252
422.48	8.070
422.83	8.624
423.19	7.648
423.54	8.127
423.90	7.957
424.25	8.146
424.61	7.702
424.96	7.865
425.31	8.357
425.67	8.172
426.02	9.305
426.38	8.022
426.73	8.552
427.09	8.068
427.44	8.984
427.79	8.076
428.15	7.829
428.50	8.399
428.85	9.041
429.21	7.034
429.56	8.502
429.92	8.641
430.27	8.129
430.62	8.342
430.98	8.778
431.33	8.598
431.68	8.466
432.04	8.507
432.39	7.621
432.74	8.522
433.10	7.728
433.45	9.112
433.80	8.506
434.16	7.974
434.51	8.098
434.86	7.774
435.22	8.376
435.57	9.152
435.92	7.660
436.28	7.568
436.63	8.256
436.98	8.461
437.34	7.387
437.69	8.146
438.04	8.036
438.39	8.593
438.75	8.284
439.10	8.618
439.45	8.475
439.81	9.483
440.16	8.348
440.51	8.086
440.86	8.477
441.22	8.376
441.57	8.460
441.92	7.517
442.27	8.387
442.63	8.073
442.98	8.275
443.33	8.352
443.68	7.644
444.03	8.048
444.39	8.875
444.74	8.007
445.09	9.086
445.44	9.127
445.79	8.776
446.15	8.763
446.50	8.866
446.85	8.391
447.20	8.521
447.55	8.842
447.91	8.034
448.26	8.576
448.61	8.861
448.96	8.827
449.31	8.509
449.66	8.965
450.02	9.153
450.37	8.813
450.72	8.037
451.07	8.966
451.42	7.735
451.77	8.825
452.12	9.329
452.47	8.974
452.83	7.724
453.18	8.530
453.53	8.323
453.88	8.373
454.23	9.209
454.58	9.191
454.93	9.044
455.28	9.120
455.63	7.985
455.98	8.338
456.34	8.964
456.69	9.137
457.04	8.793
457.39	8.960
457.74	8.498
458.09	9.005
458.44	8.284
458.79	9.555
459.14	8.090
459.49	8.963
459.84	8.794
460.19	8.343
460.54	8.698
460.89	9.178
461.24	8.323
461.59	8.514
461.94	8.976
462.29	8.027
462.64	8.047
462.99	9.256
463.34	9.392
463.69	9.278
464.04	8.163
464.39	9.335
464.74	9.214
465.09	9.113
465.44	9.091
465.79	8.971
466.14	8.609
466.49	8.035
466.84	8.906
467.19	8.726
467.54	8.879
467.89	8.737
468.24	9.281
468.59	8.923
468.94	9.195
469.29	8.592
469.64	8.647
469.99	9.517
470.34	9.171
470.68	9.368
471.03	8.533
471.38	9.318
471.73	9.328
472.08	9.278
472.43	9.367
472.78	9.872
473.13	8.971
473.48	8.154
473.83	8.914
474.17	8.724
474.52	9.061
474.87	8.987
475.22	9.179
475.57	8.924
475.92	9.487
476.27	8.683
476.61	8.947
476.96	9.195
477.31	9.439
477.66	9.435
478.01	8.846
478.36	8.610
478.70	9.345
479.05	9.656
479.40	9.360
479.75	8.767
480.10	9.638
480.45	8.975
480.79	9.009
481.14	9.372
481.49	9.768
481.84	8.530
482.19	9.032
482.53	9.429
482.88	9.540
483.23	9.143
483.58	9.357
483.92	8.317
484.27	9.561
484.62	8.389
484.97	9.415
485.31	8.812
485.66	8.645
486.01	8.910
486.36	8.819
486.70	8.670
487.05	9.141
487.40	9.327
487.75	9.331
488.09	9.165
488.44	9.604
488.79	9.690
489.13	9.503
489.48	9.021
489.83	8.888
490.17	9.033
490.52	10.285
490.87	9.272
491.22	8.902
491.56	10.062
491.91	9.698
492.26	9.188
492.60	9.139
492.95	9.815
493.30	9.254
493.64	8.777
493.99	9.807
494.34	9.778
494.68	9.499
495.03	9.536
495.37	9.732
495.72	9.273
496.07	9.450
496.41	9.359
496.76	9.095
497.11	9.577
497.45	9.679
497.80	9.086
498.14	9.874
498.49	8.674
498.84	9.160
499.18	9.607
499.53	9.503
499.87	9.122
500.22	8.960
500.56	9.880
500.91	9.759
501.26	9.557
501.60	9.412
501.95	9.344
502.29	9.854
502.64	9.788
502.98	9.441
503.33	9.294
503.67	9.640
504.02	8.971
504.36	10.054
504.71	9.604
505.06	9.424
505.40	9.742
505.75	9.664
506.09	9.862
506.44	9.980
506.78	9.751
507.13	9.771
507.47	9.226
507.82	10.099
508.16	10.290
508.51	9.556
508.85	9.850
509.19	9.683
509.54	10.349
509.88	10.968
510.23	9.000
510.57	10.699
510.92	9.537
511.26	9.956
511.61	9.715
511.95	9.372
512.30	9.883
512.64	10.329
512.98	9.751
513.33	10.028
513.67	8.972
514.02	9.578
514.36	10.393
514.70	10.450
515.05	10.006
515.39	9.611
515.74	10.065
516.08	10.206
516.42	9.793
516.77	9.490
517.11	9.230
517.46	9.544
517.80	10.714
518.14	9.614
518.49	9.946
518.83	10.024
519.17	10.060
519.52	9.288
519.86	10.504
520.20	9.339
520.55	10.510
520.89	9.551
521.23	10.385
521.58	9.987
521.92	10.371
522.26	10.995
522.61	10.924
522.95	10.104
523.29	10.476
523.64	10.108
523.98	10.038
524.32	10.838
524.66	9.156
525.01	10.092
525.35	10.467
525.69	9.874
526.04	10.358
526.38	10.389
526.72	10.519
527.06	9.671
527.41	10.324
527.75	9.813
528.09	10.551
528.43	10.312
528.78	10.078
529.12	11.255
529.46	10.749
529.80	9.773
530.15	9.974
530.49	10.512
530.83	10.156
531.17	10.479
531.51	10.384
531.86	10.163
532.20	9.993
532.54	9.655
532.88	10.756
533.22	10.572
533.57	10.464
533.91	10.774
534.25	11.979
534.59	9.717
534.93	10.523
535.27	10.573
535.62	9.934
535.96	11.061
536.30	11.569
536.64	10.390
536.98	10.932
537.32	9.537
537.66	10.296
538.01	10.055
538.35	10.359
538.69	11.304
539.03	10.067
539.37	10.731
539.71	9.550
540.05	10.256
540.39	10.048
540.73	10.126
541.07	10.816
541.42	11.515
541.76	10.014
542.10	11.036
542.44	9.841
542.78	10.271
543.12	11.051
543.46	10.435
543.80	10.455
544.14	10.805
544.48	9.622
544.82	10.424
545.16	9.804
545.50	11.006
545.84	10.940
546.18	10.449
546.52	11.080
546.86	9.894
547.20	10.222
547.54	9.721
547.88	11.066
548.22	9.967
548.56	10.073
548.90	10.014
549.24	10.972
549.58	10.747
549.92	11.225
550.26	11.218
550.60	9.685
550.94	10.821
551.28	10.749
551.62	10.075
551.96	11.640
552.30	10.116
552.64	9.605
552.98	11.506
553.32	11.031
553.66	10.638
554.00	10.295
554.34	10.330
554.68	11.186
555.02	9.880
555.36	9.682
555.69	9.832
556.03	10.150
556.37	10.171
556.71	10.722
557.05	10.923
557.39	10.399
557.73	10.590
558.07	10.399
558.41	10.598
558.75	10.470
559.08	10.184
559.42	10.386
559.76	10.015
560.10	11.145
560.44	11.127
560.78	10.072
561.12	10.371
561.45	10.612
561.79	10.867
562.13	10.549
562.47	9.714
562.81	10.173
563.15	10.127
563.48	10.943
563.82	10.260
564.16	10.494
564.50	11.465
564.84	10.203
565.17	11.325
565.51	11.163
565.85	9.460
566.19	10.795
566.52	9.961
566.86	9.861
567.20	10.141
567.54	9.557
567.88	10.078
568.21	10.266
568.55	10.068
568.89	10.120
569.23	9.762
569.56	10.138
569.90	10.276
570.24	9.170
570.57	10.372
570.91	10.386
571.25	9.395
571.59	9.892
571.92	10.150
572.26	10.276
572.60	10.194
572.93	9.966
573.27	9.596
573.61	9.790
573.95	9.968
574.28	10.106
574.62	10.072
574.96	10.015
575.29	9.754
575.63	9.984
575.97	10.136
576.30	10.022
576.64	10.217
576.98	10.141
577.31	10.215
577.65	9.786
577.98	9.725
578.32	9.767
578.66	9.830
578.99	9.836
579.33	9.945
579.67	10.031
580.00	9.839
580.34	9.549
580.67	10.069
581.01	10.121
581.35	10.123
581.68	9.578
582.02	9.784
582.35	9.886
582.69	9.797
583.02	10.082
583.36	9.706
583.70	10.187
584.03	9.922
584.37	9.617
584.70	10.093
585.04	9.956
585.37	10.061
585.71	10.203
586.04	9.674
586.38	9.550
586.72	9.666
587.05	9.842
587.39	10.318
587.72	10.266
588.06	10.205
588.39	10.327
588.73	10.138
589.06	10.346
589.40	10.045
589.73	9.845
590.07	10.354
590.40	9.883
590.73	10.008
591.07	10.322
591.40	9.870
591.74	10.093
592.07	10.315
592.41	9.953
592.74	10.108
593.08	9.538
593.41	9.923
593.75	9.561
594.08	9.465
594.41	9.835
594.75	10.195
595.08	10.530
595.42	9.735
595.75	10.123
596.09	10.431
596.42	9.436
596.75	9.785
597.09	10.419
597.42	10.408
597.75	10.044
598.09	9.654
598.42	10.380
598.76	9.572
599.09	10.284
599.42	10.159
599.76	10.364
600.09	9.940
600.42	10.245
600.76	9.497
601.09	10.207
601.42	9.722
601.76	10.425
602.09	10.782
602.42	10.318
602.76	10.822
603.09	10.021
603.42	10.436
603.76	10.171
604.09	9.960
604.42	10.130
604.76	9.734
605.09	10.150
605.42	10.166
605.75	9.251
606.09	8.940
606.42	9.933
606.75	9.697
607.09	9.840
607.42	10.201
607.75	9.190
608.08	10.370
608.42	10.028
608.75	9.699
609.08	10.142
609.41	10.432
609.75	9.632
610.08	9.813
610.41	10.010
610.74	9.769
611.07	9.619
611.41	10.440
611.74	10.352
612.07	9.745
612.40	10.108
612.73	9.769
613.07	9.479
613.40	10.352
613.73	11.213
614.06	9.729
614.39	9.227
614.72	10.328
615.06	9.611
615.39	10.265
615.72	9.719
616.05	9.516
616.38	9.622
616.71	9.418
617.05	9.951
617.38	10.228
617.71	9.926
618.04	9.567
618.37	9.716
618.70	10.608
619.03	10.378
619.36	10.107
619.69	9.430
620.03	9.541
620.36	9.395
620.69	8.994
621.02	9.769
621.35	9.730
621.68	10.269
622.01	10.032
622.34	8.882
622.67	9.945
623.00	9.878
623.33	9.499
623.66	9.294
623.99	11.028
624.32	9.611
624.65	10.608
624.99	9.405
625.32	10.007
625.65	10.000
625.98	9.953
626.31	10.122
626.64	9.630
626.97	9.689
627.30	9.837
627.63	9.170
627.96	8.485
628.29	10.884
628.62	10.542
628.95	9.920
629.28	9.261
629.61	10.239
629.94	10.058
630.26	10.246
630.59	9.590
630.92	9.438
631.25	9.887
631.58	10.385
631.91	9.438
632.24	10.209
632.57	9.333
632.90	9.568
633.23	7.674
633.56	11.271
633.89	9.928
634.22	12.721
634.55	9.866
634.88	9.314
635.20	10.250
635.53	10.336
635.86	9.615
636.19	9.801
636.52	10.244
636.85	9.530
637.18	8.283
637.51	10.487
637.83	10.313
638.16	9.600
638.49	7.744
638.82	10.065
639.15	9.973
639.48	10.160
639.81	9.306
640.13	9.437
640.46	11.441
640.79	9.640
641.12	7.840
641.45	8.734
641.77	8.689
642.10	9.380
642.43	9.591
642.76	8.675
643.09	9.585
643.41	9.569
643.74	9.693
644.07	10.194
644.40	9.784
644.73	9.831
645.05	9.250
645.38	7.973
645.71	12.075
646.04	8.249
646.36	10.938
646.69	9.266
647.02	9.836
647.35	7.495
647.67	9.612
648.00	7.609
648.33	10.000
648.66	8.514
648.98	10.248
649.31	8.282
649.64	8.920
649.96	10.111
650.29	7.353
