SpectraSuite Data File
++++++++++++++++++++++++++++++++++++
Date: Wed May 13 21:25:07 PDT 2015
User: schluterlab
Dark Spectrum Present: Yes
Reference Spectrum Present: Yes
Number of Sampled Component Spectra: 1
Spectrometers: USB2E3373
Integration Time (usec): 3000 (USB2E3373)
Spectra Averaged: 3 (USB2E3373)
Boxcar Smoothing: 0 (USB2E3373)
Correct for Electrical Dark: No (USB2E3373)
Strobe/Lamp Enabled: No (USB2E3373)
Correct for Detector Non-linearity: No (USB2E3373)
Correct for Stray Light: No (USB2E3373)
Number of Pixels in Processed Spectrum: 2048
>>>>>Begin Processed Spectral Data<<<<<
178.53	0.000
178.91	650.000
179.29	200.000
179.67	-950.000
180.04	-366.667
180.42	180.000
180.80	1000.000
181.18	233.333
181.56	-400.000
181.94	-225.000
182.31	-72.727
182.69	138.462
183.07	-200.000
183.45	133.333
183.83	244.444
184.20	85.714
184.58	-100.000
184.96	633.333
185.34	242.857
185.72	0.000
186.09	-1600.000
186.47	-240.000
186.85	420.000
187.23	-200.000
187.61	600.000
187.98	1700.000
188.36	-50.000
188.74	0.000
189.12	-45.455
189.49	-70.000
189.87	191.667
190.25	340.000
190.63	600.000
191.00	-260.000
191.38	320.000
191.76	350.000
192.14	225.000
192.51	-31.579
192.89	733.333
193.27	425.000
193.65	-120.000
194.02	245.455
194.40	160.000
194.78	-300.000
195.15	220.000
195.53	-100.000
195.91	0.000
196.29	-233.333
196.66	0.000
197.04	450.000
197.42	-140.000
197.79	-60.000
198.17	-112.500
198.55	-133.333
198.92	275.000
199.30	-666.667
199.68	-50.000
200.05	900.000
200.43	200.000
200.81	-2100.000
201.18	-180.000
201.56	-266.667
201.94	600.000
202.31	-4.348
202.69	-57.143
203.07	-533.333
203.44	-240.000
203.82	-366.667
204.19	-80.000
204.57	0.000
204.95	-66.667
205.32	0.000
205.70	-350.000
206.08	-400.000
206.45	-183.333
206.83	275.000
207.20	-533.333
207.58	-60.000
207.96	-1600.000
208.33	-214.286
208.71	-1400.000
209.08	287.500
209.46	575.000
209.84	0.000
210.21	100.000
210.59	2100.000
210.96	280.000
211.34	700.000
211.71	-900.000
212.09	-166.667
212.46	-110.000
212.84	33.333
213.22	-50.000
213.59	-200.000
213.97	-700.000
214.34	-350.000
214.72	-46.154
215.09	350.000
215.47	144.444
215.84	550.000
216.22	-37.500
216.59	-400.000
216.97	700.000
217.34	177.778
217.72	0.000
218.09	566.667
218.47	-500.000
218.84	-157.143
219.22	-137.500
219.59	-200.000
219.97	-400.000
220.34	-87.500
220.72	-60.000
221.09	0.000
221.47	-166.667
221.84	400.000
222.22	0.000
222.59	1600.000
222.97	-500.000
223.34	-58.333
223.72	-1300.000
224.09	-300.000
224.46	-72.727
224.84	-37.500
225.21	-128.571
225.59	-275.000
225.96	-66.667
226.34	-160.000
226.71	-157.143
227.08	400.000
227.46	-87.500
227.83	0.000
228.21	-87.500
228.58	-375.000
228.95	-64.706
229.33	-50.000
229.70	-162.500
230.08	-30.769
230.45	-200.000
230.82	-116.667
231.20	228.571
231.57	-400.000
231.95	1500.000
232.32	-33.333
232.69	23.529
233.07	-1300.000
233.44	-52.174
233.81	-850.000
234.19	0.000
234.56	-120.000
234.93	-26.667
235.31	-47.368
235.68	-123.077
236.05	-7.692
236.43	-5.556
236.80	-18.182
237.17	-113.333
237.55	-35.294
237.92	-41.379
238.29	-70.370
238.67	2.778
239.04	-54.839
239.41	-4.255
239.79	-4.255
240.16	-11.628
240.53	3.571
240.91	0.000
241.28	-16.071
241.65	0.000
242.02	1.316
242.40	-5.797
242.77	-27.536
243.14	-7.692
243.51	-2.128
243.89	4.808
244.26	14.151
244.63	-9.615
245.00	2.083
245.38	-1.681
245.75	10.656
246.12	-0.752
246.49	-5.691
246.87	-4.202
247.24	1.351
247.61	1.325
247.98	3.205
248.36	-1.775
248.73	5.056
249.10	1.515
249.47	2.688
249.84	3.684
250.22	1.493
250.59	3.738
250.96	8.182
251.33	-2.392
251.70	10.460
252.08	2.092
252.45	4.115
252.82	6.084
253.19	2.724
253.56	1.079
253.94	9.964
254.31	4.577
254.68	8.054
255.05	4.950
255.42	4.895
255.79	6.442
256.16	9.779
256.54	5.714
256.91	0.633
257.28	5.660
257.65	3.503
258.02	3.226
258.39	6.725
258.76	3.779
259.14	6.534
259.51	3.652
259.88	6.233
260.25	6.111
260.62	2.528
260.99	9.549
261.36	7.254
261.73	7.407
262.10	4.580
262.47	5.432
262.85	6.965
263.22	5.641
263.59	5.455
263.96	7.056
264.33	6.010
264.70	7.442
265.07	6.481
265.44	10.115
265.81	6.636
266.18	4.100
266.55	6.332
266.92	5.508
267.29	6.790
267.66	7.643
268.03	9.259
268.40	6.144
268.77	8.058
269.14	6.327
269.51	10.678
269.88	4.277
270.25	8.686
270.62	5.328
270.99	7.283
271.36	6.944
271.73	6.225
272.10	8.762
272.47	4.607
272.84	6.496
273.21	5.479
273.58	5.943
273.95	7.547
274.32	7.276
274.69	7.468
275.06	8.304
275.43	5.273
275.80	8.865
276.17	6.998
276.54	7.815
276.91	6.272
277.28	4.874
277.65	7.867
278.02	7.321
278.39	6.394
278.76	7.023
279.13	6.518
279.50	7.414
279.87	5.254
280.23	6.486
280.60	5.709
280.97	5.682
281.34	8.833
281.71	5.366
282.08	4.615
282.45	5.738
282.82	6.869
283.19	9.451
283.56	7.969
283.92	7.645
284.29	6.864
284.66	7.743
285.03	5.537
285.40	7.402
285.77	7.958
286.14	7.903
286.51	9.595
286.87	6.000
287.24	5.605
287.61	7.078
287.98	6.912
288.35	5.961
288.72	6.456
289.08	6.980
289.45	6.314
289.82	7.413
290.19	6.311
290.56	6.818
290.93	6.215
291.29	6.977
291.66	6.967
292.03	6.403
292.40	6.999
292.77	6.693
293.13	6.276
293.50	6.144
293.87	6.800
294.24	7.011
294.60	7.152
294.97	7.672
295.34	5.013
295.71	6.570
296.08	5.366
296.44	6.250
296.81	5.238
297.18	7.125
297.55	6.840
297.91	7.081
298.28	6.538
298.65	4.926
299.02	7.326
299.38	5.153
299.75	5.529
300.12	5.698
300.48	6.667
300.85	5.196
301.22	5.575
301.59	5.869
301.95	4.530
302.32	6.068
302.69	5.537
303.05	6.534
303.42	6.477
303.79	6.625
304.15	6.681
304.52	6.559
304.89	6.091
305.25	6.257
305.62	3.905
305.99	5.985
306.35	7.837
306.72	7.019
307.09	6.986
307.45	6.496
307.82	6.526
308.19	5.434
308.55	6.551
308.92	8.546
309.29	7.307
309.65	7.293
310.02	7.654
310.38	7.520
310.75	8.087
311.12	7.775
311.48	7.221
311.85	8.071
312.22	8.511
312.58	8.116
312.95	7.861
313.31	8.264
313.68	9.160
314.05	10.586
314.41	10.375
314.78	11.480
315.14	11.944
315.51	10.086
315.87	12.048
316.24	12.121
316.61	13.425
316.97	12.593
317.34	13.102
317.70	13.559
318.07	15.528
318.43	14.273
318.80	14.921
319.16	15.385
319.53	15.143
319.89	15.899
320.26	16.636
320.62	16.404
320.99	16.860
321.35	16.745
321.72	18.191
322.08	19.004
322.45	20.167
322.81	19.778
323.18	20.751
323.54	21.480
323.91	21.500
324.27	21.332
324.64	20.993
325.00	21.347
325.37	22.355
325.73	22.980
326.10	23.633
326.46	23.411
326.83	24.595
327.19	24.553
327.56	24.899
327.92	23.572
328.29	26.628
328.65	27.257
329.01	24.362
329.38	26.087
329.74	26.867
330.11	25.428
330.47	24.653
330.84	25.632
331.20	26.302
331.56	27.627
331.93	27.390
332.29	27.802
332.66	25.254
333.02	27.194
333.38	26.667
333.75	27.901
334.11	27.951
334.48	27.986
334.84	27.297
335.20	27.873
335.57	26.806
335.93	26.976
336.29	26.445
336.66	26.410
337.02	27.565
337.38	25.936
337.75	26.701
338.11	27.412
338.47	26.541
338.84	26.203
339.20	27.513
339.56	27.048
339.93	25.670
340.29	26.217
340.65	26.775
341.02	25.707
341.38	26.014
341.74	26.134
342.11	27.168
342.47	24.770
342.83	25.408
343.20	25.212
343.56	26.165
343.92	25.751
344.28	25.974
344.65	25.796
345.01	25.908
345.37	27.385
345.73	26.307
346.10	25.201
346.46	24.959
346.82	25.762
347.19	25.475
347.55	26.171
347.91	25.019
348.27	25.789
348.63	27.003
349.00	23.978
349.36	26.138
349.72	25.909
350.08	25.819
350.45	24.980
350.81	25.900
351.17	25.712
351.53	24.980
351.89	24.384
352.26	24.556
352.62	24.806
352.98	25.399
353.34	24.960
353.70	24.844
354.07	24.627
354.43	23.950
354.79	24.519
355.15	24.224
355.51	24.298
355.87	24.863
356.24	23.917
356.60	22.987
356.96	23.715
357.32	23.839
357.68	24.141
358.04	23.662
358.40	24.496
358.77	25.535
359.13	23.969
359.49	23.543
359.85	24.033
360.21	23.516
360.57	23.954
360.93	24.431
361.29	24.870
361.66	24.374
362.02	24.166
362.38	23.781
362.74	24.511
363.10	23.933
363.46	23.847
363.82	24.021
364.18	23.350
364.54	24.581
364.90	23.206
365.26	23.284
365.62	24.219
365.98	23.630
366.35	24.397
366.71	22.896
367.07	24.451
367.43	23.763
367.79	23.975
368.15	24.473
368.51	23.136
368.87	24.564
369.23	23.416
369.59	23.538
369.95	23.004
370.31	22.664
370.67	23.027
371.03	24.128
371.39	23.492
371.75	24.000
372.11	23.647
372.47	23.288
372.83	23.856
373.19	23.957
373.55	23.121
373.91	22.843
374.27	22.476
374.63	23.257
374.99	22.911
375.35	24.589
375.71	22.418
376.07	22.687
376.42	22.861
376.78	23.052
377.14	23.593
377.50	23.533
377.86	23.307
378.22	22.882
378.58	23.455
378.94	24.438
379.30	22.548
379.66	22.503
380.02	22.917
380.38	24.458
380.74	23.909
381.09	23.583
381.45	22.430
381.81	22.982
382.17	22.999
382.53	22.585
382.89	22.979
383.25	23.210
383.61	23.668
383.97	23.750
384.32	22.684
384.68	23.196
385.04	22.358
385.40	23.848
385.76	23.175
386.12	22.789
386.48	23.009
386.83	22.528
387.19	23.134
387.55	23.605
387.91	22.202
388.27	22.811
388.62	23.471
388.98	23.091
389.34	23.371
389.70	23.138
390.06	23.563
390.42	22.809
390.77	22.101
391.13	22.412
391.49	22.770
391.85	21.981
392.20	23.183
392.56	23.175
392.92	22.996
393.28	22.022
393.64	23.486
393.99	23.011
394.35	23.086
394.71	22.821
395.07	22.075
395.42	23.096
395.78	22.136
396.14	22.892
396.50	21.877
396.85	23.901
397.21	22.472
397.57	22.671
397.92	22.455
398.28	22.279
398.64	22.162
399.00	22.433
399.35	23.269
399.71	22.831
400.07	22.289
400.42	22.947
400.78	22.659
401.14	21.398
401.49	22.169
401.85	22.912
402.21	22.105
402.57	21.888
402.92	22.653
403.28	23.014
403.63	22.505
403.99	22.713
404.35	22.382
404.70	22.840
405.06	22.607
405.42	22.048
405.77	21.889
406.13	21.486
406.49	22.888
406.84	22.527
407.20	22.025
407.55	22.403
407.91	22.171
408.27	21.522
408.62	23.204
408.98	22.195
409.34	21.844
409.69	22.157
410.05	22.761
410.40	21.911
410.76	21.961
411.11	22.139
411.47	23.358
411.83	21.585
412.18	23.300
412.54	22.932
412.89	21.818
413.25	21.416
413.60	22.069
413.96	22.534
414.31	22.688
414.67	21.714
415.03	22.733
415.38	21.268
415.74	22.222
416.09	22.935
416.45	23.172
416.80	22.483
417.16	23.279
417.51	22.304
417.87	21.958
418.22	21.978
418.58	22.733
418.93	21.783
419.29	22.442
419.64	21.692
420.00	21.397
420.35	22.355
420.71	21.633
421.06	22.632
421.42	22.141
421.77	22.890
422.12	23.209
422.48	21.974
422.83	23.509
423.19	21.909
423.54	22.909
423.90	22.506
424.25	22.877
424.61	23.105
424.96	21.881
425.31	21.481
425.67	22.928
426.02	23.027
426.38	23.010
426.73	22.602
427.09	23.202
427.44	21.961
427.79	22.506
428.15	23.058
428.50	22.236
428.85	23.247
429.21	23.241
429.56	24.017
429.92	23.009
430.27	22.904
430.62	23.242
430.98	23.215
431.33	23.106
431.68	23.695
432.04	23.887
432.39	23.441
432.74	23.053
433.10	23.940
433.45	22.367
433.80	22.529
434.16	22.611
434.51	23.207
434.86	23.204
435.22	23.713
435.57	23.403
435.92	23.221
436.28	23.003
436.63	23.326
436.98	23.796
437.34	23.504
437.69	23.200
438.04	22.467
438.39	24.284
438.75	23.540
439.10	23.424
439.45	23.850
439.81	23.399
440.16	23.652
440.51	22.592
440.86	23.474
441.22	23.752
441.57	23.807
441.92	22.862
442.27	22.944
442.63	23.843
442.98	23.148
443.33	24.210
443.68	23.722
444.03	23.348
444.39	23.401
444.74	24.406
445.09	23.623
445.44	25.352
445.79	24.316
446.15	24.293
446.50	24.394
446.85	24.532
447.20	24.412
447.55	24.287
447.91	24.270
448.26	24.185
448.61	24.338
448.96	24.544
449.31	24.158
449.66	23.540
450.02	24.275
450.37	24.148
450.72	23.766
451.07	24.514
451.42	23.456
451.77	24.528
452.12	24.183
452.47	24.726
452.83	23.585
453.18	24.316
453.53	23.897
453.88	23.976
454.23	24.413
454.58	24.203
454.93	24.759
455.28	23.892
455.63	23.768
455.98	24.041
456.34	23.331
456.69	24.920
457.04	24.272
457.39	24.354
457.74	23.579
458.09	23.637
458.44	24.207
458.79	24.272
459.14	22.921
459.49	24.207
459.84	23.788
460.19	23.830
460.54	23.540
460.89	24.268
461.24	24.291
461.59	24.517
461.94	24.147
462.29	23.836
462.64	24.406
462.99	24.145
463.34	24.102
463.69	24.549
464.04	24.070
464.39	24.832
464.74	23.710
465.09	23.559
465.44	24.299
465.79	24.094
466.14	23.831
466.49	24.106
466.84	25.105
467.19	23.376
467.54	25.470
467.89	24.199
468.24	24.093
468.59	23.518
468.94	24.393
469.29	23.926
469.64	24.895
469.99	24.966
470.34	24.275
470.68	23.717
471.03	24.048
471.38	24.548
471.73	24.554
472.08	24.880
472.43	24.406
472.78	24.070
473.13	23.615
473.48	24.853
473.83	23.980
474.17	24.154
474.52	24.078
474.87	23.281
475.22	24.577
475.57	23.592
475.92	24.264
476.27	24.068
476.61	24.292
476.96	25.014
477.31	23.301
477.66	24.746
478.01	23.187
478.36	24.305
478.70	24.651
479.05	24.861
479.40	23.765
479.75	23.751
480.10	24.069
480.45	23.639
480.79	24.340
481.14	23.658
481.49	24.026
481.84	23.798
482.19	23.946
482.53	24.143
482.88	24.545
483.23	23.580
483.58	23.913
483.92	23.687
484.27	23.376
484.62	24.190
484.97	24.264
485.31	24.224
485.66	22.845
486.01	23.872
486.36	23.643
486.70	23.723
487.05	24.299
487.40	23.831
487.75	24.577
488.09	23.678
488.44	24.430
488.79	23.694
489.13	23.817
489.48	23.685
489.83	23.895
490.17	24.058
490.52	24.778
490.87	23.829
491.22	22.845
491.56	24.102
491.91	22.900
492.26	23.839
492.60	23.810
492.95	23.955
493.30	23.353
493.64	22.734
493.99	23.865
494.34	23.748
494.68	24.057
495.03	23.271
495.37	23.504
495.72	23.759
496.07	23.527
496.41	23.959
496.76	23.629
497.11	23.052
497.45	23.638
497.80	24.180
498.14	23.627
498.49	23.197
498.84	23.887
499.18	24.291
499.53	23.191
499.87	23.629
500.22	23.793
500.56	23.922
500.91	23.340
501.26	24.236
501.60	23.775
501.95	23.910
502.29	23.350
502.64	24.542
502.98	22.881
503.33	23.260
503.67	23.612
504.02	22.843
504.36	23.477
504.71	23.679
505.06	23.790
505.40	24.021
505.75	23.652
506.09	23.659
506.44	23.387
506.78	23.261
507.13	23.960
507.47	23.807
507.82	23.600
508.16	23.641
508.51	22.882
508.85	22.654
509.19	22.804
509.54	23.378
509.88	22.903
510.23	22.895
510.57	22.775
510.92	23.599
511.26	23.487
511.61	22.887
511.95	23.594
512.30	23.209
512.64	23.553
512.98	22.604
513.33	23.437
513.67	22.658
514.02	23.318
514.36	23.933
514.70	23.210
515.05	23.464
515.39	23.054
515.74	23.091
516.08	22.891
516.42	22.235
516.77	21.968
517.11	22.399
517.46	22.809
517.80	24.697
518.14	21.923
518.49	22.604
518.83	22.315
519.17	22.470
519.52	23.402
519.86	23.254
520.20	22.559
520.55	23.507
520.89	22.201
521.23	22.436
521.58	22.061
521.92	22.564
522.26	22.186
522.61	22.107
522.95	22.604
523.29	22.032
523.64	22.823
523.98	21.474
524.32	21.991
524.66	21.818
525.01	22.543
525.35	22.778
525.69	22.134
526.04	21.368
526.38	22.116
526.72	22.945
527.06	21.921
527.41	22.038
527.75	22.029
528.09	23.145
528.43	22.659
528.78	22.093
529.12	22.510
529.46	21.689
529.80	21.618
530.15	21.429
530.49	21.765
530.83	22.410
531.17	22.123
531.51	22.185
531.86	21.545
532.20	22.261
532.54	20.897
532.88	22.737
533.22	21.886
533.57	22.185
533.91	23.032
534.25	22.266
534.59	21.429
534.93	20.918
535.27	21.146
535.62	22.566
535.96	22.511
536.30	22.141
536.64	21.463
536.98	20.252
537.32	21.779
537.66	21.862
538.01	20.250
538.35	20.718
538.69	21.070
539.03	20.604
539.37	21.060
539.71	21.896
540.05	20.648
540.39	20.853
540.73	20.740
541.07	21.565
541.42	21.549
541.76	21.719
542.10	20.853
542.44	20.998
542.78	21.235
543.12	21.631
543.46	20.525
543.80	20.570
544.14	20.853
544.48	20.770
544.82	21.184
545.16	20.149
545.50	21.675
545.84	20.407
546.18	20.757
546.52	20.960
546.86	19.505
547.20	20.157
547.54	20.229
547.88	20.783
548.22	20.261
548.56	20.680
548.90	20.027
549.24	20.903
549.58	19.858
549.92	20.249
550.26	21.771
550.60	19.294
550.94	19.478
551.28	20.288
551.62	20.902
551.96	20.278
552.30	19.068
552.64	19.986
552.98	20.810
553.32	20.404
553.66	19.736
554.00	20.302
554.34	18.901
554.68	20.283
555.02	20.584
555.36	19.818
555.69	20.248
556.03	18.942
556.37	19.417
556.71	19.762
557.05	19.779
557.39	18.689
557.73	19.818
558.07	20.874
558.41	21.045
558.75	20.169
559.08	18.284
559.42	19.434
559.76	20.107
560.10	19.831
560.44	20.118
560.78	18.705
561.12	19.972
561.45	19.660
561.79	19.326
562.13	19.902
562.47	19.643
562.81	19.048
563.15	18.980
563.48	19.270
563.82	18.605
564.16	18.687
564.50	18.860
564.84	19.392
565.17	19.536
565.51	19.719
565.85	19.320
566.19	19.338
566.52	18.807
566.86	18.458
567.20	18.998
567.54	19.229
567.88	18.141
568.21	17.979
568.55	17.893
568.89	18.345
569.23	18.240
569.56	18.231
569.90	18.558
570.24	17.690
570.57	18.901
570.91	18.242
571.25	17.866
571.59	17.919
571.92	18.040
572.26	18.325
572.60	18.663
572.93	18.682
573.27	18.312
573.61	18.773
573.95	18.165
574.28	17.994
574.62	17.798
574.96	18.824
575.29	18.280
575.63	17.835
575.97	18.152
576.30	18.309
576.64	18.339
576.98	18.365
577.31	18.259
577.65	17.650
577.98	17.939
578.32	17.940
578.66	18.064
578.99	18.592
579.33	18.391
579.67	17.974
580.00	17.466
580.34	18.032
580.67	17.981
581.01	17.794
581.35	17.658
581.68	17.698
582.02	18.000
582.35	17.953
582.69	18.164
583.02	17.760
583.36	17.691
583.70	17.680
584.03	18.172
584.37	17.404
584.70	17.284
585.04	17.443
585.37	17.570
585.71	17.631
586.04	17.920
586.38	17.153
586.72	17.364
587.05	17.795
587.39	17.431
587.72	17.420
588.06	17.811
588.39	17.408
588.73	17.419
589.06	16.844
589.40	17.647
589.73	17.319
590.07	17.098
590.40	17.190
590.73	17.301
591.07	17.760
591.40	16.957
591.74	16.985
592.07	17.344
592.41	17.332
592.74	17.091
593.08	16.547
593.41	16.988
593.75	16.990
594.08	16.995
594.41	17.660
594.75	17.766
595.08	17.364
595.42	17.215
595.75	17.462
596.09	17.552
596.42	16.667
596.75	16.498
597.09	17.197
597.42	17.811
597.75	17.600
598.09	17.077
598.42	17.092
598.76	16.835
599.09	16.407
599.42	16.805
599.76	16.936
600.09	17.282
600.42	16.949
600.76	16.667
601.09	16.535
601.42	16.699
601.76	16.486
602.09	17.065
602.42	16.839
602.76	16.359
603.09	16.386
603.42	16.713
603.76	16.680
604.09	16.680
604.42	16.199
604.76	16.499
605.09	17.037
605.42	16.824
605.75	16.146
606.09	15.977
606.42	17.207
606.75	16.580
607.09	16.356
607.42	16.813
607.75	15.886
608.08	16.637
608.42	15.839
608.75	16.054
609.08	16.169
609.41	16.493
609.75	16.641
610.08	16.371
610.41	16.667
610.74	16.169
611.07	16.583
611.41	17.195
611.74	16.822
612.07	15.633
612.40	16.432
612.73	16.026
613.07	16.131
613.40	16.300
613.73	16.251
614.06	15.146
614.39	15.953
614.72	16.380
615.06	15.500
615.39	15.839
615.72	16.037
616.05	15.709
616.38	15.578
616.71	15.177
617.05	16.585
617.38	16.266
617.71	15.502
618.04	15.844
618.37	15.331
618.70	15.459
619.03	14.708
619.36	15.801
619.69	15.351
620.03	15.265
620.36	15.518
620.69	14.918
621.02	15.231
621.35	15.536
621.68	15.729
622.01	14.644
622.34	15.860
622.67	15.035
623.00	16.185
623.33	16.081
623.66	14.349
623.99	16.129
624.32	15.481
624.65	15.950
624.99	15.136
625.32	14.264
625.65	14.806
625.98	15.719
626.31	16.898
626.64	14.187
626.97	14.792
627.30	15.911
627.63	14.619
627.96	14.113
628.29	15.535
628.62	15.087
628.95	14.830
629.28	15.369
629.61	15.885
629.94	15.667
630.26	15.271
630.59	15.285
630.92	14.759
631.25	14.727
631.58	15.310
631.91	14.422
632.24	13.831
632.57	15.111
632.90	15.986
633.23	13.669
633.56	14.868
633.89	15.072
634.22	15.783
634.55	15.956
634.88	14.338
635.20	15.000
635.53	13.178
635.86	13.974
