SpectraSuite Data File
++++++++++++++++++++++++++++++++++++
Date: Wed May 13 21:36:43 PDT 2015
User: schluterlab
Dark Spectrum Present: Yes
Reference Spectrum Present: Yes
Number of Sampled Component Spectra: 1
Spectrometers: USB2E3373
Integration Time (usec): 3000 (USB2E3373)
Spectra Averaged: 3 (USB2E3373)
Boxcar Smoothing: 0 (USB2E3373)
Correct for Electrical Dark: No (USB2E3373)
Strobe/Lamp Enabled: No (USB2E3373)
Correct for Detector Non-linearity: No (USB2E3373)
Correct for Stray Light: No (USB2E3373)
Number of Pixels in Processed Spectrum: 2048
>>>>>Begin Processed Spectral Data<<<<<
178.53	0.000
178.91	700.000
179.29	216.667
179.67	-300.000
180.04	-66.667
180.42	-0.000
180.80	1100.000
181.18	333.333
181.56	-600.000
181.94	-475.000
182.31	-45.455
182.69	176.923
183.07	-320.000
183.45	266.667
183.83	311.111
184.20	242.857
184.58	-500.000
184.96	600.000
185.34	242.857
185.72	0.000
186.09	-1400.000
186.47	-140.000
186.85	220.000
187.23	-250.000
187.61	500.000
187.98	500.000
188.36	-25.000
188.74	0.000
189.12	-81.818
189.49	-10.000
189.87	141.667
190.25	540.000
190.63	1800.000
191.00	-300.000
191.38	260.000
191.76	525.000
192.14	216.667
192.51	-36.842
192.89	700.000
193.27	525.000
193.65	-260.000
194.02	236.364
194.40	170.000
194.78	-900.000
195.15	240.000
195.53	-360.000
195.91	-175.000
196.29	-200.000
196.66	0.000
197.04	900.000
197.42	-120.000
197.79	-50.000
198.17	-150.000
198.55	-766.667
198.92	300.000
199.30	-700.000
199.68	-100.000
200.05	850.000
200.43	283.333
200.81	-2000.000
201.18	-260.000
201.56	-266.667
201.94	725.000
202.31	8.696
202.69	-85.714
203.07	-500.000
203.44	-300.000
203.82	-533.333
204.19	-150.000
204.57	0.000
204.95	-66.667
205.32	0.000
205.70	0.000
206.08	-375.000
206.45	-216.667
206.83	475.000
207.20	-200.000
207.58	-120.000
207.96	-1500.000
208.33	-285.714
208.71	-2000.000
209.08	200.000
209.46	500.000
209.84	0.000
210.21	210.000
210.59	2300.000
210.96	380.000
211.34	900.000
211.71	-700.000
212.09	-316.667
212.46	-180.000
212.84	-100.000
213.22	-100.000
213.59	-700.000
213.97	50.000
214.34	-300.000
214.72	-61.538
215.09	262.500
215.47	233.333
215.84	1300.000
216.22	-62.500
216.59	-350.000
216.97	633.333
217.34	133.333
217.72	0.000
218.09	466.667
218.47	-400.000
218.84	-314.286
219.22	-225.000
219.59	-400.000
219.97	-425.000
220.34	-200.000
220.72	-60.000
221.09	0.000
221.47	-283.333
221.84	-700.000
222.22	0.000
222.59	1000.000
222.97	-433.333
223.34	-116.667
223.72	-1400.000
224.09	-300.000
224.46	-27.273
224.84	-37.500
225.21	-100.000
225.59	-475.000
225.96	-150.000
226.34	-170.000
226.71	-214.286
227.08	900.000
227.46	-37.500
227.83	-500.000
228.21	-43.750
228.58	-575.000
228.95	-76.471
229.33	-12.500
229.70	-225.000
230.08	-84.615
230.45	-162.500
230.82	-150.000
231.20	257.143
231.57	-225.000
231.95	1100.000
232.32	-16.667
232.69	-11.765
233.07	-1100.000
233.44	-34.783
233.81	-950.000
234.19	4.167
234.56	-73.333
234.93	-66.667
235.31	5.263
235.68	-76.923
236.05	-61.538
236.43	-66.667
236.80	18.182
237.17	-40.000
237.55	-70.588
237.92	-6.897
238.29	-44.444
238.67	11.111
239.04	-9.677
239.41	4.255
239.79	23.404
240.16	48.837
240.53	19.643
240.91	37.500
241.28	14.286
241.65	33.871
242.02	18.421
242.40	18.841
242.77	23.188
243.14	23.077
243.51	37.234
243.89	30.769
244.26	33.962
244.63	20.192
245.00	39.583
245.38	22.689
245.75	30.328
246.12	27.820
246.49	21.951
246.87	19.328
247.24	30.405
247.61	31.126
247.98	26.923
248.36	28.994
248.73	32.022
249.10	30.808
249.47	29.032
249.84	35.789
250.22	33.831
250.59	28.972
250.96	30.909
251.33	27.273
251.70	33.473
252.08	32.636
252.45	38.272
252.82	34.601
253.19	31.518
253.56	34.173
253.94	37.722
254.31	33.451
254.68	35.570
255.05	36.304
255.42	33.566
255.79	36.503
256.16	36.909
256.54	36.190
256.91	33.544
257.28	32.390
257.65	34.076
258.02	31.378
258.39	33.041
258.76	28.779
259.14	34.943
259.51	33.146
259.88	31.436
260.25	35.000
260.62	33.989
260.99	38.196
261.36	34.197
261.73	34.074
262.10	32.316
262.47	34.568
262.85	32.836
263.22	33.077
263.59	33.766
263.96	34.307
264.33	32.452
264.70	37.907
265.07	35.648
265.44	37.701
265.81	34.096
266.18	34.169
266.55	36.463
266.92	35.593
267.29	34.774
267.66	36.730
268.03	35.597
268.40	33.898
268.77	37.603
269.14	34.286
269.51	36.550
269.88	31.365
270.25	37.076
270.62	34.221
270.99	33.858
271.36	34.325
271.73	35.743
272.10	33.905
272.47	33.589
272.84	34.252
273.21	34.247
273.58	35.041
273.95	34.717
274.32	35.075
274.69	32.787
275.06	34.982
275.43	34.463
275.80	32.624
276.17	36.096
276.54	33.393
276.91	34.669
277.28	33.394
277.65	33.916
278.02	35.536
278.39	35.169
278.76	34.615
279.13	34.991
279.50	33.793
279.87	33.877
280.23	34.595
280.60	31.834
280.97	34.091
281.34	35.174
281.71	31.870
282.08	34.530
282.45	35.574
282.82	32.268
283.19	33.841
283.56	32.500
283.92	33.792
284.29	33.697
284.66	32.619
285.03	32.899
285.40	31.571
285.77	33.784
286.14	32.371
286.51	33.433
286.87	32.462
287.24	33.186
287.61	30.873
287.98	32.206
288.35	32.638
288.72	30.846
289.08	32.336
289.45	31.131
289.82	31.770
290.19	30.575
290.56	29.403
290.93	30.387
291.29	29.549
291.66	30.464
292.03	31.199
292.40	31.494
292.77	28.782
293.13	30.126
293.50	27.974
293.87	30.667
294.24	26.984
294.60	28.869
294.97	29.365
295.34	26.913
295.71	27.464
296.08	27.618
296.44	28.571
296.81	25.700
297.18	29.375
297.55	26.533
297.91	26.460
298.28	27.361
298.65	27.833
299.02	29.060
299.38	25.153
299.75	26.202
300.12	24.767
300.48	25.848
300.85	25.173
301.22	26.249
301.59	25.939
301.95	24.971
302.32	23.571
302.69	25.989
303.05	25.249
303.42	26.591
303.79	26.393
304.15	24.973
304.52	26.344
304.89	25.028
305.25	23.600
305.62	25.380
305.99	25.462
306.35	25.601
306.72	25.432
307.09	24.400
307.45	26.305
307.82	24.211
308.19	23.406
308.55	25.281
308.92	26.523
309.29	25.325
309.65	25.175
310.02	25.547
310.38	23.882
310.75	24.951
311.12	24.587
311.48	23.046
311.85	25.394
312.22	23.888
312.58	24.155
312.95	23.682
313.31	24.885
313.68	24.046
314.05	24.669
314.41	24.592
314.78	25.142
315.14	24.444
315.51	23.882
315.87	24.096
316.24	25.528
316.61	24.384
316.97	24.537
317.34	22.995
317.70	24.264
318.07	25.111
318.43	24.481
318.80	23.997
319.16	22.900
319.53	24.194
319.89	23.035
320.26	23.567
320.62	22.892
320.99	21.996
321.35	21.609
321.72	21.944
322.08	23.985
322.45	24.329
322.81	24.861
323.18	25.403
323.54	24.458
323.91	25.023
324.27	24.212
324.64	22.387
325.00	22.922
325.37	22.952
325.73	20.623
326.10	23.802
326.46	22.993
326.83	23.058
327.19	22.927
327.56	23.610
327.92	23.411
328.29	23.790
328.65	24.014
329.01	23.395
329.38	24.000
329.74	23.262
330.11	23.354
330.47	24.045
330.84	23.014
331.20	22.118
331.56	22.464
331.93	23.773
332.29	23.545
332.66	21.356
333.02	23.284
333.38	22.895
333.75	22.099
334.11	23.177
334.48	23.888
334.84	23.057
335.20	21.955
335.57	21.584
335.93	22.165
336.29	22.680
336.66	21.368
337.02	22.261
337.38	21.932
337.75	22.136
338.11	22.716
338.47	21.147
338.84	21.478
339.20	22.663
339.56	22.782
339.93	21.780
340.29	21.178
340.65	22.412
341.02	21.797
341.38	22.382
341.74	20.756
342.11	21.800
342.47	22.594
342.83	21.732
343.20	21.997
343.56	22.895
343.92	21.852
344.28	20.698
344.65	22.449
345.01	20.985
345.37	22.286
345.73	21.569
346.10	21.669
346.46	22.033
346.82	22.311
347.19	21.915
347.55	21.405
347.91	20.577
348.27	21.372
348.63	21.154
349.00	19.733
349.36	21.743
349.72	21.423
350.08	21.295
350.45	19.812
350.81	21.831
351.17	21.478
351.53	20.974
351.89	20.651
352.26	21.004
352.62	21.705
352.98	21.725
353.34	21.176
353.70	21.495
354.07	20.549
354.43	21.151
354.79	22.356
355.15	21.429
355.51	21.412
355.87	21.267
356.24	20.305
356.60	20.250
356.96	20.414
357.32	21.362
357.68	20.779
358.04	21.179
358.40	21.085
358.77	21.177
359.13	21.946
359.49	21.196
359.85	21.001
360.21	20.971
360.57	21.521
360.93	20.865
361.29	21.170
361.66	21.336
362.02	21.349
362.38	19.424
362.74	20.740
363.10	20.607
363.46	20.749
363.82	20.251
364.18	20.812
364.54	20.569
364.90	20.836
365.26	21.090
365.62	21.165
365.98	20.783
366.35	20.922
366.71	20.328
367.07	20.198
367.43	21.185
367.79	21.404
368.15	20.323
368.51	20.253
368.87	20.935
369.23	21.779
369.59	20.085
369.95	19.811
370.31	19.735
370.67	20.130
371.03	20.045
371.39	20.156
371.75	20.214
372.11	20.085
372.47	19.899
372.83	20.250
373.19	20.216
373.55	20.376
373.91	21.216
374.27	19.295
374.63	20.768
374.99	20.125
375.35	19.384
375.71	19.565
376.07	20.768
376.42	19.385
376.78	20.872
377.14	21.559
377.50	20.991
377.86	20.518
378.22	20.164
378.58	19.294
378.94	20.875
379.30	19.925
379.66	19.482
380.02	20.527
380.38	20.181
380.74	20.681
381.09	19.783
381.45	20.435
381.81	20.086
382.17	20.290
382.53	20.000
382.89	20.145
383.25	19.877
383.61	19.492
383.97	20.062
384.32	19.534
384.68	20.851
385.04	19.365
385.40	20.299
385.76	21.411
386.12	20.142
386.48	19.373
386.83	21.026
387.19	20.358
387.55	20.172
387.91	20.111
388.27	19.667
388.62	20.412
388.98	20.213
389.34	19.361
389.70	19.902
390.06	19.375
390.42	19.845
390.77	20.756
391.13	20.960
391.49	19.798
391.85	19.489
392.20	19.549
392.56	19.810
392.92	20.012
393.28	20.511
393.64	19.817
393.99	19.461
394.35	20.185
394.71	20.321
395.07	20.000
395.42	19.805
395.78	19.884
396.14	19.784
396.50	19.784
396.85	19.630
397.21	20.225
397.57	19.193
397.92	19.461
398.28	19.515
398.64	19.308
399.00	19.308
399.35	19.807
399.71	19.802
400.07	19.880
400.42	19.624
400.78	19.215
401.14	20.172
401.49	19.712
401.85	19.472
402.21	19.381
402.57	19.559
402.92	19.900
403.28	19.325
403.63	19.343
403.99	18.746
404.35	19.140
404.70	18.429
405.06	19.789
405.42	19.033
405.77	19.067
406.13	18.743
406.49	19.413
406.84	19.658
407.20	18.946
407.55	19.545
407.91	19.457
408.27	18.528
408.62	19.705
408.98	18.681
409.34	18.750
409.69	19.688
410.05	19.590
410.40	18.624
410.76	18.953
411.11	19.714
411.47	20.040
411.83	19.089
412.18	18.955
412.54	19.298
412.89	19.122
413.25	18.702
413.60	19.060
413.96	18.664
414.31	19.605
414.67	19.302
415.03	19.147
415.38	19.155
415.74	19.688
416.09	19.630
416.45	19.002
416.80	19.262
417.16	19.096
417.51	19.089
417.87	19.511
418.22	19.328
418.58	19.120
418.93	19.335
419.29	19.538
419.64	19.084
420.00	18.730
420.35	19.307
420.71	19.074
421.06	18.881
421.42	19.526
421.77	19.480
422.12	19.370
422.48	18.920
422.83	19.610
423.19	19.436
423.54	19.552
423.90	19.537
424.25	19.526
424.61	19.593
424.96	18.273
425.31	19.125
425.67	20.223
426.02	20.082
426.38	19.652
426.73	18.998
427.09	19.137
427.44	19.906
427.79	19.418
428.15	19.021
428.50	17.885
428.85	20.049
429.21	18.683
429.56	19.447
429.92	19.105
430.27	18.763
430.62	18.993
430.98	19.196
431.33	19.721
431.68	19.862
432.04	19.211
432.39	19.630
432.74	19.068
433.10	20.105
433.45	19.349
433.80	19.023
434.16	19.006
434.51	19.511
434.86	19.022
435.22	18.902
435.57	18.305
435.92	19.602
436.28	17.658
436.63	19.226
436.98	18.684
437.34	19.719
437.69	18.477
438.04	18.223
438.39	18.493
438.75	18.236
439.10	18.971
439.45	18.765
439.81	18.966
440.16	19.188
440.51	19.679
440.86	18.850
441.22	19.220
441.57	18.221
441.92	18.870
442.27	18.777
442.63	18.515
442.98	18.981
443.33	19.582
443.68	18.450
444.03	19.523
444.39	19.732
444.74	18.940
445.09	18.502
445.44	19.380
445.79	19.515
446.15	19.246
446.50	18.998
446.85	19.081
447.20	19.916
447.55	19.026
447.91	18.708
448.26	19.039
448.61	18.815
448.96	18.508
449.31	19.646
449.66	18.739
450.02	19.613
450.37	19.448
450.72	18.829
451.07	19.373
451.42	18.653
451.77	19.355
452.12	18.419
452.47	19.755
452.83	19.222
453.18	18.651
453.53	18.159
453.88	18.916
454.23	19.468
454.58	19.914
454.93	18.794
455.28	18.626
455.63	19.464
455.98	18.746
456.34	18.245
456.69	18.850
457.04	18.142
457.39	18.100
457.74	18.193
458.09	18.543
458.44	19.448
458.79	18.616
459.14	18.652
459.49	18.902
459.84	18.377
460.19	18.727
460.54	18.613
460.89	19.144
461.24	18.557
461.59	19.203
461.94	18.521
462.29	18.505
462.64	18.799
462.99	19.852
463.34	19.475
463.69	19.265
464.04	18.187
464.39	18.182
464.74	18.489
465.09	18.041
465.44	18.631
465.79	19.609
466.14	18.985
466.49	19.179
466.84	19.307
467.19	18.280
467.54	20.156
467.89	19.422
468.24	18.439
468.59	18.866
468.94	18.902
469.29	18.705
469.64	18.828
469.99	19.310
470.34	19.150
470.68	18.587
471.03	19.323
471.38	18.915
471.73	19.342
472.08	18.832
472.43	18.338
472.78	18.661
473.13	17.612
473.48	18.069
473.83	17.828
474.17	18.294
474.52	18.835
474.87	17.551
475.22	18.418
475.57	18.684
475.92	18.157
476.27	18.240
476.61	18.233
476.96	18.275
477.31	19.579
477.66	19.266
478.01	18.462
478.36	18.638
478.70	18.743
479.05	19.201
479.40	18.617
479.75	19.447
480.10	18.766
480.45	18.244
480.79	18.865
481.14	19.757
481.49	19.388
481.84	18.332
482.19	18.712
482.53	18.667
482.88	19.080
483.23	18.527
483.58	18.762
483.92	18.531
484.27	18.161
484.62	18.287
484.97	18.706
485.31	18.230
485.66	16.914
486.01	17.857
486.36	17.901
486.70	19.000
487.05	19.867
487.40	19.968
487.75	20.643
488.09	20.300
488.44	20.505
488.79	20.931
489.13	19.960
489.48	19.239
489.83	19.026
490.17	18.929
490.52	18.887
490.87	18.266
491.22	18.512
491.56	18.256
491.91	17.907
492.26	18.859
492.60	17.845
492.95	18.270
493.30	18.411
493.64	17.842
493.99	19.082
494.34	18.353
494.68	18.711
495.03	18.034
495.37	18.394
495.72	18.496
496.07	18.509
496.41	17.548
496.76	18.693
497.11	18.404
497.45	18.677
497.80	18.677
498.14	19.244
498.49	19.264
498.84	18.725
499.18	18.118
499.53	18.168
499.87	17.807
500.22	18.616
500.56	18.907
500.91	19.266
501.26	18.522
501.60	18.480
501.95	19.214
502.29	18.738
502.64	19.286
502.98	17.919
503.33	18.248
503.67	18.647
504.02	18.088
504.36	17.484
504.71	18.242
505.06	19.307
505.40	18.969
505.75	19.634
506.09	18.958
506.44	18.649
506.78	17.928
507.13	18.243
507.47	18.717
507.82	17.844
508.16	18.206
508.51	18.027
508.85	18.092
509.19	18.307
509.54	18.820
509.88	17.473
510.23	18.053
510.57	18.538
510.92	19.450
511.26	18.152
511.61	18.880
511.95	18.688
512.30	18.656
512.64	18.672
512.98	18.892
513.33	18.592
513.67	18.342
514.02	18.358
514.36	18.034
514.70	18.533
515.05	18.315
515.39	18.337
515.74	18.532
516.08	17.286
516.42	18.203
516.77	18.453
517.11	18.812
517.46	19.148
517.80	19.673
518.14	17.024
518.49	18.083
518.83	19.272
519.17	17.651
519.52	18.577
519.86	19.126
520.20	18.132
520.55	18.657
520.89	17.774
521.23	18.974
521.58	17.636
521.92	18.479
522.26	18.347
522.61	18.100
522.95	19.171
523.29	18.286
523.64	18.436
523.98	18.170
524.32	18.336
524.66	18.247
525.01	18.349
525.35	18.104
525.69	18.025
526.04	18.046
526.38	18.866
526.72	18.343
527.06	18.762
527.41	18.531
527.75	18.558
528.09	19.537
528.43	19.132
528.78	18.669
529.12	18.887
529.46	19.002
529.80	19.159
530.15	18.340
530.49	18.127
530.83	18.890
531.17	19.658
531.51	17.599
531.86	17.751
532.20	18.332
532.54	17.862
532.88	19.265
533.22	18.788
533.57	18.477
533.91	18.581
534.25	18.555
534.59	17.632
534.93	18.814
535.27	18.535
535.62	18.816
535.96	19.584
536.30	18.883
536.64	17.772
536.98	19.271
537.32	17.438
537.66	17.772
538.01	17.545
538.35	18.439
538.69	17.860
539.03	18.993
539.37	17.975
539.71	18.895
540.05	18.219
540.39	18.376
540.73	19.204
541.07	18.095
541.42	18.451
541.76	19.080
542.10	17.806
542.44	17.533
542.78	18.598
543.12	18.329
543.46	18.659
543.80	17.990
544.14	19.270
544.48	17.585
544.82	18.763
545.16	17.444
545.50	19.109
545.84	19.215
546.18	18.303
546.52	18.984
546.86	18.233
547.20	17.798
547.54	17.870
547.88	18.826
548.22	17.850
548.56	18.346
548.90	18.471
549.24	18.889
549.58	18.363
549.92	19.809
550.26	19.262
550.60	17.793
550.94	18.731
551.28	18.168
551.62	18.947
551.96	18.009
552.30	17.831
552.64	18.785
552.98	18.395
553.32	17.592
553.66	18.048
554.00	18.071
554.34	17.656
554.68	18.419
555.02	19.087
555.36	18.079
555.69	17.990
556.03	17.727
556.37	18.421
556.71	18.430
557.05	18.155
557.39	18.463
557.73	18.533
558.07	18.839
558.41	17.714
558.75	17.629
559.08	18.685
559.42	17.781
559.76	17.737
560.10	17.832
560.44	18.865
560.78	18.129
561.12	17.659
561.45	18.027
561.79	18.845
562.13	18.706
562.47	18.571
562.81	18.903
563.15	18.768
563.48	17.963
563.82	18.399
564.16	19.228
564.50	18.385
564.84	18.311
565.17	18.411
565.51	18.850
565.85	18.254
566.19	18.212
566.52	17.759
566.86	18.268
567.20	18.326
567.54	17.674
567.88	17.637
568.21	19.120
568.55	18.101
568.89	17.348
569.23	18.332
569.56	17.564
569.90	18.597
570.24	17.617
570.57	18.253
570.91	18.609
571.25	18.089
571.59	17.739
571.92	18.216
572.26	18.711
572.60	19.125
572.93	18.775
573.27	19.162
573.61	18.629
573.95	18.826
574.28	18.871
574.62	18.563
574.96	18.971
575.29	18.480
575.63	19.178
575.97	18.967
576.30	18.915
576.64	19.230
576.98	19.173
577.31	18.849
577.65	18.555
577.98	18.415
578.32	19.105
578.66	19.530
578.99	19.624
579.33	19.640
579.67	19.450
580.00	19.255
580.34	19.947
580.67	19.745
581.01	18.913
581.35	19.057
581.68	18.285
582.02	18.793
582.35	18.927
582.69	19.324
583.02	19.004
583.36	20.141
583.70	20.015
584.03	20.410
584.37	19.973
584.70	19.361
585.04	19.347
585.37	18.809
585.71	18.813
586.04	19.048
586.38	19.074
586.72	19.668
587.05	20.051
587.39	18.843
587.72	19.468
588.06	18.933
588.39	19.395
588.73	19.344
589.06	19.431
589.40	19.539
589.73	18.361
590.07	19.541
590.40	19.500
590.73	20.016
591.07	19.473
591.40	19.000
591.74	19.031
592.07	18.987
592.41	18.190
592.74	18.287
593.08	18.120
593.41	18.497
593.75	18.895
594.08	19.136
594.41	18.793
594.75	19.715
595.08	19.529
595.42	18.862
595.75	18.908
596.09	19.823
596.42	18.995
596.75	18.912
597.09	19.245
597.42	19.471
597.75	19.156
598.09	19.080
598.42	18.613
598.76	19.102
599.09	18.567
599.42	18.882
599.76	18.663
600.09	18.072
600.42	19.096
600.76	18.699
601.09	19.435
601.42	19.208
601.76	19.575
602.09	19.335
602.42	19.893
602.76	19.463
603.09	19.630
603.42	18.912
603.76	18.979
604.09	18.696
604.42	19.004
604.76	19.206
605.09	19.710
605.42	19.028
605.75	18.801
606.09	18.667
606.42	18.828
606.75	17.835
607.09	19.016
607.42	18.695
607.75	17.724
608.08	19.297
608.42	18.838
608.75	18.586
609.08	19.059
609.41	19.473
609.75	18.810
610.08	18.688
610.41	18.562
610.74	19.153
611.07	18.737
611.41	18.936
611.74	18.892
612.07	18.395
612.40	19.459
612.73	19.210
613.07	19.013
613.40	18.282
613.73	18.960
614.06	18.629
614.39	18.010
614.72	19.822
615.06	17.722
615.39	18.598
615.72	18.467
616.05	17.962
616.38	19.187
616.71	18.116
617.05	19.042
617.38	18.792
617.71	17.953
618.04	17.855
618.37	18.991
618.70	19.276
619.03	18.144
619.36	18.505
619.69	18.640
620.03	17.809
620.36	18.093
620.69	17.416
621.02	17.769
621.35	17.989
621.68	17.930
622.01	19.094
622.34	17.843
622.67	17.150
623.00	18.465
623.33	16.679
623.66	17.323
623.99	18.005
624.32	19.076
624.65	17.433
624.99	18.001
625.32	18.372
625.65	17.984
625.98	18.088
626.31	17.796
626.64	18.057
626.97	17.993
627.30	18.648
627.63	18.512
627.96	17.056
628.29	19.721
628.62	18.665
628.95	18.337
629.28	18.030
629.61	18.469
629.94	17.215
630.26	17.340
630.59	18.282
630.92	16.867
631.25	17.096
631.58	17.880
631.91	16.119
