SpectraSuite Data File
++++++++++++++++++++++++++++++++++++
Date: Wed May 13 21:37:10 PDT 2015
User: schluterlab
Dark Spectrum Present: Yes
Reference Spectrum Present: Yes
Number of Sampled Component Spectra: 1
Spectrometers: USB2E3373
Integration Time (usec): 3000 (USB2E3373)
Spectra Averaged: 3 (USB2E3373)
Boxcar Smoothing: 0 (USB2E3373)
Correct for Electrical Dark: No (USB2E3373)
Strobe/Lamp Enabled: No (USB2E3373)
Correct for Detector Non-linearity: No (USB2E3373)
Correct for Stray Light: No (USB2E3373)
Number of Pixels in Processed Spectrum: 2048
>>>>>Begin Processed Spectral Data<<<<<
178.53	0.000
178.91	300.000
179.29	208.333
179.67	-650.000
180.04	-633.333
180.42	340.000
180.80	1800.000
181.18	333.333
181.56	-475.000
181.94	-475.000
182.31	-136.364
182.69	192.308
183.07	-120.000
183.45	283.333
183.83	266.667
184.20	242.857
184.58	-333.333
184.96	566.667
185.34	200.000
185.72	0.000
186.09	-600.000
186.47	-120.000
186.85	340.000
187.23	-600.000
187.61	700.000
187.98	1500.000
188.36	-162.500
188.74	0.000
189.12	-181.818
189.49	70.000
189.87	100.000
190.25	320.000
190.63	2000.000
191.00	-280.000
191.38	520.000
191.76	650.000
192.14	175.000
192.51	-63.158
192.89	800.000
193.27	350.000
193.65	-280.000
194.02	200.000
194.40	190.000
194.78	-600.000
195.15	460.000
195.53	-160.000
195.91	-25.000
196.29	-366.667
196.66	0.000
197.04	1000.000
197.42	-60.000
197.79	-70.000
198.17	-325.000
198.55	-533.333
198.92	525.000
199.30	-466.667
199.68	-40.000
200.05	-0.000
200.43	166.667
200.81	-1500.000
201.18	-400.000
201.56	-150.000
201.94	700.000
202.31	-4.348
202.69	-214.286
203.07	-433.333
203.44	-240.000
203.82	-733.333
204.19	-80.000
204.57	0.000
204.95	-116.667
205.32	0.000
205.70	-900.000
206.08	-550.000
206.45	-133.333
206.83	525.000
207.20	-600.000
207.58	-80.000
207.96	-2200.000
208.33	-414.286
208.71	-2600.000
209.08	262.500
209.46	550.000
209.84	0.000
210.21	260.000
210.59	2200.000
210.96	340.000
211.34	1200.000
211.71	-700.000
212.09	-250.000
212.46	-160.000
212.84	-266.667
213.22	125.000
213.59	-500.000
213.97	-700.000
214.34	-750.000
214.72	-61.538
215.09	350.000
215.47	188.889
215.84	700.000
216.22	-187.500
216.59	-700.000
216.97	700.000
217.34	200.000
217.72	0.000
218.09	600.000
218.47	-1000.000
218.84	-100.000
219.22	-62.500
219.59	-300.000
219.97	-300.000
220.34	-137.500
220.72	-180.000
221.09	0.000
221.47	-300.000
221.84	-1300.000
222.22	0.000
222.59	900.000
222.97	-533.333
223.34	-100.000
223.72	-1000.000
224.09	-1100.000
224.46	-100.000
224.84	-62.500
225.21	-42.857
225.59	-375.000
225.96	-200.000
226.34	-140.000
226.71	-214.286
227.08	250.000
227.46	-75.000
227.83	-500.000
228.21	-56.250
228.58	-325.000
228.95	-111.765
229.33	-68.750
229.70	-262.500
230.08	-53.846
230.45	-162.500
230.82	-150.000
231.20	314.286
231.57	-325.000
231.95	1400.000
232.32	-58.333
232.69	-47.059
233.07	-1800.000
233.44	-56.522
233.81	-850.000
234.19	8.333
234.56	-93.333
234.93	-13.333
235.31	-36.842
235.68	-92.308
236.05	-107.692
236.43	-72.222
236.80	-18.182
237.17	-133.333
237.55	-76.471
237.92	-51.724
238.29	-77.778
238.67	-44.444
239.04	-74.194
239.41	-29.787
239.79	-21.277
240.16	-44.186
240.53	-8.929
240.91	-19.643
241.28	-19.643
241.65	-16.129
242.02	-10.526
242.40	-11.594
242.77	-28.986
243.14	-20.513
243.51	-9.574
243.89	-12.500
244.26	-5.660
244.63	-13.462
245.00	-7.292
245.38	-9.244
245.75	0.820
246.12	-6.767
246.49	-8.130
246.87	-8.403
247.24	-4.730
247.61	-1.987
247.98	-5.769
248.36	-3.550
248.73	-3.933
249.10	-1.010
249.47	-7.527
249.84	-3.158
250.22	-2.985
250.59	0.935
250.96	1.818
251.33	-11.962
251.70	2.510
252.08	-2.092
252.45	2.881
252.82	2.281
253.19	-1.556
253.56	0.000
253.94	1.068
254.31	-1.408
254.68	2.349
255.05	1.650
255.42	-0.350
255.79	1.227
256.16	2.208
256.54	0.317
256.91	-2.848
257.28	0.943
257.65	-3.822
258.02	-0.880
258.39	1.170
258.76	-2.035
259.14	0.000
259.51	-1.124
259.88	-0.813
260.25	-1.667
260.62	-2.247
260.99	1.857
261.36	2.850
261.73	-1.975
262.10	-0.509
262.47	-0.988
262.85	0.746
263.22	1.282
263.59	0.000
263.96	-2.190
264.33	1.202
264.70	2.791
265.07	2.083
265.44	2.989
265.81	0.686
266.18	0.683
266.55	0.000
266.92	0.424
267.29	1.440
267.66	0.000
268.03	3.086
268.40	-0.212
268.77	1.033
269.14	1.429
269.51	4.312
269.88	0.204
270.25	0.212
270.62	-0.615
270.99	0.394
271.36	0.992
271.73	1.406
272.10	0.381
272.47	1.727
272.84	1.575
273.21	-0.391
273.58	1.230
273.95	0.566
274.32	1.306
274.69	0.364
275.06	4.064
275.43	1.883
275.80	1.773
276.17	1.473
276.54	0.888
276.91	0.523
277.28	-0.181
277.65	1.399
278.02	0.536
278.39	0.710
278.76	2.341
279.13	0.858
279.50	0.862
279.87	0.543
280.23	1.081
280.60	1.038
280.97	1.948
281.34	2.681
281.71	0.976
282.08	0.342
282.45	1.475
282.82	1.757
283.19	2.591
283.56	1.875
283.92	1.988
284.29	2.028
284.66	-0.659
285.03	0.814
285.40	2.719
285.77	0.601
286.14	1.672
286.51	3.748
286.87	0.308
287.24	1.327
287.61	1.506
287.98	1.618
288.35	0.000
288.72	1.435
289.08	3.134
289.45	1.909
289.82	3.480
290.19	1.964
290.56	0.994
290.93	1.796
291.29	1.368
291.66	1.230
292.03	1.635
292.40	0.808
292.77	2.410
293.13	0.837
293.50	1.830
293.87	1.867
294.24	0.794
294.60	1.430
294.97	2.910
295.34	0.132
295.71	0.263
296.08	-0.131
296.44	0.510
296.81	1.218
297.18	1.000
297.55	1.769
297.91	0.124
298.28	0.969
298.65	1.847
299.02	2.198
299.38	1.227
299.75	2.163
300.12	1.628
300.48	1.170
300.85	1.270
301.22	1.394
301.59	1.174
301.95	0.697
302.32	-0.817
302.69	0.113
303.05	1.218
303.42	1.364
303.79	2.103
304.15	1.424
304.52	1.505
304.89	0.332
305.25	0.659
305.62	0.759
305.99	1.306
306.35	2.612
306.72	1.322
307.09	0.834
307.45	1.278
307.82	0.947
308.19	0.209
308.55	1.228
308.92	1.866
309.29	0.501
309.65	0.599
310.02	2.386
310.38	1.118
310.75	1.282
311.12	1.944
311.48	0.791
311.85	1.969
312.22	2.224
312.58	1.449
312.95	1.393
313.31	2.663
313.68	2.099
314.05	2.836
314.41	2.786
314.78	2.562
315.14	2.222
315.51	2.569
315.87	3.429
316.24	5.051
316.61	2.557
316.97	2.685
317.34	2.228
317.70	3.657
318.07	3.815
318.43	2.981
318.80	3.578
319.16	3.271
319.53	3.584
319.89	3.794
320.26	4.806
320.62	3.707
320.99	3.779
321.35	4.771
321.72	5.101
322.08	4.428
322.45	6.105
322.81	6.007
323.18	5.903
323.54	6.498
323.91	6.685
324.27	7.021
324.64	6.272
325.00	5.424
325.37	7.253
325.73	6.734
326.10	7.401
326.46	6.940
326.83	7.605
327.19	7.886
327.56	7.977
327.92	8.850
328.29	9.182
328.65	9.290
329.01	8.004
329.38	9.217
329.74	9.785
330.11	8.656
330.47	8.333
330.84	9.928
331.20	9.479
331.56	8.786
331.93	10.336
332.29	11.381
332.66	9.576
333.02	9.470
333.38	10.000
333.75	9.898
334.11	10.851
334.48	11.072
334.84	10.689
335.20	10.635
335.57	9.922
335.93	9.107
336.29	10.245
336.66	9.829
337.02	10.870
337.38	10.183
337.75	10.508
338.11	10.077
338.47	10.616
338.84	10.137
339.20	9.788
339.56	11.263
339.93	11.236
340.29	10.077
340.65	10.693
341.02	10.899
341.38	10.811
341.74	9.832
342.11	10.157
342.47	10.042
342.83	10.539
343.20	10.660
343.56	11.038
343.92	10.723
344.28	10.958
344.65	10.612
345.01	11.622
345.37	11.266
345.73	11.765
346.10	12.520
346.46	10.325
346.82	10.754
347.19	10.206
347.55	10.824
347.91	10.678
348.27	10.726
348.63	11.058
349.00	11.321
349.36	11.774
349.72	11.214
350.08	10.764
350.45	11.903
350.81	11.581
351.17	12.009
351.53	12.490
351.89	11.597
352.26	10.193
352.62	11.550
352.98	10.942
353.34	11.675
353.70	11.994
354.07	12.000
354.43	11.586
354.79	11.538
355.15	11.180
355.51	12.377
355.87	12.197
356.24	11.878
356.60	11.650
356.96	12.126
357.32	11.920
357.68	12.223
358.04	12.102
358.40	12.636
358.77	11.927
359.13	12.607
359.49	12.642
359.85	12.964
360.21	12.336
360.57	12.776
360.93	12.215
361.29	12.213
361.66	13.060
362.02	12.305
362.38	12.408
362.74	12.328
363.10	12.871
363.46	12.104
363.82	12.491
364.18	12.690
364.54	13.931
364.90	12.962
365.26	13.305
365.62	13.068
365.98	13.025
366.35	13.050
366.71	12.981
367.07	13.536
367.43	13.310
367.79	13.899
368.15	14.135
368.51	13.713
368.87	14.445
369.23	13.594
369.59	13.319
369.95	14.006
370.31	13.877
370.67	14.048
371.03	14.477
371.39	14.691
371.75	14.429
372.11	14.672
372.47	14.852
372.83	14.979
373.19	15.252
373.55	13.512
373.91	14.286
374.27	13.970
374.63	15.220
374.99	14.833
375.35	15.548
375.71	14.198
376.07	15.216
376.42	15.241
376.78	15.588
377.14	15.797
377.50	15.645
377.86	15.538
378.22	16.119
378.58	16.646
378.94	16.938
379.30	15.928
379.66	17.078
380.02	16.667
380.38	16.627
380.74	17.394
381.09	17.491
381.45	16.868
381.81	17.067
382.17	17.139
382.53	17.538
382.89	17.008
383.25	17.778
383.61	18.402
383.97	18.125
384.32	17.706
384.68	17.767
385.04	17.960
385.40	18.182
385.76	18.552
386.12	18.334
386.48	17.743
386.83	19.524
387.19	18.939
387.55	19.620
387.91	19.311
388.27	19.544
388.62	19.101
388.98	19.024
389.34	19.674
389.70	18.559
390.06	18.500
390.42	19.974
390.77	19.347
391.13	20.013
391.49	19.165
391.85	19.617
392.20	20.238
392.56	20.381
392.92	20.304
393.28	18.942
393.64	20.122
393.99	20.196
394.35	21.049
394.71	20.641
395.07	20.000
395.42	21.085
395.78	21.107
396.14	21.497
396.50	21.053
396.85	22.052
397.21	20.100
397.57	21.304
397.92	20.479
398.28	21.094
398.64	21.433
399.00	21.429
399.35	21.339
399.71	22.598
400.07	21.566
400.42	21.505
400.78	20.967
401.14	21.459
401.49	22.409
401.85	21.560
402.21	22.477
402.57	21.459
402.92	22.028
403.28	22.014
403.63	22.195
403.99	21.945
404.35	22.132
404.70	21.571
405.06	22.490
405.42	22.048
405.77	22.120
406.13	21.943
406.49	21.869
406.84	22.589
407.20	21.670
407.55	22.922
407.91	21.509
408.27	21.585
408.62	23.082
408.98	22.133
409.34	22.525
409.69	22.092
410.05	22.015
410.40	21.424
410.76	22.202
411.11	23.197
411.47	23.092
411.83	22.208
412.18	22.040
412.54	23.246
412.89	22.884
413.25	22.537
413.60	22.194
413.96	21.411
414.31	23.181
414.67	23.492
415.03	22.869
415.38	22.127
415.74	22.352
416.09	22.802
416.45	23.103
416.80	23.289
417.16	23.752
417.51	22.505
417.87	22.685
418.22	22.624
418.58	23.325
418.93	22.473
419.29	22.772
419.64	22.646
420.00	22.794
420.35	22.953
420.71	22.669
421.06	22.755
421.42	23.601
421.77	24.162
422.12	22.636
422.48	22.519
422.83	22.682
423.19	22.254
423.54	23.204
423.90	22.328
424.25	23.570
424.61	22.859
424.96	23.004
425.31	22.098
425.67	23.927
426.02	22.909
426.38	22.637
426.73	22.053
427.09	21.951
427.44	22.548
427.79	23.040
428.15	22.324
428.50	21.934
428.85	23.493
429.21	22.341
429.56	23.273
429.92	23.061
430.27	22.393
430.62	22.403
430.98	23.744
431.33	21.870
431.68	23.216
432.04	23.887
432.39	22.517
432.74	22.502
433.10	22.080
433.45	23.491
433.80	22.816
434.16	22.774
434.51	22.826
434.86	22.850
435.22	22.411
435.57	22.850
435.92	22.195
436.28	22.583
436.63	22.806
436.98	21.563
437.34	23.199
437.69	22.196
438.04	22.467
438.39	22.354
438.75	22.050
439.10	22.730
439.45	22.397
439.81	22.414
440.16	21.681
440.51	22.533
440.86	22.525
441.22	23.006
441.57	21.692
441.92	21.928
442.27	21.807
442.63	22.282
442.98	21.991
443.33	22.291
443.68	20.770
444.03	22.255
444.39	22.806
444.74	22.419
445.09	22.192
445.44	22.986
445.79	20.805
446.15	22.241
446.50	22.467
446.85	22.662
447.20	22.530
447.55	22.552
447.91	21.629
448.26	21.441
448.61	20.541
448.96	22.039
449.31	21.645
449.66	22.961
450.02	21.774
450.37	21.387
450.72	21.584
451.07	21.254
451.42	20.274
451.77	21.911
452.12	20.974
452.47	21.756
452.83	21.344
453.18	21.324
453.53	19.861
453.88	21.506
454.23	20.890
454.58	20.833
454.93	20.462
455.28	20.809
455.63	20.399
455.98	20.937
456.34	19.708
456.69	19.808
457.04	20.310
457.39	21.167
457.74	20.108
458.09	20.261
458.44	20.564
458.79	19.934
459.14	19.831
459.49	19.390
459.84	20.237
460.19	19.628
460.54	19.404
460.89	21.171
461.24	19.420
461.59	19.565
461.94	20.101
462.29	19.608
462.64	19.855
462.99	20.255
463.34	20.442
463.69	19.265
464.04	18.247
464.39	19.524
464.74	18.980
465.09	19.405
465.44	19.641
465.79	19.666
466.14	19.783
466.49	19.355
466.84	19.307
467.19	19.618
467.54	18.859
467.89	18.982
468.24	18.992
468.59	18.356
468.94	18.455
469.29	18.903
469.64	18.968
469.99	20.138
470.34	18.611
470.68	18.439
471.03	18.618
471.38	18.150
471.73	19.547
472.08	17.663
472.43	18.074
472.78	17.985
473.13	17.942
473.48	16.960
473.83	17.765
474.17	18.294
474.52	18.641
474.87	18.335
475.22	17.210
475.57	17.903
475.92	17.993
476.27	17.541
476.61	17.894
476.96	17.019
477.31	17.152
477.66	17.458
478.01	17.198
478.36	17.221
478.70	17.293
479.05	16.926
479.40	17.057
479.75	16.950
480.10	17.134
480.45	16.381
480.79	17.123
481.14	17.933
481.49	17.316
481.84	16.871
482.19	16.535
482.53	16.857
482.88	16.779
483.23	17.084
483.58	16.493
483.92	16.829
484.27	16.514
484.62	16.866
484.97	16.964
485.31	16.340
485.66	16.411
486.01	16.898
486.36	17.177
486.70	16.879
487.05	17.249
487.40	17.105
487.75	16.767
488.09	16.328
488.44	16.369
488.79	15.556
489.13	15.189
489.48	16.161
489.83	15.587
490.17	15.297
490.52	15.849
490.87	15.392
491.22	16.109
491.56	15.525
491.91	14.930
492.26	15.377
492.60	14.622
492.95	15.355
493.30	14.826
493.64	14.580
493.99	15.700
494.34	14.836
494.68	15.656
495.03	14.229
495.37	14.842
495.72	14.987
496.07	14.905
496.41	14.413
496.76	15.128
497.11	15.164
497.45	15.321
497.80	15.043
498.14	14.559
498.49	14.019
498.84	14.777
499.18	13.738
499.53	13.786
499.87	13.974
500.22	15.281
500.56	14.443
500.91	14.537
501.26	13.596
501.60	13.971
501.95	13.943
502.29	14.126
502.64	14.658
502.98	13.776
503.33	13.479
503.67	13.729
504.02	13.824
504.36	13.918
504.71	13.720
505.06	13.754
505.40	14.021
505.75	14.242
506.09	13.286
506.44	13.760
506.78	13.713
507.13	13.617
507.47	13.733
507.82	12.925
508.16	13.773
508.51	13.533
508.85	12.286
509.19	12.434
509.54	14.638
509.88	13.387
510.23	12.895
510.57	13.294
510.92	13.254
511.26	12.926
511.61	12.404
511.95	12.073
512.30	12.660
512.64	13.167
512.98	13.075
513.33	12.732
513.67	11.982
514.02	12.429
514.36	12.640
514.70	12.760
515.05	12.815
515.39	12.854
515.74	12.907
516.08	12.271
516.42	12.097
516.77	10.896
517.11	11.170
517.46	12.125
517.80	13.317
518.14	11.145
518.49	11.754
518.83	12.411
519.17	11.747
519.52	12.002
519.86	12.386
520.20	11.522
520.55	12.065
520.89	11.448
521.23	11.474
521.58	11.568
521.92	12.005
522.26	11.386
522.61	12.023
522.95	12.111
523.29	11.619
523.64	11.697
523.98	11.563
524.32	11.342
524.66	11.169
525.01	11.927
525.35	11.192
525.69	11.796
526.04	11.531
526.38	11.345
526.72	11.243
527.06	11.476
527.41	10.523
527.75	10.881
528.09	11.641
528.43	11.262
528.78	11.047
529.12	11.837
529.46	10.877
529.80	11.392
530.15	11.133
530.49	11.186
530.83	10.900
531.17	11.301
531.51	10.924
531.86	10.366
532.20	10.958
532.54	10.966
532.88	10.551
533.22	11.448
533.57	10.000
533.91	11.419
534.25	11.263
534.59	10.940
534.93	10.332
535.27	10.701
535.62	10.197
535.96	10.930
536.30	10.838
536.64	9.774
536.98	10.371
537.32	10.676
537.66	11.495
538.01	9.986
538.35	9.876
538.69	10.033
539.03	9.799
539.37	10.127
539.71	11.392
540.05	9.852
540.39	10.117
540.73	9.358
541.07	10.272
541.42	10.370
541.76	9.878
542.10	10.494
542.44	9.910
542.78	9.785
543.12	11.456
543.46	9.744
543.80	9.708
544.14	9.911
544.48	9.091
544.82	9.684
545.16	9.804
545.50	10.533
545.84	10.309
546.18	9.397
546.52	10.303
546.86	8.763
547.20	9.149
547.54	9.721
547.88	9.717
548.22	9.707
548.56	9.473
548.90	9.743
549.24	10.208
549.58	9.680
549.92	11.079
550.26	10.923
550.60	8.559
550.94	8.881
551.28	9.311
551.62	9.850
551.96	8.931
552.30	8.151
552.64	8.969
552.98	9.943
553.32	9.805
553.66	9.171
554.00	8.351
554.34	8.278
554.68	9.396
555.02	8.084
555.36	9.153
555.69	9.395
556.03	9.078
556.37	9.246
556.71	9.460
557.05	8.339
557.39	9.194
557.73	9.228
558.07	8.214
558.41	8.630
558.75	9.931
559.08	7.458
559.42	8.104
559.76	9.098
560.10	8.455
560.44	9.506
560.78	8.058
561.12	8.199
561.45	8.776
561.79	9.147
562.13	9.353
562.47	9.286
562.81	9.163
563.15	8.357
563.48	8.465
563.82	9.508
564.16	9.479
564.50	8.480
564.84	8.514
565.17	8.940
565.51	8.623
565.85	8.461
566.19	8.411
566.52	8.781
566.86	8.217
567.20	8.980
567.54	9.154
567.88	8.343
568.21	8.256
568.55	8.712
568.89	8.873
569.23	9.258
569.56	8.928
569.90	8.436
570.24	8.736
570.57	9.144
570.91	8.955
571.25	8.981
571.59	8.870
571.92	9.152
572.26	8.910
572.60	8.993
572.93	8.560
573.27	8.928
573.61	9.675
573.95	9.175
574.28	9.178
574.62	8.541
574.96	9.350
575.29	8.726
575.63	8.693
575.97	8.886
576.30	8.948
576.64	8.593
576.98	9.132
577.31	8.894
577.65	8.593
577.98	8.732
578.32	8.991
578.66	8.795
578.99	9.061
579.33	8.896
579.67	8.961
580.00	9.068
580.34	8.943
580.67	9.089
581.01	8.815
581.35	8.558
581.68	8.821
582.02	9.063
582.35	9.151
582.69	8.792
583.02	8.859
583.36	8.481
583.70	8.699
584.03	9.329
584.37	8.852
584.70	8.868
585.04	8.799
585.37	8.457
585.71	8.924
586.04	8.647
586.38	8.471
586.72	8.795
587.05	8.883
587.39	8.933
587.72	8.777
588.06	8.782
588.39	8.564
588.73	8.424
589.06	8.050
589.40	8.325
589.73	8.336
590.07	8.494
590.40	8.785
590.73	8.266
591.07	8.734
591.40	8.130
591.74	7.470
592.07	8.033
592.41	8.666
592.74	7.948
593.08	8.103
593.41	8.478
593.75	8.301
594.08	7.772
594.41	8.044
594.75	8.883
595.08	8.140
595.42	7.480
595.75	8.568
596.09	8.468
596.42	8.497
596.75	7.328
597.09	8.007
597.42	8.703
597.75	8.000
598.09	8.151
598.42	8.859
598.76	7.851
599.09	7.963
599.42	8.119
599.76	8.261
600.09	8.283
600.42	7.910
600.76	7.058
601.09	7.985
601.42	8.036
601.76	8.610
602.09	8.675
602.42	7.965
602.76	7.592
603.09	8.172
603.42	7.837
603.76	7.989
604.09	7.905
604.42	7.493
604.76	7.900
605.09	8.156
605.42	8.682
605.75	7.837
606.09	7.492
606.42	7.897
606.75	7.489
607.09	7.580
607.42	7.925
607.75	6.696
608.08	8.206
608.42	7.498
608.75	8.170
609.08	7.643
609.41	8.495
609.75	7.363
610.08	7.692
610.41	7.726
610.74	7.940
611.07	7.615
611.41	8.393
611.74	8.126
612.07	7.764
612.40	8.216
612.73	7.794
613.07	7.262
613.40	7.324
613.73	7.909
614.06	7.242
614.39	6.670
614.72	8.107
615.06	7.556
615.39	7.671
615.72	7.019
616.05	6.869
616.38	8.076
616.71	6.659
617.05	8.231
617.38	6.778
617.71	6.556
618.04	6.581
618.37	6.940
618.70	7.956
619.03	7.010
619.36	7.117
619.69	6.652
620.03	6.643
620.36	7.029
620.69	6.852
621.02	6.538
621.35	4.906
621.68	5.786
622.01	7.120
622.34	6.741
622.67	7.048
623.00	7.219
623.33	6.956
623.66	6.245
623.99	6.977
624.32	7.630
624.65	7.493
624.99	6.539
625.32	6.647
625.65	7.287
625.98	7.425
626.31	7.265
626.64	5.847
626.97	5.796
627.30	6.501
627.63	6.055
627.96	4.762
628.29	7.163
628.62	6.963
628.95	7.415
629.28	5.911
629.61	7.751
629.94	5.416
630.26	6.601
630.59	5.295
630.92	5.422
631.25	6.488
631.58	7.281
631.91	6.681
632.24	4.830
632.57	5.778
632.90	6.884
633.23	4.916
633.56	6.595
633.89	6.220
634.22	8.952
634.55	6.943
634.88	4.902
635.20	6.250
635.53	6.718
635.86	6.154
636.19	5.583
636.52	5.610
636.85	5.790
637.18	4.141
637.51	5.993
637.83	5.614
638.16	5.200
638.49	6.542
638.82	4.706
639.15	5.585
639.48	5.348
639.81	6.389
640.13	5.775
640.46	6.073
640.79	5.180
641.12	5.473
641.45	4.512
641.77	5.007
642.10	5.749
642.43	5.660
