SpectraSuite Data File
++++++++++++++++++++++++++++++++++++
Date: Wed May 13 21:36:37 PDT 2015
User: schluterlab
Dark Spectrum Present: Yes
Reference Spectrum Present: Yes
Number of Sampled Component Spectra: 1
Spectrometers: USB2E3373
Integration Time (usec): 3000 (USB2E3373)
Spectra Averaged: 3 (USB2E3373)
Boxcar Smoothing: 0 (USB2E3373)
Correct for Electrical Dark: No (USB2E3373)
Strobe/Lamp Enabled: No (USB2E3373)
Correct for Detector Non-linearity: No (USB2E3373)
Correct for Stray Light: No (USB2E3373)
Number of Pixels in Processed Spectrum: 2048
>>>>>Begin Processed Spectral Data<<<<<
178.53	0.000
178.91	550.000
179.29	225.000
179.67	-650.000
180.04	-566.667
180.42	300.000
180.80	2500.000
181.18	416.667
181.56	-475.000
181.94	-425.000
182.31	-63.636
182.69	184.615
183.07	-120.000
183.45	166.667
183.83	255.556
184.20	271.429
184.58	-400.000
184.96	533.333
185.34	228.571
185.72	0.000
186.09	-300.000
186.47	-240.000
186.85	240.000
187.23	-450.000
187.61	600.000
187.98	1400.000
188.36	12.500
188.74	0.000
189.12	-100.000
189.49	-10.000
189.87	116.667
190.25	480.000
190.63	2200.000
191.00	-440.000
191.38	380.000
191.76	500.000
192.14	175.000
192.51	5.263
192.89	233.333
193.27	250.000
193.65	-300.000
194.02	200.000
194.40	210.000
194.78	-1200.000
195.15	180.000
195.53	-280.000
195.91	-50.000
196.29	-266.667
196.66	0.000
197.04	200.000
197.42	-180.000
197.79	-50.000
198.17	-250.000
198.55	-433.333
198.92	425.000
199.30	-500.000
199.68	-70.000
200.05	950.000
200.43	250.000
200.81	-1200.000
201.18	-200.000
201.56	-216.667
201.94	500.000
202.31	-30.435
202.69	-114.286
203.07	-866.667
203.44	-280.000
203.82	-300.000
204.19	-140.000
204.57	0.000
204.95	-250.000
205.32	0.000
205.70	-850.000
206.08	-500.000
206.45	-233.333
206.83	500.000
207.20	-566.667
207.58	-80.000
207.96	-2400.000
208.33	-214.286
208.71	-1600.000
209.08	262.500
209.46	275.000
209.84	0.000
210.21	110.000
210.59	2000.000
210.96	320.000
211.34	1600.000
211.71	-350.000
212.09	-233.333
212.46	-140.000
212.84	-33.333
213.22	-25.000
213.59	-900.000
213.97	-1100.000
214.34	-1200.000
214.72	-92.308
215.09	225.000
215.47	222.222
215.84	650.000
216.22	-62.500
216.59	-350.000
216.97	566.667
217.34	266.667
217.72	0.000
218.09	566.667
218.47	-400.000
218.84	-257.143
219.22	0.000
219.59	-433.333
219.97	-325.000
220.34	-125.000
220.72	-40.000
221.09	0.000
221.47	-200.000
221.84	-1000.000
222.22	0.000
222.59	800.000
222.97	-100.000
223.34	-141.667
223.72	-1200.000
224.09	-450.000
224.46	-81.818
224.84	-175.000
225.21	-100.000
225.59	-350.000
225.96	-183.333
226.34	-110.000
226.71	-385.714
227.08	950.000
227.46	-87.500
227.83	-800.000
228.21	-43.750
228.58	-100.000
228.95	-123.529
229.33	-50.000
229.70	-25.000
230.08	-84.615
230.45	-225.000
230.82	-125.000
231.20	185.714
231.57	-350.000
231.95	600.000
232.32	-58.333
232.69	-47.059
233.07	-1500.000
233.44	-56.522
233.81	-1150.000
234.19	-20.833
234.56	-86.667
234.93	-73.333
235.31	0.000
235.68	-84.615
236.05	-92.308
236.43	-88.889
236.80	-9.091
237.17	-86.667
237.55	-82.353
237.92	-24.138
238.29	-55.556
238.67	2.778
239.04	-9.677
239.41	-27.660
239.79	14.894
240.16	-9.302
240.53	-17.857
240.91	-1.786
241.28	-1.786
241.65	-6.452
242.02	3.947
242.40	5.797
242.77	-1.449
243.14	-10.256
243.51	3.191
243.89	12.500
244.26	16.981
244.63	-4.808
245.00	13.542
245.38	8.403
245.75	4.098
246.12	14.286
246.49	-2.439
246.87	3.361
247.24	14.865
247.61	9.272
247.98	10.897
248.36	7.101
248.73	4.494
249.10	6.061
249.47	11.290
249.84	11.579
250.22	19.900
250.59	11.682
250.96	11.364
251.33	4.785
251.70	17.155
252.08	9.623
252.45	16.461
252.82	12.548
253.19	12.840
253.56	14.029
253.94	16.726
254.31	13.732
254.68	14.765
255.05	11.221
255.42	13.287
255.79	12.577
256.16	14.196
256.54	13.651
256.91	9.494
257.28	18.553
257.65	11.146
258.02	15.249
258.39	14.620
258.76	14.535
259.14	11.080
259.51	12.360
259.88	17.886
260.25	12.500
260.62	10.393
260.99	16.446
261.36	15.026
261.73	13.827
262.10	12.468
262.47	14.568
262.85	13.433
263.22	12.564
263.59	16.623
263.96	16.302
264.33	13.942
264.70	13.488
265.07	15.046
265.44	17.471
265.81	12.815
266.18	12.301
266.55	13.319
266.92	14.619
267.29	15.021
267.66	17.410
268.03	16.461
268.40	11.229
268.77	15.083
269.14	16.531
269.51	14.990
269.88	13.849
270.25	12.288
270.62	14.754
270.99	14.173
271.36	14.087
271.73	16.064
272.10	15.238
272.47	16.123
272.84	14.370
273.21	12.524
273.58	12.910
273.95	12.075
274.32	14.552
274.69	13.115
275.06	15.018
275.43	13.936
275.80	13.830
276.17	12.523
276.54	12.611
276.91	15.854
277.28	12.094
277.65	14.685
278.02	15.179
278.39	13.144
278.76	14.381
279.13	14.751
279.50	15.517
279.87	13.225
280.23	13.153
280.60	11.592
280.97	15.422
281.34	15.615
281.71	13.496
282.08	12.821
282.45	13.770
282.82	13.099
283.19	14.939
283.56	15.156
283.92	15.596
284.29	13.105
284.66	12.521
285.03	11.238
285.40	14.350
285.77	16.066
286.14	14.742
286.51	14.693
286.87	13.538
287.24	14.602
287.61	14.307
287.98	15.735
288.35	13.562
288.72	14.778
289.08	15.527
289.45	14.244
289.82	16.188
290.19	15.007
290.56	13.210
290.93	12.983
291.29	12.996
291.66	12.432
292.03	14.578
292.40	13.459
292.77	13.253
293.13	13.808
293.50	13.464
293.87	14.267
294.24	11.111
294.60	13.134
294.97	13.228
295.34	12.929
295.71	11.564
296.08	11.387
296.44	12.372
296.81	10.597
297.18	11.750
297.55	13.797
297.91	12.050
298.28	11.622
298.65	11.207
299.02	12.210
299.38	11.656
299.75	11.659
300.12	11.628
300.48	12.281
300.85	11.432
301.22	10.918
301.59	11.150
301.95	10.105
302.32	11.202
302.69	10.056
303.05	10.963
303.42	11.250
303.79	11.672
304.15	10.953
304.52	12.581
304.89	10.410
305.25	10.977
305.62	10.846
305.99	12.078
306.35	13.166
306.72	11.190
307.09	11.992
307.45	11.928
307.82	10.947
308.19	9.613
308.55	10.952
308.92	12.279
309.29	11.111
309.65	11.189
310.02	11.630
310.38	11.484
310.75	10.454
311.12	11.176
311.48	10.584
311.85	10.630
312.22	11.315
312.58	10.628
312.95	10.050
313.31	11.295
313.68	10.973
314.05	10.586
314.41	10.951
314.78	11.101
315.14	11.204
315.51	11.323
315.87	11.029
316.24	11.019
316.61	12.146
316.97	9.444
317.34	12.121
317.70	11.508
318.07	12.067
318.43	12.195
318.80	10.471
319.16	9.814
319.53	11.470
319.89	11.021
320.26	11.275
320.62	11.029
320.99	11.143
321.35	10.384
321.72	11.261
322.08	11.162
322.45	11.101
322.81	11.460
323.18	11.628
323.54	11.101
323.91	11.743
324.27	10.261
324.64	9.582
325.00	10.586
325.37	11.263
325.73	9.933
326.10	10.177
326.46	10.870
326.83	11.650
327.19	10.650
327.56	11.120
327.92	12.068
328.29	12.270
328.65	12.095
329.01	10.202
329.38	10.870
329.74	10.987
330.11	10.911
330.47	10.417
330.84	10.379
331.20	10.931
331.56	11.504
331.93	11.197
332.29	12.337
332.66	10.000
333.02	12.250
333.38	10.351
333.75	10.580
334.11	12.500
334.48	11.683
334.84	10.866
335.20	10.978
335.57	11.053
335.93	10.137
336.29	9.632
336.66	9.744
337.02	10.522
337.38	11.140
337.75	10.939
338.11	10.675
338.47	10.188
338.84	10.911
339.20	10.670
339.56	11.007
339.93	10.285
340.29	10.077
340.65	11.548
341.02	10.566
341.38	9.966
341.74	9.328
342.11	10.322
342.47	9.958
342.83	10.948
343.20	10.575
343.56	11.038
343.92	10.561
344.28	10.795
344.65	10.367
345.01	9.685
345.37	11.184
345.73	11.275
346.10	10.514
346.46	10.488
346.82	9.872
347.19	9.810
347.55	10.501
347.91	8.885
348.27	10.252
348.63	10.978
349.00	10.456
349.36	11.460
349.72	10.828
350.08	10.686
350.45	8.849
350.81	10.720
351.17	11.162
351.53	10.369
351.89	9.531
352.26	9.344
352.62	10.233
352.98	9.904
353.34	9.581
353.70	10.436
354.07	10.431
354.43	10.575
354.79	9.856
355.15	10.248
355.51	10.175
355.87	10.868
356.24	9.551
356.60	9.539
356.96	9.900
357.32	9.520
357.68	10.008
358.04	9.775
358.40	11.085
358.77	10.245
359.13	10.117
359.49	9.614
359.85	10.008
360.21	10.717
360.57	10.570
360.93	8.498
361.29	10.733
361.66	11.086
362.02	9.785
362.38	9.970
362.74	10.587
363.10	10.123
363.46	9.798
363.82	10.273
364.18	9.572
364.54	10.430
364.90	9.895
365.26	9.271
365.62	9.375
365.98	10.107
366.35	9.078
366.71	10.414
367.07	9.780
367.43	10.383
367.79	9.868
368.15	10.127
368.51	9.775
368.87	9.351
369.23	9.609
369.59	10.430
369.95	8.999
370.31	9.763
370.67	10.500
371.03	10.393
371.39	11.072
371.75	10.286
372.11	10.114
372.47	9.877
372.83	10.125
373.19	9.137
373.55	10.405
373.91	10.184
374.27	9.613
374.63	9.531
374.99	10.028
375.35	9.726
375.71	9.307
376.07	9.664
376.42	9.893
376.78	10.502
377.14	9.559
377.50	10.169
377.86	9.761
378.22	9.987
378.58	9.395
378.94	9.938
379.30	9.744
379.66	10.234
380.02	9.498
380.38	9.639
380.74	10.161
381.09	9.590
381.45	10.218
381.81	9.735
382.17	9.893
382.53	10.031
382.89	9.952
383.25	10.309
383.61	10.775
383.97	10.437
384.32	9.389
384.68	9.747
385.04	9.407
385.40	9.776
385.76	10.888
386.12	9.877
386.48	9.592
386.83	10.263
387.19	8.822
387.55	10.116
387.91	10.209
388.27	9.494
388.62	10.175
388.98	9.825
389.34	9.649
389.70	9.524
390.06	10.250
390.42	10.309
390.77	10.314
391.13	10.417
391.49	9.614
391.85	9.585
392.20	9.461
392.56	9.651
392.92	10.064
393.28	9.704
393.64	8.869
393.99	9.302
394.35	10.000
394.71	9.808
395.07	9.308
395.42	10.847
395.78	8.880
396.14	10.336
396.50	9.892
396.85	9.943
397.21	9.176
397.57	10.248
397.92	9.461
398.28	9.363
398.64	9.897
399.00	10.435
399.35	10.613
399.71	9.552
400.07	9.940
400.42	9.467
400.78	9.607
401.14	9.074
401.49	9.527
401.85	9.337
402.21	9.659
402.57	9.871
402.92	11.014
403.28	9.694
403.63	9.361
403.99	8.189
404.35	9.788
404.70	9.728
405.06	9.982
405.42	9.108
405.77	10.138
406.13	9.543
406.49	10.126
406.84	9.463
407.20	9.177
407.55	8.961
407.91	9.464
408.27	9.669
408.62	10.497
408.98	10.049
409.34	9.715
409.69	10.721
410.05	10.386
410.40	9.251
410.76	9.747
411.11	9.950
411.47	10.418
411.83	9.482
412.18	8.753
412.54	10.276
412.89	9.592
413.25	9.617
413.60	9.969
413.96	9.988
414.31	9.371
414.67	9.905
415.03	9.540
415.38	9.313
415.74	9.552
416.09	9.121
416.45	9.433
416.80	9.933
417.16	9.379
417.51	9.042
417.87	9.987
418.22	9.567
418.58	9.461
418.93	9.040
419.29	10.495
419.64	9.606
420.00	9.841
420.35	10.161
420.71	9.202
421.06	10.578
421.42	10.158
421.77	9.827
422.12	10.029
422.48	8.942
422.83	9.923
423.19	9.258
423.54	10.247
423.90	9.323
424.25	10.630
424.61	9.550
424.96	9.462
425.31	9.927
425.67	10.229
426.02	10.306
426.38	9.639
426.73	9.774
427.09	9.631
427.44	9.748
427.79	9.798
428.15	10.092
428.50	9.426
428.85	11.009
429.21	9.510
429.56	10.202
429.92	9.630
430.27	10.020
430.62	9.864
430.98	10.100
431.33	9.565
431.68	10.543
432.04	10.423
432.39	9.411
432.74	10.239
433.10	10.866
433.45	10.000
433.80	10.115
434.16	10.213
434.51	10.380
434.86	9.835
435.22	10.526
435.57	9.214
435.92	9.831
436.28	9.670
436.63	9.988
436.98	9.871
437.34	10.440
437.69	9.799
438.04	10.470
438.39	9.838
438.75	10.072
439.10	10.353
439.45	9.685
439.81	10.345
440.16	10.377
440.51	10.285
440.86	10.018
441.22	10.212
441.57	10.738
441.92	10.627
442.27	10.498
442.63	9.688
442.98	9.664
443.33	10.158
443.68	10.016
444.03	10.184
444.39	10.610
444.74	10.271
445.09	10.187
445.44	11.211
445.79	10.274
446.15	10.205
446.50	10.573
446.85	10.315
447.20	10.246
447.55	11.024
447.91	10.393
448.26	9.949
448.61	10.644
448.96	10.308
449.31	10.680
449.66	10.642
450.02	10.688
450.37	10.811
450.72	10.735
451.07	11.160
451.42	9.981
451.77	10.895
452.12	10.933
452.47	10.265
452.83	10.554
453.18	9.675
453.53	10.088
453.88	10.663
454.23	10.260
454.58	11.336
454.93	10.327
455.28	10.469
455.63	9.607
455.98	9.982
456.34	9.981
456.69	10.735
457.04	10.402
457.39	10.704
457.74	9.874
458.09	9.893
458.44	10.223
458.79	10.379
459.14	9.663
459.49	9.695
459.84	9.470
460.19	9.964
460.54	10.219
460.89	9.516
461.24	9.679
461.59	10.205
461.94	10.051
462.29	9.743
462.64	11.016
462.99	10.999
463.34	10.981
463.69	10.116
464.04	9.904
464.39	10.433
464.74	10.074
465.09	10.229
465.44	10.269
465.79	10.696
466.14	10.661
466.49	9.736
466.84	10.281
467.19	9.427
467.54	11.277
467.89	10.748
468.24	10.510
468.59	10.006
468.94	10.281
469.29	9.914
469.64	11.437
469.99	10.897
470.34	10.924
470.68	10.929
471.03	10.931
471.38	10.918
471.73	11.523
472.08	11.065
472.43	11.214
472.78	11.021
473.13	10.026
473.48	10.959
473.83	10.483
474.17	10.026
474.52	10.485
474.87	10.314
475.22	10.205
475.57	10.206
475.92	10.414
476.27	9.499
476.61	10.985
476.96	10.623
477.31	10.680
477.66	10.791
478.01	10.549
478.36	10.354
478.70	11.547
479.05	10.433
479.40	11.440
479.75	10.627
480.10	10.760
480.45	10.495
480.79	11.000
481.14	11.246
481.49	11.495
481.84	10.179
482.19	11.255
482.53	11.190
482.88	11.074
483.23	10.780
483.58	11.437
483.92	10.360
484.27	10.339
484.62	10.209
484.97	11.116
485.31	9.989
485.66	9.877
486.01	9.868
486.36	10.086
486.70	10.164
487.05	10.955
487.40	10.878
487.75	10.738
488.09	10.885
488.44	11.427
488.79	11.241
489.13	10.934
489.48	10.859
489.83	11.210
490.17	11.212
490.52	11.547
490.87	10.431
491.22	11.116
491.56	11.404
491.91	11.522
492.26	10.928
492.60	10.967
492.95	11.176
493.30	10.707
493.64	10.072
493.99	11.014
494.34	11.272
494.68	10.835
495.03	10.820
495.37	10.949
495.72	11.378
496.07	11.934
496.41	10.529
496.76	11.015
497.11	10.751
497.45	10.992
497.80	12.014
498.14	11.537
498.49	10.338
498.84	10.678
499.18	11.349
499.53	11.275
499.87	11.063
500.22	11.498
500.56	11.785
500.91	11.268
501.26	11.330
501.60	10.441
501.95	11.260
502.29	10.874
502.64	11.668
502.98	11.320
503.33	10.803
503.67	11.782
504.02	11.275
504.36	11.095
504.71	10.874
505.06	11.360
505.40	10.567
505.75	11.699
506.09	11.293
506.44	11.341
506.78	11.072
507.13	10.915
507.47	11.506
507.82	11.617
508.16	12.401
508.51	11.622
508.85	10.783
509.19	11.481
509.54	11.957
509.88	10.645
510.23	11.789
510.57	12.076
510.92	12.284
511.26	11.661
511.61	11.416
511.95	11.577
512.30	11.327
512.64	11.918
512.98	11.634
513.33	11.211
513.67	11.811
514.02	12.144
514.36	11.966
514.70	11.778
515.05	11.937
515.39	11.792
515.74	11.723
516.08	12.094
516.42	11.348
516.77	11.131
517.11	11.934
517.46	12.605
517.80	12.530
518.14	10.900
518.49	11.272
518.83	12.589
519.17	11.747
519.52	12.545
519.86	11.900
520.20	12.068
520.55	12.500
520.89	12.334
521.23	13.141
521.58	12.579
521.92	12.319
522.26	12.167
522.61	11.765
522.95	12.047
523.29	12.190
523.64	13.160
523.98	11.626
524.32	12.161
524.66	12.143
525.01	11.664
525.35	12.047
525.69	12.061
526.04	11.726
526.38	12.683
526.72	11.506
527.06	12.121
527.41	12.442
527.75	12.150
528.09	12.321
528.43	12.280
528.78	11.886
529.12	12.678
529.46	12.668
529.80	12.492
530.15	11.390
530.49	12.399
530.83	11.713
531.17	11.507
531.51	12.070
531.86	12.873
532.20	11.027
532.54	11.586
532.88	12.185
533.22	12.525
533.57	11.722
533.91	12.581
534.25	12.435
534.59	11.776
534.93	11.607
535.27	12.229
535.62	11.776
535.96	13.468
536.30	12.832
536.64	11.620
536.98	12.193
537.32	12.811
537.66	12.694
538.01	11.720
538.35	11.602
538.69	12.040
539.03	11.879
539.37	11.804
539.71	11.255
540.05	10.931
540.39	11.493
540.73	12.640
541.07	12.721
541.42	11.717
541.76	11.976
542.10	12.661
542.44	12.128
542.78	12.144
543.12	12.466
543.46	11.610
543.80	12.288
544.14	12.113
544.48	11.082
544.82	12.643
545.16	11.900
545.50	13.032
545.84	12.132
546.18	12.132
546.52	13.056
546.86	10.813
547.20	11.794
547.54	12.437
547.88	12.618
548.22	11.857
548.56	11.007
548.90	11.773
549.24	11.806
549.58	11.886
549.92	13.353
550.26	13.579
550.60	11.712
550.94	11.866
551.28	12.188
551.62	12.632
551.96	12.225
552.30	12.227
552.64	12.359
552.98	12.642
553.32	11.968
553.66	13.280
554.00	12.527
554.34	11.795
554.68	12.304
555.02	12.051
555.36	11.044
555.69	11.653
556.03	11.794
556.37	11.451
556.71	12.193
557.05	12.251
557.39	11.530
557.73	12.254
558.07	12.057
558.41	11.658
558.75	12.163
559.08	11.468
559.42	12.038
559.76	12.615
560.10	11.683
560.44	12.307
560.78	11.151
561.12	12.754
561.45	11.497
561.79	11.898
562.13	11.955
562.47	12.071
562.81	11.977
563.15	11.898
563.48	11.631
563.82	11.696
564.16	11.916
564.50	11.669
564.84	12.095
565.17	12.450
565.51	10.829
565.85	11.726
566.19	11.589
566.52	12.123
566.86	11.631
567.20	11.484
567.54	11.687
567.88	10.694
568.21	10.864
568.55	11.424
568.89	10.219
569.23	11.182
569.56	10.680
569.90	10.506
570.24	10.397
570.57	10.713
570.91	10.885
571.25	11.019
571.59	10.583
571.92	10.971
572.26	10.841
572.60	10.656
572.93	10.715
573.27	10.932
573.61	10.711
573.95	11.052
574.28	10.570
574.62	10.491
574.96	10.753
575.29	10.181
575.63	10.616
575.97	10.897
576.30	10.683
576.64	10.584
576.98	10.772
577.31	10.710
577.65	10.382
577.98	10.283
578.32	10.503
578.66	10.541
578.99	10.892
579.33	11.419
579.67	10.514
580.00	10.584
580.34	10.155
580.67	11.024
581.01	10.331
581.35	10.394
581.68	10.203
582.02	10.306
582.35	10.566
582.69	10.087
583.02	10.272
583.36	10.483
583.70	10.778
584.03	10.839
584.37	10.355
584.70	10.759
585.04	10.908
585.37	10.595
585.71	10.830
586.04	10.451
586.38	10.602
586.72	10.424
587.05	10.773
587.39	10.453
587.72	10.532
588.06	10.342
588.39	10.635
588.73	10.620
589.06	10.734
589.40	10.836
589.73	10.456
590.07	11.046
590.40	10.716
590.73	11.062
591.07	10.907
591.40	11.087
591.74	10.938
592.07	11.000
592.41	11.369
592.74	10.802
593.08	10.598
593.41	10.340
593.75	10.401
594.08	10.155
594.41	10.786
594.75	10.457
595.08	10.829
595.42	10.200
595.75	11.316
596.09	11.047
596.42	10.172
596.75	11.014
597.09	10.874
597.42	11.306
597.75	11.111
598.09	10.610
598.42	11.141
598.76	10.663
599.09	11.164
599.42	10.876
599.76	10.702
600.09	10.542
600.42	10.960
600.76	10.237
601.09	10.960
601.42	10.780
601.76	10.927
602.09	10.863
602.42	11.638
602.76	10.906
603.09	10.883
603.42	11.076
603.76	11.107
604.09	10.988
604.42	10.758
604.76	11.000
605.09	10.739
605.42	11.291
605.75	10.107
606.09	11.341
606.42	10.557
606.75	10.866
607.09	10.284
607.42	11.121
607.75	9.584
608.08	10.595
608.42	10.825
608.75	10.846
609.08	10.534
609.41	11.326
609.75	10.540
610.08	10.897
610.41	11.759
610.74	10.395
611.07	11.022
611.41	10.747
611.74	11.128
612.07	10.943
612.40	11.027
612.73	10.318
613.07	11.530
613.40	11.123
613.73	10.943
614.06	10.116
614.39	11.173
614.72	11.105
615.06	10.944
615.39	11.258
615.72	9.989
616.05	10.698
616.38	10.538
616.71	10.738
617.05	11.425
617.38	10.967
617.71	10.294
618.04	11.091
618.37	10.852
618.70	10.996
619.03	11.478
619.36	11.957
619.69	11.184
620.03	10.954
620.36	10.438
620.69	10.064
621.02	11.000
621.35	10.793
621.68	11.328
622.01	11.489
622.34	10.626
622.67	11.198
623.00	11.778
623.33	11.967
623.66	10.929
623.99	10.953
624.32	10.051
624.65	11.276
624.99	11.609
625.32	11.202
625.65	10.930
625.98	11.690
626.31	11.429
626.64	11.522
626.97	11.938
627.30	12.062
627.63	11.505
627.96	10.996
628.29	12.372
628.62	12.476
628.95	10.621
629.28	11.921
629.61	12.632
629.94	11.315
630.26	12.906
630.59	12.188
630.92	11.446
631.25	10.402
631.58	13.062
631.91	10.710
632.24	11.526
632.57	10.444
632.90	12.485
633.23	10.911
633.56	12.950
633.89	12.081
634.22	14.959
634.55	14.129
634.88	12.255
635.20	12.625
635.53	10.207
635.86	12.949
636.19	13.648
