SpectraSuite Data File
++++++++++++++++++++++++++++++++++++
Date: Thu May 14 16:00:54 PDT 2015
User: schluterlab
Dark Spectrum Present: Yes
Reference Spectrum Present: Yes
Number of Sampled Component Spectra: 1
Spectrometers: USB2E3373
Integration Time (usec): 3000 (USB2E3373)
Spectra Averaged: 3 (USB2E3373)
Boxcar Smoothing: 0 (USB2E3373)
Correct for Electrical Dark: No (USB2E3373)
Strobe/Lamp Enabled: No (USB2E3373)
Correct for Detector Non-linearity: No (USB2E3373)
Correct for Stray Light: No (USB2E3373)
Number of Pixels in Processed Spectrum: 2048
>>>>>Begin Processed Spectral Data<<<<<
178.53	0.000
178.91	328.571
179.29	-3500.000
179.67	-2100.000
180.04	235.714
180.42	150.000
180.80	520.000
181.18	-2100.000
181.56	-600.000
181.94	200.000
182.31	-300.000
182.69	533.333
183.07	-650.000
183.45	475.000
183.83	-383.333
184.20	-400.000
184.58	1800.000
184.96	-475.000
185.34	-155.556
185.72	-140.000
186.09	255.556
186.47	1050.000
186.85	560.000
187.23	-222.222
187.61	-3600.000
187.98	500.000
188.36	500.000
188.74	-625.000
189.12	-500.000
189.49	-68.750
189.87	-175.000
190.25	-166.667
190.63	-100.000
191.00	-233.333
191.38	0.000
191.76	-475.000
192.14	-266.667
192.51	850.000
192.89	-183.333
193.27	0.000
193.65	-300.000
194.02	-2300.000
194.40	-257.143
194.78	271.429
195.15	0.000
195.53	-54.545
195.91	0.000
196.29	-250.000
196.66	-123.077
197.04	-2100.000
197.42	-242.857
197.79	-700.000
198.17	-212.500
198.55	-185.714
198.92	-144.444
199.30	-300.000
199.68	-45.455
200.05	-71.429
200.43	-1150.000
200.81	414.286
201.18	0.000
201.56	300.000
201.94	0.000
202.31	800.000
202.69	-244.444
203.07	2100.000
203.44	-177.778
203.82	-500.000
204.19	-108.333
204.57	-166.667
204.95	-312.500
205.32	-2600.000
205.70	350.000
206.08	-300.000
206.45	-200.000
206.83	480.000
207.20	-150.000
207.58	-300.000
207.96	-400.000
208.33	-116.667
208.71	200.000
209.08	-33.333
209.46	0.000
209.84	316.667
210.21	950.000
210.59	800.000
210.96	533.333
211.34	-325.000
211.71	-187.500
212.09	-2200.000
212.46	0.000
212.84	1150.000
213.22	-280.000
213.59	-425.000
213.97	-70.000
214.34	-700.000
214.72	316.667
215.09	-575.000
215.47	0.000
215.84	214.286
216.22	1450.000
216.59	-300.000
216.97	-340.000
217.34	-425.000
217.72	-137.500
218.09	-475.000
218.47	-700.000
218.84	0.000
219.22	480.000
219.59	-100.000
219.97	-60.000
220.34	950.000
220.72	-155.556
221.09	-30.769
221.47	-766.667
221.84	-190.000
222.22	-314.286
222.59	0.000
222.97	-162.500
223.34	-400.000
223.72	-1800.000
224.09	-600.000
224.46	-575.000
224.84	-220.000
225.21	-500.000
225.59	-600.000
225.96	-400.000
226.34	-30.769
226.71	383.333
227.08	-1150.000
227.46	-126.667
227.83	-375.000
228.21	-84.211
228.58	337.500
228.95	1250.000
229.33	-50.000
229.70	-110.000
230.08	10.526
230.45	230.000
230.82	-500.000
231.20	-114.286
231.57	-75.000
231.95	-127.273
232.32	-154.545
232.69	-15.000
233.07	-375.000
233.44	-88.235
233.81	-190.000
234.19	-44.444
234.56	-90.909
234.93	-27.586
235.31	-52.632
235.68	-111.111
236.05	-135.000
236.43	-7.692
236.80	8.000
237.17	-33.333
237.55	-27.273
237.92	-160.000
238.29	-41.935
238.67	-27.273
239.04	-41.667
239.41	-40.476
239.79	-36.957
240.16	-25.926
240.53	-34.783
240.91	-35.294
241.28	-11.475
241.65	4.478
242.02	-5.405
242.40	-27.692
242.77	-18.667
243.14	-8.537
243.51	-27.632
243.89	-14.103
244.26	-3.960
244.63	-11.765
245.00	-14.019
245.38	-8.772
245.75	-25.664
246.12	-4.762
246.49	-3.101
246.87	-6.429
247.24	1.987
247.61	-1.974
247.98	-4.698
248.36	-4.321
248.73	-4.294
249.10	-1.639
249.47	1.493
249.84	5.759
250.22	-2.591
250.59	-3.333
250.96	0.909
251.33	-6.122
251.70	0.000
252.08	1.667
252.45	2.869
252.82	-0.413
253.19	-0.781
253.56	-1.141
253.94	0.385
254.31	0.379
254.68	4.545
255.05	5.863
255.42	1.701
255.79	0.000
256.16	1.656
256.54	1.325
256.91	3.279
257.28	1.639
257.65	0.955
258.02	1.770
258.39	3.134
258.76	3.976
259.14	1.437
259.51	4.035
259.88	1.133
260.25	6.111
260.62	1.918
260.99	6.831
261.36	3.485
261.73	1.857
262.10	0.000
262.47	0.268
262.85	4.545
263.22	0.779
263.59	-0.789
263.96	3.325
264.33	1.535
264.70	5.185
265.07	6.921
265.44	5.669
265.81	3.241
266.18	4.308
266.55	5.357
266.92	3.189
267.29	5.252
267.66	4.878
268.03	5.240
268.40	4.802
268.77	2.961
269.14	0.441
269.51	4.825
269.88	6.762
270.25	4.628
270.62	5.063
270.99	6.263
271.36	5.149
271.73	3.929
272.10	4.208
272.47	4.008
272.84	4.016
273.21	5.210
273.58	5.645
273.95	3.846
274.32	4.563
274.69	3.482
275.06	6.410
275.43	4.806
275.80	4.938
276.17	2.407
276.54	5.597
276.91	5.188
277.28	3.797
277.65	4.847
278.02	5.147
278.39	4.710
278.76	3.339
279.13	6.383
279.50	6.186
279.87	4.830
280.23	2.289
280.60	5.254
280.97	5.757
281.34	3.735
281.71	7.107
282.08	3.654
282.45	3.273
282.82	4.239
283.19	4.200
283.56	3.115
283.92	5.856
284.29	6.319
284.66	4.433
285.03	1.442
285.40	5.873
285.77	4.334
286.14	5.954
286.51	5.784
286.87	2.528
287.24	6.777
287.61	4.783
287.98	3.625
288.35	3.698
288.72	4.438
289.08	5.271
289.45	3.698
289.82	4.217
290.19	5.029
290.56	3.099
290.93	4.565
291.29	5.785
291.66	4.408
292.03	3.392
292.40	4.762
292.77	3.235
293.13	4.060
293.50	4.731
293.87	3.893
294.24	5.333
294.60	4.678
294.97	2.416
295.34	4.738
295.71	4.414
296.08	2.842
296.44	3.922
296.81	4.507
297.18	2.864
297.55	3.066
297.91	4.152
298.28	4.621
298.65	4.400
299.02	4.014
299.38	4.805
299.75	5.257
300.12	3.125
300.48	4.263
300.85	4.162
301.22	4.251
301.59	3.653
301.95	3.616
302.32	4.000
302.69	3.724
303.05	3.591
303.42	4.102
303.79	4.062
304.15	4.837
304.52	4.334
304.89	4.921
305.25	4.658
305.62	4.284
305.99	3.608
306.35	4.435
306.72	4.447
307.09	4.264
307.45	4.244
307.82	4.036
308.19	4.339
308.55	5.207
308.92	5.258
309.29	5.651
309.65	4.288
310.02	3.762
310.38	5.118
310.75	5.049
311.12	5.081
311.48	3.519
311.85	4.179
312.22	4.744
312.58	5.634
312.95	4.685
313.31	6.233
313.68	5.037
314.05	6.594
314.41	7.650
314.78	6.449
315.14	5.354
315.51	7.387
315.87	7.381
316.24	8.858
316.61	8.703
316.97	7.511
317.34	6.966
317.70	8.472
318.07	8.818
318.43	9.779
318.80	10.117
319.16	9.099
319.53	8.141
319.89	9.290
320.26	8.719
320.62	8.599
320.99	9.695
321.35	10.351
321.72	11.070
322.08	10.640
322.45	11.292
322.81	11.462
323.18	10.088
323.54	11.379
323.91	11.566
324.27	12.306
324.64	13.434
325.00	12.355
325.37	13.432
325.73	13.802
326.10	12.895
326.46	14.088
326.83	14.492
327.19	14.724
327.56	13.281
327.92	14.555
328.29	13.710
328.65	14.405
329.01	14.890
329.38	14.153
329.74	15.497
330.11	15.325
330.47	15.249
330.84	15.159
331.20	15.500
331.56	14.905
331.93	15.816
332.29	16.017
332.66	15.947
333.02	15.829
333.38	15.268
333.75	15.993
334.11	15.763
334.48	15.924
334.84	15.888
335.20	15.113
335.57	16.020
335.93	15.620
336.29	14.642
336.66	16.400
337.02	15.468
337.38	16.752
337.75	14.876
338.11	15.475
338.47	16.377
338.84	15.821
339.20	14.490
339.56	15.898
339.93	15.353
340.29	15.620
340.65	15.166
341.02	16.281
341.38	15.764
341.74	14.689
342.11	16.010
342.47	15.091
342.83	15.700
343.20	16.190
343.56	15.557
343.92	15.052
344.28	16.172
344.65	15.504
345.01	15.523
345.37	14.619
345.73	14.263
346.10	15.445
346.46	15.585
346.82	16.180
347.19	15.890
347.55	15.706
347.91	15.825
348.27	14.795
348.63	16.070
349.00	14.691
349.36	14.721
349.72	15.625
350.08	16.048
350.45	14.753
350.81	14.857
351.17	16.391
351.53	14.936
351.89	15.869
352.26	15.373
352.62	15.149
352.98	14.580
353.34	15.534
353.70	15.254
354.07	14.307
354.43	15.869
354.79	14.734
355.15	15.453
355.51	15.424
355.87	16.081
356.24	15.209
356.60	15.447
356.96	15.271
357.32	15.167
357.68	14.934
358.04	16.093
358.40	15.149
358.77	15.863
359.13	15.288
359.49	15.242
359.85	15.518
360.21	16.212
360.57	15.075
360.93	15.585
361.29	16.842
361.66	15.206
362.02	16.980
362.38	15.531
362.74	15.154
363.10	14.787
363.46	16.066
363.82	15.625
364.18	15.764
364.54	16.113
364.90	16.388
365.26	14.690
365.62	16.867
365.98	15.997
366.35	16.376
366.71	16.871
367.07	16.171
367.43	17.006
367.79	16.656
368.15	16.388
368.51	16.103
368.87	15.872
369.23	16.667
369.59	15.779
369.95	16.430
370.31	17.488
370.67	16.025
371.03	15.443
371.39	16.991
371.75	17.469
372.11	18.022
372.47	17.062
372.83	17.147
373.19	17.145
373.55	16.599
373.91	15.542
374.27	16.818
374.63	16.712
374.99	16.976
375.35	17.468
375.71	17.935
376.07	17.560
376.42	17.254
376.78	17.837
377.14	17.093
377.50	17.963
377.86	18.227
378.22	17.964
378.58	17.182
378.94	17.899
379.30	17.458
379.66	18.401
380.02	17.946
380.38	18.030
380.74	17.577
381.09	18.815
381.45	17.841
381.81	19.555
382.17	18.646
382.53	18.538
382.89	18.623
383.25	19.812
383.61	17.940
383.97	19.081
384.32	19.019
384.68	18.039
385.04	19.318
385.40	19.564
385.76	20.164
386.12	18.552
386.48	19.412
386.83	19.607
387.19	19.061
387.55	19.484
387.91	19.349
388.27	20.092
388.62	20.504
388.98	19.233
389.34	20.625
389.70	19.756
390.06	20.485
390.42	19.940
390.77	20.470
391.13	19.718
391.49	21.135
391.85	20.485
392.20	20.937
392.56	21.087
392.92	20.393
393.28	20.674
393.64	20.670
393.99	21.150
394.35	21.554
394.71	21.078
395.07	20.000
395.42	21.017
395.78	21.877
396.14	21.331
396.50	20.784
396.85	20.930
397.21	21.538
397.57	21.849
397.92	22.165
398.28	20.913
398.64	20.709
399.00	20.838
399.35	21.832
399.71	20.870
400.07	21.954
400.42	22.119
400.78	21.528
401.14	22.595
401.49	21.148
401.85	22.558
402.21	21.900
402.57	22.887
402.92	22.872
403.28	20.785
403.63	21.838
403.99	22.684
404.35	21.831
404.70	22.833
405.06	22.228
405.42	22.190
405.77	22.737
406.13	22.474
406.49	22.804
406.84	22.216
407.20	22.359
407.55	22.471
407.91	23.130
408.27	23.439
408.62	23.386
408.98	22.925
409.34	22.346
409.69	23.548
410.05	23.329
410.40	23.898
410.76	22.827
411.11	24.021
411.47	23.464
411.83	22.869
412.18	24.096
412.54	23.889
412.89	23.341
413.25	23.025
413.60	23.090
413.96	23.718
414.31	23.116
414.67	24.568
415.03	23.385
415.38	23.897
415.74	23.946
416.09	23.812
416.45	22.229
416.80	22.338
417.16	24.010
417.51	24.097
417.87	24.280
418.22	23.533
418.58	23.854
418.93	24.214
419.29	24.476
419.64	23.770
420.00	23.442
420.35	24.144
420.71	24.411
421.06	24.152
421.42	24.255
421.77	23.048
422.12	24.260
422.48	24.270
422.83	24.206
423.19	24.456
423.54	24.779
423.90	23.578
424.25	24.053
424.61	23.536
424.96	25.151
425.31	24.416
425.67	24.101
426.02	24.294
426.38	24.971
426.73	23.772
427.09	25.144
427.44	24.194
427.79	23.936
428.15	23.231
428.50	24.494
428.85	23.823
429.21	24.840
429.56	23.840
429.92	24.472
430.27	24.627
430.62	24.231
430.98	24.348
431.33	24.291
431.68	24.234
432.04	25.343
432.39	24.531
432.74	25.000
433.10	24.446
433.45	23.857
433.80	23.981
434.16	24.587
434.51	24.872
434.86	25.027
435.22	25.080
435.57	25.649
435.92	24.541
436.28	24.858
436.63	24.741
436.98	24.799
437.34	25.705
437.69	24.601
438.04	25.013
438.39	25.503
438.75	24.958
439.10	24.630
439.45	25.489
439.81	24.915
440.16	24.182
440.51	25.530
440.86	24.125
441.22	25.188
441.57	25.000
441.92	24.636
442.27	24.798
442.63	24.938
442.98	25.187
443.33	25.986
443.68	25.372
444.03	26.482
444.39	26.583
444.74	24.962
445.09	24.937
445.44	26.027
445.79	25.623
446.15	26.105
446.50	26.202
446.85	26.167
447.20	25.629
447.55	25.785
447.91	25.707
448.26	24.894
448.61	24.920
448.96	25.376
449.31	25.557
449.66	25.109
450.02	25.686
450.37	25.679
450.72	25.673
451.07	26.424
451.42	25.361
451.77	25.625
452.12	26.242
452.47	24.718
452.83	26.464
453.18	25.161
453.53	24.641
453.88	25.235
454.23	25.311
454.58	25.885
454.93	25.485
455.28	26.430
455.63	25.640
455.98	24.972
456.34	25.088
456.69	25.632
457.04	25.709
457.39	24.834
457.74	26.007
458.09	24.712
458.44	25.269
458.79	24.652
459.14	25.590
459.49	25.750
459.84	25.131
460.19	24.764
460.54	24.929
460.89	25.304
461.24	25.287
461.59	25.789
461.94	24.187
462.29	25.308
462.64	25.769
462.99	25.800
463.34	25.049
463.69	24.795
464.04	25.625
464.39	24.552
464.74	24.401
465.09	25.029
465.44	25.322
465.79	25.278
466.14	24.596
466.49	25.105
466.84	25.124
467.19	24.855
467.54	23.854
467.89	24.540
468.24	24.820
468.59	23.914
468.94	23.601
469.29	24.415
469.64	25.048
469.99	23.901
470.34	24.196
470.68	24.675
471.03	24.100
471.38	24.722
471.73	24.707
472.08	25.000
472.43	24.925
472.78	25.000
473.13	24.526
473.48	25.378
473.83	25.595
474.17	24.267
474.52	25.977
474.87	24.862
475.22	25.239
475.57	24.195
475.92	24.141
476.27	24.814
476.61	24.403
476.96	24.661
477.31	24.257
477.66	25.289
478.01	23.996
478.36	23.330
478.70	24.089
479.05	24.438
479.40	24.087
479.75	25.024
480.10	24.301
480.45	24.476
480.79	24.354
481.14	23.346
481.49	24.035
481.84	24.064
482.19	24.129
482.53	24.355
482.88	24.058
483.23	24.055
483.58	23.712
483.92	23.271
484.27	23.582
484.62	23.886
484.97	24.456
485.31	23.196
485.66	22.549
486.01	22.290
486.36	23.190
486.70	24.069
487.05	24.287
487.40	24.379
487.75	24.122
488.09	23.471
488.44	23.736
488.79	23.305
489.13	23.751
489.48	22.835
489.83	23.501
490.17	22.398
490.52	22.989
490.87	23.096
491.22	22.920
491.56	22.611
491.91	23.157
492.26	22.761
492.60	22.606
492.95	23.124
493.30	22.725
493.64	23.303
493.99	22.719
494.34	22.779
494.68	21.842
495.03	21.498
495.37	22.858
495.72	23.220
496.07	22.393
496.41	22.351
496.76	22.936
497.11	22.760
497.45	21.839
497.80	22.879
498.14	22.268
498.49	22.059
498.84	21.801
499.18	21.952
499.53	21.883
499.87	22.505
500.22	22.039
500.56	22.087
500.91	21.831
501.26	22.136
501.60	21.697
501.95	21.928
502.29	22.203
502.64	22.213
502.98	22.217
503.33	21.555
503.67	20.933
504.02	20.622
504.36	21.895
504.71	21.360
505.06	21.328
505.40	21.572
505.75	21.038
506.09	21.731
506.44	22.098
506.78	22.248
507.13	21.761
507.47	21.885
507.82	21.828
508.16	21.033
508.51	21.378
508.85	21.540
509.19	21.554
509.54	21.710
509.88	21.467
510.23	21.612
510.57	21.605
510.92	21.819
511.26	21.741
511.61	20.666
511.95	21.523
512.30	21.467
512.64	20.440
512.98	21.711
513.33	20.665
513.67	20.959
514.02	21.410
514.36	21.637
514.70	21.771
515.05	21.689
515.39	21.155
515.74	22.057
516.08	20.761
516.42	21.455
516.77	20.557
517.11	20.939
517.46	21.262
517.80	21.700
518.14	21.545
518.49	21.204
518.83	21.501
519.17	21.540
519.52	20.545
519.86	21.383
520.20	21.512
520.55	20.646
520.89	21.453
521.23	21.050
521.58	20.678
521.92	20.737
522.26	20.103
522.61	21.701
522.95	20.704
523.29	20.747
523.64	20.460
523.98	21.335
524.32	21.490
524.66	21.116
525.01	20.215
525.35	20.735
525.69	21.172
526.04	20.034
526.38	21.207
526.72	21.684
527.06	20.938
527.41	20.816
527.75	21.259
528.09	21.133
528.43	20.249
528.78	20.058
529.12	19.782
529.46	19.505
529.80	19.622
530.15	19.014
530.49	20.047
530.83	20.602
531.17	20.311
531.51	20.397
531.86	19.712
532.20	20.244
532.54	19.569
532.88	20.545
533.22	19.918
533.57	19.735
533.91	20.034
534.25	19.785
534.59	19.425
534.93	19.355
535.27	19.606
535.62	20.068
535.96	20.163
536.30	19.213
536.64	20.300
536.98	20.111
537.32	19.691
537.66	19.713
538.01	19.335
538.35	18.270
538.69	19.291
539.03	19.988
539.37	20.200
539.71	19.520
540.05	19.185
540.39	18.826
540.73	17.729
541.07	19.313
541.42	19.256
541.76	18.268
542.10	20.265
542.44	18.879
542.78	19.343
543.12	19.011
543.46	18.254
543.80	18.046
544.14	18.432
544.48	18.676
544.82	19.330
545.16	18.724
545.50	18.514
545.84	18.249
546.18	19.630
546.52	18.089
546.86	18.050
547.20	18.575
547.54	17.603
547.88	18.505
548.22	17.427
548.56	18.373
548.90	18.030
549.24	17.264
549.58	17.792
549.92	18.622
550.26	17.799
550.60	18.443
550.94	18.435
551.28	18.086
551.62	18.194
551.96	17.476
552.30	18.929
552.64	17.922
552.98	17.904
553.32	18.971
553.66	17.878
554.00	18.096
554.34	18.983
554.68	17.431
555.02	16.820
555.36	18.540
555.69	17.297
556.03	17.844
556.37	17.772
556.71	17.628
557.05	17.508
557.39	17.651
557.73	17.107
558.07	17.152
558.41	17.143
558.75	16.971
559.08	16.841
559.42	17.147
559.76	17.775
560.10	16.075
560.44	17.216
560.78	18.062
561.12	17.118
561.45	17.579
561.79	17.460
562.13	17.683
562.47	16.276
562.81	16.835
563.15	16.540
563.48	17.091
563.82	16.808
564.16	16.354
564.50	17.282
564.84	16.637
565.17	16.353
565.51	16.456
565.85	16.805
566.19	16.359
566.52	16.559
566.86	17.204
567.20	15.933
567.54	16.038
567.88	16.769
568.21	16.551
568.55	16.211
568.89	16.478
569.23	16.519
569.56	16.139
569.90	16.429
570.24	16.324
570.57	16.068
570.91	15.830
571.25	16.141
571.59	15.976
571.92	15.965
572.26	16.067
572.60	15.889
572.93	16.031
573.27	16.465
573.61	16.067
573.95	16.120
574.28	15.954
574.62	15.325
574.96	15.086
575.29	15.774
575.63	15.754
575.97	16.168
576.30	15.618
576.64	15.414
576.98	15.581
577.31	15.637
577.65	15.807
577.98	15.644
578.32	15.370
578.66	15.303
578.99	15.421
579.33	15.585
579.67	15.345
580.00	15.419
580.34	15.663
580.67	15.313
581.01	15.361
581.35	15.118
581.68	15.386
582.02	15.521
582.35	15.472
582.69	15.310
583.02	15.156
583.36	14.870
583.70	15.383
584.03	15.215
584.37	14.762
584.70	15.232
585.04	15.206
585.37	14.825
585.71	15.038
586.04	14.861
586.38	14.879
586.72	14.640
587.05	15.221
587.39	15.233
587.72	14.761
588.06	15.160
588.39	15.185
588.73	14.815
589.06	15.181
589.40	14.966
589.73	15.103
590.07	14.987
590.40	14.976
590.73	15.200
591.07	15.339
591.40	15.124
591.74	14.626
592.07	15.347
592.41	14.748
592.74	14.519
593.08	14.554
593.41	14.786
593.75	13.879
594.08	14.329
594.41	14.295
594.75	14.480
595.08	14.401
595.42	14.610
595.75	14.562
596.09	14.775
596.42	14.690
596.75	14.975
597.09	15.354
597.42	14.184
597.75	14.543
598.09	14.405
598.42	14.194
598.76	14.329
599.09	14.204
599.42	13.745
599.76	14.460
600.09	13.680
600.42	13.947
600.76	14.201
601.09	13.641
601.42	13.938
601.76	14.103
602.09	13.474
602.42	13.995
602.76	13.690
603.09	13.913
603.42	13.475
603.76	13.636
604.09	14.762
604.42	13.725
604.76	13.508
605.09	14.479
605.42	13.995
605.75	13.923
606.09	13.886
606.42	13.827
606.75	13.006
607.09	13.518
607.42	13.256
607.75	13.873
608.08	13.181
608.42	13.341
608.75	13.391
609.08	13.073
609.41	13.189
609.75	13.259
610.08	13.500
610.41	13.169
610.74	13.697
611.07	13.410
611.41	14.170
611.74	13.764
612.07	13.978
612.40	12.785
612.73	13.350
613.07	13.888
613.40	13.571
613.73	13.096
614.06	13.248
614.39	12.877
614.72	12.664
615.06	13.378
615.39	12.760
615.72	13.033
616.05	12.773
616.38	13.673
616.71	13.741
617.05	12.354
617.38	14.018
617.71	13.229
618.04	13.438
618.37	12.951
618.70	13.122
619.03	12.306
619.36	12.824
619.69	12.428
620.03	12.932
620.36	12.822
620.69	12.153
621.02	13.320
621.35	13.208
621.68	12.871
622.01	13.096
622.34	12.134
622.67	13.127
623.00	12.078
623.33	13.072
623.66	12.970
623.99	12.508
624.32	12.801
624.65	12.741
624.99	12.809
625.32	13.847
625.65	13.082
625.98	12.136
626.31	13.253
626.64	12.967
626.97	12.978
627.30	12.528
627.63	12.528
627.96	13.063
628.29	12.529
628.62	12.091
628.95	12.095
629.28	11.810
629.61	12.458
629.94	12.050
630.26	12.034
630.59	11.054
630.92	11.775
631.25	12.791
631.58	12.994
631.91	12.371
632.24	12.872
632.57	11.006
632.90	12.437
633.23	12.959
633.56	11.020
633.89	10.847
634.22	11.850
634.55	11.482
634.88	11.905
635.20	11.841
