SpectraSuite Data File
++++++++++++++++++++++++++++++++++++
Date: Thu May 14 15:58:51 PDT 2015
User: schluterlab
Dark Spectrum Present: Yes
Reference Spectrum Present: Yes
Number of Sampled Component Spectra: 1
Spectrometers: USB2E3373
Integration Time (usec): 3000 (USB2E3373)
Spectra Averaged: 3 (USB2E3373)
Boxcar Smoothing: 0 (USB2E3373)
Correct for Electrical Dark: No (USB2E3373)
Strobe/Lamp Enabled: No (USB2E3373)
Correct for Detector Non-linearity: No (USB2E3373)
Correct for Stray Light: No (USB2E3373)
Number of Pixels in Processed Spectrum: 2048
>>>>>Begin Processed Spectral Data<<<<<
178.53	0.000
178.91	271.429
179.29	-3200.000
179.67	-2300.000
180.04	242.857
180.42	250.000
180.80	440.000
181.18	-2900.000
181.56	-2000.000
181.94	525.000
182.31	-350.000
182.69	366.667
183.07	-1300.000
183.45	525.000
183.83	-333.333
184.20	-833.333
184.58	1700.000
184.96	-650.000
185.34	-277.778
185.72	-260.000
186.09	311.111
186.47	1300.000
186.85	480.000
187.23	-233.333
187.61	-2400.000
187.98	320.000
188.36	450.000
188.74	-475.000
189.12	-500.000
189.49	-75.000
189.87	-300.000
190.25	-88.889
190.63	-420.000
191.00	-322.222
191.38	0.000
191.76	-675.000
192.14	-300.000
192.51	1100.000
192.89	-283.333
193.27	0.000
193.65	-300.000
194.02	-3100.000
194.40	-257.143
194.78	285.714
195.15	0.000
195.53	-190.909
195.91	0.000
196.29	-450.000
196.66	-146.154
197.04	-3000.000
197.42	-271.429
197.79	-900.000
198.17	-250.000
198.55	-214.286
198.92	-166.667
199.30	-262.500
199.68	-172.727
200.05	-85.714
200.43	-1250.000
200.81	428.571
201.18	0.000
201.56	388.889
201.94	0.000
202.31	833.333
202.69	-266.667
203.07	2200.000
203.44	-200.000
203.82	-475.000
204.19	-108.333
204.57	-416.667
204.95	-225.000
205.32	-2100.000
205.70	500.000
206.08	-316.667
206.45	-266.667
206.83	580.000
207.20	-250.000
207.58	-540.000
207.96	-366.667
208.33	-300.000
208.71	175.000
209.08	-300.000
209.46	0.000
209.84	416.667
210.21	1100.000
210.59	1050.000
210.96	833.333
211.34	-550.000
211.71	-262.500
212.09	-1800.000
212.46	0.000
212.84	1600.000
213.22	-540.000
213.59	-725.000
213.97	-160.000
214.34	-600.000
214.72	416.667
215.09	-550.000
215.47	0.000
215.84	414.286
216.22	1050.000
216.59	-380.000
216.97	-460.000
217.34	-500.000
217.72	-250.000
218.09	-500.000
218.47	-525.000
218.84	0.000
219.22	440.000
219.59	-94.118
219.97	-65.000
220.34	1650.000
220.72	-266.667
221.09	-107.692
221.47	-966.667
221.84	-150.000
222.22	-285.714
222.59	0.000
222.97	-175.000
223.34	-360.000
223.72	-2600.000
224.09	-600.000
224.46	-800.000
224.84	-240.000
225.21	-428.571
225.59	-850.000
225.96	-625.000
226.34	-92.308
226.71	500.000
227.08	-1250.000
227.46	-153.333
227.83	-500.000
228.21	-100.000
228.58	275.000
228.95	1100.000
229.33	-83.333
229.70	-130.000
230.08	-63.158
230.45	250.000
230.82	-633.333
231.20	-128.571
231.57	-91.667
231.95	-209.091
232.32	-136.364
232.69	-80.000
233.07	-500.000
233.44	-94.118
233.81	-210.000
234.19	-72.222
234.56	-104.545
234.93	-75.862
235.31	-121.053
235.68	-111.111
236.05	-155.000
236.43	-19.231
236.80	-36.000
237.17	-59.259
237.55	-33.333
237.92	-360.000
238.29	-90.323
238.67	-27.273
239.04	-47.222
239.41	-47.619
239.79	-54.348
240.16	-31.481
240.53	-47.826
240.91	-66.667
241.28	-37.705
241.65	-7.463
242.02	-13.514
242.40	-32.308
242.77	-28.000
243.14	-17.073
243.51	-40.789
243.89	-35.897
244.26	-12.871
244.63	-19.608
245.00	-22.430
245.38	-24.561
245.75	-30.973
246.12	-15.079
246.49	-10.853
246.87	-9.286
247.24	-10.596
247.61	-14.474
247.98	-10.067
248.36	-16.667
248.73	-16.564
249.10	-8.197
249.47	-4.478
249.84	-3.141
250.22	-11.399
250.59	-11.667
250.96	0.909
251.33	-14.796
251.70	-5.128
252.08	-5.000
252.45	-6.148
252.82	-7.438
253.19	-5.078
253.56	-2.662
253.94	-5.000
254.31	-2.273
254.68	-0.350
255.05	-1.629
255.42	-5.782
255.79	-6.472
256.16	-5.960
256.54	-5.298
256.91	-5.902
257.28	-5.246
257.65	-6.369
258.02	-6.785
258.39	-2.564
258.76	-3.364
259.14	-2.011
259.51	-4.323
259.88	-5.949
260.25	-3.611
260.62	-1.918
260.99	-2.186
261.36	0.268
261.73	-5.305
262.10	-6.868
262.47	-3.485
262.85	-1.263
263.22	-3.636
263.59	-5.526
263.96	-5.115
264.33	-8.951
264.70	-4.691
265.07	-1.909
265.44	0.680
265.81	-2.778
266.18	1.587
266.55	-3.571
266.92	-3.417
267.29	0.000
267.66	0.222
268.03	-4.803
268.40	-1.461
268.77	-5.695
269.14	-2.423
269.51	-2.412
269.88	-2.049
270.25	-0.402
270.62	-1.688
270.99	0.202
271.36	0.198
271.73	-0.393
272.10	-0.601
272.47	-3.006
272.84	-1.004
273.21	0.000
273.58	-2.016
273.95	-2.308
274.32	-2.662
274.69	-3.482
275.06	0.366
275.43	-1.294
275.80	-1.058
276.17	-3.333
276.54	-1.493
276.91	-1.252
277.28	0.000
277.65	-2.154
278.02	-1.471
278.39	-1.812
278.76	-0.351
279.13	-0.709
279.50	-0.515
279.87	-3.041
280.23	-2.289
280.60	-0.508
280.97	-0.987
281.34	-2.377
281.71	-0.169
282.08	-1.163
282.45	-0.164
282.82	-0.628
283.19	-3.231
283.56	-1.803
283.92	0.300
284.29	0.948
284.66	-0.985
285.03	-1.122
285.40	1.082
285.77	0.000
286.14	1.221
286.51	-0.761
286.87	-0.790
287.24	-0.151
287.61	-1.046
287.98	-1.360
288.35	-0.444
288.72	-0.592
289.08	0.000
289.45	-0.296
289.82	-1.807
290.19	-1.149
290.56	-0.423
290.93	-1.284
291.29	-1.377
291.66	-1.102
292.03	-0.950
292.40	0.544
292.77	-1.213
293.13	-0.677
293.50	-0.788
293.87	-1.477
294.24	0.400
294.60	-0.506
294.97	-2.013
295.34	-1.024
295.71	-0.631
296.08	-1.938
296.44	-1.225
296.81	0.000
297.18	-1.370
297.55	-0.354
297.91	0.237
298.28	-1.303
298.65	-0.119
299.02	-0.590
299.38	-0.458
299.75	1.168
300.12	-1.042
300.48	-0.461
300.85	-0.225
301.22	0.000
301.59	-0.685
301.95	-0.452
302.32	0.333
302.69	0.986
303.05	1.088
303.42	-0.554
303.79	-0.417
304.15	-0.105
304.52	-0.634
304.89	0.733
305.25	0.207
305.62	-0.731
305.99	-0.206
306.35	0.605
306.72	-0.310
307.09	-0.102
307.45	0.725
307.82	0.101
308.19	0.000
308.55	1.832
308.92	0.682
309.29	0.958
309.65	0.780
310.02	-0.495
310.38	-0.394
310.75	0.291
311.12	1.726
311.48	-0.782
311.85	0.570
312.22	0.000
312.58	2.254
312.95	0.574
313.31	1.716
313.68	2.564
314.05	2.258
314.41	2.459
314.78	2.452
315.14	2.087
315.51	2.770
315.87	2.700
316.24	3.105
316.61	3.819
316.97	2.262
317.34	2.646
317.70	3.493
318.07	3.968
318.43	4.592
318.80	4.431
319.16	4.464
319.53	4.713
319.89	4.382
320.26	4.893
320.62	4.255
320.99	5.633
321.35	5.176
321.72	6.419
322.08	4.689
322.45	6.233
322.81	6.588
323.18	5.487
323.54	6.379
323.91	7.918
324.27	7.745
324.64	8.564
325.00	7.960
325.37	8.354
325.73	8.926
326.10	9.408
326.46	10.505
326.83	10.248
327.19	10.236
327.56	10.830
327.92	10.858
328.29	10.806
328.65	9.799
329.01	10.745
329.38	12.384
329.74	12.586
330.11	11.473
330.47	12.721
330.84	12.059
331.20	13.083
331.56	12.392
331.93	13.138
332.29	13.559
332.66	13.704
333.02	12.898
333.38	12.248
333.75	13.805
334.11	12.177
334.48	13.861
334.84	13.764
335.20	13.770
335.57	13.912
335.93	14.215
336.29	12.646
336.66	13.373
337.02	14.632
337.38	14.286
337.75	13.388
338.11	14.214
338.47	14.309
338.84	13.536
339.20	12.468
339.56	13.262
339.93	14.532
340.29	13.849
340.65	13.544
341.02	14.605
341.38	14.228
341.74	13.156
342.11	14.481
342.47	13.503
342.83	13.849
343.20	13.655
343.56	14.034
343.92	13.611
344.28	13.984
344.65	15.194
345.01	14.743
345.37	13.764
345.73	14.186
346.10	14.275
346.46	14.636
346.82	14.307
347.19	14.820
347.55	14.871
347.91	13.819
348.27	12.443
348.63	14.699
349.00	14.094
349.36	14.275
349.72	14.509
350.08	15.007
350.45	13.992
350.81	13.952
351.17	14.361
351.53	13.950
351.89	14.655
352.26	14.030
352.62	14.254
352.98	13.817
353.34	12.845
353.70	13.867
354.07	14.382
354.43	14.275
354.79	15.034
355.15	14.202
355.51	14.839
355.87	13.837
356.24	13.992
356.60	14.191
356.96	13.343
357.32	13.309
357.68	14.422
358.04	13.922
358.40	14.104
358.77	15.643
359.13	13.516
359.49	14.052
359.85	13.053
360.21	14.491
360.57	13.496
360.93	14.175
361.29	14.947
361.66	14.482
362.02	15.449
362.38	13.633
362.74	14.595
363.10	14.580
363.46	14.197
363.82	13.423
364.18	15.130
364.54	14.385
364.90	13.512
365.26	13.655
365.62	14.333
365.98	14.227
366.35	14.161
366.71	15.442
367.07	14.005
367.43	13.920
367.79	14.864
368.15	15.117
368.51	14.953
368.87	14.370
369.23	13.867
369.59	14.344
369.95	14.740
370.31	14.450
370.67	14.512
371.03	14.197
371.39	14.036
371.75	14.030
372.11	14.295
372.47	14.150
372.83	14.398
373.19	15.677
373.55	13.889
373.91	13.838
374.27	15.265
374.63	14.614
374.99	14.788
375.35	14.481
375.71	14.645
376.07	14.719
376.42	14.924
376.78	14.667
377.14	14.223
377.50	14.105
377.86	15.456
378.22	14.970
378.58	13.793
378.94	14.906
379.30	14.236
379.66	15.344
380.02	14.426
380.38	14.862
380.74	15.211
381.09	15.157
381.45	15.114
381.81	15.691
382.17	14.311
382.53	15.497
382.89	14.898
383.25	14.478
383.61	13.889
383.97	14.959
384.32	15.132
384.68	13.863
385.04	15.269
385.40	15.262
385.76	15.299
386.12	13.944
386.48	14.353
386.83	14.422
387.19	13.615
387.55	13.556
387.91	14.555
388.27	15.069
388.62	14.490
388.98	13.762
389.34	14.260
389.70	14.759
390.06	15.038
390.42	14.277
390.77	15.172
391.13	14.202
391.49	15.157
391.85	14.303
392.20	14.176
392.56	15.594
392.92	14.395
393.28	14.981
393.64	14.358
393.99	14.468
394.35	14.194
394.71	14.790
395.07	13.413
395.42	14.563
395.78	14.991
396.14	14.736
396.50	15.083
396.85	14.729
397.21	13.846
397.57	14.429
397.92	14.376
398.28	13.471
398.64	14.302
399.00	13.508
399.35	14.555
399.71	13.478
400.07	14.149
400.42	14.785
400.78	13.889
401.14	13.603
401.49	14.213
401.85	14.070
402.21	14.426
402.57	14.202
402.92	14.539
403.28	12.822
403.63	13.484
403.99	14.311
404.35	13.587
404.70	14.334
405.06	13.587
405.42	14.403
405.77	14.449
406.13	13.668
406.49	13.063
406.84	13.518
407.20	13.192
407.55	12.417
407.91	13.199
408.27	13.428
408.62	14.194
408.98	13.987
409.34	12.903
409.69	13.350
410.05	13.892
410.40	13.921
410.76	13.460
411.11	13.676
411.47	14.251
411.83	13.639
412.18	13.916
412.54	14.345
412.89	13.504
413.25	12.698
413.60	13.957
413.96	13.403
414.31	13.428
414.67	13.417
415.03	12.431
415.38	12.989
415.74	13.500
416.09	13.325
416.45	13.964
416.80	13.770
417.16	13.410
417.51	14.072
417.87	12.937
418.22	13.533
418.58	11.834
418.93	13.620
419.29	12.947
419.64	12.545
420.00	12.938
420.35	13.195
420.71	13.383
421.06	12.421
421.42	12.672
421.77	12.493
422.12	13.901
422.48	13.006
422.83	13.143
423.19	13.475
423.54	13.164
423.90	13.805
424.25	12.747
424.61	12.916
424.96	13.289
425.31	14.066
425.67	13.366
426.02	13.835
426.38	13.490
426.73	12.835
427.09	14.072
427.44	12.944
427.79	12.604
428.15	12.158
428.50	12.921
428.85	12.916
429.21	12.979
429.56	13.475
429.92	13.759
430.27	13.253
430.62	12.799
430.98	13.133
431.33	13.343
431.68	12.596
432.04	13.408
432.39	13.712
432.74	12.842
433.10	13.359
433.45	12.040
433.80	12.607
434.16	12.913
434.51	13.515
434.86	13.246
435.22	12.912
435.57	13.738
435.92	12.910
436.28	12.571
436.63	13.053
436.98	12.829
437.34	12.514
437.69	12.328
438.04	13.115
438.39	12.866
438.75	12.728
439.10	13.689
439.45	13.527
439.81	12.881
440.16	12.869
440.51	13.322
440.86	12.896
441.22	13.558
441.57	13.994
441.92	12.124
442.27	12.778
442.63	13.313
442.98	12.967
443.33	13.098
443.68	13.429
444.03	13.594
444.39	12.483
444.74	13.272
445.09	13.229
445.44	13.330
445.79	13.314
446.15	12.590
446.50	12.920
446.85	13.570
447.20	13.395
447.55	12.552
447.91	12.723
448.26	12.526
448.61	13.177
448.96	13.519
449.31	12.990
449.66	12.745
450.02	12.711
450.37	13.586
450.72	12.756
451.07	13.326
451.42	12.940
451.77	12.563
452.12	14.052
452.47	12.299
452.83	13.457
453.18	12.901
453.53	13.153
453.88	12.424
454.23	13.729
454.58	13.059
454.93	12.621
455.28	12.944
455.63	12.905
455.98	13.240
456.34	12.721
456.69	13.404
457.04	12.825
457.39	13.193
457.74	13.031
458.09	12.795
458.44	14.009
458.79	13.667
459.14	13.057
459.49	12.620
459.84	12.959
460.19	12.715
460.54	13.231
460.89	12.599
461.24	12.816
461.59	13.282
461.94	12.721
462.29	12.822
462.64	12.311
462.99	12.367
463.34	13.433
463.69	12.778
464.04	12.729
464.39	12.332
464.74	13.170
465.09	12.514
465.44	12.876
465.79	12.586
466.14	12.402
466.49	12.895
466.84	12.397
467.19	13.006
467.54	12.221
467.89	11.897
468.24	12.521
468.59	11.928
468.94	11.888
469.29	12.118
469.64	11.507
469.99	11.600
470.34	12.129
470.68	11.893
471.03	12.967
471.38	12.034
471.73	12.094
472.08	12.944
472.43	11.800
472.78	12.846
473.13	11.884
473.48	13.233
473.83	12.014
474.17	12.544
474.52	12.267
474.87	12.735
475.22	11.887
475.57	11.942
475.92	12.494
476.27	12.300
476.61	12.565
476.96	12.044
477.31	12.525
477.66	12.277
478.01	12.506
478.36	11.914
478.70	11.773
479.05	12.117
479.40	11.797
479.75	12.104
480.10	12.080
480.45	12.170
480.79	11.973
481.14	11.765
481.49	11.495
481.84	12.489
482.19	11.957
482.53	12.243
482.88	12.406
483.23	12.050
483.58	11.965
483.92	11.348
484.27	11.092
484.62	12.129
484.97	11.897
485.31	11.369
485.66	11.504
486.01	11.210
486.36	11.434
486.70	11.866
487.05	12.242
487.40	12.166
487.75	12.087
488.09	12.060
488.44	11.467
488.79	12.175
489.13	11.477
489.48	11.301
489.83	11.187
490.17	10.895
490.52	11.207
490.87	10.871
491.22	11.568
491.56	11.945
491.91	11.949
492.26	11.856
492.60	11.631
492.95	10.838
493.30	11.161
493.64	10.819
493.99	11.009
494.34	10.845
494.68	11.306
495.03	11.498
495.37	10.697
495.72	11.655
496.07	10.999
496.41	11.068
496.76	11.093
497.11	10.701
497.45	10.876
497.80	11.195
498.14	11.066
498.49	11.167
498.84	10.512
499.18	11.021
499.53	10.852
499.87	10.989
500.22	10.419
500.56	11.021
500.91	10.526
501.26	11.727
501.60	10.650
501.95	10.769
502.29	10.443
502.64	10.756
502.98	10.397
503.33	10.022
503.67	9.900
504.02	10.158
504.36	10.456
504.71	10.565
505.06	10.596
505.40	10.146
505.75	10.474
506.09	10.451
506.44	11.374
506.78	10.917
507.13	10.788
507.47	10.801
507.82	10.559
508.16	10.803
508.51	10.127
508.85	10.250
509.19	10.753
509.54	11.335
509.88	10.296
510.23	10.588
510.57	10.440
510.92	10.305
511.26	10.197
511.61	9.995
511.95	10.395
512.30	10.389
512.64	10.095
512.98	10.605
513.33	10.131
513.67	10.097
514.02	9.555
514.36	10.793
514.70	10.052
515.05	9.958
515.39	10.131
515.74	11.135
516.08	9.931
516.42	10.989
516.77	10.042
517.11	9.799
517.46	10.233
517.80	10.903
518.14	10.011
518.49	10.358
518.83	9.739
519.17	9.478
519.52	10.168
519.86	9.926
520.20	10.277
520.55	9.912
520.89	9.628
521.23	10.162
521.58	10.452
521.92	9.858
522.26	9.622
522.61	9.606
522.95	8.939
523.29	9.425
523.64	9.585
523.98	9.983
524.32	10.487
524.66	9.106
525.01	10.136
525.35	9.190
525.69	9.165
526.04	9.414
526.38	9.023
526.72	9.054
527.06	9.560
527.41	9.796
527.75	10.392
528.09	9.150
528.43	9.888
528.78	8.786
529.12	8.773
529.46	9.893
529.80	9.382
530.15	8.870
530.49	8.660
530.83	9.327
531.17	8.662
531.51	8.484
531.86	8.714
532.20	9.268
532.54	9.396
532.88	8.606
533.22	9.252
533.57	8.829
533.91	9.484
534.25	8.988
534.59	9.368
534.93	8.998
535.27	8.958
535.62	9.267
535.96	8.600
536.30	8.696
536.64	9.369
536.98	9.410
537.32	8.951
537.66	8.796
538.01	8.882
538.35	8.465
538.69	8.233
539.03	9.319
539.37	8.775
539.71	8.589
540.05	8.813
540.39	8.252
540.73	7.954
541.07	8.645
541.42	8.742
541.76	8.244
542.10	8.444
542.44	7.978
542.78	9.002
543.12	9.178
543.46	9.096
543.80	7.734
544.14	8.857
544.48	9.338
544.82	8.677
545.16	8.885
545.50	8.928
545.84	7.471
546.18	10.247
546.52	8.089
546.86	8.742
547.20	8.206
547.54	8.240
547.88	8.981
548.22	8.246
548.56	8.250
548.90	7.761
549.24	8.875
549.58	8.076
549.92	7.908
550.26	8.738
550.60	9.062
550.94	8.021
551.28	8.515
551.62	8.423
551.96	8.220
552.30	8.859
552.64	8.525
552.98	9.233
553.32	7.974
553.66	8.424
554.00	8.260
554.34	8.623
554.68	7.811
555.02	8.147
555.36	8.744
555.69	7.816
556.03	8.071
556.37	8.824
556.71	7.546
557.05	7.732
557.39	7.432
557.73	8.719
558.07	7.351
558.41	8.837
558.75	7.640
559.08	7.237
559.42	6.722
559.76	8.752
560.10	8.305
560.44	8.377
560.78	8.250
561.12	8.251
561.45	8.212
561.79	8.059
562.13	7.763
562.47	7.830
562.81	7.278
563.15	7.008
563.48	7.147
563.82	8.102
564.16	7.389
564.50	7.569
564.84	7.965
565.17	8.529
565.51	7.192
565.85	7.126
566.19	7.258
566.52	7.080
566.86	7.357
567.20	7.504
567.54	7.169
567.88	7.390
568.21	8.251
568.55	7.290
568.89	7.944
569.23	7.562
569.56	7.542
569.90	7.662
570.24	7.319
570.57	7.377
570.91	7.103
571.25	7.434
571.59	7.737
571.92	7.356
572.26	7.464
572.60	7.316
572.93	7.459
573.27	7.277
573.61	7.755
573.95	7.259
574.28	7.475
574.62	7.299
574.96	6.925
575.29	7.314
575.63	7.138
575.97	7.305
576.30	7.032
576.64	7.277
576.98	6.993
577.31	7.140
577.65	7.284
577.98	7.248
578.32	6.839
578.66	7.030
578.99	7.024
579.33	7.492
579.67	7.253
580.00	7.350
580.34	7.199
580.67	7.017
581.01	7.248
581.35	7.130
581.68	7.081
582.02	6.987
582.35	7.350
582.69	7.133
583.02	7.457
583.36	7.065
583.70	6.998
584.03	6.839
584.37	7.307
584.70	6.870
585.04	7.022
585.37	6.938
585.71	7.249
586.04	6.847
586.38	7.033
586.72	6.744
587.05	6.549
587.39	6.881
587.72	6.842
588.06	7.302
588.39	7.045
588.73	7.037
589.06	7.111
589.40	6.638
589.73	7.230
590.07	6.466
590.40	7.235
590.73	6.433
591.07	7.111
591.40	6.065
591.74	6.955
592.07	6.943
592.41	6.861
592.74	6.816
593.08	7.261
593.41	7.437
593.75	6.839
594.08	6.907
594.41	6.987
594.75	6.676
595.08	6.258
595.42	6.396
595.75	7.071
596.09	6.540
596.42	6.879
596.75	7.179
597.09	6.828
597.42	6.635
597.75	6.546
598.09	6.667
598.42	6.916
598.76	6.190
599.09	6.479
599.42	6.470
599.76	6.504
600.09	6.874
600.42	7.074
600.76	6.638
601.09	6.704
601.42	6.522
601.76	6.759
602.09	7.184
602.42	6.434
602.76	6.458
603.09	6.314
603.42	5.997
603.76	6.202
604.09	7.239
604.42	6.716
604.76	6.583
605.09	6.342
605.42	6.021
605.75	6.115
606.09	6.271
606.42	6.385
606.75	5.960
607.09	6.068
607.42	6.859
607.75	6.331
608.08	6.472
608.42	6.288
608.75	6.716
609.08	5.900
609.41	6.528
609.75	5.893
610.08	6.596
610.41	6.500
610.74	6.513
611.07	5.728
611.41	6.951
611.74	6.744
612.07	6.498
612.40	6.559
612.73	6.406
613.07	6.308
613.40	6.064
613.73	6.163
614.06	5.937
614.39	6.171
614.72	6.162
615.06	6.160
615.39	6.332
615.72	6.682
616.05	6.265
616.38	6.509
616.71	6.792
617.05	5.698
617.38	6.581
617.71	6.641
618.04	6.044
618.37	6.721
618.70	6.052
619.03	6.213
619.36	5.487
619.69	5.701
620.03	5.964
620.36	5.460
620.69	6.292
621.02	6.693
621.35	6.241
621.68	6.869
622.01	5.552
622.34	5.370
622.67	5.842
623.00	5.061
623.33	5.972
623.66	6.550
623.99	5.530
624.32	7.147
624.65	5.985
624.99	5.852
625.32	6.924
625.65	5.394
625.98	5.492
626.31	5.599
626.64	6.667
626.97	4.651
627.30	4.632
627.63	5.326
627.96	6.381
628.29	5.447
628.62	4.786
628.95	4.645
629.28	4.248
629.61	5.556
629.94	5.188
630.26	5.339
630.59	5.095
630.92	5.108
631.25	5.725
631.58	6.026
631.91	5.904
632.24	4.227
632.57	5.408
632.90	5.216
633.23	5.204
633.56	4.286
633.89	4.959
634.22	5.613
634.55	5.115
634.88	4.978
635.20	6.136
635.53	5.198
635.86	5.309
636.19	5.832
636.52	5.802
636.85	5.414
637.18	5.405
637.51	4.516
637.83	5.980
638.16	5.645
638.49	4.577
638.82	3.946
639.15	3.551
639.48	7.044
639.81	6.351
