SpectraSuite Data File
++++++++++++++++++++++++++++++++++++
Date: Thu May 14 16:04:25 PDT 2015
User: schluterlab
Dark Spectrum Present: Yes
Reference Spectrum Present: Yes
Number of Sampled Component Spectra: 1
Spectrometers: USB2E3373
Integration Time (usec): 3000 (USB2E3373)
Spectra Averaged: 3 (USB2E3373)
Boxcar Smoothing: 0 (USB2E3373)
Correct for Electrical Dark: No (USB2E3373)
Strobe/Lamp Enabled: No (USB2E3373)
Correct for Detector Non-linearity: No (USB2E3373)
Correct for Stray Light: No (USB2E3373)
Number of Pixels in Processed Spectrum: 2048
>>>>>Begin Processed Spectral Data<<<<<
178.53	0.000
178.91	271.429
179.29	-2800.000
179.67	-1200.000
180.04	228.571
180.42	130.000
180.80	440.000
181.18	-1600.000
181.56	0.000
181.94	375.000
182.31	-475.000
182.69	466.667
183.07	-200.000
183.45	575.000
183.83	-266.667
184.20	-433.333
184.58	1400.000
184.96	-375.000
185.34	-166.667
185.72	-60.000
186.09	166.667
186.47	1100.000
186.85	420.000
187.23	-200.000
187.61	-1300.000
187.98	100.000
188.36	475.000
188.74	-350.000
189.12	-133.333
189.49	-56.250
189.87	-237.500
190.25	-100.000
190.63	-200.000
191.00	-155.556
191.38	0.000
191.76	-250.000
192.14	-183.333
192.51	350.000
192.89	-233.333
193.27	0.000
193.65	-200.000
194.02	-1400.000
194.40	-85.714
194.78	171.429
195.15	0.000
195.53	-81.818
195.91	0.000
196.29	-350.000
196.66	-61.538
197.04	-2000.000
197.42	-157.143
197.79	-900.000
198.17	-212.500
198.55	-271.429
198.92	-155.556
199.30	-225.000
199.68	-45.455
200.05	-57.143
200.43	-700.000
200.81	142.857
201.18	0.000
201.56	333.333
201.94	0.000
202.31	366.667
202.69	-177.778
203.07	700.000
203.44	-144.444
203.82	-475.000
204.19	-175.000
204.57	-316.667
204.95	-212.500
205.32	-1500.000
205.70	400.000
206.08	-250.000
206.45	-116.667
206.83	400.000
207.20	-50.000
207.58	-380.000
207.96	-200.000
208.33	-150.000
208.71	166.667
209.08	-100.000
209.46	0.000
209.84	300.000
210.21	600.000
210.59	950.000
210.96	900.000
211.34	-250.000
211.71	-262.500
212.09	-1200.000
212.46	0.000
212.84	1000.000
213.22	-300.000
213.59	-475.000
213.97	-210.000
214.34	-466.667
214.72	300.000
215.09	-275.000
215.47	0.000
215.84	214.286
216.22	1200.000
216.59	-140.000
216.97	-340.000
217.34	-450.000
217.72	-162.500
218.09	-400.000
218.47	-400.000
218.84	0.000
219.22	560.000
219.59	-47.059
219.97	-65.000
220.34	900.000
220.72	-166.667
221.09	-92.308
221.47	-466.667
221.84	-230.000
222.22	-214.286
222.59	0.000
222.97	-112.500
223.34	-280.000
223.72	-900.000
224.09	-575.000
224.46	-300.000
224.84	-180.000
225.21	-185.714
225.59	-350.000
225.96	-400.000
226.34	-34.615
226.71	283.333
227.08	-450.000
227.46	-73.333
227.83	-325.000
228.21	-21.053
228.58	225.000
228.95	650.000
229.33	-66.667
229.70	-130.000
230.08	15.789
230.45	150.000
230.82	-366.667
231.20	-71.429
231.57	-91.667
231.95	-109.091
232.32	-36.364
232.69	-5.000
233.07	-450.000
233.44	-58.824
233.81	-150.000
234.19	-11.111
234.56	-4.545
234.93	0.000
235.31	-47.368
235.68	-5.556
236.05	-20.000
236.43	26.923
236.80	24.000
237.17	-29.630
237.55	6.061
237.92	-70.000
238.29	-16.129
238.67	6.818
239.04	2.778
239.41	0.000
239.79	0.000
240.16	1.852
240.53	4.348
240.91	5.882
241.28	4.918
241.65	20.896
242.02	6.757
242.40	18.462
242.77	9.333
243.14	8.537
243.51	10.526
243.89	6.410
244.26	25.743
244.63	18.627
245.00	16.822
245.38	19.298
245.75	7.965
246.12	28.571
246.49	17.829
246.87	28.571
247.24	23.179
247.61	21.053
247.98	20.134
248.36	24.074
248.73	20.859
249.10	20.219
249.47	30.846
249.84	33.508
250.22	24.870
250.59	32.778
250.96	29.091
251.33	26.531
251.70	28.632
252.08	25.000
252.45	25.820
252.82	26.446
253.19	26.562
253.56	24.335
253.94	26.154
254.31	27.273
254.68	30.769
255.05	25.733
255.42	23.810
255.79	28.479
256.16	25.497
256.54	28.477
256.91	28.525
257.28	26.557
257.65	28.025
258.02	27.729
258.39	25.071
258.76	29.358
259.14	31.034
259.51	26.513
259.88	31.161
260.25	25.556
260.62	26.301
260.99	31.694
261.36	31.635
261.73	28.117
262.10	29.121
262.47	26.542
262.85	30.808
263.22	30.649
263.59	27.895
263.96	28.389
264.33	27.877
264.70	29.877
265.07	31.265
265.44	30.839
265.81	26.620
266.18	28.345
266.55	30.134
266.92	28.246
267.29	29.540
267.66	30.820
268.03	32.533
268.40	27.140
268.77	28.018
269.14	31.057
269.51	29.605
269.88	29.508
270.25	30.382
270.62	29.114
270.99	30.101
271.36	31.881
271.73	27.898
272.10	30.661
272.47	30.461
272.84	27.711
273.21	28.056
273.58	26.411
273.95	27.500
274.32	30.608
274.69	28.820
275.06	29.487
275.43	26.433
275.80	27.513
276.17	28.148
276.54	25.187
276.91	28.086
277.28	26.763
277.65	30.700
278.02	27.941
278.39	27.536
278.76	28.647
279.13	27.660
279.50	28.179
279.87	28.623
280.23	26.585
280.60	28.305
280.97	30.428
281.34	27.334
281.71	28.934
282.08	25.748
282.45	28.478
282.82	27.630
283.19	25.687
283.56	28.852
283.92	29.880
284.29	27.172
284.66	30.870
285.03	24.840
285.40	28.594
285.77	28.483
286.14	27.939
286.51	27.245
286.87	25.592
287.24	27.711
287.61	27.354
287.98	26.737
288.35	26.923
288.72	28.107
289.08	28.551
289.45	26.036
289.82	24.096
290.19	26.437
290.56	28.028
290.93	25.963
291.29	25.620
291.66	25.758
292.03	24.559
292.40	23.946
292.77	24.528
293.13	25.169
293.50	22.733
293.87	24.430
294.24	24.133
294.60	23.262
294.97	22.819
295.34	24.840
295.71	21.690
296.08	21.059
296.44	21.814
296.81	21.194
297.18	22.540
297.55	23.231
297.91	23.250
298.28	21.445
298.65	21.046
299.02	21.370
299.38	23.455
299.75	21.729
300.12	21.412
300.48	21.659
300.85	21.710
301.22	22.036
301.59	19.635
301.95	21.582
302.32	20.778
302.69	21.139
303.05	20.783
303.42	22.616
303.79	19.792
304.15	20.820
304.52	20.825
304.89	21.047
305.25	20.186
305.62	20.376
305.99	19.794
306.35	20.665
306.72	21.717
307.09	19.492
307.45	21.014
307.82	20.888
308.19	20.585
308.55	20.058
308.92	20.351
309.29	20.019
309.65	20.273
310.02	19.208
310.38	17.815
310.75	18.252
311.12	21.956
311.48	19.941
311.85	20.703
312.22	18.975
312.58	19.718
312.95	20.841
313.31	19.151
313.68	20.238
314.05	19.964
314.41	19.945
314.78	19.346
315.14	20.236
315.51	20.960
315.87	20.522
316.24	19.909
316.61	19.716
316.97	20.452
317.34	18.254
317.70	20.000
318.07	20.459
318.43	20.153
318.80	19.983
319.16	18.970
319.53	18.595
319.89	19.457
320.26	19.840
320.62	19.149
320.99	19.575
321.35	20.148
321.72	20.093
322.08	19.026
322.45	19.422
322.81	19.404
323.18	18.938
323.54	19.224
323.91	19.662
324.27	19.621
324.64	19.060
325.00	19.237
325.37	19.738
325.73	19.752
326.10	19.951
326.46	19.951
326.83	20.737
327.19	19.764
327.56	20.079
327.92	19.591
328.29	20.000
328.65	18.593
329.01	19.628
329.38	19.714
329.74	20.205
330.11	19.606
330.47	20.472
330.84	19.897
331.20	19.000
331.56	18.371
331.93	19.163
332.29	19.661
332.66	19.767
333.02	19.095
333.38	18.289
333.75	19.949
334.11	19.933
334.48	19.307
334.84	19.796
335.20	18.556
335.57	19.983
335.93	20.496
336.29	18.053
336.66	18.587
337.02	19.231
337.38	19.218
337.75	18.017
338.11	19.512
338.47	19.189
338.84	18.697
339.20	18.197
339.56	19.275
339.93	19.212
340.29	18.277
340.65	18.978
341.02	18.516
341.38	19.483
341.74	18.160
342.11	19.952
342.47	18.348
342.83	18.680
343.20	18.070
343.56	18.444
343.92	18.975
344.28	18.750
344.65	18.450
345.01	18.097
345.37	19.596
345.73	17.693
346.10	18.487
346.46	18.592
346.82	18.727
347.19	18.335
347.55	19.879
347.91	18.351
348.27	19.120
348.63	18.812
349.00	19.165
349.36	18.216
349.72	18.378
350.08	19.316
350.45	18.175
350.81	18.929
351.17	17.970
351.53	19.333
351.89	18.223
352.26	17.836
352.62	17.836
352.98	18.168
353.34	18.372
353.70	18.028
354.07	17.586
354.43	18.299
354.79	18.399
355.15	18.102
355.51	18.275
355.87	17.951
356.24	17.795
356.60	17.221
356.96	18.013
357.32	17.175
357.68	18.009
358.04	17.515
358.40	16.716
358.77	18.056
359.13	17.356
359.49	18.290
359.85	17.331
360.21	17.575
360.57	17.157
360.93	18.618
361.29	17.614
361.66	17.741
362.02	18.441
362.38	18.201
362.74	17.528
363.10	19.257
363.46	17.936
363.82	16.832
364.18	17.241
364.54	17.773
364.90	17.258
365.26	16.621
365.62	17.733
365.98	18.312
366.35	18.054
366.71	17.959
367.07	17.118
367.43	18.385
367.79	17.916
368.15	17.458
368.51	17.862
368.87	17.374
369.23	17.600
369.59	17.486
369.95	17.579
370.31	18.501
370.67	17.607
371.03	16.690
371.39	16.185
371.75	18.226
372.11	16.802
372.47	17.265
372.83	17.670
373.19	17.612
373.55	17.480
373.91	15.951
374.27	17.464
374.63	17.253
374.99	16.711
375.35	17.078
375.71	17.032
376.07	17.560
376.42	17.632
376.78	17.464
377.14	16.843
377.50	17.647
377.86	17.980
378.22	17.066
378.58	17.004
378.94	17.195
379.30	16.520
379.66	17.284
380.02	17.023
380.38	17.454
380.74	16.282
381.09	16.492
381.45	16.136
381.81	17.799
382.17	16.924
382.53	17.427
382.89	16.874
383.25	17.175
383.61	15.799
383.97	16.372
384.32	17.344
384.68	16.821
385.04	16.773
385.40	17.443
385.76	17.761
386.12	16.338
386.48	17.353
386.83	17.223
387.19	15.817
387.55	16.315
387.91	17.694
388.27	17.206
388.62	16.380
388.98	16.131
389.34	17.266
389.70	16.153
390.06	16.637
390.42	16.205
390.77	17.219
391.13	16.901
391.49	16.908
391.85	16.545
392.20	16.845
392.56	17.779
392.92	17.230
393.28	16.639
393.64	16.983
393.99	16.618
394.35	17.231
394.71	17.305
395.07	15.988
395.42	15.762
395.78	17.855
396.14	17.291
396.50	17.340
396.85	16.041
397.21	16.095
397.57	16.078
397.92	16.953
398.28	16.404
398.64	16.419
399.00	15.707
399.35	16.126
399.71	16.304
400.07	17.125
400.42	16.123
400.78	15.972
401.14	17.587
401.49	16.771
401.85	17.442
402.21	17.439
402.57	16.901
402.92	17.021
403.28	16.452
403.63	15.453
403.99	15.914
404.35	16.259
404.70	16.317
405.06	15.707
405.42	15.867
405.77	16.957
406.13	16.316
406.49	16.948
406.84	16.842
407.20	16.601
407.55	16.838
407.91	16.405
408.27	17.020
408.62	16.405
408.98	16.599
409.34	15.425
409.69	16.255
410.05	16.823
410.40	17.227
410.76	16.265
411.11	16.657
411.47	17.199
411.83	16.520
412.18	17.590
412.54	16.538
412.89	16.182
413.25	17.099
413.60	16.829
413.96	16.725
414.31	15.977
414.67	16.339
415.03	16.308
415.38	16.456
415.74	16.249
416.09	16.903
416.45	17.032
416.80	16.830
417.16	16.539
417.51	16.438
417.87	16.738
418.22	17.126
418.58	16.729
418.93	16.822
419.29	16.276
419.64	16.687
420.00	17.151
420.35	16.171
420.71	16.198
421.06	16.216
421.42	16.858
421.77	16.478
422.12	16.015
422.48	17.102
422.83	17.141
423.19	16.817
423.54	16.648
423.90	16.565
424.25	17.493
424.61	16.303
424.96	16.969
425.31	17.251
425.67	16.210
426.02	16.823
426.38	16.246
426.73	16.964
427.09	18.051
427.44	17.258
427.79	15.920
428.15	16.381
428.50	16.573
428.85	16.705
429.21	17.074
429.56	15.943
429.92	16.658
430.27	17.301
430.62	16.317
430.98	16.527
431.33	16.764
431.68	16.715
432.04	17.064
432.39	16.926
432.74	16.781
433.10	16.982
433.45	16.778
433.80	17.060
434.16	17.252
434.51	16.701
434.86	17.535
435.22	16.950
435.57	17.276
435.92	17.307
436.28	16.553
436.63	16.494
436.98	17.069
437.34	16.629
437.69	16.896
438.04	16.975
438.39	17.002
438.75	16.879
439.10	16.966
439.45	16.825
439.81	16.441
440.16	16.568
440.51	16.667
440.86	16.898
441.22	17.256
441.57	16.876
441.92	17.459
442.27	17.475
442.63	16.692
442.98	17.076
443.33	16.886
443.68	17.245
444.03	17.451
444.39	17.429
444.74	17.203
445.09	16.472
445.44	17.756
445.79	17.146
446.15	16.906
446.50	16.744
446.85	17.169
447.20	17.456
447.55	16.998
447.91	17.173
448.26	17.230
448.61	17.216
448.96	17.221
449.31	17.126
449.66	17.484
450.02	17.405
450.37	17.954
450.72	17.438
451.07	17.312
451.42	16.927
451.77	16.509
452.12	17.043
452.47	16.280
452.83	17.342
453.18	16.988
453.53	16.427
453.88	17.007
454.23	17.627
454.58	16.657
454.93	16.687
455.28	17.520
455.63	16.998
455.98	17.095
456.34	16.726
456.69	17.108
457.04	17.139
457.39	17.960
457.74	17.897
458.09	16.969
458.44	17.726
458.79	16.813
459.14	18.039
459.49	17.883
459.84	17.786
460.19	16.324
460.54	16.411
460.89	17.840
461.24	16.897
461.59	17.266
461.94	17.285
462.29	17.637
462.64	17.562
462.99	16.949
463.34	17.197
463.69	17.409
464.04	18.399
464.39	17.209
464.74	16.933
465.09	17.186
465.44	17.060
465.79	17.874
466.14	16.780
466.49	17.053
466.84	17.851
467.19	18.092
467.54	17.274
467.89	17.011
468.24	17.008
468.59	17.371
468.94	16.725
469.29	17.157
469.64	17.419
469.99	18.738
470.34	17.203
470.68	17.772
471.03	17.682
471.38	17.789
471.73	17.100
472.08	17.576
472.43	17.158
472.78	18.514
473.13	17.130
473.48	18.308
473.83	18.688
474.17	17.175
474.52	18.280
474.87	17.885
475.22	17.859
475.57	17.342
475.92	18.118
476.27	17.412
476.61	17.445
476.96	17.831
477.31	18.119
477.66	18.258
478.01	17.387
478.36	17.298
478.70	17.488
479.05	17.025
479.40	18.016
479.75	18.300
480.10	17.954
480.45	18.095
480.79	18.095
481.14	17.371
481.49	17.992
481.84	18.581
482.19	17.720
482.53	18.059
482.88	17.900
483.23	17.875
483.58	17.424
483.92	17.598
484.27	17.570
484.62	17.492
484.97	17.963
485.31	17.599
485.66	16.743
486.01	16.842
486.36	16.761
486.70	17.213
487.05	17.888
487.40	18.017
487.75	18.041
488.09	18.033
488.44	17.509
488.79	17.976
489.13	18.067
489.48	17.670
489.83	17.465
490.17	17.051
490.52	17.652
490.87	18.147
491.22	17.418
491.56	18.473
491.91	17.837
492.26	18.607
492.60	17.971
492.95	18.297
493.30	18.512
493.64	18.134
493.99	18.114
494.34	18.162
494.68	17.944
495.03	17.621
495.37	17.621
495.72	18.095
496.07	18.230
496.41	17.975
496.76	18.515
497.11	18.684
497.45	18.386
497.80	19.014
498.14	18.050
498.49	18.750
498.84	18.007
499.18	18.084
499.53	18.565
499.87	18.242
500.22	17.765
500.56	18.489
500.91	18.719
501.26	19.455
501.60	17.808
501.95	18.541
502.29	18.385
502.64	18.802
502.98	17.947
503.33	18.186
503.67	18.011
504.02	18.082
504.36	18.409
504.71	18.190
505.06	18.417
505.40	18.236
505.75	18.443
506.09	18.831
506.44	18.663
506.78	18.945
507.13	19.041
507.47	18.806
507.82	19.034
508.16	18.403
508.51	18.472
508.85	18.422
509.19	18.143
509.54	19.308
509.88	18.067
510.23	19.281
510.57	19.430
510.92	19.061
511.26	18.182
511.61	18.590
511.95	18.790
512.30	18.907
512.64	18.341
512.98	18.559
513.33	19.808
513.67	18.817
514.02	18.906
514.36	19.335
514.70	18.594
515.05	18.874
515.39	19.055
515.74	20.042
516.08	19.070
516.42	19.623
516.77	19.558
517.11	19.082
517.46	19.618
517.80	19.615
518.14	20.620
518.49	19.577
518.83	20.064
519.17	19.494
519.52	19.759
519.86	19.324
520.20	19.755
520.55	19.058
520.89	19.369
521.23	19.765
521.58	19.492
521.92	19.717
522.26	19.874
522.61	19.502
522.95	19.493
523.29	19.713
523.64	19.395
523.98	20.251
524.32	20.630
524.66	19.522
525.01	20.272
525.35	18.955
525.69	19.548
526.04	19.518
526.38	20.345
526.72	19.723
527.06	19.941
527.41	20.233
527.75	20.249
528.09	19.481
528.43	20.545
528.78	19.711
529.12	19.667
529.46	19.674
529.80	19.737
530.15	19.942
530.49	18.387
530.83	19.481
531.17	19.833
531.51	20.036
531.86	20.613
532.20	20.549
532.54	19.509
532.88	20.727
533.22	19.387
533.57	20.138
533.91	18.967
534.25	19.389
534.59	20.747
534.93	19.581
535.27	19.944
535.62	21.092
535.96	20.628
536.30	19.389
536.64	20.420
536.98	20.910
537.32	20.556
537.66	21.834
538.01	19.940
538.35	20.037
538.69	20.553
539.03	20.662
539.37	20.082
539.71	20.601
540.05	20.743
540.39	19.438
540.73	20.340
541.07	19.988
541.42	19.315
541.76	19.810
542.10	20.084
542.44	20.402
542.78	20.803
543.12	20.441
543.46	19.902
543.80	18.765
544.14	19.928
544.48	21.395
544.82	20.048
545.16	19.797
545.50	20.491
545.84	20.514
546.18	21.481
546.52	20.828
546.86	19.937
547.20	20.483
547.54	20.037
547.88	19.771
548.22	19.942
548.56	18.841
548.90	19.463
549.24	20.061
549.58	19.811
549.92	19.196
550.26	20.712
550.60	20.676
550.94	20.310
551.28	20.660
551.62	21.024
551.96	20.583
552.30	21.351
552.64	19.602
552.98	19.651
553.32	20.836
553.66	20.514
554.00	20.177
554.34	20.592
554.68	20.529
555.02	20.171
555.36	20.250
555.69	19.603
556.03	19.798
556.37	19.962
556.71	19.531
557.05	20.831
557.39	19.973
557.73	19.749
558.07	20.927
558.41	21.528
558.75	20.622
559.08	20.668
559.42	20.645
559.76	20.963
560.10	20.295
560.44	19.723
560.78	20.562
561.12	20.197
561.45	21.107
561.79	20.818
562.13	21.257
562.47	20.037
562.81	20.633
563.15	20.896
563.48	20.199
563.82	21.342
564.16	19.746
564.50	19.845
564.84	19.764
565.17	19.412
565.51	19.505
565.85	19.952
566.19	19.585
566.52	20.129
566.86	19.921
567.20	19.848
567.54	19.862
567.88	20.234
568.21	20.306
568.55	19.904
568.89	19.746
569.23	19.899
569.56	19.539
569.90	19.458
570.24	18.820
570.57	19.179
570.91	18.585
571.25	18.542
571.59	18.759
571.92	18.470
572.26	18.343
572.60	18.564
572.93	18.703
573.27	18.348
573.61	18.475
573.95	18.670
574.28	18.570
574.62	18.008
574.96	17.711
575.29	17.955
575.63	18.180
575.97	18.467
576.30	18.431
576.64	17.991
576.98	17.768
577.31	18.156
577.65	17.974
577.98	17.715
578.32	17.926
578.66	17.753
578.99	17.981
579.33	18.164
579.67	18.359
580.00	18.341
580.34	17.954
580.67	17.961
581.01	18.239
581.35	17.748
581.68	17.764
582.02	17.573
582.35	17.988
582.69	18.235
583.02	18.165
583.36	18.608
583.70	18.110
584.03	18.239
584.37	18.687
584.70	18.313
585.04	18.089
585.37	17.830
585.71	17.886
586.04	18.252
586.38	17.851
586.72	17.899
587.05	18.035
587.39	18.100
587.72	18.206
588.06	18.109
588.39	18.820
588.73	18.757
589.06	18.454
589.40	18.715
589.73	18.252
590.07	18.999
590.40	19.101
590.73	18.346
591.07	19.025
591.40	19.012
591.74	19.634
592.07	19.691
592.41	18.849
592.74	18.637
593.08	18.408
593.41	18.577
593.75	18.075
594.08	18.419
594.41	18.974
594.75	18.399
595.08	18.439
595.42	18.474
595.75	18.631
596.09	19.282
596.42	18.990
596.75	19.298
597.09	18.545
597.42	18.713
597.75	19.051
598.09	18.452
598.42	19.140
598.76	18.762
599.09	18.512
599.42	18.036
599.76	18.257
600.09	18.819
600.42	18.318
600.76	18.758
601.09	18.553
601.42	18.709
601.76	18.586
602.09	18.656
602.42	18.357
602.76	18.044
603.09	18.833
603.42	19.220
603.76	18.393
604.09	19.163
604.42	19.083
604.76	18.645
605.09	19.186
605.42	19.059
605.75	18.654
606.09	18.664
606.42	18.424
606.75	18.178
607.09	18.356
607.42	19.114
607.75	19.265
608.08	18.903
608.42	18.622
608.75	19.113
609.08	18.930
609.41	18.659
609.75	18.795
610.08	20.449
610.41	19.116
610.74	18.950
611.07	19.316
611.41	19.596
611.74	19.261
612.07	19.402
612.40	18.774
612.73	19.218
613.07	19.315
613.40	19.731
613.73	19.499
614.06	19.480
614.39	19.145
614.72	18.971
615.06	18.672
615.39	19.140
615.72	19.194
616.05	19.427
616.38	19.374
616.71	19.122
617.05	19.755
617.38	19.529
617.71	19.762
618.04	20.399
618.37	20.820
618.70	19.231
619.03	18.996
619.36	19.852
619.69	20.179
620.03	19.648
620.36	18.773
620.69	20.296
621.02	20.079
621.35	21.118
621.68	21.114
622.01	20.996
622.34	20.293
622.67	20.962
623.00	18.556
623.33	20.770
623.66	19.585
623.99	20.342
624.32	20.793
624.65	20.142
624.99	20.026
625.32	21.032
625.65	19.353
625.98	20.475
626.31	20.340
626.64	21.319
626.97	20.255
627.30	20.957
627.63	19.730
627.96	21.847
628.29	21.012
628.62	21.495
628.95	20.771
629.28	20.221
629.61	22.727
629.94	20.251
630.26	21.271
630.59	21.244
630.92	20.693
631.25	21.288
631.58	21.469
631.91	21.837
