SpectraSuite Data File
++++++++++++++++++++++++++++++++++++
Date: Thu May 14 16:03:20 PDT 2015
User: schluterlab
Dark Spectrum Present: Yes
Reference Spectrum Present: Yes
Number of Sampled Component Spectra: 1
Spectrometers: USB2E3373
Integration Time (usec): 3000 (USB2E3373)
Spectra Averaged: 3 (USB2E3373)
Boxcar Smoothing: 0 (USB2E3373)
Correct for Electrical Dark: No (USB2E3373)
Strobe/Lamp Enabled: No (USB2E3373)
Correct for Detector Non-linearity: No (USB2E3373)
Correct for Stray Light: No (USB2E3373)
Number of Pixels in Processed Spectrum: 2048
>>>>>Begin Processed Spectral Data<<<<<
178.53	0.000
178.91	214.286
179.29	-2500.000
179.67	-1400.000
180.04	200.000
180.42	140.000
180.80	360.000
181.18	-1600.000
181.56	-800.000
181.94	525.000
182.31	-375.000
182.69	466.667
183.07	-750.000
183.45	525.000
183.83	-183.333
184.20	-500.000
184.58	2000.000
184.96	-425.000
185.34	-122.222
185.72	-80.000
186.09	277.778
186.47	1150.000
186.85	500.000
187.23	-166.667
187.61	-1900.000
187.98	260.000
188.36	475.000
188.74	-375.000
189.12	-366.667
189.49	-75.000
189.87	-225.000
190.25	-211.111
190.63	-260.000
191.00	-133.333
191.38	0.000
191.76	-425.000
192.14	-166.667
192.51	750.000
192.89	-233.333
193.27	0.000
193.65	-171.429
194.02	-800.000
194.40	-171.429
194.78	200.000
195.15	0.000
195.53	-81.818
195.91	0.000
196.29	-350.000
196.66	-61.538
197.04	-2000.000
197.42	-357.143
197.79	-700.000
198.17	-137.500
198.55	-185.714
198.92	-66.667
199.30	-137.500
199.68	-90.909
200.05	-71.429
200.43	-1300.000
200.81	242.857
201.18	0.000
201.56	177.778
201.94	0.000
202.31	666.667
202.69	-233.333
203.07	-0.000
203.44	-155.556
203.82	-400.000
204.19	-141.667
204.57	-316.667
204.95	-187.500
205.32	-1400.000
205.70	300.000
206.08	-200.000
206.45	-133.333
206.83	580.000
207.20	-316.667
207.58	-420.000
207.96	-283.333
208.33	-50.000
208.71	175.000
209.08	-100.000
209.46	0.000
209.84	416.667
210.21	1300.000
210.59	1100.000
210.96	266.667
211.34	-150.000
211.71	-225.000
212.09	-3000.000
212.46	0.000
212.84	1250.000
213.22	-520.000
213.59	-525.000
213.97	-160.000
214.34	-433.333
214.72	366.667
215.09	-525.000
215.47	0.000
215.84	171.429
216.22	650.000
216.59	-160.000
216.97	-240.000
217.34	-450.000
217.72	-112.500
218.09	-425.000
218.47	-575.000
218.84	0.000
219.22	540.000
219.59	-76.471
219.97	-20.000
220.34	1050.000
220.72	-166.667
221.09	-7.692
221.47	-433.333
221.84	-110.000
222.22	-271.429
222.59	0.000
222.97	-137.500
223.34	-280.000
223.72	-900.000
224.09	-275.000
224.46	-500.000
224.84	-280.000
225.21	-285.714
225.59	-550.000
225.96	-525.000
226.34	-19.231
226.71	383.333
227.08	-800.000
227.46	-66.667
227.83	-225.000
228.21	-21.053
228.58	212.500
228.95	1600.000
229.33	-75.000
229.70	-120.000
230.08	-10.526
230.45	300.000
230.82	-666.667
231.20	-121.429
231.57	-141.667
231.95	-154.545
232.32	-72.727
232.69	-20.000
233.07	-450.000
233.44	-123.529
233.81	-300.000
234.19	-11.111
234.56	-36.364
234.93	6.897
235.31	-21.053
235.68	-33.333
236.05	-55.000
236.43	-30.769
236.80	0.000
237.17	-7.407
237.55	-33.333
237.92	-130.000
238.29	-41.935
238.67	-27.273
239.04	-16.667
239.41	-21.429
239.79	-32.609
240.16	-22.222
240.53	-8.696
240.91	-41.176
241.28	-22.951
241.65	1.493
242.02	-10.811
242.40	-26.154
242.77	-13.333
243.14	-19.512
243.51	-19.737
243.89	-19.231
244.26	-4.950
244.63	-2.941
245.00	-10.280
245.38	-13.158
245.75	-14.159
246.12	-4.762
246.49	-5.426
246.87	-2.857
247.24	-2.649
247.61	3.289
247.98	0.671
248.36	0.000
248.73	0.000
249.10	-0.546
249.47	5.970
249.84	4.188
250.22	-1.036
250.59	-2.778
250.96	5.000
251.33	-1.531
251.70	5.128
252.08	2.917
252.45	1.230
252.82	0.413
253.19	0.391
253.56	3.802
253.94	-0.769
254.31	5.682
254.68	7.343
255.05	5.863
255.42	4.082
255.79	4.207
256.16	2.649
256.54	1.656
256.91	2.623
257.28	0.656
257.65	1.592
258.02	1.770
258.39	5.128
258.76	5.199
259.14	6.034
259.51	2.017
259.88	3.399
260.25	4.167
260.62	7.123
260.99	4.918
261.36	7.239
261.73	6.101
262.10	4.121
262.47	4.021
262.85	5.051
263.22	3.117
263.59	1.842
263.96	5.371
264.33	1.279
264.70	4.938
265.07	5.251
265.44	7.937
265.81	5.093
266.18	5.442
266.55	5.804
266.92	2.506
267.29	5.252
267.66	4.435
268.03	6.987
268.40	7.724
268.77	4.328
269.14	3.744
269.51	7.018
269.88	8.811
270.25	6.841
270.62	6.329
270.99	6.667
271.36	7.327
271.73	5.501
272.10	6.814
272.47	6.413
272.84	4.418
273.21	4.008
273.58	5.444
273.95	3.846
274.32	4.183
274.69	4.255
275.06	5.311
275.43	4.436
275.80	6.173
276.17	4.630
276.54	4.104
276.91	3.936
277.28	5.063
277.65	6.104
278.02	6.618
278.39	3.623
278.76	4.921
279.13	4.787
279.50	8.076
279.87	6.977
280.23	4.049
280.60	7.288
280.97	4.605
281.34	5.942
281.71	8.291
282.08	4.153
282.45	6.383
282.82	5.651
283.19	4.847
283.56	5.246
283.92	8.108
284.29	8.215
284.66	5.747
285.03	4.327
285.40	6.491
285.77	4.954
286.14	6.718
286.51	6.545
286.87	4.897
287.24	5.572
287.61	5.082
287.98	4.381
288.35	6.509
288.72	4.586
289.08	6.149
289.45	5.917
289.82	3.916
290.19	3.736
290.56	4.648
290.93	5.278
291.29	4.270
291.66	5.234
292.03	4.342
292.40	5.714
292.77	4.582
293.13	4.330
293.50	3.154
293.87	5.369
294.24	6.800
294.60	5.689
294.97	3.221
295.34	4.609
295.71	5.296
296.08	5.685
296.44	4.167
296.81	5.847
297.18	4.110
297.55	4.127
297.91	4.864
298.28	4.502
298.65	5.351
299.02	3.424
299.38	5.606
299.75	5.257
300.12	2.662
300.48	4.493
300.85	4.499
301.22	4.586
301.59	2.169
301.95	4.859
302.32	5.111
302.69	5.257
303.05	4.897
303.42	5.322
303.79	4.583
304.15	5.152
304.52	4.228
304.89	4.293
305.25	4.244
305.62	4.389
305.99	4.330
306.35	3.427
306.72	5.481
307.09	4.264
307.45	4.865
307.82	4.844
308.19	4.238
308.55	5.882
308.92	3.992
309.29	4.598
309.65	4.581
310.02	4.356
310.38	3.642
310.75	5.340
311.12	5.273
311.48	4.301
311.85	3.799
312.22	5.503
312.58	6.009
312.95	4.207
313.31	4.517
313.68	4.670
314.05	6.414
314.41	5.282
314.78	5.540
315.14	4.537
315.51	5.078
315.87	6.661
316.24	6.758
316.61	7.105
316.97	4.434
317.34	4.938
317.70	7.074
318.07	5.996
318.43	7.313
318.80	7.274
319.16	6.180
319.53	5.656
319.89	5.784
320.26	7.829
320.62	6.117
320.99	7.110
321.35	6.470
321.72	7.721
322.08	6.943
322.45	7.317
322.81	7.491
323.18	7.080
323.54	8.190
323.91	8.007
324.27	7.143
324.64	8.144
325.00	7.960
325.37	8.354
325.73	9.421
326.10	8.597
326.46	9.039
326.83	8.807
327.19	9.291
327.56	9.881
327.92	9.284
328.29	8.145
328.65	8.543
329.01	7.953
329.38	9.436
329.74	9.760
330.11	9.846
330.47	8.930
330.84	10.164
331.20	9.500
331.56	9.532
331.93	9.540
332.29	9.237
332.66	9.884
333.02	9.296
333.38	9.144
333.75	8.586
334.11	10.008
334.48	9.488
334.84	10.025
335.20	9.236
335.57	10.877
335.93	9.752
336.29	8.403
336.66	9.336
337.02	10.702
337.38	9.609
337.75	9.256
338.11	9.756
338.47	9.760
338.84	10.491
339.20	9.773
339.56	8.979
339.93	9.113
340.29	10.548
340.65	10.543
341.02	11.173
341.38	9.701
341.74	10.008
342.11	9.413
342.47	9.531
342.83	10.789
343.20	9.648
343.56	10.345
343.92	10.248
344.28	10.469
344.65	9.922
345.01	10.530
345.37	9.487
345.73	8.730
346.10	10.764
346.46	10.522
346.82	11.161
347.19	9.626
347.55	10.319
347.91	10.178
348.27	10.319
348.63	10.739
349.00	10.738
349.36	11.078
349.72	10.417
350.08	10.475
350.45	9.962
350.81	9.879
351.17	11.128
351.53	10.538
351.89	9.795
352.26	10.224
352.62	10.373
352.98	9.771
353.34	11.277
353.70	10.169
354.07	9.762
354.43	10.782
354.79	9.873
355.15	11.626
355.51	10.746
355.87	10.247
356.24	10.798
356.60	10.421
356.96	10.082
357.32	9.963
357.68	10.542
358.04	10.554
358.40	10.522
358.77	10.746
359.13	10.414
359.49	9.740
359.85	11.530
360.21	11.263
360.57	10.625
360.93	11.354
361.29	10.947
361.66	10.572
362.02	12.317
362.38	12.017
362.74	11.662
363.10	11.898
363.46	10.873
363.82	10.795
364.18	11.612
364.54	11.757
364.90	11.706
365.26	11.517
365.62	11.867
365.98	11.572
366.35	12.550
366.71	12.585
367.07	11.840
367.43	12.935
367.79	12.674
368.15	11.906
368.51	12.179
368.87	12.998
369.23	11.933
369.59	12.295
369.95	12.373
370.31	13.504
370.67	12.724
371.03	13.504
371.39	11.887
371.75	12.999
372.11	13.144
372.47	12.796
372.83	13.416
373.19	12.742
373.55	13.008
373.91	12.952
374.27	13.195
374.63	14.141
374.99	12.798
375.35	13.571
375.71	13.355
376.07	13.493
376.42	13.791
376.78	14.605
377.14	14.722
377.50	14.042
377.86	14.163
378.22	14.491
378.58	14.388
378.94	14.554
379.30	13.884
379.66	14.697
380.02	14.310
380.38	15.265
380.74	15.099
381.09	14.576
381.45	14.830
381.81	14.871
382.17	14.727
382.53	13.918
382.89	15.406
383.25	14.596
383.61	14.525
383.97	14.547
384.32	15.670
384.68	14.849
385.04	15.500
385.40	15.203
385.76	16.237
386.12	15.500
386.48	15.353
386.83	15.614
387.19	15.469
387.55	15.258
387.91	16.438
388.27	15.704
388.62	15.464
388.98	15.454
389.34	16.146
389.70	15.979
390.06	15.512
390.42	14.940
390.77	16.075
391.13	16.080
391.49	16.304
391.85	15.212
392.20	15.599
392.56	16.952
392.92	16.630
393.28	16.086
393.64	16.034
393.99	16.734
394.35	16.881
394.71	17.425
395.07	15.988
395.42	16.505
395.78	17.550
396.14	16.696
396.50	15.380
396.85	16.756
397.21	16.036
397.57	16.372
397.92	16.667
398.28	15.970
398.64	16.018
399.00	15.864
399.35	16.387
399.71	16.685
400.07	16.508
400.42	16.182
400.78	15.856
401.14	16.676
401.49	16.600
401.85	16.919
402.21	17.439
402.57	16.901
402.92	16.962
403.28	15.691
403.63	15.453
403.99	16.271
404.35	16.316
404.70	16.714
405.06	16.522
405.42	16.101
405.77	17.285
406.13	17.072
406.49	16.779
406.84	16.898
407.20	16.993
407.55	16.475
407.91	16.091
408.27	16.019
408.62	16.289
408.98	16.077
409.34	15.953
409.69	17.058
410.05	16.589
410.40	17.111
410.76	16.321
411.11	16.891
411.47	16.646
411.83	17.284
412.18	16.386
412.54	16.183
412.89	16.764
413.25	16.986
413.60	17.231
413.96	17.016
414.31	16.657
414.67	16.160
415.03	15.631
415.38	17.150
415.74	16.738
416.09	16.286
416.45	16.406
416.80	15.422
417.16	16.092
417.51	16.625
417.87	16.677
418.22	16.467
418.58	15.304
418.93	17.229
419.29	15.721
419.64	17.347
420.00	16.380
420.35	16.451
420.71	15.853
421.06	15.526
421.42	16.227
421.77	16.317
422.12	16.913
422.48	16.385
422.83	17.032
423.19	16.605
423.54	16.593
423.90	16.289
424.25	16.853
424.61	16.131
424.96	16.310
425.31	16.826
425.67	16.532
426.02	16.879
426.38	15.844
426.73	16.239
427.09	15.975
427.44	16.002
427.79	16.363
428.15	16.039
428.50	16.461
428.85	15.729
429.21	16.649
429.56	15.400
429.92	16.314
430.27	15.807
430.62	16.610
430.98	16.134
431.33	16.178
431.68	15.661
432.04	15.592
432.39	16.015
432.74	16.210
433.10	16.712
433.45	16.054
433.80	16.524
434.16	16.064
434.51	16.341
434.86	17.427
435.22	16.259
435.57	16.333
435.92	16.361
436.28	16.553
436.63	17.422
436.98	16.640
437.34	16.291
437.69	16.125
438.04	15.918
438.39	15.968
438.75	16.823
439.10	16.808
439.45	16.769
439.81	15.706
440.16	16.944
440.51	16.165
440.86	15.453
441.22	16.399
441.57	16.143
441.92	16.780
442.27	16.970
442.63	16.642
442.98	17.343
443.33	16.675
443.68	17.146
444.03	17.121
444.39	16.736
444.74	16.692
445.09	17.081
445.44	16.596
445.79	17.241
446.15	16.752
446.50	16.434
446.85	16.877
447.20	17.021
447.55	17.259
447.91	16.440
448.26	15.803
448.61	16.525
448.96	17.060
449.31	16.066
449.66	16.830
450.02	16.930
450.37	16.569
450.72	16.308
451.07	16.629
451.42	16.060
451.77	16.064
452.12	17.043
452.47	15.805
452.83	16.779
453.18	16.054
453.53	16.312
453.88	15.792
454.23	16.102
454.58	16.541
454.93	16.080
455.28	17.520
455.63	15.804
455.98	17.095
456.34	16.372
456.69	15.991
457.04	16.194
457.39	15.632
457.74	16.667
458.09	15.815
458.44	16.595
458.79	16.245
459.14	16.518
459.49	16.355
459.84	15.897
460.19	15.380
460.54	15.900
460.89	16.675
461.24	16.092
461.59	16.325
461.94	14.946
462.29	16.181
462.64	15.691
462.99	16.635
463.34	16.937
463.69	15.826
464.04	16.342
464.39	16.200
464.74	16.021
465.09	16.205
465.44	15.290
465.79	16.129
466.14	15.946
466.49	15.842
466.84	16.088
467.19	16.590
467.54	15.394
467.89	15.000
468.24	16.510
468.59	15.287
468.94	15.618
469.29	15.777
469.64	15.067
469.99	15.615
470.34	15.718
470.68	16.678
471.03	15.848
471.38	15.566
471.73	15.865
472.08	16.244
472.43	16.075
472.78	16.184
473.13	15.234
473.48	15.770
473.83	16.715
474.17	16.120
474.52	16.236
474.87	16.556
475.22	17.070
475.57	15.576
475.92	15.779
476.27	16.081
476.61	15.680
476.96	15.224
477.31	16.485
477.66	16.737
478.01	15.913
478.36	15.803
478.70	15.911
479.05	16.360
479.40	15.696
479.75	16.138
480.10	15.585
480.45	15.770
480.79	15.692
481.14	15.579
481.49	15.675
481.84	15.883
482.19	15.054
482.53	15.654
482.88	15.950
483.23	15.829
483.58	15.328
483.92	15.381
484.27	15.834
484.62	15.305
484.97	15.902
485.31	15.241
485.66	14.772
486.01	14.054
486.36	14.327
486.70	15.286
487.05	15.848
487.40	15.440
487.75	15.776
488.09	15.216
488.44	15.074
488.79	15.143
489.13	15.387
489.48	14.524
489.83	15.292
490.17	15.067
490.52	15.271
490.87	15.355
491.22	14.948
491.56	16.041
491.91	16.223
492.26	15.448
492.60	15.348
492.95	15.753
493.30	15.509
493.64	14.936
493.99	15.351
494.34	14.983
494.68	15.075
495.03	15.595
495.37	15.091
495.72	15.102
496.07	15.381
496.41	14.457
496.76	15.304
497.11	14.989
497.45	15.796
497.80	15.771
498.14	15.193
498.49	15.625
498.84	15.265
499.18	15.025
499.53	15.830
499.87	15.077
500.22	14.381
500.56	14.980
500.91	15.469
501.26	15.136
501.60	14.450
501.95	14.373
502.29	15.094
502.64	15.216
502.98	15.099
503.33	14.471
503.67	14.915
504.02	14.755
504.36	15.371
504.71	14.837
505.06	14.734
505.40	15.037
505.75	14.936
506.09	15.976
506.44	14.717
506.78	15.459
507.13	15.629
507.47	14.969
507.82	15.341
508.16	14.962
508.51	14.955
508.85	14.643
509.19	14.732
509.54	15.802
509.88	15.056
510.23	15.542
510.57	15.756
510.92	14.852
511.26	15.007
511.61	14.437
511.95	15.617
512.30	15.411
512.64	14.743
512.98	15.158
513.33	15.222
513.67	15.961
514.02	15.841
514.36	16.266
514.70	14.896
515.05	16.215
515.39	16.693
515.74	16.490
516.08	15.795
516.42	16.170
516.77	16.088
517.11	15.936
517.46	16.278
517.80	16.408
518.14	16.540
518.49	15.184
518.83	15.381
519.17	16.370
519.52	16.719
519.86	15.787
520.20	15.974
520.55	15.772
520.89	15.709
521.23	15.299
521.58	15.311
521.92	15.751
522.26	16.208
522.61	16.435
522.95	15.917
523.29	16.149
523.64	15.751
523.98	16.258
524.32	16.905
524.66	15.822
525.01	15.685
525.35	15.279
525.69	16.009
526.04	15.959
526.38	17.011
526.72	15.398
527.06	16.598
527.41	16.851
527.75	16.033
528.09	16.647
528.43	16.519
528.78	15.838
529.12	15.654
529.46	16.414
529.80	16.247
530.15	16.406
530.49	15.658
530.83	16.175
531.17	16.368
531.51	15.463
531.86	16.767
532.20	15.732
532.54	15.978
532.88	16.364
533.22	16.559
533.57	16.388
533.91	16.611
534.25	16.393
534.59	16.207
534.93	15.337
535.27	16.451
535.62	16.771
535.96	15.689
536.30	15.100
536.64	16.336
536.98	16.544
537.32	15.247
537.66	16.656
538.01	15.287
538.35	15.347
538.69	15.204
539.03	16.554
539.37	16.490
539.71	15.856
540.05	15.647
540.39	15.526
540.73	15.726
541.07	15.144
541.42	15.121
541.76	15.125
542.10	15.923
542.44	16.017
542.78	15.633
543.12	14.899
543.46	14.774
543.80	14.508
544.14	16.098
544.48	15.485
544.82	15.619
545.16	15.623
545.50	14.979
545.84	15.003
546.18	15.247
546.52	14.777
546.86	14.591
547.20	14.377
547.54	14.607
547.88	14.949
548.22	14.620
548.56	14.570
548.90	14.687
549.24	14.833
549.58	15.394
549.92	15.306
550.26	15.987
550.60	15.444
550.94	15.265
551.28	14.983
551.62	15.094
551.96	15.469
552.30	15.934
552.64	14.126
552.98	14.785
553.32	16.141
553.66	15.048
554.00	15.952
554.34	16.216
554.68	14.655
555.02	15.637
555.36	14.990
555.69	13.837
556.03	15.385
556.37	14.956
556.71	14.965
557.05	15.335
557.39	14.665
557.73	15.192
558.07	15.033
558.41	14.551
558.75	14.807
559.08	14.544
559.42	14.335
559.76	14.858
560.10	13.999
560.44	14.776
560.78	14.625
561.12	14.347
561.45	14.720
561.79	14.103
562.13	14.048
562.47	14.242
562.81	13.797
563.15	13.889
563.48	14.978
563.82	14.148
564.16	13.810
564.50	14.124
564.84	13.864
565.17	14.235
565.51	14.672
565.85	14.014
566.19	13.422
566.52	14.921
566.86	13.922
567.20	13.540
567.54	13.436
567.88	13.914
568.21	14.377
568.55	13.621
568.89	13.754
569.23	13.646
569.56	13.013
569.90	13.293
570.24	12.782
570.57	12.412
570.91	12.645
571.25	12.815
571.59	12.636
571.92	12.047
572.26	12.652
572.60	12.886
572.93	12.608
573.27	12.644
573.61	12.520
573.95	12.042
574.28	12.450
574.62	12.301
574.96	11.866
575.29	12.029
575.63	12.613
575.97	12.168
576.30	12.361
576.64	12.264
576.98	11.982
577.31	12.330
577.65	12.051
577.98	11.822
578.32	11.546
578.66	11.421
578.99	12.083
579.33	12.028
579.67	12.307
580.00	11.935
580.34	12.129
580.67	11.562
581.01	11.770
581.35	11.728
581.68	11.819
582.02	11.401
582.35	11.822
582.69	11.666
583.02	11.811
583.36	11.871
583.70	12.134
584.03	11.759
584.37	11.824
584.70	11.516
585.04	11.672
585.37	11.821
585.71	11.305
586.04	11.801
586.38	11.676
586.72	11.156
587.05	11.358
587.39	11.668
587.72	11.483
588.06	12.016
588.39	11.626
588.73	11.905
589.06	11.287
589.40	11.862
589.73	12.082
590.07	12.036
590.40	12.542
590.73	11.665
591.07	12.323
591.40	11.470
591.74	11.725
592.07	12.708
592.41	11.632
592.74	11.928
593.08	11.720
593.41	11.636
593.75	11.437
594.08	11.572
594.41	11.506
594.75	11.857
595.08	11.575
595.42	11.461
595.75	11.624
596.09	11.759
596.42	11.788
596.75	11.733
597.09	12.768
597.42	11.641
597.75	11.329
598.09	11.984
598.42	12.224
598.76	11.464
599.09	11.819
599.42	11.700
599.76	11.456
600.09	11.545
600.42	11.345
600.76	11.790
601.09	11.218
601.42	11.603
601.76	11.207
602.09	11.794
602.42	10.869
602.76	11.624
603.09	11.564
603.42	11.380
603.76	10.994
604.09	12.030
604.42	11.376
604.76	11.834
605.09	12.046
605.42	11.443
605.75	11.615
606.09	11.683
606.42	11.054
606.75	11.319
607.09	11.751
607.42	11.599
607.75	11.801
608.08	11.563
608.42	11.245
608.75	11.940
609.08	11.375
609.41	10.851
609.75	11.339
610.08	11.829
610.41	11.130
610.74	11.429
611.07	10.835
611.41	11.300
611.74	11.270
612.07	11.828
612.40	11.169
612.73	12.372
613.07	11.491
613.40	11.550
613.73	11.170
614.06	10.942
614.39	11.419
614.72	11.402
615.06	11.165
615.39	11.358
615.72	11.943
616.05	11.899
616.38	11.049
616.71	11.651
617.05	10.809
617.38	12.253
617.71	12.311
618.04	12.358
618.37	11.803
618.70	11.652
619.03	11.828
619.36	11.467
619.69	12.236
620.03	11.362
620.36	11.043
620.69	12.091
621.02	12.073
621.35	12.337
621.68	13.160
622.01	11.103
622.34	11.646
622.67	11.271
623.00	11.269
623.33	12.674
623.66	11.738
623.99	11.455
624.32	12.671
624.65	11.390
624.99	12.354
625.32	12.541
625.65	11.868
625.98	10.915
626.31	11.906
626.64	13.480
626.97	11.253
627.30	10.402
627.63	10.503
627.96	12.462
628.29	12.451
628.62	12.594
628.95	12.007
629.28	11.640
629.61	12.037
629.94	12.385
630.26	11.441
630.59	12.003
630.92	12.208
631.25	11.807
631.58	12.524
631.91	12.559
632.24	12.680
632.57	11.765
632.90	11.234
633.23	12.653
633.56	11.837
633.89	12.087
634.22	12.786
634.55	12.317
634.88	11.580
635.20	13.455
635.53	12.655
635.86	12.243
636.19	13.892
636.52	11.814
636.85	13.075
