SpectraSuite Data File
++++++++++++++++++++++++++++++++++++
Date: Thu May 14 16:00:49 PDT 2015
User: schluterlab
Dark Spectrum Present: Yes
Reference Spectrum Present: Yes
Number of Sampled Component Spectra: 1
Spectrometers: USB2E3373
Integration Time (usec): 3000 (USB2E3373)
Spectra Averaged: 3 (USB2E3373)
Boxcar Smoothing: 0 (USB2E3373)
Correct for Electrical Dark: No (USB2E3373)
Strobe/Lamp Enabled: No (USB2E3373)
Correct for Detector Non-linearity: No (USB2E3373)
Correct for Stray Light: No (USB2E3373)
Number of Pixels in Processed Spectrum: 2048
>>>>>Begin Processed Spectral Data<<<<<
178.53	0.000
178.91	142.857
179.29	-2500.000
179.67	-1800.000
180.04	214.286
180.42	210.000
180.80	460.000
181.18	-1600.000
181.56	-800.000
181.94	400.000
182.31	-400.000
182.69	566.667
183.07	-800.000
183.45	500.000
183.83	-66.667
184.20	-533.333
184.58	1300.000
184.96	-675.000
185.34	-144.444
185.72	-160.000
186.09	244.444
186.47	1250.000
186.85	580.000
187.23	-300.000
187.61	-2400.000
187.98	400.000
188.36	575.000
188.74	-400.000
189.12	-300.000
189.49	-68.750
189.87	-112.500
190.25	-100.000
190.63	-340.000
191.00	-177.778
191.38	0.000
191.76	-625.000
192.14	-283.333
192.51	900.000
192.89	-100.000
193.27	0.000
193.65	-185.714
194.02	-1900.000
194.40	-71.429
194.78	328.571
195.15	0.000
195.53	-136.364
195.91	0.000
196.29	-350.000
196.66	-100.000
197.04	-3000.000
197.42	-314.286
197.79	-650.000
198.17	-112.500
198.55	-314.286
198.92	-144.444
199.30	-212.500
199.68	-136.364
200.05	-50.000
200.43	-1050.000
200.81	328.571
201.18	0.000
201.56	333.333
201.94	0.000
202.31	766.667
202.69	-144.444
203.07	1700.000
203.44	-122.222
203.82	-475.000
204.19	-33.333
204.57	-383.333
204.95	-212.500
205.32	-1800.000
205.70	350.000
206.08	-183.333
206.45	-266.667
206.83	480.000
207.20	-233.333
207.58	-380.000
207.96	-350.000
208.33	-183.333
208.71	158.333
209.08	-250.000
209.46	0.000
209.84	283.333
210.21	600.000
210.59	1200.000
210.96	700.000
211.34	-225.000
211.71	-262.500
212.09	-2000.000
212.46	0.000
212.84	1050.000
213.22	-300.000
213.59	-500.000
213.97	-100.000
214.34	-500.000
214.72	283.333
215.09	-525.000
215.47	0.000
215.84	342.857
216.22	1100.000
216.59	-300.000
216.97	-500.000
217.34	-425.000
217.72	-262.500
218.09	-400.000
218.47	-450.000
218.84	0.000
219.22	380.000
219.59	-64.706
219.97	-40.000
220.34	800.000
220.72	-144.444
221.09	-84.615
221.47	-300.000
221.84	-170.000
222.22	-257.143
222.59	0.000
222.97	-125.000
223.34	-340.000
223.72	-1600.000
224.09	-450.000
224.46	-575.000
224.84	-100.000
225.21	-214.286
225.59	-300.000
225.96	-275.000
226.34	-46.154
226.71	466.667
227.08	-1000.000
227.46	-106.667
227.83	-425.000
228.21	-42.105
228.58	150.000
228.95	900.000
229.33	-100.000
229.70	-140.000
230.08	-36.842
230.45	150.000
230.82	-366.667
231.20	-150.000
231.57	-133.333
231.95	-118.182
232.32	-154.545
232.69	-45.000
233.07	-375.000
233.44	-94.118
233.81	-220.000
234.19	11.111
234.56	-50.000
234.93	-10.345
235.31	-36.842
235.68	-77.778
236.05	-140.000
236.43	-34.615
236.80	4.000
237.17	-51.852
237.55	-18.182
237.92	-250.000
238.29	-38.710
238.67	-38.636
239.04	-33.333
239.41	-38.095
239.79	-52.174
240.16	-38.889
240.53	-23.913
240.91	-45.098
241.28	-21.311
241.65	-11.940
242.02	-13.514
242.40	-26.154
242.77	-14.667
243.14	-18.293
243.51	-27.632
243.89	-19.231
244.26	1.980
244.63	-6.863
245.00	-3.738
245.38	-9.649
245.75	-26.549
246.12	-8.730
246.49	-11.628
246.87	2.143
247.24	-3.974
247.61	-2.632
247.98	-10.738
248.36	-5.556
248.73	-12.270
249.10	-5.464
249.47	-1.493
249.84	-2.094
250.22	-5.181
250.59	-2.222
250.96	-4.091
251.33	-14.796
251.70	-4.274
252.08	-0.417
252.45	-2.459
252.82	-8.264
253.19	0.781
253.56	-1.901
253.94	-3.846
254.31	0.758
254.68	-2.448
255.05	-1.303
255.42	-1.020
255.79	-5.178
256.16	-2.980
256.54	-2.980
256.91	-2.295
257.28	-1.311
257.65	-2.548
258.02	-2.655
258.39	3.134
258.76	1.529
259.14	-2.011
259.51	2.017
259.88	-2.550
260.25	-2.778
260.62	-0.548
260.99	1.366
261.36	-1.340
261.73	-1.857
262.10	-1.923
262.47	-3.485
262.85	1.768
263.22	-0.260
263.59	-4.474
263.96	1.535
264.33	-2.558
264.70	0.988
265.07	0.477
265.44	2.494
265.81	0.463
266.18	-1.134
266.55	-1.339
266.92	-2.050
267.29	2.407
267.66	1.109
268.03	-0.873
268.40	0.626
268.77	-2.278
269.14	-4.626
269.51	0.658
269.88	-1.230
270.25	0.402
270.62	-0.211
270.99	1.616
271.36	0.990
271.73	1.375
272.10	2.004
272.47	0.000
272.84	0.201
273.21	1.002
273.58	1.210
273.95	0.577
274.32	-1.141
274.69	-1.354
275.06	1.099
275.43	-1.109
275.80	2.469
276.17	-0.185
276.54	-0.373
276.91	-1.431
277.28	1.266
277.65	-0.180
278.02	-0.551
278.39	1.268
278.76	1.054
279.13	1.241
279.50	3.436
279.87	1.968
280.23	-2.289
280.60	2.542
280.97	1.974
281.34	-0.679
281.71	2.030
282.08	0.997
282.45	-0.164
282.82	1.256
283.19	-1.292
283.56	0.328
283.92	2.703
284.29	3.002
284.66	2.135
285.03	-0.962
285.40	1.546
285.77	0.929
286.14	1.985
286.51	1.065
286.87	1.106
287.24	0.602
287.61	1.196
287.98	-1.360
288.35	0.444
288.72	1.331
289.08	1.611
289.45	-0.444
289.82	0.904
290.19	-0.431
290.56	1.268
290.93	-0.285
291.29	0.275
291.66	0.138
292.03	0.136
292.40	1.769
292.77	1.482
293.13	1.218
293.50	-0.131
293.87	1.074
294.24	1.733
294.60	1.643
294.97	-0.805
295.34	1.921
295.71	0.631
296.08	1.938
296.44	0.123
296.81	1.705
297.18	0.125
297.55	0.000
297.91	0.830
298.28	-0.118
298.65	0.951
299.02	0.826
299.38	1.487
299.75	1.285
300.12	0.810
300.48	0.922
300.85	0.112
301.22	2.013
301.59	0.114
301.95	0.904
302.32	0.889
302.69	1.095
303.05	1.850
303.42	1.109
303.79	1.875
304.15	1.052
304.52	0.740
304.89	1.990
305.25	1.139
305.62	1.358
305.99	1.959
306.35	1.210
306.72	1.551
307.09	1.624
307.45	1.553
307.82	1.312
308.19	1.211
308.55	1.832
308.92	1.558
309.29	2.778
309.65	1.657
310.02	0.198
310.38	2.461
310.75	2.039
311.12	1.726
311.48	1.271
311.85	1.614
312.22	1.233
312.58	2.160
312.95	2.103
313.31	2.168
313.68	3.114
314.05	3.884
314.41	2.641
314.78	2.452
315.14	3.993
315.51	3.509
315.87	3.690
316.24	4.475
316.61	4.440
316.97	3.258
317.34	3.616
317.70	3.755
318.07	5.026
318.43	5.442
318.80	5.936
319.16	6.009
319.53	4.370
319.89	5.171
320.26	6.050
320.62	4.344
320.99	5.633
321.35	5.730
321.72	6.605
322.08	5.861
322.45	6.594
322.81	8.394
323.18	7.699
323.54	8.793
323.91	6.584
324.27	8.176
324.64	7.976
325.00	7.877
325.37	9.009
325.73	9.421
326.10	9.084
326.46	9.935
326.83	10.408
327.19	9.606
327.56	10.672
327.92	10.228
328.29	9.839
328.65	10.302
329.01	8.799
329.38	10.025
329.74	10.788
330.11	11.045
330.47	10.699
330.84	10.853
331.20	11.083
331.56	9.965
331.93	11.883
332.29	11.949
332.66	10.548
333.02	9.883
333.38	11.493
333.75	11.111
334.11	11.009
334.48	10.809
334.84	11.385
335.20	10.327
335.57	10.624
335.93	11.488
336.29	9.983
336.66	10.261
337.02	11.288
337.38	10.714
337.75	11.322
338.11	11.018
338.47	10.587
338.84	10.998
339.20	9.688
339.56	10.873
339.93	11.658
340.29	11.272
340.65	11.273
341.02	11.572
341.38	10.994
341.74	10.734
342.11	10.780
342.47	10.087
342.83	10.950
343.20	11.202
343.56	10.666
343.92	10.889
344.28	10.234
344.65	11.938
345.01	10.920
345.37	11.198
345.73	9.587
346.10	11.622
346.46	9.810
346.82	11.011
347.19	11.383
347.55	10.470
347.91	11.441
348.27	11.760
348.63	11.500
349.00	10.291
349.36	10.632
349.72	10.789
350.08	10.698
350.45	10.418
350.81	11.086
351.17	10.075
351.53	11.600
351.89	10.706
352.26	10.373
352.62	10.896
352.98	10.763
353.34	10.978
353.70	11.094
354.07	11.624
354.43	10.706
354.79	10.995
355.15	10.890
355.51	11.111
355.87	10.845
356.24	9.962
356.60	10.939
356.96	10.749
357.32	9.740
357.68	10.835
358.04	10.704
358.40	10.896
358.77	10.599
359.13	10.487
359.49	10.186
359.85	11.240
360.21	11.047
360.57	10.768
360.93	11.001
361.29	11.018
361.66	10.717
362.02	11.413
362.38	10.401
362.74	12.011
363.10	12.036
363.46	11.842
363.82	10.511
364.18	10.697
364.54	11.342
364.90	11.037
365.26	10.207
365.62	11.067
365.98	12.117
366.35	10.537
366.71	11.293
367.07	10.758
367.43	11.753
367.79	12.940
368.15	11.973
368.51	11.367
368.87	11.888
369.23	12.067
369.59	10.792
369.95	11.224
370.31	12.357
370.67	11.279
371.03	12.050
371.39	10.678
371.75	11.073
372.11	11.721
372.47	11.984
372.83	12.435
373.19	11.408
373.55	12.331
373.91	12.134
374.27	11.708
374.63	12.585
374.99	12.003
375.35	13.506
375.71	12.387
376.07	12.266
376.42	12.720
376.78	12.430
377.14	12.664
377.50	11.765
377.86	13.177
378.22	13.832
378.58	13.496
378.94	13.028
379.30	12.888
379.66	12.757
380.02	13.272
380.38	13.652
380.74	12.563
381.09	13.298
381.45	13.182
381.81	12.998
382.17	14.252
382.53	13.041
382.89	12.923
383.25	13.423
383.61	13.252
383.97	12.603
384.32	13.457
384.68	13.109
385.04	14.112
385.40	14.850
385.76	14.009
386.12	14.183
386.48	14.471
386.83	13.826
387.19	13.731
387.55	13.380
387.91	14.155
388.27	14.781
388.62	13.803
388.98	13.649
389.34	14.614
389.70	15.049
390.06	13.381
390.42	14.217
390.77	15.473
391.13	13.791
391.49	14.493
391.85	14.424
392.20	14.353
392.56	15.416
392.92	15.049
393.28	14.704
393.64	14.637
393.99	15.282
394.35	14.953
394.71	14.431
395.07	14.731
395.42	14.849
395.78	16.027
396.14	15.508
396.50	14.133
396.85	14.550
397.21	14.911
397.57	14.723
397.92	15.636
398.28	14.829
398.64	15.275
399.00	15.340
399.35	15.550
399.71	15.000
400.07	15.946
400.42	15.250
400.78	15.336
401.14	15.766
401.49	16.316
401.85	15.814
402.21	16.107
402.57	16.197
402.92	15.721
403.28	15.984
403.63	15.692
403.99	15.914
404.35	15.577
404.70	15.751
405.06	15.652
405.42	15.281
405.77	16.412
406.13	15.127
406.49	16.498
406.84	16.122
407.20	16.154
407.55	15.445
407.91	15.588
408.27	15.253
408.62	15.474
408.98	15.554
409.34	15.543
409.69	15.204
410.05	16.647
410.40	16.299
410.76	16.321
411.11	16.423
411.47	16.462
411.83	16.049
412.18	16.386
412.54	16.183
412.89	16.356
413.25	16.084
413.60	16.083
413.96	17.016
414.31	16.204
414.67	16.756
415.03	15.692
415.38	16.330
415.74	17.104
416.09	16.039
416.45	16.406
416.80	16.279
417.16	16.028
417.51	16.750
417.87	16.370
418.22	17.126
418.58	16.853
418.93	17.288
419.29	17.571
419.64	16.987
420.00	16.439
420.35	16.957
420.71	16.600
421.06	16.216
421.42	17.087
421.77	16.101
422.12	16.279
422.48	16.897
422.83	17.963
423.19	16.870
423.54	17.699
423.90	17.007
424.25	17.707
424.61	15.959
424.96	17.353
425.31	17.994
425.67	16.801
426.02	16.713
426.38	16.705
426.73	17.076
427.09	17.820
427.44	16.658
427.79	16.915
428.15	17.066
428.50	16.966
428.85	17.164
429.21	17.606
429.56	16.041
429.92	16.953
430.27	17.108
430.62	17.587
430.98	16.921
431.33	17.155
431.68	16.331
432.04	17.318
432.39	17.568
432.74	17.295
433.10	17.361
433.45	17.224
433.80	17.328
434.16	17.252
434.51	17.986
434.86	16.938
435.22	16.950
435.57	17.630
435.92	17.529
436.28	16.837
436.63	18.569
436.98	17.123
437.34	17.982
437.69	17.611
438.04	17.451
438.39	17.576
438.75	17.432
439.10	18.393
439.45	17.775
439.81	17.345
440.16	17.587
440.51	18.116
440.86	16.787
441.22	17.953
441.57	18.134
441.92	17.992
442.27	17.727
442.63	18.033
442.98	17.769
443.33	18.464
443.68	18.781
444.03	19.003
444.39	18.493
444.74	18.428
445.09	17.892
445.44	18.282
445.79	18.247
446.15	18.088
446.50	17.984
446.85	18.385
447.20	18.037
447.55	18.358
447.91	17.539
448.26	17.918
448.61	18.172
448.96	19.099
449.31	17.922
449.66	17.375
450.02	18.618
450.37	18.700
450.72	17.922
451.07	17.483
451.42	18.429
451.77	17.399
452.12	19.018
452.47	16.815
452.83	18.412
453.18	17.396
453.53	17.519
453.88	17.946
454.23	18.023
454.58	17.876
454.93	18.507
455.28	18.964
455.63	18.022
455.98	17.486
456.34	18.316
456.69	17.931
457.04	17.553
457.39	18.847
457.74	18.680
458.09	17.683
458.44	17.888
458.79	17.896
459.14	18.249
459.49	17.544
459.84	18.730
460.19	18.212
460.54	17.888
460.89	18.052
461.24	17.184
461.59	18.207
461.94	17.399
462.29	18.029
462.64	18.105
462.99	18.330
463.34	17.910
463.69	17.644
464.04	17.565
464.39	18.105
464.74	17.617
465.09	17.532
465.44	18.133
465.79	18.139
466.14	18.343
466.49	17.789
466.84	17.466
467.19	17.977
467.54	16.863
467.89	17.126
468.24	18.006
468.59	16.850
468.94	17.599
469.29	17.157
469.64	17.419
469.99	16.189
470.34	17.450
470.68	18.387
471.03	17.682
471.38	17.659
471.73	17.100
472.08	17.322
472.43	17.219
472.78	17.191
473.13	17.573
473.48	17.946
473.83	17.528
474.17	17.351
474.52	17.739
474.87	16.777
475.22	17.803
475.57	17.394
475.92	17.372
476.27	17.785
476.61	17.601
476.96	17.727
477.31	17.327
477.66	18.258
478.01	17.692
478.36	17.049
478.70	17.094
479.05	18.252
479.40	16.387
479.75	17.675
480.10	17.527
480.45	17.548
480.79	17.506
481.14	17.142
481.49	16.856
481.84	17.581
482.19	17.032
482.53	17.184
482.88	17.501
483.23	16.941
483.58	16.376
483.92	16.445
484.27	16.808
484.62	16.832
484.97	17.341
485.31	16.438
485.66	16.662
486.01	16.639
486.36	17.266
486.70	18.015
487.05	17.611
487.40	17.181
487.75	17.608
488.09	16.991
488.44	16.985
488.79	17.099
489.13	16.510
489.48	16.466
489.83	15.855
490.17	15.715
490.52	16.379
490.87	15.948
491.22	16.941
491.56	16.681
491.91	16.529
492.26	16.486
492.60	15.960
492.95	16.191
493.30	16.540
493.64	15.900
493.99	15.833
494.34	15.810
494.68	16.017
495.03	16.256
495.37	16.023
495.72	15.964
496.07	17.090
496.41	15.659
496.76	15.847
497.11	15.796
497.45	15.192
497.80	16.171
498.14	15.918
498.49	15.809
498.84	16.408
499.18	16.014
499.53	16.233
499.87	16.615
500.22	15.850
500.56	15.385
500.91	15.973
501.26	15.909
501.60	16.129
501.95	15.762
502.29	16.191
502.64	16.310
502.98	16.048
503.33	15.637
503.67	15.395
504.02	15.718
504.36	15.818
504.71	15.847
505.06	15.871
505.40	15.082
505.75	15.574
506.09	15.654
506.44	15.320
506.78	15.000
507.13	15.814
507.47	15.064
507.82	15.009
508.16	15.201
508.51	15.893
508.85	15.305
509.19	15.538
509.54	15.370
509.88	15.590
510.23	15.299
510.57	16.385
510.92	15.675
511.26	15.103
511.61	14.631
511.95	15.129
512.30	16.051
512.64	14.443
512.98	14.857
513.33	16.280
513.67	15.196
514.02	15.330
514.36	15.243
514.70	15.312
515.05	15.433
515.39	15.538
515.74	15.695
516.08	15.478
516.42	15.646
516.77	15.247
517.11	14.956
517.46	15.005
517.80	16.676
518.14	15.669
518.49	14.967
518.83	15.487
519.17	14.755
519.52	14.832
519.86	16.262
520.20	15.868
520.55	15.279
520.89	15.146
521.23	14.629
521.58	15.480
521.92	14.901
522.26	15.578
522.61	14.410
522.95	14.533
523.29	14.483
523.64	14.518
523.98	14.775
524.32	16.103
524.66	15.595
525.01	14.723
525.35	15.164
525.69	14.849
526.04	14.753
526.38	15.000
526.72	15.167
527.06	15.425
527.41	14.810
527.75	15.024
528.09	15.112
528.43	14.446
528.78	14.277
529.12	14.908
529.46	15.289
529.80	15.046
530.15	15.072
530.49	14.531
530.83	15.348
531.17	14.516
531.51	14.019
531.86	15.685
532.20	15.061
532.54	15.021
532.88	14.545
533.22	15.144
533.57	15.465
533.91	14.759
534.25	14.585
534.59	14.885
534.93	14.544
535.27	14.423
535.62	15.691
535.96	14.468
536.30	14.924
536.64	15.495
536.98	13.653
537.32	14.938
537.66	15.596
538.01	14.079
538.35	15.043
538.69	13.522
539.03	14.838
539.37	14.605
539.71	15.255
540.05	15.108
540.39	13.998
540.73	13.722
541.07	14.592
541.42	14.058
541.76	13.938
542.10	15.018
542.44	13.520
542.78	14.964
543.12	14.243
543.46	14.408
543.80	13.609
544.14	14.363
544.48	14.421
544.82	14.063
545.16	14.729
545.50	14.080
545.84	14.023
546.18	15.185
546.52	14.140
546.86	13.711
547.20	13.868
547.54	12.921
547.88	12.960
548.22	14.327
548.56	14.160
548.90	12.776
549.24	13.860
549.58	13.060
549.92	13.202
550.26	13.592
550.60	14.103
550.94	13.519
551.28	13.201
551.62	13.949
551.96	13.010
552.30	13.894
552.64	13.441
552.98	13.288
553.32	13.891
553.66	13.312
554.00	13.556
554.34	13.900
554.68	12.589
555.02	13.272
555.36	13.675
555.69	12.812
556.03	13.304
556.37	14.080
556.71	13.316
557.05	13.419
557.39	12.940
557.73	12.616
558.07	13.245
558.41	13.488
558.75	13.320
559.08	12.665
559.42	13.512
559.76	13.026
560.10	14.133
560.44	12.401
560.78	13.938
561.12	12.131
561.45	13.017
561.79	13.858
562.13	12.939
562.47	12.885
562.81	12.595
563.15	12.753
563.48	13.052
563.82	13.180
564.16	12.720
564.50	12.932
564.84	13.097
565.17	12.471
565.51	12.716
565.85	12.470
566.19	12.385
566.52	13.283
566.86	13.073
567.20	12.833
567.54	13.170
567.88	11.927
568.21	12.401
568.55	12.374
568.89	12.665
569.23	12.421
569.56	12.974
569.90	13.222
570.24	12.850
570.57	12.412
570.91	12.523
571.25	12.959
571.59	12.914
571.92	12.607
572.26	12.493
572.60	13.077
572.93	13.220
573.27	12.700
573.61	13.049
573.95	12.722
574.28	12.474
574.62	12.642
574.96	12.770
575.29	12.470
575.63	12.451
575.97	12.695
576.30	12.485
576.64	12.527
576.98	12.323
577.31	12.593
577.65	12.670
577.98	12.726
578.32	12.557
578.66	12.476
578.99	12.103
579.33	12.783
579.67	12.330
580.00	12.407
580.34	12.304
580.67	12.467
581.01	12.224
581.35	12.468
581.68	12.103
582.02	12.769
582.35	12.496
582.69	12.385
583.02	12.540
583.36	12.713
583.70	12.224
584.03	12.167
584.37	12.096
584.70	11.907
585.04	11.951
585.37	11.931
585.71	12.255
586.04	12.153
586.38	12.628
586.72	11.732
587.05	11.998
587.39	12.142
587.72	12.081
588.06	12.089
588.39	12.248
588.73	11.958
589.06	11.569
589.40	11.801
589.73	12.179
590.07	11.638
590.40	12.103
590.73	12.160
591.07	12.137
591.40	11.275
591.74	11.526
592.07	12.140
592.41	11.672
592.74	12.318
593.08	12.197
593.41	12.015
593.75	11.839
594.08	11.875
594.41	11.923
594.75	11.690
595.08	11.541
595.42	11.104
595.75	11.624
596.09	11.928
596.42	11.322
596.75	11.540
597.09	11.960
597.42	11.641
597.75	11.250
598.09	11.825
598.42	11.982
598.76	11.005
599.09	11.606
599.42	11.063
599.76	11.093
600.09	11.712
600.42	11.645
600.76	10.997
601.09	11.152
601.42	10.951
601.76	11.379
602.09	10.865
602.42	11.378
602.76	11.033
603.09	11.233
603.42	11.561
603.76	10.712
604.09	11.533
604.42	11.450
604.76	11.339
605.09	10.850
605.42	10.845
605.75	10.846
606.09	10.713
606.42	11.383
606.75	10.870
607.09	11.175
607.42	11.060
607.75	11.254
608.08	10.616
608.42	10.923
608.75	10.738
609.08	10.654
609.41	10.851
609.75	10.759
610.08	11.258
610.41	10.875
610.74	10.210
611.07	10.879
611.41	10.852
611.74	10.577
612.07	10.612
612.40	10.456
612.73	11.198
613.07	10.513
613.40	10.587
613.73	10.881
614.06	10.648
614.39	10.933
614.72	10.820
615.06	9.962
615.39	10.343
615.72	10.379
616.05	9.762
616.38	10.595
616.71	10.920
617.05	10.543
617.38	11.236
617.71	11.231
618.04	9.930
618.37	11.694
618.70	10.181
619.03	9.677
619.36	9.556
619.69	10.442
620.03	10.609
620.36	10.675
620.69	9.870
621.02	9.974
621.35	10.595
621.68	11.063
622.01	9.609
622.34	10.251
622.67	10.653
623.00	8.907
623.33	10.219
623.66	10.376
623.99	9.941
624.32	10.916
624.65	9.653
624.99	10.273
625.32	10.451
625.65	10.317
625.98	9.220
626.31	9.780
626.64	9.304
626.97	9.602
627.30	9.112
627.63	9.752
627.96	11.036
628.29	9.494
628.62	8.984
628.95	9.290
629.28	9.431
629.61	9.764
629.94	9.372
630.26	8.983
630.59	9.499
630.92	9.091
631.25	10.197
631.58	10.358
631.91	9.185
632.24	9.414
632.57	9.393
632.90	9.930
633.23	9.082
633.56	7.653
633.89	7.955
634.22	8.836
634.55	10.021
634.88	8.983
635.20	9.257
