SpectraSuite Data File
++++++++++++++++++++++++++++++++++++
Date: Thu May 14 15:50:58 PDT 2015
User: schluterlab
Dark Spectrum Present: Yes
Reference Spectrum Present: Yes
Number of Sampled Component Spectra: 1
Spectrometers: USB2E3373
Integration Time (usec): 3000 (USB2E3373)
Spectra Averaged: 3 (USB2E3373)
Boxcar Smoothing: 0 (USB2E3373)
Correct for Electrical Dark: No (USB2E3373)
Strobe/Lamp Enabled: No (USB2E3373)
Correct for Detector Non-linearity: No (USB2E3373)
Correct for Stray Light: No (USB2E3373)
Number of Pixels in Processed Spectrum: 2048
>>>>>Begin Processed Spectral Data<<<<<
178.53	0.000
178.91	571.429
179.29	-5400.000
179.67	-4800.000
180.04	407.143
180.42	450.000
180.80	900.000
181.18	-4100.000
181.56	-2700.000
181.94	925.000
182.31	-1000.000
182.69	1333.333
183.07	-1950.000
183.45	1250.000
183.83	-700.000
184.20	-1666.667
184.58	3700.000
184.96	-1200.000
185.34	-522.222
185.72	-840.000
186.09	511.111
186.47	2650.000
186.85	1200.000
187.23	-533.333
187.61	-4700.000
187.98	840.000
188.36	1250.000
188.74	-1025.000
189.12	-1633.333
189.49	-256.250
189.87	-562.500
190.25	-355.556
190.63	-680.000
191.00	-555.556
191.38	0.000
191.76	-1150.000
192.14	-666.667
192.51	2200.000
192.89	-650.000
193.27	0.000
193.65	-585.714
194.02	-4500.000
194.40	-585.714
194.78	600.000
195.15	0.000
195.53	-327.273
195.91	0.000
196.29	-1100.000
196.66	-307.692
197.04	-4700.000
197.42	-557.143
197.79	-2250.000
198.17	-475.000
198.55	-514.286
198.92	-455.556
199.30	-575.000
199.68	-354.545
200.05	-242.857
200.43	-2000.000
200.81	700.000
201.18	0.000
201.56	577.778
201.94	0.000
202.31	1766.667
202.69	-566.667
203.07	4400.000
203.44	-477.778
203.82	-1150.000
204.19	-300.000
204.57	-716.667
204.95	-475.000
205.32	-3700.000
205.70	1100.000
206.08	-766.667
206.45	-633.333
206.83	1080.000
207.20	-833.333
207.58	-800.000
207.96	-716.667
208.33	-500.000
208.71	291.667
209.08	-500.000
209.46	0.000
209.84	883.333
210.21	2000.000
210.59	2000.000
210.96	1766.667
211.34	-775.000
211.71	-525.000
212.09	-4800.000
212.46	0.000
212.84	2500.000
213.22	-920.000
213.59	-975.000
213.97	-350.000
214.34	-1533.333
214.72	800.000
215.09	-1175.000
215.47	0.000
215.84	671.429
216.22	2250.000
216.59	-820.000
216.97	-820.000
217.34	-1150.000
217.72	-412.500
218.09	-1000.000
218.47	-1025.000
218.84	0.000
219.22	780.000
219.59	-252.941
219.97	-195.000
220.34	2500.000
220.72	-477.778
221.09	-200.000
221.47	-1133.333
221.84	-460.000
222.22	-671.429
222.59	0.000
222.97	-462.500
223.34	-860.000
223.72	-3400.000
224.09	-1175.000
224.46	-1000.000
224.84	-740.000
225.21	-614.286
225.59	-1150.000
225.96	-1125.000
226.34	-150.000
226.71	916.667
227.08	-2400.000
227.46	-280.000
227.83	-1175.000
228.21	-163.158
228.58	612.500
228.95	2200.000
229.33	-325.000
229.70	-420.000
230.08	-157.895
230.45	460.000
230.82	-1200.000
231.20	-271.429
231.57	-325.000
231.95	-345.455
232.32	-363.636
232.69	-190.000
233.07	-1025.000
233.44	-252.941
233.81	-400.000
234.19	-216.667
234.56	-145.455
234.93	-113.793
235.31	-257.895
235.68	-222.222
236.05	-230.000
236.43	-103.846
236.80	-148.000
237.17	-137.037
237.55	-121.212
237.92	-520.000
238.29	-138.710
238.67	-86.364
239.04	-97.222
239.41	-97.619
239.79	-80.435
240.16	-77.778
240.53	-82.609
240.91	-82.353
241.28	-60.656
241.65	-43.284
242.02	-41.892
242.40	-67.692
242.77	-53.333
243.14	-45.122
243.51	-48.684
243.89	-67.949
244.26	-33.663
244.63	-31.373
245.00	-34.579
245.38	-34.211
245.75	-39.823
246.12	-18.254
246.49	-30.233
246.87	-25.000
247.24	-13.907
247.61	-19.079
247.98	-23.490
248.36	-16.049
248.73	-20.859
249.10	-15.847
249.47	-8.955
249.84	-8.377
250.22	-17.617
250.59	-18.333
250.96	-9.091
251.33	-15.306
251.70	-10.256
252.08	-5.833
252.45	-5.738
252.82	-11.157
253.19	-7.422
253.56	-9.125
253.94	-7.692
254.31	-9.848
254.68	-6.294
255.05	-4.886
255.42	-5.782
255.79	-11.650
256.16	-6.623
256.54	-7.947
256.91	-4.590
257.28	-7.213
257.65	-9.236
258.02	-4.720
258.39	-3.134
258.76	-0.612
259.14	-3.161
259.51	-5.187
259.88	-6.799
260.25	-5.000
260.62	-3.014
260.99	-2.459
261.36	-1.609
261.73	-3.448
262.10	-5.495
262.47	-2.681
262.85	1.263
263.22	-6.234
263.59	-7.105
263.96	-2.813
264.33	-3.069
264.70	-3.457
265.07	-0.239
265.44	1.134
265.81	-3.009
266.18	-2.494
266.55	-1.339
266.92	-3.189
267.29	1.094
267.66	-1.552
268.03	-0.655
268.40	-1.879
268.77	-2.961
269.14	-3.084
269.51	-3.728
269.88	0.000
270.25	0.402
270.62	-2.954
270.99	0.808
271.36	1.188
271.73	0.196
272.10	-0.601
272.47	-1.804
272.84	-0.402
273.21	-0.601
273.58	1.613
273.95	-1.923
274.32	-3.042
274.69	-1.161
275.06	0.916
275.43	-2.218
275.80	0.705
276.17	-1.852
276.54	-0.560
276.91	1.431
277.28	0.542
277.65	0.718
278.02	-0.368
278.39	-0.725
278.76	0.351
279.13	0.887
279.50	1.375
279.87	0.537
280.23	-2.993
280.60	0.339
280.97	1.645
281.34	-0.509
281.71	1.692
282.08	-0.664
282.45	-0.818
282.82	-0.942
283.19	-2.100
283.56	-0.984
283.92	2.853
284.29	2.370
284.66	0.328
285.03	-1.442
285.40	1.236
285.77	0.000
286.14	2.290
286.51	-0.457
286.87	0.948
287.24	0.602
287.61	-0.747
287.98	-0.302
288.35	0.740
288.72	1.331
289.08	1.611
289.45	0.000
289.82	0.000
290.19	0.287
290.56	2.254
290.93	1.712
291.29	2.066
291.66	1.515
292.03	0.543
292.40	3.401
292.77	0.674
293.13	1.353
293.50	0.263
293.87	0.671
294.24	0.800
294.60	1.138
294.97	-2.013
295.34	0.640
295.71	0.757
296.08	1.680
296.44	1.348
296.81	0.853
297.18	0.125
297.55	-0.708
297.91	0.712
298.28	1.066
298.65	1.546
299.02	0.590
299.38	1.144
299.75	1.402
300.12	-0.116
300.48	1.498
300.85	2.137
301.22	2.685
301.59	0.228
301.95	1.582
302.32	0.778
302.69	1.095
303.05	1.415
303.42	1.552
303.79	1.875
304.15	2.524
304.52	0.529
304.89	0.105
305.25	1.967
305.62	1.254
305.99	1.546
306.35	0.302
306.72	1.448
307.09	1.117
307.45	1.346
307.82	1.615
308.19	2.523
308.55	2.507
308.92	0.876
309.29	2.586
309.65	1.559
310.02	1.584
310.38	0.886
310.75	1.553
311.12	3.164
311.48	2.053
311.85	2.659
312.22	2.751
312.58	1.408
312.95	1.625
313.31	2.800
313.68	2.473
314.05	2.981
314.41	4.372
314.78	3.270
315.14	3.176
315.51	3.509
315.87	3.150
316.24	4.018
316.61	4.174
316.97	3.439
317.34	4.321
317.70	4.367
318.07	4.497
318.43	4.677
318.80	6.020
319.16	5.408
319.53	4.542
319.89	4.996
320.26	5.961
320.62	5.408
320.99	6.094
321.35	5.453
321.72	6.233
322.08	6.673
322.45	6.865
322.81	7.220
323.18	7.080
323.54	8.362
323.91	8.274
324.27	8.090
324.64	9.488
325.00	8.706
325.37	9.992
325.73	10.744
326.10	10.381
326.46	11.726
326.83	10.088
327.19	10.866
327.56	10.356
327.92	11.644
328.29	10.323
328.65	10.469
329.01	9.560
329.38	11.794
329.74	11.130
330.11	12.329
330.47	13.311
330.84	10.853
331.20	11.833
331.56	11.872
331.93	12.134
332.29	12.288
332.66	12.458
333.02	12.395
333.38	11.661
333.75	12.205
334.11	12.510
334.48	13.366
334.84	12.489
335.20	11.419
335.57	12.985
335.93	12.810
336.29	11.814
336.66	12.616
337.02	12.709
337.38	13.265
337.75	12.149
338.11	12.111
338.47	13.069
338.84	12.098
339.20	11.289
339.56	10.626
339.93	12.726
340.29	13.043
340.65	12.895
341.02	12.610
341.38	13.500
341.74	11.542
342.11	12.953
342.47	11.517
342.83	12.802
343.20	13.246
343.56	11.788
343.92	12.570
344.28	11.953
344.65	12.636
345.01	12.402
345.37	11.897
345.73	12.237
346.10	11.778
346.46	11.867
346.82	12.509
347.19	12.299
347.55	13.126
347.91	11.441
348.27	11.457
348.63	12.795
349.00	11.931
349.36	12.565
349.72	12.723
350.08	12.481
350.45	10.646
350.81	12.896
351.17	12.256
351.53	11.524
351.89	11.921
352.26	12.313
352.62	11.866
352.98	11.756
353.34	12.024
353.70	12.327
354.07	11.624
354.43	11.845
354.79	12.191
355.15	11.700
355.51	13.012
355.87	11.518
356.24	12.319
356.60	12.269
356.96	12.602
357.32	11.301
357.68	12.225
358.04	11.976
358.40	11.940
358.77	12.061
359.13	11.226
359.49	10.706
359.85	11.530
360.21	10.976
360.57	11.845
360.93	11.354
361.29	12.281
361.66	11.513
362.02	13.152
362.38	12.087
362.74	12.430
363.10	12.792
363.46	12.742
363.82	11.719
364.18	12.667
364.54	11.895
364.90	13.244
365.26	11.862
365.62	13.200
365.98	11.913
366.35	12.886
366.71	12.857
367.07	12.652
367.43	12.475
367.79	12.940
368.15	13.645
368.51	12.991
368.87	13.455
369.23	12.333
369.59	12.910
369.95	13.455
370.31	12.627
370.67	12.930
371.03	12.604
371.39	11.350
371.75	13.549
372.11	12.873
372.47	12.796
372.83	13.809
373.19	12.742
373.55	12.940
373.91	12.952
374.27	12.872
374.63	13.599
374.99	11.936
375.35	13.961
375.71	13.742
376.07	13.170
376.42	13.413
376.78	13.549
377.14	13.787
377.50	13.536
377.86	14.532
378.22	14.251
378.58	14.507
378.94	14.202
379.30	13.943
379.66	13.698
380.02	14.253
380.38	15.726
380.74	14.592
381.09	13.937
381.45	14.205
381.81	15.925
382.17	14.608
382.53	14.620
382.89	15.406
383.25	16.237
383.61	14.352
383.97	15.371
384.32	15.191
384.68	14.269
385.04	15.674
385.40	16.205
385.76	16.999
386.12	15.380
386.48	15.412
386.83	15.971
387.19	15.238
387.55	14.789
387.91	14.840
388.27	16.282
388.62	15.578
388.98	15.849
389.34	16.028
389.70	16.560
390.06	16.223
390.42	16.446
390.77	17.158
391.13	16.138
391.49	16.365
391.85	15.697
392.20	16.548
392.56	17.070
392.92	16.412
393.28	16.915
393.64	16.089
393.99	16.967
394.35	17.407
394.71	17.485
395.07	17.126
395.42	16.619
395.78	18.160
396.14	17.053
396.50	16.686
396.85	16.816
397.21	17.574
397.57	17.432
397.92	17.468
398.28	16.839
398.64	18.021
399.00	17.853
399.35	17.958
399.71	18.207
400.07	17.855
400.42	17.462
400.78	18.461
401.14	18.270
401.49	17.965
401.85	18.779
402.21	18.540
402.57	18.369
402.92	18.676
403.28	17.389
403.63	17.900
403.99	18.112
404.35	17.567
404.70	18.754
405.06	18.750
405.42	18.208
405.77	18.539
406.13	19.125
406.49	19.088
406.84	19.224
407.20	18.558
407.55	18.595
407.91	17.976
408.27	19.081
408.62	18.383
408.98	18.166
409.34	18.475
409.69	18.912
410.05	19.812
410.40	19.548
410.76	20.639
411.11	19.521
411.47	19.656
411.83	19.636
412.18	18.916
412.54	19.206
412.89	19.267
413.25	20.372
413.60	19.989
413.96	19.580
414.31	19.943
414.67	20.095
415.03	20.492
415.38	20.366
415.74	20.037
416.09	19.926
416.45	19.036
416.80	19.523
417.16	19.221
417.51	19.614
417.87	19.497
418.22	20.000
418.58	18.959
418.93	20.838
419.29	19.852
419.64	20.588
420.00	20.712
420.35	19.540
420.71	20.448
421.06	19.609
421.42	21.101
421.77	19.709
422.12	20.930
422.48	20.328
422.83	21.522
423.19	20.955
423.54	20.686
423.90	20.375
424.25	21.280
424.61	19.460
424.96	20.923
425.31	20.329
425.67	19.807
426.02	21.085
426.38	21.183
426.73	20.536
427.09	20.992
427.44	20.863
427.79	20.509
428.15	20.605
428.50	20.337
428.85	20.379
429.21	21.011
429.56	21.076
429.92	20.934
430.27	21.108
430.62	21.690
430.98	21.151
431.33	20.919
431.68	21.743
432.04	20.721
432.39	21.532
432.74	20.205
433.10	21.525
433.45	20.067
433.80	20.708
434.16	21.333
434.51	20.761
434.86	20.793
435.22	21.254
435.57	21.521
435.92	20.701
436.28	21.160
436.63	21.628
436.98	20.934
437.34	21.026
437.69	21.409
438.04	20.624
438.39	20.678
438.75	21.029
439.10	21.512
439.45	22.023
439.81	21.186
440.16	20.751
440.51	22.464
440.86	20.956
441.22	21.597
441.57	21.960
441.92	21.532
442.27	21.970
442.63	22.057
442.98	21.825
443.33	21.778
443.68	22.349
444.03	22.907
444.39	22.469
444.74	22.614
445.09	21.135
445.44	22.339
445.79	22.222
446.15	22.045
446.50	22.481
446.85	22.276
447.20	22.582
447.55	21.862
447.91	22.094
448.26	21.882
448.61	22.423
448.96	22.425
449.31	21.792
449.66	22.004
450.02	21.730
450.37	22.643
450.72	22.497
451.07	22.323
451.42	22.473
451.77	22.068
452.12	22.404
452.47	21.034
452.83	23.142
453.18	23.001
453.53	21.424
453.88	21.535
454.23	22.373
454.58	21.706
454.93	21.117
455.28	22.155
455.63	21.489
455.98	23.017
456.34	22.320
456.69	22.634
457.04	21.572
457.39	22.506
457.74	22.987
458.09	21.636
458.44	22.414
458.79	22.383
459.14	22.758
459.49	21.958
459.84	22.141
460.19	21.766
460.54	22.203
460.89	22.499
461.24	21.724
461.59	22.690
461.94	21.506
462.29	22.676
462.64	21.605
462.99	21.030
463.34	21.480
463.69	21.923
464.04	21.901
464.39	22.646
464.74	21.836
465.09	22.318
465.44	21.996
465.79	21.682
466.14	22.668
466.49	21.895
466.84	21.653
467.19	21.272
467.54	20.799
467.89	22.299
468.24	21.884
468.59	20.903
468.94	21.329
469.29	21.476
469.64	21.297
469.99	21.542
470.34	21.287
470.68	20.369
471.03	20.891
471.38	21.452
471.73	21.586
472.08	21.193
472.43	21.493
472.78	22.103
473.13	21.618
473.48	20.725
473.83	22.229
474.17	21.630
474.52	21.467
474.87	22.093
475.22	21.183
475.57	20.976
475.92	21.254
476.27	20.767
476.61	21.132
476.96	20.647
477.31	21.584
477.66	22.403
478.01	20.946
478.36	21.137
478.70	20.936
479.05	21.421
479.40	21.224
479.75	21.614
480.10	21.412
480.45	20.602
480.79	21.315
481.14	20.404
481.49	21.399
481.84	21.758
482.19	21.720
482.53	21.600
482.88	21.400
483.23	21.610
483.58	21.223
483.92	21.055
484.27	21.338
484.62	21.493
484.97	21.579
485.31	20.345
485.66	20.227
486.01	20.702
486.36	21.124
486.70	22.543
487.05	22.999
487.40	22.150
487.75	21.654
488.09	21.217
488.44	20.129
488.79	21.147
489.13	20.565
489.48	20.311
489.83	20.684
490.17	20.089
490.52	20.320
490.87	20.389
491.22	20.624
491.56	21.075
491.91	20.759
492.26	21.160
492.60	20.420
492.95	20.535
493.30	19.722
493.64	19.536
493.99	20.088
494.34	19.686
494.68	19.872
495.03	21.013
495.37	19.352
495.72	19.320
496.07	19.544
496.41	20.635
496.76	20.726
497.11	20.085
497.45	20.242
497.80	20.347
498.14	20.000
498.49	19.807
498.84	19.150
499.18	20.288
499.53	20.045
499.87	19.429
500.22	19.323
500.56	19.208
500.91	18.902
501.26	20.000
501.60	19.576
501.95	19.713
502.29	19.746
502.64	19.676
502.98	19.888
503.33	19.136
503.67	19.363
504.02	19.790
504.36	19.392
504.71	19.614
505.06	19.463
505.40	19.104
505.75	18.989
506.09	19.383
506.44	19.174
506.78	19.450
507.13	19.640
507.47	19.375
507.82	19.271
508.16	18.690
508.51	19.081
508.85	19.178
509.19	18.948
509.54	19.212
509.88	18.796
510.23	18.893
510.57	19.333
510.92	19.061
511.26	18.711
511.61	18.252
511.95	18.302
512.30	19.005
512.64	18.891
512.98	18.759
513.33	17.944
513.67	19.123
514.02	19.366
514.36	18.517
514.70	18.281
515.05	18.770
515.39	19.055
515.74	18.982
516.08	18.648
516.42	18.943
516.77	18.297
517.11	17.483
517.46	18.929
517.80	18.760
518.14	19.151
518.49	17.896
518.83	18.361
519.17	17.663
519.52	18.501
519.86	19.166
520.20	18.264
520.55	18.182
520.89	17.680
521.23	18.035
521.58	17.514
521.92	17.677
522.26	17.010
522.61	17.650
522.95	18.224
523.29	17.011
523.64	17.433
523.98	18.311
524.32	18.453
524.66	17.188
525.01	17.327
525.35	17.117
525.69	16.937
526.04	17.164
526.38	17.414
526.72	18.166
527.06	18.651
527.41	17.434
527.75	18.052
528.09	17.237
528.43	17.999
528.78	17.572
529.12	16.858
529.46	17.144
529.80	17.162
530.15	17.159
530.49	16.370
530.83	17.532
531.17	16.965
531.51	17.569
531.86	17.308
532.20	17.683
532.54	17.235
532.88	16.970
533.22	16.028
533.57	17.080
533.91	18.070
534.25	16.959
534.59	17.356
534.93	16.695
535.27	16.789
535.62	17.510
535.96	16.270
536.30	15.864
536.64	17.057
536.98	16.544
537.32	17.284
537.66	17.530
538.01	16.073
538.35	15.895
538.69	16.226
539.03	16.186
539.37	16.431
539.71	16.637
540.05	16.187
540.39	15.648
540.73	16.151
541.07	16.002
541.42	16.952
541.76	15.480
542.10	15.380
542.44	15.834
542.78	15.693
543.12	16.031
543.46	15.690
543.80	15.647
544.14	15.320
544.48	15.721
544.82	15.919
545.16	16.577
545.50	16.117
545.84	15.003
546.18	16.296
546.52	15.732
546.86	15.786
547.20	15.394
547.54	14.856
547.88	15.732
548.22	15.322
548.56	15.565
548.90	15.582
549.24	15.927
549.58	14.448
549.92	15.179
550.26	14.628
550.60	14.933
550.94	15.524
551.28	14.785
551.62	15.768
551.96	14.369
552.30	15.870
552.64	14.437
552.98	15.783
553.32	14.984
553.66	14.920
554.00	15.700
554.34	14.994
554.68	14.526
555.02	14.980
555.36	15.056
555.69	14.542
556.03	14.187
556.37	15.707
556.71	14.458
557.05	15.399
557.39	14.001
557.73	14.333
558.07	13.974
558.41	14.618
558.75	14.740
559.08	15.449
559.42	14.266
559.76	15.061
560.10	14.601
560.44	14.248
560.78	14.188
561.12	15.086
561.45	13.504
561.79	13.431
562.13	14.849
562.47	13.379
562.81	14.051
563.15	13.826
563.48	14.481
563.82	13.482
564.16	12.841
564.50	14.064
564.84	13.215
565.17	13.529
565.51	13.751
565.85	14.667
566.19	13.479
566.52	13.283
566.86	13.696
567.20	13.431
567.54	13.702
567.88	13.609
568.21	14.279
568.55	13.525
568.89	14.253
569.23	13.857
569.56	14.068
569.90	14.220
570.24	13.592
570.57	13.855
570.91	14.115
571.25	13.277
571.59	13.999
571.92	13.699
572.26	13.790
572.60	13.841
572.93	13.832
573.27	13.656
573.61	13.764
573.95	13.693
574.28	14.085
574.62	13.665
574.96	13.476
575.29	13.836
575.63	13.860
575.97	14.180
576.30	13.348
576.64	13.338
576.98	13.690
577.31	13.644
577.65	13.640
577.98	13.855
578.32	13.550
578.66	13.494
578.99	13.271
579.33	13.339
579.67	13.441
580.00	13.531
580.34	13.133
580.67	13.327
581.01	13.371
581.35	13.072
581.68	13.345
582.02	13.469
582.35	13.713
582.69	13.479
583.02	13.194
583.36	13.309
583.70	13.247
584.03	12.911
584.37	12.910
584.70	12.958
585.04	12.741
585.37	13.058
585.71	12.621
586.04	12.792
586.38	12.883
586.72	12.936
587.05	12.510
587.39	12.939
587.72	12.943
588.06	13.008
588.39	13.393
588.73	12.302
589.06	12.726
589.40	13.092
589.73	12.596
590.07	12.500
590.40	12.779
590.73	12.195
591.07	12.993
591.40	12.597
591.74	12.599
592.07	12.546
592.41	12.342
592.74	12.389
593.08	12.611
593.41	12.657
593.75	11.897
594.08	12.481
594.41	12.532
594.75	12.488
595.08	12.315
595.42	12.630
595.75	11.915
596.09	12.979
596.42	11.824
596.75	12.080
597.09	12.364
597.42	11.959
597.75	11.956
598.09	12.341
598.42	12.344
598.76	11.693
599.09	11.926
599.42	12.035
599.76	11.522
600.09	12.212
600.42	11.778
600.76	11.526
601.09	11.550
601.42	12.049
601.76	12.103
602.09	11.472
602.42	11.414
602.76	11.439
603.09	12.041
603.42	11.633
603.76	11.381
604.09	12.207
604.42	11.486
604.76	11.263
605.09	11.927
605.42	10.965
605.75	11.423
606.09	10.900
606.42	11.383
606.75	11.057
607.09	11.329
607.42	11.291
607.75	11.293
608.08	11.839
608.42	10.802
608.75	10.862
609.08	10.823
609.41	11.292
609.75	11.071
610.08	11.566
610.41	11.342
610.74	11.176
611.07	10.391
611.41	11.570
611.74	11.270
612.07	11.173
612.40	10.694
612.73	11.051
613.07	10.367
613.40	11.116
613.73	10.881
614.06	10.255
614.39	10.496
614.72	10.771
615.06	10.731
615.39	9.957
615.72	10.711
616.05	11.268
616.38	10.747
616.71	10.920
617.05	9.638
617.38	10.754
617.71	11.231
618.04	11.009
618.37	10.929
618.70	10.633
619.03	10.036
619.36	9.988
619.69	9.930
620.03	10.232
620.36	10.736
620.69	9.809
621.02	10.236
621.35	9.652
621.68	11.352
622.01	10.534
622.34	9.833
622.67	9.485
623.00	9.312
623.33	10.285
623.66	10.700
623.99	9.151
624.32	10.266
624.65	9.266
624.99	9.753
625.32	10.712
625.65	10.519
625.98	9.966
626.31	9.709
626.64	9.744
626.97	9.302
627.30	8.960
627.63	9.377
627.96	10.360
628.29	8.794
628.62	9.068
628.95	8.940
629.28	9.091
629.61	9.933
629.94	8.619
630.26	7.797
630.59	10.017
630.92	9.264
631.25	10.733
631.58	9.981
631.91	9.278
632.24	8.165
632.57	8.634
