SpectraSuite Data File
++++++++++++++++++++++++++++++++++++
Date: Thu May 14 15:54:49 PDT 2015
User: schluterlab
Dark Spectrum Present: Yes
Reference Spectrum Present: Yes
Number of Sampled Component Spectra: 1
Spectrometers: USB2E3373
Integration Time (usec): 3000 (USB2E3373)
Spectra Averaged: 3 (USB2E3373)
Boxcar Smoothing: 0 (USB2E3373)
Correct for Electrical Dark: No (USB2E3373)
Strobe/Lamp Enabled: No (USB2E3373)
Correct for Detector Non-linearity: No (USB2E3373)
Correct for Stray Light: No (USB2E3373)
Number of Pixels in Processed Spectrum: 2048
>>>>>Begin Processed Spectral Data<<<<<
178.53	0.000
178.91	500.000
179.29	-3800.000
179.67	-3800.000
180.04	342.857
180.42	350.000
180.80	660.000
181.18	-3300.000
181.56	-2700.000
181.94	825.000
182.31	-800.000
182.69	1133.333
183.07	-1350.000
183.45	1000.000
183.83	-450.000
184.20	-833.333
184.58	3400.000
184.96	-875.000
185.34	-388.889
185.72	-700.000
186.09	488.889
186.47	1950.000
186.85	880.000
187.23	-322.222
187.61	-4200.000
187.98	640.000
188.36	850.000
188.74	-800.000
189.12	-933.333
189.49	-162.500
189.87	-450.000
190.25	-388.889
190.63	-680.000
191.00	-422.222
191.38	0.000
191.76	-1025.000
192.14	-466.667
192.51	1950.000
192.89	-516.667
193.27	0.000
193.65	-485.714
194.02	-3600.000
194.40	-442.857
194.78	500.000
195.15	0.000
195.53	-272.727
195.91	0.000
196.29	-775.000
196.66	-192.308
197.04	-4000.000
197.42	-485.714
197.79	-1700.000
198.17	-462.500
198.55	-442.857
198.92	-244.444
199.30	-425.000
199.68	-245.455
200.05	-192.857
200.43	-1700.000
200.81	628.571
201.18	0.000
201.56	400.000
201.94	0.000
202.31	1166.667
202.69	-477.778
203.07	3500.000
203.44	-333.333
203.82	-900.000
204.19	-275.000
204.57	-600.000
204.95	-362.500
205.32	-2200.000
205.70	825.000
206.08	-466.667
206.45	-400.000
206.83	760.000
207.20	-333.333
207.58	-760.000
207.96	-600.000
208.33	-333.333
208.71	241.667
209.08	-433.333
209.46	0.000
209.84	616.667
210.21	1400.000
210.59	1600.000
210.96	1433.333
211.34	-925.000
211.71	-362.500
212.09	-2900.000
212.46	0.000
212.84	2250.000
213.22	-700.000
213.59	-750.000
213.97	-320.000
214.34	-1166.667
214.72	550.000
215.09	-875.000
215.47	0.000
215.84	428.571
216.22	1600.000
216.59	-760.000
216.97	-740.000
217.34	-875.000
217.72	-350.000
218.09	-900.000
218.47	-1025.000
218.84	0.000
219.22	600.000
219.59	-182.353
219.97	-115.000
220.34	1450.000
220.72	-333.333
221.09	-207.692
221.47	-1100.000
221.84	-280.000
222.22	-471.429
222.59	0.000
222.97	-300.000
223.34	-580.000
223.72	-3600.000
224.09	-950.000
224.46	-700.000
224.84	-500.000
225.21	-500.000
225.59	-950.000
225.96	-850.000
226.34	-100.000
226.71	583.333
227.08	-1650.000
227.46	-200.000
227.83	-1075.000
228.21	-147.368
228.58	462.500
228.95	1600.000
229.33	-200.000
229.70	-270.000
230.08	-126.316
230.45	380.000
230.82	-733.333
231.20	-242.857
231.57	-233.333
231.95	-345.455
232.32	-318.182
232.69	-120.000
233.07	-850.000
233.44	-117.647
233.81	-320.000
234.19	-144.444
234.56	-140.909
234.93	-65.517
235.31	-115.789
235.68	-155.556
236.05	-170.000
236.43	-100.000
236.80	-48.000
237.17	-81.481
237.55	-103.030
237.92	-400.000
238.29	-80.645
238.67	-86.364
239.04	-77.778
239.41	-88.095
239.79	-47.826
240.16	-57.407
240.53	-65.217
240.91	-54.902
241.28	-44.262
241.65	-29.851
242.02	-29.730
242.40	-52.308
242.77	-32.000
243.14	-21.951
243.51	-46.053
243.89	-43.590
244.26	-12.871
244.63	-9.804
245.00	-14.953
245.38	-21.053
245.75	-27.434
246.12	-11.905
246.49	-8.527
246.87	-5.000
247.24	-1.325
247.61	-5.921
247.98	-10.067
248.36	-4.321
248.73	-5.521
249.10	-2.186
249.47	5.970
249.84	5.236
250.22	-3.627
250.59	-2.778
250.96	5.455
251.33	-8.673
251.70	-2.564
252.08	2.917
252.45	5.738
252.82	-6.612
253.19	1.563
253.56	6.084
253.94	1.923
254.31	4.545
254.68	6.294
255.05	6.515
255.42	0.680
255.79	1.942
256.16	2.318
256.54	-0.993
256.91	3.607
257.28	4.918
257.65	0.637
258.02	2.360
258.39	5.983
258.76	7.339
259.14	5.460
259.51	5.187
259.88	5.666
260.25	3.889
260.62	6.575
260.99	7.923
261.36	6.971
261.73	4.509
262.10	4.396
262.47	5.094
262.85	8.333
263.22	4.675
263.59	3.421
263.96	4.859
264.33	3.069
264.70	6.173
265.07	7.399
265.44	8.844
265.81	7.870
266.18	8.163
266.55	6.696
266.92	2.961
267.29	9.409
267.66	7.095
268.03	8.952
268.40	9.395
268.77	5.923
269.14	4.846
269.51	6.360
269.88	8.811
270.25	7.243
270.62	9.494
270.99	11.515
271.36	9.703
271.73	6.680
272.10	9.018
272.47	9.820
272.84	7.831
273.21	8.617
273.58	5.645
273.95	6.538
274.32	6.274
274.69	6.963
275.06	8.059
275.43	6.470
275.80	9.347
276.17	4.074
276.54	7.276
276.91	9.123
277.28	8.861
277.65	10.054
278.02	8.640
278.39	8.514
278.76	6.854
279.13	7.979
279.50	8.763
279.87	8.766
280.23	6.514
280.60	8.983
280.97	9.211
281.34	5.942
281.71	10.152
282.08	7.475
282.45	5.728
282.82	5.965
283.19	4.847
283.56	6.885
283.92	8.709
284.29	9.479
284.66	8.210
285.03	7.212
285.40	9.583
285.77	7.276
286.14	9.313
286.51	7.763
286.87	6.477
287.24	7.681
287.61	7.474
287.98	8.912
288.35	10.207
288.72	8.136
289.08	9.370
289.45	7.249
289.82	6.777
290.19	6.178
290.56	8.451
290.93	8.131
291.29	8.127
291.66	5.647
292.03	6.649
292.40	8.027
292.77	6.873
293.13	7.848
293.50	7.359
293.87	7.651
294.24	8.533
294.60	7.459
294.97	6.980
295.34	8.835
295.71	6.305
296.08	6.072
296.44	7.108
296.81	6.699
297.18	7.970
297.55	6.722
297.91	7.829
298.28	5.687
298.65	6.659
299.02	6.021
299.38	8.352
299.75	6.308
300.12	6.944
300.48	5.760
300.85	9.224
301.22	7.718
301.59	6.849
301.95	7.006
302.32	10.111
302.69	7.229
303.05	8.270
303.42	8.426
303.79	7.396
304.15	9.253
304.52	7.188
304.89	7.539
305.25	7.557
305.62	8.255
305.99	7.732
306.35	8.065
306.72	7.963
307.09	7.513
307.45	8.178
307.82	7.871
308.19	8.678
308.55	8.872
308.92	9.250
309.29	8.908
309.65	6.628
310.02	8.020
310.38	7.579
310.75	8.252
311.12	9.108
311.48	8.504
311.85	8.452
312.22	8.254
312.58	8.826
312.95	8.031
313.31	9.033
313.68	9.432
314.05	10.569
314.41	8.834
314.78	9.355
315.14	10.073
315.51	9.511
315.87	9.721
316.24	10.502
316.61	10.213
316.97	8.507
317.34	7.760
317.70	10.131
318.07	8.907
318.43	10.289
318.80	10.368
319.16	9.185
319.53	9.769
319.89	8.414
320.26	10.676
320.62	9.309
320.99	9.603
321.35	9.797
321.72	12.465
322.08	9.468
322.45	10.027
322.81	11.011
323.18	10.885
323.54	10.000
323.91	11.121
324.27	11.532
324.64	10.663
325.00	10.779
325.37	10.319
325.73	11.074
326.10	11.679
326.46	12.541
326.83	12.410
327.19	12.047
327.56	12.727
327.92	12.274
328.29	12.258
328.65	10.469
329.01	10.998
329.38	11.710
329.74	11.644
330.11	10.873
330.47	12.468
330.84	11.197
331.20	13.250
331.56	12.218
331.93	12.050
332.29	11.949
332.66	11.877
333.02	11.725
333.38	11.913
333.75	11.364
334.11	12.761
334.48	12.046
334.84	13.169
335.20	11.923
335.57	11.467
335.93	11.405
336.29	12.479
336.66	11.943
337.02	11.204
337.38	12.500
337.75	11.736
338.11	11.775
338.47	12.655
338.84	11.591
339.20	10.952
339.56	12.109
339.93	11.987
340.29	11.433
340.65	10.949
341.02	13.248
341.38	12.045
341.74	12.591
342.11	11.504
342.47	11.517
342.83	12.882
343.20	11.611
343.56	11.868
343.92	10.649
344.28	12.344
344.65	12.481
345.01	12.246
345.37	13.142
345.73	11.535
346.10	13.261
346.46	11.788
346.82	12.509
347.19	13.598
347.55	12.519
347.91	11.887
348.27	12.291
348.63	12.034
349.00	11.559
349.36	12.342
349.72	12.202
350.08	12.407
350.45	11.559
350.81	12.670
351.17	11.053
351.53	12.661
351.89	12.908
352.26	12.388
352.62	12.164
352.98	11.603
353.34	11.501
353.70	12.250
354.07	12.444
354.43	11.845
354.79	12.042
355.15	12.804
355.51	13.085
355.87	12.266
356.24	12.700
356.60	11.826
356.96	12.824
357.32	12.342
357.68	11.420
358.04	12.650
358.40	12.164
358.77	12.646
359.13	11.448
359.49	12.119
359.85	11.748
360.21	11.191
360.57	12.850
360.93	12.059
361.29	13.825
361.66	12.165
362.02	13.500
362.38	12.087
362.74	12.430
363.10	13.136
363.46	12.258
363.82	12.571
364.18	12.386
364.54	12.932
364.90	14.114
365.26	12.138
365.62	13.867
365.98	12.321
366.35	13.221
366.71	14.286
367.07	13.396
367.43	13.789
367.79	14.001
368.15	14.114
368.51	14.614
368.87	13.521
369.23	13.667
369.59	13.388
369.95	13.928
370.31	14.315
370.67	13.480
371.03	13.781
371.39	13.902
371.75	14.099
372.11	14.024
372.47	13.879
372.83	14.267
373.19	14.676
373.55	14.024
373.91	12.611
374.27	14.036
374.63	13.329
374.99	14.125
375.35	13.766
375.71	14.000
376.07	14.203
376.42	13.917
376.78	14.730
377.14	15.221
377.50	14.358
377.86	15.209
378.22	14.311
378.58	14.804
378.94	14.437
379.30	14.353
379.66	15.461
380.02	14.426
380.38	15.035
380.74	14.817
381.09	15.215
381.45	15.114
381.81	15.691
382.17	15.261
382.53	15.731
382.89	15.293
383.25	15.358
383.61	14.699
383.97	15.194
384.32	15.909
384.68	13.921
385.04	15.385
385.40	16.087
385.76	16.237
386.12	14.722
386.48	16.235
386.83	15.733
387.19	14.832
387.55	15.141
387.91	15.868
388.27	15.820
388.62	15.922
388.98	15.736
389.34	16.382
389.70	15.572
390.06	15.808
390.42	15.241
390.77	17.219
391.13	16.138
391.49	16.727
391.85	15.697
392.20	16.607
392.56	16.716
392.92	16.848
393.28	16.639
393.64	16.369
393.99	16.270
394.35	16.414
394.71	16.826
395.07	15.569
395.42	16.733
395.78	16.697
396.14	17.706
396.50	15.261
396.85	17.114
397.21	16.391
397.57	16.726
397.92	17.755
398.28	16.567
398.64	16.819
399.00	15.864
399.35	16.649
399.71	16.413
400.07	17.238
400.42	17.462
400.78	16.782
401.14	17.530
401.49	17.112
401.85	17.791
402.21	17.787
402.57	17.488
402.92	17.139
403.28	15.632
403.63	16.945
403.99	16.805
404.35	16.828
404.70	17.394
405.06	17.609
405.42	16.686
405.77	18.103
406.13	17.666
406.49	17.342
406.84	18.006
407.20	18.222
407.55	17.202
407.91	17.662
408.27	16.784
408.62	17.743
408.98	16.889
409.34	17.361
409.69	18.047
410.05	18.406
410.40	18.677
410.76	17.611
411.11	17.884
411.47	17.568
411.83	18.812
412.18	18.313
412.54	17.724
412.89	17.637
413.25	18.397
413.60	17.174
413.96	17.890
414.31	17.507
414.67	17.710
415.03	18.215
415.38	18.096
415.74	17.227
416.09	18.137
416.45	18.034
416.80	18.115
417.16	18.391
417.51	17.808
417.87	18.394
418.22	18.443
418.58	18.773
418.93	18.219
419.29	18.249
419.64	18.367
420.00	18.576
420.35	18.473
420.71	18.667
421.06	17.251
421.42	18.234
421.77	17.771
422.12	18.552
422.48	18.126
422.83	19.003
423.19	17.772
423.54	19.524
423.90	17.946
424.25	18.400
424.61	18.312
424.96	18.946
425.31	19.374
425.67	17.660
426.02	18.373
426.38	18.370
426.73	19.085
427.09	20.358
427.44	18.078
427.79	19.403
428.15	18.379
428.50	18.596
428.85	19.231
429.21	19.255
429.56	18.312
429.92	18.575
430.27	18.458
430.62	18.564
430.98	18.151
431.33	17.889
431.68	18.008
432.04	18.385
432.39	19.282
432.74	17.466
433.10	19.200
433.45	18.562
433.80	18.670
434.16	18.647
434.51	18.808
434.86	19.001
435.22	18.278
435.57	19.517
435.92	18.920
436.28	18.430
436.63	19.170
436.98	18.411
437.34	19.278
437.69	18.822
438.04	18.033
438.39	18.955
438.75	17.654
439.10	19.503
439.45	18.670
439.81	17.740
440.16	18.767
440.51	18.952
440.86	18.677
441.22	18.006
441.57	19.025
441.92	18.865
442.27	19.040
442.63	18.778
442.98	19.264
443.33	18.464
443.68	19.326
444.03	19.238
444.39	19.094
444.74	18.938
445.09	18.500
445.44	19.863
445.79	18.678
446.15	19.630
446.50	18.450
446.85	19.309
447.20	19.342
447.55	18.619
447.91	18.796
448.26	18.763
448.61	19.447
448.96	19.206
449.31	19.247
449.66	19.826
450.02	19.620
450.37	19.606
450.72	18.891
451.07	18.736
451.42	19.064
451.77	18.455
452.12	18.679
452.47	18.360
452.83	18.975
453.18	18.622
453.53	18.495
453.88	18.885
454.23	18.588
454.58	19.907
454.93	18.811
455.28	19.025
455.63	19.045
455.98	19.553
456.34	18.728
456.69	19.165
457.04	19.090
457.39	19.235
457.74	19.295
458.09	19.660
458.44	18.534
458.79	18.721
459.14	19.035
459.49	19.298
459.84	19.307
460.19	18.434
460.54	19.250
460.89	19.852
461.24	19.483
461.59	19.867
461.94	18.711
462.29	19.709
462.64	19.071
462.99	18.519
463.34	20.117
463.69	18.523
464.04	19.678
464.39	19.170
464.74	19.726
465.09	19.666
465.44	18.670
465.79	20.148
466.14	19.646
466.49	18.737
466.84	19.614
467.19	19.653
467.54	18.860
467.89	19.023
468.24	19.778
468.59	18.703
468.94	18.357
469.29	19.136
469.64	18.373
469.99	19.630
470.34	20.606
470.68	20.369
471.03	19.777
471.38	20.275
471.73	19.701
472.08	19.162
472.43	19.928
472.78	20.655
473.13	19.722
473.48	20.363
473.83	20.604
474.17	19.930
474.52	20.265
474.87	20.764
475.22	20.451
475.57	20.197
475.92	20.060
476.27	19.915
476.61	19.990
476.96	19.135
477.31	20.842
477.66	21.091
478.01	19.573
478.36	20.339
478.70	20.246
479.05	21.012
479.40	20.829
479.75	20.557
480.10	20.701
480.45	21.376
480.79	20.816
481.14	19.899
481.49	19.627
481.84	20.888
482.19	20.473
482.53	21.382
482.88	21.489
483.23	20.854
483.58	19.651
483.92	19.681
484.27	20.364
484.62	20.297
484.97	20.412
485.31	19.958
485.66	19.066
486.01	18.707
486.36	19.317
486.70	20.263
487.05	21.276
487.40	20.641
487.75	20.865
488.09	20.907
488.44	20.684
488.79	20.708
489.13	20.384
489.48	19.961
489.83	20.161
490.17	20.211
490.52	20.813
490.87	20.897
491.22	20.581
491.56	20.520
491.91	21.631
492.26	20.208
492.60	21.119
492.95	20.184
493.30	21.470
493.64	20.937
493.99	20.702
494.34	20.862
494.68	20.214
495.03	21.586
495.37	20.595
495.72	21.043
496.07	20.771
496.41	20.678
496.76	20.851
497.11	21.359
497.45	20.673
497.80	21.635
498.14	20.227
498.49	21.553
498.84	20.887
499.18	21.592
499.53	21.390
499.87	21.626
500.22	21.238
500.56	20.693
500.91	21.465
501.26	21.318
501.60	20.194
501.95	21.928
502.29	21.106
502.64	20.988
502.98	21.096
503.33	21.339
503.67	20.628
504.02	21.410
504.36	21.939
504.71	21.406
505.06	21.419
505.40	21.069
505.75	21.539
506.09	21.547
506.44	21.402
506.78	22.706
507.13	22.222
507.47	22.833
507.82	22.348
508.16	21.989
508.51	22.035
508.85	21.729
509.19	22.170
509.54	22.430
509.88	22.001
510.23	22.778
510.57	22.185
510.92	22.351
511.26	21.308
511.61	21.632
511.95	22.450
512.30	22.994
512.64	22.189
512.98	22.911
513.33	23.034
513.67	23.406
514.02	23.505
514.36	23.939
514.70	24.167
515.05	23.201
515.39	24.147
515.74	24.231
516.08	23.191
516.42	23.914
516.77	23.607
517.11	23.466
517.46	24.125
517.80	24.532
518.14	24.810
518.49	23.698
518.83	23.683
519.17	23.479
519.52	24.319
519.86	24.287
520.20	24.441
520.55	24.206
520.89	24.887
521.23	24.288
521.58	26.271
521.92	25.326
522.26	24.284
522.61	24.363
522.95	25.433
523.29	25.402
523.64	24.271
523.98	24.872
524.32	25.559
524.66	24.644
525.01	25.085
525.35	24.354
525.69	25.406
526.04	24.856
526.38	25.862
526.72	25.779
527.06	25.689
527.41	25.714
527.75	26.069
528.09	25.089
528.43	25.518
528.78	24.913
529.12	25.057
529.46	24.508
529.80	25.057
530.15	25.913
530.49	26.038
530.83	25.620
531.17	24.970
531.51	26.594
531.86	25.300
532.20	26.037
532.54	25.374
532.88	25.697
533.22	25.280
533.57	25.967
533.91	25.084
534.25	25.155
534.59	24.655
534.93	24.844
535.27	25.127
535.62	26.606
535.96	25.334
536.30	24.853
536.64	26.066
536.98	26.445
537.32	25.679
537.66	25.203
538.01	25.196
538.35	25.639
538.69	24.820
539.03	25.445
539.37	25.206
539.71	25.165
540.05	25.540
540.39	25.244
540.73	24.347
541.07	23.850
541.42	25.044
541.76	24.733
542.10	24.668
542.44	23.752
542.78	24.696
543.12	25.328
543.46	26.068
543.80	24.341
544.14	25.015
544.48	25.887
544.82	25.194
545.16	25.701
545.50	25.165
545.84	24.923
546.18	25.741
546.52	25.287
546.86	25.660
547.20	25.000
547.54	24.345
547.88	24.473
548.22	24.971
548.56	24.459
548.90	25.015
549.24	25.532
549.58	25.994
549.92	24.745
550.26	25.372
550.60	24.442
550.94	24.968
551.28	24.950
551.62	25.674
551.96	24.531
552.30	25.303
552.64	24.518
552.98	25.016
553.32	24.759
553.66	25.209
554.00	25.410
554.34	24.582
554.68	23.951
555.02	23.587
555.36	25.575
555.69	23.767
556.03	24.275
556.37	24.718
556.71	24.540
557.05	24.281
557.39	24.818
557.73	24.174
558.07	24.702
558.41	24.718
558.75	24.746
559.08	25.887
559.42	24.623
559.76	24.084
560.10	24.514
560.44	24.011
560.78	24.062
561.12	23.953
561.45	24.818
561.79	24.786
562.13	23.475
562.47	23.674
562.81	24.304
563.15	24.684
563.48	24.239
563.82	25.151
564.16	24.288
564.50	23.838
564.84	23.776
565.17	23.941
565.51	22.727
565.85	23.812
566.19	23.502
566.52	23.230
566.86	24.335
567.20	22.947
567.54	22.942
567.88	22.630
568.21	23.073
568.55	22.974
568.89	22.969
569.23	22.771
569.56	22.392
569.90	22.452
570.24	22.428
570.57	21.488
570.91	21.678
571.25	21.377
571.59	22.043
571.92	21.668
572.26	21.228
572.60	21.349
572.93	21.264
573.27	21.607
573.61	21.784
573.95	20.952
574.28	20.930
574.62	21.010
574.96	20.423
575.29	20.181
575.63	20.444
575.97	20.695
576.30	20.873
576.64	20.663
576.98	20.478
577.31	20.740
577.65	20.821
577.98	20.312
578.32	20.059
578.66	20.185
578.99	20.397
579.33	20.720
579.67	20.376
580.00	20.499
580.34	20.419
580.67	20.146
581.01	20.402
581.35	20.222
581.68	20.053
582.02	19.902
582.35	20.240
582.69	20.322
583.02	19.809
583.36	20.702
583.70	19.836
584.03	20.254
584.37	20.267
584.70	19.511
585.04	19.368
585.37	20.018
585.71	19.396
586.04	19.793
586.38	20.149
586.72	19.428
587.05	19.263
587.39	19.845
587.72	19.976
588.06	20.019
588.39	19.617
588.73	19.577
589.06	20.034
589.40	20.682
589.73	20.726
590.07	20.027
590.40	19.946
590.73	20.431
591.07	20.365
591.40	19.790
591.74	19.833
592.07	20.422
592.41	19.834
592.74	19.737
593.08	19.713
593.41	20.006
593.75	19.655
594.08	19.994
594.41	19.968
594.75	19.562
595.08	19.213
595.42	19.675
595.75	19.341
596.09	20.163
596.42	19.814
596.75	19.915
597.09	20.162
597.42	19.309
597.75	19.875
598.09	19.762
598.42	20.185
598.76	19.259
599.09	18.904
599.42	19.343
599.76	18.587
600.09	19.453
600.42	19.052
600.76	19.254
601.09	18.918
601.42	18.400
601.76	18.897
602.09	19.371
602.42	19.302
602.76	18.967
603.09	19.016
603.42	19.328
603.76	18.992
604.09	19.801
604.42	19.156
604.76	18.798
605.09	18.947
605.42	19.338
605.75	18.846
606.09	18.962
606.42	18.752
606.75	18.553
607.09	18.088
607.42	19.191
607.75	18.796
608.08	18.627
608.42	19.508
608.75	19.527
609.08	19.228
609.41	19.100
609.75	18.839
610.08	19.217
610.41	18.309
610.74	18.277
611.07	18.561
611.41	18.879
611.74	19.400
612.07	19.215
612.40	18.108
612.73	19.071
613.07	18.631
613.40	19.153
613.73	18.777
614.06	18.449
614.39	18.027
614.72	18.341
615.06	18.479
615.39	18.028
615.72	18.199
616.05	19.330
616.38	18.819
616.71	19.227
617.05	18.797
617.38	18.780
617.71	19.006
618.04	19.266
618.37	19.727
618.70	19.174
619.03	18.399
619.36	18.804
619.69	19.731
620.03	18.644
620.36	18.834
620.69	18.445
621.02	18.963
621.35	19.956
621.68	19.884
622.01	19.075
622.34	18.898
622.67	18.488
623.00	17.814
623.33	18.912
623.66	19.585
623.99	18.104
624.32	19.428
624.65	18.726
624.99	19.766
625.32	19.073
625.65	19.757
625.98	19.254
626.31	19.702
626.64	19.267
626.97	17.329
627.30	19.210
627.63	18.905
627.96	19.520
628.29	19.533
628.62	19.563
628.95	19.632
629.28	19.116
629.61	19.781
629.94	18.661
630.26	18.390
630.59	18.912
630.92	18.615
631.25	19.946
631.58	20.339
631.91	19.119
632.24	19.308
632.57	18.786
632.90	20.160
633.23	19.490
633.56	19.796
633.89	19.421
