SpectraSuite Data File
++++++++++++++++++++++++++++++++++++
Date: Thu May 14 16:00:16 PDT 2015
User: schluterlab
Dark Spectrum Present: Yes
Reference Spectrum Present: Yes
Number of Sampled Component Spectra: 1
Spectrometers: USB2E3373
Integration Time (usec): 3000 (USB2E3373)
Spectra Averaged: 3 (USB2E3373)
Boxcar Smoothing: 0 (USB2E3373)
Correct for Electrical Dark: No (USB2E3373)
Strobe/Lamp Enabled: No (USB2E3373)
Correct for Detector Non-linearity: No (USB2E3373)
Correct for Stray Light: No (USB2E3373)
Number of Pixels in Processed Spectrum: 2048
>>>>>Begin Processed Spectral Data<<<<<
178.53	0.000
178.91	257.143
179.29	-2200.000
179.67	-1800.000
180.04	278.571
180.42	150.000
180.80	420.000
181.18	-2100.000
181.56	-1500.000
181.94	575.000
182.31	-325.000
182.69	700.000
183.07	-300.000
183.45	425.000
183.83	-233.333
184.20	-466.667
184.58	2100.000
184.96	-575.000
185.34	-188.889
185.72	-420.000
186.09	344.444
186.47	850.000
186.85	600.000
187.23	-300.000
187.61	-2400.000
187.98	260.000
188.36	525.000
188.74	-600.000
189.12	-333.333
189.49	-62.500
189.87	-250.000
190.25	-144.444
190.63	-240.000
191.00	-244.444
191.38	0.000
191.76	-475.000
192.14	-316.667
192.51	950.000
192.89	-116.667
193.27	0.000
193.65	-271.429
194.02	-3000.000
194.40	-300.000
194.78	285.714
195.15	0.000
195.53	0.000
195.91	0.000
196.29	-450.000
196.66	-161.538
197.04	-2900.000
197.42	-357.143
197.79	-750.000
198.17	-250.000
198.55	-200.000
198.92	-166.667
199.30	-200.000
199.68	-118.182
200.05	-78.571
200.43	-1050.000
200.81	414.286
201.18	0.000
201.56	277.778
201.94	0.000
202.31	666.667
202.69	-188.889
203.07	700.000
203.44	-233.333
203.82	-375.000
204.19	-158.333
204.57	-483.333
204.95	-100.000
205.32	-2800.000
205.70	625.000
206.08	-400.000
206.45	-300.000
206.83	560.000
207.20	-350.000
207.58	-480.000
207.96	-366.667
208.33	-216.667
208.71	200.000
209.08	-33.333
209.46	0.000
209.84	166.667
210.21	950.000
210.59	1050.000
210.96	733.333
211.34	-225.000
211.71	-100.000
212.09	-2200.000
212.46	0.000
212.84	1050.000
213.22	-440.000
213.59	-125.000
213.97	-110.000
214.34	-633.333
214.72	483.333
215.09	-725.000
215.47	0.000
215.84	200.000
216.22	1300.000
216.59	-320.000
216.97	-400.000
217.34	-300.000
217.72	-50.000
218.09	-650.000
218.47	-750.000
218.84	0.000
219.22	300.000
219.59	-35.294
219.97	-10.000
220.34	1600.000
220.72	-200.000
221.09	-123.077
221.47	-433.333
221.84	-160.000
222.22	-357.143
222.59	0.000
222.97	-137.500
223.34	-300.000
223.72	-1700.000
224.09	-650.000
224.46	-450.000
224.84	-160.000
225.21	-228.571
225.59	-375.000
225.96	-475.000
226.34	-38.462
226.71	433.333
227.08	-1050.000
227.46	-66.667
227.83	-350.000
228.21	-57.895
228.58	237.500
228.95	1050.000
229.33	-83.333
229.70	-130.000
230.08	-31.579
230.45	190.000
230.82	-933.333
231.20	-135.714
231.57	-83.333
231.95	-200.000
232.32	-100.000
232.69	-35.000
233.07	-375.000
233.44	-111.765
233.81	-170.000
234.19	-11.111
234.56	-63.636
234.93	-20.690
235.31	-100.000
235.68	-94.444
236.05	-85.000
236.43	3.846
236.80	-12.000
237.17	14.815
237.55	-36.364
237.92	-240.000
238.29	-38.710
238.67	-11.364
239.04	-30.556
239.41	-9.524
239.79	-32.609
240.16	-5.556
240.53	-19.565
240.91	-25.490
241.28	-3.279
241.65	8.955
242.02	5.405
242.40	-7.692
242.77	6.667
243.14	0.000
243.51	-2.632
243.89	3.846
244.26	10.891
244.63	12.745
245.00	4.673
245.38	0.000
245.75	-5.310
246.12	12.698
246.49	7.752
246.87	12.143
247.24	14.570
247.61	12.500
247.98	2.685
248.36	10.494
248.73	6.135
249.10	10.929
249.47	16.418
249.84	17.801
250.22	8.290
250.59	19.444
250.96	18.636
251.33	13.776
251.70	19.658
252.08	19.583
252.45	18.443
252.82	15.702
253.19	18.750
253.56	15.589
253.94	13.462
254.31	16.667
254.68	20.280
255.05	18.241
255.42	20.408
255.79	17.799
256.16	19.205
256.54	18.543
256.91	19.344
257.28	19.016
257.65	15.924
258.02	15.634
258.39	23.362
258.76	22.018
259.14	20.115
259.51	17.867
259.88	18.130
260.25	21.111
260.62	20.274
260.99	22.678
261.36	20.912
261.73	18.302
262.10	20.055
262.47	20.107
262.85	24.242
263.22	15.325
263.59	18.158
263.96	18.926
264.33	17.136
264.70	19.506
265.07	19.809
265.44	22.676
265.81	19.213
266.18	22.449
266.55	20.982
266.92	17.540
267.29	21.663
267.66	20.621
268.03	20.961
268.40	18.163
268.77	18.679
269.14	19.824
269.51	21.272
269.88	21.926
270.25	21.529
270.62	21.941
270.99	21.212
271.36	21.980
271.73	21.611
272.10	21.643
272.47	21.643
272.84	21.687
273.21	22.044
273.58	21.976
273.95	19.615
274.32	17.681
274.69	19.729
275.06	20.147
275.43	16.821
275.80	20.459
276.17	18.519
276.54	19.963
276.91	20.215
277.28	18.264
277.65	21.724
278.02	22.610
278.39	20.471
278.76	18.981
279.13	21.454
279.50	19.072
279.87	19.499
280.23	18.662
280.60	21.017
280.97	18.421
281.34	18.846
281.71	21.658
282.08	20.930
282.45	21.113
282.82	19.937
283.19	20.032
283.56	20.984
283.92	20.120
284.29	21.327
284.66	20.525
285.03	19.231
285.40	20.402
285.77	18.731
286.14	19.237
286.51	18.721
286.87	19.115
287.24	16.867
287.61	18.984
287.98	18.429
288.35	18.787
288.72	18.343
289.08	19.180
289.45	17.751
289.82	18.825
290.19	16.954
290.56	19.437
290.93	18.117
291.29	19.146
291.66	19.008
292.03	16.282
292.40	18.231
292.77	16.307
293.13	17.862
293.50	15.243
293.87	15.570
294.24	18.533
294.60	17.952
294.97	16.510
295.34	17.414
295.71	16.646
296.08	17.054
296.44	15.196
296.81	16.322
297.18	17.061
297.55	14.387
297.91	15.540
298.28	15.284
298.65	15.577
299.02	14.758
299.38	15.789
299.75	16.822
300.12	15.625
300.48	16.590
300.85	14.623
301.22	15.996
301.59	13.813
301.95	14.350
302.32	16.444
302.69	15.005
303.05	15.343
303.42	15.965
303.79	14.479
304.15	14.932
304.52	16.068
304.89	14.764
305.25	14.389
305.62	13.793
305.99	14.639
306.35	14.819
306.72	15.305
307.09	14.416
307.45	14.907
307.82	14.934
308.19	13.522
308.55	15.043
308.92	14.508
309.29	14.464
309.65	14.620
310.02	14.158
310.38	13.878
310.75	14.369
311.12	14.669
311.48	14.663
311.85	14.245
312.22	14.801
312.58	14.366
312.95	14.054
313.31	15.086
313.68	15.385
314.05	15.086
314.41	14.117
314.78	14.169
315.14	13.884
315.51	15.512
315.87	15.302
316.24	15.616
316.61	15.009
316.97	14.299
317.34	13.757
317.70	15.197
318.07	13.668
318.43	14.711
318.80	14.632
319.16	14.421
319.53	12.939
319.89	14.461
320.26	15.125
320.62	13.918
320.99	14.312
321.35	12.939
321.72	15.721
322.08	14.337
322.45	14.453
322.81	14.260
323.18	13.805
323.54	14.569
323.91	15.214
324.27	14.544
324.64	14.274
325.00	15.008
325.37	14.333
325.73	15.207
326.10	15.004
326.46	14.332
326.83	13.531
327.19	13.386
327.56	14.229
327.92	14.083
328.29	13.548
328.65	14.154
329.01	14.721
329.38	13.142
329.74	14.812
330.11	14.298
330.47	14.490
330.84	13.867
331.20	14.917
331.56	14.125
331.93	14.226
332.29	13.305
332.66	14.037
333.02	14.657
333.38	14.178
333.75	13.973
334.11	14.095
334.48	13.284
334.84	15.633
335.20	12.930
335.57	13.997
335.93	13.884
336.29	12.812
336.66	13.541
337.02	12.960
337.38	14.201
337.75	12.975
338.11	14.045
338.47	13.565
338.84	14.129
339.20	14.153
339.56	13.509
339.93	14.204
340.29	13.446
340.65	13.301
341.02	14.765
341.38	14.066
341.74	13.075
342.11	13.677
342.47	11.835
342.83	14.332
343.20	13.737
343.56	13.873
343.92	13.451
344.28	14.297
344.65	14.264
345.01	14.041
345.37	14.619
345.73	12.315
346.10	13.885
346.46	12.896
346.82	14.007
347.19	12.987
347.55	14.416
347.91	13.819
348.27	12.898
348.63	13.785
349.00	13.497
349.36	13.457
349.72	12.798
350.08	13.967
350.45	13.308
350.81	13.198
351.17	12.932
351.53	13.116
351.89	13.516
352.26	13.582
352.62	13.507
352.98	12.137
353.34	12.995
353.70	12.250
354.07	13.636
354.43	12.301
354.79	13.164
355.15	13.098
355.51	14.181
355.87	12.266
356.24	13.080
356.60	12.195
356.96	13.862
357.32	12.119
357.68	13.397
358.04	12.874
358.40	13.284
358.77	12.281
359.13	12.408
359.49	11.822
359.85	12.183
360.21	12.123
360.57	11.414
360.93	11.425
361.29	12.561
361.66	11.803
362.02	13.152
362.38	13.282
362.74	12.011
363.10	13.274
363.46	13.227
363.82	11.719
364.18	12.738
364.54	13.140
364.90	12.375
365.26	11.793
365.62	13.333
365.98	12.934
366.35	12.215
366.71	12.993
367.07	12.382
367.43	12.475
367.79	11.878
368.15	13.311
368.51	12.991
368.87	12.084
369.23	12.933
369.59	12.500
369.95	12.373
370.31	12.086
370.67	12.724
371.03	11.911
371.39	11.551
371.75	12.242
372.11	13.008
372.47	11.848
372.83	12.827
373.19	12.075
373.55	12.602
373.91	12.338
374.27	12.807
374.63	11.637
374.99	12.268
375.35	12.013
375.71	11.871
376.07	11.814
376.42	11.524
376.78	12.430
377.14	11.666
377.50	13.030
377.86	12.869
378.22	11.796
378.58	12.723
378.94	12.265
379.30	12.127
379.66	11.287
380.02	12.233
380.38	12.327
380.74	11.887
381.09	12.137
381.45	12.273
381.81	12.178
382.17	12.292
382.53	12.047
382.89	12.641
383.25	12.192
383.61	11.632
383.97	12.426
384.32	12.799
384.68	12.007
385.04	12.088
385.40	12.787
385.76	12.016
386.12	12.687
386.48	11.706
386.83	12.217
387.19	11.703
387.55	11.796
387.91	11.815
388.27	11.721
388.62	11.569
388.98	11.280
389.34	12.257
389.70	11.737
390.06	12.493
390.42	11.988
390.77	12.763
391.13	11.796
391.49	12.017
391.85	11.212
392.20	11.625
392.56	11.991
392.92	12.268
393.28	12.106
393.64	12.570
393.99	12.609
394.35	12.325
394.71	12.275
395.07	11.257
395.42	11.650
395.78	12.675
396.14	12.240
396.50	11.520
396.85	11.866
397.21	11.953
397.57	12.367
397.92	12.314
398.28	11.353
398.64	12.414
399.00	12.304
399.35	12.042
399.71	11.196
400.07	12.072
400.42	12.107
400.78	11.227
401.14	12.009
401.49	12.337
401.85	11.686
402.21	12.167
402.57	12.265
402.92	11.525
403.28	10.773
403.63	11.038
403.99	10.986
404.35	11.882
404.70	12.238
405.06	11.793
405.42	12.002
405.77	11.505
406.13	12.102
406.49	11.430
406.84	12.078
407.20	11.124
407.55	11.024
407.91	11.691
408.27	11.896
408.62	11.809
408.98	12.420
409.34	10.792
409.69	11.805
410.05	12.134
410.40	11.891
410.76	11.105
411.11	11.864
411.47	11.486
411.83	12.228
412.18	11.566
412.54	11.737
412.89	12.747
413.25	12.020
413.60	11.775
413.96	12.121
414.31	12.011
414.67	11.986
415.03	11.262
415.38	11.412
415.74	11.546
416.09	10.981
416.45	11.835
416.80	11.567
417.16	11.877
417.51	11.955
417.87	12.078
418.22	12.275
418.58	11.400
418.93	12.340
419.29	12.022
419.64	10.324
420.00	11.691
420.35	10.893
420.71	11.890
421.06	11.098
421.42	12.213
421.77	11.739
422.12	12.421
422.48	11.828
422.83	11.993
423.19	11.936
423.54	11.781
423.90	11.706
424.25	12.000
424.61	11.309
424.96	11.532
425.31	11.890
425.67	11.165
426.02	11.843
426.38	11.653
426.73	10.882
427.09	12.341
427.44	10.541
427.79	11.940
428.15	11.872
428.50	11.180
428.85	11.022
429.21	12.500
429.56	11.698
429.92	11.499
430.27	12.096
430.62	11.578
430.98	11.117
431.33	11.046
431.68	11.446
432.04	12.087
432.39	11.730
432.74	11.587
433.10	12.493
433.45	11.371
433.80	11.320
434.16	11.880
434.51	12.590
434.86	12.324
435.22	11.477
435.57	12.028
435.92	11.408
436.28	11.718
436.63	12.234
436.98	11.004
437.34	11.781
437.69	12.218
438.04	11.846
438.39	11.603
438.75	10.957
439.10	12.685
439.45	12.018
439.81	11.130
440.16	11.153
440.51	11.929
440.86	11.173
441.22	11.844
441.57	11.950
441.92	11.591
442.27	12.424
442.63	11.078
442.98	12.327
443.33	12.415
443.68	12.389
444.03	12.606
444.39	11.835
444.74	12.251
445.09	12.519
445.44	12.329
445.79	12.452
446.15	12.641
446.50	12.300
446.85	12.062
447.20	12.137
447.55	11.611
447.91	10.995
448.26	11.311
448.61	12.168
448.96	12.393
449.31	12.460
449.66	11.547
450.02	11.656
450.37	12.307
450.72	11.733
451.07	12.472
451.42	12.189
451.77	12.007
452.12	12.077
452.47	11.052
452.83	12.331
453.18	11.442
453.53	11.488
453.88	12.314
454.23	12.373
454.58	11.898
454.93	11.833
455.28	11.860
455.63	12.393
455.98	12.235
456.34	12.250
456.69	11.758
457.04	12.116
457.39	11.863
457.74	11.857
458.09	11.642
458.44	12.338
458.79	11.449
459.14	11.746
459.49	11.941
459.84	12.067
460.19	12.049
460.54	12.323
460.89	11.593
461.24	12.126
461.59	12.341
461.94	11.523
462.29	11.870
462.64	11.949
462.99	12.555
463.34	11.940
463.69	12.251
464.04	12.173
464.39	11.659
464.74	12.087
465.09	11.707
465.44	12.768
465.79	12.850
466.14	12.402
466.49	12.474
466.84	12.066
467.19	12.543
467.54	11.692
467.89	12.184
468.24	12.742
468.59	11.812
468.94	12.179
469.29	11.578
469.64	11.952
469.99	11.217
470.34	12.191
470.68	12.098
471.03	11.984
471.38	10.464
471.73	11.899
472.08	12.119
472.43	12.161
472.78	12.280
473.13	11.441
473.48	11.480
473.83	11.898
474.17	12.075
474.52	11.666
474.87	11.406
475.22	12.507
475.57	12.046
475.92	12.245
476.27	12.354
476.61	12.513
476.96	12.669
477.31	11.881
477.66	12.434
478.01	12.252
478.36	11.715
478.70	12.512
479.05	12.628
479.40	11.797
479.75	12.008
480.10	11.937
480.45	12.580
480.79	12.517
481.14	11.949
481.49	12.222
481.84	12.750
482.19	12.602
482.53	12.287
482.88	12.627
483.23	12.494
483.58	12.009
483.92	11.968
484.27	11.727
484.62	12.005
484.97	12.714
485.31	12.425
485.66	12.530
486.01	12.521
486.36	12.842
486.70	13.423
487.05	13.213
487.40	12.584
487.75	12.799
488.09	12.313
488.44	12.207
488.79	12.142
489.13	12.310
489.48	11.184
489.83	12.032
490.17	12.029
490.52	11.658
490.87	12.860
491.22	11.655
491.56	12.287
491.91	11.993
492.26	11.640
492.60	11.806
492.95	12.111
493.30	11.744
493.64	11.870
493.99	12.500
494.34	11.455
494.68	11.692
495.03	12.291
495.37	12.472
495.72	11.791
496.07	11.963
496.41	11.454
496.76	11.843
497.11	12.059
497.45	11.912
497.80	12.217
498.14	11.701
498.49	12.270
498.84	11.380
499.18	12.506
499.53	12.152
499.87	11.824
500.22	12.467
500.56	11.606
500.91	11.396
501.26	12.045
501.60	12.196
501.95	11.811
502.29	12.111
502.64	12.462
502.98	11.562
503.33	11.274
503.67	11.557
504.02	12.172
504.36	12.422
504.71	11.989
505.06	11.687
505.40	11.746
505.75	11.931
506.09	11.694
506.44	11.746
506.78	12.523
507.13	12.448
507.47	12.174
507.82	12.121
508.16	11.759
508.51	11.533
508.85	11.904
509.19	12.364
509.54	12.872
509.88	12.239
510.23	12.045
510.57	12.325
510.92	11.998
511.26	12.217
511.61	11.251
511.95	11.664
512.30	12.457
512.64	11.844
512.98	11.906
513.33	12.802
513.67	11.474
514.02	12.110
514.36	12.123
514.70	12.448
515.05	12.409
515.39	12.493
515.74	12.990
516.08	12.150
516.42	12.507
516.77	12.093
517.11	11.810
517.46	12.407
517.80	12.614
518.14	12.187
518.49	11.659
518.83	12.453
519.17	11.739
519.52	12.159
519.86	12.460
520.20	12.886
520.55	12.103
520.89	11.881
521.23	11.893
521.58	12.542
521.92	11.728
522.26	11.913
522.61	11.748
522.95	12.226
523.29	12.529
523.64	12.052
523.98	12.151
524.32	13.066
524.66	11.952
525.01	11.721
525.35	11.717
525.69	12.703
526.04	11.366
526.38	11.437
526.72	11.592
527.06	12.434
527.41	12.128
527.75	12.233
528.09	11.275
528.43	12.019
528.78	12.023
529.12	12.099
529.46	12.085
529.80	12.815
530.15	12.058
530.49	11.388
530.83	11.688
531.17	11.529
531.51	11.673
531.86	12.740
532.20	12.317
532.54	12.627
532.88	12.303
533.22	12.080
533.57	12.118
533.91	12.795
534.25	12.041
534.59	12.356
534.93	11.885
535.27	12.676
535.62	12.052
535.96	11.737
536.30	12.338
536.64	12.613
536.98	12.915
537.32	12.037
537.66	12.165
538.01	12.326
538.35	11.998
538.69	11.478
539.03	12.201
539.37	12.250
539.71	12.733
540.05	13.189
540.39	11.125
540.73	12.143
541.07	12.078
541.42	12.877
541.76	12.040
542.10	12.485
542.44	11.815
542.78	12.409
543.12	11.621
543.46	12.332
543.80	12.170
544.14	11.849
544.48	12.352
544.82	12.747
545.16	12.224
545.50	11.863
545.84	11.880
546.18	13.086
546.52	11.783
546.86	11.195
547.20	12.214
547.54	11.486
547.88	11.814
548.22	11.637
548.56	12.932
548.90	11.761
549.24	12.888
549.58	11.546
549.92	11.990
550.26	12.686
550.60	12.380
550.94	12.419
551.28	11.815
551.62	12.668
551.96	11.456
552.30	11.409
552.64	12.632
552.98	11.853
553.32	12.154
553.66	11.897
554.00	12.421
554.34	11.647
554.68	11.685
555.02	11.695
555.36	12.623
555.69	11.467
556.03	11.980
556.37	12.516
556.71	11.921
557.05	12.780
557.39	11.214
557.73	12.417
558.07	12.053
558.41	10.897
558.75	11.832
559.08	11.761
559.42	11.728
559.76	11.940
560.10	11.587
560.44	11.741
560.78	13.250
561.12	12.808
561.45	11.557
561.79	13.187
562.13	11.583
562.47	11.591
562.81	11.203
563.15	12.816
563.48	11.871
563.82	13.241
564.16	12.477
564.50	11.502
564.84	12.330
565.17	12.353
565.51	11.853
565.85	11.342
566.19	12.442
566.52	12.580
566.86	12.394
567.20	11.528
567.54	12.533
567.88	12.844
568.21	12.698
568.55	12.662
568.89	12.937
569.23	13.435
569.56	12.505
569.90	13.471
570.24	13.524
570.57	13.085
570.91	12.768
571.25	12.670
571.59	13.192
571.92	12.953
572.26	13.182
572.60	12.695
572.93	13.192
573.27	13.150
573.61	12.890
573.95	12.867
574.28	13.198
574.62	12.733
574.96	12.969
575.29	12.800
575.63	12.613
575.97	12.862
576.30	12.805
576.64	12.909
576.98	12.870
577.31	13.184
577.65	13.289
577.98	13.479
578.32	13.164
578.66	13.211
578.99	13.045
579.33	13.184
579.67	13.055
580.00	12.969
580.34	12.827
580.67	12.665
581.01	12.657
581.35	12.994
581.68	13.381
582.02	13.420
582.35	13.318
582.69	13.496
583.02	13.381
583.36	13.185
583.70	12.724
584.03	12.407
584.37	13.083
584.70	12.567
585.04	12.764
585.37	13.190
585.71	13.225
586.04	13.210
586.38	13.022
586.72	12.534
587.05	12.765
587.39	12.964
587.72	13.014
588.06	12.863
588.39	13.219
588.73	12.804
589.06	13.403
589.40	12.293
589.73	12.789
590.07	12.599
590.40	13.252
590.73	12.690
591.07	12.695
591.40	12.442
591.74	12.401
592.07	12.261
592.41	12.618
592.74	13.028
593.08	13.631
593.41	13.561
593.75	13.132
594.08	13.390
594.41	13.077
594.75	12.687
595.08	12.719
595.42	12.532
595.75	13.013
596.09	12.877
596.42	13.114
596.75	13.161
597.09	12.768
597.42	12.992
597.75	12.897
598.09	13.016
598.42	13.108
598.76	12.992
599.09	12.780
599.42	12.873
599.76	12.876
600.09	12.779
600.42	13.280
600.76	12.979
601.09	12.413
601.42	13.251
601.76	12.793
602.09	12.580
602.42	12.468
602.76	13.026
603.09	13.179
603.42	12.789
603.76	12.720
604.09	13.591
604.42	13.248
604.76	12.671
605.09	12.605
605.42	13.078
605.75	12.885
606.09	12.691
606.42	12.185
606.75	12.106
607.09	12.289
607.42	12.794
607.75	13.130
608.08	12.115
608.42	12.535
608.75	12.438
609.08	12.224
609.41	12.528
609.75	11.786
610.08	12.841
610.41	11.895
610.74	12.899
611.07	12.700
611.41	12.063
611.74	12.794
612.07	12.389
612.40	11.930
612.73	12.323
613.07	12.421
613.40	12.656
613.73	12.181
614.06	12.414
614.39	11.953
614.72	11.984
615.06	12.223
615.39	12.373
615.72	12.559
616.05	12.725
616.38	13.017
616.71	12.382
617.05	11.981
617.38	12.895
617.71	13.121
618.04	12.466
618.37	13.005
618.70	12.104
619.03	11.589
619.36	11.344
619.69	11.723
620.03	11.990
620.36	11.718
620.69	11.289
621.02	12.270
621.35	12.046
621.68	11.786
622.01	11.388
622.34	11.297
622.67	12.302
623.00	11.673
623.33	12.011
623.66	12.646
623.99	11.784
624.32	12.995
624.65	12.227
624.99	12.419
625.32	11.953
625.65	12.070
625.98	10.847
626.31	12.544
626.64	11.795
626.97	12.303
627.30	10.858
627.63	11.178
627.96	12.613
628.29	12.218
628.62	9.824
628.95	10.429
629.28	10.960
629.61	12.121
629.94	10.628
630.26	11.864
630.59	11.054
630.92	11.082
631.25	11.807
631.58	10.829
