SpectraSuite Data File
++++++++++++++++++++++++++++++++++++
Date: Thu May 14 15:56:10 PDT 2015
User: schluterlab
Dark Spectrum Present: Yes
Reference Spectrum Present: Yes
Number of Sampled Component Spectra: 1
Spectrometers: USB2E3373
Integration Time (usec): 3000 (USB2E3373)
Spectra Averaged: 3 (USB2E3373)
Boxcar Smoothing: 0 (USB2E3373)
Correct for Electrical Dark: No (USB2E3373)
Strobe/Lamp Enabled: No (USB2E3373)
Correct for Detector Non-linearity: No (USB2E3373)
Correct for Stray Light: No (USB2E3373)
Number of Pixels in Processed Spectrum: 2048
>>>>>Begin Processed Spectral Data<<<<<
178.53	0.000
178.91	471.429
179.29	-3300.000
179.67	-3600.000
180.04	357.143
180.42	300.000
180.80	460.000
181.18	-3100.000
181.56	-1900.000
181.94	500.000
182.31	-650.000
182.69	933.333
183.07	-1400.000
183.45	850.000
183.83	-483.333
184.20	-700.000
184.58	2600.000
184.96	-675.000
185.34	-288.889
185.72	-320.000
186.09	455.556
186.47	2050.000
186.85	620.000
187.23	-333.333
187.61	-2700.000
187.98	640.000
188.36	975.000
188.74	-825.000
189.12	-933.333
189.49	-112.500
189.87	-262.500
190.25	-222.222
190.63	-500.000
191.00	-333.333
191.38	0.000
191.76	-775.000
192.14	-450.000
192.51	1650.000
192.89	-433.333
193.27	0.000
193.65	-328.571
194.02	-4300.000
194.40	-471.429
194.78	442.857
195.15	0.000
195.53	-200.000
195.91	0.000
196.29	-550.000
196.66	-253.846
197.04	-4100.000
197.42	-485.714
197.79	-1700.000
198.17	-425.000
198.55	-385.714
198.92	-311.111
199.30	-312.500
199.68	-218.182
200.05	-121.429
200.43	-950.000
200.81	457.143
201.18	0.000
201.56	466.667
201.94	0.000
202.31	1000.000
202.69	-300.000
203.07	2600.000
203.44	-322.222
203.82	-550.000
204.19	-200.000
204.57	-433.333
204.95	-450.000
205.32	-3500.000
205.70	750.000
206.08	-550.000
206.45	-433.333
206.83	640.000
207.20	-466.667
207.58	-760.000
207.96	-566.667
208.33	-250.000
208.71	258.333
209.08	-400.000
209.46	0.000
209.84	650.000
210.21	1400.000
210.59	1600.000
210.96	1100.000
211.34	-525.000
211.71	-350.000
212.09	-2900.000
212.46	0.000
212.84	2000.000
213.22	-740.000
213.59	-625.000
213.97	-260.000
214.34	-800.000
214.72	533.333
215.09	-650.000
215.47	0.000
215.84	371.429
216.22	2100.000
216.59	-460.000
216.97	-740.000
217.34	-825.000
217.72	-350.000
218.09	-950.000
218.47	-775.000
218.84	0.000
219.22	620.000
219.59	-152.941
219.97	-110.000
220.34	1750.000
220.72	-311.111
221.09	-176.923
221.47	-933.333
221.84	-220.000
222.22	-514.286
222.59	0.000
222.97	-287.500
223.34	-760.000
223.72	-3700.000
224.09	-750.000
224.46	-650.000
224.84	-500.000
225.21	-614.286
225.59	-775.000
225.96	-600.000
226.34	-69.231
226.71	616.667
227.08	-1600.000
227.46	-220.000
227.83	-775.000
228.21	-173.684
228.58	375.000
228.95	1750.000
229.33	-191.667
229.70	-180.000
230.08	-89.474
230.45	220.000
230.82	-1000.000
231.20	-178.571
231.57	-216.667
231.95	-227.273
232.32	-181.818
232.69	-115.000
233.07	-650.000
233.44	-152.941
233.81	-330.000
234.19	-111.111
234.56	-109.091
234.93	-58.621
235.31	-89.474
235.68	-88.889
236.05	-160.000
236.43	-53.846
236.80	-60.000
237.17	-85.185
237.55	-66.667
237.92	-300.000
238.29	-74.194
238.67	-47.727
239.04	-52.778
239.41	-45.238
239.79	-50.000
240.16	-18.519
240.53	-30.435
240.91	-41.176
241.28	-9.836
241.65	0.000
242.02	4.054
242.40	-10.769
242.77	-13.333
243.14	-10.976
243.51	-22.368
243.89	-20.513
244.26	2.970
244.63	-3.922
245.00	2.804
245.38	-4.386
245.75	-2.655
246.12	7.143
246.49	7.752
246.87	2.857
247.24	11.921
247.61	14.474
247.98	9.396
248.36	12.346
248.73	2.454
249.10	13.661
249.47	17.413
249.84	18.848
250.22	9.845
250.59	11.667
250.96	16.364
251.33	12.755
251.70	16.239
252.08	18.333
252.45	19.262
252.82	16.529
253.19	18.750
253.56	22.433
253.94	18.462
254.31	14.394
254.68	25.175
255.05	17.915
255.42	17.007
255.79	18.447
256.16	20.861
256.54	17.219
256.91	21.967
257.28	19.344
257.65	17.516
258.02	17.994
258.39	18.803
258.76	25.688
259.14	22.414
259.51	21.037
259.88	22.946
260.25	21.944
260.62	21.096
260.99	21.311
261.36	20.643
261.73	20.955
262.10	20.330
262.47	22.520
262.85	21.465
263.22	19.481
263.59	19.737
263.96	21.228
264.33	22.762
264.70	22.469
265.07	23.150
265.44	24.943
265.81	18.056
266.18	23.810
266.55	19.866
266.92	23.462
267.29	22.538
267.66	20.399
268.03	23.144
268.40	22.965
268.77	21.868
269.14	22.907
269.51	21.930
269.88	23.975
270.25	20.926
270.62	22.996
270.99	27.475
271.36	21.584
271.73	21.807
272.10	23.647
272.47	21.844
272.84	22.691
273.21	23.848
273.58	22.177
273.95	21.154
274.32	21.483
274.69	19.923
275.06	22.161
275.43	21.257
275.80	23.280
276.17	22.963
276.54	22.201
276.91	22.004
277.28	22.242
277.65	21.903
278.02	23.162
278.39	21.920
278.76	24.253
279.13	20.922
279.50	23.196
279.87	21.825
280.23	20.423
280.60	23.898
280.97	22.204
281.34	20.374
281.71	22.673
282.08	22.093
282.45	20.622
282.82	22.606
283.19	19.871
283.56	21.803
283.92	22.973
284.29	22.433
284.66	23.481
285.03	19.551
285.40	20.866
285.77	20.898
286.14	21.832
286.51	20.700
286.87	22.907
287.24	21.536
287.61	23.019
287.98	21.450
288.35	21.006
288.72	22.041
289.08	21.376
289.45	18.343
289.82	19.428
290.19	21.983
290.56	21.127
290.93	20.542
291.29	19.559
291.66	20.661
292.03	18.860
292.40	19.048
292.77	17.790
293.13	19.350
293.50	19.448
293.87	17.584
294.24	22.133
294.60	20.101
294.97	17.315
295.34	18.822
295.71	16.646
296.08	18.475
296.44	18.627
296.81	18.514
297.18	17.061
297.55	15.566
297.91	17.794
298.28	17.299
298.65	16.528
299.02	17.355
299.38	17.048
299.75	16.822
300.12	15.972
300.48	16.705
300.85	15.636
301.22	17.562
301.59	15.183
301.95	16.158
302.32	16.556
302.69	17.853
303.05	15.887
303.42	16.408
303.79	16.875
304.15	16.088
304.52	15.539
304.89	15.497
305.25	15.735
305.62	15.987
305.99	16.186
306.35	15.323
306.72	16.236
307.09	15.736
307.45	17.598
307.82	15.237
308.19	14.934
308.55	16.490
308.92	16.943
309.29	14.847
309.65	16.277
310.02	16.238
310.38	15.650
310.75	15.631
311.12	15.628
311.48	16.129
311.85	15.005
312.22	15.370
312.58	16.714
312.95	14.914
313.31	15.989
313.68	16.209
314.05	15.537
314.41	15.574
314.78	15.077
315.14	15.880
315.51	15.420
315.87	15.842
316.24	16.073
316.61	15.986
316.97	15.928
317.34	15.608
317.70	15.546
318.07	15.520
318.43	15.986
318.80	16.722
319.16	15.193
319.53	14.225
319.89	14.373
320.26	16.192
320.62	15.603
320.99	16.251
321.35	16.174
321.72	15.814
322.08	15.690
322.45	15.447
322.81	14.982
323.18	15.841
323.54	13.879
323.91	14.858
324.27	15.404
324.64	15.785
325.00	15.755
325.37	15.643
325.73	15.537
326.10	16.139
326.46	16.287
326.83	17.854
327.19	16.299
327.56	16.838
327.92	15.578
328.29	15.000
328.65	14.908
329.01	14.975
329.38	17.018
329.74	16.866
330.11	16.610
330.47	16.007
330.84	15.504
331.20	16.500
331.56	15.858
331.93	15.900
332.29	15.847
332.66	15.282
333.02	15.829
333.38	15.436
333.75	15.404
334.11	15.930
334.48	15.264
334.84	16.228
335.20	15.197
335.57	16.610
335.93	15.868
336.29	15.141
336.66	15.896
337.02	15.134
337.38	15.561
337.75	14.380
338.11	16.316
338.47	15.798
338.84	14.721
339.20	14.153
339.56	14.909
339.93	14.614
340.29	15.217
340.65	14.923
341.02	15.642
341.38	15.926
341.74	14.528
342.11	15.607
342.47	13.900
342.83	15.620
343.20	14.800
343.56	15.557
343.92	15.693
344.28	15.000
344.65	15.659
345.01	14.977
345.37	16.096
345.73	13.328
346.10	15.289
346.46	14.320
346.82	15.655
347.19	15.202
347.55	14.568
347.91	14.264
348.27	14.492
348.63	14.928
349.00	15.436
349.36	13.978
349.72	14.137
350.08	15.156
350.45	14.525
350.81	14.630
351.17	14.211
351.53	15.239
351.89	14.351
352.26	14.478
352.62	14.776
352.98	15.115
353.34	14.488
353.70	14.561
354.07	15.127
354.43	13.667
354.79	13.762
355.15	13.907
355.51	13.231
355.87	14.510
356.24	14.373
356.60	14.708
356.96	13.195
357.32	13.606
357.68	13.250
358.04	14.147
358.40	14.403
358.77	14.474
359.13	13.885
359.49	13.086
359.85	13.851
360.21	14.132
360.57	13.711
360.93	14.104
361.29	14.386
361.66	13.686
362.02	14.614
362.38	14.617
362.74	14.036
363.10	14.374
363.46	13.850
363.82	13.352
364.18	13.512
364.54	14.523
364.90	14.849
365.26	13.862
365.62	14.467
365.98	13.547
366.35	13.087
366.71	13.946
367.07	13.126
367.43	15.167
367.79	14.532
368.15	12.843
368.51	13.735
368.87	14.762
369.23	13.467
369.59	14.549
369.95	14.199
370.31	15.530
370.67	13.755
371.03	13.089
371.39	12.424
371.75	14.030
372.11	13.753
372.47	13.879
372.83	14.005
373.19	14.476
373.55	14.295
373.91	12.679
374.27	14.424
374.63	13.938
374.99	13.395
375.35	14.026
375.71	12.903
376.07	13.493
376.42	13.791
376.78	13.984
377.14	13.288
377.50	13.852
377.86	14.347
378.22	14.072
378.58	13.496
378.94	12.793
379.30	13.533
379.66	13.169
380.02	13.676
380.38	13.249
380.74	13.634
381.09	13.589
381.45	13.352
381.81	13.759
382.17	13.539
382.53	12.807
382.89	13.488
383.25	13.834
383.61	13.310
383.97	13.545
384.32	13.636
384.68	12.703
385.04	14.228
385.40	14.496
385.76	13.599
386.12	13.046
386.48	13.059
386.83	13.588
387.19	13.036
387.55	13.498
387.91	12.842
388.27	12.991
388.62	13.574
388.98	13.142
389.34	13.435
389.70	13.364
390.06	12.907
390.42	13.253
390.77	13.546
391.13	13.908
391.49	12.742
391.85	13.333
392.20	12.574
392.56	13.113
392.92	13.850
393.28	13.654
393.64	13.240
393.99	13.945
394.35	13.084
394.71	13.533
395.07	13.593
395.42	13.878
395.78	13.528
396.14	13.131
396.50	12.648
396.85	13.536
397.21	13.018
397.57	13.958
397.92	13.746
398.28	12.548
398.64	12.757
399.00	13.298
399.35	13.613
399.71	12.554
400.07	14.374
400.42	12.806
400.78	13.079
401.14	12.294
401.49	13.815
401.85	12.965
402.21	13.615
402.57	13.380
402.92	12.825
403.28	12.939
403.63	12.351
403.99	13.242
404.35	13.132
404.70	13.881
405.06	13.098
405.42	13.407
405.77	13.250
406.13	13.614
406.49	13.288
406.84	13.352
407.20	13.527
407.55	12.356
407.91	12.885
408.27	12.898
408.62	12.973
408.98	13.523
409.34	11.672
409.69	13.844
410.05	13.658
410.40	13.921
410.76	13.292
411.11	13.618
411.47	13.206
411.83	13.286
412.18	13.133
412.54	12.745
412.89	13.795
413.25	13.375
413.60	13.268
413.96	13.462
414.31	12.578
414.67	13.655
415.03	12.923
415.38	13.367
415.74	12.706
416.09	13.695
416.45	13.338
416.80	13.097
417.16	13.346
417.51	14.010
417.87	13.550
418.22	12.754
418.58	13.445
418.93	13.504
419.29	13.255
419.64	12.665
420.00	13.175
420.35	13.756
420.71	13.383
421.06	12.708
421.42	13.245
421.77	12.978
422.12	13.214
422.48	12.750
422.83	13.582
423.19	12.944
423.54	13.164
423.90	13.197
424.25	13.653
424.61	12.859
424.96	13.399
425.31	14.544
425.67	13.366
426.02	13.503
426.38	12.572
426.73	12.723
427.09	13.725
427.44	12.998
427.79	13.267
428.15	13.699
428.50	13.202
428.85	13.777
429.21	13.138
429.56	13.277
429.92	12.826
430.27	12.675
430.62	13.337
430.98	12.641
431.33	13.783
431.68	13.314
432.04	13.306
432.39	12.641
432.74	12.957
433.10	13.521
433.45	12.988
433.80	12.983
434.16	13.430
434.51	13.361
434.86	13.301
435.22	13.974
435.57	13.267
435.92	12.855
436.28	13.424
436.63	13.545
436.98	13.527
437.34	13.134
437.69	13.043
438.04	12.057
438.39	13.211
438.75	12.452
439.10	13.478
439.45	13.471
439.81	13.559
440.16	13.298
440.51	13.266
440.86	13.007
441.22	13.023
441.57	12.945
441.92	13.094
442.27	13.081
442.63	13.065
442.98	12.807
443.33	13.467
443.68	14.618
444.03	13.876
444.39	13.546
444.74	13.578
445.09	13.482
445.44	13.699
445.79	13.745
446.15	13.926
446.50	12.506
446.85	13.570
447.20	13.685
447.55	13.546
447.91	13.665
448.26	13.055
448.61	13.284
448.96	13.358
449.31	13.733
449.66	12.800
450.02	12.869
450.37	13.958
450.72	13.025
451.07	13.383
451.42	12.363
451.77	12.563
452.12	13.488
452.47	12.775
452.83	13.288
453.18	12.668
453.53	13.096
453.88	12.590
454.23	13.277
454.58	12.943
454.93	13.167
455.28	13.606
455.63	13.019
455.98	13.855
456.34	13.192
456.69	13.345
457.04	13.712
457.39	12.805
457.74	13.926
458.09	13.399
458.44	13.685
458.79	12.739
459.14	13.844
459.49	13.073
459.84	13.379
460.19	12.826
460.54	13.458
460.89	12.970
461.24	12.011
461.59	12.950
461.94	12.607
462.29	13.382
462.64	12.613
462.99	12.932
463.34	12.459
463.69	12.896
464.04	14.175
464.39	13.229
464.74	12.942
465.09	13.379
465.44	13.788
465.79	13.538
466.14	13.549
466.49	13.789
466.84	12.727
467.19	13.064
467.54	13.337
467.89	12.586
468.24	13.241
468.59	13.086
468.94	12.121
469.29	12.597
469.64	12.905
469.99	12.874
470.34	13.181
470.68	12.440
471.03	11.919
471.38	13.277
471.73	12.614
472.08	13.008
472.43	13.365
472.78	13.224
473.13	12.769
473.48	13.172
473.83	13.059
474.17	13.482
474.52	12.568
474.87	13.234
475.22	13.746
475.57	13.240
475.92	13.440
476.27	12.886
476.61	12.928
476.96	13.243
477.31	14.059
477.66	13.169
478.01	12.862
478.36	12.812
478.70	13.892
479.05	13.599
479.40	13.129
479.75	13.881
480.10	13.548
480.45	13.309
480.79	13.333
481.14	13.051
481.49	13.358
481.84	14.099
482.19	13.333
482.53	13.555
482.88	14.134
483.23	13.250
483.58	12.751
483.92	13.298
484.27	14.225
484.62	12.995
484.97	13.997
485.31	13.622
485.66	13.638
486.01	14.072
486.36	14.388
486.70	14.949
487.05	14.521
487.40	13.815
487.75	13.511
488.09	14.004
488.44	13.009
488.79	13.390
489.13	13.432
489.48	12.544
489.83	13.239
490.17	12.799
490.52	13.711
490.87	13.706
491.22	13.951
491.56	13.652
491.91	13.694
492.26	14.020
492.60	13.555
492.95	12.944
493.30	13.850
493.64	13.754
493.99	13.553
494.34	13.066
494.68	13.319
495.03	14.009
495.37	13.449
495.72	12.880
496.07	13.541
496.41	12.827
496.76	13.970
497.11	13.800
497.45	13.336
497.80	13.949
498.14	13.696
498.49	13.281
498.84	12.751
499.18	13.585
499.53	13.498
499.87	14.066
500.22	12.778
500.56	13.630
500.91	13.684
501.26	13.318
501.60	13.168
501.95	13.765
502.29	13.471
502.64	13.424
502.98	13.330
503.33	12.829
503.67	13.040
504.02	12.916
504.36	13.941
504.71	13.413
505.06	13.597
505.40	12.477
505.75	14.026
506.09	13.260
506.44	13.556
506.78	14.037
507.13	13.647
507.47	13.785
507.82	13.920
508.16	13.337
508.51	13.033
508.85	13.462
509.19	13.453
509.54	13.929
509.88	13.502
510.23	13.550
510.57	13.726
510.92	13.014
511.26	13.372
511.61	12.989
511.95	13.812
512.30	13.836
512.64	12.944
512.98	13.257
513.33	13.054
513.67	12.800
514.02	13.388
514.36	13.299
514.70	14.167
515.05	13.452
515.39	12.966
515.74	13.839
516.08	13.576
516.42	12.925
516.77	12.829
517.11	13.615
517.46	14.422
517.80	13.736
518.14	14.255
518.49	13.286
518.83	13.199
519.17	13.409
519.52	13.050
519.86	13.358
520.20	13.632
520.55	13.198
520.89	12.950
521.23	13.568
521.58	13.164
521.92	13.144
522.26	12.543
522.61	12.905
522.95	13.495
523.29	13.218
523.64	13.173
523.98	14.204
524.32	13.009
524.66	13.603
525.01	13.533
525.35	12.981
525.69	12.819
526.04	13.720
526.38	13.448
526.72	13.437
527.06	12.786
527.41	13.761
527.75	12.827
528.09	13.518
528.43	13.144
528.78	13.526
529.12	13.303
529.46	12.872
529.80	13.616
530.15	13.391
530.49	13.108
530.83	12.987
531.17	13.560
531.51	13.117
531.86	13.822
532.20	12.744
532.54	12.627
532.88	13.212
533.22	12.434
533.57	13.618
533.91	13.524
534.25	13.737
534.59	13.333
534.93	13.073
535.27	12.901
535.62	13.758
535.96	13.364
536.30	13.220
536.64	13.213
536.98	12.854
537.32	13.210
537.66	13.288
538.01	12.749
538.35	13.398
538.69	12.380
539.03	13.734
539.37	14.193
539.71	13.934
540.05	13.609
540.39	12.469
540.73	12.325
541.07	12.814
541.42	13.054
541.76	12.811
542.10	13.028
542.44	13.155
542.78	13.686
543.12	13.647
543.46	12.821
543.80	12.230
544.14	13.645
544.48	13.061
544.82	12.807
545.16	13.715
545.50	13.481
545.84	12.799
546.18	14.198
546.52	12.739
546.86	13.082
547.20	13.359
547.54	12.547
547.88	13.140
548.22	12.749
548.56	12.580
548.90	13.015
549.24	13.435
549.58	12.934
549.92	12.564
550.26	13.463
550.60	13.657
550.94	12.872
551.28	13.597
551.62	13.612
551.96	13.916
552.30	14.978
552.64	13.441
552.98	13.288
553.32	12.347
553.66	13.312
554.00	13.871
554.34	14.286
554.68	12.589
555.02	13.403
555.36	12.952
555.69	11.595
556.03	12.421
556.37	13.579
556.71	12.746
557.05	13.227
557.39	12.674
557.73	13.012
558.07	12.781
558.41	13.289
558.75	12.711
559.08	12.735
559.42	12.003
559.76	13.365
560.10	13.128
560.44	12.335
560.78	13.188
561.12	12.869
561.45	13.747
561.79	13.370
562.13	14.171
562.47	12.947
562.81	13.418
563.15	13.005
563.48	13.238
563.82	13.120
564.16	11.750
564.50	13.230
564.84	13.333
565.17	13.824
565.51	13.176
565.85	12.767
566.19	13.249
566.52	12.990
566.86	13.073
567.20	12.670
567.54	13.383
567.88	14.220
568.21	13.142
568.55	13.189
568.89	13.663
569.23	13.604
569.56	13.677
569.90	13.828
570.24	14.098
570.57	13.502
570.91	13.901
571.25	13.393
571.59	13.999
571.92	13.539
572.26	13.711
572.60	13.568
572.93	13.665
573.27	13.290
573.61	13.473
573.95	13.887
574.28	13.782
574.62	13.961
574.96	13.829
575.29	13.836
575.63	13.837
575.97	13.772
576.30	13.274
576.64	14.078
576.98	13.417
577.31	14.060
577.65	13.908
577.98	14.100
578.32	13.918
578.66	13.965
578.99	13.455
579.33	13.428
579.67	13.101
580.00	13.733
580.34	13.394
580.67	13.394
581.01	13.695
581.35	13.696
581.68	14.197
582.02	13.827
582.35	14.518
582.69	14.198
583.02	13.661
583.36	13.637
583.70	13.497
584.03	13.343
584.37	13.133
584.70	13.350
585.04	13.508
585.37	13.677
585.71	13.916
586.04	13.210
586.38	13.904
586.72	13.186
587.05	13.354
587.39	13.588
587.72	13.876
588.06	13.612
588.39	13.144
588.73	13.307
589.06	13.234
589.40	13.368
589.73	13.111
590.07	13.163
590.40	13.286
590.73	13.043
591.07	13.515
591.40	12.325
591.74	13.434
592.07	13.439
592.41	13.013
592.74	13.454
593.08	13.949
593.41	14.436
593.75	13.649
594.08	13.572
594.41	13.429
594.75	13.085
595.08	13.694
595.42	13.896
595.75	13.529
596.09	13.927
596.42	13.329
596.75	13.393
597.09	13.374
597.42	13.071
597.75	13.211
598.09	13.611
598.42	13.189
598.76	13.030
599.09	13.457
599.42	13.007
599.76	13.437
600.09	13.413
600.42	13.547
600.76	13.540
601.09	12.977
601.42	12.976
601.76	13.069
602.09	13.081
602.42	12.650
602.76	12.915
603.09	12.775
603.42	13.656
603.76	13.214
604.09	13.769
604.42	13.578
604.76	13.280
605.09	13.482
605.42	13.158
605.75	12.808
606.09	13.214
606.42	12.842
606.75	12.669
607.09	12.289
607.42	13.102
607.75	13.208
608.08	12.865
608.42	13.583
608.75	14.096
609.08	12.267
609.41	13.145
609.75	13.393
610.08	13.369
610.41	13.084
610.74	13.025
611.07	12.744
611.41	12.915
611.74	13.764
612.07	12.810
612.40	11.977
612.73	12.861
613.07	12.812
613.40	13.186
613.73	12.277
614.06	13.052
614.39	11.905
614.72	12.906
615.06	12.560
615.39	11.745
615.72	13.033
616.05	12.870
616.38	12.815
616.71	13.323
617.05	12.407
617.38	12.520
617.71	12.689
618.04	12.628
618.37	14.044
618.70	13.009
619.03	12.963
619.36	11.714
619.69	12.172
620.03	12.053
620.36	13.190
620.69	12.523
621.02	12.992
621.35	12.990
621.68	12.798
622.01	11.744
622.34	12.762
622.67	12.646
623.00	11.538
623.33	13.802
623.66	13.230
623.99	12.377
624.32	13.385
624.65	12.227
624.99	12.484
625.32	12.998
625.65	12.879
625.98	12.068
626.31	11.977
626.64	12.967
626.97	10.728
627.30	11.845
627.63	11.253
627.96	12.838
628.29	12.607
628.62	11.335
628.95	10.342
629.28	11.980
629.61	12.542
629.94	10.879
630.26	11.525
630.59	12.263
