SpectraSuite Data File
++++++++++++++++++++++++++++++++++++
Date: Thu May 14 15:55:22 PDT 2015
User: schluterlab
Dark Spectrum Present: Yes
Reference Spectrum Present: Yes
Number of Sampled Component Spectra: 1
Spectrometers: USB2E3373
Integration Time (usec): 3000 (USB2E3373)
Spectra Averaged: 3 (USB2E3373)
Boxcar Smoothing: 0 (USB2E3373)
Correct for Electrical Dark: No (USB2E3373)
Strobe/Lamp Enabled: No (USB2E3373)
Correct for Detector Non-linearity: No (USB2E3373)
Correct for Stray Light: No (USB2E3373)
Number of Pixels in Processed Spectrum: 2048
>>>>>Begin Processed Spectral Data<<<<<
178.53	0.000
178.91	428.571
179.29	-3500.000
179.67	-3000.000
180.04	364.286
180.42	300.000
180.80	700.000
181.18	-3400.000
181.56	-2200.000
181.94	750.000
182.31	-750.000
182.69	700.000
183.07	-1550.000
183.45	850.000
183.83	-400.000
184.20	-1266.667
184.58	2700.000
184.96	-1075.000
185.34	-300.000
185.72	-460.000
186.09	466.667
186.47	1650.000
186.85	820.000
187.23	-455.556
187.61	-4500.000
187.98	840.000
188.36	825.000
188.74	-950.000
189.12	-733.333
189.49	-93.750
189.87	-487.500
190.25	-311.111
190.63	-500.000
191.00	-388.889
191.38	0.000
191.76	-875.000
192.14	-533.333
192.51	1100.000
192.89	-300.000
193.27	0.000
193.65	-457.143
194.02	-3100.000
194.40	-357.143
194.78	471.429
195.15	0.000
195.53	-209.091
195.91	0.000
196.29	-700.000
196.66	-146.154
197.04	-2900.000
197.42	-457.143
197.79	-1550.000
198.17	-312.500
198.55	-542.857
198.92	-333.333
199.30	-387.500
199.68	-218.182
200.05	-192.857
200.43	-1750.000
200.81	528.571
201.18	0.000
201.56	477.778
201.94	0.000
202.31	1100.000
202.69	-455.556
203.07	2500.000
203.44	-300.000
203.82	-625.000
204.19	-200.000
204.57	-600.000
204.95	-387.500
205.32	-3500.000
205.70	775.000
206.08	-400.000
206.45	-483.333
206.83	960.000
207.20	-566.667
207.58	-820.000
207.96	-633.333
208.33	-400.000
208.71	300.000
209.08	-516.667
209.46	0.000
209.84	666.667
210.21	1400.000
210.59	1750.000
210.96	1133.333
211.34	-550.000
211.71	-350.000
212.09	-3300.000
212.46	0.000
212.84	2550.000
213.22	-700.000
213.59	-750.000
213.97	-220.000
214.34	-700.000
214.72	550.000
215.09	-825.000
215.47	0.000
215.84	485.714
216.22	1850.000
216.59	-580.000
216.97	-500.000
217.34	-650.000
217.72	-375.000
218.09	-850.000
218.47	-725.000
218.84	0.000
219.22	500.000
219.59	-152.941
219.97	-125.000
220.34	1550.000
220.72	-377.778
221.09	-176.923
221.47	-1266.667
221.84	-280.000
222.22	-642.857
222.59	0.000
222.97	-437.500
223.34	-700.000
223.72	-3200.000
224.09	-775.000
224.46	-725.000
224.84	-440.000
225.21	-414.286
225.59	-725.000
225.96	-625.000
226.34	-88.462
226.71	600.000
227.08	-1550.000
227.46	-160.000
227.83	-750.000
228.21	-73.684
228.58	362.500
228.95	1650.000
229.33	-241.667
229.70	-240.000
230.08	-68.421
230.45	440.000
230.82	-833.333
231.20	-221.429
231.57	-250.000
231.95	-290.909
232.32	-281.818
232.69	-120.000
233.07	-625.000
233.44	-152.941
233.81	-400.000
234.19	-116.667
234.56	-77.273
234.93	-41.379
235.31	-89.474
235.68	-122.222
236.05	-155.000
236.43	-61.538
236.80	-56.000
237.17	-114.815
237.55	-54.545
237.92	-340.000
238.29	-96.774
238.67	-61.364
239.04	-63.889
239.41	-50.000
239.79	-54.348
240.16	-44.444
240.53	-45.652
240.91	-50.980
241.28	-26.230
241.65	-14.925
242.02	-12.162
242.40	-29.231
242.77	-17.333
243.14	-23.171
243.51	-27.632
243.89	-26.923
244.26	-8.911
244.63	-2.941
245.00	-10.280
245.38	-4.386
245.75	-11.504
246.12	-3.175
246.49	0.000
246.87	-1.429
247.24	0.662
247.61	0.658
247.98	0.000
248.36	-0.617
248.73	1.840
249.10	4.918
249.47	11.443
249.84	12.042
250.22	5.181
250.59	5.556
250.96	12.273
251.33	-1.020
251.70	13.675
252.08	7.083
252.45	6.967
252.82	5.372
253.19	7.812
253.56	12.548
253.94	6.538
254.31	10.606
254.68	11.189
255.05	15.309
255.42	10.204
255.79	9.385
256.16	10.265
256.54	8.609
256.91	12.459
257.28	12.459
257.65	11.465
258.02	10.029
258.39	12.821
258.76	13.150
259.14	14.655
259.51	12.104
259.88	9.632
260.25	13.889
260.62	12.877
260.99	14.481
261.36	14.745
261.73	12.997
262.10	14.011
262.47	12.332
262.85	13.889
263.22	12.468
263.59	11.053
263.96	9.719
264.33	13.299
264.70	14.815
265.07	14.081
265.44	17.914
265.81	12.963
266.18	16.100
266.55	14.732
266.92	12.301
267.29	15.536
267.66	16.408
268.03	15.066
268.40	15.031
268.77	11.617
269.14	11.894
269.51	13.596
269.88	15.574
270.25	14.487
270.62	16.034
270.99	16.566
271.36	15.050
271.73	14.145
272.10	15.631
272.47	12.425
272.84	13.855
273.21	14.429
273.58	14.113
273.95	13.077
274.32	13.878
274.69	15.474
275.06	15.018
275.43	15.157
275.80	16.226
276.17	12.778
276.54	16.604
276.91	13.596
277.28	14.828
277.65	16.338
278.02	14.522
278.39	16.486
278.76	14.587
279.13	15.957
279.50	15.292
279.87	15.206
280.23	14.437
280.60	15.254
280.97	15.461
281.34	12.903
281.71	15.905
282.08	14.950
282.45	12.602
282.82	13.501
283.19	13.570
283.56	15.082
283.92	14.865
284.29	14.850
284.66	15.271
285.03	12.660
285.40	15.765
285.77	13.622
286.14	16.183
286.51	14.155
286.87	14.060
287.24	15.060
287.61	13.602
287.98	12.991
288.35	15.533
288.72	13.166
289.08	16.252
289.45	12.870
289.82	13.705
290.19	13.793
290.56	13.380
290.93	14.265
291.29	14.463
291.66	15.289
292.03	12.076
292.40	15.510
292.77	14.555
293.13	14.208
293.50	13.535
293.87	11.678
294.24	14.667
294.60	13.401
294.97	11.007
295.34	13.444
295.71	12.106
296.08	11.628
296.44	11.520
296.81	12.302
297.18	12.578
297.55	12.972
297.91	10.913
298.28	10.545
298.65	11.296
299.02	10.626
299.38	11.899
299.75	11.916
300.12	12.037
300.48	11.060
300.85	12.148
301.22	12.975
301.59	10.731
301.95	11.751
302.32	11.111
302.69	11.720
303.05	12.187
303.42	11.530
303.79	10.833
304.15	11.462
304.52	11.205
304.89	12.565
305.25	12.422
305.62	11.494
305.99	10.619
306.35	11.290
306.72	11.686
307.09	11.675
307.45	10.870
307.82	10.999
308.19	11.907
308.55	11.186
308.92	12.074
309.29	12.452
309.65	10.039
310.02	11.287
310.38	10.728
310.75	12.039
311.12	13.231
311.48	12.610
311.85	12.631
312.22	11.670
312.58	12.770
312.95	11.568
313.31	13.008
313.68	13.828
314.05	12.827
314.41	13.479
314.78	13.079
315.14	13.793
315.51	13.019
315.87	13.681
316.24	14.612
316.61	14.565
316.97	13.937
317.34	13.316
317.70	15.197
318.07	13.845
318.43	14.966
318.80	15.217
319.16	13.476
319.53	13.111
319.89	14.812
320.26	15.480
320.62	14.184
320.99	14.958
321.35	16.174
321.72	16.651
322.08	15.870
322.45	17.796
322.81	17.960
323.18	16.195
323.54	17.328
323.91	17.527
324.27	17.642
324.64	17.968
325.00	17.413
325.37	17.609
325.73	18.264
326.10	17.356
326.46	18.811
326.83	19.856
327.19	19.449
327.56	19.763
327.92	17.781
328.29	19.919
328.65	18.928
329.01	19.882
329.38	20.640
329.74	20.120
330.11	20.205
330.47	19.966
330.84	19.208
331.20	21.250
331.56	19.497
331.93	20.586
332.29	19.746
332.66	20.183
333.02	20.268
333.38	20.386
333.75	20.539
334.11	20.767
334.48	19.967
334.84	20.306
335.20	20.235
335.57	20.489
335.93	19.752
336.29	18.636
336.66	19.933
337.02	20.819
337.38	21.939
337.75	21.157
338.11	21.362
338.47	21.009
338.84	20.643
339.20	19.714
339.56	20.016
339.93	21.921
340.29	21.498
340.65	19.221
341.02	20.112
341.38	20.534
341.74	20.016
342.11	20.676
342.47	20.175
342.83	20.290
343.20	20.850
343.56	20.209
343.92	19.776
344.28	21.172
344.65	21.550
345.01	20.593
345.37	21.306
345.73	19.641
346.10	20.749
346.46	20.965
346.82	20.524
347.19	20.397
347.55	20.106
347.91	20.951
348.27	20.486
348.63	21.173
349.00	21.999
349.36	21.190
349.72	20.238
350.08	21.174
350.45	20.228
350.81	21.116
351.17	20.451
351.53	20.470
351.89	21.564
352.26	20.373
352.62	21.418
352.98	20.000
353.34	20.015
353.70	21.032
354.07	21.833
354.43	21.185
354.79	20.269
355.15	21.560
355.51	21.053
355.87	20.419
356.24	20.000
356.60	21.138
356.96	21.053
357.32	20.892
357.68	21.303
358.04	20.584
358.40	20.522
358.77	21.272
359.13	20.310
359.49	20.892
359.85	21.392
360.21	21.521
360.57	21.177
360.93	21.791
361.29	20.982
361.66	20.637
362.02	21.364
362.38	21.926
362.74	21.439
363.10	22.696
363.46	20.983
363.82	20.526
364.18	20.901
364.54	21.784
364.90	22.140
365.26	22.345
365.62	21.933
365.98	21.988
366.35	22.349
366.71	22.449
367.07	22.057
367.43	21.930
367.79	22.628
368.15	22.742
368.51	21.313
368.87	22.926
369.23	22.133
369.59	22.336
369.95	22.786
370.31	23.565
370.67	22.008
371.03	22.715
371.39	22.163
371.75	22.971
372.11	24.051
372.47	22.275
372.83	23.887
373.19	22.815
373.55	23.984
373.91	22.290
374.27	23.739
374.63	24.019
374.99	24.204
375.35	23.442
375.71	23.871
376.07	23.757
376.42	24.748
376.78	23.431
377.14	23.269
377.50	24.035
377.86	24.138
378.22	24.371
378.58	25.327
378.94	24.120
379.30	24.839
379.66	25.162
380.02	24.986
380.38	24.827
380.74	25.239
381.09	25.145
381.45	25.114
381.81	26.405
382.17	25.297
382.53	25.380
382.89	25.790
383.25	25.909
383.61	25.174
383.97	25.795
384.32	26.435
384.68	25.522
385.04	25.911
385.40	25.633
385.76	27.374
386.12	25.972
386.48	25.882
386.83	27.056
387.19	25.550
387.55	25.822
387.91	26.712
388.27	27.367
388.62	27.320
388.98	26.847
389.34	27.578
389.70	27.600
390.06	27.413
390.42	26.928
390.77	27.574
391.13	26.937
391.49	27.174
391.85	27.758
392.20	26.750
392.56	26.462
392.92	27.154
393.28	27.916
393.64	26.480
393.99	27.891
394.35	28.271
394.71	27.725
395.07	27.725
395.42	27.698
395.78	28.458
396.14	28.520
396.50	27.494
396.85	27.668
397.21	27.870
397.57	28.504
397.92	27.549
398.28	27.051
398.64	27.975
399.00	28.325
399.35	27.958
399.71	27.989
400.07	28.692
400.42	27.474
400.78	27.836
401.14	27.945
401.49	28.255
401.85	28.953
402.21	28.795
402.57	29.695
402.92	27.896
403.28	27.518
403.63	28.043
403.99	28.800
404.35	27.800
404.70	28.385
405.06	28.587
405.42	28.396
405.77	28.353
406.13	28.579
406.49	28.322
406.84	28.864
407.20	29.067
407.55	27.559
407.91	28.724
408.27	27.856
408.62	28.563
408.98	29.193
409.34	27.625
409.69	28.368
410.05	28.312
410.40	28.596
410.76	28.828
411.11	28.521
411.47	28.624
411.83	28.865
412.18	29.759
412.54	28.275
412.89	28.522
413.25	28.612
413.60	28.374
413.96	30.186
414.31	28.272
414.67	29.696
415.03	28.369
415.38	29.319
415.74	27.673
416.09	28.378
416.45	29.242
416.80	28.335
417.16	29.246
417.51	29.514
417.87	27.897
418.22	29.102
418.58	28.129
418.93	28.754
419.29	29.531
419.64	28.691
420.00	28.131
420.35	28.804
420.71	28.834
421.06	28.292
421.42	29.071
421.77	28.433
422.12	28.330
422.48	29.442
422.83	29.628
423.19	28.329
423.54	28.927
423.90	28.990
424.25	29.333
424.61	28.014
424.96	28.940
425.31	28.769
425.67	28.073
426.02	29.330
426.38	29.162
426.73	28.125
427.09	29.585
427.44	27.089
427.79	27.971
428.15	28.139
428.50	28.539
428.85	28.186
429.21	29.096
429.56	28.282
429.92	28.550
430.27	29.157
430.62	28.676
430.98	28.726
431.33	28.446
431.68	28.544
432.04	28.441
432.39	27.745
432.74	28.025
433.10	29.097
433.45	27.703
433.80	28.541
434.16	28.926
434.51	28.880
434.86	29.370
435.22	29.543
435.57	28.950
435.92	28.548
436.28	29.067
436.63	28.618
436.98	29.200
437.34	29.030
437.69	28.949
438.04	28.451
438.39	28.432
438.75	28.998
439.10	28.911
439.45	29.458
439.81	29.153
440.16	28.954
440.51	29.097
440.86	28.905
441.22	29.636
441.57	28.774
441.92	29.777
442.27	30.707
442.63	30.204
442.98	29.029
443.33	29.511
443.68	29.732
444.03	30.809
444.39	30.606
444.74	30.219
445.09	30.005
445.44	29.926
445.79	30.747
446.15	30.113
446.50	30.026
446.85	29.912
447.20	30.513
447.55	29.812
447.91	29.424
448.26	29.123
448.61	29.809
448.96	30.633
449.31	29.427
449.66	29.194
450.02	30.222
450.37	30.048
450.72	29.656
451.07	29.670
451.42	30.734
451.77	29.405
452.12	29.797
452.47	28.758
452.83	30.405
453.18	29.364
453.53	29.868
453.88	29.100
454.23	29.774
454.58	30.412
454.93	29.369
455.28	29.741
455.63	29.676
455.98	30.335
456.34	29.329
456.69	29.336
457.04	30.083
457.39	29.435
457.74	30.537
458.09	29.764
458.44	29.580
458.79	28.159
459.14	29.051
459.49	28.976
459.84	29.958
460.19	28.318
460.54	29.358
460.89	29.381
461.24	29.368
461.59	29.164
461.94	28.408
462.29	29.563
462.64	29.451
462.99	28.374
463.34	28.812
463.69	28.312
464.04	29.461
464.39	28.980
464.74	28.392
465.09	28.604
465.44	29.238
465.79	28.451
466.14	28.452
466.49	29.421
466.84	29.752
467.19	28.439
467.54	28.261
467.89	29.080
468.24	29.307
468.59	28.141
468.94	28.089
469.29	26.875
469.64	27.781
469.99	27.852
470.34	27.723
470.68	28.230
471.03	28.553
471.38	27.731
471.73	27.308
472.08	27.855
472.43	27.453
472.78	28.463
473.13	28.382
473.48	27.190
473.83	28.439
474.17	28.546
474.52	28.683
474.87	28.904
475.22	27.831
475.57	27.103
475.92	28.173
476.27	27.636
476.61	27.466
476.96	28.154
477.31	28.267
477.66	28.279
478.01	27.758
478.36	28.564
478.70	27.635
479.05	28.783
479.40	28.085
479.75	28.194
480.10	28.091
480.45	28.760
480.79	28.254
481.14	27.711
481.49	26.942
481.84	27.894
482.19	28.129
482.53	28.290
482.88	28.888
483.23	27.701
483.58	28.035
483.92	27.837
484.27	26.926
484.62	27.558
484.97	27.916
485.31	27.455
485.66	27.140
486.01	27.350
486.36	28.241
486.70	29.945
487.05	29.754
487.40	29.115
487.75	28.855
488.09	27.839
488.44	26.480
488.79	27.285
489.13	27.046
489.48	26.408
489.83	25.875
490.17	26.326
490.52	26.765
490.87	26.523
491.22	26.560
491.56	26.536
491.91	26.210
492.26	27.001
492.60	26.629
492.95	26.108
493.30	25.997
493.64	25.931
493.99	26.579
494.34	25.828
494.68	25.653
495.03	25.683
495.37	26.054
495.72	25.986
496.07	26.424
496.41	25.611
496.76	26.063
497.11	25.605
497.45	25.464
497.80	25.144
498.14	25.397
498.49	25.368
498.84	25.686
499.18	26.316
499.53	26.143
499.87	25.363
500.22	25.378
500.56	24.741
500.91	25.126
501.26	26.364
501.60	24.834
501.95	25.402
502.29	25.625
502.64	25.579
502.98	24.935
503.33	25.184
503.67	25.033
504.02	25.044
504.36	25.648
504.71	24.989
505.06	24.875
505.40	24.771
505.75	24.454
506.09	25.046
506.44	24.513
506.78	24.679
507.13	24.942
507.47	24.964
507.82	23.816
508.16	24.044
508.51	24.004
508.85	24.752
509.19	24.064
509.54	24.928
509.88	24.672
510.23	24.672
510.57	24.505
510.92	24.335
511.26	23.954
511.61	23.419
511.95	24.353
512.30	23.781
512.64	23.988
512.98	24.562
513.33	24.093
513.67	23.967
514.02	24.783
514.36	24.143
514.70	23.490
515.05	24.348
515.39	23.412
515.74	24.284
516.08	23.666
516.42	24.385
516.77	24.501
517.11	23.569
517.46	23.807
517.80	24.532
518.14	23.885
518.49	23.482
518.83	23.523
519.17	23.209
519.52	23.008
519.86	23.865
520.20	24.281
520.55	22.563
520.89	23.029
521.23	23.004
521.58	23.446
521.92	22.323
522.26	23.310
522.61	23.322
522.95	22.837
523.29	22.816
523.64	22.870
523.98	23.388
524.32	24.069
524.66	22.425
525.01	22.593
525.35	21.769
525.69	22.216
526.04	22.273
526.38	23.448
526.72	23.126
527.06	22.346
527.41	22.507
527.75	24.347
528.09	23.436
528.43	23.505
528.78	21.965
529.12	22.190
529.46	22.260
529.80	22.426
530.15	22.609
530.49	22.954
530.83	22.373
531.17	22.820
531.51	21.841
531.86	23.137
532.20	23.598
532.54	21.963
532.88	21.758
533.22	22.039
533.57	22.447
533.91	22.334
534.25	22.894
534.59	22.529
534.93	22.184
535.27	21.690
535.62	23.366
535.96	22.487
536.30	21.974
536.64	22.643
536.98	22.017
537.32	22.037
537.66	22.333
538.01	21.631
538.35	21.803
538.69	21.034
539.03	21.275
539.37	22.203
539.71	21.141
540.05	22.002
540.39	21.516
540.73	20.826
541.07	20.785
541.42	21.441
541.76	21.471
542.10	21.411
542.44	21.133
542.78	21.594
543.12	21.037
543.46	20.574
543.80	20.264
544.14	21.664
544.48	21.631
544.82	22.501
545.16	21.646
545.50	21.270
545.84	20.453
546.18	21.111
546.52	20.637
546.86	21.384
547.20	21.310
547.54	21.099
547.88	20.555
548.22	20.468
548.56	20.948
548.90	21.194
549.24	20.669
549.58	20.946
549.92	20.472
550.26	21.230
550.60	20.549
550.94	20.440
551.28	20.000
551.62	20.081
551.96	20.388
552.30	20.459
552.64	20.348
552.98	20.337
553.32	20.836
553.66	20.514
554.00	19.861
554.34	19.949
554.68	19.496
555.02	19.777
555.36	20.447
555.69	18.193
556.03	20.618
556.37	20.526
556.71	20.165
557.05	20.256
557.39	20.040
557.73	20.343
558.07	18.278
558.41	19.668
558.75	20.284
559.08	19.694
559.42	19.136
559.76	19.539
560.10	18.754
560.44	19.261
560.78	19.812
561.12	18.658
561.45	20.560
561.79	18.926
562.13	19.285
562.47	19.236
562.81	19.620
563.15	19.381
563.48	19.391
563.82	18.984
564.16	19.019
564.50	19.070
564.84	19.410
565.17	19.588
565.51	18.757
565.85	19.240
566.19	18.145
566.52	19.134
566.86	19.411
567.20	18.978
567.54	19.012
567.88	19.521
568.21	19.466
568.55	19.281
568.89	19.428
569.23	19.772
569.56	19.500
569.90	20.207
570.24	19.730
570.57	19.788
570.91	19.780
571.25	19.439
571.59	20.095
571.92	20.442
572.26	19.905
572.60	19.984
572.93	20.234
573.27	19.556
573.61	20.169
573.95	19.714
574.28	19.715
574.62	19.782
574.96	20.004
575.29	19.982
575.63	19.843
575.97	20.072
576.30	19.393
576.64	19.613
576.98	20.114
577.31	20.280
577.65	20.140
577.98	19.880
578.32	19.599
578.66	19.827
578.99	19.619
579.33	19.653
579.67	19.334
580.00	19.532
580.34	20.223
580.67	19.682
581.01	19.472
581.35	19.540
581.68	19.645
582.02	19.577
582.35	20.026
582.69	19.826
583.02	20.052
583.36	19.450
583.70	19.541
584.03	19.054
584.37	19.551
584.70	19.315
585.04	18.647
585.37	19.487
585.71	19.137
586.04	19.221
586.38	19.127
586.72	18.626
587.05	18.419
587.39	19.023
587.72	18.852
588.06	18.883
588.39	19.293
588.73	18.677
589.06	19.046
589.40	18.900
589.73	18.991
590.07	18.501
590.40	18.120
590.73	18.310
591.07	17.759
591.40	18.002
591.74	17.488
592.07	18.230
592.41	18.178
592.74	17.998
593.08	18.758
593.41	19.014
593.75	18.736
594.08	18.691
594.41	18.494
594.75	18.034
595.08	18.102
595.42	18.539
595.75	17.759
596.09	18.536
596.42	18.882
596.75	18.680
597.09	17.939
597.42	17.124
597.75	17.405
598.09	17.698
598.42	18.376
598.76	17.272
599.09	17.622
599.42	17.767
599.76	17.564
600.09	18.118
600.42	17.618
600.76	17.470
601.09	17.624
601.42	17.302
601.76	17.931
602.09	17.727
602.42	17.485
602.76	17.232
603.09	17.511
603.42	17.305
603.76	17.089
604.09	17.921
604.42	17.945
604.76	17.466
605.09	17.272
605.42	17.065
605.75	17.462
606.09	17.283
606.42	16.782
606.75	16.942
607.09	16.859
607.42	17.071
607.75	16.921
608.08	16.851
608.42	16.969
608.75	17.247
609.08	16.426
609.41	17.336
609.75	16.652
610.08	17.326
610.41	16.440
610.74	16.639
611.07	16.519
611.41	16.502
611.74	16.120
612.07	17.064
612.40	16.397
612.73	16.773
613.07	16.381
613.40	16.651
613.73	16.562
614.06	16.290
614.39	15.646
614.72	16.594
615.06	16.554
615.39	16.191
615.72	16.777
616.05	15.930
616.38	16.902
616.71	16.196
617.05	16.400
617.38	16.693
617.71	15.983
618.04	16.136
618.37	16.175
618.70	16.516
619.03	15.950
619.36	15.105
619.69	14.990
620.03	15.756
620.36	15.706
620.69	15.361
621.02	15.814
621.35	16.255
621.68	14.823
622.01	14.662
622.34	14.993
622.67	14.364
623.00	13.563
623.33	14.997
623.66	14.721
623.99	14.944
624.32	16.244
624.65	14.994
624.99	15.670
625.32	16.133
625.65	15.037
625.98	14.576
626.31	14.529
626.64	15.165
626.97	13.878
627.30	14.199
627.63	13.803
627.96	15.390
628.29	13.774
628.62	13.854
628.95	14.110
629.28	14.613
629.61	14.478
629.94	13.222
630.26	13.814
630.59	12.867
