SpectraSuite Data File
++++++++++++++++++++++++++++++++++++
Date: Thu May 14 16:03:31 PDT 2015
User: schluterlab
Dark Spectrum Present: Yes
Reference Spectrum Present: Yes
Number of Sampled Component Spectra: 1
Spectrometers: USB2E3373
Integration Time (usec): 3000 (USB2E3373)
Spectra Averaged: 3 (USB2E3373)
Boxcar Smoothing: 0 (USB2E3373)
Correct for Electrical Dark: No (USB2E3373)
Strobe/Lamp Enabled: No (USB2E3373)
Correct for Detector Non-linearity: No (USB2E3373)
Correct for Stray Light: No (USB2E3373)
Number of Pixels in Processed Spectrum: 2048
>>>>>Begin Processed Spectral Data<<<<<
178.53	0.000
178.91	157.143
179.29	-2300.000
179.67	-1800.000
180.04	257.143
180.42	140.000
180.80	380.000
181.18	-1800.000
181.56	-1400.000
181.94	600.000
182.31	-500.000
182.69	633.333
183.07	-600.000
183.45	575.000
183.83	-216.667
184.20	-433.333
184.58	2000.000
184.96	-500.000
185.34	-100.000
185.72	-240.000
186.09	255.556
186.47	700.000
186.85	420.000
187.23	-266.667
187.61	-1800.000
187.98	140.000
188.36	475.000
188.74	-525.000
189.12	-233.333
189.49	-75.000
189.87	-175.000
190.25	-33.333
190.63	-60.000
191.00	-222.222
191.38	0.000
191.76	-550.000
192.14	-183.333
192.51	300.000
192.89	-66.667
193.27	0.000
193.65	-300.000
194.02	-2300.000
194.40	-114.286
194.78	285.714
195.15	0.000
195.53	-118.182
195.91	0.000
196.29	-275.000
196.66	-100.000
197.04	-1600.000
197.42	-242.857
197.79	-750.000
198.17	-275.000
198.55	-271.429
198.92	-77.778
199.30	-350.000
199.68	-63.636
200.05	-57.143
200.43	-1050.000
200.81	257.143
201.18	0.000
201.56	255.556
201.94	0.000
202.31	600.000
202.69	-233.333
203.07	800.000
203.44	-111.111
203.82	-525.000
204.19	-25.000
204.57	-250.000
204.95	-225.000
205.32	-2200.000
205.70	550.000
206.08	-183.333
206.45	-200.000
206.83	460.000
207.20	-200.000
207.58	-560.000
207.96	-416.667
208.33	-166.667
208.71	133.333
209.08	-83.333
209.46	0.000
209.84	316.667
210.21	700.000
210.59	750.000
210.96	633.333
211.34	-325.000
211.71	-100.000
212.09	-2700.000
212.46	0.000
212.84	1000.000
213.22	-320.000
213.59	-350.000
213.97	-140.000
214.34	-733.333
214.72	233.333
215.09	-450.000
215.47	0.000
215.84	242.857
216.22	1050.000
216.59	-220.000
216.97	-240.000
217.34	-375.000
217.72	-150.000
218.09	-500.000
218.47	-550.000
218.84	0.000
219.22	380.000
219.59	-52.941
219.97	10.000
220.34	550.000
220.72	-233.333
221.09	7.692
221.47	-400.000
221.84	-90.000
222.22	-228.571
222.59	0.000
222.97	-150.000
223.34	-600.000
223.72	-1800.000
224.09	-500.000
224.46	-325.000
224.84	-140.000
225.21	-257.143
225.59	-525.000
225.96	-300.000
226.34	3.846
226.71	383.333
227.08	-350.000
227.46	-46.667
227.83	-300.000
228.21	-47.368
228.58	125.000
228.95	450.000
229.33	-8.333
229.70	-110.000
230.08	5.263
230.45	310.000
230.82	-400.000
231.20	-85.714
231.57	-66.667
231.95	-200.000
232.32	-118.182
232.69	-45.000
233.07	-225.000
233.44	-105.882
233.81	-110.000
234.19	0.000
234.56	-50.000
234.93	-34.483
235.31	-105.263
235.68	-61.111
236.05	-95.000
236.43	-7.692
236.80	4.000
237.17	-29.630
237.55	-36.364
237.92	-140.000
238.29	-19.355
238.67	-38.636
239.04	-38.889
239.41	-19.048
239.79	-21.739
240.16	-29.630
240.53	-28.261
240.91	-47.059
241.28	-9.836
241.65	-2.985
242.02	-13.514
242.40	-32.308
242.77	-16.000
243.14	-14.634
243.51	-30.263
243.89	-26.923
244.26	-8.911
244.63	-14.706
245.00	-5.607
245.38	-14.912
245.75	-25.664
246.12	-11.905
246.49	-10.078
246.87	-6.429
247.24	-6.623
247.61	-7.237
247.98	-6.711
248.36	-9.877
248.73	-15.951
249.10	-7.104
249.47	2.985
249.84	-1.571
250.22	-9.845
250.59	-10.556
250.96	-3.636
251.33	-11.224
251.70	-8.547
252.08	-2.917
252.45	-1.639
252.82	-9.504
253.19	-7.031
253.56	-3.042
253.94	-6.538
254.31	-4.167
254.68	-4.196
255.05	0.000
255.42	-4.762
255.79	-4.854
256.16	-4.636
256.54	-5.298
256.91	-4.590
257.28	-5.574
257.65	-7.643
258.02	-5.900
258.39	-3.989
258.76	-1.529
259.14	-1.724
259.51	-2.305
259.88	-3.399
260.25	-4.444
260.62	-3.836
260.99	-3.279
261.36	-2.413
261.73	-5.305
262.10	-7.143
262.47	-4.826
262.85	-1.515
263.22	-4.416
263.59	-7.105
263.96	-3.836
264.33	-6.650
264.70	-2.469
265.07	-1.909
265.44	1.361
265.81	-4.861
266.18	-3.175
266.55	-3.348
266.92	-5.239
267.29	-1.969
267.66	-2.439
268.03	-3.057
268.40	-2.714
268.77	-4.328
269.14	-5.727
269.51	-1.316
269.88	-0.820
270.25	-2.012
270.62	-2.743
270.99	-1.616
271.36	-0.594
271.73	-1.768
272.10	-1.804
272.47	-1.804
272.84	-3.815
273.21	-4.008
273.58	-3.024
273.95	-2.308
274.32	-2.662
274.69	-4.836
275.06	-1.832
275.43	-2.773
275.80	-1.058
276.17	-4.815
276.54	-2.239
276.91	-0.894
277.28	-1.627
277.65	-0.718
278.02	-1.654
278.39	-3.442
278.76	-3.691
279.13	-3.191
279.50	-0.687
279.87	-2.862
280.23	-3.521
280.60	-1.356
280.97	-2.138
281.34	-2.547
281.71	0.000
282.08	-2.159
282.45	-2.128
282.82	-2.198
283.19	-3.877
283.56	-1.967
283.92	-1.351
284.29	0.632
284.66	-1.642
285.03	-4.167
285.40	-0.927
285.77	-1.393
286.14	0.153
286.51	-2.131
286.87	-3.160
287.24	-1.054
287.61	-2.093
287.98	-3.474
288.35	-1.923
288.72	-3.698
289.08	-0.878
289.45	-2.515
289.82	-1.807
290.19	-1.868
290.56	-2.113
290.93	-1.284
291.29	-2.342
291.66	-2.479
292.03	-2.442
292.40	-1.224
292.77	-1.887
293.13	-0.271
293.50	-2.497
293.87	-2.416
294.24	-1.200
294.60	-0.759
294.97	-3.356
295.34	-0.256
295.71	-2.522
296.08	-1.938
296.44	-1.838
296.81	-1.218
297.18	-1.370
297.55	-1.887
297.91	-2.728
298.28	-2.014
298.65	-1.902
299.02	-1.771
299.38	-0.915
299.75	-0.350
300.12	-2.083
300.48	-2.419
300.85	-0.562
301.22	-0.559
301.59	-2.055
301.95	-1.356
302.32	-0.333
302.69	-2.410
303.05	-0.762
303.42	-0.665
303.79	-1.667
304.15	-0.105
304.52	-1.691
304.89	0.209
305.25	-0.104
305.62	-0.418
305.99	-0.309
306.35	-0.605
306.72	-0.207
307.09	-0.914
307.45	-0.414
307.82	-1.110
308.19	-1.816
308.55	-0.289
308.92	-0.292
309.29	0.479
309.65	-0.682
310.02	-1.188
310.38	-0.394
310.75	-0.583
311.12	0.000
311.48	-0.880
311.85	-0.380
312.22	-0.474
312.58	-0.563
312.95	-0.860
313.31	0.090
313.68	0.366
314.05	0.271
314.41	1.093
314.78	0.908
315.14	0.544
315.51	-0.462
315.87	0.630
316.24	0.822
316.61	1.066
316.97	-0.633
317.34	-0.353
317.70	0.786
318.07	1.411
318.43	1.616
318.80	1.505
319.16	0.086
319.53	-0.257
319.89	-0.263
320.26	1.335
320.62	0.621
320.99	0.923
321.35	0.924
321.72	1.395
322.08	0.902
322.45	0.181
322.81	1.354
323.18	0.796
323.54	1.207
323.91	1.512
324.27	1.807
324.64	1.847
325.00	1.327
325.37	1.720
325.73	1.736
326.10	1.703
326.46	3.176
326.83	2.482
327.19	1.575
327.56	2.767
327.92	1.967
328.29	2.177
328.65	1.340
329.01	1.946
329.38	1.516
329.74	2.825
330.11	2.055
330.47	2.359
330.84	1.464
331.20	2.750
331.56	1.300
331.93	2.176
332.29	2.966
332.66	2.658
333.02	2.178
333.38	2.768
333.75	2.357
334.11	1.585
334.48	2.310
334.84	3.144
335.20	2.519
335.57	2.614
335.93	2.231
336.29	1.830
336.66	0.925
337.02	1.756
337.38	2.041
337.75	2.149
338.11	2.019
338.47	2.812
338.84	2.030
339.20	1.853
339.56	2.883
339.93	2.299
340.29	2.174
340.65	1.784
341.02	3.113
341.38	2.991
341.74	1.776
342.11	2.253
342.47	1.112
342.83	2.174
343.20	2.698
343.56	2.005
343.92	2.722
344.28	2.500
344.65	4.186
345.01	3.510
345.37	3.110
345.73	1.793
346.10	2.886
346.46	2.611
346.82	3.596
347.19	2.445
347.55	2.807
347.91	2.600
348.27	2.428
348.63	2.437
349.00	2.163
349.36	3.271
349.72	2.976
350.08	3.640
350.45	1.749
350.81	2.790
351.17	1.955
351.53	2.502
351.89	3.113
352.26	2.239
352.62	2.612
352.98	2.290
353.34	2.465
353.70	2.003
354.07	2.608
354.43	2.506
354.79	2.543
355.15	3.238
355.51	3.509
355.87	2.917
356.24	3.118
356.60	2.882
356.96	2.298
357.32	2.454
357.68	2.196
358.04	2.620
358.40	2.239
358.77	3.070
359.13	3.176
359.49	1.041
359.85	2.611
360.21	3.945
360.57	2.441
360.93	2.680
361.29	3.088
361.66	2.534
362.02	4.523
362.38	3.022
362.74	2.933
363.10	3.301
363.46	2.355
363.82	3.267
364.18	2.533
364.54	2.974
364.90	3.211
365.26	2.690
365.62	3.800
365.98	3.268
366.35	4.295
366.71	3.129
367.07	3.383
367.43	4.334
367.79	3.981
368.15	4.615
368.51	3.721
368.87	4.050
369.23	3.533
369.59	2.937
369.95	3.313
370.31	3.038
370.67	3.232
371.03	2.839
371.39	3.224
371.75	2.957
372.11	3.388
372.47	3.047
372.83	4.188
373.19	4.270
373.55	3.184
373.91	2.658
374.27	4.010
374.63	3.586
374.99	3.249
375.35	3.896
375.71	3.613
376.07	3.228
376.42	3.086
376.78	4.351
377.14	3.868
377.50	3.795
377.86	4.618
378.22	3.952
378.58	4.043
378.94	4.225
379.30	3.632
379.66	4.115
380.02	4.270
380.38	4.378
380.74	3.662
381.09	3.426
381.45	4.545
381.81	3.981
382.17	3.919
382.53	4.094
382.89	4.571
383.25	3.986
383.61	3.877
383.97	4.005
384.32	3.708
384.68	3.306
385.04	4.164
385.40	4.007
385.76	4.220
386.12	3.950
386.48	4.353
386.83	4.768
387.19	3.360
387.55	3.580
387.91	4.167
388.27	4.677
388.62	4.181
388.98	4.456
389.34	4.125
389.70	3.719
390.06	4.263
390.42	4.157
390.77	5.117
391.13	4.519
391.49	4.952
391.85	3.333
392.20	3.855
392.56	4.725
392.92	4.744
393.28	3.814
393.64	4.078
393.99	4.067
394.35	4.381
394.71	4.611
395.07	4.132
395.42	4.112
395.78	4.692
396.14	4.278
396.50	3.919
396.85	4.353
397.21	3.905
397.57	3.946
397.92	4.181
398.28	3.639
398.64	4.405
399.00	3.874
399.35	4.241
399.71	4.620
400.07	3.874
400.42	4.133
400.78	4.282
401.14	4.496
401.49	3.866
401.85	3.547
402.21	3.708
402.57	4.401
402.92	4.433
403.28	3.513
403.63	3.222
403.99	3.563
404.35	3.638
404.70	4.589
405.06	4.130
405.42	4.274
405.77	4.635
406.13	3.674
406.49	3.716
406.84	4.875
407.20	4.584
407.55	3.695
407.91	3.143
408.27	3.534
408.62	3.723
408.98	4.759
409.34	2.933
409.69	3.276
410.05	4.045
410.40	4.524
410.76	3.477
411.11	4.208
411.47	4.115
411.83	4.174
412.18	3.855
412.54	4.031
412.89	4.715
413.25	4.515
413.60	3.963
413.96	4.021
414.31	3.909
414.67	4.055
415.03	3.877
415.38	4.224
415.74	4.215
416.09	4.010
416.45	3.444
416.80	4.284
417.16	3.448
417.51	3.300
417.87	4.353
418.22	4.072
418.58	3.284
418.93	4.191
419.29	3.514
419.64	3.301
420.00	3.620
420.35	3.369
420.71	3.504
421.06	3.278
421.42	3.784
421.77	3.339
422.12	3.647
422.48	3.431
422.83	4.162
423.19	3.873
423.54	2.931
423.90	3.810
424.25	3.893
424.61	2.583
424.96	2.965
425.31	4.034
425.67	3.811
426.02	2.933
426.38	3.674
426.73	3.237
427.09	4.556
427.44	3.168
427.79	3.261
428.15	3.938
428.50	3.090
428.85	2.985
429.21	3.404
429.56	2.863
429.92	3.735
430.27	3.277
430.62	3.420
430.98	3.148
431.33	3.470
431.68	3.688
432.04	3.200
432.39	3.214
432.74	3.368
433.10	3.515
433.45	2.731
433.80	3.004
434.16	3.616
434.51	2.826
434.86	2.443
435.22	3.029
435.57	3.184
435.92	3.283
436.28	2.787
436.63	3.113
436.98	3.543
437.34	2.762
437.69	2.587
438.04	3.014
438.39	2.527
438.75	3.154
439.10	3.171
439.45	3.298
439.81	2.373
440.16	3.592
440.51	3.066
440.86	3.335
441.22	2.358
441.57	2.621
441.92	2.667
442.27	3.182
442.63	3.080
442.98	2.935
443.33	2.946
443.68	3.915
444.03	3.387
444.39	2.959
444.74	3.318
445.09	2.636
445.44	3.372
445.79	3.113
446.15	3.237
446.50	2.791
446.85	3.453
447.20	3.046
447.55	2.877
447.91	2.723
448.26	3.171
448.61	2.763
448.96	3.541
449.31	2.757
449.66	1.961
450.02	3.376
450.37	3.250
450.72	3.014
451.07	2.677
451.42	2.426
451.77	2.724
452.12	2.709
452.47	2.496
452.83	2.477
453.18	1.810
453.53	2.183
453.88	3.147
454.23	2.599
454.58	2.031
454.93	1.699
455.28	2.529
455.63	2.843
455.98	2.737
456.34	2.886
456.69	2.822
457.04	2.660
457.39	2.162
457.74	2.573
458.09	2.471
458.44	2.963
458.79	2.218
459.14	2.832
459.49	2.886
459.84	2.886
460.19	2.165
460.54	1.931
460.89	2.382
461.24	2.356
461.59	3.210
461.94	1.597
462.29	2.016
462.64	2.293
462.99	2.511
463.34	2.141
463.69	2.286
464.04	2.890
464.39	1.962
464.74	2.623
465.09	2.364
465.44	2.468
465.79	2.803
466.14	2.137
466.49	2.684
466.84	2.149
467.19	2.023
467.54	1.880
467.89	2.069
468.24	2.770
468.59	1.853
468.94	1.807
469.29	1.560
469.64	1.844
469.99	1.530
470.34	1.485
470.68	1.982
471.03	1.441
471.38	1.766
471.73	1.625
472.08	2.030
472.43	1.927
472.78	2.582
473.13	1.580
473.48	2.236
473.83	2.147
474.17	2.227
474.52	1.323
474.87	1.993
475.22	2.648
475.57	2.077
475.92	2.041
476.27	1.864
476.61	1.817
476.96	1.460
477.31	2.129
477.66	2.204
478.01	1.881
478.36	2.094
478.70	1.872
479.05	1.994
479.40	1.925
479.75	2.354
480.10	2.084
480.45	1.960
480.79	1.905
481.14	2.298
481.49	1.227
481.84	2.176
482.19	1.419
482.53	2.274
482.88	1.728
483.23	1.690
483.58	1.441
483.92	1.463
484.27	2.117
484.62	1.939
484.97	2.061
485.31	2.006
485.66	1.944
486.01	2.308
486.36	2.296
486.70	2.505
487.05	2.179
487.40	2.252
487.75	2.214
488.09	2.170
488.44	2.004
488.79	2.496
489.13	2.100
489.48	1.087
489.83	1.328
490.17	1.134
490.52	2.176
490.87	1.607
491.22	0.953
491.56	2.218
491.91	1.875
492.26	1.990
492.60	1.487
492.95	1.536
493.30	1.076
493.64	1.445
493.99	1.447
494.34	1.307
494.68	1.242
495.03	1.982
495.37	1.731
495.72	1.633
496.07	1.665
496.41	1.287
496.76	1.501
497.11	1.274
497.45	1.295
497.80	1.644
498.14	1.406
498.49	1.287
498.84	1.234
499.18	1.574
499.53	1.928
499.87	1.758
500.22	0.846
500.56	0.945
500.91	1.281
501.26	1.909
501.60	1.502
501.95	1.650
502.29	1.580
502.64	1.574
502.98	1.596
503.33	1.210
503.67	1.221
504.02	1.095
504.36	1.787
504.71	1.011
505.06	1.955
505.40	1.280
505.75	1.457
506.09	1.151
506.44	1.114
506.78	1.606
507.13	1.521
507.47	1.611
507.82	1.705
508.16	1.243
508.51	1.078
508.85	0.614
509.19	1.658
509.54	1.681
509.88	0.971
510.23	1.506
510.57	1.933
510.92	1.403
511.26	1.203
511.61	1.159
511.95	1.220
512.30	1.576
512.64	1.499
512.98	0.900
513.33	1.411
513.67	1.632
514.02	1.073
514.36	1.330
514.70	0.885
515.05	0.886
515.39	1.365
515.74	1.750
516.08	1.426
516.42	2.145
516.77	1.157
517.11	1.392
517.46	1.538
517.80	1.550
518.14	1.306
518.49	1.573
518.83	1.224
519.17	0.969
519.52	1.205
519.86	1.848
520.20	1.278
520.55	0.876
520.89	1.577
521.23	1.340
521.58	1.808
521.92	1.813
522.26	0.859
522.61	0.868
522.95	0.980
523.29	1.897
523.64	1.513
523.98	2.225
524.32	1.777
524.66	1.651
525.01	1.076
525.35	0.689
525.69	1.334
526.04	1.033
526.38	1.207
526.72	1.499
527.06	0.938
527.41	0.641
527.75	1.366
528.09	1.240
528.43	1.421
528.78	0.867
529.12	1.491
529.46	1.743
529.80	2.002
530.15	1.681
530.49	0.474
530.83	1.240
531.17	1.075
531.51	1.745
531.86	1.683
532.20	1.646
532.54	1.855
532.88	1.333
533.22	0.884
533.57	1.096
533.91	1.796
534.25	1.413
534.59	1.034
534.93	1.132
535.27	1.408
535.62	1.990
535.96	1.685
536.30	0.411
536.64	1.982
536.98	1.661
537.32	1.605
537.66	0.936
538.01	0.967
538.35	0.974
538.69	0.721
539.03	1.471
539.37	1.590
539.71	1.141
540.05	1.679
540.39	0.733
540.73	1.032
541.07	1.042
541.42	1.418
541.76	0.949
542.10	1.206
542.44	0.731
542.78	1.521
543.12	1.669
543.46	1.770
543.80	0.659
544.14	0.479
544.48	1.478
544.82	1.197
545.16	0.775
545.50	0.479
545.84	0.429
546.18	2.284
546.52	0.573
546.86	0.629
547.20	0.382
547.54	0.874
547.88	0.844
548.22	1.170
548.56	1.053
548.90	1.134
549.24	1.155
549.58	0.883
549.92	0.829
550.26	0.841
550.60	1.276
550.94	1.229
551.28	1.254
551.62	1.415
551.96	0.841
552.30	1.657
552.64	1.182
552.98	0.873
553.32	0.900
553.66	0.129
554.00	1.513
554.34	0.965
554.68	0.581
555.02	1.051
555.36	1.249
555.69	0.512
556.03	1.450
556.37	1.189
556.71	1.712
557.05	1.278
557.39	0.332
557.73	0.991
558.07	0.596
558.41	0.532
558.75	1.285
559.08	0.765
559.42	0.754
559.76	1.696
560.10	1.273
560.44	0.594
560.78	1.188
561.12	1.108
561.45	0.730
561.79	1.099
562.13	1.171
562.47	0.432
562.81	0.380
563.15	0.884
563.48	1.243
563.82	0.907
564.16	0.666
564.50	1.847
564.84	1.062
565.17	0.824
565.51	0.978
565.85	1.247
566.19	0.864
566.52	0.936
566.86	1.188
567.20	1.088
567.54	1.062
567.88	0.968
568.21	1.383
568.55	1.103
568.89	1.589
569.23	1.901
569.56	1.329
569.90	1.283
570.24	1.518
570.57	1.219
570.91	1.133
571.25	1.591
571.59	1.698
571.92	1.493
572.26	1.641
572.60	1.392
572.93	1.614
573.27	1.517
573.61	1.800
573.95	1.602
574.28	1.775
574.62	1.592
574.96	1.632
575.29	1.586
575.63	1.478
575.97	1.844
576.30	1.554
576.64	1.527
576.98	1.549
577.31	1.686
577.65	1.671
577.98	1.619
578.32	1.618
578.66	1.809
578.99	1.577
579.33	1.178
579.67	1.405
580.00	1.528
580.34	1.614
580.67	1.368
581.01	1.385
581.35	1.559
581.68	1.562
582.02	1.759
582.35	1.694
582.69	1.796
583.02	1.663
583.36	1.766
583.70	1.750
584.03	1.680
584.37	1.679
584.70	1.369
585.04	1.535
585.37	1.745
585.71	1.769
586.04	1.827
586.38	1.834
586.72	1.329
587.05	1.202
587.39	1.571
587.72	1.507
588.06	1.523
588.39	1.568
588.73	1.455
589.06	1.270
589.40	1.199
589.73	1.028
590.07	1.393
590.40	1.859
590.73	1.237
591.07	1.526
591.40	1.166
591.74	1.391
592.07	1.583
592.41	1.222
592.74	1.420
593.08	1.879
593.41	1.954
593.75	1.523
594.08	1.454
594.41	1.667
594.75	1.395
595.08	1.380
595.42	1.364
595.75	1.421
596.09	1.491
596.42	1.218
596.75	1.351
597.09	1.495
597.42	1.549
597.75	1.490
598.09	1.587
598.42	1.367
598.76	1.108
599.09	1.602
599.42	1.576
599.76	1.387
600.09	1.568
600.42	1.468
600.76	1.651
601.09	1.128
601.42	1.373
601.76	1.724
602.09	1.644
602.42	1.454
602.76	1.587
603.09	0.954
603.42	1.553
603.76	0.951
604.09	1.668
604.42	1.394
604.76	1.104
605.09	1.835
605.42	1.276
605.75	1.000
606.09	1.269
606.42	1.350
606.75	1.274
607.09	1.267
607.42	1.696
607.75	1.602
608.08	1.697
608.42	1.048
608.75	1.327
609.08	1.146
609.41	1.191
609.75	1.116
610.08	1.583
610.41	0.807
610.74	1.218
611.07	0.888
611.41	1.480
611.74	1.109
612.07	1.356
612.40	1.283
612.73	1.027
613.07	1.516
613.40	1.588
613.73	1.252
614.06	1.030
614.39	0.875
614.72	1.407
615.06	0.962
615.39	1.112
615.72	1.327
616.05	1.554
616.38	1.261
616.71	1.254
617.05	1.225
617.38	2.515
617.71	1.674
618.04	1.079
618.37	1.311
618.70	1.188
619.03	-0.060
619.36	0.617
619.69	0.833
620.03	0.126
620.36	1.227
620.69	0.740
621.02	0.787
621.35	0.871
621.68	1.374
622.01	0.925
622.34	0.628
622.67	0.756
623.00	-0.067
623.33	1.128
623.66	1.297
623.99	0.527
624.32	1.819
624.65	0.515
624.99	1.170
625.32	1.437
625.65	0.674
625.98	0.542
626.31	0.709
626.64	1.099
626.97	0.600
627.30	-0.152
627.63	1.125
627.96	1.802
628.29	1.089
628.62	0.000
628.95	0.088
629.28	0.170
629.61	1.263
629.94	0.084
630.26	0.085
630.59	0.345
630.92	0.000
631.25	1.699
631.58	0.000
631.91	1.031
632.24	1.057
632.57	0.474
632.90	-1.103
633.23	0.204
633.56	-0.102
633.89	0.413
634.22	0.312
634.55	0.731
634.88	-0.433
635.20	1.076
635.53	0.904
635.86	1.300
636.19	2.545
636.52	0.949
636.85	0.409
637.18	0.000
637.51	0.860
637.83	0.775
638.16	0.230
638.49	-0.117
638.82	-0.113
639.15	-1.031
639.48	0.693
639.81	-0.577
640.13	1.531
640.46	-1.818
640.79	-0.858
641.12	1.491
641.45	0.000
641.77	0.385
642.10	-0.919
642.43	1.596
642.76	0.000
643.09	-0.548
643.41	-1.541
643.74	-0.966
644.07	-0.552
644.40	-0.566
644.73	-0.726
645.05	0.294
645.38	0.000
645.71	-0.440
646.04	1.291
646.36	-0.730
646.69	-1.840
647.02	0.000
647.35	-0.611
647.67	-1.288
648.00	-2.070
648.33	0.000
648.66	-1.569
648.98	-1.769
649.31	-0.677
649.64	0.930
649.96	-1.194
650.29	-1.113
650.62	0.566
650.94	-0.901
651.27	-1.497
651.60	-0.439
651.92	-0.912
