SpectraSuite Data File
++++++++++++++++++++++++++++++++++++
Date: Thu May 14 16:00:18 PDT 2015
User: schluterlab
Dark Spectrum Present: Yes
Reference Spectrum Present: Yes
Number of Sampled Component Spectra: 1
Spectrometers: USB2E3373
Integration Time (usec): 3000 (USB2E3373)
Spectra Averaged: 3 (USB2E3373)
Boxcar Smoothing: 0 (USB2E3373)
Correct for Electrical Dark: No (USB2E3373)
Strobe/Lamp Enabled: No (USB2E3373)
Correct for Detector Non-linearity: No (USB2E3373)
Correct for Stray Light: No (USB2E3373)
Number of Pixels in Processed Spectrum: 2048
>>>>>Begin Processed Spectral Data<<<<<
178.53	0.000
178.91	200.000
179.29	-2200.000
179.67	-2100.000
180.04	250.000
180.42	250.000
180.80	600.000
181.18	-2400.000
181.56	-1400.000
181.94	500.000
182.31	-525.000
182.69	600.000
183.07	-900.000
183.45	225.000
183.83	-233.333
184.20	-433.333
184.58	2500.000
184.96	-375.000
185.34	-200.000
185.72	-180.000
186.09	344.444
186.47	1450.000
186.85	560.000
187.23	-300.000
187.61	-2100.000
187.98	400.000
188.36	400.000
188.74	-500.000
189.12	-266.667
189.49	-31.250
189.87	-175.000
190.25	-122.222
190.63	-180.000
191.00	-222.222
191.38	0.000
191.76	-550.000
192.14	-266.667
192.51	700.000
192.89	-200.000
193.27	0.000
193.65	-257.143
194.02	-2600.000
194.40	-257.143
194.78	257.143
195.15	0.000
195.53	-127.273
195.91	0.000
196.29	-425.000
196.66	-146.154
197.04	-2200.000
197.42	-171.429
197.79	-1050.000
198.17	-312.500
198.55	-342.857
198.92	-177.778
199.30	-175.000
199.68	-72.727
200.05	-64.286
200.43	-800.000
200.81	285.714
201.18	0.000
201.56	233.333
201.94	0.000
202.31	700.000
202.69	-166.667
203.07	1700.000
203.44	-144.444
203.82	-425.000
204.19	-58.333
204.57	-250.000
204.95	-250.000
205.32	-1600.000
205.70	575.000
206.08	-283.333
206.45	-283.333
206.83	440.000
207.20	-233.333
207.58	-460.000
207.96	-250.000
208.33	-150.000
208.71	183.333
209.08	-166.667
209.46	0.000
209.84	316.667
210.21	1050.000
210.59	1000.000
210.96	800.000
211.34	-450.000
211.71	-262.500
212.09	-2200.000
212.46	0.000
212.84	1200.000
213.22	-380.000
213.59	-725.000
213.97	-50.000
214.34	-500.000
214.72	350.000
215.09	-350.000
215.47	0.000
215.84	214.286
216.22	1150.000
216.59	-340.000
216.97	-320.000
217.34	-550.000
217.72	-87.500
218.09	-625.000
218.47	-550.000
218.84	0.000
219.22	440.000
219.59	-82.353
219.97	-95.000
220.34	1350.000
220.72	-166.667
221.09	-100.000
221.47	-633.333
221.84	-120.000
222.22	-300.000
222.59	0.000
222.97	-162.500
223.34	-460.000
223.72	-2100.000
224.09	-525.000
224.46	-725.000
224.84	-140.000
225.21	-300.000
225.59	-625.000
225.96	-425.000
226.34	-7.692
226.71	316.667
227.08	-750.000
227.46	-46.667
227.83	-525.000
228.21	-78.947
228.58	287.500
228.95	1400.000
229.33	-83.333
229.70	-170.000
230.08	0.000
230.45	240.000
230.82	-300.000
231.20	-50.000
231.57	-150.000
231.95	-136.364
232.32	-72.727
232.69	-25.000
233.07	-400.000
233.44	-70.588
233.81	-130.000
234.19	-33.333
234.56	-77.273
234.93	-20.690
235.31	-26.316
235.68	-55.556
236.05	-90.000
236.43	-7.692
236.80	16.000
237.17	-11.111
237.55	-33.333
237.92	-260.000
238.29	-25.806
238.67	-13.636
239.04	-11.111
239.41	-2.381
239.79	-8.696
240.16	-9.259
240.53	-26.087
240.91	-41.176
241.28	-8.197
241.65	2.985
242.02	10.811
242.40	-3.077
242.77	6.667
243.14	1.220
243.51	-21.053
243.89	1.282
244.26	20.792
244.63	16.667
245.00	6.542
245.38	8.772
245.75	0.000
246.12	11.905
246.49	6.977
246.87	14.286
247.24	17.881
247.61	19.737
247.98	14.765
248.36	13.580
248.73	9.202
249.10	18.579
249.47	18.408
249.84	24.084
250.22	15.544
250.59	21.667
250.96	19.091
251.33	17.347
251.70	17.521
252.08	20.000
252.45	19.262
252.82	16.116
253.19	19.531
253.56	20.152
253.94	18.077
254.31	20.833
254.68	24.476
255.05	25.081
255.42	19.388
255.79	19.741
256.16	21.854
256.54	19.868
256.91	22.951
257.28	21.967
257.65	17.834
258.02	18.584
258.39	21.937
258.76	25.076
259.14	21.552
259.51	21.902
259.88	20.963
260.25	21.667
260.62	21.096
260.99	24.863
261.36	21.984
261.73	21.751
262.10	23.077
262.47	21.984
262.85	23.737
263.22	24.416
263.59	20.526
263.96	23.529
264.33	20.972
264.70	23.210
265.07	22.434
265.44	24.036
265.81	18.981
266.18	23.810
266.55	26.562
266.92	19.134
267.29	22.976
267.66	23.725
268.03	20.524
268.40	20.877
268.77	21.640
269.14	21.366
269.51	24.342
269.88	23.975
270.25	22.535
270.62	22.363
270.99	22.828
271.36	21.782
271.73	21.807
272.10	23.447
272.47	21.844
272.84	21.486
273.21	21.844
273.58	22.581
273.95	17.885
274.32	22.624
274.69	22.824
275.06	24.359
275.43	20.148
275.80	23.280
276.17	21.296
276.54	22.388
276.91	18.068
277.28	22.785
277.65	21.185
278.02	25.184
278.39	19.746
278.76	20.914
279.13	21.277
279.50	21.821
279.87	21.467
280.23	19.718
280.60	19.661
280.97	20.724
281.34	22.071
281.71	21.489
282.08	20.598
282.45	22.586
282.82	21.350
283.19	19.225
283.56	21.311
283.92	20.571
284.29	21.485
284.66	20.525
285.03	20.353
285.40	20.556
285.77	21.207
286.14	20.153
286.51	18.113
286.87	21.327
287.24	20.331
287.61	19.432
287.98	20.695
288.35	21.006
288.72	19.379
289.08	20.059
289.45	20.118
289.82	19.127
290.19	20.977
290.56	20.845
290.93	17.404
291.29	18.871
291.66	17.769
292.03	18.046
292.40	18.095
292.77	20.350
293.13	20.298
293.50	17.608
293.87	18.121
294.24	18.800
294.60	19.343
294.97	15.705
295.34	18.950
295.71	19.042
296.08	17.183
296.44	16.299
296.81	18.392
297.18	15.318
297.55	16.509
297.91	16.370
298.28	15.995
298.65	17.004
299.02	15.702
299.38	17.048
299.75	15.654
300.12	16.898
300.48	16.359
300.85	16.085
301.22	15.772
301.59	15.297
301.95	14.915
302.32	17.778
302.69	14.677
303.05	17.193
303.42	15.854
303.79	15.208
304.15	17.245
304.52	15.222
304.89	14.869
305.25	15.424
305.62	15.465
305.99	15.052
306.35	14.919
306.72	16.960
307.09	15.533
307.45	16.149
307.82	16.347
308.19	15.439
308.55	16.104
308.92	14.898
309.29	15.900
309.65	14.425
310.02	13.762
310.38	15.256
310.75	15.631
311.12	16.587
311.48	15.836
311.85	15.385
312.22	14.042
312.58	15.962
312.95	14.818
313.31	14.815
313.68	15.385
314.05	15.628
314.41	15.574
314.78	15.713
315.14	15.245
315.51	14.958
315.87	15.032
316.24	14.795
316.61	16.075
316.97	14.751
317.34	14.286
317.70	16.332
318.07	14.374
318.43	15.221
318.80	16.555
319.16	15.279
319.53	14.225
319.89	14.373
320.26	15.480
320.62	13.209
320.99	15.143
321.35	14.510
321.72	16.000
322.08	14.878
322.45	14.815
322.81	15.162
323.18	15.133
323.54	15.431
323.91	15.658
324.27	14.716
324.64	15.869
325.00	14.428
325.37	14.414
325.73	15.455
326.10	14.761
326.46	15.147
326.83	16.013
327.19	15.197
327.56	14.071
327.92	15.264
328.29	14.758
328.65	14.908
329.01	14.129
329.38	14.575
329.74	14.726
330.11	14.726
330.47	14.490
330.84	13.781
331.20	15.000
331.56	13.085
331.93	15.649
332.29	14.492
332.66	14.784
333.02	14.740
333.38	14.010
333.75	14.562
334.11	14.929
334.48	13.696
334.84	15.378
335.20	14.190
335.57	14.587
335.93	14.959
336.29	13.810
336.66	14.130
337.02	13.880
337.38	13.690
337.75	14.050
338.11	14.802
338.47	13.978
338.84	13.283
339.20	12.974
339.56	13.262
339.93	13.383
340.29	13.607
340.65	14.112
341.02	14.366
341.38	15.117
341.74	14.366
342.11	13.113
342.47	13.503
342.83	13.929
343.20	13.900
343.56	13.793
343.92	13.691
344.28	13.828
344.65	15.194
345.01	13.027
345.37	13.608
345.73	12.549
346.10	13.807
346.46	12.737
346.82	13.483
347.19	13.445
347.55	14.036
347.91	13.670
348.27	13.505
348.63	14.090
349.00	13.572
349.36	13.532
349.72	13.021
350.08	14.710
350.45	13.612
350.81	12.821
351.17	13.910
351.53	13.798
351.89	13.591
352.26	13.507
352.62	13.507
352.98	11.985
353.34	13.144
353.70	12.096
354.07	13.487
354.43	12.528
354.79	12.939
355.15	12.509
355.51	13.304
355.87	13.538
356.24	13.232
356.60	13.452
356.96	13.640
357.32	12.416
357.68	12.738
358.04	12.425
358.40	12.761
358.77	13.523
359.13	11.521
359.49	12.639
359.85	13.778
360.21	13.343
360.57	12.850
360.93	13.258
361.29	13.123
361.66	12.600
362.02	13.222
362.38	13.212
362.74	12.360
363.10	12.792
363.46	13.019
363.82	11.932
364.18	12.949
364.54	13.762
364.90	13.311
365.26	12.276
365.62	13.333
365.98	12.253
366.35	13.289
366.71	12.993
367.07	11.908
367.43	12.147
367.79	13.603
368.15	12.910
368.51	13.261
368.87	12.867
369.23	12.800
369.59	12.842
369.95	12.508
370.31	12.829
370.67	12.380
371.03	12.673
371.39	12.492
371.75	12.861
372.11	11.856
372.47	12.864
372.83	13.285
373.19	12.875
373.55	12.737
373.91	12.611
374.27	12.354
374.63	12.246
374.99	12.268
375.35	13.377
375.71	12.516
376.07	12.653
376.42	12.657
376.78	11.995
377.14	12.414
377.50	13.093
377.86	12.993
378.22	12.395
378.58	12.961
378.94	12.852
379.30	12.068
379.66	12.346
380.02	13.560
380.38	13.076
380.74	11.944
381.09	11.963
381.45	12.557
381.81	12.998
382.17	12.589
382.53	12.865
382.89	11.851
383.25	12.485
383.61	12.095
383.97	11.955
384.32	12.620
384.68	11.833
385.04	11.972
385.40	12.669
385.76	12.368
386.12	11.969
386.48	13.412
386.83	12.396
387.19	11.530
387.55	11.326
387.91	11.872
388.27	12.587
388.62	11.340
388.98	11.675
389.34	12.669
389.70	12.493
390.06	11.545
390.42	12.410
390.77	12.402
391.13	12.559
391.49	12.258
391.85	11.394
392.20	12.693
392.56	12.109
392.92	12.323
393.28	12.548
393.64	12.291
393.99	13.422
394.35	12.266
394.71	12.695
395.07	11.437
395.42	12.336
395.78	12.553
396.14	12.537
396.50	11.817
396.85	12.463
397.21	11.479
397.57	11.131
397.92	12.658
398.28	12.167
398.64	12.071
399.00	11.309
399.35	12.094
399.71	11.793
400.07	11.286
400.42	11.874
400.78	11.863
401.14	12.009
401.49	12.052
401.85	11.802
402.21	11.877
402.57	12.969
402.92	11.879
403.28	11.241
403.63	12.053
403.99	10.808
404.35	12.166
404.70	12.351
405.06	11.576
405.42	11.885
405.77	12.814
406.13	11.939
406.49	11.205
406.84	11.745
407.20	11.347
407.55	11.084
407.91	12.256
408.27	11.896
408.62	12.333
408.98	10.795
409.34	10.264
409.69	11.125
410.05	11.489
410.40	11.659
410.76	12.002
411.11	12.098
411.47	12.469
411.83	12.640
412.18	12.289
412.54	11.559
412.89	11.816
413.25	11.682
413.60	10.569
413.96	12.529
414.31	12.181
414.67	11.807
415.03	11.077
415.38	11.349
415.74	11.790
416.09	12.030
416.45	11.709
416.80	11.506
417.16	10.856
417.51	12.516
417.87	11.772
418.22	11.737
418.58	10.905
418.93	12.049
419.29	12.145
419.64	11.405
420.00	11.751
420.35	12.016
420.71	11.086
421.06	11.271
421.42	11.525
421.77	11.093
422.12	11.469
422.48	12.084
422.83	12.432
423.19	12.202
423.54	12.887
423.90	12.148
424.25	12.213
424.61	11.079
424.96	11.862
425.31	12.208
425.67	11.272
426.02	11.732
426.38	12.227
426.73	11.830
427.09	13.091
427.44	11.742
427.79	11.332
428.15	11.358
428.50	11.685
428.85	12.285
429.21	11.755
429.56	11.550
429.92	11.843
430.27	11.759
430.62	11.724
430.98	12.248
431.33	11.632
431.68	11.590
432.04	12.037
432.39	12.373
432.74	11.872
433.10	12.115
433.45	11.538
433.80	12.339
434.16	11.829
434.51	12.436
434.86	11.998
435.22	12.487
435.57	12.087
435.92	12.354
436.28	11.889
436.63	12.125
436.98	12.292
437.34	12.401
437.69	11.502
438.04	12.004
438.39	11.545
438.75	11.400
439.10	12.844
439.45	12.353
439.81	12.203
440.16	12.332
440.51	12.988
440.86	12.007
441.22	12.433
441.57	12.159
441.92	12.609
442.27	12.828
442.63	12.618
442.98	12.647
443.33	12.415
443.68	12.983
444.03	13.688
444.39	12.714
444.74	13.476
445.09	12.114
445.44	12.381
445.79	12.644
446.15	12.795
446.50	12.610
446.85	13.278
447.20	12.766
447.55	13.285
447.91	12.932
448.26	12.685
448.61	12.752
448.96	13.197
449.31	13.150
449.66	12.854
450.02	12.658
450.37	13.053
450.72	12.594
451.07	12.984
451.42	13.114
451.77	12.896
452.12	13.544
452.47	12.418
452.83	12.387
453.18	12.434
453.53	12.464
453.88	12.369
454.23	12.655
454.58	12.768
454.93	13.107
455.28	13.365
455.63	12.848
455.98	13.017
456.34	12.426
456.69	12.640
457.04	12.352
457.39	12.195
457.74	13.199
458.09	12.191
458.44	12.931
458.79	12.945
459.14	12.900
459.49	11.885
459.84	13.641
460.19	12.826
460.54	12.947
460.89	12.811
461.24	12.299
461.59	12.673
461.94	12.265
462.29	13.382
462.64	13.337
462.99	12.680
463.34	12.784
463.69	13.423
464.04	13.285
464.39	13.229
464.74	13.512
465.09	12.687
465.44	12.876
465.79	13.273
466.14	12.194
466.49	13.474
466.84	12.287
467.19	12.948
467.54	12.573
467.89	12.241
468.24	12.853
468.59	12.565
468.94	13.054
469.29	12.358
469.64	12.778
469.99	13.066
470.34	13.119
470.68	12.167
471.03	12.901
471.38	13.211
471.73	12.744
472.08	12.817
472.43	12.523
472.78	13.350
473.13	12.705
473.48	12.931
473.83	13.755
474.17	13.482
474.52	12.327
474.87	13.787
475.22	13.014
475.57	13.136
475.92	13.539
476.27	13.525
476.61	13.344
476.96	12.774
477.31	13.762
477.66	14.061
478.01	12.862
478.36	13.759
478.70	12.414
479.05	12.883
479.40	13.080
479.75	13.208
480.10	12.838
480.45	13.674
480.79	13.061
481.14	13.235
481.49	13.130
481.84	13.359
482.19	14.194
482.53	13.599
482.88	13.070
483.23	14.317
483.58	13.144
483.92	13.165
484.27	12.997
484.62	12.913
484.97	13.453
485.31	13.059
485.66	12.881
486.01	12.742
486.36	12.858
486.70	13.664
487.05	13.926
487.40	14.302
487.75	14.071
488.09	14.342
488.44	13.933
488.79	14.098
489.13	13.143
489.48	13.165
489.83	12.998
490.17	12.677
490.52	13.095
490.87	13.071
491.22	13.215
491.56	13.353
491.91	13.563
492.26	13.198
492.60	12.505
492.95	13.208
493.30	12.550
493.64	13.447
493.99	13.202
494.34	12.761
494.68	12.805
495.03	12.907
495.37	12.916
495.72	13.469
496.07	13.146
496.41	12.613
496.76	13.094
497.11	12.739
497.45	13.336
497.80	13.816
498.14	12.925
498.49	13.833
498.84	13.163
499.18	12.641
499.53	13.722
499.87	13.275
500.22	12.956
500.56	13.585
500.91	14.050
501.26	13.182
501.60	13.124
501.95	13.504
502.29	12.769
502.64	13.030
502.98	13.719
503.33	12.700
503.67	12.909
504.02	13.047
504.36	13.047
504.71	13.689
505.06	12.415
505.40	12.797
505.75	13.707
506.09	13.674
506.44	13.510
506.78	13.716
507.13	13.785
507.47	13.264
507.82	13.873
508.16	12.859
508.51	13.408
508.85	13.179
509.19	13.595
509.54	13.785
509.88	13.065
510.23	12.919
510.57	14.113
510.92	12.917
511.26	13.131
511.61	13.182
511.95	13.763
512.30	13.836
512.64	12.494
512.98	13.657
513.33	13.710
513.67	13.463
514.02	13.746
514.36	13.657
514.70	13.438
515.05	13.660
515.39	13.648
515.74	14.051
516.08	13.312
516.42	14.338
516.77	13.617
517.11	12.996
517.46	13.733
517.80	13.736
518.14	14.635
518.49	13.774
518.83	13.465
519.17	12.655
519.52	13.941
519.86	12.883
520.20	13.898
520.55	13.910
520.89	13.176
521.23	13.512
521.58	13.446
521.92	13.768
522.26	13.173
522.61	13.310
522.95	12.976
523.29	12.989
523.64	13.789
523.98	13.805
524.32	13.926
524.66	13.261
525.01	13.760
525.35	12.809
525.69	14.037
526.04	13.146
526.38	13.678
526.72	13.379
527.06	13.666
527.41	13.469
527.75	14.014
528.09	13.341
528.43	13.618
528.78	13.642
529.12	13.016
529.46	13.940
529.80	12.815
530.15	14.203
530.49	13.049
530.83	13.991
531.17	13.142
531.51	12.154
531.86	13.522
532.20	13.902
532.54	12.747
532.88	13.818
533.22	13.730
533.57	13.272
533.91	14.366
534.25	13.228
534.59	12.989
534.93	12.960
535.27	13.239
535.62	13.815
535.96	14.120
536.30	12.691
536.64	13.634
536.98	13.961
537.32	13.642
537.66	13.662
538.01	13.233
538.35	12.789
538.69	13.101
539.03	13.734
539.37	12.367
539.71	13.333
540.05	13.549
540.39	12.775
540.73	12.811
541.07	14.224
541.42	12.995
541.76	12.693
542.10	13.571
542.44	12.728
542.78	13.747
543.12	12.574
543.46	12.882
543.80	13.249
544.14	13.704
544.48	13.475
544.82	12.926
545.16	13.357
545.50	12.882
545.84	13.105
546.18	14.630
546.52	12.994
546.86	13.333
547.20	13.931
547.54	13.171
547.88	13.683
548.22	13.860
548.56	13.224
548.90	13.672
549.24	13.252
549.58	13.880
549.92	13.839
550.26	14.110
550.60	13.657
550.94	13.777
551.28	13.663
551.62	12.938
551.96	12.751
552.30	13.639
552.64	14.126
552.98	13.600
553.32	13.312
553.66	13.119
554.00	14.061
554.34	12.741
554.68	13.299
555.02	13.141
555.36	14.201
555.69	12.044
556.03	13.556
556.37	14.143
556.71	13.570
557.05	13.099
557.39	13.006
557.73	13.144
558.07	13.841
558.41	13.355
558.75	13.928
559.08	13.013
559.42	13.032
559.76	13.501
560.10	13.597
560.44	13.325
560.78	14.625
561.12	13.793
561.45	13.747
561.79	13.004
562.13	13.617
562.47	12.577
562.81	13.354
563.15	13.952
563.48	13.611
563.82	12.757
564.16	13.325
564.50	13.111
564.84	13.628
565.17	13.176
565.51	13.003
565.85	12.945
566.19	13.134
566.52	13.751
566.86	13.582
567.20	13.649
567.54	13.330
567.88	14.067
568.21	13.686
568.55	13.669
568.89	13.345
569.23	13.392
569.56	12.974
569.90	13.614
570.24	13.120
570.57	13.117
570.91	13.166
571.25	13.509
571.59	13.582
571.92	13.380
572.26	13.711
572.60	13.432
572.93	13.749
573.27	13.543
573.61	13.632
573.95	13.280
574.28	13.735
574.62	13.188
574.96	13.366
575.29	13.527
575.63	13.514
575.97	13.126
576.30	13.570
576.64	13.290
576.98	13.554
577.31	13.425
577.65	13.785
577.98	13.422
578.32	13.201
578.66	13.532
578.99	13.250
579.33	13.917
579.67	13.531
580.00	13.284
580.34	13.220
580.67	13.350
581.01	13.284
581.35	13.910
581.68	13.363
582.02	13.469
582.35	13.861
582.69	13.873
583.02	13.923
583.36	13.843
583.70	13.770
584.03	13.967
584.37	13.848
584.70	13.325
585.04	13.439
585.37	13.367
585.71	13.355
586.04	13.298
586.38	13.812
586.72	13.387
587.05	13.584
587.39	13.712
587.72	13.708
588.06	14.120
588.39	14.015
588.73	13.624
589.06	14.165
589.40	14.198
589.73	14.171
590.07	13.296
590.40	14.131
590.73	13.998
591.07	14.110
591.40	13.219
591.74	13.235
592.07	13.683
592.41	13.722
592.74	13.490
593.08	13.535
593.41	13.969
593.75	13.764
594.08	14.238
594.41	13.846
594.75	13.982
595.08	13.324
595.42	13.766
595.75	14.110
596.09	13.724
596.42	13.400
596.75	13.547
597.09	13.859
597.42	13.627
597.75	13.838
598.09	13.889
598.42	14.154
598.76	13.336
599.09	13.279
599.42	13.678
599.76	13.140
600.09	14.081
600.42	13.380
600.76	13.705
601.09	13.873
601.42	13.766
601.76	13.966
602.09	13.903
602.42	13.922
602.76	13.173
603.09	13.913
603.42	14.053
603.76	12.932
604.09	14.088
604.42	13.835
604.76	13.508
605.09	13.841
605.42	13.676
605.75	13.462
606.09	13.438
606.42	13.389
606.75	13.531
607.09	13.364
607.42	13.526
607.75	13.482
608.08	14.167
608.42	13.624
608.75	13.640
609.08	13.285
609.41	12.836
609.75	13.795
610.08	13.852
610.41	13.891
610.74	13.613
611.07	13.677
611.41	14.260
611.74	13.580
612.07	13.885
612.40	13.023
612.73	13.985
613.07	13.545
613.40	13.571
613.73	13.433
614.06	14.230
614.39	13.557
614.72	13.392
615.06	13.041
615.39	13.291
615.72	13.602
616.05	13.939
616.38	13.925
616.71	13.689
617.05	12.194
617.38	13.697
617.71	14.309
618.04	13.923
618.37	14.044
618.70	13.348
619.03	13.560
619.36	13.872
619.69	12.300
620.03	14.062
620.36	13.067
620.69	12.893
621.02	14.108
621.35	13.498
621.68	13.304
622.01	13.310
622.34	12.204
622.67	12.096
623.00	11.943
623.33	14.068
623.66	12.711
623.99	13.430
624.32	14.620
624.65	12.484
624.99	13.329
625.32	14.370
625.65	13.958
625.98	12.610
626.31	13.749
626.64	13.407
626.97	12.453
627.30	13.060
627.63	12.453
627.96	13.814
628.29	12.918
628.62	12.007
628.95	13.146
629.28	12.914
629.61	12.205
629.94	12.301
630.26	12.712
630.59	12.781
630.92	11.948
631.25	12.522
