SpectraSuite Data File
++++++++++++++++++++++++++++++++++++
Date: Thu May 14 15:56:35 PDT 2015
User: schluterlab
Dark Spectrum Present: Yes
Reference Spectrum Present: Yes
Number of Sampled Component Spectra: 1
Spectrometers: USB2E3373
Integration Time (usec): 3000 (USB2E3373)
Spectra Averaged: 3 (USB2E3373)
Boxcar Smoothing: 0 (USB2E3373)
Correct for Electrical Dark: No (USB2E3373)
Strobe/Lamp Enabled: No (USB2E3373)
Correct for Detector Non-linearity: No (USB2E3373)
Correct for Stray Light: No (USB2E3373)
Number of Pixels in Processed Spectrum: 2048
>>>>>Begin Processed Spectral Data<<<<<
178.53	0.000
178.91	371.429
179.29	-3300.000
179.67	-3500.000
180.04	335.714
180.42	270.000
180.80	480.000
181.18	-2100.000
181.56	-2400.000
181.94	450.000
182.31	-650.000
182.69	766.667
183.07	-700.000
183.45	525.000
183.83	-383.333
184.20	-1166.667
184.58	1700.000
184.96	-475.000
185.34	-277.778
185.72	-340.000
186.09	344.444
186.47	1400.000
186.85	540.000
187.23	-411.111
187.61	-2900.000
187.98	420.000
188.36	750.000
188.74	-750.000
189.12	-700.000
189.49	-118.750
189.87	-350.000
190.25	-133.333
190.63	-300.000
191.00	-444.444
191.38	0.000
191.76	-850.000
192.14	-466.667
192.51	1500.000
192.89	-316.667
193.27	0.000
193.65	-400.000
194.02	-3600.000
194.40	-242.857
194.78	357.143
195.15	0.000
195.53	-181.818
195.91	0.000
196.29	-500.000
196.66	-207.692
197.04	-2700.000
197.42	-300.000
197.79	-1300.000
198.17	-300.000
198.55	-400.000
198.92	-166.667
199.30	-287.500
199.68	-181.818
200.05	-164.286
200.43	-1450.000
200.81	557.143
201.18	0.000
201.56	377.778
201.94	0.000
202.31	1100.000
202.69	-333.333
203.07	2700.000
203.44	-288.889
203.82	-1025.000
204.19	-275.000
204.57	-316.667
204.95	-337.500
205.32	-2300.000
205.70	425.000
206.08	-383.333
206.45	-350.000
206.83	640.000
207.20	-333.333
207.58	-760.000
207.96	-400.000
208.33	-350.000
208.71	233.333
209.08	-400.000
209.46	0.000
209.84	566.667
210.21	850.000
210.59	1300.000
210.96	900.000
211.34	-525.000
211.71	-287.500
212.09	-2300.000
212.46	0.000
212.84	1650.000
213.22	-620.000
213.59	-825.000
213.97	-240.000
214.34	-866.667
214.72	533.333
215.09	-825.000
215.47	0.000
215.84	471.429
216.22	1450.000
216.59	-520.000
216.97	-500.000
217.34	-650.000
217.72	-250.000
218.09	-575.000
218.47	-825.000
218.84	0.000
219.22	620.000
219.59	-123.529
219.97	-130.000
220.34	1950.000
220.72	-277.778
221.09	-176.923
221.47	-766.667
221.84	-240.000
222.22	-428.571
222.59	0.000
222.97	-275.000
223.34	-600.000
223.72	-3600.000
224.09	-725.000
224.46	-500.000
224.84	-260.000
225.21	-428.571
225.59	-800.000
225.96	-675.000
226.34	-84.615
226.71	583.333
227.08	-1450.000
227.46	-153.333
227.83	-775.000
228.21	-110.526
228.58	237.500
228.95	1900.000
229.33	-200.000
229.70	-190.000
230.08	-31.579
230.45	240.000
230.82	-666.667
231.20	-178.571
231.57	-158.333
231.95	-272.727
232.32	-172.727
232.69	-80.000
233.07	-575.000
233.44	-135.294
233.81	-290.000
234.19	-122.222
234.56	-63.636
234.93	-31.034
235.31	-100.000
235.68	-122.222
236.05	-150.000
236.43	-46.154
236.80	-32.000
237.17	-66.667
237.55	-36.364
237.92	-260.000
238.29	-41.935
238.67	-43.182
239.04	-36.111
239.41	-40.476
239.79	-26.087
240.16	-18.519
240.53	-17.391
240.91	-23.529
241.28	8.197
241.65	-8.955
242.02	0.000
242.40	-1.538
242.77	2.667
243.14	2.439
243.51	10.526
243.89	1.282
244.26	13.861
244.63	16.667
245.00	25.234
245.38	15.789
245.75	14.159
246.12	21.429
246.49	18.605
246.87	24.286
247.24	21.192
247.61	22.368
247.98	14.765
248.36	23.457
248.73	20.245
249.10	22.951
249.47	35.821
249.84	27.749
250.22	27.979
250.59	30.000
250.96	31.818
251.33	22.449
251.70	29.915
252.08	27.083
252.45	32.377
252.82	28.926
253.19	28.906
253.56	30.798
253.94	30.769
254.31	29.545
254.68	30.420
255.05	30.945
255.42	27.211
255.79	30.744
256.16	28.477
256.54	31.126
256.91	34.098
257.28	29.836
257.65	28.662
258.02	24.779
258.39	30.199
258.76	33.333
259.14	31.609
259.51	31.988
259.88	31.728
260.25	32.778
260.62	32.877
260.99	32.240
261.36	34.316
261.73	27.586
262.10	30.769
262.47	31.903
262.85	34.091
263.22	31.169
263.59	30.000
263.96	29.156
264.33	32.481
264.70	32.346
265.07	34.368
265.44	32.880
265.81	31.019
266.18	31.973
266.55	31.920
266.92	33.030
267.29	30.853
267.66	33.259
268.03	31.878
268.40	30.898
268.77	31.207
269.14	29.956
269.51	30.702
269.88	32.582
270.25	32.998
270.62	33.122
270.99	31.111
271.36	31.683
271.73	30.452
272.10	33.267
272.47	31.062
272.84	28.916
273.21	30.261
273.58	33.871
273.95	29.231
274.32	27.376
274.69	29.207
275.06	31.319
275.43	29.390
275.80	30.688
276.17	30.370
276.54	29.664
276.91	28.801
277.28	28.752
277.65	29.443
278.02	32.537
278.39	31.341
278.76	30.228
279.13	30.319
279.50	30.241
279.87	31.127
280.23	29.754
280.60	30.339
280.97	29.770
281.34	29.372
281.71	28.934
282.08	31.728
282.45	28.805
282.82	29.356
283.19	29.241
283.56	29.508
283.92	33.333
284.29	29.068
284.66	29.064
285.03	28.205
285.40	27.666
285.77	30.186
286.14	30.229
286.51	31.202
286.87	28.752
287.24	31.024
287.61	30.344
287.98	28.399
288.35	29.882
288.72	30.473
289.08	33.089
289.45	29.586
289.82	30.873
290.19	30.747
290.56	32.394
290.93	31.669
291.29	30.303
291.66	30.028
292.03	29.037
292.40	30.068
292.77	29.650
293.13	29.229
293.50	29.172
293.87	28.725
294.24	31.467
294.60	30.341
294.97	29.262
295.34	30.474
295.71	27.743
296.08	28.553
296.44	28.676
296.81	31.547
297.18	30.884
297.55	29.599
297.91	29.063
298.28	30.687
298.65	30.797
299.02	27.981
299.38	28.604
299.75	30.374
300.12	30.093
300.48	28.687
300.85	30.034
301.22	29.866
301.59	28.425
301.95	30.960
302.32	29.778
302.69	30.778
303.05	29.162
303.42	30.488
303.79	30.000
304.15	29.548
304.52	28.964
304.89	30.471
305.25	28.364
305.62	28.213
305.99	29.691
306.35	31.552
306.72	30.610
307.09	30.355
307.45	31.781
307.82	30.172
308.19	29.667
308.55	30.087
308.92	29.796
309.29	29.981
309.65	29.435
310.02	29.802
310.38	29.429
310.75	29.417
311.12	29.434
311.48	31.378
311.85	30.959
312.22	31.594
312.58	29.859
312.95	29.541
313.31	29.720
313.68	29.853
314.05	30.714
314.41	30.783
314.78	30.609
315.14	30.490
315.51	31.025
315.87	31.593
316.24	30.868
316.61	31.172
316.97	28.778
317.34	29.894
317.70	31.616
318.07	30.423
318.43	30.442
318.80	30.100
319.16	29.528
319.53	29.563
319.89	29.010
320.26	31.317
320.62	30.408
320.99	30.102
321.35	30.037
321.72	32.000
322.08	31.199
322.45	31.075
322.81	31.498
323.18	32.389
323.54	31.638
323.91	32.562
324.27	31.842
324.64	31.570
325.00	32.007
325.37	32.842
325.73	32.479
326.10	33.739
326.46	33.306
326.83	33.707
327.19	33.386
327.56	34.862
327.92	33.045
328.29	32.097
328.65	33.501
329.01	33.756
329.38	34.120
329.74	36.216
330.11	34.846
330.47	34.878
330.84	33.419
331.20	35.333
331.56	34.229
331.93	34.393
332.29	35.000
332.66	35.465
333.02	34.087
333.38	33.977
333.75	34.343
334.11	35.279
334.48	35.231
334.84	35.854
335.20	33.669
335.57	34.907
335.93	34.215
336.29	34.193
336.66	33.389
337.02	35.702
337.38	33.163
337.75	33.140
338.11	34.230
338.47	32.920
338.84	33.756
339.20	33.783
339.56	33.937
339.93	32.923
340.29	34.622
340.65	34.225
341.02	34.078
341.38	33.145
341.74	32.930
342.11	32.985
342.47	31.136
342.83	33.897
343.20	33.361
343.56	35.124
343.92	33.387
344.28	33.594
344.65	33.798
345.01	32.449
345.37	32.193
345.73	32.736
346.10	32.839
346.46	33.703
346.82	31.086
347.19	34.072
347.55	32.701
347.91	33.135
348.27	33.460
348.63	32.216
349.00	31.096
349.36	32.788
349.72	32.143
350.08	32.392
350.45	31.711
350.81	31.297
351.17	32.556
351.53	33.434
351.89	31.891
352.26	32.910
352.62	32.090
352.98	33.282
353.34	32.562
353.70	32.435
354.07	32.042
354.43	33.030
354.79	31.862
355.15	31.714
355.51	33.114
355.87	32.311
356.24	32.395
356.60	32.520
356.96	32.543
357.32	31.822
357.68	32.284
358.04	32.036
358.40	32.239
358.77	32.895
359.13	30.576
359.49	31.599
359.85	31.690
360.21	32.568
360.57	31.730
360.93	31.453
361.29	31.439
361.66	32.730
362.02	33.055
362.38	31.904
362.74	32.123
363.10	32.531
363.46	32.341
363.82	31.676
364.18	32.301
364.54	32.365
364.90	32.977
365.26	32.000
365.62	32.867
365.98	32.199
366.35	32.081
366.71	32.789
367.07	32.341
367.43	32.173
367.79	32.847
368.15	32.642
368.51	31.935
368.87	31.483
369.23	31.467
369.59	32.240
369.95	32.792
370.31	30.993
370.67	31.499
371.03	32.064
371.39	32.102
371.75	31.912
372.11	32.453
372.47	32.024
372.83	33.704
373.19	32.422
373.55	31.978
373.91	31.970
374.27	32.600
374.63	33.085
374.99	32.294
375.35	32.273
375.71	32.129
376.07	31.569
376.42	32.809
376.78	33.002
377.14	32.190
377.50	32.385
377.86	32.451
378.22	32.934
378.58	32.580
378.94	31.221
379.30	32.103
379.66	33.686
380.02	33.064
380.38	33.813
380.74	32.901
381.09	32.927
381.45	33.864
381.81	34.368
382.17	32.957
382.53	32.398
382.89	31.264
383.25	32.708
383.61	32.407
383.97	32.921
384.32	33.433
384.68	32.715
385.04	34.124
385.40	33.471
385.76	33.998
386.12	33.154
386.48	33.471
386.83	32.956
387.19	33.140
387.55	32.277
387.91	33.562
388.27	33.083
388.62	33.391
388.98	32.826
389.34	33.648
389.70	33.411
390.06	33.333
390.42	32.590
390.77	33.895
391.13	33.979
391.49	33.514
391.85	33.636
392.20	33.986
392.56	33.904
392.92	33.697
393.28	33.665
393.64	33.408
393.99	34.166
394.35	34.287
394.71	33.713
395.07	33.832
395.42	34.495
395.78	34.186
396.14	33.928
396.50	34.086
396.85	33.751
397.21	33.432
397.57	33.981
397.92	34.708
398.28	34.329
398.64	33.867
399.00	33.665
399.35	33.665
399.71	34.348
400.07	34.868
400.42	34.342
400.78	34.606
401.14	33.808
401.49	33.485
401.85	35.581
402.21	35.052
402.57	35.270
402.92	34.279
403.28	33.489
403.63	34.308
403.99	34.561
404.35	34.338
404.70	34.901
405.06	34.022
405.42	34.719
405.77	34.624
406.13	34.198
406.49	34.572
406.84	35.346
407.20	34.656
407.55	34.949
407.91	35.261
408.27	35.159
408.62	34.671
408.98	35.984
409.34	34.604
409.69	34.549
410.05	35.463
410.40	36.195
410.76	34.829
411.11	35.944
411.47	34.828
411.83	36.390
412.18	36.627
412.54	34.795
412.89	35.215
413.25	35.722
413.60	35.899
413.96	35.431
414.31	36.204
414.67	35.540
415.03	35.877
415.38	36.696
415.74	35.308
416.09	36.212
416.45	35.504
416.80	35.373
417.16	35.632
417.51	36.177
417.87	36.665
418.22	36.108
418.58	36.617
418.93	36.321
419.29	37.423
419.64	35.834
420.00	36.795
420.35	36.440
420.71	36.186
421.06	35.998
421.42	37.041
421.77	36.403
422.12	36.152
422.48	36.559
422.83	37.240
423.19	36.711
423.54	37.832
423.90	36.610
424.25	37.493
424.61	37.256
424.96	36.848
425.31	37.420
425.67	36.769
426.02	37.687
426.38	37.371
426.73	36.663
427.09	37.889
427.44	36.920
427.79	36.595
428.15	36.587
428.50	37.584
428.85	36.625
429.21	38.138
429.56	37.117
429.92	37.690
430.27	38.458
430.62	37.811
430.98	37.678
431.33	37.341
431.68	36.830
432.04	39.005
432.39	38.190
432.74	37.614
433.10	37.426
433.45	37.291
433.80	38.197
434.16	38.275
434.51	37.821
434.86	39.197
435.22	39.745
435.57	38.620
435.92	38.843
436.28	39.078
436.63	38.558
436.98	37.574
437.34	38.444
437.69	37.920
438.04	37.864
438.39	38.024
438.75	38.517
439.10	38.953
439.45	39.352
439.81	37.853
440.16	38.231
440.51	39.075
440.86	38.466
441.22	38.960
441.57	38.994
441.92	37.827
442.27	39.949
442.63	39.841
442.98	38.847
443.33	39.506
443.68	39.544
444.03	39.746
444.39	39.297
444.74	39.867
445.09	39.128
445.44	39.410
445.79	39.416
446.15	38.849
446.50	38.760
446.85	39.640
447.20	39.652
447.55	39.592
447.91	39.319
448.26	39.852
448.61	39.639
448.96	40.343
449.31	39.767
449.66	38.943
450.02	40.823
450.37	39.904
450.72	39.828
451.07	40.262
451.42	39.284
451.77	38.911
452.12	39.334
452.47	39.394
452.83	40.709
453.18	39.288
453.53	39.747
453.88	39.757
454.23	40.734
454.58	40.104
454.93	39.442
455.28	39.374
455.63	40.648
455.98	40.391
456.34	40.754
456.69	39.800
457.04	41.608
457.39	40.022
457.74	41.331
458.09	40.198
458.44	41.272
458.79	39.608
459.14	39.801
459.49	40.238
459.84	40.189
460.19	41.199
460.54	40.943
460.89	40.815
461.24	40.460
461.59	41.063
461.94	39.076
462.29	40.817
462.64	40.616
462.99	39.422
463.34	40.883
463.69	39.508
464.04	39.744
464.39	40.303
464.74	39.681
465.09	40.773
465.44	41.202
465.79	40.666
466.14	40.334
466.49	40.368
466.84	41.047
467.19	41.272
467.54	38.954
467.89	40.460
468.24	42.105
468.59	40.475
468.94	40.326
469.29	41.812
469.64	41.195
469.99	41.810
470.34	41.399
470.68	41.422
471.03	42.109
471.38	41.923
471.73	40.312
472.08	41.307
472.43	40.759
472.78	40.932
473.13	42.162
473.48	41.873
473.83	41.439
474.17	41.266
474.52	43.175
474.87	41.251
475.22	41.634
475.57	41.693
475.92	40.966
476.27	41.321
476.61	41.537
476.96	42.231
477.31	41.634
477.66	42.078
478.01	42.145
478.36	41.276
478.70	41.921
479.05	42.587
479.40	42.201
479.75	41.595
480.10	41.497
480.45	41.203
480.79	40.952
481.14	41.406
481.49	42.572
481.84	41.601
482.19	42.237
482.53	41.976
482.88	42.136
483.23	41.574
483.58	42.402
483.92	40.913
484.27	41.914
484.62	42.120
484.97	41.213
485.31	40.760
485.66	38.671
486.01	37.802
486.36	38.160
486.70	39.563
487.05	41.640
487.40	40.632
487.75	41.221
488.09	41.195
488.44	40.074
488.79	41.551
489.13	40.949
489.48	41.359
489.83	41.288
490.17	42.284
490.52	41.995
490.87	42.343
491.22	42.981
491.56	42.619
491.91	42.477
492.26	42.968
492.60	42.457
492.95	41.729
493.30	41.999
493.64	42.663
493.99	42.719
494.34	41.943
494.68	41.285
495.03	42.996
495.37	43.187
495.72	43.220
496.07	42.945
496.41	41.828
496.76	42.952
497.11	42.463
497.45	41.692
497.80	43.447
498.14	43.583
498.49	42.325
498.84	42.824
499.18	42.780
499.53	42.870
499.87	41.890
500.22	41.941
500.56	42.735
500.91	42.471
501.26	43.955
501.60	42.643
501.95	42.944
502.29	42.606
502.64	42.589
502.98	42.192
503.33	41.296
503.67	42.303
504.02	42.820
504.36	43.119
504.71	43.041
505.06	43.201
505.40	42.505
505.75	42.851
506.09	43.508
506.44	42.990
506.78	43.440
507.13	43.338
507.47	43.534
507.82	43.087
508.16	42.878
508.51	43.132
508.85	43.836
509.19	43.439
509.54	43.468
509.88	43.273
510.23	44.099
510.57	43.499
510.92	44.122
511.26	43.434
511.61	42.347
511.95	42.899
512.30	45.150
512.64	44.078
512.98	43.622
513.33	45.010
513.67	44.773
514.02	45.069
514.36	43.223
514.70	44.583
515.05	44.369
515.39	45.039
515.74	44.327
516.08	45.219
516.42	45.421
516.77	46.109
517.11	44.507
517.46	45.175
517.80	45.430
518.14	45.267
518.49	46.095
518.83	43.853
519.17	45.342
519.52	45.335
519.86	44.298
520.20	45.367
520.55	45.071
520.89	46.622
521.23	44.333
521.58	46.045
521.92	45.892
522.26	44.960
522.61	46.412
522.95	45.732
523.29	46.724
523.64	45.291
523.98	45.693
524.32	46.762
524.66	44.849
525.01	44.507
525.35	45.261
525.69	44.722
526.04	45.580
526.38	46.092
526.72	45.905
527.06	46.862
527.41	45.714
527.75	46.615
528.09	45.218
528.43	45.411
528.78	44.566
529.12	44.897
529.46	44.857
529.80	45.137
530.15	45.333
530.49	45.967
530.83	44.746
531.17	44.922
531.51	46.270
531.86	45.553
532.20	46.159
532.54	45.901
532.88	46.000
533.22	44.903
533.57	43.912
533.91	45.398
534.25	45.732
534.59	45.057
534.93	44.312
535.27	43.718
535.62	44.741
535.96	45.555
536.30	44.242
536.64	45.766
536.98	46.310
537.32	45.556
537.66	45.664
538.01	44.773
538.35	44.945
538.69	44.591
539.03	46.107
539.37	44.700
539.71	44.505
540.05	45.743
540.39	44.010
540.73	44.505
541.07	44.513
541.42	44.300
541.76	43.832
542.10	44.089
542.44	43.849
542.78	45.499
543.12	43.981
543.46	45.238
543.80	43.645
544.14	43.686
544.48	43.499
544.82	44.943
545.16	45.975
545.50	44.398
545.84	43.172
546.18	45.679
546.52	44.713
546.86	44.214
547.20	45.038
547.54	44.632
547.88	43.942
548.22	44.094
548.56	43.827
548.90	42.448
549.24	45.653
549.58	44.290
549.92	45.408
550.26	44.725
550.60	43.969
550.94	45.602
551.28	44.554
551.62	45.889
551.96	44.401
552.30	45.379
552.64	43.871
552.98	45.165
553.32	45.981
553.66	44.373
554.00	44.010
554.34	44.402
554.68	43.641
555.02	45.532
555.36	45.036
555.69	43.498
556.03	43.443
556.37	43.617
556.71	44.578
557.05	44.920
557.39	44.194
557.73	43.461
558.07	43.576
558.41	43.787
558.75	45.030
559.08	46.277
559.42	43.759
559.76	44.030
560.10	43.603
560.44	43.799
560.78	43.500
561.12	43.534
561.45	42.762
561.79	42.491
562.13	44.116
562.47	42.725
562.81	44.367
563.15	43.434
563.48	43.630
563.82	43.349
564.16	41.793
564.50	43.325
564.84	43.127
565.17	42.824
565.51	42.348
565.85	43.052
566.19	41.647
566.52	42.774
566.86	43.181
567.20	41.816
567.54	41.742
567.88	42.661
568.21	41.996
568.55	41.295
568.89	41.353
569.23	40.515
569.56	40.289
569.90	39.594
570.24	39.663
570.57	38.582
570.91	38.151
571.25	37.923
571.59	38.575
571.92	37.713
572.26	36.977
572.60	37.892
572.93	37.824
573.27	37.848
573.61	37.057
573.95	37.048
574.28	36.440
574.62	36.585
574.96	36.061
575.29	36.594
575.63	36.983
575.97	37.078
576.30	36.689
576.64	36.722
576.98	36.674
577.31	36.640
577.65	36.422
577.98	35.919
578.32	35.576
578.66	35.846
578.99	35.941
579.33	36.772
579.67	36.650
580.00	36.165
580.34	36.693
580.67	36.077
581.01	36.218
581.35	35.515
581.68	35.563
582.02	35.179
582.35	35.597
582.69	36.401
583.02	36.255
583.36	36.188
583.70	36.719
584.03	36.381
584.37	36.435
584.70	35.770
585.04	36.503
585.37	36.014
585.71	35.728
586.04	35.931
586.38	35.562
586.72	35.498
587.05	36.633
587.39	36.849
587.72	36.435
588.06	36.388
588.39	36.296
588.73	35.661
589.06	36.315
589.40	37.431
589.73	37.018
590.07	36.804
590.40	37.221
590.73	37.646
591.07	37.453
591.40	37.364
591.74	37.003
592.07	37.475
592.41	37.106
592.74	36.706
593.08	35.828
593.41	36.016
593.75	35.374
594.08	37.110
594.41	36.026
594.75	36.898
595.08	36.810
595.42	36.429
595.75	36.874
596.09	36.835
596.42	37.728
596.75	37.514
597.09	37.939
597.42	37.147
597.75	37.162
598.09	37.262
598.42	37.475
598.76	35.728
599.09	35.956
599.42	35.434
599.76	35.127
600.09	35.636
600.42	35.335
600.76	35.964
601.09	35.878
601.42	35.359
601.76	36.034
602.09	35.490
602.42	35.914
602.76	36.421
603.09	35.866
603.42	36.236
603.76	36.998
604.09	36.302
604.42	36.037
604.76	36.339
605.09	36.338
605.42	37.201
605.75	35.654
606.09	34.938
606.42	35.534
606.75	34.483
607.09	35.868
607.42	35.645
607.75	35.756
608.08	35.478
608.42	35.711
608.75	36.194
609.08	36.375
609.41	36.039
609.75	35.938
610.08	37.379
610.41	35.726
610.74	36.092
611.07	35.835
611.41	36.637
611.74	36.998
612.07	36.933
612.40	36.787
612.73	38.093
613.07	37.017
613.40	37.873
613.73	36.880
614.06	36.359
614.39	36.297
614.72	36.875
615.06	35.371
615.39	36.539
615.72	35.640
616.05	36.425
616.38	37.386
616.71	36.729
617.05	35.836
617.38	37.132
617.71	36.717
618.04	36.751
618.37	37.213
618.70	37.726
619.03	37.814
619.36	36.991
619.69	37.284
620.03	37.100
620.36	36.258
620.69	37.323
621.02	38.451
621.35	40.203
621.68	39.190
622.01	37.651
622.34	37.796
622.67	39.107
623.00	37.517
623.33	38.752
623.66	38.457
623.99	38.117
624.32	38.661
624.65	36.680
624.99	37.386
625.32	37.688
625.65	37.626
625.98	39.254
626.31	39.192
626.64	39.707
626.97	39.235
627.30	38.573
627.63	37.134
627.96	39.114
628.29	39.377
628.62	39.966
628.95	39.351
629.28	39.422
629.61	40.404
629.94	38.243
630.26	39.661
630.59	39.551
