SpectraSuite Data File
++++++++++++++++++++++++++++++++++++
Date: Thu May 14 16:00:29 PDT 2015
User: schluterlab
Dark Spectrum Present: Yes
Reference Spectrum Present: Yes
Number of Sampled Component Spectra: 1
Spectrometers: USB2E3373
Integration Time (usec): 3000 (USB2E3373)
Spectra Averaged: 3 (USB2E3373)
Boxcar Smoothing: 0 (USB2E3373)
Correct for Electrical Dark: No (USB2E3373)
Strobe/Lamp Enabled: No (USB2E3373)
Correct for Detector Non-linearity: No (USB2E3373)
Correct for Stray Light: No (USB2E3373)
Number of Pixels in Processed Spectrum: 2048
>>>>>Begin Processed Spectral Data<<<<<
178.53	0.000
178.91	342.857
179.29	-2000.000
179.67	-2100.000
180.04	214.286
180.42	170.000
180.80	480.000
181.18	-2400.000
181.56	-1500.000
181.94	650.000
182.31	-625.000
182.69	866.667
183.07	-600.000
183.45	550.000
183.83	-383.333
184.20	-533.333
184.58	1500.000
184.96	-650.000
185.34	-188.889
185.72	-240.000
186.09	366.667
186.47	750.000
186.85	380.000
187.23	-211.111
187.61	-2300.000
187.98	320.000
188.36	625.000
188.74	-500.000
189.12	-500.000
189.49	-31.250
189.87	-212.500
190.25	-166.667
190.63	-280.000
191.00	-222.222
191.38	0.000
191.76	-575.000
192.14	-300.000
192.51	850.000
192.89	-150.000
193.27	0.000
193.65	-171.429
194.02	-2300.000
194.40	-257.143
194.78	328.571
195.15	0.000
195.53	-72.727
195.91	0.000
196.29	-250.000
196.66	-100.000
197.04	-2500.000
197.42	-300.000
197.79	-1050.000
198.17	-125.000
198.55	-300.000
198.92	-155.556
199.30	-262.500
199.68	-145.455
200.05	-64.286
200.43	-750.000
200.81	385.714
201.18	0.000
201.56	333.333
201.94	0.000
202.31	766.667
202.69	-188.889
203.07	1000.000
203.44	-244.444
203.82	-525.000
204.19	-91.667
204.57	-250.000
204.95	-237.500
205.32	-1800.000
205.70	550.000
206.08	-183.333
206.45	-200.000
206.83	380.000
207.20	-300.000
207.58	-460.000
207.96	-233.333
208.33	-83.333
208.71	108.333
209.08	-250.000
209.46	0.000
209.84	483.333
210.21	750.000
210.59	650.000
210.96	800.000
211.34	-525.000
211.71	-187.500
212.09	-1600.000
212.46	0.000
212.84	700.000
213.22	-600.000
213.59	-500.000
213.97	-100.000
214.34	-466.667
214.72	300.000
215.09	-375.000
215.47	0.000
215.84	228.571
216.22	1100.000
216.59	-180.000
216.97	-440.000
217.34	-450.000
217.72	-137.500
218.09	-400.000
218.47	-425.000
218.84	0.000
219.22	360.000
219.59	-64.706
219.97	-30.000
220.34	950.000
220.72	-277.778
221.09	-15.385
221.47	-700.000
221.84	-130.000
222.22	-200.000
222.59	0.000
222.97	-175.000
223.34	-440.000
223.72	-1800.000
224.09	-175.000
224.46	-450.000
224.84	-220.000
225.21	-242.857
225.59	-625.000
225.96	-475.000
226.34	-65.385
226.71	433.333
227.08	-1100.000
227.46	-66.667
227.83	-300.000
228.21	-100.000
228.58	250.000
228.95	1250.000
229.33	-133.333
229.70	-210.000
230.08	-21.053
230.45	270.000
230.82	-233.333
231.20	-142.857
231.57	-91.667
231.95	-127.273
232.32	-100.000
232.69	-10.000
233.07	-525.000
233.44	-52.941
233.81	-190.000
234.19	-44.444
234.56	-36.364
234.93	-24.138
235.31	-63.158
235.68	-50.000
236.05	-60.000
236.43	-7.692
236.80	28.000
237.17	-25.926
237.55	-33.333
237.92	-130.000
238.29	-25.806
238.67	-9.091
239.04	-5.556
239.41	-28.571
239.79	-15.217
240.16	-22.222
240.53	-19.565
240.91	-15.686
241.28	-1.639
241.65	13.433
242.02	5.405
242.40	-3.077
242.77	6.667
243.14	0.000
243.51	-6.579
243.89	0.000
244.26	13.861
244.63	13.725
245.00	13.084
245.38	6.140
245.75	-6.195
246.12	13.492
246.49	6.202
246.87	15.000
247.24	9.272
247.61	19.079
247.98	14.765
248.36	18.519
248.73	9.202
249.10	14.208
249.47	20.896
249.84	24.607
250.22	15.026
250.59	19.444
250.96	25.455
251.33	10.204
251.70	19.231
252.08	19.583
252.45	16.803
252.82	17.355
253.19	14.062
253.56	22.433
253.94	15.769
254.31	16.667
254.68	20.979
255.05	24.430
255.42	17.347
255.79	16.828
256.16	17.550
256.54	22.517
256.91	24.262
257.28	20.984
257.65	17.516
258.02	19.469
258.39	19.088
258.76	22.324
259.14	21.552
259.51	20.173
259.88	18.980
260.25	21.111
260.62	20.822
260.99	25.137
261.36	21.984
261.73	19.363
262.10	18.407
262.47	19.571
262.85	22.475
263.22	20.000
263.59	17.895
263.96	20.716
264.33	18.159
264.70	20.247
265.07	25.537
265.44	24.490
265.81	19.907
266.18	20.181
266.55	20.536
266.92	20.957
267.29	19.912
267.66	23.282
268.03	22.707
268.40	21.503
268.77	19.818
269.14	19.604
269.51	21.272
269.88	21.516
270.25	19.920
270.62	20.675
270.99	20.000
271.36	21.386
271.73	20.629
272.10	22.244
272.47	20.441
272.84	18.675
273.21	23.647
273.58	21.573
273.95	19.231
274.32	19.582
274.69	21.083
275.06	19.963
275.43	21.442
275.80	21.340
276.17	19.815
276.54	20.522
276.91	18.068
277.28	22.423
277.65	21.185
278.02	19.853
278.39	20.833
278.76	17.926
279.13	20.213
279.50	19.931
279.87	21.467
280.23	17.254
280.60	22.034
280.97	22.204
281.34	19.525
281.71	20.305
282.08	21.096
282.45	19.476
282.82	21.821
283.19	18.740
283.56	19.180
283.92	21.622
284.29	22.117
284.66	20.197
285.03	18.590
285.40	20.866
285.77	18.111
286.14	20.153
286.51	18.721
286.87	19.431
287.24	19.578
287.61	20.179
287.98	19.940
288.35	19.231
288.72	19.675
289.08	19.327
289.45	18.047
289.82	19.428
290.19	19.253
290.56	20.986
290.93	19.544
291.29	18.595
291.66	18.457
292.03	18.996
292.40	19.184
292.77	18.868
293.13	18.539
293.50	16.689
293.87	17.584
294.24	18.533
294.60	18.078
294.97	16.242
295.34	18.822
295.71	16.898
296.08	17.183
296.44	18.382
296.81	17.418
297.18	16.563
297.55	16.156
297.91	15.658
298.28	16.232
298.65	16.647
299.02	17.001
299.38	16.476
299.75	18.224
300.12	17.477
300.48	16.244
300.85	17.773
301.22	16.555
301.59	16.438
301.95	17.175
302.32	16.111
302.69	16.867
303.05	17.519
303.42	18.182
303.79	16.354
304.15	16.614
304.52	16.913
304.89	17.592
305.25	17.598
305.62	17.241
305.99	17.216
306.35	17.036
306.72	18.925
307.09	16.751
307.45	17.702
307.82	17.053
308.19	17.457
308.55	17.840
308.92	17.332
309.29	17.816
309.65	16.959
310.02	17.426
310.38	16.240
310.75	18.544
311.12	17.546
311.48	17.791
311.85	17.949
312.22	17.837
312.58	17.559
312.95	17.495
313.31	17.435
313.68	18.498
314.05	19.332
314.41	17.851
314.78	18.347
315.14	18.875
315.51	19.852
315.87	18.362
316.24	19.361
316.61	18.384
316.97	18.100
317.34	17.901
317.70	19.214
318.07	19.048
318.43	19.303
318.80	19.565
319.16	18.283
319.53	17.823
319.89	18.843
320.26	18.416
320.62	18.174
320.99	18.283
321.35	18.299
321.72	20.279
322.08	19.116
322.45	19.874
322.81	20.578
323.18	20.885
323.54	20.172
323.91	20.730
324.27	20.138
324.64	20.487
325.00	19.735
325.37	19.984
325.73	20.248
326.10	19.870
326.46	20.440
326.83	22.018
327.19	21.732
327.56	21.660
327.92	20.063
328.29	21.290
328.65	20.603
329.01	22.081
329.38	21.988
329.74	21.747
330.11	21.490
330.47	20.977
330.84	20.500
331.20	21.500
331.56	20.971
331.93	23.766
332.29	21.186
332.66	21.429
333.02	21.692
333.38	21.225
333.75	21.801
334.11	22.102
334.48	22.277
334.84	20.731
335.20	20.655
335.57	22.766
335.93	21.736
336.29	21.631
336.66	20.942
337.02	21.488
337.38	21.514
337.75	21.240
338.11	21.278
338.47	20.596
338.84	20.474
339.20	20.472
339.56	20.923
339.93	21.757
340.29	20.934
340.65	20.681
341.02	21.788
341.38	21.180
341.74	20.420
342.11	21.239
342.47	20.890
342.83	20.692
343.20	21.995
343.56	20.930
343.92	22.018
344.28	19.844
344.65	21.008
345.01	20.749
345.37	20.762
345.73	20.343
346.10	21.139
346.46	20.095
346.82	21.648
347.19	21.925
347.55	20.106
347.91	19.762
348.27	19.879
348.63	21.173
349.00	20.582
349.36	20.074
349.72	20.313
350.08	21.100
350.45	20.532
350.81	20.588
351.17	20.301
351.53	22.062
351.89	20.805
352.26	20.821
352.62	21.716
352.98	20.992
353.34	19.119
353.70	21.032
354.07	21.162
354.43	19.818
354.79	20.643
355.15	20.088
355.51	22.003
355.87	21.466
356.24	20.989
356.60	19.734
356.96	20.089
357.32	21.041
357.68	19.766
358.04	19.686
358.40	20.448
358.77	21.784
359.13	19.941
359.49	20.297
359.85	20.812
360.21	20.445
360.57	20.818
360.93	20.663
361.29	20.491
361.66	20.710
362.02	20.877
362.38	21.363
362.74	20.182
363.10	20.908
363.46	20.568
363.82	20.384
364.18	21.323
364.54	20.609
364.90	20.334
365.26	20.759
365.62	21.533
365.98	20.422
366.35	21.678
366.71	21.020
367.07	21.042
367.43	22.456
367.79	21.699
368.15	21.003
368.51	21.177
368.87	21.032
369.23	20.400
369.59	21.448
369.95	22.110
370.31	21.675
370.67	21.664
371.03	21.607
371.39	20.887
371.75	20.770
372.11	21.816
372.47	21.056
372.83	21.728
373.19	21.614
373.55	21.545
373.91	21.200
374.27	21.022
374.63	22.801
374.99	21.684
375.35	22.013
375.71	22.581
376.07	22.208
376.42	21.474
376.78	23.120
377.14	22.021
377.50	21.885
377.86	22.845
378.22	22.395
378.58	22.235
378.94	22.007
379.30	21.851
379.66	22.810
380.02	22.274
380.38	22.753
380.74	22.817
381.09	22.822
381.45	22.330
381.81	23.653
382.17	23.278
382.53	22.456
382.89	23.307
383.25	22.978
383.61	22.569
383.97	23.086
384.32	24.043
384.68	23.318
385.04	23.424
385.40	24.160
385.76	24.853
386.12	22.861
386.48	23.824
386.83	24.553
387.19	23.349
387.55	23.533
387.91	24.258
388.27	24.134
388.62	23.482
388.98	23.971
389.34	24.985
389.70	24.753
390.06	23.564
390.42	25.422
390.77	25.587
391.13	24.354
391.49	24.155
391.85	25.152
392.20	24.733
392.56	26.048
392.92	25.136
393.28	24.876
393.64	25.531
393.99	25.741
394.35	25.643
394.71	25.629
395.07	25.449
395.42	25.414
395.78	26.082
396.14	26.322
396.50	25.297
396.85	25.820
397.21	25.385
397.57	25.854
397.92	26.231
398.28	24.443
398.64	25.515
399.00	26.230
399.35	25.759
399.71	26.359
400.07	26.895
400.42	27.183
400.78	27.025
401.14	26.409
401.49	26.833
401.85	27.442
402.21	26.999
402.57	27.171
402.92	27.423
403.28	25.937
403.63	26.850
403.99	27.494
404.35	27.061
404.70	27.989
405.06	27.554
405.42	27.986
405.77	28.244
406.13	28.093
406.49	27.815
406.84	28.144
407.20	28.452
407.55	28.831
407.91	28.975
408.27	27.621
408.62	28.970
408.98	28.787
409.34	28.739
409.69	29.295
410.05	29.660
410.40	29.408
410.76	28.772
411.11	30.099
411.47	30.283
411.83	29.630
412.18	29.880
412.54	30.053
412.89	30.268
413.25	30.305
413.60	29.868
413.96	30.478
414.31	29.292
414.67	30.531
415.03	30.154
415.38	30.832
415.74	30.177
416.09	30.105
416.45	30.620
416.80	30.722
417.16	31.545
417.51	30.511
417.87	31.821
418.22	30.958
418.58	31.227
418.93	31.723
419.29	31.258
419.64	31.273
420.00	31.039
420.35	30.769
420.71	32.395
421.06	31.167
421.42	31.365
421.77	31.395
422.12	30.708
422.48	31.746
422.83	33.133
423.19	32.679
423.54	32.854
423.90	32.523
424.25	33.333
424.61	32.721
424.96	32.674
425.31	32.909
425.67	32.367
426.02	32.319
426.38	32.778
426.73	33.259
427.09	33.852
427.44	33.097
427.79	33.112
428.15	32.934
428.50	33.090
428.85	33.008
429.21	33.032
429.56	32.971
429.92	32.875
430.27	33.253
430.62	33.854
430.98	33.792
431.33	33.089
431.68	33.956
432.04	34.332
432.39	34.387
432.74	34.418
433.10	34.072
433.45	33.612
433.80	33.423
434.16	34.762
434.51	34.532
434.86	34.473
435.22	34.910
435.57	34.788
435.92	34.613
436.28	34.471
436.63	35.664
436.98	34.461
437.34	34.611
437.69	33.076
438.04	34.268
438.39	34.635
438.75	34.754
439.10	35.359
439.45	34.712
439.81	34.746
440.16	35.335
440.51	34.560
440.86	33.074
441.22	34.995
441.57	35.063
441.92	34.578
442.27	35.051
442.63	35.320
442.98	35.646
443.33	34.982
443.68	36.323
444.03	35.936
444.39	35.830
444.74	36.651
445.09	35.276
445.44	36.196
445.79	35.393
446.15	36.742
446.50	36.124
446.85	37.062
447.20	35.638
447.55	36.245
447.91	36.335
448.26	35.941
448.61	35.972
448.96	37.017
449.31	35.313
449.66	35.240
450.02	34.968
450.37	36.761
450.72	35.737
451.07	35.023
451.42	36.222
451.77	35.409
452.12	36.682
452.47	36.126
452.83	36.712
453.18	36.019
453.53	36.014
453.88	35.671
454.23	35.989
454.58	37.377
454.93	36.165
455.28	36.785
455.63	36.782
455.98	37.207
456.34	36.926
456.69	37.037
457.04	36.761
457.39	36.863
457.74	38.143
458.09	35.475
458.44	35.937
458.79	36.926
459.14	36.287
459.49	36.389
459.84	37.618
460.19	36.979
460.54	36.400
460.89	37.110
461.24	36.897
461.59	37.410
461.94	35.938
462.29	37.570
462.64	36.451
462.99	36.974
463.34	37.768
463.69	36.753
464.04	37.854
464.39	36.659
464.74	35.405
465.09	36.505
465.44	37.232
465.79	36.542
466.14	36.477
466.49	37.579
466.84	36.915
467.19	37.052
467.54	36.075
467.89	36.954
468.24	37.285
468.59	36.364
468.94	36.014
469.29	37.852
469.64	36.872
469.99	36.839
470.34	37.809
470.68	37.731
471.03	39.555
471.38	37.410
471.73	38.882
472.08	38.071
472.43	37.628
472.78	38.098
473.13	38.748
473.48	38.127
473.83	38.712
474.17	38.277
474.52	38.906
474.87	38.261
475.22	38.535
475.57	37.747
475.92	37.929
476.27	38.179
476.61	37.850
476.96	37.174
477.31	38.812
477.66	38.667
478.01	38.027
478.36	37.836
478.70	38.374
479.05	38.906
479.40	37.957
479.75	38.809
480.10	38.655
480.45	38.149
480.79	38.503
481.14	37.914
481.49	38.573
481.84	38.468
482.19	39.269
482.53	39.571
482.88	39.344
483.23	40.062
483.58	38.166
483.92	38.652
484.27	38.273
484.62	37.913
484.97	38.142
485.31	37.980
485.66	35.242
486.01	33.573
486.36	34.364
486.70	35.389
487.05	36.569
487.40	37.358
487.75	37.481
488.09	38.264
488.44	37.700
488.79	38.246
489.13	38.016
489.48	38.485
489.83	38.471
490.17	38.437
490.52	38.465
490.87	38.832
491.22	38.562
491.56	39.633
491.91	38.596
492.26	37.906
492.60	38.741
492.95	39.008
493.30	39.623
493.64	39.947
493.99	39.386
494.34	39.111
494.68	39.015
495.03	39.956
495.37	39.503
495.72	38.639
496.07	39.614
496.41	38.653
496.76	39.533
497.11	39.618
497.45	39.059
497.80	39.360
498.14	39.955
498.49	40.257
498.84	40.402
499.18	40.216
499.53	39.821
499.87	39.429
500.22	39.537
500.56	38.821
500.91	40.229
501.26	40.500
501.60	39.593
501.95	39.731
502.29	39.667
502.64	39.965
502.98	39.215
503.33	38.661
503.67	39.948
504.02	39.930
504.36	39.991
504.71	40.239
505.06	39.927
505.40	39.580
505.75	40.665
506.09	40.700
506.44	41.922
506.78	40.596
507.13	41.309
507.47	41.497
507.82	40.530
508.16	40.296
508.51	40.600
508.85	41.474
509.19	40.739
509.54	41.787
509.88	40.699
510.23	41.622
510.57	42.436
510.92	41.219
511.26	40.981
511.61	41.429
511.95	42.020
512.30	42.048
512.64	41.729
512.98	42.671
513.33	43.246
513.67	41.917
514.02	42.412
514.36	42.558
514.70	42.240
515.05	43.796
515.39	42.415
515.74	44.221
516.08	43.265
516.42	44.165
516.77	43.691
517.11	43.012
517.46	43.849
517.80	44.789
518.14	45.321
518.49	44.957
518.83	44.279
519.17	42.757
519.52	43.658
519.86	43.664
520.20	44.622
520.55	43.483
520.89	43.975
521.23	43.495
521.58	44.802
521.92	45.099
522.26	44.559
522.61	45.312
522.95	45.040
523.29	44.713
523.64	45.348
523.98	46.207
524.32	46.246
524.66	46.044
525.01	44.621
525.35	45.146
525.69	45.360
526.04	45.752
526.38	45.747
526.72	45.848
527.06	46.217
527.41	45.423
527.75	46.378
528.09	45.514
528.43	46.004
528.78	44.393
529.12	45.757
529.46	44.913
529.80	44.737
530.15	44.812
530.49	45.374
530.83	46.576
531.17	46.296
531.51	46.570
531.86	45.793
532.20	46.768
532.54	44.464
532.88	46.667
533.22	44.903
533.57	45.586
533.91	44.444
534.25	44.488
534.59	45.000
534.93	44.539
535.27	44.958
535.62	45.708
535.96	45.613
536.30	44.653
536.64	45.586
536.98	46.125
537.32	46.358
537.66	45.914
538.01	44.773
538.35	45.493
538.69	44.591
539.03	45.494
539.37	44.111
539.71	45.045
540.05	45.204
540.39	44.927
540.73	45.355
541.07	44.880
541.42	44.300
541.76	43.832
542.10	44.753
542.44	45.189
542.78	46.107
543.12	44.696
543.46	44.872
543.80	43.765
544.14	45.542
544.48	44.444
544.82	45.063
545.16	45.438
545.50	44.158
545.84	44.152
546.18	45.062
546.52	46.178
546.86	45.597
547.20	45.356
547.54	43.945
547.88	44.304
548.22	43.567
548.56	44.353
548.90	44.299
549.24	44.863
549.58	45.363
549.92	45.536
550.26	44.595
550.60	44.033
550.94	46.248
551.28	44.686
551.62	45.957
551.96	44.531
552.30	45.698
552.64	44.804
552.98	44.105
553.32	45.595
553.66	44.051
554.00	44.704
554.34	44.080
554.68	44.287
555.02	45.138
555.36	44.839
555.69	44.331
556.03	44.262
556.37	44.118
556.71	44.832
557.05	44.026
557.39	44.260
557.73	45.509
558.07	45.099
558.41	44.983
558.75	44.760
559.08	46.138
559.42	45.267
559.76	44.708
560.10	42.666
560.44	44.525
560.78	44.688
561.12	43.473
561.45	43.796
561.79	44.322
562.13	43.993
562.47	41.800
562.81	44.494
563.15	44.192
563.48	43.816
563.82	43.229
564.16	42.823
564.50	42.968
564.84	42.773
565.17	43.118
565.51	42.232
565.85	44.062
566.19	43.088
566.52	41.954
566.86	42.388
567.20	41.381
567.54	42.220
567.88	41.794
568.21	41.057
568.55	40.863
568.89	40.082
569.23	39.839
569.56	39.117
569.90	38.382
570.24	38.179
570.57	37.300
570.91	37.753
571.25	36.506
571.59	36.766
571.92	36.327
572.26	36.660
572.60	36.336
572.93	37.100
573.27	36.752
573.61	36.713
573.95	35.688
574.28	35.926
574.62	35.016
574.96	34.826
575.29	34.545
575.63	35.228
575.97	35.737
576.30	34.937
576.64	35.576
576.98	35.171
577.31	35.195
577.65	35.101
577.98	34.319
578.32	33.425
578.66	33.717
578.99	34.897
579.33	35.660
579.67	35.653
580.00	35.087
580.34	35.035
580.67	34.444
581.01	34.595
581.35	33.976
581.68	33.469
582.02	33.518
582.35	34.051
582.69	34.194
583.02	34.442
583.36	35.059
583.70	35.674
584.03	35.157
584.37	35.300
584.70	34.988
585.04	34.922
585.37	34.114
585.71	33.528
586.04	33.928
586.38	34.517
586.72	34.645
587.05	34.817
587.39	34.729
587.72	34.498
588.06	34.236
588.39	34.578
588.73	34.418
589.06	35.525
589.40	36.109
589.73	35.701
590.07	35.776
590.40	36.275
590.73	36.409
591.07	36.225
591.40	36.120
591.74	36.328
592.07	36.784
592.41	35.844
592.74	35.321
593.08	34.968
593.41	35.287
593.75	34.310
594.08	34.535
594.41	34.872
594.75	35.370
595.08	35.464
595.42	35.130
595.75	35.131
596.09	35.784
596.42	36.152
596.75	36.009
597.09	36.444
597.42	35.836
597.75	35.633
598.09	35.754
598.42	36.711
598.76	35.231
599.09	34.354
599.42	33.926
599.76	33.972
600.09	34.034
600.42	34.301
600.76	33.851
601.09	33.389
601.42	34.054
601.76	34.414
602.09	35.096
602.42	34.751
602.76	34.834
603.09	34.802
603.42	33.707
603.76	34.390
604.09	34.493
604.42	34.202
604.76	34.285
605.09	34.902
605.42	34.330
605.75	34.692
606.09	34.341
606.42	34.002
606.75	34.033
607.09	34.754
607.42	33.988
607.75	34.779
608.08	33.781
608.42	33.615
608.75	34.784
609.08	34.720
609.41	34.627
609.75	35.446
610.08	35.312
610.41	34.834
610.74	34.538
611.07	35.258
611.41	35.157
611.74	35.289
612.07	34.736
612.40	35.456
612.73	35.257
613.07	35.355
613.40	34.889
613.73	36.062
614.06	34.789
614.39	34.645
614.72	35.468
615.06	34.456
615.39	34.509
615.72	34.408
616.05	34.191
616.38	35.217
616.71	36.102
617.05	34.718
617.38	35.634
617.71	35.907
618.04	35.294
618.37	35.137
618.70	36.595
619.03	35.245
619.36	36.252
619.69	36.451
620.03	36.284
620.36	34.908
620.69	36.397
621.02	37.270
621.35	39.260
621.68	38.756
622.01	38.078
622.34	36.053
622.67	36.632
623.00	34.953
623.33	37.160
623.66	36.187
623.99	35.747
624.32	37.232
624.65	36.551
624.99	36.476
625.32	36.447
625.65	38.233
625.98	36.068
626.31	37.845
626.64	36.630
626.97	37.584
627.30	36.750
627.63	38.185
627.96	38.814
628.29	37.899
628.62	37.867
628.95	39.877
629.28	37.893
629.61	37.879
629.94	35.816
630.26	37.627
630.59	38.601
630.92	38.961
631.25	38.640
