SpectraSuite Data File
++++++++++++++++++++++++++++++++++++
Date: Thu May 14 15:56:50 PDT 2015
User: schluterlab
Dark Spectrum Present: Yes
Reference Spectrum Present: Yes
Number of Sampled Component Spectra: 1
Spectrometers: USB2E3373
Integration Time (usec): 3000 (USB2E3373)
Spectra Averaged: 3 (USB2E3373)
Boxcar Smoothing: 0 (USB2E3373)
Correct for Electrical Dark: No (USB2E3373)
Strobe/Lamp Enabled: No (USB2E3373)
Correct for Detector Non-linearity: No (USB2E3373)
Correct for Stray Light: No (USB2E3373)
Number of Pixels in Processed Spectrum: 2048
>>>>>Begin Processed Spectral Data<<<<<
178.53	0.000
178.91	357.143
179.29	-4100.000
179.67	-2400.000
180.04	264.286
180.42	210.000
180.80	520.000
181.18	-3000.000
181.56	-1900.000
181.94	600.000
182.31	-600.000
182.69	966.667
183.07	-1500.000
183.45	675.000
183.83	-333.333
184.20	-666.667
184.58	1900.000
184.96	-525.000
185.34	-255.556
185.72	-460.000
186.09	422.222
186.47	1600.000
186.85	620.000
187.23	-366.667
187.61	-3900.000
187.98	520.000
188.36	650.000
188.74	-775.000
189.12	-766.667
189.49	-131.250
189.87	-425.000
190.25	-277.778
190.63	-360.000
191.00	-288.889
191.38	0.000
191.76	-850.000
192.14	-550.000
192.51	1650.000
192.89	-416.667
193.27	0.000
193.65	-428.571
194.02	-3600.000
194.40	-300.000
194.78	442.857
195.15	0.000
195.53	-163.636
195.91	0.000
196.29	-600.000
196.66	-169.231
197.04	-2500.000
197.42	-414.286
197.79	-1400.000
198.17	-400.000
198.55	-328.571
198.92	-200.000
199.30	-375.000
199.68	-190.909
200.05	-107.143
200.43	-1550.000
200.81	557.143
201.18	0.000
201.56	388.889
201.94	0.000
202.31	1033.333
202.69	-244.444
203.07	2500.000
203.44	-288.889
203.82	-700.000
204.19	-200.000
204.57	-500.000
204.95	-412.500
205.32	-2900.000
205.70	600.000
206.08	-400.000
206.45	-350.000
206.83	700.000
207.20	-400.000
207.58	-720.000
207.96	-466.667
208.33	-433.333
208.71	275.000
209.08	-183.333
209.46	0.000
209.84	416.667
210.21	1400.000
210.59	1600.000
210.96	1233.333
211.34	-600.000
211.71	-325.000
212.09	-3000.000
212.46	0.000
212.84	2150.000
213.22	-500.000
213.59	-550.000
213.97	-270.000
214.34	-933.333
214.72	433.333
215.09	-650.000
215.47	0.000
215.84	500.000
216.22	2000.000
216.59	-660.000
216.97	-560.000
217.34	-725.000
217.72	-375.000
218.09	-775.000
218.47	-800.000
218.84	0.000
219.22	540.000
219.59	-94.118
219.97	-100.000
220.34	1500.000
220.72	-344.444
221.09	-215.385
221.47	-733.333
221.84	-320.000
222.22	-400.000
222.59	0.000
222.97	-287.500
223.34	-680.000
223.72	-2900.000
224.09	-800.000
224.46	-775.000
224.84	-500.000
225.21	-442.857
225.59	-700.000
225.96	-825.000
226.34	-84.615
226.71	483.333
227.08	-1400.000
227.46	-186.667
227.83	-800.000
228.21	-68.421
228.58	387.500
228.95	1400.000
229.33	-225.000
229.70	-220.000
230.08	-68.421
230.45	370.000
230.82	-600.000
231.20	-192.857
231.57	-233.333
231.95	-281.818
232.32	-290.909
232.69	-130.000
233.07	-625.000
233.44	-129.412
233.81	-260.000
234.19	-100.000
234.56	-104.545
234.93	-79.310
235.31	-136.842
235.68	-116.667
236.05	-200.000
236.43	-76.923
236.80	-48.000
237.17	-100.000
237.55	-72.727
237.92	-370.000
238.29	-45.161
238.67	-56.818
239.04	-72.222
239.41	-83.333
239.79	-43.478
240.16	-46.296
240.53	-56.522
240.91	-60.784
241.28	-42.623
241.65	-19.403
242.02	-17.568
242.40	-53.846
242.77	-40.000
243.14	-40.244
243.51	-38.158
243.89	-47.436
244.26	-18.812
244.63	-20.588
245.00	-22.430
245.38	-24.561
245.75	-37.168
246.12	-20.635
246.49	-23.256
246.87	-6.429
247.24	-15.894
247.61	-15.132
247.98	-21.477
248.36	-13.580
248.73	-18.405
249.10	-15.301
249.47	-8.458
249.84	-9.424
250.22	-13.990
250.59	-12.778
250.96	-9.545
251.33	-21.939
251.70	-7.692
252.08	-10.833
252.45	-8.607
252.82	-12.810
253.19	-11.719
253.56	-11.787
253.94	-10.000
254.31	-7.576
254.68	-8.042
255.05	-2.280
255.42	-10.204
255.79	-10.680
256.16	-10.596
256.54	-13.576
256.91	-8.197
257.28	-8.852
257.65	-11.783
258.02	-8.555
258.39	-7.977
258.76	-4.281
259.14	-5.460
259.51	-5.764
259.88	-8.499
260.25	-8.333
260.62	-7.945
260.99	-8.197
261.36	-6.434
261.73	-7.162
262.10	-9.341
262.47	-8.579
262.85	-5.556
263.22	-8.831
263.59	-10.789
263.96	-7.417
264.33	-9.207
264.70	-5.185
265.07	-5.251
265.44	-3.175
265.81	-7.407
266.18	-6.349
266.55	-5.804
266.92	-7.289
267.29	-5.252
267.66	-6.874
268.03	-5.459
268.40	-4.593
268.77	-8.428
269.14	-7.709
269.51	-7.018
269.88	-4.303
270.25	-4.829
270.62	-4.641
270.99	-4.444
271.36	-3.168
271.73	-5.894
272.10	-3.407
272.47	-4.609
272.84	-4.217
273.21	-2.204
273.58	-3.831
273.95	-7.115
274.32	-4.753
274.69	-4.836
275.06	-2.015
275.43	-7.394
275.80	-4.409
276.17	-6.852
276.54	-5.224
276.91	-4.472
277.28	-5.063
277.65	-5.925
278.02	-4.228
278.39	-4.710
278.76	-4.921
279.13	-4.078
279.50	-2.577
279.87	-1.968
280.23	-7.746
280.60	-3.898
280.97	-3.125
281.34	-4.924
281.71	-3.553
282.08	-4.319
282.45	-3.273
282.82	-3.454
283.19	-6.462
283.56	-5.902
283.92	-2.402
284.29	-2.686
284.66	-4.598
285.03	-4.968
285.40	-3.091
285.77	-4.025
286.14	-3.359
286.51	-4.718
286.87	-4.423
287.24	-2.861
287.61	-5.082
287.98	-3.625
288.35	-3.402
288.72	-2.367
289.08	-2.635
289.45	-3.107
289.82	-3.313
290.19	-5.460
290.56	-3.239
290.93	-3.424
291.29	-3.306
291.66	-4.959
292.03	-4.206
292.40	-2.585
292.77	-4.717
293.13	-2.436
293.50	-4.731
293.87	-3.758
294.24	-2.000
294.60	-2.781
294.97	-5.638
295.34	-2.305
295.71	-4.288
296.08	-4.005
296.44	-3.064
296.81	-2.680
297.18	-3.487
297.55	-4.009
297.91	-3.559
298.28	-4.502
298.65	-3.567
299.02	-3.542
299.38	-2.403
299.75	-1.986
300.12	-3.588
300.48	-3.456
300.85	-2.475
301.22	-2.461
301.59	-2.854
301.95	-2.938
302.32	-1.111
302.69	-2.738
303.05	-1.850
303.42	-2.993
303.79	-2.604
304.15	-2.524
304.52	-3.383
304.89	-3.246
305.25	-1.967
305.62	-1.776
305.99	-1.546
306.35	-2.117
306.72	-2.172
307.09	-3.655
307.45	-2.484
307.82	-3.229
308.19	-2.725
308.55	-1.543
308.92	-2.045
309.29	-1.341
309.65	-2.437
310.02	-3.366
310.38	-2.362
310.75	-2.524
311.12	-1.534
311.48	-2.639
311.85	-3.134
312.22	-2.751
312.58	-2.441
312.95	-2.677
313.31	-2.620
313.68	-1.557
314.05	-1.174
314.41	-1.639
314.78	-2.816
315.14	-1.815
315.51	-1.847
315.87	-1.620
316.24	-1.279
316.61	-1.066
316.97	-2.624
317.34	-2.998
317.70	-1.572
318.07	-2.998
318.43	-1.786
318.80	-1.171
319.16	-2.146
319.53	-2.913
319.89	-2.191
320.26	-1.690
320.62	-2.394
320.99	-1.754
321.35	-2.311
321.72	-1.302
322.08	-2.885
322.45	-2.439
322.81	-2.708
323.18	-1.947
323.54	-1.810
323.91	-1.779
324.27	-1.119
324.64	-0.588
325.00	-2.073
325.37	-1.474
325.73	-1.405
326.10	-1.298
326.46	-0.733
326.83	-1.121
327.19	-1.417
327.56	-1.344
327.92	-1.180
328.29	-1.452
328.65	-2.513
329.01	-1.607
329.38	-1.516
329.74	-1.199
330.11	-1.712
330.47	-1.348
330.84	-1.723
331.20	-1.667
331.56	-2.513
331.93	-1.172
332.29	-1.102
332.66	-0.914
333.02	-1.843
333.38	-2.685
333.75	-1.599
334.11	-1.501
334.48	-1.650
334.84	-0.935
335.20	-2.183
335.57	-1.518
335.93	-0.165
336.29	-2.163
336.66	-2.775
337.02	-1.505
337.38	-0.510
337.75	-1.653
338.11	-1.009
338.47	-1.323
338.84	-1.692
339.20	-3.033
339.56	-1.565
339.93	-1.396
340.29	-0.161
340.65	-1.865
341.02	-0.559
341.38	-0.647
341.74	-1.856
342.11	-2.011
342.47	-2.145
342.83	-1.449
343.20	-2.044
343.56	-1.524
343.92	-1.841
344.28	-1.719
344.65	-0.775
345.01	-0.936
345.37	-0.933
345.73	-2.338
346.10	-1.170
346.46	-1.820
346.82	-0.824
347.19	-0.993
347.55	0.000
347.91	-1.486
348.27	-1.290
348.63	-0.762
349.00	-1.715
349.36	-0.967
349.72	-1.116
350.08	0.000
350.45	-2.586
350.81	-1.056
351.17	-1.579
351.53	-1.137
351.89	-0.911
352.26	-1.716
352.62	-1.791
352.98	-1.679
353.34	-1.792
353.70	-2.388
354.07	-0.596
354.43	-1.746
354.79	-1.870
355.15	-1.325
355.51	-1.096
355.87	-1.870
356.24	-0.228
356.60	-0.665
356.96	-1.631
357.32	-1.710
357.68	-1.830
358.04	-1.272
358.40	-2.015
358.77	-0.950
359.13	-1.846
359.49	-2.454
359.85	-1.885
360.21	-1.793
360.57	-1.866
360.93	-2.045
361.29	-1.053
361.66	-1.448
362.02	-0.418
362.38	-1.335
362.74	-1.816
363.10	-1.582
363.46	-1.039
363.82	-2.344
364.18	-2.111
364.54	-1.729
364.90	-0.736
365.26	-2.345
365.62	-1.267
365.98	-0.817
366.35	-1.074
366.71	-0.884
367.07	-1.759
367.43	-0.657
367.79	-1.460
368.15	-0.268
368.51	-1.015
368.87	-0.914
369.23	-1.067
369.59	-1.776
369.95	-1.217
370.31	-0.473
370.67	-1.169
371.03	-0.970
371.39	-2.283
371.75	-1.857
372.11	-1.423
372.47	-1.286
372.83	-0.720
373.19	-0.801
373.55	-1.762
373.91	-2.249
374.27	-0.647
374.63	-1.556
374.99	-1.658
375.35	-0.844
375.71	-1.290
376.07	-1.097
376.42	-1.196
376.78	-0.497
377.14	-0.873
377.50	-1.771
377.86	-0.369
378.22	-1.138
378.58	-1.308
378.94	-1.585
379.30	-1.054
379.66	-1.058
380.02	-1.039
380.38	-1.498
380.74	-1.465
381.09	-1.510
381.45	-0.852
381.81	-0.937
382.17	-1.010
382.53	-0.877
382.89	-0.621
383.25	-1.231
383.61	-1.678
383.97	-1.413
384.32	-1.256
384.68	-1.566
385.04	-0.578
385.40	-0.648
385.76	-1.055
386.12	-0.539
386.48	-0.765
386.83	-1.192
387.19	-1.622
387.55	-1.761
387.91	-1.541
388.27	-0.404
388.62	-0.515
388.98	-0.846
389.34	-1.237
389.70	-1.336
390.06	-1.007
390.42	-1.446
390.77	-0.120
391.13	-1.232
391.49	-0.362
391.85	-1.273
392.20	-0.534
392.56	-0.709
392.92	-0.055
393.28	-0.884
393.64	-1.229
393.99	-0.291
394.35	-0.993
394.71	-0.240
395.07	-1.976
395.42	-1.085
395.78	-0.183
396.14	-1.426
396.50	-1.781
396.85	-0.775
397.21	-1.716
397.57	-0.766
397.92	-0.687
398.28	-1.141
398.64	-1.430
399.00	-1.309
399.35	-0.524
399.71	-1.196
400.07	-1.011
400.42	-1.164
400.78	-1.157
401.14	-0.569
401.49	-1.023
401.85	-1.395
402.21	-0.695
402.57	-0.880
402.92	-0.827
403.28	-1.815
403.63	-1.730
403.99	-1.544
404.35	-0.796
404.70	-0.737
405.06	-1.413
405.42	-0.995
405.77	-0.545
406.13	-0.270
406.49	-0.788
406.84	-1.440
407.20	-1.062
407.55	-1.211
407.91	-1.948
408.27	-0.824
408.62	-0.873
408.98	-1.219
409.34	-2.111
409.69	-0.865
410.05	-0.703
410.40	-0.290
410.76	-0.673
411.11	-0.760
411.47	-1.044
411.83	-1.058
412.18	-0.843
412.54	-0.296
412.89	-0.466
413.25	-0.339
413.60	-1.838
413.96	-0.874
414.31	-1.190
414.67	-0.417
415.03	-1.108
415.38	-1.450
415.74	-1.344
416.09	-0.679
416.45	-1.064
416.80	-1.285
417.16	-0.958
417.51	-0.747
417.87	-0.552
418.22	-0.659
418.58	-1.673
418.93	-0.175
419.29	-1.541
419.64	-1.200
420.00	-1.484
420.35	-0.730
420.71	-1.608
421.06	-1.150
421.42	-1.089
421.77	-1.239
422.12	-0.581
422.48	-0.870
422.83	-0.438
423.19	-1.273
423.54	-0.940
423.90	-1.160
424.25	-0.693
424.61	-1.435
424.96	-0.439
425.31	-0.265
425.67	-0.698
426.02	-1.217
426.38	-1.091
426.73	-1.283
427.09	-0.058
427.44	-0.655
427.79	-0.995
428.15	-1.941
428.50	-1.011
428.85	-0.861
429.21	-0.106
429.56	-1.333
429.92	-0.541
430.27	-0.578
430.62	-0.635
430.98	-0.738
431.33	-0.831
431.68	-0.910
432.04	-0.914
432.39	-0.911
432.74	-0.913
433.10	-0.757
433.45	-1.226
433.80	-0.966
434.16	-0.930
434.51	-0.874
434.86	-1.466
435.22	-1.222
435.57	-0.708
435.92	-0.556
436.28	-1.251
436.63	-1.475
436.98	-0.268
437.34	-0.958
437.69	-1.376
438.04	-1.111
438.39	-0.574
438.75	-1.550
439.10	-0.740
439.45	-0.503
439.81	-1.130
440.16	-1.287
440.51	-0.892
440.86	-0.778
441.22	-0.965
441.57	-0.943
441.92	-0.630
442.27	-0.253
442.63	-0.646
442.98	-0.694
443.33	-1.052
443.68	-0.149
444.03	-0.094
444.39	-0.416
444.74	-0.613
445.09	-0.051
445.44	-1.106
445.79	-0.718
446.15	-0.462
446.50	-1.034
446.85	-0.486
447.20	-0.338
447.55	-0.732
447.91	-0.733
448.26	-0.899
448.61	-0.531
448.96	-0.644
449.31	-1.060
449.66	-1.416
450.02	-0.738
450.37	-0.107
450.72	-0.753
451.07	-0.342
451.42	-1.040
451.77	-1.278
452.12	-0.847
452.47	-1.604
452.83	-1.351
453.18	-0.934
453.53	-1.379
453.88	-0.828
454.23	-0.734
454.58	-0.929
454.93	-1.396
455.28	-0.602
455.63	-1.137
455.98	-0.559
456.34	-1.355
456.69	-1.470
457.04	-0.946
457.39	-0.776
457.74	-0.391
458.09	-0.879
458.44	-0.593
458.79	-0.877
459.14	-0.629
459.49	-1.019
459.84	-0.787
460.19	-1.166
460.54	-0.795
460.89	-1.059
461.24	-1.207
461.59	-0.498
461.94	-1.768
462.29	-0.560
462.64	-0.543
462.99	-0.879
463.34	-1.038
463.69	-0.703
464.04	-0.389
464.39	-0.729
464.74	0.057
465.09	-0.577
465.44	-0.697
465.79	-0.635
466.14	-0.677
466.49	-0.895
466.84	-1.377
467.19	-0.751
467.54	-0.705
467.89	-1.207
468.24	-0.443
468.59	-1.100
468.94	-1.107
469.29	-1.260
469.64	-1.017
469.99	-1.593
470.34	-0.804
470.68	-0.684
471.03	-0.786
471.38	-0.654
471.73	-1.560
472.08	-0.508
472.43	-0.783
472.78	-0.693
473.13	-1.138
473.48	-0.846
473.83	-0.813
474.17	-0.645
474.52	-1.684
474.87	-0.554
475.22	-0.732
475.57	-0.831
475.92	-0.498
476.27	-1.331
476.61	-0.987
476.96	-0.938
477.31	-0.297
477.66	-0.682
478.01	-1.118
478.36	-0.648
478.70	-0.345
479.05	-1.125
479.40	-0.888
479.75	-0.240
480.10	-0.521
480.45	-0.046
480.79	-0.590
481.14	-0.597
481.49	-0.954
481.84	0.131
482.19	-0.602
482.53	-0.394
482.88	-0.665
483.23	-0.711
483.58	-0.480
483.92	-0.842
484.27	-0.381
484.62	-1.031
484.97	-0.505
485.31	-0.317
485.66	-0.243
486.01	0.332
486.36	0.122
486.70	0.321
487.05	0.258
487.40	-0.023
487.75	0.153
488.09	-0.141
488.44	-0.123
488.79	0.101
489.13	-0.326
489.48	-0.505
489.83	-0.241
490.17	-0.891
490.52	-0.205
490.87	-0.127
491.22	-0.737
491.56	-0.341
491.91	-0.611
492.26	-0.433
492.60	-0.131
492.95	-0.614
493.30	-0.717
493.64	-0.394
493.99	-0.351
494.34	-0.915
494.68	-1.071
495.03	-0.441
495.37	-0.444
495.72	-0.317
496.07	-0.175
496.41	-0.815
496.76	-0.125
497.11	-0.552
497.45	-0.561
497.80	-0.355
498.14	-0.952
498.49	-0.643
498.84	-0.686
499.18	-0.810
499.53	-0.538
499.87	-0.220
500.22	-1.247
500.56	-0.990
500.91	-0.732
501.26	-0.727
501.60	-1.105
501.95	-0.217
502.29	-0.483
502.64	-0.743
502.98	-0.820
503.33	-0.778
503.67	-1.047
504.02	-0.919
504.36	-0.760
504.71	-0.551
505.06	-0.591
505.40	-0.640
505.75	-0.501
506.09	-0.737
506.44	-0.789
506.78	-0.550
507.13	-0.369
507.47	-0.663
507.82	-0.473
508.16	-1.004
508.51	-1.125
508.85	-1.370
509.19	-0.474
509.54	-0.432
509.88	-0.680
510.23	-0.971
510.57	-0.532
510.92	-0.919
511.26	-0.481
511.61	-1.014
511.95	-0.781
512.30	-0.148
512.64	-0.950
512.98	-0.550
513.33	-0.706
513.67	-1.020
514.02	-1.022
514.36	-1.381
514.70	-1.146
515.05	-0.626
515.39	-0.945
515.74	-1.007
516.08	-0.951
516.42	-0.419
516.77	-1.052
517.11	-1.186
517.46	-0.689
517.80	-0.481
518.14	-0.381
518.49	-0.868
518.83	-0.585
519.17	-1.292
519.52	-0.262
519.86	-0.792
520.20	-0.745
520.55	-1.314
520.89	-1.014
521.23	-0.614
521.58	-1.017
521.92	-1.133
522.26	-1.317
522.61	-1.505
522.95	-1.153
523.29	-0.632
523.64	-0.392
523.98	-0.513
524.32	-0.688
524.66	-0.569
525.01	-0.906
525.35	-1.034
525.69	-1.218
526.04	-1.033
526.38	-0.862
526.72	-0.865
527.06	-0.762
527.41	-0.466
527.75	-1.366
528.09	-0.885
528.43	-1.125
528.78	-1.156
529.12	-1.319
529.46	-0.843
529.80	-0.858
530.15	-0.986
530.49	-1.246
530.83	-0.885
531.17	-1.075
531.51	-1.143
531.86	-1.142
532.20	-0.915
532.54	-0.539
532.88	-0.848
533.22	-1.237
533.57	-0.808
533.91	-0.673
534.25	-0.961
534.59	-1.437
534.93	-1.302
535.27	-0.901
535.62	-0.682
535.96	-0.697
536.30	-0.881
536.64	-0.721
536.98	-0.800
537.32	-0.802
537.66	-0.686
538.01	-0.906
538.35	-1.401
538.69	-1.262
539.03	-1.042
539.37	-0.589
539.71	-0.781
540.05	-1.379
540.39	-1.467
540.73	-0.850
541.07	-0.920
541.42	-0.886
541.76	-0.949
542.10	-1.267
542.44	-1.705
542.78	-1.034
543.12	-0.596
543.46	-0.794
543.80	-0.899
544.14	-0.718
544.48	-0.709
544.82	-0.539
545.16	-1.073
545.50	-1.198
545.84	-0.796
546.18	0.123
546.52	-1.465
546.86	-0.818
547.20	-1.272
547.54	-0.687
547.88	-0.904
548.22	-1.111
548.56	-0.819
548.90	-1.194
549.24	-0.547
549.58	-1.009
549.92	-1.531
550.26	-1.489
550.60	-0.766
550.94	-1.100
551.28	-0.924
551.62	-1.146
551.96	-0.259
552.30	-0.510
552.64	0.124
552.98	-1.061
553.32	-0.836
553.66	-1.672
554.00	-0.378
554.34	-0.772
554.68	-1.227
555.02	-1.051
555.36	-0.789
555.69	-1.345
556.03	-1.324
556.37	-0.939
556.71	-0.761
557.05	-1.086
557.39	-1.593
557.73	-0.793
558.07	-1.854
558.41	-1.395
558.75	-1.487
559.08	-1.392
559.42	-1.578
559.76	-0.407
560.10	-0.938
560.44	-1.451
560.78	-0.500
561.12	-0.554
561.45	-0.365
561.79	-0.549
562.13	-0.431
562.47	-1.603
562.81	-1.076
563.15	-1.199
563.48	-1.181
563.82	-1.511
564.16	-1.090
564.50	-0.834
564.84	-1.062
565.17	-0.765
565.51	-0.863
565.85	-1.247
566.19	-1.325
566.52	-0.761
566.86	-0.792
567.20	-0.924
567.54	-1.009
567.88	-0.815
568.21	-0.692
568.55	-0.959
568.89	-0.318
569.23	0.127
569.56	-0.625
569.90	-0.321
570.24	-0.067
570.57	-0.706
570.91	-0.674
571.25	-0.058
571.59	0.195
571.92	-0.107
572.26	-0.344
572.60	0.055
572.93	0.250
573.27	-0.337
573.61	0.159
573.95	0.146
574.28	0.047
574.62	0.136
574.96	0.199
575.29	0.088
575.63	0.139
575.97	0.072
576.30	0.296
576.64	-0.119
576.98	0.251
577.31	0.153
577.65	0.206
577.98	0.169
578.32	0.074
578.66	0.207
578.99	0.020
579.33	0.133
579.67	0.136
580.00	0.180
580.34	0.502
580.67	0.022
581.01	-0.151
581.35	0.195
581.68	0.319
582.02	0.342
582.35	0.280
582.69	0.274
583.02	0.112
583.36	0.370
583.70	0.159
584.03	0.024
584.37	0.049
584.70	-0.147
585.04	0.093
585.37	-0.022
585.71	0.453
586.04	0.000
586.38	0.232
586.72	-0.276
587.05	-0.333
587.39	-0.100
587.72	0.167
588.06	0.242
588.39	0.124
588.73	0.026
589.06	-0.085
589.40	-0.369
589.73	-0.129
590.07	0.066
590.40	0.203
590.73	-0.424
591.07	-0.037
591.40	-0.583
591.74	-0.437
592.07	0.244
592.41	-0.197
592.74	-0.071
593.08	0.255
593.41	0.146
593.75	-0.144
594.08	-0.182
594.41	-0.192
594.75	-0.266
595.08	-0.505
595.42	0.065
595.75	0.032
596.09	0.034
596.42	-0.251
596.75	-0.116
597.09	-0.121
597.42	-0.238
597.75	-0.235
598.09	0.119
598.42	-0.281
598.76	-0.420
599.09	-0.320
599.42	-0.201
599.76	-0.231
600.09	-0.400
600.42	0.067
600.76	-0.033
601.09	-0.199
601.42	-0.378
601.76	0.000
602.09	0.036
602.42	-0.218
602.76	0.000
603.09	-0.257
603.42	-0.036
603.76	-0.247
604.09	0.532
604.42	-0.220
604.76	-0.685
605.09	-0.199
605.42	0.000
605.75	-0.462
606.09	-0.224
606.42	-0.255
606.75	-0.337
607.09	-0.346
607.42	0.039
607.75	-0.352
608.08	0.000
608.42	-0.282
608.75	-0.124
609.08	-0.127
609.41	-0.044
609.75	-0.670
610.08	-0.704
610.41	-0.170
610.74	-0.252
611.07	-0.666
611.41	-0.269
611.74	-0.185
612.07	-0.514
612.40	-0.808
612.73	-0.293
613.07	-0.489
613.40	0.241
613.73	-0.626
614.06	-0.147
614.39	-1.069
614.72	-0.388
615.06	-0.626
615.39	-0.580
615.72	-0.758
616.05	-0.291
616.38	-0.151
616.71	-0.627
617.05	-0.958
617.38	0.482
617.71	-0.216
618.04	-0.594
618.37	-0.437
618.70	-0.962
619.03	-1.254
619.36	-0.986
619.69	-0.961
620.03	-1.758
620.36	-1.104
620.69	-0.802
621.02	-0.394
621.35	-0.798
621.68	-0.434
622.01	-1.139
622.34	-1.883
622.67	-0.412
623.00	-1.889
623.33	-1.261
623.66	-0.584
623.99	-1.382
624.32	-0.260
624.65	-1.351
624.99	-0.845
625.32	-0.457
625.65	-0.944
625.98	-1.695
626.31	-1.488
626.64	-1.099
626.97	-1.500
627.30	-2.354
627.63	-1.800
627.96	-0.300
628.29	-1.323
628.62	-2.351
628.95	-2.191
629.28	-2.889
629.61	-1.178
629.94	-2.678
630.26	-2.034
630.59	-2.245
630.92	-1.991
631.25	-1.342
