SpectraSuite Data File
++++++++++++++++++++++++++++++++++++
Date: Thu May 14 16:03:28 PDT 2015
User: schluterlab
Dark Spectrum Present: Yes
Reference Spectrum Present: Yes
Number of Sampled Component Spectra: 1
Spectrometers: USB2E3373
Integration Time (usec): 3000 (USB2E3373)
Spectra Averaged: 3 (USB2E3373)
Boxcar Smoothing: 0 (USB2E3373)
Correct for Electrical Dark: No (USB2E3373)
Strobe/Lamp Enabled: No (USB2E3373)
Correct for Detector Non-linearity: No (USB2E3373)
Correct for Stray Light: No (USB2E3373)
Number of Pixels in Processed Spectrum: 2048
>>>>>Begin Processed Spectral Data<<<<<
178.53	0.000
178.91	142.857
179.29	-2000.000
179.67	-2000.000
180.04	171.429
180.42	230.000
180.80	400.000
181.18	-1700.000
181.56	-200.000
181.94	450.000
182.31	-250.000
182.69	733.333
183.07	-900.000
183.45	500.000
183.83	-166.667
184.20	0.000
184.58	1700.000
184.96	-475.000
185.34	-222.222
185.72	-100.000
186.09	233.333
186.47	750.000
186.85	320.000
187.23	-244.444
187.61	-2200.000
187.98	380.000
188.36	300.000
188.74	-400.000
189.12	-466.667
189.49	-56.250
189.87	-287.500
190.25	-111.111
190.63	-160.000
191.00	-166.667
191.38	0.000
191.76	-475.000
192.14	-166.667
192.51	850.000
192.89	-133.333
193.27	0.000
193.65	-185.714
194.02	-2200.000
194.40	-214.286
194.78	242.857
195.15	0.000
195.53	-127.273
195.91	0.000
196.29	-250.000
196.66	-153.846
197.04	-2100.000
197.42	-228.571
197.79	-650.000
198.17	-162.500
198.55	-200.000
198.92	-33.333
199.30	-237.500
199.68	-90.909
200.05	-14.286
200.43	-1150.000
200.81	300.000
201.18	0.000
201.56	222.222
201.94	0.000
202.31	433.333
202.69	-155.556
203.07	1300.000
203.44	-66.667
203.82	-350.000
204.19	-150.000
204.57	-216.667
204.95	-212.500
205.32	-1900.000
205.70	300.000
206.08	-166.667
206.45	-283.333
206.83	580.000
207.20	-150.000
207.58	-360.000
207.96	-216.667
208.33	-83.333
208.71	125.000
209.08	-33.333
209.46	0.000
209.84	250.000
210.21	750.000
210.59	400.000
210.96	633.333
211.34	-400.000
211.71	-187.500
212.09	-1400.000
212.46	0.000
212.84	1300.000
213.22	-420.000
213.59	-325.000
213.97	-60.000
214.34	-566.667
214.72	350.000
215.09	-375.000
215.47	0.000
215.84	228.571
216.22	750.000
216.59	-260.000
216.97	-160.000
217.34	-325.000
217.72	-150.000
218.09	-400.000
218.47	-500.000
218.84	0.000
219.22	460.000
219.59	-47.059
219.97	-25.000
220.34	800.000
220.72	-155.556
221.09	-53.846
221.47	-466.667
221.84	-140.000
222.22	-300.000
222.59	0.000
222.97	-250.000
223.34	-380.000
223.72	-1300.000
224.09	-600.000
224.46	-575.000
224.84	-380.000
225.21	-142.857
225.59	-550.000
225.96	-500.000
226.34	-23.077
226.71	383.333
227.08	-850.000
227.46	-73.333
227.83	-475.000
228.21	-26.316
228.58	175.000
228.95	1150.000
229.33	-108.333
229.70	-130.000
230.08	36.842
230.45	210.000
230.82	-700.000
231.20	-92.857
231.57	-75.000
231.95	-63.636
232.32	-163.636
232.69	-30.000
233.07	-325.000
233.44	-105.882
233.81	-200.000
234.19	-5.556
234.56	-63.636
234.93	3.448
235.31	-42.105
235.68	-22.222
236.05	-90.000
236.43	-23.077
236.80	12.000
237.17	-14.815
237.55	-3.030
237.92	-160.000
238.29	3.226
238.67	-18.182
239.04	-30.556
239.41	-19.048
239.79	-6.522
240.16	-22.222
240.53	-15.217
240.91	-21.569
241.28	-3.279
241.65	11.940
242.02	5.405
242.40	-12.308
242.77	6.667
243.14	-6.098
243.51	-19.737
243.89	-5.128
244.26	3.960
244.63	2.941
245.00	12.150
245.38	7.018
245.75	-18.584
246.12	7.143
246.49	2.326
246.87	10.000
247.24	17.219
247.61	11.842
247.98	10.738
248.36	11.728
248.73	1.227
249.10	6.011
249.47	14.428
249.84	15.707
250.22	8.290
250.59	12.778
250.96	7.727
251.33	12.245
251.70	12.821
252.08	14.583
252.45	3.279
252.82	12.810
253.19	10.938
253.56	15.970
253.94	11.538
254.31	9.091
254.68	15.035
255.05	13.355
255.42	10.884
255.79	10.032
256.16	11.921
256.54	9.934
256.91	13.443
257.28	8.525
257.65	12.420
258.02	13.569
258.39	12.251
258.76	15.902
259.14	12.931
259.51	12.680
259.88	13.598
260.25	13.333
260.62	16.164
260.99	14.208
261.36	15.282
261.73	12.202
262.10	13.736
262.47	12.869
262.85	15.909
263.22	16.104
263.59	11.579
263.96	14.578
264.33	10.486
264.70	13.580
265.07	16.229
265.44	17.914
265.81	15.972
266.18	13.605
266.55	14.509
266.92	12.528
267.29	16.411
267.66	13.525
268.03	16.594
268.40	15.658
268.77	12.073
269.14	11.894
269.51	12.719
269.88	17.008
270.25	16.700
270.62	16.034
270.99	16.970
271.36	17.624
271.73	16.110
272.10	15.030
272.47	16.232
272.84	16.064
273.21	14.228
273.58	16.734
273.95	12.885
274.32	13.878
274.69	13.153
275.06	13.736
275.43	14.787
275.80	16.402
276.17	16.296
276.54	14.179
276.91	12.522
277.28	13.562
277.65	14.183
278.02	15.074
278.39	14.493
278.76	13.005
279.13	15.426
279.50	14.605
279.87	15.564
280.23	13.732
280.60	15.424
280.97	14.803
281.34	13.413
281.71	15.228
282.08	15.615
282.45	14.239
282.82	13.972
283.19	14.540
283.56	13.443
283.92	15.465
284.29	16.588
284.66	16.420
285.03	13.462
285.40	15.920
285.77	13.777
286.14	15.267
286.51	15.373
286.87	11.690
287.24	15.512
287.61	13.752
287.98	13.746
288.35	16.420
288.72	12.426
289.08	15.227
289.45	13.166
289.82	13.855
290.19	14.511
290.56	15.634
290.93	15.835
291.29	15.289
291.66	13.361
292.03	14.518
292.40	14.014
292.77	12.803
293.13	13.126
293.50	12.352
293.87	12.617
294.24	15.067
294.60	13.274
294.97	12.752
295.34	14.981
295.71	12.736
296.08	13.049
296.44	11.397
296.81	11.815
297.18	13.450
297.55	12.618
297.91	12.456
298.28	11.493
298.65	12.961
299.02	12.043
299.38	14.302
299.75	13.084
300.12	12.153
300.48	13.249
300.85	13.161
301.22	11.186
301.59	12.215
301.95	12.542
302.32	12.556
302.69	13.691
303.05	12.187
303.42	11.973
303.79	12.604
304.15	13.144
304.52	11.311
304.89	11.728
305.25	12.422
305.62	13.480
305.99	12.680
306.35	11.895
306.72	12.410
307.09	11.574
307.45	12.526
307.82	12.916
308.19	13.118
308.55	13.018
308.92	13.437
309.29	13.410
309.65	11.891
310.02	13.465
310.38	13.091
310.75	13.495
311.12	14.477
311.48	13.685
311.85	14.815
312.22	13.662
312.58	13.709
312.95	13.767
313.31	14.634
313.68	14.744
314.05	15.176
314.41	15.665
314.78	14.986
315.14	16.334
315.51	15.882
315.87	16.832
316.24	16.256
316.61	16.607
316.97	15.475
317.34	16.314
317.70	17.729
318.07	17.901
318.43	18.027
318.80	18.144
319.16	18.970
319.53	17.909
319.89	17.967
320.26	19.751
320.62	20.035
320.99	20.591
321.35	19.963
321.72	21.767
322.08	20.559
322.45	20.325
322.81	21.570
323.18	21.593
323.54	22.414
323.91	24.021
324.27	24.527
324.64	25.105
325.00	23.798
325.37	24.980
325.73	25.372
326.10	25.223
326.46	25.977
326.83	26.421
327.19	27.323
327.56	26.561
327.92	27.065
328.29	26.694
328.65	27.471
329.01	28.257
329.38	27.633
329.74	29.195
330.11	28.082
330.47	29.149
330.84	28.768
331.20	29.500
331.56	30.329
331.93	29.791
332.29	29.831
332.66	29.568
333.02	29.481
333.38	29.782
333.75	30.892
334.11	29.358
334.48	30.611
334.84	30.586
335.20	29.387
335.57	32.209
335.93	31.570
336.29	30.200
336.66	30.698
337.02	30.769
337.38	31.718
337.75	29.917
338.11	31.371
338.47	31.348
338.84	31.810
339.20	31.340
339.56	30.560
339.93	31.609
340.29	29.308
340.65	31.225
341.02	32.721
341.38	32.255
341.74	31.638
342.11	31.698
342.47	30.103
342.83	31.804
343.20	32.952
343.56	32.237
343.92	32.106
344.28	32.422
344.65	32.171
345.01	33.229
345.37	32.426
345.73	31.723
346.10	32.605
346.46	32.516
346.82	31.760
347.19	32.620
347.55	33.460
347.91	31.649
348.27	33.308
348.63	32.749
349.00	33.184
349.36	32.045
349.72	31.399
350.08	32.318
350.45	31.331
350.81	32.127
351.17	32.707
351.53	32.676
351.89	32.954
352.26	31.940
352.62	32.612
352.98	33.053
353.34	32.338
353.70	34.669
354.07	33.532
354.43	33.485
354.79	33.583
355.15	32.156
355.51	33.918
355.87	33.358
356.24	34.144
356.60	32.151
356.96	33.951
357.32	32.862
357.68	33.236
358.04	32.410
358.40	32.985
358.77	33.406
359.13	32.127
359.49	33.383
359.85	33.503
360.21	33.931
360.57	32.376
360.93	33.075
361.29	33.965
361.66	33.888
362.02	32.777
362.38	32.537
362.74	33.520
363.10	32.944
363.46	33.864
363.82	33.878
364.18	34.553
364.54	34.025
364.90	33.311
365.26	32.414
365.62	33.467
365.98	33.764
366.35	32.886
366.71	32.789
367.07	32.747
367.43	33.815
367.79	33.842
368.15	34.114
368.51	33.762
368.87	33.638
369.23	33.067
369.59	34.973
369.95	33.807
370.31	34.099
370.67	33.425
371.03	33.657
371.39	32.304
371.75	33.494
372.11	32.182
372.47	32.769
372.83	33.901
373.19	33.489
373.55	34.079
373.91	32.924
374.27	33.765
374.63	33.762
374.99	33.488
375.35	32.727
375.71	33.226
376.07	32.537
376.42	32.305
376.78	32.940
377.14	32.751
377.50	33.903
377.86	33.498
378.22	33.174
378.58	33.234
378.94	32.746
379.30	33.275
379.66	33.392
380.02	32.891
380.38	33.986
380.74	34.197
381.09	33.159
381.45	32.614
381.81	33.372
382.17	34.204
382.53	33.158
382.89	33.014
383.25	33.470
383.61	32.350
383.97	33.157
384.32	33.553
384.68	32.251
385.04	34.066
385.40	32.528
385.76	33.998
386.12	32.795
386.48	32.588
386.83	33.492
387.19	31.866
387.55	33.040
387.91	32.820
388.27	33.545
388.62	31.329
388.98	31.698
389.34	31.644
389.70	32.423
390.06	32.741
390.42	32.048
390.77	32.210
391.13	31.573
391.49	31.703
391.85	32.000
392.20	31.317
392.56	31.542
392.92	30.589
393.28	32.670
393.64	31.508
393.99	31.958
394.35	31.133
394.71	31.796
395.07	31.198
395.42	31.582
395.78	31.688
396.14	32.264
396.50	31.651
396.85	30.710
397.21	31.006
397.57	30.506
397.92	31.501
398.28	30.147
398.64	30.664
399.00	29.529
399.35	30.471
399.71	31.359
400.07	30.938
400.42	30.850
400.78	30.498
401.14	30.563
401.49	30.415
401.85	29.419
402.21	30.243
402.57	30.634
402.92	29.137
403.28	28.981
403.63	29.714
403.99	29.869
404.35	29.562
404.70	29.632
405.06	29.511
405.42	28.513
405.77	29.062
406.13	28.849
406.49	29.110
406.84	29.751
407.20	28.340
407.55	28.770
407.91	29.227
408.27	29.388
408.62	29.261
408.98	28.729
409.34	28.328
409.69	28.554
410.05	28.488
410.40	29.756
410.76	28.828
411.11	28.989
411.47	27.948
411.83	28.277
412.18	28.012
412.54	28.453
412.89	28.405
413.25	28.386
413.60	27.858
413.96	28.205
414.31	27.252
414.67	28.444
415.03	28.308
415.38	27.554
415.74	27.062
416.09	28.933
416.45	26.863
416.80	26.438
417.16	27.650
417.51	27.522
417.87	27.897
418.22	27.066
418.58	25.960
418.93	28.580
419.29	27.867
419.64	27.131
420.00	27.418
420.35	27.344
420.71	26.766
421.06	26.279
421.42	27.466
421.77	26.171
422.12	26.850
422.48	26.318
422.83	26.561
423.19	26.737
423.54	25.996
423.90	26.173
424.25	27.413
424.61	25.488
424.96	25.755
425.31	26.858
425.67	25.174
426.02	26.121
426.38	27.038
426.73	26.228
427.09	27.451
427.44	25.942
427.79	25.041
428.15	26.313
428.50	25.674
428.85	25.431
429.21	26.117
429.56	25.864
429.92	25.848
430.27	25.976
430.62	25.550
430.98	26.168
431.33	25.562
431.68	25.000
432.04	26.054
432.39	26.299
432.74	26.313
433.10	25.581
433.45	25.028
433.80	25.215
434.16	26.033
434.51	25.745
434.86	25.896
435.22	25.770
435.57	25.943
435.92	25.431
436.28	24.687
436.63	25.997
436.98	24.691
437.34	25.648
437.69	25.537
438.04	25.013
438.39	24.756
438.75	25.014
439.10	25.000
439.45	24.762
439.81	25.085
440.16	24.718
440.51	25.251
440.86	24.013
441.22	24.812
441.57	24.790
441.92	25.024
442.27	24.848
442.63	24.342
442.98	25.027
443.33	25.039
443.68	24.480
444.03	25.494
444.39	25.196
444.74	24.604
445.09	24.835
445.44	24.289
445.79	25.144
446.15	24.512
446.50	24.755
446.85	24.757
447.20	25.000
447.55	24.320
447.91	23.298
448.26	24.260
448.61	23.592
448.96	24.571
449.31	23.860
449.66	23.094
450.02	23.523
450.37	24.880
450.72	24.489
451.07	24.772
451.42	22.935
451.77	23.013
452.12	23.815
452.47	24.124
452.83	24.381
453.18	23.526
453.53	23.148
453.88	23.689
454.23	23.616
454.58	23.854
454.93	23.058
455.28	24.443
455.63	23.536
455.98	23.966
456.34	23.734
456.69	23.339
457.04	23.404
457.39	22.894
457.74	23.322
458.09	23.723
458.44	23.114
458.79	22.486
459.14	23.859
459.49	24.109
459.84	23.242
460.19	22.543
460.54	23.396
460.89	24.352
461.24	22.356
461.59	23.188
461.94	22.019
462.29	22.732
462.64	22.812
462.99	23.038
463.34	23.297
463.69	22.274
464.04	23.513
464.39	22.646
464.74	23.090
465.09	21.799
465.44	22.425
465.79	22.528
466.14	21.834
466.49	22.368
466.84	22.975
467.19	21.965
467.54	21.739
467.89	21.379
468.24	21.662
468.59	21.772
468.94	21.911
469.29	21.236
469.64	21.424
469.99	21.479
470.34	21.473
470.68	22.146
471.03	22.462
471.38	22.629
471.73	22.302
472.08	21.827
472.43	20.771
472.78	22.103
473.13	21.618
473.48	21.329
473.83	22.461
474.17	21.512
474.52	20.986
474.87	22.315
475.22	20.845
475.57	21.236
475.92	21.205
476.27	21.885
476.61	21.236
476.96	21.794
477.31	20.990
477.66	21.616
478.01	21.098
478.36	21.087
478.70	21.182
479.05	21.575
479.40	21.175
479.75	21.085
480.10	21.459
480.45	21.149
480.79	20.862
481.14	20.818
481.49	21.990
481.84	21.062
482.19	20.903
482.53	21.207
482.88	21.710
483.23	21.254
483.58	20.262
483.92	20.479
484.27	20.999
484.62	20.008
484.97	20.373
485.31	19.958
485.66	19.228
486.01	19.058
486.36	19.501
486.70	20.328
487.05	20.384
487.40	20.176
487.75	20.127
488.09	19.668
488.44	20.222
488.79	20.101
489.13	20.058
489.48	19.379
489.83	19.557
490.17	19.482
490.52	20.197
490.87	20.178
491.22	19.757
491.56	20.307
491.91	20.759
492.26	20.338
492.60	19.895
492.95	19.877
493.30	19.991
493.64	20.061
493.99	20.482
494.34	19.817
494.68	19.486
495.03	20.088
495.37	20.151
495.72	20.181
496.07	19.895
496.41	19.863
496.76	20.601
497.11	19.363
497.45	19.508
497.80	19.769
498.14	19.773
498.49	20.496
498.84	19.698
499.18	19.703
499.53	19.238
499.87	19.473
500.22	18.967
500.56	20.108
500.91	19.725
501.26	19.455
501.60	19.487
501.95	19.583
502.29	19.789
502.64	19.545
502.98	19.586
503.33	18.877
503.67	18.840
504.02	19.921
504.36	20.241
504.71	19.063
505.06	19.100
505.40	19.607
505.75	18.898
506.09	19.613
506.44	19.824
506.78	19.817
507.13	19.779
507.47	19.517
507.82	18.608
508.16	19.073
508.51	18.753
508.85	19.509
509.19	19.090
509.54	20.125
509.88	18.601
510.23	19.524
510.57	19.961
510.92	19.158
511.26	18.711
511.61	18.880
511.95	18.838
512.30	19.842
512.64	18.791
512.98	19.060
513.33	19.657
513.67	19.174
514.02	19.111
514.36	19.386
514.70	19.323
515.05	19.656
515.39	19.633
515.74	19.459
516.08	18.912
516.42	20.356
516.77	19.506
517.11	18.927
517.46	19.353
517.80	19.455
518.14	20.022
518.49	19.794
518.83	18.999
519.17	18.848
519.52	18.606
519.86	19.905
520.20	19.382
520.55	19.387
520.89	19.313
521.23	19.319
521.58	19.266
521.92	19.490
522.26	19.645
522.61	18.750
522.95	19.204
523.29	19.195
523.64	18.778
523.98	18.996
524.32	19.427
524.66	19.920
525.01	18.630
525.35	17.978
525.69	19.490
526.04	18.599
526.38	19.483
526.72	18.512
527.06	19.472
527.41	19.534
527.75	19.359
528.09	18.418
528.43	19.242
528.78	18.555
529.12	19.037
529.46	19.112
529.80	19.279
530.15	18.551
530.49	18.268
530.83	19.421
531.17	19.235
531.51	19.013
531.86	19.111
532.20	19.390
532.54	18.253
532.88	19.212
533.22	19.034
533.57	19.331
533.91	19.136
534.25	18.881
534.59	18.793
534.93	18.280
535.27	18.873
535.62	19.500
535.96	19.175
536.30	18.625
536.64	19.219
536.98	18.758
537.32	18.951
537.66	19.339
538.01	19.335
538.35	17.783
538.69	17.969
539.03	18.761
539.37	17.962
539.71	18.078
540.05	19.005
540.39	17.665
540.73	18.822
541.07	18.761
541.42	19.019
541.76	18.090
542.10	18.275
542.44	17.418
542.78	18.248
543.12	18.415
543.46	18.681
543.80	18.405
544.14	17.594
544.48	18.499
544.82	17.654
545.16	17.412
545.50	18.993
545.84	18.677
546.18	19.198
546.52	18.217
546.86	18.239
547.20	17.303
547.54	17.915
547.88	18.143
548.22	17.193
548.56	18.022
548.90	17.075
549.24	17.994
549.58	18.423
549.92	17.985
550.26	18.252
550.60	18.251
550.94	18.499
551.28	18.284
551.62	19.205
551.96	18.511
552.30	17.973
552.64	18.482
552.98	17.779
553.32	18.714
553.66	18.071
554.00	18.033
554.34	17.954
554.68	17.301
555.02	17.740
555.36	17.554
555.69	17.553
556.03	17.339
556.37	16.959
556.71	16.994
557.05	17.955
557.39	17.717
557.73	17.437
558.07	17.550
558.41	18.738
558.75	18.256
559.08	18.093
559.42	17.833
559.76	18.250
560.10	17.749
560.44	18.799
560.78	17.375
561.12	17.549
561.45	18.005
561.79	17.949
562.13	18.053
562.47	16.708
562.81	17.658
563.15	18.245
563.48	18.459
563.82	16.929
564.16	16.959
564.50	17.521
564.84	18.053
565.17	17.706
565.51	16.168
565.85	17.696
566.19	16.302
566.52	17.437
566.86	17.544
567.20	17.020
567.54	17.419
567.88	17.278
568.21	17.441
568.55	17.170
568.89	17.204
569.23	16.561
569.56	16.764
569.90	16.679
570.24	16.121
570.57	15.876
570.91	15.309
571.25	15.823
571.59	15.976
571.92	15.778
572.26	15.855
572.60	15.452
572.93	16.087
573.27	15.369
573.61	15.908
573.95	15.538
574.28	15.347
574.62	15.734
574.96	15.218
575.29	14.915
575.63	15.292
575.97	15.521
576.30	15.371
576.64	15.342
576.98	15.535
577.31	15.506
577.65	15.250
577.98	15.267
578.32	15.297
578.66	15.153
578.99	15.134
579.33	15.629
579.67	15.322
580.00	15.464
580.34	15.140
580.67	15.026
581.01	14.994
581.35	15.001
581.68	15.120
582.02	15.179
582.35	15.192
582.69	15.070
583.02	15.063
583.36	15.034
583.70	14.997
584.03	15.407
584.37	15.255
584.70	15.037
585.04	14.648
585.37	15.334
585.71	15.059
586.04	14.619
586.38	15.204
586.72	15.117
587.05	14.658
587.39	15.208
587.72	15.359
588.06	15.305
588.39	14.937
588.73	15.000
589.06	15.463
589.40	15.366
589.73	15.649
590.07	15.385
590.40	15.652
590.73	15.624
591.07	15.562
591.40	15.785
591.74	15.262
592.07	16.281
592.41	15.536
592.74	15.193
593.08	15.541
593.41	15.223
593.75	15.460
594.08	15.086
594.41	15.769
594.75	15.178
595.08	15.108
595.42	15.617
595.75	15.176
596.09	15.486
596.42	14.905
596.75	15.747
597.09	15.758
597.42	15.495
597.75	15.053
598.09	15.754
598.42	15.923
598.76	14.979
599.09	15.415
599.42	14.717
599.76	15.286
600.09	15.215
600.42	15.382
600.76	15.225
601.09	15.134
601.42	15.173
601.76	15.276
602.09	15.368
602.42	14.976
602.76	14.945
603.09	15.235
603.42	15.137
603.76	14.834
604.09	15.756
604.42	15.303
604.76	14.916
605.09	15.237
605.42	15.271
605.75	15.000
606.09	14.707
606.42	15.286
606.75	15.217
607.09	14.939
607.42	15.491
607.75	15.592
608.08	15.588
608.42	14.712
608.75	15.672
609.08	15.068
609.41	15.307
609.75	15.491
610.08	15.435
610.41	15.336
610.74	15.084
611.07	15.098
611.41	15.874
611.74	15.381
612.07	15.521
612.40	15.209
612.73	15.941
613.07	15.452
613.40	16.121
613.73	14.781
614.06	15.358
614.39	15.306
614.72	14.799
615.06	15.159
615.39	15.611
615.72	15.498
616.05	15.396
616.38	16.196
616.71	15.883
617.05	15.335
617.38	15.677
617.71	15.335
618.04	15.380
618.37	15.847
618.70	16.290
619.03	16.308
619.36	15.598
619.69	16.208
620.03	16.133
620.36	15.521
620.69	16.410
621.02	16.535
621.35	16.691
621.68	17.064
622.01	16.228
622.34	15.481
622.67	15.876
623.00	14.980
623.33	16.656
623.66	16.278
623.99	16.195
624.32	16.504
624.65	16.088
624.99	15.800
625.32	16.982
625.65	17.667
625.98	15.119
626.31	16.938
626.64	17.509
626.97	17.179
627.30	15.034
627.63	15.754
627.96	17.342
628.29	16.420
628.62	16.457
628.95	16.740
629.28	16.483
629.61	17.340
629.94	16.318
630.26	17.119
630.59	17.876
630.92	17.489
631.25	18.157
631.58	17.420
631.91	17.807
