SpectraSuite Data File
++++++++++++++++++++++++++++++++++++
Date: Thu May 14 15:58:54 PDT 2015
User: schluterlab
Dark Spectrum Present: Yes
Reference Spectrum Present: Yes
Number of Sampled Component Spectra: 1
Spectrometers: USB2E3373
Integration Time (usec): 3000 (USB2E3373)
Spectra Averaged: 3 (USB2E3373)
Boxcar Smoothing: 0 (USB2E3373)
Correct for Electrical Dark: No (USB2E3373)
Strobe/Lamp Enabled: No (USB2E3373)
Correct for Detector Non-linearity: No (USB2E3373)
Correct for Stray Light: No (USB2E3373)
Number of Pixels in Processed Spectrum: 2048
>>>>>Begin Processed Spectral Data<<<<<
178.53	0.000
178.91	271.429
179.29	-3600.000
179.67	-2000.000
180.04	192.857
180.42	210.000
180.80	540.000
181.18	-2400.000
181.56	-1500.000
181.94	475.000
182.31	-475.000
182.69	933.333
183.07	-1050.000
183.45	425.000
183.83	-216.667
184.20	-366.667
184.58	1600.000
184.96	-475.000
185.34	-177.778
185.72	-200.000
186.09	311.111
186.47	1500.000
186.85	540.000
187.23	-222.222
187.61	-2500.000
187.98	400.000
188.36	525.000
188.74	-400.000
189.12	-466.667
189.49	-56.250
189.87	-337.500
190.25	-166.667
190.63	-320.000
191.00	-211.111
191.38	0.000
191.76	-725.000
192.14	-333.333
192.51	1300.000
192.89	-166.667
193.27	0.000
193.65	-200.000
194.02	-2400.000
194.40	-242.857
194.78	328.571
195.15	0.000
195.53	-154.545
195.91	0.000
196.29	-475.000
196.66	-115.385
197.04	-1700.000
197.42	-271.429
197.79	-1050.000
198.17	-212.500
198.55	-271.429
198.92	-155.556
199.30	-212.500
199.68	-118.182
200.05	-57.143
200.43	-1250.000
200.81	371.429
201.18	0.000
201.56	344.444
201.94	0.000
202.31	966.667
202.69	-277.778
203.07	1600.000
203.44	-177.778
203.82	-425.000
204.19	-116.667
204.57	-400.000
204.95	-250.000
205.32	-2400.000
205.70	400.000
206.08	-233.333
206.45	-250.000
206.83	760.000
207.20	-266.667
207.58	-480.000
207.96	-516.667
208.33	-333.333
208.71	191.667
209.08	-250.000
209.46	0.000
209.84	333.333
210.21	1050.000
210.59	1050.000
210.96	1000.000
211.34	-425.000
211.71	-212.500
212.09	-2200.000
212.46	0.000
212.84	1750.000
213.22	-500.000
213.59	-475.000
213.97	-190.000
214.34	-500.000
214.72	350.000
215.09	-475.000
215.47	0.000
215.84	271.429
216.22	1500.000
216.59	-440.000
216.97	-540.000
217.34	-475.000
217.72	-212.500
218.09	-675.000
218.47	-350.000
218.84	0.000
219.22	200.000
219.59	-52.941
219.97	-85.000
220.34	1050.000
220.72	-322.222
221.09	-69.231
221.47	-533.333
221.84	-120.000
222.22	-400.000
222.59	0.000
222.97	-75.000
223.34	-480.000
223.72	-2500.000
224.09	-375.000
224.46	-475.000
224.84	-360.000
225.21	-242.857
225.59	-650.000
225.96	-525.000
226.34	-11.538
226.71	416.667
227.08	-1500.000
227.46	-120.000
227.83	-650.000
228.21	-73.684
228.58	275.000
228.95	1450.000
229.33	-150.000
229.70	-100.000
230.08	-63.158
230.45	230.000
230.82	-433.333
231.20	-135.714
231.57	-158.333
231.95	-136.364
232.32	-81.818
232.69	-75.000
233.07	-125.000
233.44	-94.118
233.81	-140.000
234.19	-50.000
234.56	-18.182
234.93	-17.241
235.31	-52.632
235.68	-72.222
236.05	-110.000
236.43	19.231
236.80	4.000
237.17	-48.148
237.55	-33.333
237.92	-150.000
238.29	0.000
238.67	-20.455
239.04	-16.667
239.41	-21.429
239.79	2.174
240.16	5.556
240.53	4.348
240.91	-7.843
241.28	8.197
241.65	16.418
242.02	8.108
242.40	1.538
242.77	5.333
243.14	10.976
243.51	15.789
243.89	7.692
244.26	8.911
244.63	22.549
245.00	23.364
245.38	18.421
245.75	18.584
246.12	23.016
246.49	15.504
246.87	24.286
247.24	28.477
247.61	25.000
247.98	26.174
248.36	23.457
248.73	22.699
249.10	25.137
249.47	26.866
249.84	34.031
250.22	24.352
250.59	29.444
250.96	28.182
251.33	25.000
251.70	27.778
252.08	25.417
252.45	29.918
252.82	26.446
253.19	26.953
253.56	30.038
253.94	26.538
254.31	34.470
254.68	35.315
255.05	30.945
255.42	26.190
255.79	28.479
256.16	29.801
256.54	26.490
256.91	34.098
257.28	29.508
257.65	29.618
258.02	30.383
258.39	33.333
258.76	33.028
259.14	35.920
259.51	31.412
259.88	29.745
260.25	29.444
260.62	30.137
260.99	32.240
261.36	31.635
261.73	32.095
262.10	34.341
262.47	34.584
262.85	33.586
263.22	30.909
263.59	27.895
263.96	31.202
264.33	36.829
264.70	31.605
265.07	32.936
265.44	34.014
265.81	29.398
266.18	35.828
266.55	31.473
266.92	30.524
267.29	36.324
267.66	34.146
268.03	37.118
268.40	31.106
268.77	31.891
269.14	32.159
269.51	32.237
269.88	34.221
270.25	34.205
270.62	35.021
270.99	33.939
271.36	33.465
271.73	33.792
272.10	35.471
272.47	31.062
272.84	31.124
273.21	32.265
273.58	31.250
273.95	31.923
274.32	31.749
274.69	30.368
275.06	33.333
275.43	29.760
275.80	32.804
276.17	32.037
276.54	32.649
276.91	33.274
277.28	32.007
277.65	32.316
278.02	31.434
278.39	32.065
278.76	31.810
279.13	32.092
279.50	32.131
279.87	30.054
280.23	26.585
280.60	32.034
280.97	32.895
281.34	31.579
281.71	33.164
282.08	31.561
282.45	30.769
282.82	30.141
283.19	32.472
283.56	31.967
283.92	30.330
284.29	32.385
284.66	33.662
285.03	30.288
285.40	30.294
285.77	31.579
286.14	31.450
286.51	33.029
286.87	30.016
287.24	32.229
287.61	32.436
287.98	31.118
288.35	30.030
288.72	31.361
289.08	30.893
289.45	28.550
289.82	31.175
290.19	31.466
290.56	29.296
290.93	29.672
291.29	30.579
291.66	31.405
292.03	29.851
292.40	31.429
292.77	27.763
293.13	28.011
293.50	27.201
293.87	27.785
294.24	27.867
294.60	28.445
294.97	26.174
295.34	28.553
295.71	26.356
296.08	26.615
296.44	25.980
296.81	28.258
297.18	25.903
297.55	25.708
297.91	25.860
298.28	24.645
298.65	25.922
299.02	24.911
299.38	27.117
299.75	25.818
300.12	25.579
300.48	28.341
300.85	25.534
301.22	25.056
301.59	24.886
301.95	25.085
302.32	25.889
302.69	26.068
303.05	25.789
303.42	25.499
303.79	25.104
304.15	24.395
304.52	25.687
304.89	25.445
305.25	24.224
305.62	25.601
305.99	24.948
306.35	23.992
306.72	26.784
307.09	24.365
307.45	24.638
307.82	25.732
308.19	25.732
308.55	25.554
308.92	23.856
309.29	25.096
309.65	24.854
310.02	25.545
310.38	26.280
310.75	25.146
311.12	27.709
311.48	26.491
311.85	25.546
312.22	25.712
312.58	25.446
312.95	26.386
313.31	25.655
313.68	26.740
314.05	27.823
314.41	28.051
314.78	26.975
315.14	28.312
315.51	27.793
315.87	27.813
316.24	27.854
316.61	29.396
316.97	26.968
317.34	27.866
317.70	28.908
318.07	30.159
318.43	28.656
318.80	30.518
319.16	30.987
319.53	28.278
319.89	28.834
320.26	30.605
320.62	30.053
320.99	30.748
321.35	30.869
321.72	31.163
322.08	32.101
322.45	31.346
322.81	31.949
323.18	33.009
323.54	32.328
323.91	33.630
324.27	32.444
324.64	33.501
325.00	32.587
325.37	32.924
325.73	33.306
326.10	34.793
326.46	34.039
326.83	36.509
327.19	35.118
327.56	36.364
327.92	34.697
328.29	35.161
328.65	35.092
329.01	35.533
329.38	35.636
329.74	37.243
330.11	37.414
330.47	35.889
330.84	37.037
331.20	38.000
331.56	35.269
331.93	38.075
332.29	38.644
332.66	37.375
333.02	36.265
333.38	36.074
333.75	37.205
334.11	37.198
334.48	35.891
334.84	37.128
335.20	37.196
335.57	36.931
335.93	38.347
336.29	36.772
336.66	37.006
337.02	36.957
337.38	37.755
337.75	36.694
338.11	39.024
338.47	37.717
338.84	36.464
339.20	36.394
339.56	35.750
339.93	35.714
340.29	36.312
340.65	36.821
341.02	36.472
341.38	36.621
341.74	35.755
342.11	36.122
342.47	36.140
342.83	36.876
343.20	36.713
343.56	37.209
343.92	35.388
344.28	37.344
344.65	36.589
345.01	36.115
345.37	36.159
345.73	35.931
346.10	37.285
346.46	37.184
346.82	36.255
347.19	36.822
347.55	35.888
347.91	36.256
348.27	35.281
348.63	36.253
349.00	35.570
349.36	35.762
349.72	35.789
350.08	35.215
350.45	35.741
350.81	35.445
351.17	35.865
351.53	35.785
351.89	35.156
352.26	35.373
352.62	34.925
352.98	35.878
353.34	34.354
353.70	35.978
354.07	35.469
354.43	36.295
354.79	35.004
355.15	35.320
355.51	34.576
355.87	35.677
356.24	35.361
356.60	35.772
356.96	35.063
357.32	34.944
357.68	34.700
358.04	34.431
358.40	36.493
358.77	34.868
359.13	33.826
359.49	34.052
359.85	34.518
360.21	34.075
360.57	34.530
360.93	35.261
361.29	34.877
361.66	34.106
362.02	34.586
362.38	35.699
362.74	34.288
363.10	35.076
363.46	35.526
363.82	35.014
364.18	34.975
364.54	34.924
364.90	34.716
365.26	33.310
365.62	35.067
365.98	35.262
366.35	34.362
366.71	34.150
367.07	34.168
367.43	35.259
367.79	34.771
368.15	34.983
368.51	35.995
368.87	34.879
369.23	33.333
369.59	34.768
369.95	34.212
370.31	34.571
370.67	33.769
371.03	33.864
371.39	33.109
371.75	34.182
372.11	35.027
372.47	33.785
372.83	34.359
373.19	32.889
373.55	34.214
373.91	34.083
374.27	34.411
374.63	34.032
374.99	33.687
375.35	34.870
375.71	33.677
376.07	33.505
376.42	33.816
376.78	34.431
377.14	33.874
377.50	33.839
377.86	33.436
378.22	33.713
378.58	34.483
378.94	33.744
379.30	33.802
379.66	34.039
380.02	34.391
380.38	34.620
380.74	33.577
381.09	34.146
381.45	33.523
381.81	33.665
382.17	34.323
382.53	32.515
382.89	33.070
383.25	32.943
383.61	33.738
383.97	33.392
384.32	34.091
384.68	32.599
385.04	33.835
385.40	34.414
385.76	33.939
386.12	33.633
386.48	34.059
386.83	34.863
387.19	33.372
387.55	33.920
387.91	32.934
388.27	33.776
388.62	33.276
388.98	32.262
389.34	34.060
389.70	33.411
390.06	33.037
390.42	33.976
390.77	34.317
391.13	32.746
391.49	33.031
391.85	32.909
392.20	33.215
392.56	33.491
392.92	33.206
393.28	33.554
393.64	33.520
393.99	33.178
394.35	33.119
394.71	32.575
395.07	32.814
395.42	33.295
395.78	34.186
396.14	32.977
396.50	32.779
396.85	32.677
397.21	32.663
397.57	32.803
397.92	32.417
398.28	32.537
398.64	32.094
399.00	32.461
399.35	32.513
399.71	32.609
400.07	33.127
400.42	32.712
400.78	32.581
401.14	31.873
401.49	32.177
401.85	33.314
402.21	32.619
402.57	33.040
402.92	32.270
403.28	31.206
403.63	32.279
403.99	32.363
404.35	31.097
404.70	32.238
405.06	30.978
405.42	32.084
405.77	32.988
406.13	32.415
406.49	32.038
406.84	32.244
407.20	31.526
407.55	31.920
407.91	32.055
408.27	31.920
408.62	32.344
408.98	32.153
409.34	31.378
409.69	33.375
410.05	32.415
410.40	33.063
410.76	31.913
411.11	32.554
411.47	31.020
411.83	31.805
412.18	32.530
412.54	31.654
412.89	31.257
413.25	31.659
413.60	31.132
413.96	32.692
414.31	31.615
414.67	31.008
415.03	31.323
415.38	32.219
415.74	32.132
416.09	32.511
416.45	30.495
416.80	30.967
417.16	31.354
417.51	31.880
417.87	30.349
418.22	30.958
418.58	31.722
418.93	31.315
419.29	31.751
419.64	31.873
420.00	31.217
420.35	31.948
420.71	31.132
421.06	30.305
421.42	30.906
421.77	30.802
422.12	30.973
422.48	30.773
422.83	30.668
423.19	31.883
423.54	31.471
423.90	30.646
424.25	31.573
424.61	30.827
424.96	30.862
425.31	31.157
425.67	30.757
426.02	30.991
426.38	30.941
426.73	30.301
427.09	31.603
427.44	30.366
427.79	31.620
428.15	30.594
428.50	29.494
428.85	30.827
429.21	31.330
429.56	30.553
429.92	30.565
430.27	31.133
430.62	31.265
430.98	30.890
431.33	30.743
431.68	30.220
432.04	31.488
432.39	31.066
432.74	30.080
433.10	31.747
433.45	29.487
433.80	30.204
434.16	30.682
434.51	30.370
434.86	30.565
435.22	30.659
435.57	31.368
435.92	29.883
436.28	31.058
436.63	31.404
436.98	30.274
437.34	31.398
437.69	30.050
438.04	29.773
438.39	30.098
438.75	30.880
439.10	29.968
439.45	30.184
439.81	30.452
440.16	29.437
440.51	30.379
440.86	29.794
441.22	30.547
441.57	30.765
441.92	30.844
442.27	31.061
442.63	30.601
442.98	30.309
443.33	30.089
443.68	31.566
444.03	31.185
444.39	31.484
444.74	30.066
445.09	30.411
445.44	30.558
445.79	31.657
446.15	30.884
446.50	30.749
446.85	30.739
447.20	30.996
447.55	31.381
447.91	30.314
448.26	30.233
448.61	30.765
448.96	31.652
449.31	30.700
449.66	29.847
450.02	31.013
450.37	30.741
450.72	30.355
451.07	30.068
451.42	30.676
451.77	30.350
452.12	30.361
452.47	30.362
452.83	31.025
453.18	29.480
453.53	30.557
453.88	30.260
454.23	30.508
454.58	31.167
454.93	30.036
455.28	31.005
455.63	29.847
455.98	30.335
456.34	31.037
456.69	30.688
457.04	30.733
457.39	30.543
457.74	30.593
458.09	30.478
458.44	30.065
458.79	29.964
459.14	30.414
459.49	30.108
459.84	31.112
460.19	29.595
460.54	30.380
460.89	29.539
461.24	29.540
461.59	30.825
461.94	29.949
462.29	30.291
462.64	29.451
462.99	31.262
463.34	29.916
463.69	30.129
464.04	30.017
464.39	29.933
464.74	29.247
465.09	30.161
465.44	29.077
465.79	29.402
466.14	28.765
466.49	29.632
466.84	30.579
467.19	29.769
467.54	29.553
467.89	29.425
468.24	29.640
468.59	29.531
468.94	28.438
469.29	29.874
469.64	30.134
469.99	29.063
470.34	30.012
470.68	28.571
471.03	30.124
471.38	30.281
471.73	29.259
472.08	30.013
472.43	29.982
472.78	29.912
473.13	29.456
473.48	29.849
473.83	30.180
474.17	29.074
474.52	28.803
474.87	29.014
475.22	29.465
475.57	29.076
475.92	29.617
476.27	28.914
476.61	28.816
476.96	29.301
477.31	29.208
477.66	30.430
478.01	29.741
478.36	29.412
478.70	28.768
479.05	29.550
479.40	29.714
479.75	29.683
480.10	28.659
480.45	29.672
480.79	29.297
481.14	28.585
481.49	29.577
481.84	29.460
482.19	29.505
482.53	29.646
482.88	29.198
483.23	29.791
483.58	28.996
483.92	28.679
484.27	28.874
484.62	29.208
484.97	29.005
485.31	28.511
485.66	28.247
486.01	27.645
486.36	28.073
486.70	29.127
487.05	29.893
487.40	29.510
487.75	29.415
488.09	28.571
488.44	28.607
488.79	28.398
489.13	29.218
489.48	28.388
489.83	28.773
490.17	27.582
490.52	28.407
490.87	28.892
491.22	28.120
491.56	29.138
491.91	29.394
492.26	28.170
492.60	29.209
492.95	29.048
493.30	28.866
493.64	28.384
493.99	28.553
494.34	29.443
494.68	28.266
495.03	28.546
495.37	29.339
495.72	28.889
496.07	28.747
496.41	28.614
496.76	28.607
497.11	28.960
497.45	28.442
497.80	28.299
498.14	28.254
498.49	27.849
498.84	29.936
499.18	28.970
499.53	28.700
499.87	28.308
500.22	27.827
500.56	28.520
500.91	28.650
501.26	29.773
501.60	27.751
501.95	28.224
502.29	28.785
502.64	27.984
502.98	27.179
503.33	28.294
503.67	27.780
504.02	28.109
504.36	28.374
504.71	28.388
505.06	27.831
505.40	28.336
505.75	28.552
506.09	28.867
506.44	28.598
506.78	28.761
507.13	28.446
507.47	28.233
507.82	28.362
508.16	28.011
508.51	28.036
508.85	28.578
509.19	28.091
509.54	28.386
509.88	27.975
510.23	28.752
510.57	29.000
510.92	27.431
511.26	27.465
511.61	28.151
511.95	27.233
512.30	28.557
512.64	27.886
512.98	27.664
513.33	28.579
513.67	27.843
514.02	28.053
514.36	28.338
514.70	28.698
515.05	28.624
515.39	28.556
515.74	28.685
516.08	27.787
516.42	27.891
516.77	27.918
517.11	27.488
517.46	28.261
517.80	29.075
518.14	29.325
518.49	27.766
518.83	28.366
519.17	28.325
519.52	28.774
519.86	28.511
520.20	28.009
520.55	27.601
520.89	28.435
521.23	27.415
521.58	28.418
521.92	27.535
522.26	28.293
522.61	28.819
522.95	28.201
523.29	27.299
523.64	28.531
523.98	28.465
524.32	28.023
524.66	28.173
525.01	27.293
525.35	27.513
525.69	27.958
526.04	27.612
526.38	27.931
526.72	27.739
527.06	28.270
527.41	27.697
527.75	29.038
528.09	27.981
528.43	27.235
528.78	27.168
529.12	26.606
529.46	27.656
529.80	27.803
530.15	28.116
530.49	27.284
530.83	27.568
531.17	27.718
531.51	27.858
531.86	26.863
532.20	28.780
532.54	27.349
532.88	27.091
533.22	27.283
533.57	28.217
533.91	27.217
534.25	28.038
534.59	27.644
534.93	28.070
535.27	26.310
535.62	28.198
535.96	27.600
536.30	26.968
536.64	28.408
536.98	28.352
537.32	28.210
537.66	27.449
538.01	27.251
538.35	26.736
538.69	26.983
539.03	28.326
539.37	27.621
539.71	27.868
540.05	26.859
540.39	26.895
540.73	27.322
541.07	27.406
541.42	26.698
541.76	27.224
542.10	27.563
542.44	26.675
542.78	27.920
543.12	26.818
543.46	26.374
543.80	26.679
544.14	26.391
544.48	27.069
544.82	26.930
545.16	26.774
545.50	26.483
545.84	26.822
546.18	28.457
546.52	26.879
546.86	27.421
547.20	27.799
547.54	26.217
547.88	26.763
548.22	26.725
548.56	26.682
548.90	27.642
549.24	26.687
549.58	27.319
549.92	26.658
550.26	27.443
550.60	26.101
550.94	26.908
551.28	27.327
551.62	27.695
551.96	26.472
552.30	26.386
552.64	26.820
552.98	26.949
553.32	26.688
553.66	27.588
554.00	26.734
554.34	26.898
554.68	26.469
555.02	25.690
555.36	27.285
555.69	25.496
556.03	26.356
556.37	26.596
556.71	26.189
557.05	26.454
557.39	26.808
557.73	26.288
558.07	26.755
558.41	27.043
558.75	26.572
559.08	27.279
559.42	26.337
559.76	26.255
560.10	25.988
560.44	26.319
560.78	27.375
561.12	25.800
561.45	26.946
561.79	27.350
562.13	27.357
562.47	26.510
562.81	27.025
563.15	26.768
563.48	27.284
563.82	26.602
564.16	25.379
564.50	26.400
564.84	25.723
565.17	27.412
565.51	25.316
565.85	25.831
566.19	26.152
566.52	25.980
566.86	26.316
567.20	25.557
567.54	26.182
567.88	25.688
568.21	26.729
568.55	26.763
568.89	26.782
569.23	26.278
569.56	26.495
569.90	25.303
570.24	25.734
570.57	25.305
570.91	24.679
571.25	25.629
571.59	25.216
571.92	25.533
572.26	25.066
572.60	25.198
572.93	24.993
573.27	25.232
573.61	25.199
573.95	25.540
574.28	25.274
574.62	24.989
574.96	24.835
575.29	24.983
575.63	24.555
575.97	25.054
576.30	25.093
576.64	24.911
576.98	24.852
577.31	25.186
577.65	24.907
577.98	24.906
578.32	24.214
578.66	24.124
578.99	24.821
579.33	25.211
579.67	24.705
580.00	24.702
580.34	24.586
580.67	24.316
581.01	24.578
581.35	24.800
581.68	24.348
582.02	24.625
582.35	24.663
582.69	24.718
583.02	24.949
583.36	24.707
583.70	24.608
584.03	24.118
584.37	24.266
584.70	24.572
585.04	24.250
585.37	24.878
585.71	24.293
586.04	24.879
586.38	24.420
586.72	24.242
587.05	24.789
587.39	24.782
587.72	24.330
588.06	24.565
588.39	24.595
588.73	24.365
589.06	24.577
589.40	24.431
589.73	25.321
590.07	25.199
590.40	25.254
590.73	24.602
591.07	25.316
591.40	24.106
591.74	24.762
592.07	25.294
592.41	24.842
592.74	24.281
593.08	24.873
593.41	25.255
593.75	25.000
594.08	24.689
594.41	24.423
594.75	24.643
595.08	24.361
595.42	24.578
595.75	24.572
596.09	25.008
596.42	24.794
596.75	24.817
597.09	25.051
597.42	24.315
597.75	25.127
598.09	24.841
598.42	25.292
598.76	23.768
599.09	24.635
599.42	24.137
599.76	24.728
600.09	24.992
600.42	24.291
600.76	24.439
601.09	24.228
601.42	24.442
601.76	24.241
602.09	24.267
602.42	23.846
602.76	24.502
603.09	24.046
603.42	25.181
603.76	24.912
604.09	25.195
604.42	24.844
604.76	24.087
605.09	25.329
605.42	24.841
605.75	24.346
606.09	24.076
606.42	24.371
606.75	24.025
607.09	23.349
607.42	24.162
607.75	23.994
608.08	24.112
608.42	23.902
608.75	24.710
609.08	23.854
609.41	24.482
609.75	24.286
610.08	24.406
610.41	24.894
610.74	23.824
611.07	25.044
611.41	24.350
611.74	24.665
612.07	24.778
612.40	24.430
612.73	25.086
613.07	24.988
613.40	25.024
613.73	24.458
614.06	24.289
614.39	24.490
614.72	23.969
615.06	24.735
615.39	23.393
615.72	23.934
616.05	24.672
616.38	24.218
616.71	24.295
617.05	24.334
617.38	24.398
617.71	24.946
618.04	24.663
618.37	24.918
618.70	24.095
619.03	24.492
619.36	25.277
619.69	24.471
620.03	24.419
620.36	24.785
620.69	24.183
621.02	25.591
621.35	26.415
621.68	25.669
622.01	24.342
622.34	24.826
622.67	24.811
623.00	23.752
623.33	24.486
623.66	25.227
623.99	23.173
624.32	24.756
624.65	23.745
624.99	25.618
625.32	25.147
625.65	24.815
625.98	25.288
626.31	23.955
626.64	24.322
626.97	24.606
627.30	23.994
627.63	24.081
627.96	25.375
628.29	24.514
628.62	24.349
628.95	25.504
629.28	25.319
629.61	24.916
629.94	24.603
630.26	25.254
630.59	25.389
630.92	24.156
631.25	26.565
