SpectraSuite Data File
++++++++++++++++++++++++++++++++++++
Date: Thu May 14 16:03:03 PDT 2015
User: schluterlab
Dark Spectrum Present: Yes
Reference Spectrum Present: Yes
Number of Sampled Component Spectra: 1
Spectrometers: USB2E3373
Integration Time (usec): 3000 (USB2E3373)
Spectra Averaged: 3 (USB2E3373)
Boxcar Smoothing: 0 (USB2E3373)
Correct for Electrical Dark: No (USB2E3373)
Strobe/Lamp Enabled: No (USB2E3373)
Correct for Detector Non-linearity: No (USB2E3373)
Correct for Stray Light: No (USB2E3373)
Number of Pixels in Processed Spectrum: 2048
>>>>>Begin Processed Spectral Data<<<<<
178.53	0.000
178.91	228.571
179.29	-2200.000
179.67	-1200.000
180.04	157.143
180.42	260.000
180.80	460.000
181.18	-1900.000
181.56	-1300.000
181.94	375.000
182.31	-175.000
182.69	466.667
183.07	-650.000
183.45	450.000
183.83	-100.000
184.20	-500.000
184.58	1400.000
184.96	-350.000
185.34	-122.222
185.72	-360.000
186.09	333.333
186.47	1200.000
186.85	560.000
187.23	-211.111
187.61	-2400.000
187.98	340.000
188.36	600.000
188.74	-500.000
189.12	-200.000
189.49	-87.500
189.87	-300.000
190.25	-233.333
190.63	-300.000
191.00	-277.778
191.38	0.000
191.76	-600.000
192.14	-183.333
192.51	800.000
192.89	-166.667
193.27	0.000
193.65	-185.714
194.02	-2300.000
194.40	-71.429
194.78	185.714
195.15	0.000
195.53	-209.091
195.91	0.000
196.29	-200.000
196.66	-130.769
197.04	-2000.000
197.42	-185.714
197.79	-600.000
198.17	-125.000
198.55	-257.143
198.92	-55.556
199.30	-300.000
199.68	-136.364
200.05	-85.714
200.43	-1000.000
200.81	385.714
201.18	0.000
201.56	344.444
201.94	0.000
202.31	433.333
202.69	-288.889
203.07	900.000
203.44	-33.333
203.82	-375.000
204.19	-83.333
204.57	-250.000
204.95	-87.500
205.32	-2100.000
205.70	225.000
206.08	-150.000
206.45	-316.667
206.83	580.000
207.20	-300.000
207.58	-480.000
207.96	-300.000
208.33	-50.000
208.71	133.333
209.08	-166.667
209.46	0.000
209.84	366.667
210.21	1000.000
210.59	550.000
210.96	466.667
211.34	-400.000
211.71	-212.500
212.09	-2100.000
212.46	0.000
212.84	1150.000
213.22	-420.000
213.59	-475.000
213.97	-110.000
214.34	-466.667
214.72	300.000
215.09	-400.000
215.47	0.000
215.84	200.000
216.22	1250.000
216.59	-340.000
216.97	-300.000
217.34	-275.000
217.72	-137.500
218.09	-450.000
218.47	-550.000
218.84	0.000
219.22	400.000
219.59	-88.235
219.97	-60.000
220.34	1000.000
220.72	-188.889
221.09	-61.538
221.47	-433.333
221.84	-110.000
222.22	-157.143
222.59	0.000
222.97	-175.000
223.34	-440.000
223.72	-1000.000
224.09	-350.000
224.46	-525.000
224.84	-120.000
225.21	-342.857
225.59	-475.000
225.96	-500.000
226.34	-46.154
226.71	433.333
227.08	-950.000
227.46	-33.333
227.83	-350.000
228.21	-36.842
228.58	212.500
228.95	1200.000
229.33	-66.667
229.70	-60.000
230.08	-52.632
230.45	260.000
230.82	-566.667
231.20	-150.000
231.57	-141.667
231.95	-181.818
232.32	-145.455
232.69	-70.000
233.07	-425.000
233.44	-70.588
233.81	-170.000
234.19	-61.111
234.56	-77.273
234.93	-27.586
235.31	-21.053
235.68	-11.111
236.05	-100.000
236.43	-30.769
236.80	-28.000
237.17	-25.926
237.55	-27.273
237.92	-190.000
238.29	-35.484
238.67	-29.545
239.04	-22.222
239.41	-21.429
239.79	-21.739
240.16	-7.407
240.53	-17.391
240.91	-31.373
241.28	1.639
241.65	11.940
242.02	1.351
242.40	-13.846
242.77	-4.000
243.14	-14.634
243.51	-32.895
243.89	-14.103
244.26	4.950
244.63	-6.863
245.00	-6.542
245.38	0.000
245.75	-21.239
246.12	6.349
246.49	-3.101
246.87	8.571
247.24	7.285
247.61	5.263
247.98	-4.027
248.36	-0.617
248.73	-4.294
249.10	-1.093
249.47	9.453
249.84	8.901
250.22	5.181
250.59	5.000
250.96	5.909
251.33	-1.020
251.70	6.410
252.08	4.167
252.45	6.967
252.82	2.066
253.19	5.469
253.56	6.464
253.94	5.385
254.31	7.955
254.68	6.993
255.05	3.909
255.42	6.803
255.79	5.825
256.16	4.636
256.54	4.305
256.91	6.557
257.28	5.902
257.65	3.822
258.02	8.555
258.39	7.692
258.76	8.563
259.14	8.908
259.51	7.781
259.88	4.533
260.25	6.944
260.62	8.493
260.99	8.470
261.36	6.702
261.73	8.223
262.10	8.516
262.47	5.094
262.85	8.838
263.22	6.494
263.59	5.000
263.96	8.184
264.33	7.417
264.70	8.148
265.07	10.979
265.44	10.658
265.81	6.713
266.18	12.245
266.55	10.714
266.92	6.150
267.29	9.847
267.66	7.539
268.03	8.515
268.40	8.351
268.77	5.239
269.14	6.167
269.51	11.404
269.88	10.246
270.25	10.463
270.62	9.283
270.99	10.303
271.36	7.525
271.73	9.234
272.10	10.220
272.47	5.611
272.84	6.024
273.21	9.218
273.58	9.073
273.95	7.115
274.32	7.034
274.69	7.737
275.06	8.059
275.43	6.470
275.80	9.700
276.17	7.963
276.54	8.209
276.91	7.871
277.28	7.595
277.65	7.181
278.02	8.088
278.39	7.428
278.76	8.787
279.13	8.688
279.50	8.419
279.87	9.660
280.23	5.458
280.60	9.322
280.97	9.375
281.34	7.810
281.71	10.660
282.08	9.302
282.45	7.529
282.82	8.791
283.19	5.331
283.56	6.557
283.92	9.910
284.29	11.690
284.66	8.703
285.03	6.410
285.40	8.346
285.77	6.656
286.14	10.687
286.51	8.524
286.87	7.741
287.24	8.133
287.61	10.314
287.98	8.157
288.35	6.657
288.72	8.284
289.08	6.589
289.45	6.953
289.82	6.777
290.19	6.753
290.56	8.028
290.93	6.277
291.29	9.366
291.66	7.025
292.03	6.106
292.40	9.252
292.77	6.604
293.13	7.713
293.50	6.307
293.87	5.638
294.24	8.800
294.60	7.712
294.97	6.040
295.34	9.347
295.71	7.314
296.08	7.881
296.44	7.230
296.81	7.674
297.18	6.351
297.55	6.486
297.91	6.524
298.28	6.635
298.65	8.442
299.02	7.438
299.38	7.666
299.75	7.593
300.12	7.060
300.48	6.336
300.85	6.524
301.22	7.494
301.59	5.594
301.95	6.328
302.32	6.556
302.69	5.367
303.05	6.964
303.42	7.206
303.79	6.771
304.15	5.678
304.52	5.814
304.89	7.016
305.25	6.729
305.62	7.941
305.99	7.113
306.35	5.444
306.72	6.825
307.09	7.107
307.45	6.315
307.82	6.054
308.19	6.458
308.55	7.040
308.92	5.940
309.29	6.322
309.65	5.750
310.02	5.149
310.38	6.594
310.75	6.893
311.12	6.520
311.48	5.572
311.85	6.838
312.22	6.262
312.58	5.822
312.95	5.832
313.31	6.233
313.68	7.875
314.05	6.865
314.41	7.468
314.78	6.721
315.14	7.078
315.51	7.110
315.87	6.391
316.24	7.671
316.61	6.661
316.97	6.063
317.34	5.644
317.70	6.900
318.07	5.908
318.43	6.888
318.80	8.278
319.16	6.524
319.53	5.827
319.89	5.960
320.26	6.940
320.62	6.383
320.99	6.925
321.35	6.007
321.72	7.256
322.08	6.492
322.45	6.594
322.81	7.040
323.18	5.752
323.54	5.345
323.91	6.495
324.27	6.196
324.64	7.053
325.00	5.970
325.37	7.289
325.73	7.107
326.10	7.786
326.46	7.329
326.83	8.167
327.19	7.008
327.56	6.640
327.92	6.216
328.29	6.129
328.65	6.198
329.01	6.599
329.38	6.908
329.74	6.507
330.11	7.192
330.47	6.655
330.84	5.426
331.20	7.583
331.56	6.932
331.93	6.360
332.29	7.373
332.66	6.811
333.02	6.281
333.38	6.124
333.75	5.724
334.11	6.088
334.48	6.353
334.84	6.797
335.20	5.877
335.57	7.167
335.93	7.603
336.29	6.240
336.66	6.224
337.02	6.940
337.38	6.548
337.75	5.785
338.11	6.644
338.47	6.286
338.84	7.614
339.20	5.560
339.56	6.013
339.93	7.143
340.29	7.246
340.65	7.056
341.02	6.624
341.38	6.386
341.74	6.941
342.11	7.562
342.47	5.719
342.83	6.280
343.20	6.623
343.56	6.335
343.92	6.886
344.28	6.719
344.65	7.829
345.01	6.162
345.37	6.921
345.73	5.690
346.10	6.630
346.46	5.459
346.82	6.592
347.19	6.035
347.55	7.663
347.91	6.315
348.27	6.373
348.63	6.931
349.00	6.115
349.36	6.914
349.72	6.696
350.08	6.984
350.45	6.008
350.81	6.410
351.17	6.241
351.53	6.368
351.89	5.923
352.26	6.866
352.62	6.493
352.98	6.107
353.34	5.452
353.70	6.317
354.07	6.855
354.43	5.847
354.79	6.582
355.15	6.843
355.51	6.652
355.87	5.310
356.24	6.236
356.60	5.765
356.96	6.079
357.32	6.097
357.68	6.296
358.04	5.988
358.40	6.866
358.77	5.482
359.13	5.835
359.49	4.758
359.85	6.091
360.21	6.671
360.57	5.456
360.93	5.853
361.29	6.526
361.66	6.300
362.02	6.472
362.38	5.762
362.74	5.936
363.10	6.809
363.46	5.471
363.82	5.611
364.18	5.771
364.54	6.501
364.90	6.488
365.26	5.586
365.62	6.933
365.98	5.854
366.35	6.107
366.71	5.850
367.07	5.819
367.43	6.041
367.79	6.370
368.15	6.154
368.51	6.698
368.87	5.748
369.23	5.667
369.59	5.738
369.95	5.747
370.31	6.280
370.67	5.571
371.03	6.440
371.39	5.373
371.75	5.708
372.11	6.233
372.47	5.687
372.83	6.348
373.19	6.538
373.55	6.165
373.91	5.317
374.27	6.533
374.63	5.616
374.99	5.570
375.35	6.169
375.71	6.194
376.07	6.068
376.42	6.045
376.78	6.091
377.14	6.176
377.50	5.819
377.86	5.850
378.22	5.928
378.58	6.361
378.94	6.514
379.30	5.917
379.66	5.820
380.02	6.290
380.38	6.509
380.74	6.141
381.09	5.981
381.45	5.966
381.81	6.499
382.17	6.413
382.53	5.263
382.89	6.321
383.25	6.331
383.61	5.208
383.97	6.007
384.32	5.622
384.68	5.452
385.04	6.015
385.40	6.600
385.76	6.448
386.12	6.044
386.48	5.588
386.83	5.721
387.19	5.446
387.55	6.514
387.91	5.651
388.27	5.889
388.62	5.842
388.98	4.851
389.34	6.070
389.70	6.392
390.06	6.335
390.42	5.783
390.77	5.960
391.13	6.279
391.49	6.401
391.85	5.758
392.20	5.457
392.56	6.261
392.92	6.107
393.28	5.915
393.64	5.587
393.99	5.578
394.35	6.367
394.71	6.228
395.07	5.150
395.42	6.168
395.78	6.155
396.14	6.001
396.50	5.404
396.85	6.440
397.21	5.148
397.57	6.655
397.92	6.529
398.28	6.192
398.64	5.950
399.00	5.497
399.35	6.649
399.71	5.326
400.07	6.120
400.42	5.995
400.78	5.729
401.14	6.033
401.49	6.595
401.85	5.407
402.21	5.736
402.57	5.575
402.92	6.028
403.28	4.684
403.63	5.549
403.99	6.116
404.35	5.856
404.70	6.459
405.06	5.489
405.42	6.265
405.77	5.453
406.13	6.213
406.49	6.081
406.84	6.039
407.20	5.869
407.55	5.209
407.91	4.903
408.27	6.773
408.62	5.643
408.98	5.514
409.34	5.044
409.69	6.613
410.05	6.506
410.40	6.439
410.76	5.945
411.11	6.312
411.47	6.450
411.83	6.526
412.18	6.325
412.54	6.343
412.89	6.054
413.25	6.377
413.60	6.433
413.96	6.002
414.31	6.119
414.67	6.559
415.03	6.462
415.38	5.738
415.74	6.109
416.09	6.477
416.45	5.823
416.80	5.447
417.16	5.747
417.51	6.413
417.87	5.886
418.22	5.868
418.58	4.957
418.93	6.519
419.29	5.179
419.64	5.042
420.00	5.638
420.35	6.232
420.71	5.801
421.06	6.268
421.42	5.275
421.77	5.600
422.12	6.184
422.48	6.400
422.83	5.915
423.19	5.517
423.54	5.697
423.90	6.350
424.25	6.240
424.61	5.396
424.96	6.150
425.31	6.794
425.67	5.743
426.02	5.921
426.38	5.626
426.73	5.859
427.09	6.574
427.44	5.516
427.79	5.196
428.15	5.194
428.50	5.674
428.85	6.028
429.21	6.702
429.56	5.676
429.92	5.553
430.27	5.880
430.62	6.351
430.98	5.460
431.33	5.670
431.68	6.322
432.04	5.891
432.39	5.570
432.74	5.537
433.10	6.760
433.45	5.853
433.80	5.740
434.16	5.888
434.51	5.910
434.86	6.406
435.22	6.376
435.57	6.191
435.92	5.342
436.28	5.347
436.63	5.789
436.98	6.227
437.34	5.524
437.69	5.173
438.04	6.346
438.39	5.744
438.75	5.589
439.10	6.607
439.45	5.590
439.81	6.441
440.16	6.005
440.51	5.630
440.86	5.114
441.22	6.217
441.57	5.870
441.92	6.353
442.27	6.515
442.63	6.210
442.98	6.243
443.33	5.892
443.68	6.343
444.03	6.914
444.39	5.918
444.74	6.023
445.09	5.575
445.44	6.270
445.79	6.561
446.15	6.012
446.50	6.098
446.85	6.031
447.20	6.576
447.55	6.119
447.91	5.497
448.26	5.867
448.61	6.323
448.96	6.652
449.31	6.204
449.66	6.100
450.02	6.224
450.37	6.873
450.72	6.351
451.07	6.207
451.42	6.008
451.77	5.892
452.12	5.643
452.47	5.288
452.83	6.419
453.18	5.896
453.53	6.203
453.88	5.687
454.23	5.706
454.58	5.514
454.93	5.765
455.28	5.960
455.63	6.538
455.98	5.866
456.34	5.889
456.69	6.526
457.04	5.615
457.39	5.876
457.74	6.208
458.09	5.766
458.44	6.681
458.79	5.931
459.14	6.345
459.49	5.716
459.84	6.663
460.19	5.719
460.54	6.019
460.89	6.088
461.24	5.805
461.59	6.032
461.94	5.647
462.29	6.047
462.64	5.794
462.99	6.591
463.34	5.711
463.69	6.917
464.04	6.448
464.39	6.334
464.74	6.043
465.09	6.632
465.44	6.223
465.79	6.187
466.14	6.305
466.49	6.316
466.84	5.565
467.19	5.954
467.54	5.699
467.89	5.690
468.24	6.316
468.59	5.211
468.94	6.177
469.29	5.699
469.64	5.785
469.99	5.545
470.34	5.507
470.68	6.083
471.03	5.632
471.38	5.036
471.73	5.787
472.08	6.028
472.43	5.900
472.78	5.730
473.13	5.689
473.48	5.921
473.83	6.384
474.17	6.917
474.52	5.292
474.87	6.755
475.22	6.197
475.57	6.282
475.92	6.421
476.27	6.390
476.61	5.919
476.96	5.735
477.31	6.535
477.66	6.139
478.01	6.151
478.36	6.431
478.70	6.158
479.05	5.982
479.40	6.219
479.75	6.484
480.10	5.685
480.45	7.019
480.79	6.485
481.14	6.204
481.49	6.679
481.84	6.963
482.19	6.710
482.53	6.515
482.88	6.292
483.23	6.492
483.58	6.419
483.92	6.605
484.27	6.351
484.62	6.601
484.97	6.376
485.31	6.512
485.66	6.265
486.01	6.999
486.36	7.179
486.70	7.225
487.05	6.953
487.40	6.315
487.75	6.005
488.09	5.692
488.44	6.104
488.79	6.374
489.13	6.155
489.48	5.942
489.83	5.714
490.17	5.751
490.52	6.034
490.87	6.557
491.22	6.023
491.56	6.399
491.91	6.280
492.26	6.318
492.60	6.165
492.95	6.494
493.30	5.782
493.64	6.527
493.99	6.360
494.34	6.446
494.68	5.824
495.03	6.123
495.37	6.480
495.72	6.757
496.07	6.792
496.41	5.834
496.76	6.130
497.11	6.582
497.45	6.042
497.80	6.264
498.14	5.896
498.49	6.020
498.84	6.307
499.18	6.703
499.53	5.874
499.87	6.725
500.22	5.387
500.56	6.118
500.91	5.858
501.26	6.682
501.60	5.833
501.95	6.166
502.29	6.713
502.64	6.340
502.98	7.248
503.33	5.961
503.67	6.062
504.02	6.261
504.36	6.702
504.71	6.201
505.06	5.866
505.40	6.216
505.75	6.466
506.09	6.998
506.44	6.592
506.78	6.881
507.13	6.316
507.47	6.585
507.82	6.771
508.16	6.405
508.51	6.095
508.85	6.141
509.19	6.300
509.54	6.388
509.88	5.780
510.23	6.799
510.57	6.428
510.92	6.580
511.26	6.975
511.61	5.843
511.95	6.296
512.30	6.401
512.64	6.297
512.98	6.203
513.33	6.804
513.67	6.782
514.02	5.825
514.36	6.752
514.70	6.615
515.05	6.204
515.39	6.247
515.74	6.734
516.08	6.286
516.42	6.907
516.77	5.941
517.11	6.498
517.46	7.264
517.80	6.627
518.14	7.018
518.49	6.779
518.83	6.227
519.17	6.031
519.52	6.499
519.86	7.445
520.20	7.455
520.55	6.188
520.89	6.813
521.23	6.253
521.58	7.345
521.92	6.912
522.26	6.472
522.61	6.424
522.95	6.401
523.29	6.839
523.64	6.951
523.98	7.758
524.32	7.049
524.66	6.431
525.01	7.305
525.35	6.318
525.69	7.019
526.04	6.315
526.38	6.839
526.72	6.920
527.06	7.449
527.41	7.289
527.75	7.007
528.09	6.848
528.43	5.980
528.78	5.607
529.12	6.938
529.46	6.745
529.80	6.579
530.15	6.899
530.49	6.228
530.83	7.025
531.17	6.989
531.51	6.919
531.86	7.151
532.20	7.195
532.54	6.224
532.88	6.667
533.22	6.600
533.57	6.867
533.91	7.576
534.25	7.066
534.59	6.034
534.93	6.904
535.27	7.155
535.62	7.334
535.96	6.624
536.30	6.345
536.64	6.847
536.98	7.073
537.32	7.593
537.66	7.860
538.01	6.647
538.35	6.577
538.69	6.611
539.03	6.990
539.37	6.949
539.71	6.847
540.05	7.314
540.39	6.724
540.73	6.618
541.07	6.806
541.42	6.852
541.76	7.117
542.10	7.057
542.44	6.334
542.78	6.873
543.12	7.271
543.46	7.021
543.80	6.175
544.14	7.062
544.48	7.388
544.82	7.540
545.16	7.096
545.50	6.890
545.84	7.348
546.18	7.469
546.52	6.879
546.86	7.170
547.20	6.997
547.54	6.554
547.88	6.209
548.22	6.667
548.56	7.197
548.90	6.149
549.24	7.599
549.58	6.120
549.92	6.505
550.26	6.796
550.60	7.913
550.94	6.986
551.28	6.667
551.62	7.615
551.96	7.249
552.30	8.031
552.64	6.970
552.98	7.361
553.32	6.945
553.66	6.238
554.00	7.377
554.34	7.207
554.68	7.424
555.02	6.833
555.36	7.429
555.69	6.983
556.03	6.873
556.37	7.635
556.71	7.546
557.05	6.965
557.39	6.768
557.73	6.869
558.07	7.152
558.41	7.043
558.75	6.423
559.08	6.333
559.42	6.927
559.76	7.395
560.10	6.899
560.44	6.398
560.78	7.875
561.12	6.897
561.45	6.873
561.79	6.838
562.13	7.763
562.47	7.337
562.81	6.835
563.15	7.513
563.48	7.334
563.82	7.437
564.16	6.057
564.50	7.449
564.84	7.080
565.17	7.529
565.51	7.307
565.85	7.542
566.19	5.645
566.52	6.963
566.86	6.621
567.20	6.852
567.54	7.541
567.88	7.492
568.21	6.966
568.55	7.482
568.89	7.399
569.23	7.900
569.56	7.112
569.90	7.912
570.24	7.960
570.57	7.473
570.91	7.348
571.25	7.434
571.59	7.654
571.92	7.756
572.26	7.200
572.60	7.371
572.93	7.542
573.27	6.828
573.61	7.835
573.95	7.696
574.28	7.662
574.62	7.594
574.96	7.234
575.29	7.425
575.63	7.669
575.97	7.425
576.30	7.155
576.64	7.110
576.98	7.904
577.31	7.665
577.65	7.842
577.98	7.549
578.32	7.704
578.66	7.426
578.99	7.209
579.33	7.359
579.67	6.981
580.00	7.283
580.34	7.788
580.67	7.524
581.01	7.529
581.35	7.559
581.68	7.560
582.02	8.046
582.35	7.711
582.69	7.749
583.02	7.569
583.36	7.353
583.70	7.112
584.03	7.127
584.37	7.183
584.70	7.408
585.04	7.138
585.37	7.380
585.71	7.551
586.04	7.486
586.38	7.567
586.72	7.019
587.05	7.240
587.39	7.479
587.72	7.656
588.06	7.568
588.39	7.394
588.73	7.354
589.06	7.280
589.40	7.130
589.73	7.294
590.07	7.659
590.40	8.012
590.73	7.282
591.07	7.260
591.40	7.154
591.74	7.114
592.07	7.877
592.41	6.703
592.74	7.739
593.08	7.994
593.41	8.224
593.75	7.672
594.08	7.695
594.41	7.468
594.75	7.738
595.08	7.032
595.42	7.955
595.75	7.297
596.09	7.692
596.42	7.094
596.75	7.140
597.09	7.515
597.42	7.310
597.75	7.683
598.09	7.619
598.42	8.162
598.76	7.528
599.09	7.547
599.42	7.811
599.76	8.088
600.09	7.241
600.42	8.375
600.76	7.728
601.09	7.700
601.42	7.175
601.76	7.448
602.09	7.255
602.42	7.197
602.76	7.196
603.09	7.673
603.42	7.442
603.76	7.223
604.09	8.233
604.42	7.266
604.76	7.306
605.09	7.300
605.42	7.496
605.75	7.692
606.09	7.316
606.42	7.698
606.75	7.309
607.09	6.989
607.42	7.245
607.75	7.542
608.08	7.103
608.42	7.255
608.75	7.131
609.08	7.173
609.41	7.234
609.75	7.768
610.08	7.608
610.41	7.307
610.74	7.521
611.07	7.549
611.41	7.444
611.74	7.667
612.07	7.574
612.40	6.939
612.73	7.090
613.07	7.237
613.40	7.267
613.73	7.270
614.06	7.017
614.39	6.803
614.72	7.327
615.06	6.882
615.39	7.443
615.72	7.251
616.05	7.382
616.38	7.114
616.71	7.837
617.05	7.029
617.38	7.919
617.71	7.667
618.04	7.285
618.37	7.596
618.70	7.523
619.03	6.631
619.36	7.398
619.69	7.303
620.03	7.972
620.36	7.853
620.69	6.477
621.02	7.283
621.35	7.329
621.68	8.243
622.01	6.335
622.34	6.904
622.67	7.148
623.00	6.005
623.33	7.631
623.66	7.782
623.99	6.715
624.32	7.732
624.65	6.371
624.99	7.542
625.32	7.511
625.65	7.620
625.98	6.983
626.31	7.087
626.64	8.059
626.97	6.977
627.30	6.454
627.63	6.977
627.96	7.658
628.29	7.082
628.62	6.717
628.95	6.486
629.28	5.862
629.61	6.397
629.94	6.192
630.26	6.356
630.59	7.254
630.92	6.147
631.25	6.261
631.58	6.309
631.91	6.935
632.24	6.628
632.57	6.357
632.90	6.820
633.23	6.531
633.56	6.429
633.89	6.198
634.22	6.861
634.55	8.038
634.88	6.061
635.20	6.566
635.53	7.006
635.86	6.934
636.19	7.635
636.52	7.278
636.85	5.720
637.18	6.237
637.51	6.237
637.83	6.534
638.16	6.106
638.49	5.751
638.82	5.750
639.15	5.384
639.48	6.697
639.81	7.044
640.13	5.889
640.46	6.303
640.79	6.373
641.12	5.466
641.45	6.023
641.77	7.574
642.10	6.037
642.43	7.048
642.76	5.827
643.09	4.521
643.41	5.882
643.74	5.793
644.07	7.586
644.40	6.223
644.73	5.951
645.05	5.286
645.38	6.763
645.71	5.718
646.04	6.456
646.36	4.672
646.69	5.215
647.02	6.269
647.35	8.092
647.67	6.280
648.00	4.777
648.33	7.207
648.66	6.990
648.98	7.347
649.31	6.495
649.64	6.773
649.96	7.162
650.29	7.093
650.62	5.658
650.94	5.856
651.27	4.341
651.60	5.848
651.92	3.647
652.25	6.802
652.58	5.365
652.90	4.360
653.23	7.746
653.56	5.563
653.88	7.303
654.21	5.070
654.54	5.636
654.86	4.249
655.19	5.270
655.52	8.460
655.84	9.086
656.17	11.078
