SpectraSuite Data File
++++++++++++++++++++++++++++++++++++
Date: Thu May 14 15:52:04 PDT 2015
User: schluterlab
Dark Spectrum Present: Yes
Reference Spectrum Present: Yes
Number of Sampled Component Spectra: 1
Spectrometers: USB2E3373
Integration Time (usec): 3000 (USB2E3373)
Spectra Averaged: 3 (USB2E3373)
Boxcar Smoothing: 0 (USB2E3373)
Correct for Electrical Dark: No (USB2E3373)
Strobe/Lamp Enabled: No (USB2E3373)
Correct for Detector Non-linearity: No (USB2E3373)
Correct for Stray Light: No (USB2E3373)
Number of Pixels in Processed Spectrum: 2048
>>>>>Begin Processed Spectral Data<<<<<
178.53	0.000
178.91	542.857
179.29	-4600.000
179.67	-3900.000
180.04	407.143
180.42	380.000
180.80	860.000
181.18	-4400.000
181.56	-3800.000
181.94	950.000
182.31	-1050.000
182.69	1533.333
183.07	-1800.000
183.45	1000.000
183.83	-583.333
184.20	-1466.667
184.58	3700.000
184.96	-1075.000
185.34	-500.000
185.72	-720.000
186.09	433.333
186.47	1600.000
186.85	960.000
187.23	-500.000
187.61	-4400.000
187.98	760.000
188.36	1125.000
188.74	-1150.000
189.12	-1233.333
189.49	-193.750
189.87	-337.500
190.25	-444.444
190.63	-800.000
191.00	-433.333
191.38	0.000
191.76	-1250.000
192.14	-516.667
192.51	2100.000
192.89	-600.000
193.27	0.000
193.65	-500.000
194.02	-4800.000
194.40	-500.000
194.78	585.714
195.15	0.000
195.53	-336.364
195.91	0.000
196.29	-725.000
196.66	-323.077
197.04	-4700.000
197.42	-471.429
197.79	-1800.000
198.17	-425.000
198.55	-585.714
198.92	-333.333
199.30	-537.500
199.68	-263.636
200.05	-207.143
200.43	-2050.000
200.81	628.571
201.18	0.000
201.56	555.556
201.94	0.000
202.31	1633.333
202.69	-500.000
203.07	4000.000
203.44	-411.111
203.82	-850.000
204.19	-225.000
204.57	-600.000
204.95	-412.500
205.32	-3400.000
205.70	850.000
206.08	-566.667
206.45	-550.000
206.83	980.000
207.20	-883.333
207.58	-960.000
207.96	-733.333
208.33	-583.333
208.71	358.333
209.08	-416.667
209.46	0.000
209.84	766.667
210.21	2200.000
210.59	1900.000
210.96	1233.333
211.34	-950.000
211.71	-462.500
212.09	-4100.000
212.46	0.000
212.84	2800.000
213.22	-940.000
213.59	-750.000
213.97	-310.000
214.34	-1133.333
214.72	566.667
215.09	-900.000
215.47	0.000
215.84	442.857
216.22	2350.000
216.59	-780.000
216.97	-660.000
217.34	-850.000
217.72	-487.500
218.09	-1175.000
218.47	-1025.000
218.84	0.000
219.22	800.000
219.59	-188.235
219.97	-195.000
220.34	2550.000
220.72	-444.444
221.09	-215.385
221.47	-1400.000
221.84	-400.000
222.22	-585.714
222.59	0.000
222.97	-375.000
223.34	-900.000
223.72	-4200.000
224.09	-1025.000
224.46	-875.000
224.84	-760.000
225.21	-585.714
225.59	-1125.000
225.96	-875.000
226.34	-80.769
226.71	700.000
227.08	-1800.000
227.46	-220.000
227.83	-1000.000
228.21	-168.421
228.58	537.500
228.95	2150.000
229.33	-341.667
229.70	-340.000
230.08	-89.474
230.45	410.000
230.82	-1100.000
231.20	-228.571
231.57	-191.667
231.95	-363.636
232.32	-281.818
232.69	-170.000
233.07	-1000.000
233.44	-264.706
233.81	-340.000
234.19	-155.556
234.56	-131.818
234.93	-86.207
235.31	-173.684
235.68	-194.444
236.05	-165.000
236.43	-96.154
236.80	-112.000
237.17	-114.815
237.55	-60.606
237.92	-310.000
238.29	-87.097
238.67	-52.273
239.04	-47.222
239.41	-69.048
239.79	-45.652
240.16	-48.148
240.53	-41.304
240.91	-62.745
241.28	-36.066
241.65	-23.881
242.02	-12.162
242.40	-32.308
242.77	-20.000
243.14	-15.854
243.51	-18.421
243.89	-16.667
244.26	-5.941
244.63	-4.902
245.00	-4.673
245.38	0.000
245.75	-6.195
246.12	10.317
246.49	-3.101
246.87	8.571
247.24	8.609
247.61	9.211
247.98	2.685
248.36	7.407
248.73	9.202
249.10	9.836
249.47	19.403
249.84	15.707
250.22	15.544
250.59	15.000
250.96	20.455
251.33	9.184
251.70	17.949
252.08	15.417
252.45	17.213
252.82	19.421
253.19	21.875
253.56	20.152
253.94	17.692
254.31	21.591
254.68	23.077
255.05	25.407
255.42	19.388
255.79	18.770
256.16	23.179
256.54	22.185
256.91	25.246
257.28	21.967
257.65	21.338
258.02	18.879
258.39	20.798
258.76	24.771
259.14	25.000
259.51	23.919
259.88	22.946
260.25	24.444
260.62	24.932
260.99	26.503
261.36	25.469
261.73	25.464
262.10	26.923
262.47	23.056
262.85	27.020
263.22	22.078
263.59	22.105
263.96	27.366
264.33	22.506
264.70	25.926
265.07	28.162
265.44	26.304
265.81	29.167
266.18	29.478
266.55	27.232
266.92	27.107
267.29	24.945
267.66	24.612
268.03	25.764
268.40	25.887
268.77	25.057
269.14	23.568
269.51	23.684
269.88	28.074
270.25	26.157
270.62	28.059
270.99	27.879
271.36	28.911
271.73	27.112
272.10	28.657
272.47	27.054
272.84	26.104
273.21	25.050
273.58	26.411
273.95	25.192
274.32	24.335
274.69	25.919
275.06	26.190
275.43	24.214
275.80	27.513
276.17	26.667
276.54	23.881
276.91	24.866
277.28	26.401
277.65	25.853
278.02	28.493
278.39	26.993
278.76	28.471
279.13	26.773
279.50	27.148
279.87	26.476
280.23	22.535
280.60	29.831
280.97	25.329
281.34	27.165
281.71	26.734
282.08	25.914
282.45	26.350
282.82	26.688
283.19	25.202
283.56	25.082
283.92	27.477
284.29	26.698
284.66	28.571
285.03	23.077
285.40	26.893
285.77	22.910
286.14	27.481
286.51	25.875
286.87	26.066
287.24	26.205
287.61	24.664
287.98	24.471
288.35	24.852
288.72	27.663
289.08	25.329
289.45	21.893
289.82	25.301
290.19	25.862
290.56	23.521
290.93	23.395
291.29	25.620
291.66	24.105
292.03	22.388
292.40	23.946
292.77	24.528
293.13	23.816
293.50	22.602
293.87	23.893
294.24	22.800
294.60	23.009
294.97	21.879
295.34	23.560
295.71	21.816
296.08	21.447
296.44	21.814
296.81	23.143
297.18	21.544
297.55	22.170
297.91	20.759
298.28	19.313
298.65	21.403
299.02	21.015
299.38	23.227
299.75	20.093
300.12	20.370
300.48	19.931
300.85	19.123
301.22	23.714
301.59	19.863
301.95	21.695
302.32	21.111
302.69	20.153
303.05	21.763
303.42	21.286
303.79	21.667
304.15	22.082
304.52	21.353
304.89	20.000
305.25	20.911
305.62	19.436
305.99	20.619
306.35	18.548
306.72	22.130
307.09	19.797
307.45	19.876
307.82	20.585
308.19	19.879
308.55	22.179
308.92	20.156
309.29	21.073
309.65	22.027
310.02	20.495
310.38	20.276
310.75	20.971
311.12	22.148
311.48	20.919
311.85	22.222
312.22	20.873
312.58	21.596
312.95	21.224
313.31	22.493
313.68	21.337
314.05	21.951
314.41	23.224
314.78	21.435
315.14	21.960
315.51	22.622
315.87	22.502
316.24	22.648
316.61	22.913
316.97	22.986
317.34	23.721
317.70	24.454
318.07	23.369
318.43	25.680
318.80	23.997
319.16	24.206
319.53	24.250
319.89	23.225
320.26	24.199
320.62	24.645
320.99	25.392
321.35	25.970
321.72	28.651
322.08	25.518
322.45	27.100
322.81	27.347
323.18	27.788
323.54	27.586
323.91	28.915
324.27	28.657
324.64	30.479
325.00	29.436
325.37	29.648
325.73	30.413
326.10	30.738
326.46	30.782
326.83	31.705
327.19	31.654
327.56	31.304
327.92	33.045
328.29	32.258
328.65	31.575
329.01	33.418
329.38	34.035
329.74	35.959
330.11	33.904
330.47	34.878
330.84	34.022
331.20	36.500
331.56	34.749
331.93	35.397
332.29	35.254
332.66	35.797
333.02	35.595
333.38	35.487
333.75	36.279
334.11	36.197
334.48	36.551
334.84	37.553
335.20	36.524
335.57	36.678
335.93	37.107
336.29	35.774
336.66	35.240
337.02	37.793
337.38	35.374
337.75	35.702
338.11	38.183
338.47	36.807
338.84	36.548
339.20	36.479
339.56	36.985
339.93	37.438
340.29	35.829
340.65	37.551
341.02	39.106
341.38	37.106
341.74	37.530
342.11	38.455
342.47	37.490
342.83	37.601
343.20	38.348
343.56	38.412
343.92	38.831
344.28	38.828
344.65	39.070
345.01	38.144
345.37	39.736
345.73	38.504
346.10	37.988
346.46	38.766
346.82	39.401
347.19	39.419
347.55	38.619
347.91	39.896
348.27	39.302
348.63	40.137
349.00	39.001
349.36	38.736
349.72	39.063
350.08	40.119
350.45	40.228
350.81	39.291
351.17	41.955
351.53	40.409
351.89	41.078
352.26	40.746
352.62	39.478
352.98	41.756
353.34	39.432
353.70	41.294
354.07	41.505
354.43	41.610
354.79	41.511
355.15	40.250
355.51	43.056
355.87	41.810
356.24	42.205
356.60	41.390
356.96	41.883
357.32	41.784
357.68	40.922
358.04	41.168
358.40	42.313
358.77	42.471
359.13	43.353
359.49	42.082
359.85	43.002
360.21	42.898
360.57	42.929
360.93	44.217
361.29	44.281
361.66	42.433
362.02	44.885
362.38	44.835
362.74	44.483
363.10	44.223
363.46	44.598
363.82	45.028
364.18	45.391
364.54	44.537
364.90	46.154
365.26	44.690
365.62	45.400
365.98	45.882
366.35	45.302
366.71	46.395
367.07	44.723
367.43	47.669
367.79	46.649
368.15	48.161
368.51	46.549
368.87	45.918
369.23	47.067
369.59	47.199
369.95	48.411
370.31	47.738
370.67	47.593
371.03	47.438
371.39	46.944
371.75	49.794
372.11	46.477
372.47	47.596
372.83	49.215
373.19	47.832
373.55	49.119
373.91	46.558
374.27	48.189
374.63	48.782
374.99	48.210
375.35	48.506
375.71	49.935
376.07	48.225
376.42	48.741
376.78	50.218
377.14	50.343
377.50	50.538
377.86	49.815
378.22	50.180
378.58	50.238
378.94	49.765
379.30	49.268
379.66	51.029
380.02	50.029
380.38	52.189
380.74	49.465
381.09	52.091
381.45	50.852
381.81	51.288
382.17	51.485
382.53	51.404
382.89	50.959
383.25	51.407
383.61	51.389
383.97	51.649
384.32	53.828
384.68	51.276
385.04	52.516
385.40	53.094
385.76	53.224
386.12	51.287
386.48	52.706
386.83	52.503
387.19	52.433
387.55	53.169
387.91	52.568
388.27	53.349
388.62	52.692
388.98	52.341
389.34	53.270
389.70	53.864
390.06	51.747
390.42	53.855
390.77	53.642
391.13	52.523
391.49	52.355
391.85	52.606
392.20	52.195
392.56	52.806
392.92	52.236
393.28	52.902
393.64	52.123
393.99	53.109
394.35	53.329
394.71	54.072
395.07	52.635
395.42	53.741
395.78	52.895
396.14	53.119
396.50	53.919
396.85	52.475
397.21	53.018
397.57	53.534
397.92	52.978
398.28	53.123
398.64	52.346
399.00	51.990
399.35	53.874
399.71	53.207
400.07	52.892
400.42	53.900
400.78	53.588
401.14	52.419
401.49	54.235
401.85	53.779
402.21	53.882
402.57	54.460
402.92	53.369
403.28	52.635
403.63	53.520
403.99	52.197
404.35	52.473
404.70	52.748
405.06	52.446
405.42	53.279
405.77	53.544
406.13	52.836
406.49	53.547
406.84	53.241
407.20	53.270
407.55	51.969
407.91	53.740
408.27	52.415
408.62	52.647
408.98	52.176
409.34	52.493
409.69	54.141
410.05	52.227
410.40	52.320
410.76	52.776
411.11	53.887
411.47	52.887
411.83	52.087
412.18	53.916
412.54	52.993
412.89	52.852
413.25	52.427
413.60	53.188
413.96	52.448
414.31	51.785
414.67	51.222
415.03	52.677
415.38	52.333
415.74	52.352
416.09	52.128
416.45	51.722
416.80	52.081
417.16	52.554
417.51	51.308
417.87	52.728
418.22	52.575
418.58	52.107
418.93	52.328
419.29	52.898
419.64	54.082
420.00	52.878
420.35	52.499
420.71	52.326
421.06	51.294
421.42	51.319
421.77	51.427
422.12	51.268
422.48	50.947
422.83	52.519
423.19	52.042
423.54	53.042
423.90	51.739
424.25	52.320
424.61	52.583
424.96	52.059
425.31	52.389
425.67	51.315
426.02	52.241
426.38	50.976
426.73	51.618
427.09	51.730
427.44	51.775
427.79	51.299
428.15	50.913
428.50	51.742
428.85	51.435
429.21	53.138
429.56	51.185
429.92	50.565
430.27	51.373
430.62	51.588
430.98	51.107
431.33	51.417
431.68	50.670
432.04	51.854
432.39	52.062
432.74	50.628
433.10	50.460
433.45	51.505
433.80	50.322
434.16	50.103
434.51	51.387
434.86	51.737
435.22	51.647
435.57	52.653
435.92	50.417
436.28	50.853
436.63	51.775
436.98	50.081
437.34	51.860
437.69	51.403
438.04	50.608
438.39	50.948
438.75	51.909
439.10	51.163
439.45	50.419
439.81	51.130
440.16	50.402
440.51	51.561
440.86	51.751
441.22	50.536
441.57	52.149
441.92	49.903
442.27	51.566
442.63	50.869
442.98	51.281
443.33	50.237
443.68	51.487
444.03	51.881
444.39	51.641
444.74	52.016
445.09	50.431
445.44	52.318
445.79	52.395
446.15	51.233
446.50	50.956
446.85	51.070
447.20	51.354
447.55	51.046
447.91	50.576
448.26	51.321
448.61	51.010
448.96	51.985
449.31	51.697
449.66	51.307
450.02	50.897
450.37	51.625
450.72	51.453
451.07	51.481
451.42	50.722
451.77	51.473
452.12	52.032
452.47	49.792
452.83	51.914
453.18	49.796
453.53	51.177
453.88	50.248
454.23	51.469
454.58	50.900
454.93	50.789
455.28	51.415
455.63	50.881
455.98	50.726
456.34	50.412
456.69	51.029
457.04	51.478
457.39	51.552
457.74	51.174
458.09	51.016
458.44	50.970
458.79	50.645
459.14	50.760
459.49	51.104
459.84	50.997
460.19	49.806
460.54	49.858
460.89	51.191
461.24	50.172
461.59	50.968
461.94	49.401
462.29	50.504
462.64	51.780
462.99	51.852
463.34	50.876
463.69	50.117
464.04	51.362
464.39	50.504
464.74	50.456
465.09	49.654
465.44	49.839
465.79	50.026
466.14	49.661
466.49	50.526
466.84	50.138
467.19	49.595
467.54	49.119
467.89	49.713
468.24	48.643
468.59	50.318
468.94	49.417
469.29	49.910
469.64	50.477
469.99	50.159
470.34	49.319
470.68	50.854
471.03	50.491
471.38	50.360
471.73	50.065
472.08	49.683
472.43	49.970
472.78	49.811
473.13	49.747
473.48	49.909
473.83	50.900
474.17	50.176
474.52	49.489
474.87	48.228
475.22	50.648
475.57	49.169
475.92	49.278
476.27	49.521
476.61	50.415
476.96	48.592
477.31	49.901
477.66	50.420
478.01	49.059
478.36	49.053
478.70	48.867
479.05	50.358
479.40	49.556
479.75	49.135
480.10	49.976
480.45	48.177
480.79	49.161
481.14	48.759
481.49	49.159
481.84	50.131
482.19	48.903
482.53	49.279
482.88	50.022
483.23	48.955
483.58	49.432
483.92	48.848
484.27	48.645
484.62	47.360
484.97	48.367
485.31	46.603
485.66	44.315
486.01	43.564
486.36	45.018
486.70	46.741
487.05	48.831
487.40	49.153
487.75	48.626
488.09	48.464
488.44	47.256
488.79	47.690
489.13	47.900
489.48	47.612
489.83	47.807
490.17	47.388
490.52	48.112
490.87	48.223
491.22	47.574
491.56	47.952
491.91	47.710
492.26	48.031
492.60	47.836
492.95	47.477
493.30	47.961
493.64	48.051
493.99	48.158
494.34	46.559
494.68	48.180
495.03	47.885
495.37	47.936
495.72	48.526
496.07	47.108
496.41	47.190
496.76	47.456
497.11	47.516
497.45	47.303
497.80	47.623
498.14	47.619
498.49	48.024
498.84	47.898
499.18	47.458
499.53	48.251
499.87	47.604
500.22	46.527
500.56	46.919
500.91	48.146
501.26	47.227
501.60	47.194
501.95	46.982
502.29	47.960
502.64	47.792
502.98	47.153
503.33	47.084
503.67	46.489
504.02	47.680
504.36	47.230
504.71	47.267
505.06	45.975
505.40	47.258
505.75	47.268
506.09	47.422
506.44	47.354
506.78	47.202
507.13	46.243
507.47	47.655
507.82	47.396
508.16	46.797
508.51	47.070
508.85	47.473
509.19	48.034
509.54	46.782
509.88	47.207
510.23	48.082
510.57	47.414
510.92	48.089
511.26	46.224
511.61	46.451
511.95	46.706
512.30	47.464
512.64	46.227
512.98	47.624
513.33	47.782
513.67	46.711
514.02	48.135
514.36	46.803
514.70	47.188
515.05	46.976
515.39	48.084
515.74	48.780
516.08	48.125
516.42	47.357
516.77	48.107
517.11	47.653
517.46	47.773
517.80	48.156
518.14	48.857
518.49	48.265
518.83	46.621
519.17	47.388
519.52	47.904
519.86	48.099
520.20	47.657
520.55	47.371
520.89	48.086
521.23	48.241
521.58	49.266
521.92	46.912
522.26	46.907
522.61	49.537
522.95	49.135
523.29	49.195
523.64	46.637
523.98	48.716
524.32	49.341
524.66	47.923
525.01	47.792
525.35	47.961
525.69	48.376
526.04	48.106
526.38	48.046
526.72	48.155
527.06	48.094
527.41	48.455
527.75	48.812
528.09	47.816
528.43	47.957
528.78	47.572
529.12	47.878
529.46	46.374
529.80	47.540
530.15	47.420
530.49	47.746
530.83	48.465
531.17	47.611
531.51	48.135
531.86	47.837
532.20	47.683
532.54	46.619
532.88	47.455
533.22	46.317
533.57	46.797
533.91	46.521
534.25	47.032
534.59	47.874
534.93	46.123
535.27	46.761
535.62	46.902
535.96	46.949
536.30	47.004
536.64	48.048
536.98	46.617
537.32	47.778
537.66	46.725
538.01	46.163
538.35	46.529
538.69	46.454
539.03	46.229
539.37	46.408
539.71	46.907
540.05	46.583
540.39	46.455
540.73	45.537
541.07	47.088
541.42	44.654
541.76	46.204
542.10	45.296
542.44	46.224
542.78	46.959
543.12	44.875
543.46	44.628
543.80	44.904
544.14	45.362
544.48	46.395
544.82	45.242
545.16	43.769
545.50	44.697
545.84	45.070
546.18	45.988
546.52	45.350
546.86	45.220
547.20	45.165
547.54	44.944
547.88	45.087
548.22	44.620
548.56	44.353
548.90	44.060
549.24	45.532
549.58	45.110
549.92	44.834
550.26	44.919
550.60	44.352
550.94	44.761
551.28	44.488
551.62	45.553
551.96	44.854
552.30	44.296
552.64	44.368
552.98	44.666
553.32	44.051
553.66	45.402
554.00	44.830
554.34	44.273
554.68	43.641
555.02	44.809
555.36	44.707
555.69	44.010
556.03	43.947
556.37	44.618
556.71	44.895
557.05	44.217
557.39	44.459
557.73	44.848
558.07	44.702
558.41	44.850
558.75	44.895
559.08	45.303
559.42	44.376
559.76	45.319
560.10	44.541
560.44	44.921
560.78	45.250
561.12	44.335
561.45	43.978
561.79	43.773
562.13	44.547
562.47	43.033
562.81	43.354
563.15	43.308
563.48	43.567
563.82	42.624
564.16	42.823
564.50	41.538
564.84	42.832
565.17	42.000
565.51	41.715
565.85	43.052
566.19	42.569
566.52	42.832
566.86	42.218
567.20	42.414
567.54	41.423
567.88	40.928
568.21	42.045
568.55	41.247
568.89	41.262
569.23	40.093
569.56	39.820
569.90	38.738
570.24	38.954
570.57	38.807
570.91	38.212
571.25	38.039
571.59	38.380
571.92	37.473
572.26	37.877
572.60	38.302
572.93	38.158
573.27	37.792
573.61	37.957
573.95	37.193
574.28	36.790
574.62	37.267
574.96	36.745
575.29	36.241
575.63	36.498
575.97	37.437
576.30	36.640
576.64	36.626
576.98	36.446
577.31	36.487
577.65	36.793
577.98	36.050
578.32	35.576
578.66	35.809
578.99	36.535
579.33	36.705
579.67	36.537
580.00	35.828
580.34	35.951
580.67	36.187
581.01	35.915
581.35	35.944
581.68	35.492
582.02	35.163
582.35	36.156
582.69	36.469
583.02	36.199
583.36	36.332
583.70	36.219
584.03	36.429
584.37	36.312
584.70	35.697
585.04	35.294
585.37	35.020
585.71	35.448
586.04	36.151
586.38	35.330
586.72	35.498
587.05	35.994
587.39	36.225
587.72	35.742
588.06	35.397
588.39	35.947
588.73	35.979
589.06	35.525
589.40	36.724
589.73	36.118
590.07	36.837
590.40	36.545
590.73	35.949
591.07	37.305
591.40	35.809
591.74	36.685
592.07	36.825
592.41	36.238
592.74	36.280
593.08	35.510
593.41	35.871
593.75	35.632
594.08	36.141
594.41	36.218
594.75	35.304
595.08	35.666
595.42	36.234
595.75	35.260
596.09	36.225
596.42	35.901
596.75	36.241
597.09	36.970
597.42	35.797
597.75	35.594
598.09	35.794
598.42	36.912
598.76	35.078
599.09	34.532
599.42	33.959
599.76	34.896
600.09	35.202
600.42	34.735
600.76	34.709
601.09	34.683
601.42	34.741
601.76	35.759
602.09	34.596
602.42	34.933
602.76	35.461
603.09	35.059
603.42	35.079
603.76	34.567
604.09	35.309
604.42	34.716
604.76	35.350
605.09	35.660
605.42	35.287
605.75	34.500
606.09	35.050
606.42	33.710
606.75	34.108
607.09	34.332
607.42	34.566
607.75	34.584
608.08	34.333
608.42	34.744
608.75	35.531
609.08	34.465
609.41	35.377
609.75	34.955
610.08	35.840
610.41	35.302
610.74	34.958
611.07	35.879
611.41	35.202
611.74	35.935
612.07	35.157
612.40	35.551
612.73	35.990
613.07	35.306
613.40	35.756
613.73	35.388
614.06	36.212
614.39	34.742
614.72	35.953
615.06	35.515
615.39	34.703
615.72	35.355
616.05	35.357
616.38	36.075
616.71	35.893
617.05	34.718
617.38	35.688
617.71	36.717
618.04	35.510
618.37	35.027
618.70	35.690
619.03	35.364
619.36	35.327
619.69	35.618
620.03	36.284
620.36	35.276
620.69	36.212
621.02	36.614
621.35	37.881
621.68	37.599
622.01	37.367
622.34	35.286
622.67	36.770
623.00	34.818
623.33	35.567
623.66	35.992
623.99	35.813
624.32	35.283
624.65	35.328
624.99	35.631
625.32	35.990
625.65	35.671
625.98	35.729
626.31	35.719
626.64	37.582
626.97	36.684
627.30	36.219
627.63	35.409
627.96	36.712
628.29	37.354
628.62	36.692
628.95	37.686
629.28	36.279
629.61	38.468
629.94	35.565
