SpectraSuite Data File
++++++++++++++++++++++++++++++++++++
Date: Thu May 14 16:02:11 PDT 2015
User: schluterlab
Dark Spectrum Present: Yes
Reference Spectrum Present: Yes
Number of Sampled Component Spectra: 1
Spectrometers: USB2E3373
Integration Time (usec): 3000 (USB2E3373)
Spectra Averaged: 3 (USB2E3373)
Boxcar Smoothing: 0 (USB2E3373)
Correct for Electrical Dark: No (USB2E3373)
Strobe/Lamp Enabled: No (USB2E3373)
Correct for Detector Non-linearity: No (USB2E3373)
Correct for Stray Light: No (USB2E3373)
Number of Pixels in Processed Spectrum: 2048
>>>>>Begin Processed Spectral Data<<<<<
178.53	0.000
178.91	100.000
179.29	-1500.000
179.67	-1600.000
180.04	214.286
180.42	200.000
180.80	260.000
181.18	-500.000
181.56	-800.000
181.94	450.000
182.31	-350.000
182.69	566.667
183.07	-650.000
183.45	575.000
183.83	-200.000
184.20	-600.000
184.58	1800.000
184.96	-525.000
185.34	-122.222
185.72	-120.000
186.09	277.778
186.47	800.000
186.85	360.000
187.23	-211.111
187.61	-2200.000
187.98	260.000
188.36	700.000
188.74	-275.000
189.12	-566.667
189.49	-87.500
189.87	-125.000
190.25	-188.889
190.63	-220.000
191.00	-222.222
191.38	0.000
191.76	-575.000
192.14	-350.000
192.51	500.000
192.89	-133.333
193.27	0.000
193.65	-328.571
194.02	-2500.000
194.40	-214.286
194.78	257.143
195.15	0.000
195.53	-100.000
195.91	0.000
196.29	-200.000
196.66	-84.615
197.04	-1900.000
197.42	-242.857
197.79	-950.000
198.17	-137.500
198.55	-157.143
198.92	-166.667
199.30	-250.000
199.68	-118.182
200.05	-7.143
200.43	-1100.000
200.81	314.286
201.18	0.000
201.56	300.000
201.94	0.000
202.31	833.333
202.69	-100.000
203.07	1000.000
203.44	-11.111
203.82	-350.000
204.19	-133.333
204.57	-300.000
204.95	-212.500
205.32	-1000.000
205.70	350.000
206.08	-283.333
206.45	-250.000
206.83	580.000
207.20	-133.333
207.58	-380.000
207.96	-233.333
208.33	-133.333
208.71	158.333
209.08	-150.000
209.46	0.000
209.84	433.333
210.21	550.000
210.59	700.000
210.96	666.667
211.34	-175.000
211.71	-262.500
212.09	-1200.000
212.46	0.000
212.84	850.000
213.22	-280.000
213.59	-325.000
213.97	-140.000
214.34	-800.000
214.72	300.000
215.09	-450.000
215.47	0.000
215.84	214.286
216.22	500.000
216.59	-100.000
216.97	-360.000
217.34	-200.000
217.72	-250.000
218.09	-375.000
218.47	-525.000
218.84	0.000
219.22	300.000
219.59	-47.059
219.97	-40.000
220.34	900.000
220.72	-200.000
221.09	-100.000
221.47	-466.667
221.84	-190.000
222.22	-200.000
222.59	0.000
222.97	-62.500
223.34	-400.000
223.72	-1700.000
224.09	-550.000
224.46	-425.000
224.84	-200.000
225.21	-185.714
225.59	-400.000
225.96	-275.000
226.34	-42.308
226.71	466.667
227.08	-650.000
227.46	-33.333
227.83	-550.000
228.21	-31.579
228.58	275.000
228.95	1000.000
229.33	-83.333
229.70	-140.000
230.08	-42.105
230.45	130.000
230.82	-533.333
231.20	-85.714
231.57	-66.667
231.95	-118.182
232.32	-63.636
232.69	-60.000
233.07	-575.000
233.44	-129.412
233.81	-190.000
234.19	-33.333
234.56	-31.818
234.93	3.448
235.31	-73.684
235.68	-88.889
236.05	-120.000
236.43	-15.385
236.80	0.000
237.17	-29.630
237.55	-3.030
237.92	-50.000
238.29	-29.032
238.67	-9.091
239.04	-16.667
239.41	-16.667
239.79	-26.087
240.16	-1.852
240.53	-17.391
240.91	-17.647
241.28	-6.557
241.65	2.985
242.02	5.405
242.40	-13.846
242.77	-4.000
243.14	-7.317
243.51	2.632
243.89	-10.256
244.26	7.921
244.63	8.824
245.00	6.542
245.38	6.140
245.75	-5.310
246.12	5.556
246.49	7.752
246.87	11.429
247.24	7.947
247.61	18.421
247.98	12.752
248.36	9.259
248.73	11.043
249.10	12.022
249.47	14.428
249.84	16.754
250.22	16.062
250.59	13.889
250.96	15.455
251.33	11.224
251.70	14.957
252.08	13.750
252.45	16.803
252.82	14.463
253.19	17.578
253.56	18.631
253.94	15.385
254.31	18.182
254.68	18.531
255.05	19.870
255.42	14.966
255.79	15.534
256.16	13.576
256.54	12.252
256.91	17.049
257.28	14.426
257.65	14.650
258.02	15.044
258.39	15.100
258.76	18.960
259.14	20.115
259.51	17.867
259.88	17.280
260.25	16.389
260.62	16.164
260.99	18.579
261.36	15.818
261.73	18.302
262.10	13.187
262.47	19.035
262.85	19.949
263.22	14.286
263.59	13.684
263.96	16.880
264.33	14.322
264.70	17.778
265.07	20.525
265.44	19.048
265.81	16.898
266.18	18.821
266.55	17.187
266.92	15.945
267.29	19.256
267.66	17.738
268.03	18.341
268.40	19.207
268.77	14.351
269.14	14.978
269.51	18.202
269.88	19.057
270.25	16.097
270.62	17.722
270.99	19.596
271.36	18.416
271.73	17.682
272.10	18.838
272.47	18.838
272.84	16.667
273.21	16.834
273.58	17.137
273.95	18.269
274.32	16.540
274.69	16.441
275.06	19.048
275.43	16.451
275.80	18.519
276.17	17.407
276.54	16.045
276.91	16.279
277.28	19.711
277.65	18.312
278.02	17.831
278.39	18.841
278.76	16.344
279.13	15.957
279.50	20.275
279.87	17.531
280.23	14.437
280.60	16.441
280.97	18.750
281.34	18.676
281.71	20.643
282.08	16.611
282.45	18.822
282.82	16.641
283.19	14.378
283.56	17.869
283.92	19.069
284.29	17.220
284.66	19.540
285.03	15.865
285.40	17.156
285.77	17.028
286.14	17.252
286.51	16.591
286.87	16.430
287.24	17.771
287.61	16.891
287.98	16.767
288.35	14.941
288.72	18.195
289.08	17.277
289.45	15.533
289.82	16.867
290.19	14.799
290.56	17.183
290.93	15.835
291.29	15.427
291.66	16.253
292.03	16.147
292.40	16.463
292.77	17.385
293.13	16.644
293.50	14.717
293.87	14.765
294.24	16.400
294.60	15.803
294.97	13.423
295.34	16.005
295.71	15.763
296.08	12.920
296.44	14.583
296.81	14.982
297.18	13.076
297.55	13.797
297.91	13.879
298.28	12.678
298.65	14.863
299.02	16.293
299.38	14.302
299.75	13.551
300.12	12.847
300.48	13.594
300.85	13.611
301.22	13.870
301.59	14.041
301.95	13.220
302.32	14.889
302.69	12.815
303.05	13.711
303.42	13.858
303.79	12.500
304.15	13.354
304.52	13.742
304.89	14.660
305.25	12.112
305.62	13.689
305.99	14.124
306.35	13.206
306.72	13.237
307.09	12.792
307.45	13.043
307.82	13.320
308.19	11.806
308.55	13.115
308.92	13.729
309.29	13.027
309.65	12.768
310.02	12.475
310.38	13.583
310.75	13.010
311.12	13.710
311.48	13.587
311.85	12.821
312.22	13.378
312.58	13.803
312.95	13.480
313.31	13.821
313.68	14.377
314.05	14.273
314.41	13.752
314.78	13.715
315.14	13.612
315.51	15.143
315.87	14.761
316.24	15.251
316.61	15.986
316.97	14.208
317.34	13.757
317.70	15.022
318.07	15.520
318.43	16.241
318.80	16.555
319.16	16.395
319.53	15.596
319.89	15.688
320.26	17.705
320.62	16.844
320.99	17.636
321.35	17.560
321.72	19.442
322.08	17.313
322.45	18.790
322.81	18.412
323.18	19.115
323.54	20.259
323.91	19.751
324.27	19.019
324.64	20.487
325.00	20.896
325.37	21.622
325.73	20.992
326.10	23.277
326.46	22.394
326.83	23.939
327.19	23.228
327.56	23.399
327.92	23.761
328.29	22.823
328.65	23.702
329.01	23.858
329.38	24.010
329.74	25.685
330.11	25.942
330.47	25.358
330.84	25.668
331.20	27.000
331.56	26.256
331.93	26.778
332.29	26.102
332.66	25.748
333.02	24.791
333.38	25.923
333.75	27.946
334.11	26.105
334.48	27.145
334.84	27.273
335.20	27.456
335.57	28.162
335.93	26.942
336.29	27.038
336.66	26.325
337.02	27.341
337.38	29.337
337.75	27.769
338.11	27.670
338.47	28.619
338.84	27.411
339.20	25.779
339.56	26.524
339.93	26.847
340.29	27.375
340.65	26.683
341.02	28.891
341.38	29.426
341.74	27.926
342.11	28.882
342.47	26.926
342.83	29.147
343.20	29.109
343.56	28.709
343.92	28.263
344.28	29.531
344.65	29.225
345.01	29.329
345.37	29.471
345.73	27.825
346.10	29.485
346.46	29.272
346.82	29.064
347.19	29.030
347.55	30.121
347.91	30.163
348.27	29.970
348.63	29.322
349.00	29.306
349.36	28.699
349.72	30.283
350.08	29.866
350.45	28.821
350.81	30.468
351.17	29.474
351.53	30.933
351.89	29.765
352.26	30.224
352.62	31.194
352.98	29.542
353.34	28.678
353.70	30.663
354.07	29.881
354.43	31.587
354.79	30.516
355.15	30.243
355.51	30.117
355.87	31.339
356.24	31.103
356.60	29.712
356.96	30.838
357.32	29.517
357.68	31.186
358.04	32.111
358.40	30.448
358.77	31.360
359.13	30.502
359.49	30.632
359.85	32.560
360.21	31.205
360.57	31.156
360.93	31.594
361.29	31.789
361.66	31.789
362.02	32.289
362.38	31.553
362.74	31.704
363.10	31.706
363.46	32.548
363.82	32.741
364.18	31.597
364.54	33.195
364.90	33.244
365.26	33.379
365.62	32.533
365.98	34.105
366.35	32.819
366.71	33.878
367.07	33.288
367.43	33.815
367.79	33.112
368.15	34.181
368.51	34.032
368.87	33.834
369.23	32.733
369.59	34.016
369.95	34.550
370.31	34.099
370.67	33.287
371.03	33.310
371.39	33.983
371.75	34.388
372.11	33.130
372.47	32.972
372.83	33.770
373.19	33.823
373.55	33.604
373.91	32.515
374.27	34.541
374.63	34.912
374.99	34.085
375.35	34.481
375.71	33.161
376.07	34.216
376.42	34.824
376.78	34.431
377.14	33.125
377.50	34.598
377.86	35.591
378.22	34.850
378.58	34.602
378.94	33.862
379.30	34.856
379.66	35.802
380.02	35.199
380.38	35.023
380.74	34.085
381.09	34.901
381.45	36.080
381.81	34.953
382.17	34.323
382.53	35.088
382.89	35.158
383.25	35.815
383.61	35.012
383.97	35.453
384.32	36.124
384.68	33.759
385.04	35.685
385.40	35.887
385.76	35.170
386.12	35.248
386.48	34.882
386.83	35.221
387.19	35.400
387.55	34.859
387.91	34.932
388.27	35.624
388.62	34.651
388.98	35.307
389.34	36.123
389.70	35.677
390.06	34.458
390.42	35.361
390.77	36.063
391.13	35.270
391.49	35.145
391.85	35.212
392.20	34.698
392.56	35.676
392.92	35.387
393.28	35.710
393.64	34.804
393.99	35.096
394.35	34.813
394.71	35.090
395.07	33.713
395.42	34.380
395.78	35.101
396.14	33.749
396.50	34.145
396.85	33.691
397.21	33.550
397.57	35.336
397.92	34.593
398.28	33.732
398.64	33.410
399.00	32.147
399.35	34.346
399.71	33.533
400.07	33.914
400.42	33.993
400.78	34.780
401.14	32.442
401.49	33.428
401.85	32.791
402.21	34.241
402.57	34.214
402.92	34.338
403.28	33.080
403.63	33.652
403.99	32.720
404.35	31.950
404.70	32.408
405.06	32.011
405.42	33.489
405.77	33.915
406.13	32.739
406.49	33.390
406.84	33.130
407.20	32.700
407.55	32.707
407.91	32.747
408.27	32.627
408.62	33.450
408.98	32.443
409.34	31.672
409.69	32.138
410.05	32.239
410.40	33.527
410.76	32.473
411.11	32.320
411.47	31.818
411.83	32.981
412.18	32.651
412.54	31.713
412.89	32.596
413.25	32.223
413.60	32.223
413.96	32.343
414.31	31.671
414.67	33.691
415.03	32.123
415.38	31.715
415.74	31.765
416.09	31.832
416.45	31.622
416.80	32.130
417.16	32.120
417.51	32.379
417.87	32.434
418.22	33.054
418.58	32.342
418.93	32.421
419.29	32.861
419.64	31.633
420.00	32.047
420.35	33.071
420.71	32.625
421.06	32.317
421.42	32.053
421.77	31.933
422.12	32.505
422.48	32.924
422.83	32.530
423.19	32.255
423.54	32.246
423.90	33.407
424.25	32.693
424.61	33.467
424.96	32.894
425.31	32.537
425.67	32.797
426.02	33.868
426.38	33.410
426.73	33.092
427.09	33.968
427.44	32.878
427.79	33.444
428.15	33.219
428.50	33.539
428.85	33.697
429.21	33.404
429.56	34.353
429.92	34.103
430.27	33.349
430.62	33.757
430.98	33.940
431.33	33.236
431.68	33.429
432.04	33.926
432.39	33.369
432.74	34.532
433.10	35.425
433.45	33.779
433.80	33.691
434.16	34.194
434.51	34.532
434.86	34.691
435.22	35.547
435.57	35.436
435.92	34.502
436.28	34.528
436.63	35.227
436.98	34.353
437.34	34.442
437.69	34.618
438.04	35.325
438.39	34.578
438.75	34.754
439.10	35.571
439.45	34.768
439.81	35.028
440.16	34.316
440.51	35.396
440.86	34.686
441.22	34.566
441.57	34.906
441.92	35.112
442.27	35.606
442.63	35.668
442.98	35.059
443.33	35.245
443.68	36.075
444.03	35.936
444.39	35.368
444.74	35.681
445.09	35.428
445.44	35.248
445.79	36.207
446.15	34.943
446.50	34.677
446.85	35.360
447.20	34.913
447.55	35.931
447.91	35.550
448.26	34.461
448.61	34.910
448.96	35.354
449.31	34.624
449.66	34.259
450.02	35.496
450.37	34.949
450.72	34.499
451.07	34.966
451.42	34.258
451.77	34.297
452.12	35.892
452.47	34.403
452.83	35.135
453.18	34.734
453.53	34.578
453.88	33.738
454.23	34.237
454.58	34.127
454.93	33.374
455.28	35.521
455.63	33.542
455.98	33.464
456.34	33.922
456.69	32.745
457.04	33.274
457.39	33.925
457.74	34.060
458.09	33.828
458.44	33.567
458.79	33.265
459.14	33.403
459.49	33.843
459.84	34.050
460.19	32.871
460.54	33.901
460.89	33.139
461.24	32.241
461.59	33.647
461.94	32.516
462.29	32.811
462.64	31.804
462.99	31.952
463.34	33.550
463.69	31.360
464.04	32.351
464.39	32.343
464.74	32.098
465.09	32.411
465.44	32.082
465.79	31.835
466.14	31.892
466.49	32.421
466.84	32.176
467.19	31.618
467.54	31.492
467.89	30.632
468.24	31.080
468.59	29.936
468.94	30.245
469.29	30.354
469.64	30.261
469.99	29.828
470.34	30.136
470.68	30.827
471.03	31.107
471.38	29.758
471.73	29.974
472.08	30.393
472.43	29.500
472.78	29.534
473.13	30.278
473.48	29.668
473.83	29.135
474.17	30.129
474.52	29.345
474.87	29.790
475.22	29.577
475.57	29.491
475.92	29.517
476.27	29.766
476.61	28.609
476.96	28.624
477.31	28.762
477.66	29.801
478.01	29.436
478.36	28.814
478.70	28.719
479.05	28.988
479.40	29.368
479.75	28.194
480.10	28.233
480.45	28.350
480.79	28.571
481.14	27.941
481.49	27.533
481.84	28.285
482.19	28.516
482.53	28.684
482.88	28.711
483.23	27.924
483.58	26.725
483.92	27.926
484.27	27.985
484.62	27.021
484.97	28.344
485.31	27.772
485.66	26.276
486.01	26.851
486.36	26.787
486.70	28.259
487.05	28.051
487.40	28.163
487.75	27.812
488.09	28.121
488.44	27.219
488.79	27.083
489.13	27.082
489.48	26.252
489.83	25.956
490.17	26.569
490.52	26.108
490.87	25.465
491.22	26.083
491.56	26.323
491.91	26.341
492.26	26.352
492.60	25.929
492.95	25.932
493.30	25.863
493.64	25.843
493.99	25.307
494.34	26.089
494.68	24.283
495.03	25.507
495.37	25.300
495.72	25.896
496.07	25.241
496.41	24.582
496.76	25.104
497.11	25.393
497.45	25.334
497.80	25.100
498.14	25.170
498.49	25.506
498.84	25.274
499.18	25.191
499.53	24.843
499.87	24.571
500.22	24.221
500.56	24.381
500.91	24.668
501.26	24.864
501.60	24.127
501.95	24.360
502.29	24.441
502.64	24.923
502.98	23.684
503.33	24.363
503.67	23.942
504.02	24.475
504.36	24.531
504.71	24.070
505.06	24.056
505.40	23.766
505.75	24.135
506.09	23.849
506.44	23.677
506.78	24.037
507.13	23.098
507.47	23.070
507.82	22.917
508.16	23.566
508.51	22.644
508.85	23.996
509.19	23.828
509.54	23.295
509.88	23.118
510.23	23.652
510.57	24.408
510.92	22.980
511.26	23.377
511.61	22.501
511.95	23.036
512.30	22.797
512.64	23.038
512.98	22.261
513.33	22.883
513.67	21.877
514.02	22.637
514.36	22.558
514.70	22.135
515.05	23.306
515.39	22.572
515.74	22.853
516.08	22.029
516.42	23.234
516.77	23.134
517.11	22.073
517.46	22.057
517.80	22.822
518.14	22.797
518.49	22.180
518.83	21.873
519.17	22.240
519.52	22.851
519.86	21.595
520.20	21.725
520.55	22.070
520.89	21.903
521.23	20.938
521.58	22.203
521.92	21.756
522.26	21.306
522.61	21.470
522.95	21.338
523.29	22.126
523.64	21.749
523.98	21.335
524.32	22.636
524.66	21.059
525.01	21.121
525.35	21.597
525.69	21.404
526.04	21.240
526.38	21.149
526.72	20.531
527.06	21.935
527.41	20.583
527.75	21.318
528.09	20.838
528.43	20.722
528.78	20.751
529.12	20.528
529.46	20.798
529.80	20.709
530.15	21.565
530.49	21.174
530.83	20.838
531.17	20.191
531.51	19.374
531.86	20.974
532.20	21.768
532.54	20.946
532.88	20.909
533.22	20.035
533.57	20.196
533.91	20.483
534.25	20.294
534.59	21.034
534.93	20.260
535.27	20.451
535.62	20.921
535.96	20.337
536.30	20.388
536.64	19.940
536.98	20.234
537.32	20.185
537.66	20.524
538.01	20.302
538.35	20.280
538.69	19.651
539.03	20.049
539.37	20.436
539.71	19.580
540.05	20.324
540.39	19.988
540.73	19.429
541.07	20.540
541.42	19.787
541.76	18.980
542.10	19.964
542.44	19.549
542.78	19.830
543.12	19.964
543.46	20.330
543.80	19.724
544.14	18.911
544.48	20.095
544.82	19.749
545.16	19.797
545.50	18.814
545.84	19.351
546.18	19.259
546.52	19.172
546.86	19.057
547.20	18.893
547.54	18.602
547.88	19.409
548.22	18.889
548.56	19.310
548.90	19.701
549.24	18.663
549.58	18.612
549.92	19.452
550.26	19.482
550.60	19.081
550.94	19.082
551.28	19.076
551.62	17.992
551.96	19.417
552.30	19.184
552.64	18.793
552.98	18.653
553.32	19.743
553.66	19.614
554.00	18.979
554.34	18.726
554.68	18.270
555.02	18.528
555.36	19.329
555.69	17.745
556.03	18.916
556.37	19.086
556.71	19.341
557.05	19.425
557.39	18.912
557.73	18.362
558.07	18.344
558.41	19.668
558.75	19.405
559.08	19.207
559.42	17.764
559.76	19.064
560.10	18.486
560.44	18.734
560.78	19.375
561.12	18.534
561.45	18.613
561.79	19.109
562.13	18.423
562.47	18.002
562.81	19.114
563.15	18.624
563.48	18.769
563.82	19.166
564.16	17.807
564.50	18.355
564.84	18.171
565.17	18.765
565.51	18.297
565.85	18.824
566.19	18.203
566.52	17.730
566.86	18.449
567.20	17.618
567.54	18.109
567.88	18.451
568.21	18.676
568.55	18.513
568.89	18.429
569.23	18.631
569.56	18.445
569.90	18.603
570.24	18.347
570.57	18.089
570.91	18.524
571.25	18.397
571.59	18.286
571.92	18.284
572.26	18.317
572.60	18.400
572.93	19.121
573.27	18.685
573.61	18.581
573.95	18.451
574.28	18.500
574.62	18.713
574.96	18.262
575.29	18.198
575.63	18.272
575.97	18.371
576.30	18.653
576.64	18.516
576.98	18.223
577.31	18.463
577.65	18.531
577.98	18.430
578.32	18.478
578.66	18.771
578.99	18.288
579.33	18.786
579.67	18.359
580.00	18.633
580.34	18.281
580.67	18.513
581.01	18.282
581.35	18.547
581.68	18.296
582.02	18.713
582.35	18.875
582.69	18.868
583.02	18.763
583.36	18.649
583.70	18.655
584.03	18.407
584.37	18.588
584.70	18.704
585.04	18.066
585.37	18.228
585.71	18.231
586.04	18.604
586.38	18.802
586.72	18.376
587.05	18.214
587.39	18.100
587.72	18.732
588.06	18.569
588.39	18.745
588.73	18.386
589.06	18.030
589.40	19.053
589.73	18.702
590.07	18.733
590.40	18.458
590.73	18.452
591.07	18.541
591.40	17.729
591.74	18.362
592.07	18.676
592.41	18.218
592.74	17.856
593.08	18.280
593.41	18.723
593.75	18.448
594.08	18.085
594.41	18.654
594.75	17.801
595.08	18.540
595.42	18.571
595.75	18.147
596.09	18.536
596.42	17.986
596.75	17.870
597.09	18.343
597.42	17.441
597.75	17.993
598.09	17.579
598.42	18.175
598.76	17.845
599.09	17.693
599.42	17.700
599.76	17.927
600.09	18.752
600.42	17.551
600.76	18.065
601.09	17.856
601.42	17.645
601.76	17.724
602.09	18.013
602.42	17.448
602.76	17.860
603.09	17.548
603.42	17.775
603.76	17.230
604.09	18.630
604.42	18.165
604.76	17.618
605.09	18.189
605.42	17.743
605.75	17.654
606.09	17.693
606.42	17.804
606.75	17.616
607.09	17.204
607.42	17.418
607.75	18.054
608.08	17.522
608.42	17.211
608.75	17.662
609.08	17.827
609.41	17.865
609.75	17.455
610.08	17.854
610.41	17.247
610.74	17.269
611.07	17.362
611.41	17.578
611.74	17.783
612.07	17.765
612.40	17.110
612.73	18.044
613.07	17.359
613.40	17.806
613.73	16.899
614.06	17.370
614.39	16.861
614.72	16.885
615.06	17.421
615.39	16.916
615.72	17.251
616.05	17.581
616.38	17.306
616.71	17.555
617.05	16.986
617.38	17.228
617.71	17.387
618.04	17.107
618.37	17.158
618.70	16.629
619.03	17.025
619.36	16.954
619.69	17.168
620.03	17.075
620.36	16.748
620.69	16.225
621.02	16.142
621.35	17.126
621.68	17.426
622.01	16.299
622.34	14.784
622.67	16.357
623.00	15.520
623.33	16.457
623.66	16.796
623.99	16.195
624.32	18.324
624.65	15.959
624.99	16.580
625.32	16.656
625.65	16.521
625.98	16.203
626.31	16.655
626.64	16.777
626.97	16.054
627.30	15.414
627.63	16.054
627.96	16.366
628.29	16.498
628.62	16.205
628.95	15.425
629.28	15.038
629.61	16.330
629.94	15.732
630.26	15.508
630.59	14.680
630.92	15.238
631.25	16.100
631.58	16.667
