SpectraSuite Data File
++++++++++++++++++++++++++++++++++++
Date: Thu May 14 16:01:54 PDT 2015
User: schluterlab
Dark Spectrum Present: Yes
Reference Spectrum Present: Yes
Number of Sampled Component Spectra: 1
Spectrometers: USB2E3373
Integration Time (usec): 3000 (USB2E3373)
Spectra Averaged: 3 (USB2E3373)
Boxcar Smoothing: 0 (USB2E3373)
Correct for Electrical Dark: No (USB2E3373)
Strobe/Lamp Enabled: No (USB2E3373)
Correct for Detector Non-linearity: No (USB2E3373)
Correct for Stray Light: No (USB2E3373)
Number of Pixels in Processed Spectrum: 2048
>>>>>Begin Processed Spectral Data<<<<<
178.53	0.000
178.91	200.000
179.29	-2300.000
179.67	-1500.000
180.04	228.571
180.42	140.000
180.80	320.000
181.18	-900.000
181.56	300.000
181.94	300.000
182.31	-375.000
182.69	500.000
183.07	-500.000
183.45	350.000
183.83	-133.333
184.20	-366.667
184.58	1400.000
184.96	-450.000
185.34	-233.333
185.72	-220.000
186.09	288.889
186.47	950.000
186.85	480.000
187.23	-222.222
187.61	-1800.000
187.98	340.000
188.36	475.000
188.74	-200.000
189.12	-266.667
189.49	-18.750
189.87	-137.500
190.25	-88.889
190.63	-280.000
191.00	-244.444
191.38	0.000
191.76	-550.000
192.14	-283.333
192.51	650.000
192.89	-150.000
193.27	0.000
193.65	-157.143
194.02	-2500.000
194.40	-85.714
194.78	200.000
195.15	0.000
195.53	-127.273
195.91	0.000
196.29	-175.000
196.66	-115.385
197.04	-2700.000
197.42	-257.143
197.79	-900.000
198.17	-187.500
198.55	-157.143
198.92	11.111
199.30	-175.000
199.68	-9.091
200.05	-57.143
200.43	-850.000
200.81	328.571
201.18	0.000
201.56	211.111
201.94	0.000
202.31	800.000
202.69	-322.222
203.07	1300.000
203.44	-166.667
203.82	-575.000
204.19	-158.333
204.57	-200.000
204.95	-150.000
205.32	-1600.000
205.70	325.000
206.08	-150.000
206.45	-283.333
206.83	400.000
207.20	-216.667
207.58	-380.000
207.96	-166.667
208.33	-266.667
208.71	141.667
209.08	-50.000
209.46	0.000
209.84	400.000
210.21	1000.000
210.59	550.000
210.96	633.333
211.34	-375.000
211.71	-212.500
212.09	-1900.000
212.46	0.000
212.84	1100.000
213.22	-320.000
213.59	-475.000
213.97	-90.000
214.34	-700.000
214.72	316.667
215.09	-475.000
215.47	0.000
215.84	185.714
216.22	1250.000
216.59	-260.000
216.97	-440.000
217.34	-500.000
217.72	-75.000
218.09	-450.000
218.47	-500.000
218.84	0.000
219.22	180.000
219.59	-76.471
219.97	-70.000
220.34	1250.000
220.72	-266.667
221.09	-84.615
221.47	-466.667
221.84	-200.000
222.22	-257.143
222.59	0.000
222.97	-112.500
223.34	-420.000
223.72	-1600.000
224.09	-575.000
224.46	-550.000
224.84	-120.000
225.21	-142.857
225.59	-475.000
225.96	-325.000
226.34	-26.923
226.71	350.000
227.08	-850.000
227.46	-93.333
227.83	-425.000
228.21	-15.789
228.58	112.500
228.95	550.000
229.33	-125.000
229.70	-130.000
230.08	-31.579
230.45	250.000
230.82	-400.000
231.20	-128.571
231.57	-100.000
231.95	-190.909
232.32	-163.636
232.69	-40.000
233.07	-400.000
233.44	-123.529
233.81	-120.000
234.19	-16.667
234.56	4.545
234.93	-10.345
235.31	-31.579
235.68	-22.222
236.05	-65.000
236.43	-7.692
236.80	16.000
237.17	-48.148
237.55	-21.212
237.92	-120.000
238.29	-12.903
238.67	-20.455
239.04	2.778
239.41	-35.714
239.79	-4.348
240.16	-9.259
240.53	-10.870
240.91	-27.451
241.28	-11.475
241.65	19.403
242.02	14.865
242.40	-7.692
242.77	-1.333
243.14	1.220
243.51	-17.105
243.89	-15.385
244.26	2.970
244.63	10.784
245.00	13.084
245.38	12.281
245.75	-7.080
246.12	10.317
246.49	4.651
246.87	9.286
247.24	13.245
247.61	13.158
247.98	6.711
248.36	12.963
248.73	7.362
249.10	9.290
249.47	14.428
249.84	20.942
250.22	9.326
250.59	12.778
250.96	11.364
251.33	11.735
251.70	16.667
252.08	15.417
252.45	10.656
252.82	12.397
253.19	14.453
253.56	15.589
253.94	13.077
254.31	15.152
254.68	17.832
255.05	14.658
255.42	10.544
255.79	13.592
256.16	14.238
256.54	12.252
256.91	16.066
257.28	15.738
257.65	14.650
258.02	14.749
258.39	16.809
258.76	20.183
259.14	20.115
259.51	16.427
259.88	14.448
260.25	17.500
260.62	12.877
260.99	18.579
261.36	17.962
261.73	15.650
262.10	16.484
262.47	17.962
262.85	19.697
263.22	14.026
263.59	13.684
263.96	15.601
264.33	15.090
264.70	16.296
265.07	17.661
265.44	20.408
265.81	15.046
266.18	17.687
266.55	17.187
266.92	15.945
267.29	18.381
267.66	16.630
268.03	17.031
268.40	17.119
268.77	14.806
269.14	15.198
269.51	16.228
269.88	18.648
270.25	17.304
270.62	18.565
270.99	16.566
271.36	18.812
271.73	17.682
272.10	18.637
272.47	17.836
272.84	13.454
273.21	19.038
273.58	18.347
273.95	16.346
274.32	15.019
274.69	18.569
275.06	17.033
275.43	17.375
275.80	17.813
276.17	17.407
276.54	16.045
276.91	17.352
277.28	14.467
277.65	15.799
278.02	18.015
278.39	16.123
278.76	18.102
279.13	17.730
279.50	16.838
279.87	17.174
280.23	16.197
280.60	18.644
280.97	17.763
281.34	16.129
281.71	16.244
282.08	17.442
282.45	15.548
282.82	16.641
283.19	14.055
283.56	14.098
283.92	17.868
284.29	19.273
284.66	17.077
285.03	14.263
285.40	17.774
285.77	15.944
286.14	17.863
286.51	15.982
286.87	16.114
287.24	16.114
287.61	16.891
287.98	14.653
288.35	16.272
288.72	15.976
289.08	15.959
289.45	13.757
289.82	13.404
290.19	14.511
290.56	14.930
290.93	16.548
291.29	16.116
291.66	14.325
292.03	13.569
292.40	15.374
292.77	14.420
293.13	14.885
293.50	14.192
293.87	13.557
294.24	14.800
294.60	13.021
294.97	12.349
295.34	15.877
295.71	12.106
296.08	12.661
296.44	14.828
296.81	14.616
297.18	14.072
297.55	13.208
297.91	12.574
298.28	12.678
298.65	13.793
299.02	11.924
299.38	12.586
299.75	12.617
300.12	12.153
300.48	13.825
300.85	14.061
301.22	12.304
301.59	11.530
301.95	13.107
302.32	13.333
302.69	13.034
303.05	11.425
303.42	12.639
303.79	12.188
304.15	13.460
304.52	12.262
304.89	13.403
305.25	12.319
305.62	11.808
305.99	11.443
306.35	12.802
306.72	13.030
307.09	11.472
307.45	12.215
307.82	12.412
308.19	11.907
308.55	12.825
308.92	12.074
309.29	12.548
309.65	12.086
310.02	13.069
310.38	12.500
310.75	10.971
311.12	12.752
311.48	12.023
311.85	12.061
312.22	11.860
312.58	12.207
312.95	11.377
313.31	12.556
313.68	13.278
314.05	13.189
314.41	12.295
314.78	12.807
315.14	12.432
315.51	13.112
315.87	12.781
316.24	13.333
316.61	14.920
316.97	12.760
317.34	13.051
317.70	13.537
318.07	14.109
318.43	14.116
318.80	13.378
319.16	13.991
319.53	12.425
319.89	12.621
320.26	14.680
320.62	14.007
320.99	13.019
321.35	14.233
321.72	15.349
322.08	14.518
322.45	16.170
322.81	14.711
323.18	14.690
323.54	13.793
323.91	15.480
324.27	14.544
324.64	16.037
325.00	15.091
325.37	15.725
325.73	14.793
326.10	16.058
326.46	16.694
326.83	16.493
327.19	15.433
327.56	15.889
327.92	17.309
328.29	16.452
328.65	15.913
329.01	16.413
329.38	17.270
329.74	16.952
330.11	16.267
330.47	16.681
330.84	16.537
331.20	17.917
331.56	16.205
331.93	17.908
332.29	17.373
332.66	17.525
333.02	16.667
333.38	16.611
333.75	17.424
334.11	17.348
334.48	17.657
334.84	17.417
335.20	16.205
335.57	17.875
335.93	18.099
336.29	17.304
336.66	15.980
337.02	16.806
337.38	17.432
337.75	16.860
338.11	16.653
338.47	17.866
338.84	16.751
339.20	16.091
339.56	16.886
339.93	17.077
340.29	16.908
340.65	17.194
341.02	16.441
341.38	17.542
341.74	17.111
342.11	17.458
342.47	15.647
342.83	17.391
343.20	17.416
343.56	17.963
343.92	17.134
344.28	17.422
344.65	16.202
345.01	16.459
345.37	17.263
345.73	16.524
346.10	17.551
346.46	15.506
346.82	17.528
347.19	17.112
347.55	17.678
347.91	16.642
348.27	16.844
348.63	16.984
349.00	16.555
349.36	17.621
349.72	16.369
350.08	16.939
350.45	16.426
350.81	16.516
351.17	16.165
351.53	16.831
351.89	17.084
352.26	16.567
352.62	16.940
352.98	15.573
353.34	15.982
353.70	16.102
354.07	15.276
354.43	16.021
354.79	16.380
355.15	15.379
355.51	17.178
355.87	15.183
356.24	16.806
356.60	16.112
356.96	16.531
357.32	15.911
357.68	15.739
358.04	15.569
358.40	16.493
358.77	16.447
359.13	15.436
359.49	15.836
359.85	17.331
360.21	16.284
360.57	15.793
360.93	15.656
361.29	16.000
361.66	16.582
362.02	17.189
362.38	15.741
362.74	16.760
363.10	17.056
363.46	17.382
363.82	15.554
364.18	17.312
364.54	16.598
364.90	16.990
365.26	15.724
365.62	17.067
365.98	16.065
366.35	15.973
366.71	16.054
367.07	16.373
367.43	17.400
367.79	15.727
368.15	16.722
368.51	17.253
368.87	16.721
369.23	16.467
369.59	16.257
369.95	17.039
370.31	17.353
370.67	16.506
371.03	16.828
371.39	16.051
371.75	16.300
372.11	16.463
372.47	16.655
372.83	17.277
373.19	16.945
373.55	16.531
373.91	16.360
374.27	16.624
374.63	17.388
374.99	16.180
375.35	16.429
375.71	16.452
376.07	16.398
376.42	16.310
376.78	18.024
377.14	15.845
377.50	16.572
377.86	17.057
378.22	17.066
378.58	16.825
378.94	17.077
379.30	17.340
379.66	16.990
380.02	17.426
380.38	16.878
380.74	17.465
381.09	16.899
381.45	17.273
381.81	17.857
382.17	16.390
382.53	16.959
382.89	18.172
383.25	18.054
383.61	17.130
383.97	18.021
384.32	18.122
384.68	17.517
385.04	17.929
385.40	18.503
385.76	18.054
386.12	17.714
386.48	17.765
386.83	18.594
387.19	17.729
387.55	17.840
387.91	18.208
388.27	18.129
388.62	18.041
388.98	17.766
389.34	17.855
389.70	17.257
390.06	18.117
390.42	18.133
390.77	18.423
391.13	18.486
391.49	19.505
391.85	18.182
392.20	19.217
392.56	19.315
392.92	18.975
393.28	18.629
393.64	18.212
393.99	18.942
394.35	18.633
394.71	18.982
395.07	18.683
395.42	18.903
395.78	19.196
396.14	19.133
396.50	19.181
396.85	18.784
397.21	19.053
397.57	20.082
397.92	19.129
398.28	19.500
398.64	18.650
399.00	18.482
399.35	19.686
399.71	19.674
400.07	19.483
400.42	19.499
400.78	20.023
401.14	20.319
401.49	20.466
401.85	20.116
402.21	20.800
402.57	21.127
402.92	19.563
403.28	20.082
403.63	19.451
403.99	20.309
404.35	20.750
404.70	21.133
405.06	20.761
405.42	21.019
405.77	21.320
406.13	20.800
406.49	20.664
406.84	21.163
407.20	20.906
407.55	20.836
407.91	21.119
408.27	21.437
408.62	22.222
408.98	21.358
409.34	21.114
409.69	22.002
410.05	21.688
410.40	21.520
410.76	21.985
411.11	22.560
411.47	21.437
411.83	23.398
412.18	22.711
412.54	22.644
412.89	21.187
413.25	22.630
413.60	22.631
413.96	22.494
414.31	23.286
414.67	22.838
415.03	22.462
415.38	23.518
415.74	22.358
416.09	23.874
416.45	23.106
416.80	23.745
417.16	24.010
417.51	23.350
417.87	22.931
418.22	22.455
418.58	23.420
418.93	24.040
419.29	23.798
419.64	23.049
420.00	24.570
420.35	23.975
420.71	23.722
421.06	23.749
421.42	24.885
421.77	23.856
422.12	24.577
422.48	24.936
422.83	24.918
423.19	24.085
423.54	24.668
423.90	24.020
424.25	24.640
424.61	23.823
424.96	24.382
425.31	25.106
425.67	24.262
426.02	24.737
426.38	25.316
426.73	25.112
427.09	25.779
427.44	25.451
427.79	25.815
428.15	25.171
428.50	24.719
428.85	25.029
429.21	24.947
429.56	25.518
429.92	25.258
430.27	25.060
430.62	25.940
430.98	25.234
431.33	25.171
431.68	24.665
432.04	25.800
432.39	25.978
432.74	26.027
433.10	26.933
433.45	25.307
433.80	26.234
434.16	26.705
434.51	26.002
434.86	26.493
435.22	26.621
435.57	26.592
435.92	26.711
436.28	26.621
436.63	27.526
436.98	26.838
437.34	25.986
437.69	26.527
438.04	27.975
438.39	27.111
438.75	26.674
439.10	27.114
439.45	26.328
439.81	26.723
440.16	26.381
440.51	27.648
440.86	26.348
441.22	27.224
441.57	27.516
441.92	26.916
442.27	27.626
442.63	27.670
442.98	27.375
443.33	27.038
443.68	26.611
444.03	28.081
444.39	28.155
444.74	27.412
445.09	27.623
445.44	27.713
445.79	28.113
446.15	27.287
446.50	27.907
446.85	28.016
447.20	27.660
447.55	27.929
447.91	27.696
448.26	27.537
448.61	27.843
448.96	28.219
449.31	27.996
449.66	27.233
450.02	27.848
450.37	28.077
450.72	27.987
451.07	27.961
451.42	28.885
451.77	28.571
452.12	28.555
452.47	27.629
452.83	28.097
453.18	28.079
453.53	28.317
453.88	28.161
454.23	28.531
454.58	29.483
454.93	29.308
455.28	29.139
455.63	29.505
455.98	29.553
456.34	28.799
456.69	28.630
457.04	29.433
457.39	28.659
457.74	29.754
458.09	29.325
458.44	29.203
458.79	28.932
459.14	29.261
459.49	29.089
459.84	28.646
460.19	28.817
460.54	29.302
460.89	29.857
461.24	28.851
461.59	29.275
461.94	27.610
462.29	29.395
462.64	29.390
462.99	29.441
463.34	30.759
463.69	29.132
464.04	29.683
464.39	29.092
464.74	29.875
465.09	29.931
465.44	29.506
465.79	29.350
466.14	28.609
466.49	29.000
466.84	29.697
467.19	29.595
467.54	28.613
467.89	28.793
468.24	29.695
468.59	29.473
468.94	29.545
469.29	29.034
469.64	30.261
469.99	30.147
470.34	30.198
470.68	30.827
471.03	31.303
471.38	30.412
471.73	29.324
472.08	30.076
472.43	29.982
472.78	30.856
473.13	30.594
473.48	30.574
473.83	30.760
474.17	30.832
474.52	31.750
474.87	30.343
475.22	30.592
475.57	30.478
475.92	29.766
476.27	31.257
476.61	30.166
476.96	29.510
477.31	30.842
477.66	31.375
478.01	31.317
478.36	30.259
478.70	30.788
479.05	30.215
479.40	30.997
479.75	30.740
480.10	31.265
480.45	30.356
480.79	30.113
481.14	30.744
481.49	29.350
481.84	31.158
482.19	31.355
482.53	31.307
482.88	30.793
483.23	30.547
483.58	30.873
483.92	30.098
484.27	30.737
484.62	31.106
484.97	31.026
485.31	30.201
485.66	28.625
486.01	27.498
486.36	28.058
486.70	28.902
487.05	29.635
487.40	29.324
487.75	29.542
488.09	29.952
488.44	29.901
488.79	30.287
489.13	30.485
489.48	30.602
489.83	30.624
490.17	30.944
490.52	31.322
490.87	31.134
491.22	31.412
491.56	31.527
491.91	31.574
492.26	32.237
492.60	31.001
492.95	31.286
493.30	31.914
493.64	31.362
493.99	31.404
494.34	31.272
494.68	31.306
495.03	32.379
495.37	32.357
495.72	31.791
496.07	32.209
496.41	30.716
496.76	31.693
497.11	31.592
497.45	31.247
497.80	31.808
498.14	31.519
498.49	32.353
498.84	30.759
499.18	31.984
499.53	32.870
499.87	32.176
500.22	30.721
500.56	32.164
500.91	31.716
501.26	32.364
501.60	31.993
501.95	32.089
502.29	31.549
502.64	32.357
502.98	31.406
503.33	32.268
503.67	31.095
504.02	32.137
504.36	32.440
504.71	32.017
505.06	32.333
505.40	32.221
505.75	32.013
506.09	32.551
506.44	32.683
506.78	32.890
507.13	32.089
507.47	33.160
507.82	32.292
508.16	32.600
508.51	32.349
508.85	32.924
509.19	33.491
509.54	32.949
509.88	33.220
510.23	33.220
510.57	33.543
510.92	33.188
511.26	31.938
511.61	32.400
511.95	33.382
512.30	33.481
512.64	33.433
512.98	32.266
513.33	33.821
513.67	33.452
514.02	34.032
514.36	32.839
514.70	34.687
515.05	33.629
515.39	34.961
515.74	35.260
516.08	33.492
516.42	34.275
516.77	33.701
517.11	33.729
517.46	34.517
517.80	34.794
518.14	35.637
518.49	34.816
518.83	34.167
519.17	33.872
519.52	34.591
519.86	34.688
520.20	35.357
520.55	34.995
520.89	36.599
521.23	35.288
521.58	35.311
521.92	35.694
522.26	34.937
522.61	35.937
522.95	35.582
523.29	36.207
523.64	36.043
523.98	36.452
524.32	35.931
524.66	35.629
525.01	35.108
525.35	35.899
525.69	35.325
526.04	35.878
526.38	35.287
526.72	35.986
527.06	36.891
527.41	36.035
527.75	37.411
528.09	36.659
528.43	35.346
528.78	35.665
529.12	35.206
529.46	35.076
529.80	36.670
530.15	36.116
530.49	36.121
530.83	36.128
531.17	35.305
531.51	35.860
531.86	36.839
532.20	36.585
532.54	36.026
532.88	37.091
533.22	36.064
533.57	35.141
533.91	36.308
534.25	36.405
534.59	35.977
534.93	35.144
535.27	36.338
535.62	36.441
535.96	36.258
536.30	36.310
536.64	36.817
536.98	37.884
537.32	36.975
537.66	36.931
538.01	35.710
538.35	36.784
538.69	36.478
539.03	36.542
539.37	37.220
539.71	36.637
540.05	36.691
540.39	35.636
540.73	35.155
541.07	36.787
541.42	35.854
541.76	35.113
542.10	36.369
542.44	35.079
542.78	36.800
543.12	36.293
543.46	36.996
543.80	35.492
544.14	35.009
544.48	36.584
544.82	36.146
545.16	36.852
545.50	36.010
545.84	35.701
546.18	35.741
546.52	35.987
546.86	37.044
547.20	35.941
547.54	36.454
547.88	36.709
548.22	35.439
548.56	36.161
548.90	35.881
549.24	36.231
549.58	37.035
549.92	35.969
550.26	35.922
550.60	36.567
550.94	36.675
551.28	37.558
551.62	37.938
551.96	35.469
552.30	36.902
552.64	35.657
552.98	37.991
553.32	36.656
553.66	36.977
554.00	36.696
554.34	37.773
554.68	37.121
555.02	37.714
555.36	37.541
555.69	35.042
556.03	36.822
556.37	36.608
556.71	37.159
557.05	37.252
557.39	36.430
557.73	36.592
558.07	36.689
558.41	37.342
558.75	36.646
559.08	37.022
559.42	37.449
559.76	37.381
560.10	36.973
560.44	36.609
560.78	36.750
561.12	36.392
561.45	36.800
561.79	36.386
562.13	37.461
562.47	35.450
562.81	36.456
563.15	36.553
563.48	36.234
563.82	35.852
564.16	36.039
564.50	35.340
564.84	36.873
565.17	36.529
565.51	35.098
565.85	35.808
566.19	35.311
566.52	36.337
566.86	37.182
567.20	34.856
567.54	34.626
567.88	34.811
568.21	35.425
568.55	35.492
568.89	34.589
569.23	33.291
569.56	33.138
569.90	32.787
570.24	32.378
570.57	32.168
570.91	31.537
571.25	31.299
571.59	31.394
571.92	31.157
572.26	30.969
572.60	31.313
572.93	31.172
573.27	30.795
573.61	30.704
573.95	30.493
574.28	30.297
574.62	30.218
574.96	29.356
575.29	29.588
575.63	30.076
575.97	29.916
576.30	30.027
576.64	30.088
576.98	30.182
577.31	29.676
577.65	30.128
577.98	29.292
578.32	29.197
578.66	28.911
578.99	29.408
579.33	29.835
579.67	29.397
580.00	29.243
580.34	29.276
580.67	29.744
581.01	29.381
581.35	29.047
581.68	29.086
582.02	29.153
582.35	28.889
582.69	29.456
583.02	29.527
583.36	29.636
583.70	29.448
584.03	29.806
584.37	29.351
584.70	29.315
585.04	29.017
585.37	29.563
585.71	29.061
586.04	29.062
586.38	29.689
586.72	29.406
587.05	29.445
587.39	29.668
587.72	29.545
588.06	29.352
588.39	30.520
588.73	30.185
589.06	30.700
589.40	31.039
589.73	31.105
590.07	31.001
590.40	31.068
590.73	31.036
591.07	32.092
591.40	31.299
591.74	32.353
592.07	31.506
592.41	31.230
592.74	31.061
593.08	31.115
593.41	30.825
593.75	30.374
594.08	30.233
594.41	30.673
594.75	30.588
595.08	30.956
595.42	30.812
595.75	30.255
596.09	30.803
596.42	30.813
596.75	32.227
597.09	32.040
597.42	31.188
597.75	30.890
598.09	30.873
598.42	31.966
598.76	31.181
599.09	30.758
599.42	30.774
599.76	30.175
600.09	30.531
600.42	30.297
600.76	30.713
601.09	30.003
601.42	31.136
601.76	30.759
602.09	31.058
602.42	30.534
602.76	30.517
603.09	31.388
603.42	31.178
603.76	30.197
604.09	31.157
604.42	31.560
604.76	30.251
605.09	30.874
605.42	31.300
605.75	31.000
606.09	31.056
606.42	30.354
606.75	30.585
607.09	30.184
607.42	30.674
607.75	31.028
608.08	30.466
608.42	30.593
608.75	31.260
609.08	31.112
609.41	31.628
609.75	31.875
610.08	31.662
610.41	31.606
610.74	31.681
611.07	31.528
611.41	31.839
611.74	31.778
612.07	31.557
612.40	32.177
612.73	32.714
613.07	31.540
613.40	32.194
613.73	31.680
614.06	32.041
614.39	31.390
614.72	31.684
615.06	31.232
615.39	30.884
615.72	32.133
616.05	31.617
616.38	32.392
616.71	31.870
617.05	32.109
617.38	33.012
617.71	31.749
618.04	32.218
618.37	33.333
618.70	32.975
619.03	33.035
619.36	34.895
619.69	33.568
620.03	34.275
620.36	33.988
620.69	32.449
621.02	33.596
621.35	35.631
621.68	36.153
622.01	35.018
622.34	33.821
622.67	35.258
623.00	33.738
623.33	35.634
623.66	34.047
623.99	33.443
624.32	35.218
624.65	33.784
624.99	33.745
625.32	33.899
625.65	35.401
625.98	33.966
626.31	34.018
626.64	35.531
626.97	34.884
627.30	34.472
627.63	35.709
627.96	36.036
628.29	36.187
628.62	36.524
628.95	37.423
629.28	37.213
629.61	37.121
629.94	36.067
630.26	36.610
630.59	35.665
630.92	36.277
631.25	37.030
631.58	38.701
