SpectraSuite Data File
++++++++++++++++++++++++++++++++++++
Date: Thu May 14 15:50:36 PDT 2015
User: schluterlab
Dark Spectrum Present: Yes
Reference Spectrum Present: Yes
Number of Sampled Component Spectra: 1
Spectrometers: USB2E3373
Integration Time (usec): 3000 (USB2E3373)
Spectra Averaged: 3 (USB2E3373)
Boxcar Smoothing: 0 (USB2E3373)
Correct for Electrical Dark: No (USB2E3373)
Strobe/Lamp Enabled: No (USB2E3373)
Correct for Detector Non-linearity: No (USB2E3373)
Correct for Stray Light: No (USB2E3373)
Number of Pixels in Processed Spectrum: 2048
>>>>>Begin Processed Spectral Data<<<<<
178.53	0.000
178.91	657.143
179.29	-5000.000
179.67	-4900.000
180.04	392.857
180.42	510.000
180.80	940.000
181.18	-4000.000
181.56	-3700.000
181.94	1025.000
182.31	-1175.000
182.69	1533.333
183.07	-1850.000
183.45	1300.000
183.83	-666.667
184.20	-1366.667
184.58	4000.000
184.96	-1075.000
185.34	-466.667
185.72	-840.000
186.09	577.778
186.47	2050.000
186.85	820.000
187.23	-477.778
187.61	-4500.000
187.98	920.000
188.36	1375.000
188.74	-1125.000
189.12	-1266.667
189.49	-306.250
189.87	-587.500
190.25	-333.333
190.63	-760.000
191.00	-455.556
191.38	0.000
191.76	-1225.000
192.14	-783.333
192.51	2150.000
192.89	-633.333
193.27	0.000
193.65	-500.000
194.02	-4800.000
194.40	-614.286
194.78	585.714
195.15	0.000
195.53	-281.818
195.91	0.000
196.29	-1200.000
196.66	-307.692
197.04	-4500.000
197.42	-571.429
197.79	-2200.000
198.17	-437.500
198.55	-571.429
198.92	-422.222
199.30	-525.000
199.68	-309.091
200.05	-278.571
200.43	-2000.000
200.81	742.857
201.18	0.000
201.56	544.444
201.94	0.000
202.31	1566.667
202.69	-511.111
203.07	4500.000
203.44	-411.111
203.82	-1275.000
204.19	-333.333
204.57	-633.333
204.95	-525.000
205.32	-4600.000
205.70	1075.000
206.08	-900.000
206.45	-783.333
206.83	1080.000
207.20	-600.000
207.58	-960.000
207.96	-750.000
208.33	-566.667
208.71	450.000
209.08	-600.000
209.46	0.000
209.84	950.000
210.21	2400.000
210.59	2200.000
210.96	1700.000
211.34	-950.000
211.71	-575.000
212.09	-4200.000
212.46	0.000
212.84	2950.000
213.22	-1000.000
213.59	-1100.000
213.97	-440.000
214.34	-1400.000
214.72	866.667
215.09	-1050.000
215.47	0.000
215.84	514.286
216.22	2700.000
216.59	-840.000
216.97	-820.000
217.34	-850.000
217.72	-487.500
218.09	-1100.000
218.47	-1100.000
218.84	0.000
219.22	900.000
219.59	-241.176
219.97	-230.000
220.34	2450.000
220.72	-555.556
221.09	-292.308
221.47	-1433.333
221.84	-450.000
222.22	-600.000
222.59	0.000
222.97	-450.000
223.34	-1100.000
223.72	-4800.000
224.09	-1075.000
224.46	-1350.000
224.84	-800.000
225.21	-785.714
225.59	-1325.000
225.96	-1200.000
226.34	-150.000
226.71	850.000
227.08	-2150.000
227.46	-293.333
227.83	-1025.000
228.21	-210.526
228.58	625.000
228.95	2100.000
229.33	-283.333
229.70	-390.000
230.08	-131.579
230.45	450.000
230.82	-1200.000
231.20	-292.857
231.57	-291.667
231.95	-409.091
232.32	-327.273
232.69	-185.000
233.07	-1025.000
233.44	-241.176
233.81	-450.000
234.19	-211.111
234.56	-163.636
234.93	-93.103
235.31	-178.947
235.68	-188.889
236.05	-235.000
236.43	-96.154
236.80	-96.000
237.17	-144.444
237.55	-115.152
237.92	-520.000
238.29	-132.258
238.67	-88.636
239.04	-108.333
239.41	-92.857
239.79	-76.087
240.16	-70.370
240.53	-69.565
240.91	-60.784
241.28	-60.656
241.65	-41.791
242.02	-27.027
242.40	-61.538
242.77	-44.000
243.14	-43.902
243.51	-59.211
243.89	-53.846
244.26	-27.723
244.63	-22.549
245.00	-28.037
245.38	-35.088
245.75	-35.398
246.12	-24.603
246.49	-22.481
246.87	-10.714
247.24	-12.583
247.61	-15.132
247.98	-24.832
248.36	-13.580
248.73	-19.632
249.10	-9.290
249.47	-4.975
249.84	-8.377
250.22	-10.881
250.59	-5.556
250.96	-4.545
251.33	-14.286
251.70	-7.265
252.08	-5.000
252.45	-2.869
252.82	-8.264
253.19	-7.812
253.56	-9.125
253.94	-5.000
254.31	-1.136
254.68	-1.399
255.05	-3.909
255.42	-2.041
255.79	-1.294
256.16	-0.993
256.54	-7.616
256.91	-0.656
257.28	-4.918
257.65	-5.096
258.02	-1.770
258.39	1.140
258.76	2.446
259.14	1.437
259.51	-1.729
259.88	-2.266
260.25	0.833
260.62	0.548
260.99	1.913
261.36	1.340
261.73	-3.183
262.10	-2.198
262.47	-1.609
262.85	3.535
263.22	0.260
263.59	-0.526
263.96	0.767
264.33	0.767
264.70	3.210
265.07	1.909
265.44	4.082
265.81	0.694
266.18	3.175
266.55	1.116
266.92	0.683
267.29	5.033
267.66	3.326
268.03	1.528
268.40	3.549
268.77	1.367
269.14	0.441
269.51	1.535
269.88	4.098
270.25	3.219
270.62	2.532
270.99	4.444
271.36	2.376
271.73	4.715
272.10	4.208
272.47	2.806
272.84	1.406
273.21	4.609
273.58	4.435
273.95	2.692
274.32	3.042
274.69	1.741
275.06	6.410
275.43	0.185
275.80	4.056
276.17	1.111
276.54	1.679
276.91	3.757
277.28	4.159
277.65	5.386
278.02	4.412
278.39	4.710
278.76	4.218
279.13	5.319
279.50	6.186
279.87	4.293
280.23	1.585
280.60	4.576
280.97	5.428
281.34	2.886
281.71	6.599
282.08	3.654
282.45	4.419
282.82	5.651
283.19	2.908
283.56	4.262
283.92	5.105
284.29	6.793
284.66	4.105
285.03	1.763
285.40	6.491
285.77	4.025
286.14	4.580
286.51	4.414
286.87	3.002
287.24	5.873
287.61	5.381
287.98	4.834
288.35	4.586
288.72	5.917
289.08	5.271
289.45	3.846
289.82	4.518
290.19	5.029
290.56	4.366
290.93	3.994
291.29	6.612
291.66	3.719
292.03	2.849
292.40	6.395
292.77	4.313
293.13	5.413
293.50	4.468
293.87	6.174
294.24	5.333
294.60	7.838
294.97	4.295
295.34	5.634
295.71	5.549
296.08	4.134
296.44	5.025
296.81	4.750
297.18	5.355
297.55	4.953
297.91	4.508
298.28	4.147
298.65	5.707
299.02	6.021
299.38	7.551
299.75	6.425
300.12	6.250
300.48	4.378
300.85	6.637
301.22	6.264
301.59	5.594
301.95	5.876
302.32	6.444
302.69	5.586
303.05	5.876
303.42	5.100
303.79	6.146
304.15	5.573
304.52	5.391
304.89	6.492
305.25	6.522
305.62	5.225
305.99	5.773
306.35	6.754
306.72	6.825
307.09	5.787
307.45	7.660
307.82	7.265
308.19	6.559
308.55	7.715
308.92	7.400
309.29	8.333
309.65	6.043
310.02	6.436
310.38	6.791
310.75	6.796
311.12	8.245
311.48	7.918
311.85	8.167
312.22	8.918
312.58	8.732
312.95	8.222
313.31	10.027
313.68	8.333
314.05	9.756
314.41	10.291
314.78	8.992
315.14	11.434
315.51	10.065
315.87	11.071
316.24	10.228
316.61	11.901
316.97	10.950
317.34	10.406
317.70	12.314
318.07	12.257
318.43	12.670
318.80	12.458
319.16	12.704
319.53	10.711
319.89	12.358
320.26	14.413
320.62	13.741
320.99	13.389
321.35	13.771
321.72	14.605
322.08	13.886
322.45	14.634
322.81	16.155
323.18	15.841
323.54	15.690
323.91	16.281
324.27	16.265
324.64	17.380
325.00	16.998
325.37	18.018
325.73	18.264
326.10	18.897
326.46	19.381
326.83	19.696
327.19	20.551
327.56	20.395
327.92	18.961
328.29	20.081
328.65	20.101
329.01	19.628
329.38	20.725
329.74	22.346
330.11	22.517
330.47	21.988
330.84	21.705
331.20	21.417
331.56	21.924
331.93	22.929
332.29	22.881
332.66	21.262
333.02	21.106
333.38	21.393
333.75	21.886
334.11	23.770
334.48	23.515
334.84	23.025
335.20	21.914
335.57	22.850
335.93	23.471
336.29	21.963
336.66	22.372
337.02	22.826
337.38	23.895
337.75	22.893
338.11	22.624
338.47	22.829
338.84	22.843
339.20	20.893
339.56	21.993
339.93	22.085
340.29	21.739
340.65	21.736
341.02	23.384
341.38	22.231
341.74	21.388
342.11	22.767
342.47	21.604
342.83	22.303
343.20	21.995
343.56	22.454
343.92	22.738
344.28	22.266
344.65	22.868
345.01	21.841
345.37	22.784
345.73	21.434
346.10	22.231
346.46	21.519
346.82	22.472
347.19	21.696
347.55	21.548
347.91	22.511
348.27	21.624
348.63	21.858
349.00	21.253
349.36	21.784
349.72	22.545
350.08	21.174
350.45	21.749
350.81	22.323
351.17	20.376
351.53	21.228
351.89	20.881
352.26	21.791
352.62	21.866
352.98	20.687
353.34	21.135
353.70	22.034
354.07	21.610
354.43	20.501
354.79	21.690
355.15	21.339
355.51	21.930
355.87	20.269
356.24	20.989
356.60	20.251
356.96	21.572
357.32	21.115
357.68	20.571
358.04	21.108
358.40	21.194
358.77	21.564
359.13	20.162
359.49	19.851
359.85	21.102
360.21	21.090
360.57	20.675
360.93	20.663
361.29	20.772
361.66	20.420
362.02	20.668
362.38	21.223
362.74	19.972
363.10	20.289
363.46	20.983
363.82	20.028
364.18	21.464
364.54	21.369
364.90	21.672
365.26	18.690
365.62	20.933
365.98	20.762
366.35	20.336
366.71	21.361
367.07	20.839
367.43	21.208
367.79	20.902
368.15	20.268
368.51	21.786
368.87	20.771
369.23	20.800
369.59	21.107
369.95	21.163
370.31	20.392
370.67	20.495
371.03	20.845
371.39	19.946
371.75	20.358
372.11	19.173
372.47	20.718
372.83	21.401
373.19	20.947
373.55	19.377
373.91	20.041
374.27	20.246
374.63	20.365
374.99	20.292
375.35	20.455
375.71	20.903
376.07	20.336
376.42	20.466
376.78	20.696
377.14	20.774
377.50	20.746
377.86	20.998
378.22	21.856
378.58	21.046
378.94	20.481
379.30	20.269
379.66	20.988
380.02	21.119
380.38	20.565
380.74	20.225
381.09	20.848
381.45	19.830
381.81	21.253
382.17	20.368
382.53	20.585
382.89	19.808
383.25	20.399
383.61	20.660
383.97	20.848
384.32	20.813
384.68	19.780
385.04	20.821
385.40	20.566
385.76	20.633
386.12	19.270
386.48	20.647
386.83	20.322
387.19	19.873
387.55	20.775
387.91	20.491
388.27	20.554
388.62	19.931
388.98	20.925
389.34	20.919
389.70	20.511
390.06	19.657
390.42	19.578
390.77	20.169
391.13	19.777
391.49	20.713
391.85	19.697
392.20	20.166
392.56	20.201
392.92	20.720
393.28	20.730
393.64	19.944
393.99	19.930
394.35	19.801
394.71	19.880
395.07	19.521
395.42	19.760
395.78	20.414
396.14	20.083
396.50	19.952
396.85	19.499
397.21	19.231
397.57	20.200
397.92	20.160
398.28	18.848
398.64	19.622
399.00	19.215
399.35	19.634
399.71	19.565
400.07	19.820
400.42	19.383
400.78	19.792
401.14	19.180
401.49	20.011
401.85	19.128
402.21	20.104
402.57	19.777
402.92	19.917
403.28	17.857
403.63	18.198
403.99	19.596
404.35	18.761
404.70	19.887
405.06	19.674
405.42	19.087
405.77	19.411
406.13	19.233
406.49	18.750
406.84	19.058
407.20	18.334
407.55	18.534
407.91	18.919
408.27	19.258
408.62	19.255
408.98	17.992
409.34	19.062
409.69	18.912
410.05	19.578
410.40	19.084
410.76	19.686
411.11	19.170
411.47	18.428
411.83	18.577
412.18	19.157
412.54	19.206
412.89	18.917
413.25	18.510
413.60	17.921
413.96	19.289
414.31	18.640
414.67	18.485
415.03	17.908
415.38	18.600
415.74	18.082
416.09	18.692
416.45	18.034
416.80	17.136
417.16	18.008
417.51	17.746
417.87	18.455
418.22	18.802
418.58	17.968
418.93	18.685
419.29	17.756
419.64	17.647
420.00	18.754
420.35	17.967
420.71	18.667
421.06	17.251
421.42	18.119
421.77	17.771
422.12	18.975
422.48	18.075
422.83	19.222
423.19	19.310
423.54	19.082
423.90	18.167
424.25	18.240
424.61	17.796
424.96	18.836
425.31	18.312
425.67	18.841
426.02	18.096
426.38	18.714
426.73	17.857
427.09	19.031
427.44	17.859
427.79	18.795
428.15	17.751
428.50	18.371
428.85	17.796
429.21	18.936
429.56	18.016
429.92	18.526
430.27	17.735
430.62	18.759
430.98	18.938
431.33	18.377
431.68	18.056
432.04	18.537
432.39	18.104
432.74	17.865
433.10	18.280
433.45	17.614
433.80	18.723
434.16	18.957
434.51	19.219
434.86	19.001
435.22	18.863
435.57	18.809
435.92	17.863
436.28	17.975
436.63	18.296
436.98	17.445
437.34	18.038
437.69	17.446
438.04	18.191
438.39	17.748
438.75	17.598
439.10	19.080
439.45	18.837
439.81	18.531
440.16	17.105
440.51	18.841
440.86	17.621
441.22	17.685
441.57	18.396
441.92	18.429
442.27	18.889
442.63	18.082
442.98	18.410
443.33	18.622
443.68	18.979
444.03	19.144
444.39	18.816
444.74	19.245
445.09	18.348
445.44	18.493
445.79	18.487
446.15	18.140
446.50	19.173
446.85	18.677
447.20	18.665
447.55	18.149
447.91	17.906
448.26	18.340
448.61	19.022
448.96	18.616
449.31	19.300
449.66	17.320
450.02	18.249
450.37	19.712
450.72	18.407
451.07	18.508
451.42	17.793
451.77	17.399
452.12	17.551
452.47	18.004
452.83	17.793
453.18	18.914
453.53	18.093
453.88	17.891
454.23	17.401
454.58	17.934
454.93	17.112
455.28	18.423
455.63	17.908
455.98	17.709
456.34	17.903
456.69	17.519
457.04	17.199
457.39	16.962
457.74	18.512
458.09	17.188
458.44	17.996
458.79	17.329
459.14	18.406
459.49	17.940
459.84	17.943
460.19	17.268
460.54	17.774
460.89	18.528
461.24	16.724
461.59	18.484
461.94	17.399
462.29	17.749
462.64	16.898
462.99	17.012
463.34	17.521
463.69	17.116
464.04	17.732
464.39	17.993
464.74	18.130
465.09	17.993
465.44	18.294
465.79	17.557
466.14	17.509
466.49	17.263
466.84	17.796
467.19	17.688
467.54	16.157
467.89	17.184
468.24	16.787
468.59	16.734
468.94	16.900
469.29	16.677
469.64	16.465
469.99	16.635
470.34	16.832
470.68	16.131
471.03	18.009
471.38	16.481
471.73	15.865
472.08	16.117
472.43	16.677
472.78	16.940
473.13	16.561
473.48	17.039
473.83	17.121
474.17	17.233
474.52	16.476
474.87	17.054
475.22	17.070
475.57	16.978
475.92	17.471
476.27	16.400
476.61	16.355
476.96	16.840
477.31	17.178
477.66	16.999
478.01	16.777
478.36	16.999
478.70	17.192
479.05	17.127
479.40	17.325
479.75	17.339
480.10	16.532
480.45	16.682
480.79	16.644
481.14	16.912
481.49	16.402
481.84	16.928
482.19	16.774
482.53	17.272
482.88	16.837
483.23	16.852
483.58	16.856
483.92	16.800
484.27	16.850
484.62	16.708
484.97	17.302
485.31	16.579
485.66	16.635
486.01	17.341
486.36	17.970
486.70	19.204
487.05	19.196
487.40	18.203
487.75	17.990
488.09	17.470
488.44	17.355
488.79	16.830
489.13	16.437
489.48	16.427
489.83	16.620
490.17	15.998
490.52	15.846
490.87	15.905
491.22	16.421
491.56	16.340
491.91	15.918
492.26	16.400
492.60	16.178
492.95	16.630
493.30	16.316
493.64	16.338
493.99	16.667
494.34	16.071
494.68	15.460
495.03	16.476
495.37	15.934
495.72	15.828
496.07	16.652
496.41	15.616
496.76	16.472
497.11	15.796
497.45	16.530
497.80	16.526
498.14	15.737
498.49	15.855
498.84	15.082
499.18	15.520
499.53	16.592
499.87	16.176
500.22	15.183
500.56	16.014
500.91	15.652
501.26	15.773
501.60	15.201
501.95	15.936
502.29	15.445
502.64	16.047
502.98	16.048
503.33	15.378
503.67	15.220
504.02	16.025
504.36	15.103
504.71	15.572
505.06	14.688
505.40	15.402
505.75	14.845
506.09	15.424
506.44	15.924
506.78	15.459
507.13	15.675
507.47	15.490
507.82	15.104
508.16	14.627
508.51	14.580
508.85	15.021
509.19	15.727
509.54	15.466
509.88	14.862
510.23	15.056
510.57	15.370
510.92	14.707
511.26	14.478
511.61	14.196
511.95	13.958
512.30	14.820
512.64	14.543
512.98	14.757
513.33	14.718
513.67	15.247
514.02	15.023
514.36	14.783
514.70	14.219
515.05	15.068
515.39	14.593
515.74	14.634
516.08	13.893
516.42	15.280
516.77	14.038
517.11	13.770
517.46	14.263
517.80	14.645
518.14	15.343
518.49	14.696
518.83	14.529
519.17	14.163
519.52	14.203
519.86	14.678
520.20	14.004
520.55	13.253
520.89	13.570
521.23	13.791
521.58	14.181
521.92	13.598
522.26	13.631
522.61	14.178
522.95	14.475
523.29	13.736
523.64	12.892
523.98	13.349
524.32	14.327
524.66	13.717
525.01	13.250
525.35	13.383
525.69	12.703
526.04	12.916
526.38	13.563
526.72	12.745
527.06	13.021
527.41	13.586
527.75	13.777
528.09	13.223
528.43	13.558
528.78	12.543
529.12	12.271
529.46	13.097
529.80	13.158
530.15	13.507
530.49	12.633
530.83	13.400
531.17	13.082
531.51	12.756
531.86	12.440
532.20	13.354
532.54	12.448
532.88	12.909
533.22	13.200
533.57	13.503
533.91	13.749
534.25	13.680
534.59	13.276
534.93	12.903
535.27	13.183
535.62	13.872
535.96	11.854
536.30	13.220
536.64	13.514
536.98	12.731
537.32	13.210
537.66	13.163
538.01	12.870
538.35	12.241
538.69	13.401
539.03	13.366
539.37	13.015
539.71	13.153
540.05	14.209
540.39	12.897
540.73	12.993
541.07	12.140
541.42	12.463
541.76	12.693
542.10	13.209
542.44	12.607
542.78	13.078
543.12	13.170
543.46	13.248
543.80	12.230
544.14	12.986
544.48	13.121
544.82	13.704
545.16	13.238
545.50	12.642
545.84	11.696
546.18	13.580
546.52	12.803
546.86	12.830
547.20	12.214
547.54	12.547
547.88	12.899
548.22	12.865
548.56	12.580
548.90	12.657
549.24	11.733
549.58	11.735
549.92	11.352
550.26	12.104
550.60	13.146
550.94	12.549
551.28	11.815
551.62	12.803
551.96	12.362
552.30	13.512
552.64	11.574
552.98	12.601
553.32	12.026
553.66	11.768
554.00	11.917
554.34	11.905
554.68	11.233
555.02	10.775
555.36	11.966
555.69	11.787
556.03	11.286
556.37	12.328
556.71	11.160
557.05	12.780
557.39	11.082
557.73	11.229
558.07	11.060
558.41	11.827
558.75	11.291
559.08	11.621
559.42	11.523
559.76	11.872
560.10	11.319
560.44	11.873
560.78	12.063
561.12	12.377
561.45	11.800
561.79	11.538
562.13	11.892
562.47	11.159
562.81	11.392
563.15	11.932
563.48	11.933
563.82	11.850
564.16	11.508
564.50	11.323
564.84	11.386
565.17	11.471
565.51	11.910
565.85	10.926
566.19	11.002
566.52	10.825
566.86	11.715
567.20	11.582
567.54	12.055
567.88	11.978
568.21	12.352
568.55	11.703
568.89	12.574
569.23	12.505
569.56	11.801
569.90	12.153
570.24	13.221
570.57	13.053
570.91	12.737
571.25	12.728
571.59	13.137
571.92	12.713
572.26	13.208
572.60	12.886
572.93	13.081
573.27	12.728
573.61	12.943
573.95	12.989
574.28	13.198
574.62	12.824
574.96	13.013
575.29	12.822
575.63	12.844
575.97	12.958
576.30	12.904
576.64	12.885
576.98	12.597
577.31	12.790
577.65	13.062
577.98	13.197
578.32	13.238
578.66	12.966
578.99	13.066
579.33	13.273
579.67	12.489
580.00	12.812
580.34	12.849
580.67	12.621
581.01	12.743
581.35	12.741
581.68	12.618
582.02	13.111
582.35	13.351
582.69	13.479
583.02	13.474
583.36	13.144
583.70	12.861
584.03	12.455
584.37	12.441
584.70	12.200
585.04	12.230
585.37	12.461
585.71	12.708
586.04	12.594
586.38	12.744
586.72	12.083
587.05	11.870
587.39	12.466
587.72	12.273
588.06	12.403
588.39	12.671
588.73	12.063
589.06	12.359
589.40	12.077
589.73	12.147
590.07	11.671
590.40	12.069
590.73	12.266
591.07	12.063
591.40	11.470
591.74	11.447
592.07	11.774
592.41	11.002
592.74	11.892
593.08	12.102
593.41	12.628
593.75	12.270
594.08	12.420
594.41	12.212
594.75	11.857
595.08	11.474
595.42	12.175
595.75	11.850
596.09	11.894
596.42	11.000
596.75	11.501
597.09	11.838
597.42	10.727
597.75	11.642
598.09	11.429
598.42	11.741
598.76	11.349
599.09	11.641
599.42	11.297
599.76	11.621
600.09	12.179
600.42	11.645
600.76	11.658
601.09	11.716
601.42	11.294
601.76	11.414
602.09	11.687
602.42	11.596
602.76	11.218
603.09	11.454
603.42	11.597
603.76	10.958
604.09	12.101
604.42	10.899
604.76	11.111
605.09	11.528
605.42	11.563
605.75	11.000
606.09	11.273
606.42	11.456
606.75	10.907
607.09	10.637
607.42	11.561
607.75	10.981
608.08	11.484
608.42	11.205
608.75	10.862
609.08	10.144
609.41	10.895
609.75	10.179
610.08	11.214
610.41	10.960
610.74	11.050
611.07	10.524
611.41	10.852
611.74	10.762
612.07	10.753
612.40	10.694
612.73	10.024
613.07	10.758
613.40	11.068
613.73	10.737
614.06	10.648
614.39	10.836
614.72	10.723
615.06	10.346
615.39	9.908
615.72	10.474
616.05	10.296
616.38	10.949
616.71	10.972
617.05	10.170
617.38	10.059
617.71	10.043
618.04	9.444
618.37	10.164
618.70	10.124
619.03	9.259
619.36	8.755
619.69	9.545
620.03	10.546
620.36	10.061
620.69	9.130
621.02	9.711
621.35	9.216
621.68	10.268
622.01	8.826
622.34	9.484
622.67	9.966
623.00	8.232
623.33	9.754
623.66	9.922
623.99	8.229
624.32	9.292
624.65	9.202
624.99	9.103
625.32	9.406
625.65	10.182
625.98	8.407
626.31	8.859
626.64	8.864
626.97	8.102
627.30	7.973
627.63	9.152
627.96	10.285
628.29	8.171
628.62	8.060
628.95	7.625
629.28	8.326
629.61	8.923
629.94	7.531
630.26	8.051
630.59	9.326
630.92	6.580
631.25	7.782
631.58	8.851
631.91	6.842
632.24	8.357
632.57	7.970
632.90	7.121
633.23	8.265
