SpectraSuite Data File
++++++++++++++++++++++++++++++++++++
Date: Thu May 14 16:04:54 PDT 2015
User: schluterlab
Dark Spectrum Present: Yes
Reference Spectrum Present: Yes
Number of Sampled Component Spectra: 1
Spectrometers: USB2E3373
Integration Time (usec): 3000 (USB2E3373)
Spectra Averaged: 3 (USB2E3373)
Boxcar Smoothing: 0 (USB2E3373)
Correct for Electrical Dark: No (USB2E3373)
Strobe/Lamp Enabled: No (USB2E3373)
Correct for Detector Non-linearity: No (USB2E3373)
Correct for Stray Light: No (USB2E3373)
Number of Pixels in Processed Spectrum: 2048
>>>>>Begin Processed Spectral Data<<<<<
178.53	0.000
178.91	114.286
179.29	-1900.000
179.67	-2100.000
180.04	228.571
180.42	170.000
180.80	460.000
181.18	-1900.000
181.56	-1700.000
181.94	425.000
182.31	-325.000
182.69	566.667
183.07	-850.000
183.45	500.000
183.83	-133.333
184.20	-266.667
184.58	1600.000
184.96	-425.000
185.34	-88.889
185.72	-260.000
186.09	333.333
186.47	900.000
186.85	520.000
187.23	-211.111
187.61	-1700.000
187.98	220.000
188.36	375.000
188.74	-325.000
189.12	-500.000
189.49	-12.500
189.87	-112.500
190.25	-55.556
190.63	-160.000
191.00	-188.889
191.38	0.000
191.76	-300.000
192.14	-200.000
192.51	350.000
192.89	-66.667
193.27	0.000
193.65	-142.857
194.02	-2000.000
194.40	-200.000
194.78	200.000
195.15	0.000
195.53	-54.545
195.91	0.000
196.29	-325.000
196.66	-84.615
197.04	-2100.000
197.42	-300.000
197.79	-550.000
198.17	-262.500
198.55	-285.714
198.92	-33.333
199.30	-275.000
199.68	-90.909
200.05	-100.000
200.43	-1100.000
200.81	214.286
201.18	0.000
201.56	277.778
201.94	0.000
202.31	733.333
202.69	-122.222
203.07	800.000
203.44	-88.889
203.82	-300.000
204.19	-66.667
204.57	-200.000
204.95	-275.000
205.32	-2400.000
205.70	500.000
206.08	-133.333
206.45	-266.667
206.83	420.000
207.20	-283.333
207.58	-260.000
207.96	-266.667
208.33	-133.333
208.71	33.333
209.08	-83.333
209.46	0.000
209.84	316.667
210.21	450.000
210.59	600.000
210.96	966.667
211.34	-125.000
211.71	-137.500
212.09	-1000.000
212.46	0.000
212.84	1400.000
213.22	-340.000
213.59	-425.000
213.97	-50.000
214.34	-566.667
214.72	250.000
215.09	-450.000
215.47	0.000
215.84	214.286
216.22	1000.000
216.59	-260.000
216.97	-220.000
217.34	-175.000
217.72	-162.500
218.09	-350.000
218.47	-450.000
218.84	0.000
219.22	200.000
219.59	-94.118
219.97	-60.000
220.34	1000.000
220.72	-188.889
221.09	-15.385
221.47	-633.333
221.84	-130.000
222.22	-328.571
222.59	0.000
222.97	-112.500
223.34	-560.000
223.72	-1200.000
224.09	-425.000
224.46	-275.000
224.84	-180.000
225.21	-328.571
225.59	-525.000
225.96	-225.000
226.34	-26.923
226.71	416.667
227.08	-900.000
227.46	-66.667
227.83	-75.000
228.21	-63.158
228.58	275.000
228.95	900.000
229.33	-16.667
229.70	-160.000
230.08	-57.895
230.45	130.000
230.82	-400.000
231.20	-92.857
231.57	-66.667
231.95	-100.000
232.32	-72.727
232.69	-35.000
233.07	-250.000
233.44	-76.471
233.81	-190.000
234.19	-61.111
234.56	-9.091
234.93	-3.448
235.31	-89.474
235.68	-61.111
236.05	-65.000
236.43	-19.231
236.80	0.000
237.17	-18.519
237.55	-30.303
237.92	-220.000
238.29	-48.387
238.67	-20.455
239.04	-27.778
239.41	-45.238
239.79	-30.435
240.16	-18.519
240.53	-26.087
240.91	-37.255
241.28	-22.951
241.65	-7.463
242.02	6.757
242.40	-21.538
242.77	-13.333
243.14	-18.293
243.51	-26.316
243.89	-24.359
244.26	-16.832
244.63	-1.961
245.00	-6.542
245.38	-7.895
245.75	-21.239
246.12	-1.587
246.49	-6.202
246.87	-2.143
247.24	1.325
247.61	0.000
247.98	-8.725
248.36	-2.469
248.73	-8.589
249.10	-3.825
249.47	6.965
249.84	1.571
250.22	0.000
250.59	2.222
250.96	1.364
251.33	-1.531
251.70	1.282
252.08	2.083
252.45	2.049
252.82	1.240
253.19	-2.734
253.56	1.901
253.94	2.692
254.31	-1.515
254.68	1.399
255.05	2.280
255.42	-1.020
255.79	0.971
256.16	-0.331
256.54	-3.642
256.91	1.311
257.28	-0.656
257.65	-0.955
258.02	-2.360
258.39	-0.570
258.76	3.364
259.14	5.747
259.51	2.017
259.88	2.266
260.25	0.278
260.62	1.918
260.99	4.372
261.36	5.362
261.73	2.122
262.10	2.198
262.47	2.949
262.85	5.051
263.22	0.779
263.59	1.316
263.96	2.046
264.33	1.790
264.70	3.457
265.07	3.819
265.44	4.989
265.81	1.389
266.18	3.175
266.55	6.027
266.92	0.228
267.29	4.158
267.66	3.769
268.03	1.965
268.40	1.879
268.77	-0.683
269.14	0.220
269.51	3.728
269.88	5.123
270.25	3.622
270.62	2.743
270.99	5.051
271.36	2.970
271.73	3.536
272.10	3.206
272.47	1.403
272.84	2.008
273.21	2.405
273.58	3.024
273.95	2.115
274.32	2.471
274.69	1.934
275.06	2.930
275.43	2.218
275.80	2.998
276.17	2.037
276.54	1.119
276.91	2.326
277.28	1.447
277.65	3.591
278.02	3.860
278.39	2.536
278.76	1.933
279.13	1.773
279.50	3.780
279.87	4.114
280.23	1.937
280.60	4.915
280.97	3.125
281.34	3.565
281.71	4.399
282.08	1.993
282.45	1.800
282.82	2.041
283.19	3.231
283.56	2.787
283.92	4.805
284.29	5.845
284.66	3.120
285.03	1.923
285.40	3.864
285.77	2.632
286.14	3.817
286.51	1.522
286.87	3.002
287.24	4.367
287.61	2.541
287.98	2.115
288.35	2.959
288.72	2.959
289.08	3.367
289.45	3.107
289.82	2.410
290.19	3.017
290.56	4.085
290.93	2.140
291.29	4.408
291.66	2.204
292.03	2.578
292.40	4.082
292.77	3.504
293.13	3.654
293.50	1.708
293.87	2.416
294.24	5.333
294.60	3.161
294.97	2.685
295.34	4.609
295.71	2.900
296.08	3.488
296.44	2.819
296.81	2.192
297.18	2.864
297.55	4.009
297.91	4.270
298.28	1.659
298.65	4.756
299.02	1.771
299.38	3.890
299.75	4.089
300.12	2.315
300.48	3.571
300.85	3.825
301.22	4.698
301.59	2.740
301.95	3.842
302.32	4.333
302.69	3.834
303.05	3.591
303.42	3.880
303.79	3.750
304.15	4.311
304.52	2.643
304.89	3.874
305.25	3.727
305.62	4.284
305.99	3.505
306.35	3.125
306.72	3.930
307.09	2.741
307.45	3.727
307.82	5.146
308.19	4.945
308.55	5.400
308.92	3.895
309.29	4.406
309.65	3.899
310.02	4.257
310.38	5.512
310.75	5.146
311.12	4.890
311.48	3.910
311.85	5.508
312.22	6.072
312.58	6.667
312.95	5.545
313.31	6.323
313.68	7.326
314.05	7.227
314.41	7.741
314.78	7.539
315.14	7.350
315.51	8.218
315.87	8.641
316.24	9.132
316.61	8.437
316.97	8.416
317.34	8.907
317.70	10.830
318.07	9.524
318.43	11.139
318.80	11.037
319.16	10.472
319.53	10.197
319.89	10.254
320.26	12.456
320.62	12.057
320.99	12.742
321.35	13.863
321.72	14.884
322.08	13.616
322.45	14.182
322.81	15.523
323.18	15.044
323.54	15.431
323.91	16.014
324.27	15.749
324.64	18.640
325.00	17.579
325.37	18.346
325.73	20.331
326.10	19.059
326.46	20.114
326.83	20.336
327.19	19.449
327.56	22.055
327.92	21.086
328.29	20.323
328.65	22.278
329.01	23.012
329.38	24.600
329.74	23.545
330.11	25.171
330.47	23.926
330.84	24.634
331.20	25.167
331.56	25.130
331.93	24.854
332.29	25.169
332.66	25.332
333.02	25.042
333.38	25.084
333.75	25.926
334.11	26.188
334.48	25.578
334.84	27.188
335.20	25.357
335.57	25.464
335.93	26.446
336.29	25.541
336.66	25.484
337.02	25.669
337.38	27.296
337.75	25.124
338.11	26.325
338.47	26.799
338.84	25.719
339.20	26.116
339.56	25.453
339.93	26.601
340.29	25.282
340.65	25.953
341.02	27.694
341.38	26.677
341.74	26.877
342.11	26.468
342.47	26.291
342.83	26.167
343.20	26.574
343.56	26.303
343.92	27.062
344.28	27.031
344.65	27.132
345.01	26.677
345.37	26.361
345.73	26.111
346.10	26.989
346.46	25.475
346.82	27.041
347.19	26.738
347.55	26.024
347.91	26.746
348.27	26.328
348.63	26.657
349.00	26.324
349.36	26.543
349.72	26.711
350.08	27.117
350.45	26.844
350.81	26.320
351.17	26.241
351.53	26.232
351.89	26.803
352.26	26.045
352.62	26.418
352.98	26.183
353.34	26.139
353.70	26.502
354.07	26.677
354.43	26.044
354.79	24.757
355.15	26.122
355.51	26.681
355.87	26.028
356.24	26.996
356.60	26.460
356.96	24.833
357.32	25.502
357.68	26.354
358.04	26.123
358.40	26.343
358.77	26.827
359.13	26.662
359.49	25.576
359.85	25.381
360.21	26.758
360.57	25.987
360.93	24.894
361.29	26.947
361.66	26.140
362.02	27.070
362.38	26.634
362.74	26.466
363.10	26.272
363.46	26.177
363.82	26.491
364.18	27.586
364.54	26.487
364.90	26.555
365.26	25.655
365.62	25.933
365.98	26.957
366.35	25.772
366.71	26.190
367.07	26.861
367.43	26.133
367.79	26.742
368.15	27.224
368.51	27.334
368.87	25.669
369.23	26.000
369.59	26.639
369.95	26.302
370.31	25.793
370.67	25.241
371.03	26.316
371.39	25.453
371.75	26.891
372.11	25.881
372.47	27.150
372.83	25.785
373.19	26.084
373.55	26.287
373.91	26.449
374.27	25.873
374.63	26.590
374.99	26.260
375.35	27.273
375.71	26.581
376.07	26.210
376.42	25.945
376.78	27.470
377.14	27.261
377.50	26.692
377.86	27.217
378.22	26.826
378.58	27.467
378.94	26.585
379.30	26.362
379.66	27.454
380.02	26.774
380.38	27.535
380.74	27.380
381.09	27.178
381.45	27.784
381.81	28.162
382.17	27.078
382.53	27.018
382.89	26.806
383.25	28.253
383.61	26.852
383.97	27.150
384.32	27.632
384.68	27.320
385.04	27.704
385.40	27.283
385.76	27.198
386.12	26.272
386.48	27.118
386.83	27.354
387.19	26.188
387.55	26.937
387.91	26.884
388.27	28.176
388.62	26.632
388.98	26.565
389.34	27.166
389.70	27.368
390.06	26.880
390.42	27.410
390.77	27.935
391.13	27.641
391.49	28.321
391.85	26.727
392.20	26.987
392.56	27.643
392.92	27.099
393.28	26.866
393.64	27.151
393.99	28.065
394.35	27.512
394.71	27.006
395.07	26.228
395.42	27.584
395.78	27.361
396.14	27.986
396.50	27.494
396.85	27.490
397.21	26.982
397.57	27.326
397.92	27.491
398.28	26.670
398.64	27.403
399.00	27.120
399.35	26.230
399.71	26.739
400.07	27.176
400.42	27.008
400.78	26.968
401.14	27.433
401.49	27.175
401.85	26.105
402.21	27.346
402.57	27.700
402.92	27.187
403.28	25.351
403.63	26.253
403.99	26.663
404.35	25.696
404.70	27.422
405.06	25.326
405.42	26.112
405.77	27.154
406.13	26.472
406.49	26.802
406.84	26.427
407.20	26.160
407.55	26.348
407.91	26.461
408.27	25.913
408.62	26.236
408.98	26.233
409.34	26.862
409.69	27.009
410.05	26.671
410.40	26.856
410.76	26.248
411.11	26.943
411.47	26.904
411.83	26.573
412.18	26.928
412.54	26.200
412.89	25.902
413.25	26.806
413.60	25.905
413.96	26.340
414.31	25.609
414.67	25.999
415.03	26.585
415.38	26.230
415.74	27.062
416.09	25.293
416.45	26.049
416.80	25.153
417.16	26.692
417.51	26.152
417.87	26.242
418.22	25.928
418.58	26.208
418.93	26.077
419.29	25.956
419.64	26.291
420.00	25.460
420.35	25.997
420.71	26.422
421.06	25.992
421.42	25.917
421.77	25.363
422.12	26.110
422.48	26.318
422.83	25.739
423.19	25.942
423.54	26.604
423.90	27.057
424.25	26.240
424.61	25.660
424.96	25.975
425.31	26.592
425.67	25.872
426.02	26.563
426.38	26.292
426.73	25.614
427.09	26.413
427.44	25.997
427.79	25.981
428.15	25.742
428.50	25.787
428.85	25.545
429.21	26.543
429.56	26.061
429.92	25.848
430.27	26.795
430.62	25.598
430.98	25.726
431.33	25.562
431.68	25.718
432.04	26.155
432.39	27.156
432.74	26.142
433.10	25.906
433.45	25.585
433.80	25.751
434.16	26.240
434.51	26.002
434.86	26.819
435.22	25.930
435.57	25.943
435.92	26.099
436.28	26.337
436.63	25.997
436.98	26.033
437.34	25.930
437.69	25.647
438.04	26.335
438.39	25.101
438.75	26.176
439.10	26.427
439.45	25.657
439.81	25.367
440.16	25.469
440.51	25.920
440.86	25.681
441.22	25.509
441.57	25.472
441.92	25.606
442.27	26.616
442.63	25.832
442.98	26.094
443.33	26.144
443.68	25.966
444.03	26.294
444.39	25.982
444.74	26.238
445.09	26.356
445.44	26.291
445.79	26.772
446.15	26.876
446.50	25.788
446.85	25.632
447.20	25.338
447.55	26.674
447.91	25.602
448.26	25.476
448.61	25.877
448.96	27.039
449.31	25.822
449.66	25.926
450.02	25.105
450.37	25.999
450.72	26.103
451.07	26.253
451.42	25.650
451.77	25.069
452.12	26.242
452.47	25.490
452.83	26.802
453.18	25.102
453.53	24.928
453.88	24.959
454.23	25.311
454.58	26.117
454.93	25.000
455.28	25.768
455.63	25.355
455.98	25.754
456.34	25.501
456.69	25.573
457.04	25.236
457.39	25.721
457.74	25.503
458.09	25.755
458.44	25.754
458.79	25.580
459.14	25.328
459.49	25.127
459.84	25.761
460.19	25.042
460.54	25.667
460.89	26.310
461.24	24.770
461.59	25.567
461.94	24.415
462.29	25.084
462.64	24.744
462.99	24.670
463.34	26.152
463.69	25.147
464.04	25.792
464.39	24.159
464.74	24.800
465.09	25.721
465.44	24.839
465.79	25.701
466.14	24.752
466.49	25.895
466.84	25.620
467.19	25.145
467.54	22.973
467.89	24.540
468.24	24.820
468.59	24.378
468.94	23.543
469.29	24.415
469.64	23.903
469.99	25.175
470.34	25.062
470.68	24.470
471.03	24.754
471.38	24.133
471.73	23.797
472.08	24.239
472.43	23.961
472.78	23.804
473.13	24.083
473.48	24.653
473.83	24.956
474.17	24.443
474.52	24.293
474.87	23.920
475.22	25.127
475.57	24.714
475.92	24.092
476.27	25.133
476.61	24.455
476.96	24.140
477.31	24.554
477.66	24.764
478.01	24.708
478.36	23.878
478.70	24.680
479.05	24.540
479.40	23.988
479.75	24.207
480.10	24.207
480.45	24.248
480.79	24.263
481.14	23.805
481.49	23.489
481.84	24.238
482.19	23.914
482.53	24.224
482.88	24.634
483.23	24.411
483.58	23.843
483.92	23.449
484.27	23.751
484.62	23.267
484.97	23.911
485.31	23.724
485.66	23.305
486.01	22.678
486.36	23.527
486.70	24.679
487.05	24.346
487.40	24.309
487.75	23.791
488.09	23.697
488.44	22.935
488.79	23.272
489.13	23.353
489.48	22.641
489.83	22.495
490.17	22.641
490.52	22.578
490.87	22.758
491.22	23.354
491.56	23.208
491.91	23.419
492.26	23.496
492.60	22.344
492.95	22.817
493.30	22.860
493.64	23.478
493.99	23.202
494.34	22.387
494.68	22.784
495.03	22.996
495.37	23.480
495.72	23.356
496.07	22.875
496.41	22.608
496.76	22.727
497.11	22.718
497.45	22.874
497.80	23.056
498.14	22.132
498.49	22.932
498.84	22.898
499.18	22.492
499.53	22.242
499.87	22.549
500.22	21.950
500.56	22.672
500.91	22.654
501.26	23.136
501.60	22.227
501.95	22.232
502.29	22.466
502.64	22.868
502.98	22.131
503.33	22.203
503.67	22.198
504.02	22.023
504.36	22.118
504.71	22.324
505.06	22.146
505.40	22.029
505.75	22.450
506.09	22.744
506.44	21.773
506.78	21.835
507.13	21.346
507.47	22.406
507.82	21.733
508.16	21.893
508.51	21.003
508.85	21.351
509.19	21.175
509.54	22.382
509.88	21.515
510.23	22.098
510.57	22.475
510.92	21.432
511.26	22.030
511.61	20.811
511.95	21.132
512.30	21.566
512.64	20.990
512.98	21.711
513.33	21.321
513.67	21.469
514.02	21.768
514.36	20.818
514.70	21.406
515.05	21.637
515.39	21.365
515.74	21.845
516.08	21.025
516.42	21.873
516.77	22.029
517.11	20.629
517.46	21.368
517.80	20.577
518.14	22.089
518.49	21.312
518.83	20.809
519.17	20.409
519.52	21.908
519.86	21.014
520.20	20.820
520.55	20.044
520.89	20.439
521.23	20.771
521.58	20.678
521.92	20.340
522.26	19.874
522.61	20.891
522.95	20.300
523.29	20.517
523.64	21.076
523.98	20.993
524.32	21.203
524.66	21.400
525.01	19.762
525.35	20.505
525.69	19.490
526.04	20.666
526.38	20.115
526.72	21.050
527.06	19.765
527.41	20.292
527.75	20.190
528.09	20.071
528.43	20.367
528.78	19.249
529.12	19.495
529.46	19.449
529.80	20.538
530.15	19.826
530.49	20.225
530.83	20.248
531.17	19.295
531.51	20.698
531.86	18.870
532.20	20.915
532.54	19.509
532.88	19.758
533.22	19.976
533.57	19.158
533.91	19.641
534.25	19.672
534.59	19.713
534.93	19.525
535.27	19.493
535.62	19.613
535.96	19.582
536.30	19.389
536.64	19.880
536.98	19.680
537.32	20.556
537.66	20.025
538.01	18.187
538.35	19.001
538.69	18.329
539.03	19.865
539.37	18.905
539.71	19.399
540.05	19.484
540.39	20.232
540.73	19.854
541.07	19.252
541.42	19.374
541.76	18.327
542.10	18.818
542.44	18.331
542.78	18.796
543.12	19.428
543.46	18.987
543.80	19.125
544.14	18.432
544.48	19.563
544.82	19.090
545.16	18.545
545.50	18.035
545.84	18.494
546.18	19.321
546.52	18.726
546.86	18.491
547.20	19.211
547.54	18.414
547.88	18.927
548.22	18.363
548.56	17.905
548.90	18.328
549.24	19.331
549.58	17.981
549.92	18.878
550.26	19.223
550.60	18.188
550.94	18.629
551.28	18.416
551.62	17.925
551.96	17.864
552.30	18.674
552.64	18.357
552.98	17.779
553.32	18.585
553.66	18.842
554.00	18.663
554.34	18.340
554.68	17.495
555.02	18.200
555.36	18.277
555.69	16.912
556.03	17.087
556.37	18.210
556.71	17.819
557.05	16.550
557.39	17.452
557.73	17.305
558.07	16.424
558.41	18.671
558.75	18.053
559.08	18.580
559.42	17.421
559.76	18.182
560.10	17.013
560.44	17.744
560.78	18.250
561.12	17.241
561.45	17.944
561.79	17.155
562.13	17.807
562.47	16.831
562.81	16.646
563.15	17.487
563.48	17.154
563.82	17.110
564.16	16.535
564.50	17.223
564.84	16.106
565.17	17.471
565.51	16.341
565.85	16.924
566.19	16.475
566.52	16.559
566.86	16.582
567.20	17.020
567.54	16.622
567.88	16.208
568.21	16.551
568.55	17.314
568.89	17.113
569.23	17.110
569.56	16.647
569.90	16.393
570.24	16.526
570.57	16.613
570.91	16.320
571.25	16.488
571.59	17.061
571.92	16.525
572.26	16.596
572.60	16.598
572.93	16.783
573.27	16.269
573.61	16.623
573.95	16.655
574.28	16.328
574.62	16.212
574.96	16.343
575.29	16.325
575.63	16.147
575.97	16.311
576.30	16.136
576.64	16.201
576.98	16.310
577.31	16.075
577.65	16.385
577.98	16.209
578.32	15.793
578.66	16.491
578.99	15.830
579.33	16.252
579.67	15.866
580.00	16.026
580.34	16.099
580.67	15.600
581.01	16.270
581.35	16.034
581.68	15.776
582.02	15.912
582.35	16.343
582.69	16.353
583.02	15.679
583.36	15.855
583.70	15.815
584.03	16.007
584.37	15.601
584.70	15.526
585.04	15.369
585.37	15.842
585.71	15.750
586.04	15.566
586.38	15.529
586.72	15.342
587.05	15.682
587.39	15.956
587.72	16.029
588.06	15.546
588.39	15.584
588.73	15.847
589.06	15.519
589.40	15.673
589.73	15.553
590.07	15.517
590.40	15.754
590.73	15.447
591.07	15.897
591.40	15.202
591.74	14.825
592.07	15.428
592.41	15.221
592.74	14.661
593.08	15.382
593.41	15.077
593.75	15.316
594.08	15.208
594.41	15.256
594.75	15.144
595.08	15.242
595.42	15.292
595.75	15.144
596.09	15.147
596.42	15.299
596.75	15.670
597.09	15.152
597.42	15.336
597.75	15.327
598.09	15.595
598.42	14.958
598.76	14.100
599.09	14.667
599.42	14.549
599.76	14.790
600.09	15.215
600.42	14.982
600.76	14.894
601.09	14.338
601.42	14.418
601.76	14.690
602.09	14.403
602.42	13.959
602.76	14.280
603.09	15.125
603.42	14.523
603.76	14.271
604.09	14.585
604.42	14.752
604.76	14.193
605.09	14.559
605.42	14.713
605.75	14.115
606.09	14.408
606.42	14.155
606.75	14.168
607.09	13.940
607.42	14.258
607.75	14.029
608.08	14.365
608.42	13.946
608.75	13.972
609.08	13.328
609.41	13.763
609.75	13.795
610.08	14.204
610.41	13.849
610.74	14.496
611.07	13.854
611.41	14.529
611.74	14.688
612.07	13.932
612.40	14.021
612.73	13.936
613.07	14.279
613.40	13.330
613.73	13.962
614.06	14.573
614.39	13.071
614.72	13.246
615.06	14.148
615.39	13.146
615.72	13.981
616.05	13.259
616.38	13.925
616.71	13.845
617.05	13.525
617.38	14.286
617.71	14.039
618.04	13.654
618.37	14.317
618.70	14.027
619.03	12.724
619.36	12.885
619.69	13.389
620.03	13.308
620.36	14.356
620.69	13.078
621.02	12.861
621.35	12.990
621.68	13.738
622.01	14.591
622.34	12.413
622.67	13.333
623.00	12.686
623.33	13.072
623.66	13.424
623.99	12.508
624.32	14.880
624.65	13.063
624.99	13.264
625.32	14.631
625.65	13.149
625.98	12.610
626.31	12.190
626.64	12.967
626.97	13.053
627.30	13.136
627.63	12.303
627.96	14.114
628.29	12.996
628.62	12.846
628.95	13.059
629.28	11.555
629.61	13.552
629.94	12.720
630.26	12.203
630.59	13.040
630.92	11.688
631.25	13.864
631.58	12.994
631.91	12.933
632.24	13.737
632.57	12.239
632.90	12.738
633.23	12.551
633.56	12.653
633.89	12.293
634.22	14.137
634.55	13.779
634.88	12.662
635.20	13.563
