SpectraSuite Data File
++++++++++++++++++++++++++++++++++++
Date: Thu May 14 15:59:06 PDT 2015
User: schluterlab
Dark Spectrum Present: Yes
Reference Spectrum Present: Yes
Number of Sampled Component Spectra: 1
Spectrometers: USB2E3373
Integration Time (usec): 3000 (USB2E3373)
Spectra Averaged: 3 (USB2E3373)
Boxcar Smoothing: 0 (USB2E3373)
Correct for Electrical Dark: No (USB2E3373)
Strobe/Lamp Enabled: No (USB2E3373)
Correct for Detector Non-linearity: No (USB2E3373)
Correct for Stray Light: No (USB2E3373)
Number of Pixels in Processed Spectrum: 2048
>>>>>Begin Processed Spectral Data<<<<<
178.53	0.000
178.91	328.571
179.29	-3000.000
179.67	-2200.000
180.04	314.286
180.42	230.000
180.80	520.000
181.18	-1800.000
181.56	-1500.000
181.94	525.000
182.31	-425.000
182.69	666.667
183.07	-650.000
183.45	725.000
183.83	-283.333
184.20	-766.667
184.58	1600.000
184.96	-550.000
185.34	-288.889
185.72	-280.000
186.09	355.556
186.47	1550.000
186.85	660.000
187.23	-255.556
187.61	-2100.000
187.98	540.000
188.36	575.000
188.74	-625.000
189.12	-633.333
189.49	-112.500
189.87	-237.500
190.25	-133.333
190.63	-320.000
191.00	-244.444
191.38	0.000
191.76	-375.000
192.14	-283.333
192.51	1150.000
192.89	-233.333
193.27	0.000
193.65	-214.286
194.02	-3400.000
194.40	-228.571
194.78	257.143
195.15	0.000
195.53	-200.000
195.91	0.000
196.29	-375.000
196.66	-161.538
197.04	-2300.000
197.42	-271.429
197.79	-1450.000
198.17	-312.500
198.55	-285.714
198.92	-244.444
199.30	-375.000
199.68	-172.727
200.05	-171.429
200.43	-1450.000
200.81	400.000
201.18	0.000
201.56	311.111
201.94	0.000
202.31	800.000
202.69	-322.222
203.07	1500.000
203.44	-77.778
203.82	-500.000
204.19	-166.667
204.57	-366.667
204.95	-200.000
205.32	-2200.000
205.70	500.000
206.08	-133.333
206.45	-200.000
206.83	700.000
207.20	-266.667
207.58	-500.000
207.96	-383.333
208.33	-250.000
208.71	191.667
209.08	-316.667
209.46	0.000
209.84	550.000
210.21	650.000
210.59	1100.000
210.96	1100.000
211.34	-175.000
211.71	-250.000
212.09	-2400.000
212.46	0.000
212.84	1650.000
213.22	-340.000
213.59	-525.000
213.97	-100.000
214.34	-800.000
214.72	316.667
215.09	-350.000
215.47	0.000
215.84	328.571
216.22	1400.000
216.59	-280.000
216.97	-440.000
217.34	-375.000
217.72	-112.500
218.09	-425.000
218.47	-675.000
218.84	0.000
219.22	240.000
219.59	-117.647
219.97	-55.000
220.34	1250.000
220.72	-288.889
221.09	-84.615
221.47	-633.333
221.84	-130.000
222.22	-271.429
222.59	0.000
222.97	-125.000
223.34	-520.000
223.72	-2500.000
224.09	-475.000
224.46	-400.000
224.84	-160.000
225.21	-271.429
225.59	-650.000
225.96	-425.000
226.34	-76.923
226.71	366.667
227.08	-1300.000
227.46	-93.333
227.83	-475.000
228.21	-47.368
228.58	325.000
228.95	800.000
229.33	-125.000
229.70	-50.000
230.08	-47.368
230.45	210.000
230.82	-633.333
231.20	-128.571
231.57	-141.667
231.95	-109.091
232.32	-154.545
232.69	-95.000
233.07	-400.000
233.44	-141.176
233.81	-230.000
234.19	-27.778
234.56	-68.182
234.93	3.448
235.31	-63.158
235.68	-83.333
236.05	-105.000
236.43	-23.077
236.80	-44.000
237.17	-107.407
237.55	-48.485
237.92	-280.000
238.29	-87.097
238.67	-47.727
239.04	-33.333
239.41	-28.571
239.79	-21.739
240.16	-29.630
240.53	-34.783
240.91	-23.529
241.28	-22.951
241.65	-11.940
242.02	-13.514
242.40	-32.308
242.77	-33.333
243.14	-6.098
243.51	-25.000
243.89	-30.769
244.26	-10.891
244.63	-6.863
245.00	-11.215
245.38	-9.649
245.75	-21.239
246.12	-8.730
246.49	-11.628
246.87	-2.857
247.24	-1.987
247.61	-5.263
247.98	-7.383
248.36	-10.494
248.73	-14.110
249.10	-6.011
249.47	0.000
249.84	0.524
250.22	-4.663
250.59	-5.000
250.96	-3.182
251.33	-8.673
251.70	0.855
252.08	-3.333
252.45	-3.689
252.82	-4.545
253.19	-1.563
253.56	2.662
253.94	-1.154
254.31	0.379
254.68	1.049
255.05	1.629
255.42	-3.061
255.79	-1.618
256.16	-2.318
256.54	0.331
256.91	0.328
257.28	0.000
257.65	-2.548
258.02	-3.835
258.39	-2.279
258.76	3.670
259.14	1.724
259.51	2.305
259.88	-0.850
260.25	-0.833
260.62	1.370
260.99	3.825
261.36	2.681
261.73	0.000
262.10	0.549
262.47	-0.536
262.85	3.535
263.22	-1.299
263.59	-4.474
263.96	1.023
264.33	0.512
264.70	0.988
265.07	0.000
265.44	2.721
265.81	2.083
266.18	2.494
266.55	1.562
266.92	0.683
267.29	5.470
267.66	1.774
268.03	0.873
268.40	2.296
268.77	-0.456
269.14	-0.441
269.51	2.412
269.88	2.664
270.25	3.622
270.62	2.743
270.99	5.657
271.36	3.960
271.73	1.965
272.10	1.002
272.47	1.403
272.84	2.008
273.21	3.006
273.58	2.016
273.95	2.692
274.32	1.901
274.69	0.193
275.06	2.564
275.43	1.109
275.80	2.646
276.17	1.111
276.54	2.052
276.91	1.610
277.28	2.532
277.65	4.488
278.02	3.493
278.39	1.993
278.76	1.406
279.13	2.660
279.50	1.718
279.87	3.220
280.23	1.408
280.60	2.373
280.97	2.467
281.34	1.528
281.71	2.200
282.08	2.326
282.45	1.309
282.82	2.826
283.19	0.485
283.56	1.803
283.92	3.303
284.29	5.055
284.66	3.612
285.03	0.641
285.40	2.318
285.77	3.406
286.14	4.275
286.51	2.131
286.87	0.316
287.24	2.861
287.61	3.886
287.98	3.474
288.35	2.367
288.72	0.740
289.08	4.246
289.45	3.402
289.82	4.518
290.19	2.155
290.56	3.521
290.93	2.282
291.29	3.719
291.66	3.030
292.03	1.628
292.40	3.265
292.77	2.291
293.13	2.165
293.50	0.394
293.87	2.282
294.24	4.800
294.60	3.034
294.97	0.268
295.34	3.457
295.71	2.018
296.08	1.421
296.44	3.431
296.81	2.192
297.18	1.494
297.55	2.005
297.91	1.542
298.28	1.896
298.65	1.902
299.02	1.299
299.38	2.403
299.75	2.570
300.12	1.968
300.48	2.765
300.85	2.475
301.22	2.125
301.59	1.256
301.95	1.808
302.32	3.444
302.69	2.191
303.05	2.176
303.42	0.443
303.79	1.979
304.15	2.313
304.52	1.691
304.89	3.141
305.25	3.106
305.62	2.926
305.99	2.784
306.35	2.520
306.72	2.792
307.09	1.523
307.45	3.209
307.82	2.523
308.19	2.725
308.55	3.279
308.92	2.824
309.29	2.874
309.65	2.047
310.02	2.178
310.38	2.657
310.75	3.107
311.12	2.876
311.48	1.662
311.85	2.754
312.22	1.613
312.58	2.629
312.95	1.912
313.31	3.162
313.68	4.212
314.05	3.884
314.41	3.825
314.78	3.088
315.14	4.265
315.51	4.063
315.87	4.950
316.24	4.566
316.61	5.773
316.97	4.525
317.34	3.527
317.70	5.852
318.07	4.850
318.43	5.357
318.80	7.358
319.16	6.352
319.53	5.570
319.89	5.434
320.26	6.940
320.62	5.851
320.99	7.387
321.35	6.562
321.72	8.744
322.08	6.763
322.45	8.762
322.81	8.303
323.18	8.230
323.54	8.362
323.91	9.253
324.27	9.639
324.64	10.579
325.00	9.453
325.37	10.647
325.73	10.992
326.10	11.517
326.46	11.808
326.83	12.010
327.19	12.598
327.56	12.806
327.92	12.274
328.29	11.694
328.65	11.809
329.01	13.706
329.38	12.468
329.74	13.271
330.11	13.356
330.47	13.648
330.84	12.920
331.20	13.667
331.56	14.211
331.93	14.561
332.29	14.661
332.66	14.784
333.02	13.484
333.38	13.591
333.75	14.310
334.11	13.678
334.48	14.109
334.84	14.359
335.20	14.358
335.57	13.322
335.93	15.041
336.29	13.311
336.66	12.532
337.02	14.883
337.38	14.796
337.75	13.471
338.11	14.634
338.47	13.730
338.84	13.029
339.20	12.890
339.56	13.921
339.93	13.711
340.29	14.171
340.65	14.599
341.02	13.567
341.38	14.390
341.74	13.317
342.11	13.837
342.47	14.138
342.83	14.332
343.20	13.900
343.56	14.034
343.92	13.531
344.28	13.594
344.65	14.186
345.01	14.587
345.37	13.997
345.73	13.250
346.10	13.261
346.46	13.687
346.82	14.157
347.19	13.598
347.55	14.643
347.91	14.042
348.27	13.809
348.63	14.928
349.00	12.453
349.36	13.903
349.72	13.467
350.08	14.562
350.45	13.688
350.81	13.650
351.17	13.459
351.53	14.026
351.89	14.427
352.26	13.881
352.62	13.582
352.98	13.130
353.34	13.891
353.70	13.713
354.07	13.711
354.43	13.516
354.79	13.987
355.15	14.349
355.51	14.327
355.87	13.164
356.24	13.460
356.60	12.712
356.96	13.566
357.32	13.383
357.68	13.397
358.04	12.874
358.40	13.060
358.77	13.377
359.13	13.663
359.49	12.714
359.85	13.778
360.21	14.491
360.57	12.994
360.93	13.399
361.29	13.263
361.66	13.324
362.02	14.823
362.38	13.844
362.74	13.198
363.10	14.649
363.46	13.573
363.82	13.920
364.18	14.778
364.54	14.385
364.90	14.716
365.26	14.138
365.62	14.867
365.98	14.568
366.35	14.161
366.71	14.694
367.07	14.411
367.43	14.576
367.79	14.930
368.15	14.448
368.51	14.614
368.87	14.566
369.23	13.733
369.59	15.164
369.95	14.604
370.31	15.733
370.67	15.131
371.03	14.058
371.39	14.238
371.75	14.787
372.11	14.837
372.47	14.895
372.83	15.576
373.19	15.143
373.55	15.108
373.91	14.588
374.27	14.554
374.63	15.088
374.99	15.915
375.35	16.234
375.71	16.258
376.07	15.623
376.42	15.554
376.78	16.035
377.14	15.845
377.50	16.382
377.86	16.810
378.22	16.527
378.58	16.706
378.94	16.843
379.30	16.637
379.66	16.931
380.02	16.965
380.38	17.454
380.74	16.901
381.09	17.247
381.45	17.273
381.81	18.091
382.17	17.221
382.53	17.544
382.89	17.720
383.25	17.057
383.61	16.435
383.97	17.373
384.32	17.883
384.68	17.691
385.04	19.144
385.40	18.385
385.76	18.406
386.12	17.893
386.48	18.647
386.83	19.070
387.19	18.366
387.55	17.840
387.91	18.322
388.27	18.649
388.62	18.671
388.98	18.782
389.34	19.682
389.70	18.768
390.06	19.065
390.42	18.253
390.77	20.409
391.13	19.836
391.49	19.867
391.85	18.909
392.20	19.988
392.56	20.969
392.92	19.847
393.28	20.177
393.64	19.330
393.99	20.918
394.35	20.152
394.71	20.539
395.07	20.120
395.42	20.503
395.78	21.085
396.14	20.143
396.50	19.418
396.85	21.705
397.21	20.888
397.57	20.671
397.92	21.993
398.28	20.804
398.64	20.881
399.00	20.942
399.35	21.152
399.71	21.087
400.07	21.898
400.42	20.605
400.78	21.470
401.14	22.083
401.49	22.399
401.85	21.047
402.21	21.842
402.57	22.711
402.92	21.809
403.28	21.370
403.63	22.375
403.99	22.268
404.35	21.205
404.70	22.606
405.06	20.924
405.42	23.068
405.77	22.519
406.13	22.258
406.49	23.930
406.84	22.770
407.20	22.527
407.55	23.198
407.91	23.004
408.27	22.615
408.62	23.153
408.98	23.622
409.34	22.229
409.69	23.795
410.05	23.447
410.40	24.362
410.76	22.995
411.11	23.670
411.47	24.079
411.83	23.398
412.18	24.458
412.54	23.770
412.89	24.156
413.25	24.041
413.60	24.067
413.96	23.834
414.31	24.306
414.67	24.031
415.03	23.692
415.38	25.410
415.74	24.801
416.09	23.936
416.45	24.734
416.80	24.357
417.16	25.096
417.51	24.222
417.87	25.199
418.22	25.150
418.58	24.907
418.93	26.019
419.29	24.846
419.64	25.690
420.00	24.688
420.35	24.930
420.71	24.411
421.06	24.669
421.42	25.229
421.77	25.094
422.12	25.423
422.48	26.062
422.83	25.082
423.19	25.252
423.54	25.774
423.90	25.842
424.25	25.867
424.61	24.627
424.96	25.590
425.31	26.008
425.67	25.872
426.02	27.117
426.38	25.545
426.73	26.451
427.09	25.721
427.44	24.577
427.79	25.815
428.15	26.142
428.50	25.618
428.85	26.406
429.21	25.532
429.56	25.913
429.92	25.651
430.27	26.892
430.62	25.794
430.98	25.332
431.33	26.393
431.68	26.054
432.04	26.714
432.39	26.674
432.74	25.457
433.10	25.581
433.45	24.749
433.80	26.288
434.16	26.291
434.51	27.030
434.86	27.199
435.22	26.514
435.57	26.887
435.92	26.210
436.28	26.849
436.63	26.871
436.98	26.946
437.34	26.494
437.69	25.922
438.04	26.653
438.39	26.077
438.75	27.006
439.10	27.907
439.45	26.775
439.81	26.949
440.16	26.649
440.51	26.700
440.86	25.848
441.22	26.152
441.57	26.939
441.92	26.673
442.27	28.131
442.63	26.577
442.98	28.228
443.33	27.512
443.68	27.701
444.03	28.175
444.39	28.017
444.74	28.127
445.09	26.711
445.44	27.977
445.79	27.586
446.15	27.646
446.50	27.028
446.85	27.529
447.20	27.853
447.55	28.033
447.91	27.173
448.26	27.431
448.61	27.896
448.96	28.380
449.31	27.041
449.66	27.669
450.02	27.901
450.37	28.023
450.72	27.287
451.07	27.506
451.42	26.401
451.77	27.237
452.12	28.160
452.47	26.857
452.83	28.041
453.18	27.029
453.53	26.651
453.88	27.499
454.23	27.797
454.58	27.974
454.93	26.820
455.28	28.296
455.63	27.686
455.98	27.877
456.34	28.092
456.69	27.454
457.04	28.369
457.39	27.882
457.74	28.915
458.09	27.457
458.44	27.263
458.79	27.076
459.14	27.216
459.49	27.391
459.84	27.230
460.19	27.707
460.54	27.712
460.89	28.428
461.24	27.874
461.59	28.224
461.94	27.496
462.29	28.555
462.64	27.218
462.99	26.805
463.34	27.125
463.69	27.491
464.04	28.071
464.39	26.513
464.74	27.252
465.09	26.701
465.44	27.629
465.79	27.446
466.14	27.514
466.49	27.105
466.84	27.107
467.19	27.399
467.54	27.203
467.89	26.839
468.24	26.427
468.59	26.404
468.94	26.865
469.29	26.635
469.64	26.446
469.99	26.641
470.34	25.804
470.68	27.409
471.03	27.046
471.38	26.750
471.73	26.008
472.08	26.713
472.43	27.213
472.78	27.078
473.13	26.612
473.48	26.526
473.83	27.858
474.17	26.202
474.52	26.699
474.87	26.633
475.22	26.535
475.57	26.428
475.92	26.929
476.27	25.879
476.61	27.310
476.96	26.069
477.31	26.782
477.66	27.650
478.01	26.335
478.36	25.922
478.70	26.798
479.05	26.636
479.40	26.407
479.75	26.849
480.10	26.717
480.45	26.162
480.79	25.941
481.14	26.425
481.49	25.625
481.84	26.023
482.19	26.452
482.53	26.672
482.88	26.230
483.23	26.323
483.58	26.332
483.92	26.108
484.27	26.122
484.62	25.371
484.97	25.972
485.31	26.118
485.66	25.439
486.01	25.115
486.36	25.425
486.70	26.333
487.05	26.248
487.40	25.911
487.75	26.463
488.09	25.810
488.44	25.185
488.79	25.902
489.13	25.380
489.48	25.398
489.83	24.748
490.17	24.787
490.52	24.836
490.87	25.042
491.22	25.130
491.56	25.512
491.91	25.425
492.26	25.357
492.60	24.574
492.95	24.748
493.30	25.011
493.64	25.055
493.99	24.912
494.34	24.695
494.68	25.096
495.03	24.846
495.37	24.811
495.72	24.898
496.07	24.671
496.41	24.453
496.76	24.729
497.11	24.331
497.45	24.342
497.80	24.434
498.14	24.082
498.49	24.035
498.84	24.314
499.18	24.247
499.53	24.215
499.87	24.132
500.22	24.666
500.56	24.202
500.91	24.531
501.26	25.318
501.60	22.669
501.95	24.360
502.29	24.353
502.64	24.136
502.98	24.159
503.33	24.060
503.67	23.550
504.02	23.643
504.36	24.352
504.71	24.024
505.06	23.647
505.40	23.218
505.75	23.406
506.09	23.941
506.44	23.909
506.78	23.761
507.13	23.790
507.47	23.591
507.82	23.485
508.16	23.423
508.51	24.238
508.85	23.382
509.19	23.449
509.54	23.775
509.88	23.264
510.23	23.847
510.57	23.876
510.92	23.029
511.26	22.511
511.61	22.067
511.95	23.084
512.30	23.338
512.64	23.138
512.98	22.711
513.33	23.337
513.67	22.845
514.02	23.199
514.36	23.478
514.70	23.125
515.05	23.410
515.39	23.202
515.74	23.330
516.08	22.821
516.42	23.077
516.77	23.607
517.11	22.847
517.46	22.587
517.80	23.356
518.14	23.667
518.49	22.831
518.83	22.831
519.17	22.563
519.52	22.432
519.86	22.492
520.20	22.045
520.55	22.892
520.89	22.691
521.23	22.334
521.58	23.220
521.92	21.473
522.26	22.222
522.61	22.454
522.95	22.780
523.29	22.471
523.64	22.253
523.98	22.818
524.32	23.095
524.66	22.368
525.01	22.140
525.35	21.827
525.69	22.158
526.04	21.814
526.38	21.322
526.72	22.145
527.06	21.818
527.41	22.216
527.75	22.922
528.09	22.019
528.43	22.262
528.78	21.561
529.12	22.477
529.46	22.147
529.80	22.540
530.15	22.783
530.49	21.767
530.83	22.019
531.17	22.103
531.51	21.059
531.86	21.695
532.20	22.195
532.54	22.023
532.88	22.000
533.22	22.098
533.57	21.062
533.91	21.661
534.25	21.481
534.59	21.322
534.93	21.279
535.27	21.239
535.62	22.399
535.96	21.673
536.30	20.917
536.64	21.802
536.98	21.648
537.32	20.988
537.66	21.085
538.01	20.121
538.35	21.011
538.69	20.733
539.03	21.030
539.37	20.907
539.71	21.381
540.05	21.103
540.39	20.782
540.73	20.461
541.07	20.907
541.42	20.732
541.76	19.751
542.10	19.964
542.44	19.306
542.78	21.229
543.12	19.726
543.46	20.452
543.80	19.904
544.14	19.330
544.48	20.686
544.82	19.749
545.16	21.169
545.50	19.593
545.84	19.780
546.18	20.741
546.52	20.191
546.86	19.937
547.20	19.338
547.54	19.288
547.88	19.650
548.22	19.123
548.56	19.134
548.90	19.403
549.24	20.061
549.58	19.495
549.92	19.005
550.26	20.388
550.60	19.145
550.94	19.470
551.28	19.406
551.62	20.148
551.96	19.482
552.30	19.567
552.64	19.291
552.98	19.526
553.32	19.164
553.66	20.000
554.00	18.663
554.34	19.691
554.68	19.109
555.02	18.265
555.36	19.790
555.69	18.770
556.03	18.096
556.37	19.024
556.71	18.389
557.05	18.594
557.39	19.111
557.73	18.560
558.07	18.609
558.41	18.538
558.75	19.270
559.08	18.928
559.42	17.215
559.76	18.792
560.10	18.687
560.44	18.602
560.78	18.812
561.12	18.350
561.45	17.397
561.79	18.437
562.13	18.731
562.47	17.571
562.81	18.165
563.15	17.803
563.48	17.899
563.82	17.594
564.16	17.383
564.50	17.282
564.84	17.109
565.17	17.647
565.51	17.089
565.85	18.052
566.19	16.071
566.52	16.969
566.86	17.487
567.20	16.531
567.54	18.003
567.88	16.972
568.21	18.132
568.55	16.930
568.89	17.794
569.23	16.857
569.56	16.647
569.90	17.142
570.24	17.133
570.57	16.389
570.91	16.258
571.25	17.067
571.59	16.643
571.92	16.578
572.26	16.808
572.60	16.871
572.93	16.950
573.27	16.774
573.61	16.596
573.95	17.043
574.28	16.048
574.62	16.576
574.96	15.704
575.29	16.678
575.63	15.985
575.97	16.431
576.30	15.643
576.64	15.939
576.98	16.150
577.31	15.922
577.65	15.951
577.98	16.039
578.32	16.088
578.66	15.812
578.99	15.749
579.33	15.918
579.67	15.503
580.00	15.666
580.34	15.401
580.67	15.490
581.01	15.383
581.35	15.702
581.68	15.138
582.02	15.603
582.35	15.686
582.69	15.840
583.02	15.455
583.36	15.609
583.70	15.451
584.03	15.551
584.37	15.478
584.70	15.355
585.04	15.276
585.37	15.312
585.71	15.512
586.04	15.059
586.38	15.460
586.72	15.041
587.05	14.812
587.39	15.183
587.72	15.215
588.06	15.377
588.39	14.961
588.73	14.815
589.06	14.898
589.40	14.997
589.73	14.749
590.07	14.954
590.40	14.368
590.73	14.422
591.07	15.153
591.40	15.086
591.74	15.024
592.07	15.063
592.41	14.708
592.74	15.051
593.08	14.936
593.41	14.727
593.75	14.943
594.08	14.480
594.41	14.615
594.75	14.181
595.08	14.233
595.42	14.708
595.75	14.627
596.09	14.368
596.42	14.296
596.75	14.821
597.09	14.626
597.42	14.223
597.75	14.034
598.09	14.206
598.42	14.274
598.76	14.253
599.09	13.635
599.42	13.879
599.76	14.427
600.09	13.981
600.42	14.114
600.76	13.672
601.09	14.305
601.42	13.835
601.76	13.931
602.09	14.475
602.42	13.450
602.76	14.244
603.09	13.840
603.42	13.584
603.76	13.354
604.09	13.769
604.42	13.615
604.76	14.041
605.09	13.841
605.42	13.636
605.75	13.808
606.09	13.886
606.42	13.316
606.75	13.268
607.09	13.134
607.42	13.449
607.75	13.912
608.08	13.141
608.42	13.261
608.75	13.765
609.08	13.582
609.41	13.410
609.75	13.482
610.08	14.116
610.41	13.042
610.74	13.361
611.07	13.721
611.41	13.363
611.74	13.903
612.07	13.417
612.40	13.213
612.73	13.056
613.07	13.496
613.40	12.945
613.73	13.288
614.06	12.512
614.39	13.508
614.72	12.809
615.06	12.801
615.39	12.905
615.72	13.697
616.05	12.579
616.38	12.664
616.71	12.748
617.05	12.993
617.38	12.788
617.71	12.797
618.04	12.844
618.37	12.951
618.70	13.462
619.03	12.545
619.36	13.132
619.69	13.453
620.03	12.492
620.36	12.270
620.69	12.215
621.02	12.664
621.35	13.933
621.68	13.015
622.01	12.456
622.34	11.994
622.67	12.509
623.00	11.066
623.33	13.470
623.66	13.748
623.99	11.652
624.32	13.190
624.65	12.484
624.99	13.004
625.32	13.455
625.65	13.284
625.98	12.136
626.31	12.473
626.64	12.674
626.97	12.378
627.30	11.314
627.63	12.078
627.96	14.790
628.29	11.984
628.62	12.091
628.95	12.358
629.28	12.319
629.61	12.290
629.94	12.134
630.26	11.186
630.59	10.967
630.92	11.515
631.25	12.522
631.58	12.618
631.91	11.809
632.24	12.296
632.57	12.998
632.90	10.732
633.23	11.633
633.56	11.837
633.89	11.054
634.22	12.578
634.55	11.900
