SpectraSuite Data File
++++++++++++++++++++++++++++++++++++
Date: Thu May 14 16:01:38 PDT 2015
User: schluterlab
Dark Spectrum Present: Yes
Reference Spectrum Present: Yes
Number of Sampled Component Spectra: 1
Spectrometers: USB2E3373
Integration Time (usec): 3000 (USB2E3373)
Spectra Averaged: 3 (USB2E3373)
Boxcar Smoothing: 0 (USB2E3373)
Correct for Electrical Dark: No (USB2E3373)
Strobe/Lamp Enabled: No (USB2E3373)
Correct for Detector Non-linearity: No (USB2E3373)
Correct for Stray Light: No (USB2E3373)
Number of Pixels in Processed Spectrum: 2048
>>>>>Begin Processed Spectral Data<<<<<
178.53	0.000
178.91	214.286
179.29	-2500.000
179.67	-1200.000
180.04	228.571
180.42	100.000
180.80	420.000
181.18	-1800.000
181.56	-1000.000
181.94	525.000
182.31	-275.000
182.69	566.667
183.07	-850.000
183.45	325.000
183.83	-233.333
184.20	-700.000
184.58	1800.000
184.96	-525.000
185.34	-211.111
185.72	-280.000
186.09	222.222
186.47	850.000
186.85	520.000
187.23	-233.333
187.61	-2300.000
187.98	180.000
188.36	600.000
188.74	-300.000
189.12	-166.667
189.49	-75.000
189.87	-225.000
190.25	-133.333
190.63	-260.000
191.00	-166.667
191.38	0.000
191.76	-675.000
192.14	-383.333
192.51	1100.000
192.89	-150.000
193.27	0.000
193.65	-257.143
194.02	-2500.000
194.40	-185.714
194.78	328.571
195.15	0.000
195.53	-100.000
195.91	0.000
196.29	-200.000
196.66	-92.308
197.04	-1800.000
197.42	-228.571
197.79	-1150.000
198.17	-237.500
198.55	-214.286
198.92	-144.444
199.30	-375.000
199.68	-45.455
200.05	-28.571
200.43	-1300.000
200.81	214.286
201.18	0.000
201.56	277.778
201.94	0.000
202.31	833.333
202.69	-188.889
203.07	1100.000
203.44	-100.000
203.82	-425.000
204.19	-75.000
204.57	-266.667
204.95	-275.000
205.32	-1200.000
205.70	400.000
206.08	-400.000
206.45	-116.667
206.83	620.000
207.20	-350.000
207.58	-440.000
207.96	-350.000
208.33	-100.000
208.71	166.667
209.08	-33.333
209.46	0.000
209.84	533.333
210.21	850.000
210.59	850.000
210.96	533.333
211.34	-225.000
211.71	-200.000
212.09	-2000.000
212.46	0.000
212.84	1450.000
213.22	-320.000
213.59	-275.000
213.97	-110.000
214.34	-533.333
214.72	450.000
215.09	-550.000
215.47	0.000
215.84	342.857
216.22	1450.000
216.59	-460.000
216.97	-220.000
217.34	-175.000
217.72	-100.000
218.09	-475.000
218.47	-600.000
218.84	0.000
219.22	540.000
219.59	-70.588
219.97	-35.000
220.34	1250.000
220.72	-188.889
221.09	-130.769
221.47	-533.333
221.84	-110.000
222.22	-342.857
222.59	0.000
222.97	-100.000
223.34	-400.000
223.72	-1300.000
224.09	-300.000
224.46	-500.000
224.84	-260.000
225.21	-257.143
225.59	-525.000
225.96	-225.000
226.34	-46.154
226.71	433.333
227.08	-1050.000
227.46	-113.333
227.83	-500.000
228.21	-68.421
228.58	250.000
228.95	800.000
229.33	-91.667
229.70	-220.000
230.08	10.526
230.45	250.000
230.82	-466.667
231.20	-42.857
231.57	-25.000
231.95	-172.727
232.32	-136.364
232.69	-85.000
233.07	-425.000
233.44	-94.118
233.81	-220.000
234.19	-61.111
234.56	-40.909
234.93	-13.793
235.31	-136.842
235.68	-88.889
236.05	-125.000
236.43	15.385
236.80	-28.000
237.17	-74.074
237.55	-30.303
237.92	-130.000
238.29	-70.968
238.67	-31.818
239.04	-27.778
239.41	-47.619
239.79	-32.609
240.16	-29.630
240.53	-58.696
240.91	-43.137
241.28	-22.951
241.65	-2.985
242.02	-10.811
242.40	-29.231
242.77	-28.000
243.14	-29.268
243.51	-32.895
243.89	-33.333
244.26	-12.871
244.63	-10.784
245.00	-8.411
245.38	-14.035
245.75	-27.434
246.12	-9.524
246.49	-16.279
246.87	-13.571
247.24	-5.960
247.61	-10.526
247.98	-11.409
248.36	-14.815
248.73	-14.110
249.10	-10.383
249.47	-3.483
249.84	-4.712
250.22	-10.363
250.59	-8.333
250.96	-1.364
251.33	-14.286
251.70	-3.419
252.08	-4.167
252.45	-3.279
252.82	-5.372
253.19	-7.422
253.56	-5.703
253.94	-7.692
254.31	-8.333
254.68	-1.748
255.05	1.303
255.42	-5.442
255.79	-3.883
256.16	-5.960
256.54	-6.623
256.91	-3.934
257.28	-6.885
257.65	-7.325
258.02	-5.605
258.39	-2.849
258.76	0.917
259.14	-4.598
259.51	-4.899
259.88	-5.382
260.25	-5.556
260.62	-3.288
260.99	-2.186
261.36	-0.268
261.73	-2.653
262.10	-6.044
262.47	-7.507
262.85	-1.515
263.22	-4.935
263.59	-5.000
263.96	-3.325
264.33	-5.115
264.70	-3.704
265.07	-2.387
265.44	-0.227
265.81	-5.093
266.18	-1.587
266.55	-5.804
266.92	-6.378
267.29	-2.626
267.66	-4.435
268.03	-2.402
268.40	-2.088
268.77	-6.150
269.14	-5.727
269.51	-3.289
269.88	-1.025
270.25	-2.616
270.62	-2.110
270.99	0.000
271.36	-2.376
271.73	-3.340
272.10	-1.002
272.47	-2.806
272.84	-2.410
273.21	-2.806
273.58	-4.234
273.95	-4.423
274.32	-3.612
274.69	-3.095
275.06	-2.198
275.43	-4.067
275.80	-0.882
276.17	-4.630
276.54	-2.985
276.91	-1.252
277.28	-2.170
277.65	-1.257
278.02	0.184
278.39	-2.899
278.76	-3.163
279.13	-3.546
279.50	-1.203
279.87	-0.358
280.23	-6.162
280.60	-2.712
280.97	-0.493
281.34	-3.226
281.71	0.000
282.08	-0.997
282.45	-1.637
282.82	-2.198
283.19	-3.069
283.56	-2.951
283.92	-0.901
284.29	-1.422
284.66	-3.120
285.03	-3.846
285.40	-1.391
285.77	-3.715
286.14	-1.069
286.51	-1.674
286.87	-3.318
287.24	-2.410
287.61	-1.943
287.98	-2.266
288.35	-2.071
288.72	-2.515
289.08	-2.050
289.45	-2.811
289.82	-2.410
290.19	-1.868
290.56	-1.690
290.93	-1.997
291.29	-2.755
291.66	-1.791
292.03	-1.357
292.40	0.680
292.77	-1.617
293.13	-2.300
293.50	-2.365
293.87	-2.819
294.24	-0.800
294.60	-0.126
294.97	-3.356
295.34	0.384
295.71	-1.009
296.08	-1.938
296.44	-0.613
296.81	-2.192
297.18	-1.494
297.55	-1.415
297.91	-1.661
298.28	-1.896
298.65	-0.951
299.02	-1.889
299.38	-1.144
299.75	-1.869
300.12	-2.431
300.48	-2.880
300.85	-1.012
301.22	-0.559
301.59	-1.941
301.95	-1.130
302.32	-0.222
302.69	-1.752
303.05	-0.653
303.42	-1.330
303.79	-1.250
304.15	-0.841
304.52	-2.431
304.89	-1.257
305.25	0.207
305.62	-1.776
305.99	-0.722
306.35	-1.310
306.72	-2.172
307.09	-1.624
307.45	-0.311
307.82	-1.009
308.19	-1.211
308.55	-0.964
308.92	-1.753
309.29	0.000
309.65	-1.072
310.02	-1.386
310.38	-1.181
310.75	-1.359
311.12	0.575
311.48	-1.173
311.85	-1.235
312.22	-0.569
312.58	-1.596
312.95	-0.765
313.31	-0.452
313.68	-0.366
314.05	0.181
314.41	0.182
314.78	-1.181
315.14	-0.635
315.51	-2.770
315.87	-0.990
316.24	-1.096
316.61	-0.888
316.97	-1.448
317.34	-1.235
317.70	-0.262
318.07	-1.235
318.43	-0.510
318.80	0.669
319.16	-0.429
319.53	-2.057
319.89	-1.665
320.26	-0.534
320.62	-1.507
320.99	-1.200
321.35	-0.462
321.72	-0.651
322.08	-1.984
322.45	-1.445
322.81	-1.173
323.18	-1.416
323.54	-1.466
323.91	-0.267
324.27	0.086
324.64	-0.168
325.00	-0.829
325.37	0.819
325.73	-0.579
326.10	-0.730
326.46	0.081
326.83	-0.080
327.19	-0.630
327.56	0.000
327.92	-0.708
328.29	-0.161
328.65	-0.838
329.01	-0.761
329.38	-0.168
329.74	-0.514
330.11	-0.428
330.47	-0.084
330.84	-0.345
331.20	-0.333
331.56	-0.520
331.93	-0.167
332.29	0.508
332.66	0.332
333.02	0.921
333.38	-0.419
333.75	-0.505
334.11	0.167
334.48	0.000
334.84	0.510
335.20	0.000
335.57	0.084
335.93	0.826
336.29	0.166
336.66	-0.757
337.02	0.334
337.38	0.340
337.75	0.248
338.11	-0.168
338.47	0.165
338.84	-1.523
339.20	-1.516
339.56	0.247
339.93	-0.082
340.29	1.047
340.65	-0.406
341.02	0.798
341.38	0.243
341.74	-0.565
342.11	0.644
342.47	-1.112
342.83	0.805
343.20	-0.245
343.56	0.241
343.92	0.320
344.28	0.703
344.65	0.930
345.01	0.468
345.37	1.089
345.73	-0.234
346.10	0.390
346.46	-0.396
346.82	1.124
347.19	1.375
347.55	0.607
347.91	0.000
348.27	-0.835
348.63	0.609
349.00	-0.224
349.36	0.000
349.72	-0.149
350.08	-0.223
350.45	-0.532
350.81	-0.377
351.17	0.226
351.53	-0.682
351.89	0.683
352.26	0.000
352.62	-0.075
352.98	-0.153
353.34	-0.299
353.70	-0.385
354.07	-0.447
354.43	-0.076
354.79	0.673
355.15	0.147
355.51	0.512
355.87	-0.524
356.24	-0.532
356.60	-0.591
356.96	-0.445
357.32	0.074
357.68	-1.171
358.04	-0.973
358.40	0.000
358.77	0.000
359.13	-0.886
359.49	-1.115
359.85	0.000
360.21	0.143
360.57	-0.574
360.93	-0.212
361.29	0.070
361.66	-0.145
362.02	0.000
362.38	-0.351
362.74	-0.559
363.10	-0.481
363.46	-0.139
363.82	0.142
364.18	-0.985
364.54	0.207
364.90	0.334
365.26	-0.552
365.62	0.667
365.98	-0.477
366.35	-0.268
366.71	-0.272
367.07	-0.135
367.43	0.263
367.79	0.066
368.15	0.468
368.51	-0.068
368.87	-0.261
369.23	0.000
369.59	-1.025
369.95	-0.203
370.31	-0.270
370.67	-0.757
371.03	-1.177
371.39	-0.672
371.75	0.069
372.11	0.203
372.47	-0.406
372.83	0.000
373.19	0.000
373.55	-0.136
373.91	-0.886
374.27	0.194
374.63	-0.068
374.99	-0.796
375.35	0.390
375.71	0.194
376.07	-0.258
376.42	0.126
376.78	-0.373
377.14	-0.187
377.50	-0.633
377.86	0.369
378.22	0.120
378.58	0.297
378.94	0.117
379.30	0.176
379.66	-0.294
380.02	0.000
380.38	0.288
380.74	-0.451
381.09	-0.348
381.45	0.170
381.81	0.410
382.17	-0.059
382.53	-0.526
382.89	0.282
383.25	0.293
383.61	-0.463
383.97	-0.294
384.32	0.239
384.68	-0.812
385.04	0.636
385.40	0.177
385.76	-0.117
386.12	-0.299
386.48	-0.235
386.83	0.060
387.19	-0.174
387.55	-0.352
387.91	0.285
388.27	0.404
388.62	0.344
388.98	-0.282
389.34	-0.118
389.70	-0.697
390.06	-0.059
390.42	-0.241
390.77	0.421
391.13	-0.469
391.49	-0.060
391.85	-0.970
392.20	-0.474
392.56	0.059
392.92	0.491
393.28	-0.221
393.64	-0.503
393.99	0.000
394.35	-0.467
394.71	0.299
395.07	-0.838
395.42	-0.114
395.78	0.488
396.14	-0.238
396.50	-0.059
396.85	0.239
397.21	0.118
397.57	-0.177
397.92	-0.057
398.28	-0.652
398.64	-0.458
399.00	-0.471
399.35	-0.157
399.71	-0.217
400.07	-0.393
400.42	-0.466
400.78	-0.463
401.14	0.228
401.49	-0.171
401.85	-0.581
402.21	0.290
402.57	0.235
402.92	-0.177
403.28	-0.293
403.63	-0.477
403.99	-0.059
404.35	0.966
404.70	0.567
405.06	-0.109
405.42	0.000
405.77	0.109
406.13	-0.054
406.49	-0.056
406.84	0.388
407.20	-0.279
407.55	-0.545
407.91	-0.377
408.27	0.059
408.62	-0.233
408.98	-0.232
409.34	-0.762
409.69	-0.680
410.05	0.234
410.40	0.696
410.76	-0.168
411.11	0.175
411.47	0.000
411.83	0.588
412.18	0.000
412.54	-0.178
412.89	0.349
413.25	0.395
413.60	-0.287
413.96	-0.583
414.31	-0.510
414.67	-0.239
415.03	-0.062
415.38	-0.126
415.74	-0.061
416.09	-0.370
416.45	-0.438
416.80	0.184
417.16	-0.511
417.51	0.187
417.87	0.123
418.22	-0.240
418.58	0.000
418.93	1.106
419.29	-0.617
419.64	-0.480
420.00	-0.356
420.35	0.168
420.71	-0.632
421.06	-0.460
421.42	0.057
421.77	-0.054
422.12	0.634
422.48	-0.358
422.83	0.548
423.19	-0.053
423.54	0.332
423.90	-0.055
424.25	0.000
424.61	-0.746
424.96	0.439
425.31	0.584
425.67	-0.429
426.02	-0.609
426.38	0.000
426.73	-0.558
427.09	0.000
427.44	0.164
427.79	-0.940
428.15	-0.799
428.50	-0.393
428.85	-0.115
429.21	0.266
429.56	-0.049
429.92	-0.344
430.27	-0.675
430.62	-0.244
430.98	-0.098
431.33	0.098
431.68	-0.335
432.04	-0.356
432.39	-0.107
432.74	-0.514
433.10	0.703
433.45	-0.279
433.80	0.107
434.16	-0.155
434.51	-0.771
434.86	-0.651
435.22	0.000
435.57	-0.649
435.92	0.056
436.28	-0.341
436.63	-0.109
436.98	-0.054
437.34	0.169
437.69	-0.330
438.04	-0.423
438.39	-0.230
438.75	0.221
439.10	0.793
439.45	0.559
439.81	-0.339
440.16	-0.375
440.51	0.056
440.86	0.111
441.22	0.322
441.57	-0.367
441.92	-0.145
442.27	0.000
442.63	0.397
442.98	0.374
443.33	0.210
443.68	0.496
444.03	0.659
444.39	0.139
444.74	0.868
445.09	0.051
445.44	0.105
445.79	-0.239
446.15	0.206
446.50	0.000
446.85	0.778
447.20	0.532
447.55	0.157
447.91	-0.524
448.26	-0.370
448.61	0.266
448.96	0.376
449.31	0.106
449.66	-0.490
450.02	0.053
450.37	0.799
450.72	-0.054
451.07	-0.057
451.42	-0.462
451.77	-0.334
452.12	0.000
452.47	0.119
452.83	0.056
453.18	-0.175
453.53	-0.689
453.88	0.442
454.23	0.113
454.58	-0.058
454.93	-0.485
455.28	0.060
455.63	0.455
455.98	0.391
456.34	-0.059
456.69	-0.118
457.04	-0.591
457.39	0.388
457.74	0.112
458.09	0.055
458.44	0.647
458.79	0.103
459.14	0.210
459.49	0.170
459.84	-0.210
460.19	-0.333
460.54	-0.170
460.89	-0.159
461.24	-0.230
461.59	1.107
461.94	-0.627
462.29	0.000
462.64	-0.121
462.99	0.000
463.34	0.324
463.69	0.176
464.04	0.445
464.39	-0.056
464.74	0.342
465.09	0.288
465.44	0.000
465.79	0.793
466.14	-0.104
466.49	0.526
466.84	0.441
467.19	-0.058
467.54	-0.353
467.89	0.172
468.24	0.222
468.59	-0.174
468.94	-0.350
469.29	-0.180
469.64	-0.445
469.99	-0.765
470.34	-0.557
470.68	0.137
471.03	0.589
471.38	0.523
471.73	-0.780
472.08	0.127
472.43	-0.120
472.78	0.567
473.13	-0.632
473.48	0.181
473.83	0.290
474.17	0.117
474.52	-0.601
474.87	0.443
475.22	0.000
475.57	0.312
475.92	0.199
476.27	-0.160
476.61	0.104
476.96	-0.261
477.31	0.198
477.66	-0.420
478.01	-0.203
478.36	0.000
478.70	-0.296
479.05	0.153
479.40	-0.099
479.75	0.720
480.10	0.000
480.45	0.638
480.79	0.091
481.14	0.368
481.49	0.045
481.84	0.566
482.19	0.602
482.53	0.656
482.88	0.222
483.23	0.178
483.58	-0.131
483.92	0.310
484.27	0.254
484.62	0.413
484.97	0.778
485.31	0.211
485.66	0.540
486.01	0.757
486.36	0.551
486.70	0.851
487.05	0.475
487.40	0.627
487.75	0.814
488.09	0.564
488.44	0.586
488.79	0.877
489.13	0.217
489.48	0.233
489.83	-0.080
490.17	0.081
490.52	0.411
490.87	0.931
491.22	0.260
491.56	0.725
491.91	0.000
492.26	0.043
492.60	0.131
492.95	0.088
493.30	0.090
493.64	0.394
493.99	0.263
494.34	-0.087
494.68	0.086
495.03	0.220
495.37	0.000
495.72	-0.091
496.07	0.175
496.41	-0.129
496.76	0.375
497.11	0.042
497.45	-0.086
497.80	0.800
498.14	-0.045
498.49	-0.322
498.84	-0.091
499.18	-0.090
499.53	0.314
499.87	0.000
500.22	-0.401
500.56	0.225
500.91	0.320
501.26	0.727
501.60	-0.177
501.95	0.521
502.29	0.219
502.64	0.525
502.98	1.122
503.33	-0.130
503.67	0.305
504.02	0.044
504.36	0.223
504.71	0.092
505.06	0.227
505.40	0.503
505.75	0.546
506.09	0.552
506.44	0.279
506.78	0.229
507.13	0.138
507.47	0.237
507.82	0.379
508.16	-0.143
508.51	-0.141
508.85	0.331
509.19	0.284
509.54	0.144
509.88	0.049
510.23	0.291
510.57	0.725
510.92	0.726
511.26	0.192
511.61	-0.145
511.95	-0.244
512.30	0.886
512.64	0.000
512.98	-0.150
513.33	-0.050
513.67	-0.153
514.02	0.511
514.36	0.205
514.70	-0.260
515.05	0.052
515.39	0.000
515.74	0.371
516.08	-0.106
516.42	0.523
516.77	0.158
517.11	-0.155
517.46	0.477
517.80	0.641
518.14	0.653
518.49	0.434
518.83	0.053
519.17	-0.323
519.52	0.839
519.86	0.686
520.20	0.373
520.55	-0.383
520.89	-0.169
521.23	0.503
521.58	0.282
521.92	-0.113
522.26	0.573
522.61	0.579
522.95	-0.288
523.29	-0.230
523.64	0.056
523.98	0.570
524.32	0.458
524.66	0.057
525.01	0.396
525.35	-0.517
525.69	-0.232
526.04	0.574
526.38	0.172
526.72	0.634
527.06	-0.176
527.41	0.117
527.75	0.475
528.09	0.236
528.43	0.237
528.78	-0.173
529.12	0.000
529.46	0.393
529.80	0.229
530.15	0.348
530.49	-0.119
530.83	0.118
531.17	0.179
531.51	-0.060
531.86	0.601
532.20	0.061
532.54	-0.239
532.88	0.061
533.22	0.177
533.57	-0.058
533.91	0.337
534.25	0.057
534.59	-0.115
534.93	-0.340
535.27	0.282
535.62	0.398
535.96	0.232
536.30	-0.235
536.64	-0.120
536.98	0.984
537.32	0.617
537.66	0.561
538.01	-0.181
538.35	-0.244
538.69	-0.361
539.03	0.429
539.37	0.412
539.71	0.300
540.05	0.000
540.39	0.306
540.73	-0.061
541.07	0.061
541.42	-0.177
541.76	0.000
542.10	0.241
542.44	0.183
542.78	0.426
543.12	0.417
543.46	0.061
543.80	0.060
544.14	-0.060
544.48	0.118
544.82	0.778
545.16	-0.537
545.50	0.060
545.84	-0.490
546.18	0.802
546.52	0.255
546.86	-0.377
547.20	0.191
547.54	-0.437
547.88	-0.241
548.22	-0.526
548.56	0.293
548.90	-0.060
549.24	0.912
549.58	-0.126
549.92	-0.191
550.26	0.712
550.60	0.064
550.94	0.906
551.28	0.132
551.62	-0.135
551.96	0.777
552.30	1.020
552.64	0.436
552.98	-0.125
553.32	0.129
553.66	0.064
554.00	1.198
554.34	0.000
554.68	-0.258
555.02	-0.460
555.36	0.197
555.69	-0.128
556.03	-0.315
556.37	0.313
556.71	0.380
557.05	-0.128
557.39	-0.199
557.73	-0.132
558.07	-0.066
558.41	0.465
558.75	0.135
559.08	-0.139
559.42	-0.274
559.76	0.814
560.10	0.670
560.44	-0.198
560.78	-0.062
561.12	0.000
561.45	0.791
561.79	0.672
562.13	0.246
562.47	-0.370
562.81	0.063
563.15	-0.316
563.48	0.373
563.82	-0.181
564.16	-0.485
564.50	-0.358
564.84	0.236
565.17	0.353
565.51	-0.345
565.85	-0.119
566.19	-0.173
566.52	0.293
566.86	0.283
567.20	0.381
567.54	-0.319
567.88	0.204
568.21	0.346
568.55	0.336
568.89	-0.409
569.23	0.718
569.56	0.000
569.90	0.214
570.24	0.438
570.57	0.128
570.91	0.459
571.25	0.897
571.59	0.640
571.92	0.666
572.26	0.212
572.60	0.464
572.93	0.724
573.27	0.421
573.61	0.609
573.95	0.461
574.28	0.561
574.62	0.568
574.96	0.684
575.29	0.573
575.63	0.878
575.97	0.599
576.30	0.543
576.64	0.740
576.98	0.569
577.31	0.460
577.65	0.764
577.98	0.659
578.32	0.607
578.66	0.810
578.99	0.676
579.33	0.622
579.67	0.295
580.00	0.562
580.34	0.982
580.67	0.596
581.01	0.519
581.35	0.623
581.68	0.728
582.02	0.814
582.35	0.740
582.69	0.701
583.02	0.748
583.36	0.657
583.70	0.477
584.03	0.504
584.37	0.691
584.70	0.709
585.04	0.395
585.37	0.619
585.71	0.906
586.04	0.903
586.38	0.696
586.72	0.451
587.05	0.051
587.39	0.424
587.72	0.431
588.06	0.653
588.39	0.921
588.73	0.529
589.06	0.536
589.40	0.246
589.73	0.611
590.07	0.763
590.40	0.575
590.73	0.636
591.07	0.707
591.40	0.311
591.74	0.119
592.07	0.853
592.41	0.473
592.74	0.213
593.08	0.732
593.41	1.021
593.75	0.546
594.08	0.576
594.41	0.513
594.75	0.332
595.08	0.135
595.42	0.390
595.75	0.743
596.09	0.610
596.42	0.322
596.75	0.965
597.09	0.485
597.42	0.278
597.75	0.431
598.09	0.913
598.42	0.161
598.76	0.191
599.09	0.320
599.42	0.805
599.76	0.396
600.09	0.534
600.42	0.601
600.76	0.363
601.09	0.597
601.42	0.652
601.76	0.759
602.09	0.393
602.42	0.182
602.76	0.406
603.09	0.184
603.42	0.217
603.76	-0.247
604.09	0.958
604.42	0.514
604.76	0.152
605.09	0.519
605.42	0.917
605.75	0.077
606.09	-0.149
606.42	0.328
606.75	0.525
607.09	0.038
607.42	0.385
607.75	0.430
608.08	0.631
608.42	0.282
608.75	0.539
609.08	0.212
609.41	0.221
609.75	-0.223
610.08	0.220
610.41	0.127
610.74	0.672
611.07	-0.089
611.41	0.404
611.74	0.416
612.07	0.094
612.40	0.048
612.73	-0.244
613.07	0.196
613.40	0.000
613.73	0.433
614.06	-0.098
614.39	0.243
614.72	0.728
615.06	0.481
615.39	0.290
615.72	0.047
616.05	0.097
616.38	0.202
616.71	0.418
617.05	-0.053
617.38	0.642
617.71	0.486
618.04	0.432
618.37	-0.164
618.70	-0.057
619.03	-0.478
619.36	0.185
619.69	-0.128
620.03	-0.251
620.36	0.245
620.69	-0.494
621.02	0.328
621.35	-0.290
621.68	-0.145
622.01	0.071
622.34	-0.767
622.67	-0.687
623.00	-1.147
623.33	-0.531
623.66	0.000
623.99	-0.724
624.32	1.235
624.65	-0.257
624.99	-0.325
625.32	0.261
625.65	-0.135
625.98	-0.610
626.31	-0.071
626.64	0.440
626.97	-0.225
627.30	-1.367
627.63	-0.600
627.96	0.225
628.29	-0.156
628.62	-0.588
628.95	-1.052
629.28	-0.935
629.61	-0.421
629.94	-0.586
630.26	-0.508
630.59	0.000
630.92	-1.039
631.25	0.537
631.58	-1.318
631.91	-1.500
632.24	-1.345
632.57	-0.759
632.90	-2.106
633.23	-0.306
633.56	-1.122
633.89	-2.066
634.22	-1.040
634.55	-1.461
634.88	-1.732
635.20	0.215
635.53	-0.339
635.86	-1.300
636.19	-0.530
636.52	0.422
636.85	-1.226
637.18	-0.832
637.51	0.000
637.83	-0.664
638.16	-0.922
638.49	-1.408
638.82	-0.564
639.15	-1.833
639.48	-0.462
639.81	-1.155
640.13	-0.471
640.46	-1.697
640.79	-2.083
641.12	-0.373
641.45	-2.133
641.77	1.155
642.10	-1.050
642.43	-0.532
642.76	-2.033
