SpectraSuite Data File
++++++++++++++++++++++++++++++++++++
Date: Thu May 14 16:03:15 PDT 2015
User: schluterlab
Dark Spectrum Present: Yes
Reference Spectrum Present: Yes
Number of Sampled Component Spectra: 1
Spectrometers: USB2E3373
Integration Time (usec): 3000 (USB2E3373)
Spectra Averaged: 3 (USB2E3373)
Boxcar Smoothing: 0 (USB2E3373)
Correct for Electrical Dark: No (USB2E3373)
Strobe/Lamp Enabled: No (USB2E3373)
Correct for Detector Non-linearity: No (USB2E3373)
Correct for Stray Light: No (USB2E3373)
Number of Pixels in Processed Spectrum: 2048
>>>>>Begin Processed Spectral Data<<<<<
178.53	0.000
178.91	242.857
179.29	-2000.000
179.67	-1900.000
180.04	135.714
180.42	140.000
180.80	420.000
181.18	-1200.000
181.56	-1100.000
181.94	400.000
182.31	-325.000
182.69	766.667
183.07	-950.000
183.45	500.000
183.83	-350.000
184.20	-666.667
184.58	1500.000
184.96	-625.000
185.34	-166.667
185.72	-160.000
186.09	211.111
186.47	1100.000
186.85	440.000
187.23	-200.000
187.61	-1500.000
187.98	340.000
188.36	475.000
188.74	-225.000
189.12	-600.000
189.49	-81.250
189.87	-212.500
190.25	-66.667
190.63	-100.000
191.00	-233.333
191.38	0.000
191.76	-525.000
192.14	-233.333
192.51	700.000
192.89	-133.333
193.27	0.000
193.65	-114.286
194.02	-2100.000
194.40	-242.857
194.78	228.571
195.15	0.000
195.53	-145.455
195.91	0.000
196.29	-150.000
196.66	-69.231
197.04	-2900.000
197.42	-242.857
197.79	-850.000
198.17	-237.500
198.55	-71.429
198.92	-100.000
199.30	-275.000
199.68	-45.455
200.05	-128.571
200.43	-650.000
200.81	228.571
201.18	0.000
201.56	266.667
201.94	0.000
202.31	833.333
202.69	-222.222
203.07	1500.000
203.44	-77.778
203.82	-350.000
204.19	-58.333
204.57	-316.667
204.95	-150.000
205.32	-2800.000
205.70	375.000
206.08	-166.667
206.45	-250.000
206.83	620.000
207.20	-333.333
207.58	-280.000
207.96	-250.000
208.33	0.000
208.71	166.667
209.08	-250.000
209.46	0.000
209.84	333.333
210.21	500.000
210.59	1000.000
210.96	666.667
211.34	-225.000
211.71	-200.000
212.09	-1400.000
212.46	0.000
212.84	1100.000
213.22	-220.000
213.59	-150.000
213.97	-80.000
214.34	-733.333
214.72	366.667
215.09	-425.000
215.47	0.000
215.84	271.429
216.22	1350.000
216.59	-320.000
216.97	-380.000
217.34	-350.000
217.72	-100.000
218.09	-475.000
218.47	-550.000
218.84	0.000
219.22	300.000
219.59	-70.588
219.97	-90.000
220.34	1500.000
220.72	-100.000
221.09	-23.077
221.47	-500.000
221.84	-160.000
222.22	-242.857
222.59	0.000
222.97	-187.500
223.34	-520.000
223.72	-1000.000
224.09	-175.000
224.46	-500.000
224.84	-20.000
225.21	-228.571
225.59	-475.000
225.96	-425.000
226.34	-53.846
226.71	450.000
227.08	-850.000
227.46	-80.000
227.83	-375.000
228.21	-21.053
228.58	225.000
228.95	850.000
229.33	-25.000
229.70	-90.000
230.08	-5.263
230.45	200.000
230.82	-600.000
231.20	-64.286
231.57	-33.333
231.95	-90.909
232.32	-200.000
232.69	-75.000
233.07	-275.000
233.44	-52.941
233.81	-190.000
234.19	-5.556
234.56	-31.818
234.93	17.241
235.31	-84.211
235.68	-88.889
236.05	-115.000
236.43	26.923
236.80	16.000
237.17	-7.407
237.55	-45.455
237.92	-230.000
238.29	-16.129
238.67	-9.091
239.04	-5.556
239.41	-38.095
239.79	-19.565
240.16	-16.667
240.53	-21.739
240.91	-13.725
241.28	-14.754
241.65	-16.418
242.02	-5.405
242.40	-10.769
242.77	-13.333
243.14	-17.073
243.51	-19.737
243.89	-21.795
244.26	-1.980
244.63	-1.961
245.00	-3.738
245.38	-10.526
245.75	-12.389
246.12	-5.556
246.49	-10.078
246.87	11.429
247.24	-1.987
247.61	7.237
247.98	-0.671
248.36	1.852
248.73	-6.135
249.10	-3.279
249.47	3.483
249.84	8.901
250.22	-1.036
250.59	0.000
250.96	5.455
251.33	-4.592
251.70	2.564
252.08	1.667
252.45	0.820
252.82	0.826
253.19	-3.516
253.56	1.901
253.94	-0.769
254.31	4.167
254.68	5.245
255.05	3.257
255.42	2.721
255.79	0.971
256.16	2.980
256.54	1.325
256.91	2.623
257.28	0.984
257.65	-0.637
258.02	3.540
258.39	4.558
258.76	5.505
259.14	6.609
259.51	4.611
259.88	0.850
260.25	3.056
260.62	5.753
260.99	7.104
261.36	8.043
261.73	6.366
262.10	2.473
262.47	3.485
262.85	6.313
263.22	3.896
263.59	2.632
263.96	3.581
264.33	-1.023
264.70	3.951
265.07	6.444
265.44	6.349
265.81	4.861
266.18	4.989
266.55	5.134
266.92	3.872
267.29	5.689
267.66	5.987
268.03	3.930
268.40	5.010
268.77	4.328
269.14	2.643
269.51	5.702
269.88	5.533
270.25	4.225
270.62	6.118
270.99	7.273
271.36	5.941
271.73	5.108
272.10	8.417
272.47	7.615
272.84	5.221
273.21	5.210
273.58	7.460
273.95	5.577
274.32	5.323
274.69	3.675
275.06	8.059
275.43	4.436
275.80	6.173
276.17	4.815
276.54	4.851
276.91	5.367
277.28	4.702
277.65	5.745
278.02	7.169
278.39	5.072
278.76	5.975
279.13	4.610
279.50	5.498
279.87	7.692
280.23	3.345
280.60	6.102
280.97	4.605
281.34	2.886
281.71	7.783
282.08	5.482
282.45	5.237
282.82	3.768
283.19	3.231
283.56	3.607
283.92	7.658
284.29	7.899
284.66	6.897
285.03	4.968
285.40	7.573
285.77	5.263
286.14	6.260
286.51	5.936
286.87	5.371
287.24	6.024
287.61	3.288
287.98	2.719
288.35	6.361
288.72	5.178
289.08	4.832
289.45	3.402
289.82	4.066
290.19	6.034
290.56	5.070
290.93	4.708
291.29	6.061
291.66	6.749
292.03	4.478
292.40	6.803
292.77	4.043
293.13	6.360
293.50	4.468
293.87	4.966
294.24	5.600
294.60	5.563
294.97	3.490
295.34	6.146
295.71	4.540
296.08	4.264
296.44	4.534
296.81	3.410
297.18	4.483
297.55	5.071
297.91	4.626
298.28	2.962
298.65	4.756
299.02	4.723
299.38	4.577
299.75	5.374
300.12	3.241
300.48	4.263
300.85	5.399
301.22	4.586
301.59	4.110
301.95	4.859
302.32	5.556
302.69	5.038
303.05	5.005
303.42	4.213
303.79	5.104
304.15	4.942
304.52	4.545
304.89	5.026
305.25	4.451
305.62	4.493
305.99	5.052
306.35	3.831
306.72	4.447
307.09	4.975
307.45	5.072
307.82	4.339
308.19	3.835
308.55	5.786
308.92	4.284
309.29	5.460
309.65	4.678
310.02	4.257
310.38	5.217
310.75	4.854
311.12	6.232
311.48	4.790
311.85	4.179
312.22	4.839
312.58	5.446
312.95	5.545
313.31	5.691
313.68	4.762
314.05	7.046
314.41	6.922
314.78	6.540
315.14	6.897
315.51	5.263
315.87	7.561
316.24	7.123
316.61	7.016
316.97	6.425
317.34	6.261
317.70	8.035
318.07	7.143
318.43	7.313
318.80	8.946
319.16	7.554
319.53	7.112
319.89	7.187
320.26	8.274
320.62	6.738
320.99	8.495
321.35	8.318
321.72	8.651
322.08	6.853
322.45	8.943
322.81	9.477
323.18	8.230
323.54	10.000
323.91	10.498
324.27	9.466
324.64	11.167
325.00	10.116
325.37	10.319
325.73	11.405
326.10	10.706
326.46	11.889
326.83	12.410
327.19	11.732
327.56	12.174
327.92	12.038
328.29	10.887
328.65	11.809
329.01	12.606
329.38	12.047
329.74	13.099
330.11	12.671
330.47	13.058
330.84	13.867
331.20	14.000
331.56	13.172
331.93	13.724
332.29	13.559
332.66	13.953
333.02	13.149
333.38	13.255
333.75	13.047
334.11	12.761
334.48	13.944
334.84	15.038
335.20	13.854
335.57	14.840
335.93	15.041
336.29	13.228
336.66	13.204
337.02	13.127
337.38	14.371
337.75	14.463
338.11	14.298
338.47	13.978
338.84	13.875
339.20	13.395
339.56	14.333
339.93	14.778
340.29	14.332
340.65	14.274
341.02	15.403
341.38	15.441
341.74	14.447
342.11	14.642
342.47	14.297
342.83	15.298
343.20	14.718
343.56	15.237
343.92	15.132
344.28	14.922
344.65	15.039
345.01	15.523
345.37	15.863
345.73	14.108
346.10	15.211
346.46	14.003
346.82	15.131
347.19	15.432
347.55	15.857
347.91	14.710
348.27	15.326
348.63	15.537
349.00	16.033
349.36	15.019
349.72	14.360
350.08	16.865
350.45	15.513
350.81	15.083
351.17	15.263
351.53	16.224
351.89	16.477
352.26	15.522
352.62	16.045
352.98	15.267
353.34	15.310
353.70	16.641
354.07	15.276
354.43	15.338
354.79	16.679
355.15	16.336
355.51	16.886
355.87	15.557
356.24	17.110
356.60	16.482
356.96	17.050
357.32	16.059
357.68	16.691
358.04	16.018
358.40	15.448
358.77	16.740
359.13	17.061
359.49	16.803
359.85	17.041
360.21	17.217
360.57	17.373
360.93	17.278
361.29	16.842
361.66	17.886
362.02	18.580
362.38	17.006
362.74	17.947
363.10	18.294
363.46	17.590
363.82	17.116
364.18	18.297
364.54	18.119
364.90	19.064
365.26	17.862
365.62	18.867
365.98	18.516
366.35	17.785
366.71	19.456
367.07	18.674
367.43	19.041
367.79	18.845
368.15	19.130
368.51	19.418
368.87	18.615
369.23	19.067
369.59	19.809
369.95	19.675
370.31	19.379
370.67	19.051
371.03	19.183
371.39	20.013
371.75	18.913
372.11	19.648
372.47	19.905
372.83	20.615
373.19	19.947
373.55	20.054
373.91	20.450
374.27	20.440
374.63	20.974
374.99	21.154
375.35	21.039
375.71	21.613
376.07	20.594
376.42	20.844
376.78	21.193
377.14	20.274
377.50	21.442
377.86	21.675
378.22	21.677
378.58	21.463
378.94	21.127
379.30	21.441
379.66	22.340
380.02	21.119
380.38	22.350
380.74	21.239
381.09	22.242
381.45	21.250
381.81	22.658
382.17	21.793
382.53	21.637
382.89	22.630
383.25	22.274
383.61	21.354
383.97	22.674
384.32	22.847
384.68	21.288
385.04	21.978
385.40	22.982
385.76	22.392
386.12	22.142
386.48	22.353
386.83	23.421
387.19	22.654
387.55	22.359
387.91	22.489
388.27	22.575
388.62	22.623
388.98	22.166
389.34	23.394
389.70	23.475
390.06	22.972
390.42	21.446
390.77	23.721
391.13	22.007
391.49	22.041
391.85	22.303
392.20	22.183
392.56	23.036
392.92	22.737
393.28	23.825
393.64	22.179
393.99	23.591
394.35	23.014
394.71	23.234
395.07	22.156
395.42	22.387
395.78	23.218
396.14	22.638
396.50	22.268
396.85	21.944
397.21	22.308
397.57	22.144
397.92	21.993
398.28	22.108
398.64	21.739
399.00	21.885
399.35	22.513
399.71	22.174
400.07	22.572
400.42	22.177
400.78	21.586
401.14	22.766
401.49	22.911
401.85	22.326
402.21	22.132
402.57	22.477
402.92	22.577
403.28	21.019
403.63	21.181
403.99	21.378
404.35	21.489
404.70	21.813
405.06	22.011
405.42	21.370
405.77	22.683
406.13	21.880
406.49	21.227
406.84	21.440
407.20	21.241
407.55	20.957
407.91	20.930
408.27	22.085
408.62	22.048
408.98	21.706
409.34	21.056
409.69	21.323
410.05	21.923
410.40	21.636
410.76	22.098
411.11	21.216
411.47	21.560
411.83	21.869
412.18	21.627
412.54	21.873
412.89	21.246
413.25	21.163
413.60	20.908
413.96	20.513
414.31	20.680
414.67	21.109
415.03	20.862
415.38	21.185
415.74	21.503
416.09	21.098
416.45	21.102
416.80	20.991
417.16	21.009
417.51	21.544
417.87	20.540
418.22	21.677
418.58	21.190
418.93	21.362
419.29	21.085
419.64	20.888
420.00	20.534
420.35	20.887
420.71	21.080
421.06	20.817
421.42	21.044
421.77	21.055
422.12	21.036
422.48	21.045
422.83	21.577
423.19	20.902
423.54	21.847
423.90	21.701
424.25	21.067
424.61	21.240
424.96	21.142
425.31	21.762
425.67	20.612
426.02	21.306
426.38	21.183
426.73	21.150
427.09	21.799
427.44	21.027
427.79	21.061
428.15	20.890
428.50	21.124
428.85	21.183
429.21	22.021
429.56	21.323
429.92	22.162
430.27	21.301
430.62	21.593
430.98	21.299
431.33	21.163
431.68	21.456
432.04	21.432
432.39	22.389
432.74	21.005
433.10	21.471
433.45	21.851
433.80	21.835
434.16	21.746
434.51	21.377
434.86	22.910
435.22	22.051
435.57	22.818
435.92	22.315
436.28	21.388
436.63	22.556
436.98	21.578
437.34	22.717
437.69	21.409
438.04	22.158
438.39	20.850
438.75	21.970
439.10	22.410
439.45	21.576
439.81	22.486
440.16	21.180
440.51	21.237
440.86	22.290
441.22	22.830
441.57	21.855
441.92	22.551
442.27	22.879
442.63	22.206
442.98	21.772
443.33	22.620
443.68	22.349
444.03	23.095
444.39	23.024
444.74	22.716
445.09	22.149
445.44	22.392
445.79	23.372
446.15	22.765
446.50	22.222
446.85	22.033
447.20	22.292
447.55	22.803
447.91	21.623
448.26	22.199
448.61	21.998
448.96	23.498
449.31	23.118
449.66	20.915
450.02	22.152
450.37	23.015
450.72	22.121
451.07	22.665
451.42	22.126
451.77	22.624
452.12	22.122
452.47	21.212
452.83	22.691
453.18	21.658
453.53	22.229
453.88	22.971
454.23	22.147
454.58	22.751
454.93	21.177
455.28	21.794
455.63	21.660
455.98	22.402
456.34	22.968
456.69	21.752
457.04	21.217
457.39	22.395
457.74	21.980
458.09	21.142
458.44	21.767
458.79	22.383
459.14	22.601
459.49	21.732
459.84	22.246
460.19	20.877
460.54	22.544
460.89	22.128
461.24	20.747
461.59	21.195
461.94	20.878
462.29	21.165
462.64	22.209
462.99	21.155
463.34	22.258
463.69	21.805
464.04	22.290
464.39	21.300
464.74	21.665
465.09	21.799
465.44	22.479
465.79	21.682
466.14	20.948
466.49	21.842
466.84	21.543
467.19	21.156
467.54	20.975
467.89	21.609
468.24	20.942
468.59	20.208
468.94	21.270
469.29	21.116
469.64	20.852
469.99	21.479
470.34	22.339
470.68	21.599
471.03	22.659
471.38	21.714
471.73	21.261
472.08	21.827
472.43	21.312
472.78	21.725
473.13	21.934
473.48	21.994
473.83	22.403
474.17	21.395
474.52	21.167
474.87	21.484
475.22	21.915
475.57	21.340
475.92	21.354
476.27	22.045
476.61	21.340
476.96	21.846
477.31	22.129
477.66	22.718
478.01	21.251
478.36	21.884
478.70	22.167
479.05	21.779
479.40	22.063
479.75	22.094
480.10	21.743
480.45	22.334
480.79	21.905
481.14	20.956
481.49	20.672
481.84	21.932
482.19	21.978
482.53	22.213
482.88	22.153
483.23	22.232
483.58	21.616
483.92	21.587
484.27	21.423
484.62	20.627
484.97	22.240
485.31	21.436
485.66	19.498
486.01	19.446
486.36	19.976
486.70	20.488
487.05	21.097
487.40	20.943
487.75	20.560
488.09	21.358
488.44	20.777
488.79	20.371
489.13	20.746
489.48	20.621
489.83	20.724
490.17	20.859
490.52	20.608
490.87	20.854
491.22	21.101
491.56	20.904
491.91	21.675
492.26	21.246
492.60	20.770
492.95	21.588
493.30	20.574
493.64	21.025
493.99	20.570
494.34	20.078
494.68	20.728
495.03	20.837
495.37	20.284
495.72	20.181
496.07	20.158
496.41	20.463
496.76	20.475
497.11	20.637
497.45	20.069
497.80	20.480
498.14	20.227
498.49	21.324
498.84	20.338
499.18	19.973
499.53	20.717
499.87	20.308
500.22	19.323
500.56	20.108
500.91	20.549
501.26	21.318
501.60	20.194
501.95	19.974
502.29	21.194
502.64	20.726
502.98	20.276
503.33	19.914
503.67	20.192
504.02	20.578
504.36	20.822
504.71	21.314
505.06	20.509
505.40	20.110
505.75	21.084
506.09	20.948
506.44	20.845
506.78	20.826
507.13	21.346
507.47	21.601
507.82	20.644
508.16	21.080
508.51	21.238
508.85	21.634
509.19	20.085
509.54	20.893
509.88	21.127
510.23	21.807
510.57	21.411
510.92	21.626
511.26	21.068
511.61	20.618
511.95	20.742
512.30	21.172
512.64	21.239
512.98	21.511
513.33	21.623
513.67	21.316
514.02	21.921
514.36	21.790
514.70	21.771
515.05	22.106
515.39	21.785
515.74	21.792
516.08	21.870
516.42	22.292
516.77	21.346
517.11	21.815
517.46	21.951
517.80	22.448
518.14	22.361
518.49	22.234
518.83	21.980
519.17	21.648
519.52	21.436
519.86	22.756
520.20	22.311
520.55	22.289
520.89	22.579
521.23	21.776
521.58	23.446
521.92	22.040
522.26	22.566
522.61	23.206
522.95	23.183
523.29	23.161
523.64	22.534
523.98	22.647
524.32	23.209
524.66	23.108
525.01	22.197
525.35	22.114
525.69	22.622
526.04	22.905
526.38	23.333
526.72	23.241
527.06	22.463
527.41	23.090
527.75	22.684
528.09	22.727
528.43	22.617
528.78	21.734
529.12	22.534
529.46	22.372
529.80	22.140
530.15	22.725
530.49	21.767
530.83	22.432
531.17	22.461
531.51	22.142
531.86	22.175
532.20	22.744
532.54	22.561
532.88	22.182
533.22	21.509
533.57	22.100
533.91	21.773
534.25	22.272
534.59	21.954
534.93	21.958
535.27	22.648
535.62	22.911
535.96	22.138
536.30	22.327
536.64	22.703
536.98	22.079
537.32	22.593
537.66	22.396
538.01	21.752
538.35	21.315
538.69	21.454
539.03	22.747
539.37	22.438
539.71	22.703
540.05	22.542
540.39	21.149
540.73	21.676
541.07	21.827
541.42	21.796
541.76	21.115
542.10	21.049
542.44	20.767
542.78	21.959
543.12	20.977
543.46	21.917
543.80	21.283
544.14	21.245
544.48	21.572
544.82	22.442
545.16	22.540
545.50	21.090
545.84	20.269
546.18	21.605
546.52	21.911
546.86	21.761
547.20	21.756
547.54	20.849
547.88	21.157
548.22	19.766
548.56	21.006
548.90	20.836
549.24	19.635
549.58	20.757
549.92	20.918
550.26	21.553
550.60	20.613
550.94	21.281
551.28	21.848
551.62	21.698
551.96	21.294
552.30	21.351
552.64	21.344
552.98	20.961
553.32	20.965
553.66	20.643
554.00	20.807
554.34	19.949
554.68	20.400
555.02	20.696
555.36	20.776
555.69	19.539
556.03	20.555
556.37	21.151
556.71	21.116
557.05	20.831
557.39	21.433
557.73	20.343
558.07	20.066
558.41	21.063
558.75	21.704
559.08	21.573
559.42	20.645
559.76	20.217
560.10	20.496
560.44	20.185
560.78	21.250
561.12	20.443
561.45	21.107
561.79	20.391
562.13	21.134
562.47	19.667
562.81	20.380
563.15	20.013
563.48	20.758
563.82	19.710
564.16	19.019
564.50	18.355
564.84	19.705
565.17	19.882
565.51	18.239
565.85	19.359
566.19	19.528
566.52	19.836
566.86	19.468
567.20	19.086
567.54	18.853
567.88	19.725
568.21	19.071
568.55	18.753
568.89	18.656
569.23	18.885
569.56	18.601
569.90	18.603
570.24	17.673
570.57	18.441
570.91	17.728
571.25	17.645
571.59	18.007
571.92	17.724
572.26	17.708
572.60	17.199
572.93	17.534
573.27	17.533
573.61	17.364
573.95	17.261
574.28	16.982
574.62	17.417
574.96	16.564
575.29	16.854
575.63	16.886
575.97	16.910
576.30	16.852
576.64	16.535
576.98	16.948
577.31	16.842
577.65	16.880
577.98	16.924
578.32	16.308
578.66	16.566
578.99	16.486
579.33	16.585
579.67	16.070
580.00	16.678
580.34	16.252
580.67	15.931
581.01	16.443
581.35	16.521
581.68	16.167
582.02	16.417
582.35	16.639
582.69	16.695
583.02	16.090
583.36	16.328
583.70	16.360
584.03	16.151
584.37	16.588
584.70	16.406
585.04	15.996
585.37	16.328
585.71	16.440
586.04	16.380
586.38	16.458
586.72	16.370
587.05	16.654
587.39	16.006
587.72	16.340
588.06	16.804
588.39	16.256
588.73	16.614
589.06	16.817
589.40	16.472
589.73	16.742
590.07	17.142
590.40	17.072
590.73	16.755
591.07	16.828
591.40	16.602
591.74	16.812
592.07	16.484
592.41	16.364
592.74	16.471
593.08	16.911
593.41	16.565
593.75	16.207
594.08	16.450
594.41	16.474
594.75	16.240
595.08	15.848
595.42	16.623
595.75	16.274
596.09	16.401
596.42	16.912
596.75	16.442
597.09	17.010
597.42	16.806
597.75	16.229
598.09	16.587
598.42	17.008
598.76	15.438
599.09	15.557
599.42	15.924
599.76	16.309
600.09	16.884
600.42	16.250
600.76	16.116
601.09	16.196
601.42	15.688
601.76	16.103
602.09	16.226
602.42	16.212
602.76	16.642
603.09	16.483
603.42	16.149
603.76	16.103
604.09	16.395
604.42	15.633
604.76	16.400
605.09	16.115
605.42	15.750
605.75	16.038
606.09	16.200
606.42	15.578
606.75	15.930
607.09	15.207
607.42	15.954
607.75	16.022
608.08	15.983
608.42	15.840
608.75	16.086
609.08	16.171
609.41	16.101
609.75	15.089
610.08	16.227
610.41	15.166
610.74	15.756
611.07	16.297
611.41	16.457
611.74	15.797
612.07	16.082
612.40	16.017
612.73	16.088
613.07	15.648
613.40	16.314
613.73	15.888
614.06	16.143
614.39	15.355
614.72	16.060
615.06	15.592
615.39	15.756
615.72	16.351
616.05	15.347
616.38	16.398
616.71	16.510
617.05	16.507
617.38	16.640
617.71	16.145
618.04	15.866
618.37	15.956
618.70	16.290
619.03	15.591
619.36	16.708
619.69	16.720
620.03	15.882
620.36	15.706
620.69	16.039
621.02	15.879
621.35	16.909
621.68	16.703
622.01	15.587
622.34	15.830
622.67	16.770
623.00	16.397
623.33	16.191
623.66	16.472
623.99	16.129
624.32	17.024
624.65	15.701
624.99	16.775
625.32	17.701
625.65	17.195
625.98	15.051
626.31	16.867
626.64	16.850
626.97	15.679
627.30	16.477
627.63	15.979
627.96	17.643
628.29	17.354
628.62	16.877
628.95	16.740
629.28	15.548
629.61	16.751
629.94	17.238
630.26	15.847
630.59	18.135
630.92	16.710
631.25	16.995
631.58	17.137
631.91	15.839
632.24	17.099
632.57	17.457
632.90	16.449
633.23	16.939
633.56	16.429
633.89	15.289
634.22	17.879
634.55	17.015
634.88	16.342
635.20	17.546
635.53	15.819
