SpectraSuite Data File
++++++++++++++++++++++++++++++++++++
Date: Thu May 14 16:02:58 PDT 2015
User: schluterlab
Dark Spectrum Present: Yes
Reference Spectrum Present: Yes
Number of Sampled Component Spectra: 1
Spectrometers: USB2E3373
Integration Time (usec): 3000 (USB2E3373)
Spectra Averaged: 3 (USB2E3373)
Boxcar Smoothing: 0 (USB2E3373)
Correct for Electrical Dark: No (USB2E3373)
Strobe/Lamp Enabled: No (USB2E3373)
Correct for Detector Non-linearity: No (USB2E3373)
Correct for Stray Light: No (USB2E3373)
Number of Pixels in Processed Spectrum: 2048
>>>>>Begin Processed Spectral Data<<<<<
178.53	0.000
178.91	228.571
179.29	-2500.000
179.67	-2200.000
180.04	171.429
180.42	170.000
180.80	340.000
181.18	-1400.000
181.56	-1000.000
181.94	175.000
182.31	-75.000
182.69	533.333
183.07	-900.000
183.45	300.000
183.83	-116.667
184.20	-333.333
184.58	1700.000
184.96	-625.000
185.34	-155.556
185.72	-180.000
186.09	255.556
186.47	1450.000
186.85	400.000
187.23	-222.222
187.61	-2600.000
187.98	380.000
188.36	575.000
188.74	-300.000
189.12	-400.000
189.49	-68.750
189.87	-287.500
190.25	-77.778
190.63	-240.000
191.00	-222.222
191.38	0.000
191.76	-675.000
192.14	-266.667
192.51	950.000
192.89	-166.667
193.27	0.000
193.65	-257.143
194.02	-2900.000
194.40	-142.857
194.78	214.286
195.15	0.000
195.53	-54.545
195.91	0.000
196.29	-325.000
196.66	-130.769
197.04	-1300.000
197.42	-214.286
197.79	-1000.000
198.17	-162.500
198.55	-285.714
198.92	-11.111
199.30	-112.500
199.68	9.091
200.05	-35.714
200.43	-950.000
200.81	371.429
201.18	0.000
201.56	144.444
201.94	0.000
202.31	833.333
202.69	-166.667
203.07	1000.000
203.44	-133.333
203.82	-275.000
204.19	-50.000
204.57	-150.000
204.95	-125.000
205.32	-1900.000
205.70	425.000
206.08	-233.333
206.45	-100.000
206.83	380.000
207.20	-100.000
207.58	-340.000
207.96	-383.333
208.33	-316.667
208.71	150.000
209.08	-83.333
209.46	0.000
209.84	283.333
210.21	600.000
210.59	750.000
210.96	700.000
211.34	-400.000
211.71	-262.500
212.09	-1500.000
212.46	0.000
212.84	1250.000
213.22	-540.000
213.59	-300.000
213.97	-140.000
214.34	-500.000
214.72	366.667
215.09	-425.000
215.47	0.000
215.84	185.714
216.22	1150.000
216.59	-240.000
216.97	-340.000
217.34	-350.000
217.72	-162.500
218.09	-650.000
218.47	-600.000
218.84	0.000
219.22	460.000
219.59	-94.118
219.97	0.000
220.34	750.000
220.72	-133.333
221.09	-7.692
221.47	-566.667
221.84	-130.000
222.22	-257.143
222.59	0.000
222.97	-12.500
223.34	-380.000
223.72	-2000.000
224.09	-250.000
224.46	-400.000
224.84	-240.000
225.21	-257.143
225.59	-700.000
225.96	-500.000
226.34	-65.385
226.71	450.000
227.08	-850.000
227.46	-40.000
227.83	-550.000
228.21	10.526
228.58	250.000
228.95	750.000
229.33	-41.667
229.70	-160.000
230.08	-26.316
230.45	200.000
230.82	-400.000
231.20	-85.714
231.57	-33.333
231.95	-118.182
232.32	-118.182
232.69	-55.000
233.07	-225.000
233.44	-23.529
233.81	-140.000
234.19	-66.667
234.56	-63.636
234.93	-27.586
235.31	-57.895
235.68	-94.444
236.05	-120.000
236.43	-19.231
236.80	0.000
237.17	-37.037
237.55	-30.303
237.92	-220.000
238.29	-51.613
238.67	-31.818
239.04	-44.444
239.41	-40.476
239.79	-15.217
240.16	-25.926
240.53	-15.217
240.91	-37.255
241.28	-11.475
241.65	-22.388
242.02	-5.405
242.40	-23.077
242.77	-17.333
243.14	-19.512
243.51	-27.632
243.89	-30.769
244.26	-6.931
244.63	-9.804
245.00	-14.019
245.38	-14.035
245.75	-22.124
246.12	-12.698
246.49	-12.403
246.87	-7.143
247.24	-9.272
247.61	-9.211
247.98	-10.067
248.36	-7.407
248.73	-9.816
249.10	-12.568
249.47	-2.488
249.84	-2.094
250.22	-10.881
250.59	-12.222
250.96	-2.273
251.33	-11.224
251.70	-3.846
252.08	-0.833
252.45	-0.820
252.82	-5.372
253.19	-4.297
253.56	-8.745
253.94	-6.154
254.31	-3.788
254.68	-2.797
255.05	-2.932
255.42	-5.782
255.79	-7.120
256.16	-5.960
256.54	-6.291
256.91	-5.246
257.28	-4.590
257.65	-6.051
258.02	-5.310
258.39	-3.419
258.76	-2.752
259.14	-0.862
259.51	-2.882
259.88	-4.533
260.25	-1.667
260.62	-2.466
260.99	-2.459
261.36	-2.949
261.73	-4.775
262.10	-2.747
262.47	-2.413
262.85	1.768
263.22	-5.714
263.59	-7.632
263.96	-1.790
264.33	-3.836
264.70	-3.704
265.07	0.000
265.44	0.227
265.81	-3.009
266.18	-2.041
266.55	-2.902
266.92	-4.556
267.29	-1.969
267.66	-1.996
268.03	-3.275
268.40	-1.253
268.77	-3.645
269.14	-4.846
269.51	-2.412
269.88	0.205
270.25	-1.408
270.62	-2.532
270.99	-0.606
271.36	-0.990
271.73	-2.161
272.10	0.200
272.47	-2.004
272.84	-1.807
273.21	-3.607
273.58	-2.016
273.95	-3.269
274.32	-3.232
274.69	-1.741
275.06	-1.099
275.43	-2.588
275.80	0.882
276.17	-2.963
276.54	-2.052
276.91	-2.326
277.28	-1.808
277.65	-1.436
278.02	-2.390
278.39	-1.630
278.76	-3.163
279.13	-3.723
279.50	-0.344
279.87	-0.894
280.23	-4.225
280.60	-1.525
280.97	-1.151
281.34	-3.226
281.71	1.015
282.08	-1.993
282.45	-1.637
282.82	-3.768
283.19	-1.777
283.56	-0.984
283.92	0.150
284.29	-0.316
284.66	-1.642
285.03	-3.526
285.40	-1.391
285.77	-0.464
286.14	-1.069
286.51	-1.370
286.87	-3.318
287.24	-1.355
287.61	-0.897
287.98	-2.266
288.35	-1.775
288.72	-1.183
289.08	-1.464
289.45	-2.663
289.82	-1.506
290.19	-2.011
290.56	-1.268
290.93	-1.427
291.29	-0.826
291.66	-1.928
292.03	-1.900
292.40	-0.408
292.77	-1.078
293.13	-1.218
293.50	-2.365
293.87	-2.953
294.24	-1.200
294.60	0.126
294.97	-1.477
295.34	0.256
295.71	-1.639
296.08	-1.421
296.44	-1.471
296.81	-2.192
297.18	-0.996
297.55	-0.825
297.91	-1.186
298.28	-3.081
298.65	-0.832
299.02	-2.361
299.38	-0.915
299.75	-0.935
300.12	-1.620
300.48	-1.152
300.85	-0.562
301.22	-1.007
301.59	-0.457
301.95	-0.226
302.32	0.333
302.69	-1.095
303.05	-0.653
303.42	-1.441
303.79	-1.354
304.15	-0.946
304.52	-0.529
304.89	-0.733
305.25	-0.828
305.62	-1.358
305.99	0.619
306.35	-0.403
306.72	-1.034
307.09	-0.812
307.45	-0.725
307.82	0.000
308.19	-0.404
308.55	0.096
308.92	-1.071
309.29	-0.192
309.65	-1.072
310.02	-1.287
310.38	-1.378
310.75	-1.165
311.12	-1.055
311.48	-1.271
311.85	-0.380
312.22	-0.380
312.58	-0.376
312.95	-1.147
313.31	-0.361
313.68	-0.275
314.05	0.361
314.41	0.273
314.78	-0.454
315.14	-1.361
315.51	-1.016
315.87	0.540
316.24	0.731
316.61	0.710
316.97	-0.995
317.34	-0.794
317.70	0.437
318.07	-1.323
318.43	0.425
318.80	1.087
319.16	-0.858
319.53	-1.457
319.89	-0.964
320.26	0.534
320.62	-0.089
320.99	-1.200
321.35	-1.017
321.72	-0.093
322.08	-0.992
322.45	0.271
322.81	-0.451
323.18	-1.239
323.54	-0.776
323.91	-0.801
324.27	-0.688
324.64	0.252
325.00	-0.663
325.37	-0.082
325.73	0.331
326.10	0.487
326.46	1.384
326.83	0.560
327.19	0.157
327.56	0.079
327.92	-1.023
328.29	-0.403
328.65	0.251
329.01	0.169
329.38	0.674
329.74	-0.428
330.11	0.942
330.47	-0.253
330.84	-0.345
331.20	0.583
331.56	0.260
331.93	1.004
332.29	0.508
332.66	0.249
333.02	-0.168
333.38	0.336
333.75	-0.084
334.11	0.584
334.48	0.660
334.84	0.000
335.20	0.000
335.57	0.759
335.93	0.826
336.29	-0.499
336.66	-0.252
337.02	0.251
337.38	0.340
337.75	-1.157
338.11	-0.084
338.47	0.331
338.84	-0.508
339.20	-1.179
339.56	0.906
339.93	0.000
340.29	0.886
340.65	0.081
341.02	0.958
341.38	1.213
341.74	-0.484
342.11	-0.080
342.47	0.079
342.83	0.644
343.20	-0.164
343.56	-0.401
343.92	0.160
344.28	0.391
344.65	0.620
345.01	0.390
345.37	1.166
345.73	-0.312
346.10	0.000
346.46	0.079
346.82	1.124
347.19	0.917
347.55	0.835
347.91	0.000
348.27	0.455
348.63	0.609
349.00	0.597
349.36	0.669
349.72	0.372
350.08	1.040
350.45	0.076
350.81	-0.075
351.17	0.526
351.53	0.531
351.89	0.380
352.26	0.746
352.62	-0.448
352.98	-0.611
353.34	-0.075
353.70	-0.616
354.07	0.298
354.43	0.076
354.79	-0.374
355.15	-0.368
355.51	0.804
355.87	-0.075
356.24	0.076
356.60	-0.591
356.96	0.074
357.32	-0.297
357.68	-0.732
358.04	-0.749
358.40	-0.746
358.77	0.731
359.13	-0.591
359.49	-1.115
359.85	-0.145
360.21	-0.143
360.57	-0.359
360.93	-0.423
361.29	0.421
361.66	0.000
362.02	0.557
362.38	0.000
362.74	-0.070
363.10	0.550
363.46	-0.970
363.82	-0.142
364.18	-0.422
364.54	0.069
364.90	0.401
365.26	-0.276
365.62	0.867
365.98	-0.136
366.35	0.201
366.71	0.816
367.07	-0.135
367.43	0.919
367.79	0.000
368.15	0.736
368.51	0.203
368.87	-0.261
369.23	-0.333
369.59	-0.068
369.95	-0.068
370.31	0.473
370.67	0.275
371.03	0.000
371.39	-0.067
371.75	-0.069
372.11	-0.136
372.47	-0.271
372.83	0.524
373.19	0.534
373.55	-0.068
373.91	-0.750
374.27	0.453
374.63	0.000
374.99	0.133
375.35	0.130
375.71	0.000
376.07	0.194
376.42	0.315
376.78	0.186
377.14	0.749
377.50	-0.380
377.86	0.246
378.22	0.240
378.58	0.595
378.94	0.646
379.30	0.469
379.66	0.294
380.02	0.173
380.38	0.288
380.74	0.225
381.09	0.348
381.45	0.341
381.81	0.351
382.17	0.416
382.53	-0.292
382.89	0.113
383.25	0.176
383.61	0.000
383.97	0.000
384.32	0.837
384.68	-0.406
385.04	0.405
385.40	0.295
385.76	0.352
386.12	0.239
386.48	0.353
386.83	0.834
387.19	-0.232
387.55	-0.059
387.91	0.228
388.27	0.404
388.62	0.286
388.98	0.902
389.34	0.177
389.70	0.232
390.06	0.651
390.42	0.301
390.77	0.602
391.13	-0.176
391.49	0.966
391.85	0.000
392.20	0.237
392.56	1.004
392.92	0.491
393.28	0.387
393.64	0.056
393.99	0.523
394.35	0.058
394.71	0.359
395.07	-1.257
395.42	0.286
395.78	0.488
396.14	0.832
396.50	0.416
396.85	0.894
397.21	0.000
397.57	0.471
397.92	0.630
398.28	-0.272
398.64	-0.172
399.00	0.209
399.35	0.314
399.71	-0.054
400.07	0.281
400.42	0.466
400.78	-0.405
401.14	0.626
401.49	0.341
401.85	-0.116
402.21	0.637
402.57	0.704
402.92	0.118
403.28	0.644
403.63	-0.060
403.99	-0.238
404.35	1.137
404.70	0.283
405.06	0.217
405.42	0.234
405.77	0.545
406.13	0.324
406.49	-0.450
406.84	0.554
407.20	0.559
407.55	-0.363
407.91	0.440
408.27	0.530
408.62	0.407
408.98	0.638
409.34	-0.411
409.69	-0.124
410.05	0.703
410.40	0.058
410.76	0.168
411.11	0.584
411.47	0.246
411.83	0.588
412.18	0.301
412.54	0.237
412.89	0.291
413.25	0.056
413.60	0.115
413.96	0.524
414.31	0.340
414.67	0.417
415.03	0.862
415.38	0.504
415.74	0.855
416.09	0.432
416.45	0.501
416.80	0.306
417.16	1.086
417.51	0.685
417.87	0.797
418.22	0.359
418.58	0.620
418.93	1.455
419.29	-0.123
419.64	0.300
420.00	0.178
420.35	0.561
420.71	0.172
421.06	0.633
421.42	0.573
421.77	0.269
422.12	1.057
422.48	0.768
422.83	0.767
423.19	0.902
423.54	0.885
423.90	0.718
424.25	1.280
424.61	0.000
424.96	0.934
425.31	1.274
425.67	0.698
426.02	0.277
426.38	-0.115
426.73	0.279
427.09	1.096
427.44	0.328
427.79	0.663
428.15	0.571
428.50	0.449
428.85	0.689
429.21	1.011
429.56	0.049
429.92	0.737
430.27	0.289
430.62	0.733
430.98	0.689
431.33	0.684
431.68	-0.192
432.04	0.508
432.39	0.643
432.74	0.171
433.10	0.811
433.45	0.390
433.80	0.536
434.16	0.465
434.51	0.051
434.86	0.597
435.22	0.691
435.57	0.413
435.92	0.835
436.28	0.057
436.63	0.655
436.98	0.859
437.34	0.620
437.69	0.220
438.04	0.476
438.39	-0.172
438.75	-0.221
439.10	0.740
439.45	0.727
439.81	0.452
440.16	0.268
440.51	0.613
440.86	0.278
441.22	0.429
441.57	0.577
441.92	0.970
442.27	0.556
442.63	0.845
442.98	0.961
443.33	0.736
443.68	0.991
444.03	1.552
444.39	1.110
444.74	0.766
445.09	1.115
445.44	0.421
445.79	1.149
446.15	0.925
446.50	0.413
446.85	1.265
447.20	1.015
447.55	0.941
447.91	0.366
448.26	0.581
448.61	1.169
448.96	1.073
449.31	0.477
449.66	0.436
450.02	1.108
450.37	1.066
450.72	0.484
451.07	0.285
451.42	0.462
451.77	0.334
452.12	0.677
452.47	0.416
452.83	0.507
453.18	0.525
453.53	0.230
453.88	0.718
454.23	1.412
454.58	0.290
454.93	0.303
455.28	1.626
455.63	0.853
455.98	1.117
456.34	0.412
456.69	0.412
457.04	0.355
457.39	0.887
457.74	1.174
458.09	0.769
458.44	1.239
458.79	0.413
459.14	0.787
459.49	0.962
459.84	0.839
460.19	-0.333
460.54	0.284
460.89	0.159
461.24	0.460
461.59	1.273
461.94	0.342
462.29	0.672
462.64	0.785
462.99	0.628
463.34	1.103
463.69	0.762
464.04	1.223
464.39	0.392
464.74	1.197
465.09	0.461
465.44	0.966
465.79	0.529
466.14	1.303
466.49	0.947
466.84	0.386
467.19	0.809
467.54	0.764
467.89	0.460
468.24	0.776
468.59	0.347
468.94	-0.233
469.29	0.480
469.64	0.127
469.99	0.000
470.34	0.433
470.68	0.547
471.03	0.196
471.38	0.981
471.73	0.065
472.08	0.825
472.43	1.204
472.78	0.945
473.13	-0.506
473.48	0.906
473.83	0.813
474.17	0.528
474.52	0.120
474.87	1.440
475.22	0.507
475.57	0.571
475.92	0.896
476.27	0.586
476.61	0.987
476.96	0.938
477.31	1.287
477.66	1.207
478.01	0.712
478.36	0.698
478.70	0.739
479.05	0.767
479.40	0.938
479.75	1.489
480.10	0.758
480.45	1.322
480.79	0.862
481.14	0.919
481.49	1.136
481.84	1.480
482.19	0.989
482.53	1.049
482.88	0.975
483.23	0.978
483.58	0.786
483.92	0.576
484.27	0.889
484.62	0.990
484.97	1.322
485.31	1.056
485.66	1.242
486.01	1.459
486.36	1.286
486.70	1.590
487.05	1.268
487.40	1.393
487.75	1.527
488.09	1.240
488.44	1.141
488.79	1.417
489.13	1.557
489.48	0.660
489.83	0.845
490.17	0.891
490.52	1.149
490.87	0.931
491.22	0.953
491.56	1.152
491.91	1.090
492.26	1.212
492.60	1.399
492.95	1.492
493.30	1.031
493.64	1.314
493.99	0.614
494.34	1.045
494.68	0.514
495.03	1.013
495.37	0.755
495.72	0.862
496.07	0.920
496.41	0.944
496.76	1.501
497.11	1.062
497.45	1.079
497.80	1.111
498.14	0.952
498.49	0.873
498.84	0.823
499.18	0.720
499.53	1.211
499.87	1.011
500.22	0.401
500.56	1.125
500.91	0.961
501.26	1.636
501.60	0.619
501.95	1.563
502.29	1.272
502.64	1.049
502.98	1.639
503.33	0.518
503.67	0.654
504.02	1.313
504.36	1.340
504.71	0.781
505.06	1.728
505.40	0.777
505.75	1.457
506.09	1.427
506.44	0.975
506.78	1.514
507.13	0.968
507.47	1.658
507.82	1.326
508.16	0.765
508.51	1.078
508.85	0.661
509.19	0.900
509.54	1.153
509.88	1.068
510.23	0.729
510.57	1.595
510.92	1.016
511.26	0.625
511.61	0.966
511.95	1.464
512.30	1.428
512.64	0.700
512.98	1.151
513.33	1.613
513.67	1.377
514.02	0.971
514.36	1.176
514.70	0.521
515.05	0.938
515.39	1.155
515.74	1.803
516.08	1.426
516.42	1.779
516.77	1.052
517.11	0.361
517.46	1.273
517.80	1.710
518.14	1.469
518.49	0.868
518.83	1.437
519.17	1.023
519.52	1.048
519.86	1.162
520.20	1.757
520.55	1.369
520.89	0.788
521.23	0.838
521.58	1.186
521.92	1.473
522.26	1.031
522.61	1.273
522.95	1.557
523.29	0.690
523.64	1.457
523.98	2.339
524.32	1.662
524.66	1.651
525.01	1.699
525.35	0.804
525.69	1.276
526.04	1.033
526.38	1.437
526.72	1.615
527.06	1.290
527.41	1.633
527.75	1.544
528.09	1.535
528.43	1.125
528.78	0.925
529.12	1.089
529.46	1.349
529.80	1.831
530.15	1.565
530.49	0.415
530.83	1.712
531.17	1.075
531.51	1.625
531.86	2.103
532.20	2.012
532.54	1.376
532.88	1.697
533.22	1.532
533.57	1.616
533.91	2.189
534.25	1.639
534.59	1.494
534.93	0.849
535.27	1.465
535.62	1.762
535.96	2.092
536.30	1.058
536.64	1.922
536.98	2.030
537.32	0.988
537.66	0.936
538.01	1.571
538.35	1.523
538.69	1.442
539.03	1.717
539.37	1.590
539.71	2.042
540.05	1.859
540.39	1.589
540.73	0.971
541.07	1.717
541.42	1.595
541.76	1.542
542.10	1.628
542.44	0.670
542.78	1.277
543.12	1.907
543.46	1.832
543.80	1.679
544.14	1.616
544.48	2.305
544.82	2.035
545.16	1.908
545.50	0.959
545.84	1.531
546.18	2.160
546.52	1.592
546.86	1.950
547.20	1.654
547.54	1.685
547.88	1.386
548.22	1.404
548.56	1.463
548.90	0.657
549.24	1.702
549.58	1.388
549.92	0.765
550.26	2.071
550.60	1.914
550.94	1.811
551.28	1.782
551.62	1.482
551.96	2.330
552.30	2.677
552.64	1.493
552.98	1.123
553.32	1.543
553.66	1.543
554.00	2.207
554.34	1.094
554.68	2.001
555.02	1.511
555.36	2.433
555.69	1.666
556.03	1.639
556.37	2.378
556.71	1.078
557.05	1.342
557.39	0.664
557.73	1.387
558.07	0.795
558.41	2.060
558.75	1.420
559.08	1.740
559.42	1.852
559.76	1.764
560.10	1.139
560.44	2.177
560.78	2.062
561.12	1.847
561.45	2.190
561.79	2.503
562.13	2.157
562.47	1.048
562.81	1.329
563.15	1.389
563.48	2.051
563.82	2.056
564.16	1.030
564.50	1.549
564.84	1.711
565.17	1.588
565.51	1.669
565.85	1.544
566.19	1.210
566.52	1.638
566.86	2.094
567.20	1.523
567.54	1.699
567.88	1.631
568.21	1.779
568.55	1.918
568.89	2.270
569.23	2.155
569.56	2.110
569.90	2.210
570.24	2.159
570.57	2.149
570.91	1.898
571.25	2.227
571.59	2.115
571.92	2.186
572.26	2.303
572.60	2.211
572.93	2.839
573.27	2.220
573.61	2.673
573.95	2.209
574.28	2.429
574.62	2.251
574.96	2.184
575.29	2.379
575.63	2.680
575.97	2.419
576.30	2.196
576.64	2.577
576.98	2.369
577.31	2.562
577.65	2.518
577.98	2.523
578.32	2.464
578.66	2.695
578.99	2.376
579.33	2.534
579.67	2.221
580.00	2.517
580.34	2.749
580.67	2.383
581.01	2.704
581.35	2.396
581.68	2.644
582.02	2.687
582.35	2.499
582.69	2.395
583.02	2.336
583.36	2.423
583.70	2.658
584.03	2.328
584.37	2.394
584.70	2.616
585.04	2.372
585.37	2.232
585.71	2.632
586.04	2.664
586.38	2.553
586.72	2.181
587.05	2.123
587.39	2.568
587.72	2.273
588.06	2.442
588.39	2.614
588.73	2.196
589.06	2.370
589.40	2.213
589.73	2.121
590.07	2.586
590.40	2.671
590.73	2.262
591.07	2.532
591.40	2.061
591.74	2.424
592.07	2.883
592.41	1.893
592.74	2.378
593.08	2.229
593.41	2.508
593.75	2.615
594.08	2.514
594.41	2.853
594.75	2.491
595.08	2.389
595.42	2.403
595.75	2.777
596.09	2.813
596.42	2.401
596.75	2.431
597.09	3.111
597.42	2.106
597.75	2.430
598.09	2.738
598.42	2.975
598.76	2.484
599.09	2.492
599.42	2.179
599.76	2.575
600.09	2.970
600.42	2.870
600.76	2.411
601.09	2.821
601.42	2.163
601.76	2.448
602.09	2.752
602.42	2.326
602.76	2.583
603.09	2.606
603.42	2.204
603.76	2.396
604.09	2.910
604.42	2.165
604.76	2.473
605.09	2.314
605.42	2.472
605.75	2.115
606.09	2.128
606.42	2.554
606.75	2.474
607.09	2.304
607.42	2.505
607.75	2.579
608.08	2.170
608.42	2.378
608.75	2.363
609.08	1.910
609.41	2.250
609.75	2.232
610.08	2.814
610.41	1.997
610.74	2.227
611.07	2.353
611.41	2.511
611.74	2.494
612.07	2.384
612.40	2.044
612.73	1.760
613.07	2.249
613.40	2.743
613.73	1.781
614.06	2.257
614.39	1.749
614.72	2.426
615.06	1.781
615.39	2.030
615.72	2.227
616.05	2.623
616.38	1.312
616.71	2.926
617.05	1.970
617.38	2.568
617.71	2.322
618.04	2.267
618.37	1.858
618.70	2.489
619.03	1.852
619.36	1.726
619.69	1.537
620.03	2.197
620.36	2.331
620.69	1.666
621.02	1.903
621.35	2.032
621.68	2.242
622.01	2.206
622.34	1.395
622.67	1.856
623.00	0.810
623.33	1.593
623.66	2.205
623.99	0.922
624.32	2.664
624.65	1.931
624.99	1.560
625.32	2.221
625.65	2.293
625.98	1.831
626.31	1.630
626.64	2.051
626.97	1.275
627.30	0.683
627.63	1.950
627.96	2.853
628.29	1.712
628.62	1.595
628.95	1.139
629.28	1.189
629.61	2.273
629.94	0.921
630.26	1.186
630.59	1.382
630.92	0.693
631.25	1.878
631.58	2.072
631.91	0.562
632.24	0.480
632.57	1.613
632.90	1.103
633.23	1.020
633.56	2.245
633.89	0.517
634.22	0.312
634.55	1.357
634.88	1.299
635.20	2.799
635.53	0.452
635.86	0.867
636.19	2.757
636.52	1.688
636.85	1.736
637.18	1.559
637.51	0.860
637.83	1.329
638.16	1.498
638.49	0.352
638.82	0.564
639.15	0.115
639.48	2.656
639.81	2.425
640.13	1.060
640.46	-0.364
640.79	0.858
641.12	1.366
641.45	1.255
641.77	2.182
642.10	-1.181
642.43	1.463
642.76	1.220
643.09	0.685
643.41	-1.120
643.74	0.276
644.07	2.345
644.40	0.283
644.73	1.161
645.05	0.147
645.38	0.576
645.71	-0.440
646.04	3.013
646.36	0.876
646.69	1.074
647.02	1.529
647.35	1.069
647.67	-0.483
648.00	-1.274
648.33	1.351
648.66	0.143
648.98	1.361
649.31	1.083
649.64	2.258
649.96	1.592
650.29	-1.113
