SpectraSuite Data File
++++++++++++++++++++++++++++++++++++
Date: Thu May 14 16:00:26 PDT 2015
User: schluterlab
Dark Spectrum Present: Yes
Reference Spectrum Present: Yes
Number of Sampled Component Spectra: 1
Spectrometers: USB2E3373
Integration Time (usec): 3000 (USB2E3373)
Spectra Averaged: 3 (USB2E3373)
Boxcar Smoothing: 0 (USB2E3373)
Correct for Electrical Dark: No (USB2E3373)
Strobe/Lamp Enabled: No (USB2E3373)
Correct for Detector Non-linearity: No (USB2E3373)
Correct for Stray Light: No (USB2E3373)
Number of Pixels in Processed Spectrum: 2048
>>>>>Begin Processed Spectral Data<<<<<
178.53	0.000
178.91	228.571
179.29	-2900.000
179.67	-1500.000
180.04	250.000
180.42	170.000
180.80	480.000
181.18	-1600.000
181.56	-1000.000
181.94	275.000
182.31	-275.000
182.69	433.333
183.07	-400.000
183.45	600.000
183.83	-266.667
184.20	-266.667
184.58	1100.000
184.96	-475.000
185.34	-200.000
185.72	-500.000
186.09	255.556
186.47	1250.000
186.85	540.000
187.23	-233.333
187.61	-2300.000
187.98	380.000
188.36	400.000
188.74	-500.000
189.12	-433.333
189.49	-43.750
189.87	-287.500
190.25	-177.778
190.63	-220.000
191.00	-255.556
191.38	0.000
191.76	-700.000
192.14	-300.000
192.51	500.000
192.89	0.000
193.27	0.000
193.65	-214.286
194.02	-2900.000
194.40	-271.429
194.78	342.857
195.15	0.000
195.53	-118.182
195.91	0.000
196.29	-400.000
196.66	-84.615
197.04	-2900.000
197.42	-342.857
197.79	-1100.000
198.17	-337.500
198.55	-328.571
198.92	-100.000
199.30	-187.500
199.68	-63.636
200.05	-50.000
200.43	-850.000
200.81	357.143
201.18	0.000
201.56	255.556
201.94	0.000
202.31	833.333
202.69	-144.444
203.07	1700.000
203.44	-222.222
203.82	-400.000
204.19	-66.667
204.57	-233.333
204.95	-287.500
205.32	-1200.000
205.70	400.000
206.08	-266.667
206.45	-250.000
206.83	380.000
207.20	-316.667
207.58	-520.000
207.96	-250.000
208.33	-183.333
208.71	100.000
209.08	-133.333
209.46	0.000
209.84	350.000
210.21	500.000
210.59	500.000
210.96	533.333
211.34	-425.000
211.71	-187.500
212.09	-1500.000
212.46	0.000
212.84	1250.000
213.22	-320.000
213.59	-325.000
213.97	-170.000
214.34	-800.000
214.72	316.667
215.09	-525.000
215.47	0.000
215.84	342.857
216.22	1250.000
216.59	-300.000
216.97	-400.000
217.34	-375.000
217.72	-137.500
218.09	-400.000
218.47	-500.000
218.84	0.000
219.22	360.000
219.59	-76.471
219.97	-35.000
220.34	950.000
220.72	-155.556
221.09	-115.385
221.47	-633.333
221.84	-210.000
222.22	-257.143
222.59	0.000
222.97	-237.500
223.34	-520.000
223.72	-2100.000
224.09	-425.000
224.46	-550.000
224.84	-420.000
225.21	-300.000
225.59	-525.000
225.96	-500.000
226.34	-23.077
226.71	166.667
227.08	-950.000
227.46	-120.000
227.83	-500.000
228.21	-47.368
228.58	150.000
228.95	1050.000
229.33	-158.333
229.70	-200.000
230.08	-52.632
230.45	220.000
230.82	-600.000
231.20	-121.429
231.57	-50.000
231.95	-81.818
232.32	-63.636
232.69	-45.000
233.07	-275.000
233.44	-82.353
233.81	-150.000
234.19	-55.556
234.56	-50.000
234.93	-48.276
235.31	-100.000
235.68	-100.000
236.05	-140.000
236.43	-15.385
236.80	-32.000
237.17	-88.889
237.55	-39.394
237.92	-210.000
238.29	-38.710
238.67	-18.182
239.04	-22.222
239.41	-38.095
239.79	-28.261
240.16	-11.111
240.53	-2.174
240.91	-29.412
241.28	-6.557
241.65	4.478
242.02	6.757
242.40	-6.154
242.77	2.667
243.14	-13.415
243.51	-11.842
243.89	-1.282
244.26	5.941
244.63	14.706
245.00	4.673
245.38	5.263
245.75	5.310
246.12	14.286
246.49	2.326
246.87	10.714
247.24	14.570
247.61	9.868
247.98	12.081
248.36	14.198
248.73	8.589
249.10	18.033
249.47	22.886
249.84	19.895
250.22	12.953
250.59	15.556
250.96	21.364
251.33	9.694
251.70	17.949
252.08	11.250
252.45	17.623
252.82	19.008
253.19	12.109
253.56	19.772
253.94	15.000
254.31	17.803
254.68	19.580
255.05	17.590
255.42	14.626
255.79	17.152
256.16	19.205
256.54	15.563
256.91	17.049
257.28	17.049
257.65	18.153
258.02	17.994
258.39	15.385
258.76	23.853
259.14	22.126
259.51	19.020
259.88	20.963
260.25	20.556
260.62	22.740
260.99	19.945
261.36	20.107
261.73	18.302
262.10	17.582
262.47	22.252
262.85	22.222
263.22	17.403
263.59	14.211
263.96	19.949
264.33	16.880
264.70	24.444
265.07	19.093
265.44	22.902
265.81	17.824
266.18	19.955
266.55	19.196
266.92	18.907
267.29	21.882
267.66	20.621
268.03	23.362
268.40	19.207
268.77	18.679
269.14	19.604
269.51	23.904
269.88	20.902
270.25	19.517
270.62	20.886
270.99	22.626
271.36	21.782
271.73	19.646
272.10	20.240
272.47	20.040
272.84	20.281
273.21	20.040
273.58	18.548
273.95	17.885
274.32	18.821
274.69	21.470
275.06	20.696
275.43	18.669
275.80	19.753
276.17	19.444
276.54	17.351
276.91	21.109
277.28	19.892
277.65	20.287
278.02	20.037
278.39	17.572
278.76	18.805
279.13	20.390
279.50	20.275
279.87	20.036
280.23	15.669
280.60	18.644
280.97	20.066
281.34	18.336
281.71	20.474
282.08	16.777
282.45	19.640
282.82	20.408
283.19	18.417
283.56	17.705
283.92	21.171
284.29	20.221
284.66	18.883
285.03	17.788
285.40	19.938
285.77	16.563
286.14	21.985
286.51	18.569
286.87	19.905
287.24	21.536
287.61	18.535
287.98	19.184
288.35	17.899
288.72	18.343
289.08	20.205
289.45	19.083
289.82	18.373
290.19	17.960
290.56	18.310
290.93	17.689
291.29	16.529
291.66	18.871
292.03	18.318
292.40	18.231
292.77	16.038
293.13	17.321
293.50	16.426
293.87	18.255
294.24	18.267
294.60	19.090
294.97	16.644
295.34	17.926
295.71	17.276
296.08	15.633
296.44	18.750
296.81	15.469
297.18	17.435
297.55	15.094
297.91	16.489
298.28	15.640
298.65	16.171
299.02	14.522
299.38	17.277
299.75	15.771
300.12	16.782
300.48	15.668
300.85	16.085
301.22	16.219
301.59	16.553
301.95	17.288
302.32	16.111
302.69	16.320
303.05	17.084
303.42	15.188
303.79	16.250
304.15	15.773
304.52	16.490
304.89	16.754
305.25	16.563
305.62	16.405
305.99	16.804
306.35	16.028
306.72	16.856
307.09	16.041
307.45	16.356
307.82	17.154
308.19	15.943
308.55	16.297
308.92	16.164
309.29	15.709
309.65	16.179
310.02	15.941
310.38	16.437
310.75	18.252
311.12	16.491
311.48	15.934
311.85	16.429
312.22	16.224
312.58	17.183
312.95	16.252
313.31	16.712
313.68	16.850
314.05	18.338
314.41	16.576
314.78	16.440
315.14	17.060
315.51	16.436
315.87	17.012
316.24	16.621
316.61	17.940
316.97	17.738
317.34	17.019
317.70	17.031
318.07	16.755
318.43	18.197
318.80	18.227
319.16	15.451
319.53	15.681
319.89	16.477
320.26	17.171
320.62	16.667
320.99	18.929
321.35	18.392
321.72	19.070
322.08	17.042
322.45	17.886
322.81	16.877
323.18	17.522
323.54	18.793
323.91	18.950
324.27	17.556
324.64	17.716
325.00	17.164
325.37	17.363
325.73	18.512
326.10	18.410
326.46	18.974
326.83	19.295
327.19	18.504
327.56	19.209
327.92	18.489
328.29	17.823
328.65	19.012
329.01	18.105
329.38	17.270
329.74	18.750
330.11	19.007
330.47	17.860
330.84	18.174
331.20	17.500
331.56	18.024
331.93	18.326
332.29	18.475
332.66	17.608
333.02	16.583
333.38	16.695
333.75	18.519
334.11	18.182
334.48	17.657
334.84	18.607
335.20	17.884
335.57	17.454
335.93	17.686
336.29	17.304
336.66	17.662
337.02	17.391
337.38	17.857
337.75	16.860
338.11	17.746
338.47	18.445
338.84	17.259
339.20	16.765
339.56	17.298
339.93	17.816
340.29	17.794
340.65	17.356
341.02	18.516
341.38	18.593
341.74	17.272
342.11	18.825
342.47	16.839
342.83	17.633
343.20	18.070
343.56	18.123
343.92	17.614
344.28	17.422
344.65	17.519
345.01	17.161
345.37	17.185
345.73	16.056
346.10	17.785
346.46	17.009
346.82	17.453
347.19	17.571
347.55	17.678
347.91	16.419
348.27	16.995
348.63	16.984
349.00	16.555
349.36	17.175
349.72	16.964
350.08	16.939
350.45	16.046
350.81	17.496
351.17	16.541
351.53	16.376
351.89	17.692
352.26	16.940
352.62	17.090
352.98	16.565
353.34	16.206
353.70	17.488
354.07	17.437
354.43	16.477
354.79	16.380
355.15	16.777
355.51	16.740
355.87	16.156
356.24	16.502
356.60	16.112
356.96	16.457
357.32	16.580
357.68	16.179
358.04	16.841
358.40	15.970
358.77	16.447
359.13	16.913
359.49	14.870
359.85	16.389
360.21	16.643
360.57	16.296
360.93	15.797
361.29	16.982
361.66	16.220
362.02	16.423
362.38	16.093
362.74	16.201
363.10	15.750
363.46	16.828
363.82	16.690
364.18	16.327
364.54	17.012
364.90	16.856
365.26	15.655
365.62	16.667
365.98	17.427
366.35	16.846
366.71	16.122
367.07	17.050
367.43	16.678
367.79	16.855
368.15	16.856
368.51	15.900
368.87	15.872
369.23	15.933
369.59	16.120
369.95	16.768
370.31	16.745
370.67	16.575
371.03	17.729
371.39	16.185
371.75	16.162
372.11	16.328
372.47	17.739
372.83	16.558
373.19	16.411
373.55	16.057
373.91	16.633
374.27	15.653
374.63	16.779
374.99	16.180
375.35	17.078
375.71	16.194
376.07	16.139
376.42	16.436
376.78	16.532
377.14	16.095
377.50	15.750
377.86	16.318
378.22	16.527
378.58	16.825
378.94	15.610
379.30	16.696
379.66	15.932
380.02	16.445
380.38	15.841
380.74	16.282
381.09	16.551
381.45	16.534
381.81	17.213
382.17	17.399
382.53	16.842
382.89	16.648
383.25	15.944
383.61	16.435
383.97	16.726
384.32	17.045
384.68	15.661
385.04	16.136
385.40	16.735
385.76	16.940
386.12	17.355
386.48	16.941
386.83	16.925
387.19	16.222
387.55	16.725
387.91	16.438
388.27	17.898
388.62	16.953
388.98	16.638
389.34	16.853
389.70	16.153
390.06	16.696
390.42	16.325
390.77	16.918
391.13	16.491
391.49	17.512
391.85	15.939
392.20	15.777
392.56	17.661
392.92	17.285
393.28	16.694
393.64	16.313
393.99	16.909
394.35	17.231
394.71	16.766
395.07	16.467
395.42	17.019
395.78	17.489
396.14	17.291
396.50	16.805
396.85	16.219
397.21	16.213
397.57	16.137
397.92	17.698
398.28	15.915
398.64	15.847
399.00	16.230
399.35	17.330
399.71	16.522
400.07	17.631
400.42	16.997
400.78	16.898
401.14	16.221
401.49	16.941
401.85	16.279
402.21	16.280
402.57	17.077
402.92	16.785
403.28	16.628
403.63	16.169
403.99	16.686
404.35	16.998
404.70	16.714
405.06	16.467
405.42	16.569
405.77	17.012
406.13	16.856
406.49	17.061
406.84	16.787
407.20	17.328
407.55	16.778
407.91	17.285
408.27	17.079
408.62	17.277
408.98	17.411
409.34	16.657
409.69	17.058
410.05	16.647
410.40	17.691
410.76	17.162
411.11	16.657
411.47	16.830
411.83	17.343
412.18	17.651
412.54	17.546
412.89	17.229
413.25	16.366
413.60	17.002
413.96	16.725
414.31	16.317
414.67	17.293
415.03	16.615
415.38	17.844
415.74	16.616
416.09	16.841
416.45	17.345
416.80	17.319
417.16	16.731
417.51	16.999
417.87	17.535
418.22	17.725
418.58	16.729
418.93	18.044
419.29	17.324
419.64	16.807
420.00	17.567
420.35	17.181
420.71	17.231
421.06	17.769
421.42	17.202
421.77	16.586
422.12	17.072
422.48	17.307
422.83	17.360
423.19	17.294
423.54	16.869
423.90	17.228
424.25	17.600
424.61	17.164
424.96	17.902
425.31	17.675
425.67	17.767
426.02	17.432
426.38	17.336
426.73	17.801
427.09	17.301
427.44	17.149
427.79	17.137
428.15	17.637
428.50	17.303
428.85	17.394
429.21	17.553
429.56	17.029
429.92	17.789
430.27	16.771
430.62	17.294
430.98	17.462
431.33	17.253
431.68	17.098
432.04	17.826
432.39	17.193
432.74	17.637
433.10	17.739
433.45	16.834
433.80	17.650
434.16	17.769
434.51	16.752
434.86	17.915
435.22	18.013
435.57	17.453
435.92	17.362
436.28	17.520
436.63	17.914
436.98	17.445
437.34	17.418
437.69	17.501
438.04	17.187
438.39	17.748
438.75	16.491
439.10	17.970
439.45	17.552
439.81	17.910
440.16	17.962
440.51	18.283
440.86	16.732
441.22	18.006
441.57	17.767
441.92	17.119
442.27	17.222
442.63	17.933
442.98	17.663
443.33	18.096
443.68	17.790
444.03	18.627
444.39	19.279
444.74	17.815
445.09	16.929
445.44	17.703
445.79	18.151
446.15	17.934
446.50	18.295
446.85	17.996
447.20	18.424
447.55	17.521
447.91	17.120
448.26	17.389
448.61	17.375
448.96	18.455
449.31	18.293
449.66	17.429
450.02	17.563
450.37	18.380
450.72	17.653
451.07	17.654
451.42	17.851
451.77	17.565
452.12	17.551
452.47	17.885
452.83	17.905
453.18	17.513
453.53	17.002
453.88	17.559
454.23	18.588
454.58	18.108
454.93	17.233
455.28	18.302
455.63	17.737
455.98	18.045
456.34	18.316
456.69	18.225
457.04	17.908
457.39	17.683
457.74	18.009
458.09	16.804
458.44	18.050
458.79	17.947
459.14	17.934
459.49	17.431
459.84	18.363
460.19	17.102
460.54	17.717
460.89	17.893
461.24	17.874
461.59	18.207
461.94	16.543
462.29	17.581
462.64	17.622
462.99	17.828
463.34	17.975
463.69	17.585
464.04	18.344
464.39	18.722
464.74	17.845
465.09	17.705
465.44	17.597
465.79	18.244
466.14	17.770
466.49	17.421
466.84	18.182
467.19	18.671
467.54	16.686
467.89	17.759
468.24	17.839
468.59	17.603
468.94	16.900
469.29	17.157
469.64	17.673
469.99	16.890
470.34	17.884
470.68	17.088
471.03	18.468
471.38	18.182
471.73	18.336
472.08	18.020
472.43	17.760
472.78	18.703
473.13	18.584
473.48	18.248
473.83	19.037
474.17	17.878
474.52	18.761
474.87	18.051
475.22	18.141
475.57	17.965
475.92	18.218
476.27	18.584
476.61	18.120
476.96	16.893
477.31	18.168
477.66	18.206
478.01	18.048
478.36	18.245
478.70	17.931
479.05	18.252
479.40	18.164
479.75	19.164
480.10	18.143
480.45	18.004
480.79	18.639
481.14	17.877
481.49	17.856
481.84	18.233
482.19	18.323
482.53	17.665
482.88	18.742
483.23	18.319
483.58	18.079
483.92	17.287
484.27	18.078
484.62	17.863
484.97	18.468
485.31	17.036
485.66	16.716
486.01	16.990
486.36	17.067
486.70	17.421
487.05	18.225
487.40	17.855
487.75	18.601
488.09	18.174
488.44	18.372
488.79	18.044
489.13	18.103
489.48	16.932
489.83	18.068
490.17	17.254
490.52	17.652
490.87	18.232
491.22	18.371
491.56	18.302
491.91	18.317
492.26	18.131
492.60	18.671
492.95	18.078
493.30	17.974
493.64	18.353
493.99	17.325
494.34	18.118
494.68	17.645
495.03	18.414
495.37	18.154
495.72	18.413
496.07	17.835
496.41	17.932
496.76	18.224
497.11	18.047
497.45	17.264
497.80	17.326
498.14	18.186
498.49	18.336
498.84	17.962
499.18	18.174
499.53	18.610
499.87	18.110
500.22	18.166
500.56	18.578
500.91	18.078
501.26	18.318
501.60	18.118
501.95	18.498
502.29	18.561
502.64	18.714
502.98	18.507
503.33	18.186
503.67	17.837
504.02	18.257
504.36	18.677
504.71	18.006
505.06	18.190
505.40	17.733
505.75	18.488
506.09	18.094
506.44	18.152
506.78	18.624
507.13	18.396
507.47	18.285
507.82	18.040
508.16	17.400
508.51	18.143
508.85	17.997
509.19	18.427
509.54	18.540
509.88	17.727
510.23	18.844
510.57	18.656
510.92	18.336
511.26	18.567
511.61	17.286
511.95	18.692
512.30	19.449
512.64	18.191
512.98	18.709
513.33	19.052
513.67	18.307
514.02	18.498
514.36	19.642
514.70	18.854
515.05	19.187
515.39	19.055
515.74	18.823
516.08	18.225
516.42	19.205
516.77	18.980
517.11	18.618
517.46	19.141
517.80	18.867
518.14	19.206
518.49	18.980
518.83	18.787
519.17	19.225
519.52	18.816
519.86	18.902
520.20	20.128
520.55	18.620
520.89	19.426
521.23	19.989
521.58	19.548
521.92	19.093
522.26	19.015
522.61	19.271
522.95	19.377
523.29	19.425
523.64	18.890
523.98	19.852
524.32	19.713
524.66	19.351
525.01	19.479
525.35	18.208
525.69	18.619
526.04	18.886
526.38	19.080
526.72	19.493
527.06	19.531
527.41	18.892
527.75	19.537
528.09	19.717
528.43	18.946
528.78	19.017
529.12	18.979
529.46	19.112
529.80	19.165
530.15	19.130
530.49	18.980
530.83	19.776
531.17	19.833
531.51	19.495
531.86	19.712
532.20	19.329
532.54	19.210
532.88	18.667
533.22	19.741
533.57	19.908
533.91	19.585
534.25	19.559
534.59	19.655
534.93	19.015
535.27	19.211
535.62	19.500
535.96	19.175
536.30	19.918
536.64	19.099
536.98	19.988
537.32	19.259
537.66	19.775
538.01	18.973
538.35	19.062
538.69	19.712
539.03	19.252
539.37	19.670
539.71	18.799
540.05	19.844
540.39	19.071
540.73	18.761
541.07	19.313
541.42	19.138
541.76	19.098
542.10	19.059
542.44	18.940
542.78	19.161
543.12	18.772
543.46	18.681
543.80	18.705
544.14	18.671
544.48	18.913
544.82	19.150
545.16	18.843
545.50	18.754
545.84	18.983
546.18	19.877
546.52	18.790
546.86	19.245
547.20	18.511
547.54	18.602
547.88	18.746
548.22	18.421
548.56	18.315
548.90	18.030
549.24	18.784
549.58	18.612
549.92	18.878
550.26	18.835
550.60	19.017
550.94	18.952
551.28	19.604
551.62	19.609
551.96	18.835
552.30	19.567
552.64	19.353
552.98	18.653
553.32	19.421
553.66	19.614
554.00	18.663
554.34	19.048
554.68	18.915
555.02	18.660
555.36	19.855
555.69	18.706
556.03	18.537
556.37	19.587
556.71	18.389
557.05	18.786
557.39	18.646
557.73	18.890
558.07	19.272
558.41	18.272
558.75	19.135
559.08	19.415
559.42	18.656
559.76	19.674
560.10	18.017
560.44	18.470
560.78	19.250
561.12	17.672
561.45	18.552
561.79	18.559
562.13	18.792
562.47	18.187
562.81	18.924
563.15	18.308
563.48	19.267
563.82	18.984
564.16	18.171
564.50	18.117
564.84	17.404
565.17	18.353
565.51	18.067
565.85	17.993
566.19	17.454
566.52	18.432
566.86	19.185
567.20	17.999
567.54	18.163
567.88	18.400
568.21	17.787
568.55	17.890
568.89	18.384
569.23	17.617
569.56	17.272
569.90	17.748
570.24	17.234
570.57	17.030
570.91	16.565
571.25	16.691
571.59	17.618
571.92	16.578
572.26	17.020
572.60	16.981
572.93	17.311
573.27	17.224
573.61	16.914
573.95	16.897
574.28	16.702
574.62	16.689
574.96	16.520
575.29	16.369
575.63	16.332
575.97	17.102
576.30	16.580
576.64	16.607
576.98	16.355
577.31	16.448
577.65	16.880
577.98	16.416
578.32	16.253
578.66	16.604
578.99	16.301
579.33	16.919
579.67	16.682
580.00	16.026
580.34	16.732
580.67	16.615
581.01	16.595
581.35	16.365
581.68	16.273
582.02	16.059
582.35	16.409
582.69	16.507
583.02	16.203
583.36	16.718
583.70	16.655
584.03	16.655
584.37	16.860
584.70	16.626
585.04	16.322
585.37	15.996
585.71	16.354
586.04	16.292
586.38	15.994
586.72	16.044
587.05	16.577
587.39	16.106
587.72	16.555
588.06	16.804
588.39	16.306
588.73	16.534
589.06	16.337
589.40	16.380
589.73	16.806
590.07	16.810
590.40	17.039
590.73	16.331
591.07	16.902
591.40	16.641
591.74	16.296
592.07	16.728
592.41	16.916
592.74	16.684
593.08	16.529
593.41	17.002
593.75	16.293
594.08	16.722
594.41	16.891
594.75	16.539
595.08	16.117
595.42	16.494
595.75	16.371
596.09	17.079
596.42	16.482
596.75	16.712
597.09	16.970
597.42	16.408
597.75	16.464
598.09	16.667
598.42	17.049
598.76	16.813
599.09	16.234
599.42	16.091
599.76	16.111
600.09	16.149
600.42	16.250
600.76	16.413
601.09	16.031
601.42	16.547
601.76	16.828
602.09	16.512
602.42	16.067
602.76	15.978
603.09	15.969
603.42	16.113
603.76	16.279
604.09	16.962
604.42	16.073
604.76	16.400
605.09	16.753
605.42	16.268
605.75	16.308
606.09	15.939
606.42	16.053
606.75	15.742
607.09	15.783
607.42	16.532
607.75	16.335
608.08	16.140
608.42	16.082
608.75	16.584
609.08	15.917
609.41	16.101
609.75	16.295
610.08	16.315
610.41	16.313
610.74	16.429
611.07	16.119
611.41	16.009
611.74	16.952
612.07	16.176
612.40	16.635
612.73	17.017
613.07	16.235
613.40	16.506
613.73	16.177
614.06	16.241
614.39	15.403
614.72	16.836
615.06	15.784
615.39	15.901
615.72	16.445
616.05	15.736
616.38	16.650
616.71	16.510
617.05	16.134
617.38	16.907
617.71	17.171
618.04	16.352
618.37	16.885
618.70	15.781
619.03	16.607
619.36	16.461
619.69	16.464
620.03	16.133
620.36	16.871
620.69	16.471
621.02	17.192
621.35	17.126
621.68	18.004
622.01	16.584
622.34	16.248
622.67	16.014
623.00	15.924
623.33	16.788
623.66	16.991
623.99	16.063
624.32	17.154
624.65	16.795
624.99	16.450
625.32	17.113
625.65	16.723
625.98	16.203
626.31	16.513
626.64	16.923
626.97	16.279
627.30	15.262
627.63	16.129
627.96	17.868
628.29	17.043
628.62	15.953
628.95	17.266
629.28	15.888
629.61	17.340
629.94	16.402
630.26	16.441
630.59	17.012
630.92	17.749
631.25	17.979
