SpectraSuite Data File
++++++++++++++++++++++++++++++++++++
Date: Thu May 14 15:54:33 PDT 2015
User: schluterlab
Dark Spectrum Present: Yes
Reference Spectrum Present: Yes
Number of Sampled Component Spectra: 1
Spectrometers: USB2E3373
Integration Time (usec): 3000 (USB2E3373)
Spectra Averaged: 3 (USB2E3373)
Boxcar Smoothing: 0 (USB2E3373)
Correct for Electrical Dark: No (USB2E3373)
Strobe/Lamp Enabled: No (USB2E3373)
Correct for Detector Non-linearity: No (USB2E3373)
Correct for Stray Light: No (USB2E3373)
Number of Pixels in Processed Spectrum: 2048
>>>>>Begin Processed Spectral Data<<<<<
178.53	0.000
178.91	485.714
179.29	-4100.000
179.67	-3200.000
180.04	414.286
180.42	270.000
180.80	740.000
181.18	-3100.000
181.56	-2200.000
181.94	800.000
182.31	-700.000
182.69	1200.000
183.07	-1650.000
183.45	1000.000
183.83	-533.333
184.20	-966.667
184.58	3000.000
184.96	-850.000
185.34	-377.778
185.72	-620.000
186.09	400.000
186.47	1550.000
186.85	640.000
187.23	-366.667
187.61	-3800.000
187.98	740.000
188.36	850.000
188.74	-650.000
189.12	-700.000
189.49	-137.500
189.87	-437.500
190.25	-377.778
190.63	-580.000
191.00	-400.000
191.38	0.000
191.76	-950.000
192.14	-533.333
192.51	1550.000
192.89	-416.667
193.27	0.000
193.65	-471.429
194.02	-4700.000
194.40	-285.714
194.78	442.857
195.15	0.000
195.53	-300.000
195.91	0.000
196.29	-350.000
196.66	-207.692
197.04	-3700.000
197.42	-528.571
197.79	-1600.000
198.17	-350.000
198.55	-328.571
198.92	-222.222
199.30	-500.000
199.68	-272.727
200.05	-142.857
200.43	-1550.000
200.81	514.286
201.18	0.000
201.56	566.667
201.94	0.000
202.31	1133.333
202.69	-355.556
203.07	2800.000
203.44	-255.556
203.82	-850.000
204.19	-183.333
204.57	-466.667
204.95	-437.500
205.32	-3100.000
205.70	1025.000
206.08	-533.333
206.45	-516.667
206.83	840.000
207.20	-416.667
207.58	-820.000
207.96	-716.667
208.33	-416.667
208.71	283.333
209.08	-350.000
209.46	0.000
209.84	733.333
210.21	1650.000
210.59	1500.000
210.96	1266.667
211.34	-475.000
211.71	-375.000
212.09	-3700.000
212.46	0.000
212.84	1850.000
213.22	-620.000
213.59	-600.000
213.97	-300.000
214.34	-966.667
214.72	600.000
215.09	-725.000
215.47	0.000
215.84	528.571
216.22	2250.000
216.59	-620.000
216.97	-780.000
217.34	-1025.000
217.72	-362.500
218.09	-1000.000
218.47	-1000.000
218.84	0.000
219.22	660.000
219.59	-170.588
219.97	-110.000
220.34	2100.000
220.72	-400.000
221.09	-200.000
221.47	-1166.667
221.84	-310.000
222.22	-571.429
222.59	0.000
222.97	-325.000
223.34	-620.000
223.72	-2600.000
224.09	-950.000
224.46	-950.000
224.84	-600.000
225.21	-485.714
225.59	-650.000
225.96	-800.000
226.34	-65.385
226.71	733.333
227.08	-1000.000
227.46	-186.667
227.83	-850.000
228.21	-163.158
228.58	362.500
228.95	1900.000
229.33	-183.333
229.70	-310.000
230.08	-115.789
230.45	380.000
230.82	-733.333
231.20	-178.571
231.57	-216.667
231.95	-236.364
232.32	-181.818
232.69	-160.000
233.07	-900.000
233.44	-170.588
233.81	-310.000
234.19	-144.444
234.56	-113.636
234.93	-65.517
235.31	-136.842
235.68	-161.111
236.05	-125.000
236.43	-42.308
236.80	-24.000
237.17	-74.074
237.55	-60.606
237.92	-240.000
238.29	-3.226
238.67	-31.818
239.04	-25.000
239.41	-45.238
239.79	-19.565
240.16	-33.333
240.53	-26.087
240.91	-15.686
241.28	3.279
241.65	10.448
242.02	6.757
242.40	-7.692
242.77	2.667
243.14	8.537
243.51	6.579
243.89	6.410
244.26	26.733
244.63	23.529
245.00	22.430
245.38	10.526
245.75	23.009
246.12	21.429
246.49	21.705
246.87	24.286
247.24	23.179
247.61	30.921
247.98	32.886
248.36	30.864
248.73	27.607
249.10	32.787
249.47	36.318
249.84	33.508
250.22	35.233
250.59	38.333
250.96	36.364
251.33	34.694
251.70	33.761
252.08	35.000
252.45	40.984
252.82	38.017
253.19	37.109
253.56	38.403
253.94	37.308
254.31	40.530
254.68	43.706
255.05	38.436
255.42	38.435
255.79	39.159
256.16	40.066
256.54	36.755
256.91	41.639
257.28	39.672
257.65	38.217
258.02	38.348
258.39	39.601
258.76	44.037
259.14	44.253
259.51	41.210
259.88	40.510
260.25	43.611
260.62	45.205
260.99	43.716
261.36	40.483
261.73	42.175
262.10	46.154
262.47	46.113
262.85	42.424
263.22	42.078
263.59	42.105
263.96	39.642
264.33	42.455
264.70	41.728
265.07	46.301
265.44	45.351
265.81	40.046
266.18	46.485
266.55	43.973
266.92	44.419
267.29	46.389
267.66	44.568
268.03	44.541
268.40	44.468
268.77	39.408
269.14	44.714
269.51	44.956
269.88	46.311
270.25	43.863
270.62	46.414
270.99	45.253
271.36	42.178
271.73	43.222
272.10	48.096
272.47	43.287
272.84	43.173
273.21	44.890
273.58	43.548
273.95	41.538
274.32	40.304
274.69	43.520
275.06	42.857
275.43	42.699
275.80	40.212
276.17	40.556
276.54	43.470
276.91	40.787
277.28	45.931
277.65	40.575
278.02	44.853
278.39	41.123
278.76	45.343
279.13	46.099
279.50	43.986
279.87	40.429
280.23	40.317
280.60	42.203
280.97	45.066
281.34	43.463
281.71	43.316
282.08	40.033
282.45	42.881
282.82	40.502
283.19	39.580
283.56	42.295
283.92	40.090
284.29	42.022
284.66	42.529
285.03	40.224
285.40	41.267
285.77	42.105
286.14	41.679
286.51	40.487
286.87	41.706
287.24	40.964
287.61	41.555
287.98	39.879
288.35	43.047
288.72	39.349
289.08	41.435
289.45	37.722
289.82	38.253
290.19	39.368
290.56	38.451
290.93	39.943
291.29	37.466
291.66	37.052
292.03	36.499
292.40	37.143
292.77	35.580
293.13	36.671
293.50	34.560
293.87	35.705
294.24	38.000
294.60	35.398
294.97	33.826
295.34	35.723
295.71	33.039
296.08	32.946
296.44	34.314
296.81	33.983
297.18	34.247
297.55	33.726
297.91	33.215
298.28	32.701
298.65	32.224
299.02	31.995
299.38	31.922
299.75	32.126
300.12	32.407
300.48	32.949
300.85	32.283
301.22	32.438
301.59	30.708
301.95	30.508
302.32	31.444
302.69	31.435
303.05	31.991
303.42	31.042
303.79	32.292
304.15	31.441
304.52	32.875
304.89	31.309
305.25	28.778
305.62	30.303
305.99	31.546
306.35	30.141
306.72	31.127
307.09	29.848
307.45	29.607
307.82	30.272
308.19	29.263
308.55	30.473
308.92	28.724
309.29	29.119
309.65	29.337
310.02	28.812
310.38	30.413
310.75	30.777
311.12	30.968
311.48	29.912
311.85	30.769
312.22	29.127
312.58	28.920
312.95	27.629
313.31	30.443
313.68	30.769
314.05	31.165
314.41	30.237
314.78	29.973
315.14	29.310
315.51	29.548
315.87	28.803
316.24	30.502
316.61	29.485
316.97	29.412
317.34	28.748
317.70	31.092
318.07	30.159
318.43	30.017
318.80	29.013
319.16	28.670
319.53	26.221
319.89	28.484
320.26	29.004
320.62	27.748
320.99	28.440
321.35	29.020
321.72	29.674
322.08	27.142
322.45	27.642
322.81	28.700
323.18	29.646
323.54	28.448
323.91	29.181
324.27	28.571
324.64	28.967
325.00	28.607
325.37	29.075
325.73	29.587
326.10	29.359
326.46	29.560
326.83	28.423
327.19	28.425
327.56	28.696
327.92	27.931
328.29	27.177
328.65	26.214
329.01	28.849
329.38	28.644
329.74	29.452
330.11	28.853
330.47	27.633
330.84	28.079
331.20	28.500
331.56	28.423
331.93	28.117
332.29	27.966
332.66	27.907
333.02	27.052
333.38	27.349
333.75	28.199
334.11	28.857
334.48	26.320
334.84	29.227
335.20	28.044
335.57	29.089
335.93	28.099
336.29	26.456
336.66	28.259
337.02	26.589
337.38	27.721
337.75	25.950
338.11	27.166
338.47	27.792
338.84	26.988
339.20	25.442
339.56	27.348
339.93	27.668
340.29	26.570
340.65	26.440
341.02	26.816
341.38	27.648
341.74	26.312
342.11	26.146
342.47	26.926
342.83	27.134
343.20	25.675
343.56	27.185
343.92	26.821
344.28	25.938
344.65	27.209
345.01	26.911
345.37	26.905
345.73	25.019
346.10	25.819
346.46	26.503
346.82	25.918
347.19	26.891
347.55	26.252
347.91	26.374
348.27	26.100
348.63	26.352
349.00	26.473
349.36	25.725
349.72	25.670
350.08	27.192
350.45	25.856
350.81	26.395
351.17	26.090
351.53	26.156
351.89	26.576
352.26	26.343
352.62	26.269
352.98	26.183
353.34	25.392
353.70	25.886
354.07	26.230
354.43	25.816
354.79	24.981
355.15	24.945
355.51	26.316
355.87	25.879
356.24	26.084
356.60	24.612
356.96	25.352
357.32	23.792
357.68	25.695
358.04	24.626
358.40	24.478
358.77	24.854
359.13	25.480
359.49	23.866
359.85	24.728
360.21	24.964
360.57	24.982
360.93	24.965
361.29	25.193
361.66	24.041
362.02	24.774
362.38	25.018
362.74	24.581
363.10	24.347
363.46	24.307
363.82	23.722
364.18	25.194
364.54	24.205
364.90	25.284
365.26	25.379
365.62	25.733
365.98	25.255
366.35	24.228
366.71	24.422
367.07	25.101
367.43	24.032
367.79	25.680
368.15	25.084
368.51	24.899
368.87	25.147
369.23	23.667
369.59	25.137
369.95	24.341
370.31	25.118
370.67	23.865
371.03	24.169
371.39	23.573
371.75	25.172
372.11	24.119
372.47	23.968
372.83	24.869
373.19	23.682
373.55	23.577
373.91	23.381
374.27	24.386
374.63	24.763
374.99	24.204
375.35	23.831
375.71	23.548
376.07	23.176
376.42	23.552
376.78	25.544
377.14	23.269
377.50	24.541
377.86	23.953
378.22	23.832
378.58	23.900
378.94	23.885
379.30	23.316
379.66	24.162
380.02	24.178
380.38	23.733
380.74	23.887
381.09	23.693
381.45	24.261
381.81	24.473
382.17	24.169
382.53	23.918
382.89	24.323
383.25	24.443
383.61	23.206
383.97	23.439
384.32	24.462
384.68	22.970
385.04	24.118
385.40	23.689
385.76	23.974
386.12	23.519
386.48	23.941
386.83	23.778
387.19	23.407
387.55	23.181
387.91	23.744
388.27	23.788
388.62	23.368
388.98	23.350
389.34	23.512
389.70	23.300
390.06	23.387
390.42	23.855
390.77	23.600
391.13	23.533
391.49	24.215
391.85	22.121
392.20	22.716
392.56	24.454
392.92	23.937
393.28	23.162
393.64	22.123
393.99	23.475
394.35	23.481
394.71	24.012
395.07	23.054
395.42	23.758
395.78	24.193
396.14	23.827
396.50	22.565
396.85	23.315
397.21	23.314
397.57	23.322
397.92	23.425
398.28	23.140
398.64	22.883
399.00	23.246
399.35	22.723
399.71	23.913
400.07	24.088
400.42	23.108
400.78	23.090
401.14	23.335
401.49	24.048
401.85	22.674
402.21	23.812
402.57	24.120
402.92	23.759
403.28	22.365
403.63	22.912
403.99	22.150
404.35	23.593
404.70	23.003
405.06	22.989
405.42	23.068
405.77	23.555
406.13	23.015
406.49	23.255
406.84	22.548
407.20	22.582
407.55	23.137
407.91	22.439
408.27	22.497
408.62	22.920
408.98	23.041
409.34	22.933
409.69	22.559
410.05	23.271
410.40	22.622
410.76	22.266
411.11	23.261
411.47	22.666
411.83	23.457
412.18	23.133
412.54	22.999
412.89	23.283
413.25	22.968
413.60	23.033
413.96	24.068
414.31	22.606
414.67	23.077
415.03	22.462
415.38	23.518
415.74	23.030
416.09	23.442
416.45	22.542
416.80	22.705
417.16	22.861
417.51	23.225
417.87	21.950
418.22	22.695
418.58	22.677
418.93	23.690
419.29	22.565
419.64	21.909
420.00	23.264
420.35	23.021
420.71	22.171
421.06	22.714
421.42	22.133
421.77	22.348
422.12	22.516
422.48	22.683
422.83	23.768
423.19	23.448
423.54	23.507
423.90	23.081
424.25	22.827
424.61	22.273
424.96	23.339
425.31	23.301
425.67	22.437
426.02	22.800
426.38	23.192
426.73	22.656
427.09	24.394
427.44	21.846
427.79	22.554
428.15	21.575
428.50	22.809
428.85	22.503
429.21	22.766
429.56	23.544
429.92	23.342
430.27	23.518
430.62	23.254
430.98	23.414
431.33	23.021
431.68	23.180
432.04	22.702
432.39	22.924
432.74	22.546
433.10	23.472
433.45	21.851
433.80	23.230
434.16	22.521
434.51	23.433
434.86	23.833
435.22	23.433
435.57	22.170
435.92	22.983
436.28	22.753
436.63	22.720
436.98	22.437
437.34	21.871
437.69	21.794
438.04	22.686
438.39	23.262
438.75	22.468
439.10	22.992
439.45	22.862
439.81	22.599
440.16	21.126
440.51	22.241
440.86	22.123
441.22	22.776
441.57	22.851
441.92	22.987
442.27	23.283
442.63	23.299
442.98	23.052
443.33	23.251
443.68	24.182
444.03	23.142
444.39	23.393
444.74	23.379
445.09	23.517
445.44	23.130
445.79	23.946
446.15	22.919
446.50	22.532
446.85	23.346
447.20	22.534
447.55	22.333
447.91	22.565
448.26	22.357
448.61	22.848
448.96	22.961
449.31	22.587
449.66	22.495
450.02	23.101
450.37	22.696
450.72	22.659
451.07	23.462
451.42	22.992
451.77	22.235
452.12	23.646
452.47	22.460
452.83	23.086
453.18	22.242
453.53	22.918
453.88	22.860
454.23	23.390
454.58	22.403
454.93	22.209
455.28	22.697
455.63	23.422
455.98	23.464
456.34	22.261
456.69	23.516
457.04	23.168
457.39	22.727
457.74	22.931
458.09	22.241
458.44	22.845
458.79	22.641
459.14	22.234
459.49	22.241
459.84	22.875
460.19	22.265
460.54	23.282
460.89	23.716
461.24	23.046
461.59	22.911
461.94	22.419
462.29	22.900
462.64	23.295
462.99	22.787
463.34	22.648
463.69	22.802
464.04	23.958
464.39	23.599
464.74	22.349
465.09	22.434
465.44	23.283
465.79	23.215
466.14	22.147
466.49	22.789
466.84	22.369
467.19	22.601
467.54	22.150
467.89	22.874
468.24	22.992
468.59	21.830
468.94	23.135
469.29	21.956
469.64	21.933
469.99	22.307
470.34	22.153
470.68	22.830
471.03	21.676
471.38	21.452
471.73	21.651
472.08	22.652
472.43	21.975
472.78	23.048
473.13	22.061
473.48	22.598
473.83	23.099
474.17	22.509
474.52	21.948
474.87	22.591
475.22	23.493
475.57	22.741
475.92	22.300
476.27	22.950
476.61	22.586
476.96	21.846
477.31	22.673
477.66	22.875
478.01	22.115
478.36	22.782
478.70	22.906
479.05	22.393
479.40	23.346
479.75	23.151
480.10	23.022
480.45	23.929
480.79	23.401
481.14	22.702
481.49	22.762
481.84	23.020
482.19	23.527
482.53	22.868
482.88	23.527
483.23	23.788
483.58	22.795
483.92	22.473
484.27	22.904
484.62	23.144
484.97	23.328
485.31	22.422
485.66	22.117
486.01	23.066
486.36	23.955
486.70	24.936
487.05	24.802
487.40	23.520
487.75	23.715
488.09	23.246
488.44	22.750
488.79	22.563
489.13	22.411
489.48	21.786
489.83	22.616
490.17	22.276
490.52	22.003
490.87	22.420
491.22	22.704
491.56	22.824
491.91	22.983
492.26	22.717
492.60	22.781
492.95	22.510
493.30	22.546
493.64	22.339
493.99	21.842
494.34	21.995
494.68	21.970
495.03	22.643
495.37	22.459
495.72	22.676
496.07	22.524
496.41	22.265
496.76	22.435
497.11	22.548
497.45	22.745
497.80	22.612
498.14	22.177
498.49	22.013
498.84	22.349
499.18	22.717
499.53	22.422
499.87	22.945
500.22	22.529
500.56	22.537
500.91	23.295
501.26	23.227
501.60	22.846
501.95	22.536
502.29	22.861
502.64	22.606
502.98	22.519
503.33	22.160
503.67	22.416
504.02	21.760
504.36	22.341
504.71	22.370
505.06	22.601
505.40	22.121
505.75	22.905
506.09	22.652
506.44	22.981
506.78	23.257
507.13	22.545
507.47	22.170
507.82	22.348
508.16	22.228
508.51	21.941
508.85	22.248
509.19	22.264
509.54	23.007
509.88	22.535
510.23	22.632
510.57	23.055
510.92	22.109
511.26	22.078
511.61	21.729
511.95	22.011
512.30	22.698
512.64	21.589
512.98	22.461
513.33	22.681
513.67	21.571
514.02	22.483
514.36	21.790
514.70	22.552
515.05	22.628
515.39	22.205
515.74	22.906
516.08	22.293
516.42	22.658
516.77	21.399
517.11	22.486
517.46	22.216
517.80	22.608
518.14	23.885
518.49	22.234
518.83	21.501
519.17	22.671
519.52	22.537
519.86	22.756
520.20	23.110
520.55	22.234
520.89	22.072
521.23	22.222
521.58	22.203
521.92	22.153
522.26	21.821
522.61	22.685
522.95	22.780
523.29	22.701
523.64	22.422
523.98	21.905
524.32	23.725
524.66	22.368
525.01	21.744
525.35	22.631
525.69	21.984
526.04	22.331
526.38	22.184
526.72	22.722
527.06	22.229
527.41	21.458
527.75	22.625
528.09	22.668
528.43	21.847
528.78	22.023
529.12	22.133
529.46	21.754
529.80	22.826
530.15	22.551
530.49	22.005
530.83	22.668
531.17	22.521
531.51	23.105
531.86	22.356
532.20	22.683
532.54	22.442
532.88	22.121
533.22	21.862
533.57	22.331
533.91	22.952
534.25	23.064
534.59	22.816
534.93	21.845
535.27	22.423
535.62	23.934
535.96	22.836
536.30	22.562
536.64	21.982
536.98	23.063
537.32	22.716
537.66	23.331
538.01	21.450
538.35	22.351
538.69	21.995
539.03	22.931
539.37	21.849
539.71	23.363
540.05	23.381
540.39	22.249
540.73	22.101
541.07	22.685
541.42	21.677
541.76	22.123
542.10	22.075
542.44	21.681
542.78	22.567
543.12	23.123
543.46	22.161
543.80	22.002
544.14	22.861
544.48	22.400
544.82	22.501
545.16	22.838
545.50	22.469
545.84	22.107
546.18	23.210
546.52	22.803
546.86	22.453
547.20	22.519
547.54	22.160
547.88	21.820
548.22	21.696
548.56	22.820
548.90	22.567
549.24	22.128
549.58	22.902
549.92	21.939
550.26	22.136
550.60	23.038
550.94	23.286
551.28	21.650
551.62	23.450
551.96	23.107
552.30	23.327
552.64	22.526
552.98	22.458
553.32	22.379
553.66	22.444
554.00	22.131
554.34	21.557
554.68	21.240
555.02	22.602
555.36	23.208
555.69	22.486
556.03	23.203
556.37	22.403
556.71	22.257
557.05	23.003
557.39	22.031
557.73	21.995
558.07	21.987
558.41	22.326
558.75	22.989
559.08	22.477
559.42	21.605
559.76	21.574
560.10	21.902
560.44	21.768
560.78	22.688
561.12	21.921
561.45	23.175
561.79	22.405
562.13	22.797
562.47	21.825
562.81	21.835
563.15	22.348
563.48	22.561
563.82	22.975
564.16	22.350
564.50	21.514
564.84	22.301
565.17	22.235
565.51	23.188
565.85	21.971
566.19	22.811
566.52	22.469
566.86	23.147
567.20	23.056
567.54	22.889
567.88	23.089
568.21	23.715
568.55	22.878
568.89	23.059
569.23	23.490
569.56	23.525
569.90	23.378
570.24	23.339
570.57	23.701
570.91	23.178
571.25	23.344
571.59	23.212
571.92	23.641
572.26	23.478
572.60	23.642
572.93	23.407
573.27	23.096
573.61	22.896
573.95	23.477
574.28	23.429
574.62	23.442
574.96	23.202
575.29	23.265
575.63	23.285
575.97	23.353
576.30	22.798
576.64	22.691
576.98	23.371
577.31	23.609
577.65	23.091
577.98	23.400
578.32	23.129
578.66	23.351
578.99	23.019
579.33	23.121
579.67	23.209
580.00	22.589
580.34	23.211
580.67	23.147
581.01	23.085
581.35	23.144
581.68	23.744
582.02	23.746
582.35	23.726
582.69	23.589
583.02	23.846
583.36	23.229
583.70	23.177
584.03	22.918
584.37	22.883
584.70	23.178
585.04	22.809
585.37	22.559
585.71	23.193
586.04	22.963
586.38	23.236
586.72	22.662
587.05	22.614
587.39	23.411
587.72	23.947
588.06	23.283
588.39	22.903
588.73	22.937
589.06	22.489
589.40	22.956
589.73	22.590
590.07	22.878
590.40	23.124
590.73	23.118
591.07	22.785
591.40	22.473
591.74	22.973
592.07	22.940
592.41	22.752
592.74	22.542
593.08	23.376
593.41	23.885
593.75	22.759
594.08	23.599
594.41	23.526
594.75	22.982
595.08	22.510
595.42	22.403
595.75	22.376
596.09	22.874
596.42	22.644
596.75	22.964
597.09	22.869
597.42	22.209
597.75	21.991
598.09	21.984
598.42	22.155
598.76	22.316
599.09	22.570
599.42	21.991
599.76	22.351
600.09	23.056
600.42	22.823
600.76	21.995
601.09	22.635
601.42	22.451
601.76	22.103
602.09	22.194
602.42	22.246
602.76	22.620
603.09	22.394
603.42	22.074
603.76	21.987
604.09	23.279
604.42	22.569
604.76	22.184
605.09	22.497
605.42	22.010
605.75	22.269
606.09	22.135
606.42	22.072
606.75	21.739
607.09	21.736
607.42	22.736
607.75	22.704
608.08	22.494
608.42	22.330
608.75	22.512
609.08	21.774
609.41	22.629
609.75	21.964
610.08	23.087
610.41	21.835
610.74	22.479
611.07	22.469
611.41	22.152
611.74	23.279
612.07	21.786
612.40	22.338
612.73	21.760
613.07	21.711
613.40	22.233
613.73	21.618
614.06	22.620
614.39	21.963
614.72	21.494
615.06	22.040
615.39	22.185
615.72	21.848
616.05	22.244
616.38	22.099
616.71	22.623
617.05	20.980
617.38	22.151
617.71	22.246
618.04	22.126
618.37	22.459
618.70	22.229
619.03	21.505
619.36	21.208
619.69	21.589
620.03	21.846
620.36	21.840
620.69	21.160
621.02	21.325
621.35	21.988
621.68	21.981
622.01	21.708
622.34	19.665
622.67	21.237
623.00	20.580
623.33	21.831
623.66	22.698
623.99	21.988
624.32	22.352
624.65	21.236
624.99	22.302
625.32	21.750
625.65	21.443
625.98	21.153
626.31	22.112
626.64	22.051
626.97	21.980
627.30	21.716
627.63	20.405
627.96	21.697
628.29	21.868
628.62	21.075
628.95	20.508
629.28	20.646
629.61	21.212
629.94	20.921
630.26	21.017
630.59	20.380
