SpectraSuite Data File
++++++++++++++++++++++++++++++++++++
Date: Thu May 14 15:50:07 PDT 2015
User: schluterlab
Dark Spectrum Present: Yes
Reference Spectrum Present: Yes
Number of Sampled Component Spectra: 1
Spectrometers: USB2E3373
Integration Time (usec): 3000 (USB2E3373)
Spectra Averaged: 3 (USB2E3373)
Boxcar Smoothing: 0 (USB2E3373)
Correct for Electrical Dark: No (USB2E3373)
Strobe/Lamp Enabled: No (USB2E3373)
Correct for Detector Non-linearity: No (USB2E3373)
Correct for Stray Light: No (USB2E3373)
Number of Pixels in Processed Spectrum: 2048
>>>>>Begin Processed Spectral Data<<<<<
178.53	0.000
178.91	614.286
179.29	-5500.000
179.67	-4600.000
180.04	450.000
180.42	430.000
180.80	960.000
181.18	-4300.000
181.56	-2900.000
181.94	1175.000
182.31	-1150.000
182.69	1300.000
183.07	-1800.000
183.45	1125.000
183.83	-616.667
184.20	-1266.667
184.58	3800.000
184.96	-1225.000
185.34	-400.000
185.72	-780.000
186.09	644.444
186.47	2200.000
186.85	1020.000
187.23	-533.333
187.61	-4700.000
187.98	960.000
188.36	1250.000
188.74	-1100.000
189.12	-1233.333
189.49	-231.250
189.87	-612.500
190.25	-422.222
190.63	-800.000
191.00	-644.444
191.38	0.000
191.76	-1200.000
192.14	-750.000
192.51	2300.000
192.89	-633.333
193.27	0.000
193.65	-514.286
194.02	-4700.000
194.40	-642.857
194.78	728.571
195.15	0.000
195.53	-372.727
195.91	0.000
196.29	-1075.000
196.66	-323.077
197.04	-4700.000
197.42	-657.143
197.79	-2400.000
198.17	-637.500
198.55	-614.286
198.92	-411.111
199.30	-512.500
199.68	-354.545
200.05	-257.143
200.43	-2250.000
200.81	785.714
201.18	0.000
201.56	577.778
201.94	0.000
202.31	1633.333
202.69	-533.333
203.07	4500.000
203.44	-455.556
203.82	-1125.000
204.19	-283.333
204.57	-766.667
204.95	-462.500
205.32	-4800.000
205.70	1000.000
206.08	-750.000
206.45	-833.333
206.83	1200.000
207.20	-733.333
207.58	-1020.000
207.96	-733.333
208.33	-650.000
208.71	425.000
209.08	-466.667
209.46	0.000
209.84	800.000
210.21	1850.000
210.59	2850.000
210.96	1733.333
211.34	-1050.000
211.71	-612.500
212.09	-5000.000
212.46	0.000
212.84	2600.000
213.22	-1040.000
213.59	-975.000
213.97	-330.000
214.34	-1800.000
214.72	933.333
215.09	-1250.000
215.47	0.000
215.84	642.857
216.22	2250.000
216.59	-880.000
216.97	-860.000
217.34	-1025.000
217.72	-487.500
218.09	-950.000
218.47	-1150.000
218.84	0.000
219.22	940.000
219.59	-252.941
219.97	-180.000
220.34	2850.000
220.72	-477.778
221.09	-269.231
221.47	-1500.000
221.84	-460.000
222.22	-800.000
222.59	0.000
222.97	-500.000
223.34	-1020.000
223.72	-4600.000
224.09	-1050.000
224.46	-1300.000
224.84	-760.000
225.21	-771.429
225.59	-1175.000
225.96	-1175.000
226.34	-150.000
226.71	800.000
227.08	-2150.000
227.46	-273.333
227.83	-1275.000
228.21	-200.000
228.58	550.000
228.95	2250.000
229.33	-358.333
229.70	-360.000
230.08	-189.474
230.45	460.000
230.82	-1433.333
231.20	-278.571
231.57	-283.333
231.95	-409.091
232.32	-409.091
232.69	-170.000
233.07	-950.000
233.44	-223.529
233.81	-460.000
234.19	-194.444
234.56	-159.091
234.93	-96.552
235.31	-178.947
235.68	-211.111
236.05	-225.000
236.43	-100.000
236.80	-108.000
237.17	-103.704
237.55	-96.970
237.92	-360.000
238.29	-119.355
238.67	-84.091
239.04	-105.556
239.41	-97.619
239.79	-73.913
240.16	-74.074
240.53	-93.478
240.91	-84.314
241.28	-62.295
241.65	-46.269
242.02	-43.243
242.40	-55.385
242.77	-45.333
243.14	-43.902
243.51	-61.842
243.89	-48.718
244.26	-34.653
244.63	-34.314
245.00	-29.907
245.38	-30.702
245.75	-36.283
246.12	-23.810
246.49	-31.008
246.87	-15.000
247.24	-18.543
247.61	-18.421
247.98	-23.490
248.36	-23.457
248.73	-22.699
249.10	-17.486
249.47	-10.448
249.84	-9.424
250.22	-16.580
250.59	-17.778
250.96	-11.364
251.33	-20.918
251.70	-6.410
252.08	-8.333
252.45	-7.787
252.82	-9.917
253.19	-10.547
253.56	-6.844
253.94	-10.000
254.31	-8.333
254.68	-5.594
255.05	-5.212
255.42	-6.463
255.79	-9.709
256.16	-3.311
256.54	-7.285
256.91	-3.279
257.28	-9.180
257.65	-7.962
258.02	-7.375
258.39	-4.274
258.76	-2.446
259.14	-4.310
259.51	-4.035
259.88	-4.533
260.25	-1.389
260.62	-2.466
260.99	-0.273
261.36	-3.485
261.73	-4.244
262.10	-5.769
262.47	-1.072
262.85	1.515
263.22	-5.455
263.59	-5.526
263.96	-2.302
264.33	-3.836
264.70	-2.469
265.07	-0.477
265.44	1.361
265.81	0.000
266.18	0.227
266.55	-0.223
266.92	-3.645
267.29	-0.875
267.66	-0.887
268.03	0.218
268.40	0.209
268.77	-3.189
269.14	-0.881
269.51	-3.070
269.88	-0.205
270.25	0.201
270.62	-0.633
270.99	2.626
271.36	1.386
271.73	1.375
272.10	1.603
272.47	0.802
272.84	-1.205
273.21	-0.401
273.58	-2.621
273.95	0.962
274.32	-0.380
274.69	-1.547
275.06	2.930
275.43	-0.370
275.80	3.527
276.17	-1.667
276.54	0.373
276.91	0.537
277.28	1.085
277.65	-0.539
278.02	0.551
278.39	0.000
278.76	-0.703
279.13	0.000
279.50	2.062
279.87	0.179
280.23	-0.704
280.60	-0.169
280.97	0.164
281.34	0.679
281.71	3.553
282.08	1.163
282.45	2.619
282.82	1.413
283.19	-0.969
283.56	0.164
283.92	3.754
284.29	4.423
284.66	2.299
285.03	-0.801
285.40	2.164
285.77	0.774
286.14	1.985
286.51	1.979
286.87	0.632
287.24	1.054
287.61	0.448
287.98	0.000
288.35	0.444
288.72	1.479
289.08	2.050
289.45	0.296
289.82	0.452
290.19	1.006
290.56	2.676
290.93	0.856
291.29	1.240
291.66	1.377
292.03	-0.271
292.40	2.177
292.77	0.135
293.13	1.083
293.50	1.051
293.87	1.879
294.24	2.400
294.60	2.528
294.97	-1.745
295.34	2.305
295.71	0.883
296.08	1.292
296.44	0.123
296.81	1.583
297.18	0.249
297.55	0.825
297.91	0.474
298.28	0.474
298.65	1.902
299.02	1.535
299.38	1.030
299.75	0.935
300.12	0.694
300.48	1.037
300.85	2.812
301.22	2.349
301.59	-0.228
301.95	1.469
302.32	2.000
302.69	2.629
303.05	1.197
303.42	1.774
303.79	2.083
304.15	1.472
304.52	0.740
304.89	1.571
305.25	1.553
305.62	0.522
305.99	2.474
306.35	1.109
306.72	0.931
307.09	1.015
307.45	1.346
307.82	1.917
308.19	1.009
308.55	1.639
308.92	1.655
309.29	1.916
309.65	0.975
310.02	1.386
310.38	0.787
310.75	1.456
311.12	1.438
311.48	0.196
311.85	1.709
312.22	0.664
312.58	1.408
312.95	0.191
313.31	1.626
313.68	2.839
314.05	2.891
314.41	1.639
314.78	1.635
315.14	1.633
315.51	1.293
315.87	2.700
316.24	2.009
316.61	2.309
316.97	0.181
317.34	0.265
317.70	2.882
318.07	1.675
318.43	3.061
318.80	3.094
319.16	1.803
319.53	1.200
319.89	1.665
320.26	2.224
320.62	1.773
320.99	2.308
321.35	1.571
321.72	2.233
322.08	1.082
322.45	1.626
322.81	1.444
323.18	2.035
323.54	1.983
323.91	2.135
324.27	1.979
324.64	1.679
325.00	1.575
325.37	2.457
325.73	1.653
326.10	3.001
326.46	2.932
326.83	3.203
327.19	2.362
327.56	2.530
327.92	2.046
328.29	2.742
328.65	0.921
329.01	2.200
329.38	2.612
329.74	1.113
330.11	1.884
330.47	2.275
330.84	2.498
331.20	2.750
331.56	1.906
331.93	2.594
332.29	2.458
332.66	2.907
333.02	2.513
333.38	2.181
333.75	2.694
334.11	2.419
334.48	2.558
334.84	2.379
335.20	1.175
335.57	1.855
335.93	2.810
336.29	2.246
336.66	1.346
337.02	2.090
337.38	2.806
337.75	2.562
338.11	2.439
338.47	3.557
338.84	1.354
339.20	1.264
339.56	2.224
339.93	2.874
340.29	2.818
340.65	2.352
341.02	2.873
341.38	2.910
341.74	1.130
342.11	2.414
342.47	2.145
342.83	2.657
343.20	2.208
343.56	2.165
343.92	2.882
344.28	2.500
344.65	3.333
345.01	2.418
345.37	2.566
345.73	2.027
346.10	3.432
346.46	1.424
346.82	3.296
347.19	2.597
347.55	3.035
347.91	2.377
348.27	1.517
348.63	3.199
349.00	2.908
349.36	3.048
349.72	2.158
350.08	3.120
350.45	2.586
350.81	2.640
351.17	2.180
351.53	3.412
351.89	2.961
352.26	2.164
352.62	1.716
352.98	2.366
353.34	2.987
353.70	1.772
354.07	3.130
354.43	1.822
354.79	1.945
355.15	2.428
355.51	2.705
355.87	2.169
356.24	1.673
356.60	2.143
356.96	2.001
357.32	1.264
357.68	1.171
358.04	1.123
358.40	1.940
358.77	2.778
359.13	1.846
359.49	0.967
359.85	2.683
360.21	2.726
360.57	1.795
360.93	2.468
361.29	2.316
361.66	2.462
362.02	2.644
362.38	2.460
362.74	2.025
363.10	2.132
363.46	1.731
363.82	2.060
364.18	2.252
364.54	2.628
364.90	2.742
365.26	1.379
365.62	3.133
365.98	1.838
366.35	2.282
366.71	2.993
367.07	2.571
367.43	2.298
367.79	2.654
368.15	2.609
368.51	2.165
368.87	3.201
369.23	2.400
369.59	2.869
369.95	2.366
370.31	3.309
370.67	2.889
371.03	1.801
371.39	1.880
371.75	2.201
372.11	1.829
372.47	1.490
372.83	3.338
373.19	2.268
373.55	1.965
373.91	1.159
374.27	3.169
374.63	1.827
374.99	1.923
375.35	2.597
375.71	2.516
376.07	2.905
376.42	3.149
376.78	2.983
377.14	2.433
377.50	2.087
377.86	3.325
378.22	2.335
378.58	3.151
378.94	3.110
379.30	1.992
379.66	2.528
380.02	2.193
380.38	3.111
380.74	2.310
381.09	2.613
381.45	2.841
381.81	3.044
382.17	2.613
382.53	3.041
382.89	2.596
383.25	2.696
383.61	1.678
383.97	2.356
384.32	2.452
384.68	1.798
385.04	2.834
385.40	2.475
385.76	2.696
386.12	2.274
386.48	2.882
386.83	3.039
387.19	2.202
387.55	1.819
387.91	2.340
388.27	2.829
388.62	2.577
388.98	2.312
389.34	2.534
389.70	1.743
390.06	2.664
390.42	2.108
390.77	3.311
391.13	2.113
391.49	2.114
391.85	2.121
392.20	2.372
392.56	2.894
392.92	2.781
393.28	2.653
393.64	2.737
393.99	2.963
394.35	2.804
394.71	2.335
395.07	1.617
395.42	1.999
395.78	3.108
396.14	2.793
396.50	1.663
396.85	2.564
397.21	2.071
397.57	2.473
397.92	3.265
398.28	1.847
398.64	1.545
399.00	2.408
399.35	2.618
399.71	2.717
400.07	2.358
400.42	2.037
400.78	1.910
401.14	2.675
401.49	2.217
401.85	2.093
402.21	2.607
402.57	2.582
402.92	2.069
403.28	2.400
403.63	1.074
403.99	2.494
404.35	2.501
404.70	3.116
405.06	2.337
405.42	2.342
405.77	2.181
406.13	2.377
406.49	1.745
406.84	2.715
407.20	2.404
407.55	1.878
407.91	2.640
408.27	2.415
408.62	2.443
408.98	2.089
409.34	1.935
409.69	2.287
410.05	3.165
410.40	2.958
410.76	2.299
411.11	2.747
411.47	2.334
411.83	2.175
412.18	2.410
412.54	2.905
412.89	2.270
413.25	2.822
413.60	2.355
413.96	1.981
414.31	1.926
414.67	3.101
415.03	1.969
415.38	2.459
415.74	2.199
416.09	2.714
416.45	1.691
416.80	2.142
417.16	1.852
417.51	3.051
417.87	2.269
418.22	2.156
418.58	1.301
418.93	3.027
419.29	1.541
419.64	2.401
420.00	1.721
420.35	2.639
420.71	2.470
421.06	2.128
421.42	2.236
421.77	1.723
422.12	2.537
422.48	2.458
422.83	2.574
423.19	2.812
423.54	2.821
423.90	2.098
424.25	2.240
424.61	1.033
424.96	2.252
425.31	2.919
425.67	2.576
426.02	2.158
426.38	1.206
426.73	2.511
427.09	3.057
427.44	1.857
427.79	1.935
428.15	1.826
428.50	2.191
428.85	2.181
429.21	2.819
429.56	2.419
429.92	2.752
430.27	2.120
430.62	2.833
430.98	2.361
431.33	2.444
431.68	2.347
432.04	2.235
432.39	2.892
432.74	2.283
433.10	2.380
433.45	2.118
433.80	2.629
434.16	2.686
434.51	2.158
434.86	1.954
435.22	2.657
435.57	2.241
435.92	2.449
436.28	2.218
436.63	1.966
436.98	2.254
437.34	2.255
437.69	2.312
438.04	2.010
438.39	2.412
438.75	1.937
439.10	2.431
439.45	2.571
439.81	2.938
440.16	2.252
440.51	3.122
440.86	2.335
441.22	2.519
441.57	2.358
441.92	2.473
442.27	2.576
442.63	2.484
442.98	2.882
443.33	2.893
443.68	2.874
444.03	3.057
444.39	3.005
444.74	3.114
445.09	2.686
445.44	2.318
445.79	3.209
446.15	2.878
446.50	2.274
446.85	3.259
447.20	3.675
447.55	2.720
447.91	2.461
448.26	2.326
448.61	2.391
448.96	2.843
449.31	2.651
449.66	2.505
450.02	2.795
450.37	3.143
450.72	2.691
451.07	2.904
451.42	2.195
451.77	2.779
452.12	2.878
452.47	2.258
452.83	2.590
453.18	2.569
453.53	2.814
453.88	3.589
454.23	2.768
454.58	3.192
454.93	2.549
455.28	2.589
455.63	2.445
455.98	2.961
456.34	2.768
456.69	2.175
457.04	2.660
457.39	2.217
457.74	3.188
458.09	2.856
458.44	3.233
458.79	2.527
459.14	3.461
459.49	2.377
459.84	2.413
460.19	2.443
460.54	2.555
460.89	2.753
461.24	2.184
461.59	2.546
461.94	1.940
462.29	3.080
462.64	2.957
462.99	2.762
463.34	2.271
463.69	2.931
464.04	3.669
464.39	3.307
464.74	3.307
465.09	2.826
465.44	3.004
465.79	2.961
466.14	2.762
466.49	3.000
466.84	2.424
467.19	2.948
467.54	2.526
467.89	2.471
468.24	2.770
468.59	2.316
468.94	2.273
469.29	2.160
469.64	1.462
469.99	2.868
470.34	2.785
470.68	2.324
471.03	1.768
471.38	2.551
471.73	2.016
472.08	2.411
472.43	2.348
472.78	2.393
473.13	2.339
473.48	2.779
473.83	2.844
474.17	2.989
474.52	1.864
474.87	3.599
475.22	2.366
475.57	2.752
475.92	2.887
476.27	2.982
476.61	3.011
476.96	2.711
477.31	3.416
477.66	3.620
478.01	3.610
478.36	3.340
478.70	2.906
479.05	2.761
479.40	3.110
479.75	3.842
480.10	3.269
480.45	3.418
480.79	3.311
481.14	3.125
481.49	3.362
481.84	3.655
482.19	3.957
482.53	3.411
482.88	3.633
483.23	3.157
483.58	3.450
483.92	2.926
484.27	3.006
484.62	3.383
484.97	3.616
485.31	3.590
485.66	3.889
486.01	3.952
486.36	4.179
486.70	4.480
487.05	4.477
487.40	4.435
487.75	4.224
488.09	4.283
488.44	3.730
488.79	4.351
489.13	3.765
489.48	3.301
489.83	3.541
490.17	3.281
490.52	3.982
490.87	3.807
491.22	3.163
491.56	3.413
491.91	3.532
492.26	3.375
492.60	3.192
492.95	3.686
493.30	3.182
493.64	3.679
493.99	3.509
494.34	3.092
494.68	3.084
495.03	3.392
495.37	3.151
495.72	3.084
496.07	3.550
496.41	2.789
496.76	3.711
497.11	3.015
497.45	3.366
497.80	3.954
498.14	2.812
498.49	3.171
498.84	3.062
499.18	3.419
499.53	3.094
499.87	3.648
500.22	2.538
500.56	2.969
500.91	3.387
501.26	3.364
501.60	2.872
501.95	3.604
502.29	3.993
502.64	3.585
502.98	3.581
503.33	2.678
503.67	2.704
504.02	3.109
504.36	3.753
504.71	3.721
505.06	3.820
505.40	3.245
505.75	3.552
506.09	3.177
506.44	3.157
506.78	3.257
507.13	3.734
507.47	3.032
507.82	3.693
508.16	3.155
508.51	2.813
508.85	3.165
509.19	3.221
509.54	3.314
509.88	3.157
510.23	2.914
510.57	3.432
510.92	3.580
511.26	2.597
511.61	3.332
511.95	3.367
512.30	3.742
512.64	2.499
512.98	3.802
513.33	2.974
513.67	3.111
514.02	3.015
514.36	3.683
514.70	2.552
515.05	2.450
515.39	3.097
515.74	4.189
516.08	3.117
516.42	3.244
516.77	2.944
517.11	2.991
517.46	2.545
517.80	4.169
518.14	3.156
518.49	3.796
518.83	3.087
519.17	3.123
519.52	3.092
519.86	3.485
520.20	3.035
520.55	2.903
520.89	2.309
521.23	3.573
521.58	3.107
521.92	2.776
522.26	2.234
522.61	2.662
522.95	2.768
523.29	2.759
523.64	2.410
523.98	3.708
524.32	3.668
524.66	3.529
525.01	2.378
525.35	2.700
525.69	2.842
526.04	2.641
526.38	3.218
526.72	3.460
527.06	2.757
527.41	2.682
527.75	2.672
528.09	2.479
528.43	2.605
528.78	2.543
529.12	3.096
529.46	2.754
529.80	3.490
530.15	2.899
530.49	2.254
530.83	3.247
531.17	2.151
531.51	3.430
531.86	3.365
532.20	3.354
532.54	2.274
532.88	3.273
533.22	3.005
533.57	3.289
533.91	3.199
534.25	3.053
534.59	3.506
534.93	2.434
535.27	2.930
535.62	3.184
535.96	3.661
536.30	2.644
536.64	3.724
536.98	3.075
537.32	3.210
537.66	3.244
538.01	2.961
538.35	2.497
538.69	1.983
539.03	3.188
539.37	3.180
539.71	3.664
540.05	3.477
540.39	2.567
540.73	3.157
541.07	2.882
541.42	3.190
541.76	2.135
542.10	2.654
542.44	2.497
542.78	2.311
543.12	3.099
543.46	3.846
543.80	2.818
544.14	2.454
544.48	2.660
544.82	2.693
545.16	3.220
545.50	3.235
545.84	2.449
546.18	3.457
546.52	2.420
546.86	3.333
547.20	2.672
547.54	2.559
547.88	2.893
548.22	3.099
548.56	2.867
548.90	2.567
549.24	2.918
549.58	2.713
549.92	2.615
550.26	2.718
550.60	2.872
550.94	2.652
551.28	3.036
551.62	3.235
551.96	3.107
552.30	3.250
552.64	3.111
552.98	3.119
553.32	3.408
553.66	2.701
554.00	4.098
554.34	2.896
554.68	2.970
555.02	3.219
555.36	3.353
555.69	2.242
556.03	2.711
556.37	3.755
556.71	2.917
557.05	3.067
557.39	2.853
557.73	2.576
558.07	2.649
558.41	2.658
558.75	2.502
559.08	2.227
559.42	2.538
559.76	3.664
560.10	2.947
560.44	3.034
560.78	3.562
561.12	2.463
561.45	2.981
561.79	3.114
562.13	3.450
562.47	3.206
562.81	2.722
563.15	2.904
563.48	3.667
563.82	3.507
564.16	2.423
564.50	2.920
564.84	2.596
565.17	3.412
565.51	3.337
565.85	2.791
566.19	3.168
566.52	3.218
566.86	3.339
567.20	3.426
567.54	2.230
567.88	3.619
568.21	3.360
568.55	3.597
568.89	3.722
569.23	4.098
569.56	3.595
569.90	3.885
570.24	3.744
570.57	4.105
570.91	3.950
571.25	4.079
571.59	4.342
571.92	4.051
572.26	3.944
572.60	3.877
572.93	4.258
573.27	4.158
573.61	4.182
573.95	4.467
574.28	4.228
574.62	4.161
574.96	3.816
575.29	4.384
575.63	4.597
575.97	4.311
576.30	4.491
576.64	4.152
576.98	4.396
577.31	4.183
577.65	4.540
577.98	4.386
578.32	4.431
578.66	4.259
578.99	4.424
579.33	4.558
579.67	4.624
580.00	4.405
580.34	4.472
580.67	4.369
581.01	4.370
581.35	4.383
581.68	4.383
582.02	4.577
582.35	4.785
582.69	4.584
583.02	4.485
583.36	4.785
583.70	4.408
584.03	4.320
584.37	4.443
584.70	4.328
585.04	3.953
585.37	4.132
585.71	4.790
586.04	4.403
586.38	4.387
586.72	3.710
587.05	3.914
587.39	4.463
587.72	4.617
588.06	4.666
588.39	4.431
588.73	4.233
589.06	4.261
589.40	3.903
589.73	4.274
590.07	4.708
590.40	4.970
590.73	3.818
591.07	4.654
591.40	3.966
591.74	3.855
592.07	4.263
592.41	3.667
592.74	4.082
593.08	4.013
593.41	4.141
593.75	4.195
594.08	4.211
594.41	4.519
594.75	4.085
595.08	4.273
595.42	4.091
595.75	4.359
596.09	4.236
596.42	4.120
596.75	4.207
597.09	4.121
597.42	3.973
597.75	4.390
598.09	4.127
598.42	4.222
598.76	4.012
599.09	4.450
599.42	3.956
599.76	4.523
600.09	4.404
600.42	4.204
600.76	4.161
601.09	4.514
601.42	4.188
601.76	4.069
602.09	4.503
602.42	3.780
602.76	4.354
603.09	4.185
603.42	4.191
603.76	4.017
604.09	4.507
604.42	4.404
604.76	3.995
605.09	4.108
605.42	3.987
605.75	3.808
606.09	3.807
606.42	4.196
606.75	4.235
607.09	3.840
607.42	4.393
607.75	4.338
608.08	4.025
608.42	4.071
608.75	4.561
609.08	3.565
609.41	3.970
609.75	3.795
610.08	3.518
610.41	3.356
610.74	3.908
611.07	3.508
611.41	4.395
611.74	4.203
612.07	3.787
612.40	3.612
612.73	3.912
613.07	3.716
613.40	3.994
613.73	3.804
614.06	3.925
614.39	3.839
614.72	3.542
615.06	3.609
615.39	3.093
615.72	3.744
616.05	4.128
616.38	3.986
616.71	4.075
617.05	3.301
617.38	4.280
617.71	3.996
618.04	3.724
618.37	3.333
618.70	3.846
619.03	3.345
619.36	3.514
619.69	3.652
620.03	3.327
620.36	3.497
620.69	3.701
621.02	2.822
621.35	3.774
621.68	3.543
622.01	2.989
622.34	1.604
622.67	3.024
623.00	2.024
623.33	3.451
623.66	3.307
623.99	2.370
624.32	4.418
624.65	2.960
624.99	2.926
625.32	3.788
625.65	3.304
625.98	2.983
626.31	3.331
626.64	2.784
626.97	2.401
627.30	2.658
627.63	3.151
627.96	3.679
628.29	3.268
628.62	2.183
628.95	1.315
629.28	1.699
629.61	2.525
629.94	2.092
630.26	1.610
630.59	2.332
630.92	2.684
631.25	2.862
631.58	1.789
631.91	2.343
632.24	1.537
632.57	2.657
632.90	1.705
633.23	1.633
633.56	2.959
633.89	1.963
634.22	2.079
634.55	2.088
634.88	1.515
635.20	3.229
635.53	1.243
635.86	2.167
636.19	2.227
636.52	0.949
636.85	0.715
637.18	2.287
637.51	1.290
637.83	1.550
638.16	1.152
638.49	1.408
638.82	1.578
639.15	0.802
639.48	1.270
639.81	0.924
640.13	2.120
640.46	-0.727
640.79	0.368
641.12	0.745
641.45	0.251
641.77	2.182
642.10	-1.181
642.43	1.729
642.76	1.355
643.09	0.685
643.41	-0.140
643.74	0.828
644.07	2.207
644.40	-0.283
644.73	-0.290
645.05	-0.881
645.38	0.576
645.71	0.587
646.04	0.430
646.36	-1.022
646.69	0.920
647.02	0.765
647.35	1.679
647.67	0.161
648.00	-2.229
648.33	0.450
648.66	-0.285
648.98	-0.952
649.31	0.812
649.64	1.594
649.96	0.265
650.29	-1.252
650.62	0.000
650.94	-0.601
651.27	-1.347
651.60	1.462
651.92	0.456
652.25	1.302
652.58	0.275
