SpectraSuite Data File
++++++++++++++++++++++++++++++++++++
Date: Thu May 14 15:54:55 PDT 2015
User: schluterlab
Dark Spectrum Present: Yes
Reference Spectrum Present: Yes
Number of Sampled Component Spectra: 1
Spectrometers: USB2E3373
Integration Time (usec): 3000 (USB2E3373)
Spectra Averaged: 3 (USB2E3373)
Boxcar Smoothing: 0 (USB2E3373)
Correct for Electrical Dark: No (USB2E3373)
Strobe/Lamp Enabled: No (USB2E3373)
Correct for Detector Non-linearity: No (USB2E3373)
Correct for Stray Light: No (USB2E3373)
Number of Pixels in Processed Spectrum: 2048
>>>>>Begin Processed Spectral Data<<<<<
178.53	0.000
178.91	442.857
179.29	-3300.000
179.67	-3500.000
180.04	292.857
180.42	290.000
180.80	560.000
181.18	-3000.000
181.56	-2200.000
181.94	900.000
182.31	-900.000
182.69	1066.667
183.07	-1750.000
183.45	800.000
183.83	-450.000
184.20	-966.667
184.58	3400.000
184.96	-975.000
185.34	-377.778
185.72	-700.000
186.09	533.333
186.47	2050.000
186.85	820.000
187.23	-411.111
187.61	-3300.000
187.98	700.000
188.36	1050.000
188.74	-775.000
189.12	-1100.000
189.49	-168.750
189.87	-375.000
190.25	-333.333
190.63	-660.000
191.00	-422.222
191.38	0.000
191.76	-975.000
192.14	-383.333
192.51	1550.000
192.89	-416.667
193.27	0.000
193.65	-400.000
194.02	-4700.000
194.40	-542.857
194.78	500.000
195.15	0.000
195.53	-236.364
195.91	0.000
196.29	-625.000
196.66	-161.538
197.04	-3100.000
197.42	-414.286
197.79	-1800.000
198.17	-487.500
198.55	-485.714
198.92	-333.333
199.30	-475.000
199.68	-300.000
200.05	-142.857
200.43	-1400.000
200.81	471.429
201.18	0.000
201.56	411.111
201.94	0.000
202.31	1200.000
202.69	-355.556
203.07	2300.000
203.44	-288.889
203.82	-975.000
204.19	-275.000
204.57	-500.000
204.95	-325.000
205.32	-2300.000
205.70	925.000
206.08	-466.667
206.45	-333.333
206.83	960.000
207.20	-533.333
207.58	-880.000
207.96	-583.333
208.33	-450.000
208.71	325.000
209.08	-216.667
209.46	0.000
209.84	683.333
210.21	1250.000
210.59	1450.000
210.96	1466.667
211.34	-950.000
211.71	-412.500
212.09	-3500.000
212.46	0.000
212.84	2250.000
213.22	-580.000
213.59	-600.000
213.97	-220.000
214.34	-966.667
214.72	633.333
215.09	-1000.000
215.47	0.000
215.84	528.571
216.22	1950.000
216.59	-620.000
216.97	-660.000
217.34	-875.000
217.72	-350.000
218.09	-750.000
218.47	-950.000
218.84	0.000
219.22	740.000
219.59	-164.706
219.97	-155.000
220.34	1500.000
220.72	-300.000
221.09	-223.077
221.47	-1033.333
221.84	-290.000
222.22	-400.000
222.59	0.000
222.97	-275.000
223.34	-700.000
223.72	-4100.000
224.09	-925.000
224.46	-800.000
224.84	-440.000
225.21	-471.429
225.59	-850.000
225.96	-550.000
226.34	-65.385
226.71	733.333
227.08	-1600.000
227.46	-186.667
227.83	-875.000
228.21	-147.368
228.58	312.500
228.95	1500.000
229.33	-166.667
229.70	-220.000
230.08	-84.211
230.45	390.000
230.82	-1133.333
231.20	-200.000
231.57	-233.333
231.95	-300.000
232.32	-245.455
232.69	-145.000
233.07	-675.000
233.44	-211.765
233.81	-290.000
234.19	-100.000
234.56	-104.545
234.93	-48.276
235.31	-131.579
235.68	-116.667
236.05	-160.000
236.43	-73.077
236.80	-60.000
237.17	-88.889
237.55	-66.667
237.92	-350.000
238.29	-77.419
238.67	-61.364
239.04	-52.778
239.41	-76.190
239.79	-56.522
240.16	-25.926
240.53	-39.130
240.91	-45.098
241.28	-32.787
241.65	-13.433
242.02	-14.865
242.40	-46.154
242.77	-25.333
243.14	-17.073
243.51	-28.947
243.89	-35.897
244.26	-9.901
244.63	-8.824
245.00	-3.738
245.38	-8.772
245.75	-24.779
246.12	-14.286
246.49	-10.853
246.87	-4.286
247.24	0.662
247.61	-4.605
247.98	0.000
248.36	0.000
248.73	-7.362
249.10	2.732
249.47	4.478
249.84	3.665
250.22	-6.218
250.59	2.778
250.96	2.273
251.33	-6.122
251.70	6.410
252.08	5.000
252.45	6.557
252.82	3.306
253.19	4.297
253.56	7.605
253.94	1.923
254.31	2.273
254.68	11.538
255.05	9.121
255.42	5.442
255.79	6.149
256.16	2.318
256.54	4.967
256.91	6.557
257.28	4.590
257.65	4.777
258.02	7.670
258.39	7.407
258.76	9.480
259.14	7.759
259.51	8.069
259.88	5.666
260.25	8.611
260.62	9.041
260.99	10.656
261.36	11.260
261.73	7.427
262.10	8.516
262.47	8.043
262.85	7.323
263.22	4.935
263.59	5.526
263.96	11.765
264.33	10.230
264.70	8.642
265.07	9.547
265.44	11.111
265.81	10.185
266.18	12.925
266.55	8.929
266.92	8.884
267.29	10.722
267.66	8.426
268.03	10.917
268.40	10.021
268.77	7.745
269.14	6.828
269.51	10.307
269.88	10.861
270.25	10.262
270.62	11.814
270.99	14.141
271.36	12.475
271.73	9.037
272.10	12.024
272.47	8.016
272.84	10.040
273.21	12.024
273.58	9.879
273.95	8.462
274.32	10.076
274.69	9.865
275.06	12.454
275.43	10.536
275.80	9.347
276.17	8.704
276.54	8.396
276.91	8.587
277.28	7.776
277.65	8.977
278.02	11.397
278.39	10.145
278.76	7.909
279.13	9.929
279.50	9.966
279.87	8.408
280.23	6.514
280.60	10.678
280.97	11.184
281.34	9.168
281.71	11.844
282.08	10.797
282.45	10.802
282.82	10.832
283.19	8.885
283.56	8.033
283.92	11.712
284.29	10.742
284.66	11.166
285.03	8.333
285.40	10.046
285.77	10.526
286.14	8.702
286.51	11.568
286.87	10.111
287.24	12.651
287.61	11.958
287.98	11.329
288.35	11.095
288.72	9.024
289.08	11.859
289.45	8.876
289.82	9.639
290.19	10.345
290.56	11.127
290.93	10.414
291.29	11.157
291.66	10.055
292.03	8.005
292.40	9.252
292.77	8.625
293.13	9.743
293.50	9.198
293.87	9.262
294.24	11.067
294.60	10.619
294.97	9.262
295.34	10.243
295.71	8.449
296.08	11.240
296.44	8.946
296.81	8.648
297.18	9.589
297.55	9.552
297.91	9.490
298.28	9.360
298.65	8.799
299.02	9.209
299.38	9.725
299.75	8.528
300.12	9.259
300.48	9.908
300.85	10.236
301.22	10.291
301.59	8.333
301.95	9.831
302.32	9.556
302.69	9.639
303.05	9.032
303.42	9.534
303.79	8.958
304.15	11.251
304.52	9.619
304.89	10.052
305.25	8.903
305.62	10.031
305.99	9.691
306.35	10.081
306.72	10.755
307.09	11.371
307.45	9.420
307.82	11.201
308.19	10.192
308.55	10.897
308.92	10.613
309.29	11.686
309.65	10.039
310.02	10.990
310.38	10.827
310.75	11.553
311.12	11.409
311.48	10.362
311.85	12.156
312.22	11.954
312.58	10.704
312.95	11.185
313.31	11.743
313.68	12.912
314.05	13.731
314.41	12.842
314.78	12.080
315.14	12.795
315.51	12.742
315.87	12.151
316.24	13.333
316.61	12.700
316.97	12.489
317.34	12.522
317.70	13.799
318.07	13.757
318.43	13.690
318.80	15.217
319.16	13.391
319.53	12.425
319.89	13.585
320.26	13.345
320.62	13.209
320.99	13.666
321.35	14.048
321.72	15.721
322.08	13.436
322.45	14.634
322.81	14.621
323.18	14.513
323.54	15.086
323.91	15.214
324.27	14.200
324.64	17.548
325.00	14.345
325.37	15.397
325.73	16.529
326.10	17.680
326.46	17.182
326.83	17.054
327.19	17.402
327.56	16.917
327.92	16.444
328.29	16.290
328.65	14.908
329.01	17.174
329.38	16.596
329.74	16.267
330.11	17.295
330.47	17.018
330.84	17.313
331.20	16.583
331.56	15.251
331.93	16.402
332.29	16.949
332.66	17.608
333.02	16.499
333.38	16.611
333.75	17.508
334.11	16.264
334.48	16.997
334.84	18.182
335.20	19.060
335.57	17.875
335.93	17.603
336.29	17.304
336.66	15.980
337.02	15.719
337.38	17.432
337.75	16.860
338.11	17.746
338.47	17.535
338.84	16.328
339.20	16.849
339.56	15.486
339.93	16.831
340.29	16.667
340.65	16.383
341.02	16.840
341.38	18.189
341.74	16.949
342.11	17.216
342.47	16.203
342.83	16.989
343.20	16.680
343.56	16.199
343.92	16.813
344.28	16.016
344.65	16.512
345.01	16.927
345.37	16.019
345.73	15.822
346.10	16.693
346.46	16.535
346.82	16.704
347.19	16.501
347.55	17.071
347.91	17.459
348.27	16.844
348.63	16.146
349.00	16.853
349.36	17.026
349.72	16.369
350.08	16.790
350.45	16.350
350.81	16.742
351.17	17.293
351.53	18.120
351.89	17.312
352.26	16.418
352.62	16.567
352.98	15.802
353.34	16.131
353.70	16.872
354.07	17.139
354.43	15.945
354.79	16.679
355.15	16.041
355.51	16.520
355.87	16.230
356.24	16.046
356.60	17.073
356.96	16.531
357.32	16.134
357.68	17.277
358.04	15.269
358.40	16.343
358.77	17.032
359.13	16.470
359.49	16.208
359.85	16.679
360.21	16.499
360.57	16.224
360.93	17.489
361.29	17.684
361.66	17.017
362.02	17.815
362.38	16.725
362.74	16.341
363.10	18.157
363.46	16.413
363.82	16.619
364.18	17.030
364.54	17.704
364.90	18.127
365.26	18.276
365.62	17.533
365.98	17.359
366.35	17.852
366.71	17.211
367.07	16.982
367.43	17.334
367.79	17.319
368.15	17.860
368.51	16.915
368.87	17.113
369.23	17.467
369.59	17.350
369.95	17.850
370.31	17.758
370.67	18.019
371.03	17.798
371.39	17.931
371.75	17.607
372.11	18.699
372.47	17.874
372.83	17.212
373.19	18.012
373.55	17.480
373.91	16.701
374.27	18.241
374.63	17.930
374.99	18.103
375.35	17.792
375.71	18.258
376.07	18.915
376.42	18.010
376.78	19.826
377.14	17.592
377.50	17.774
377.86	18.966
378.22	19.281
378.58	18.252
378.94	18.779
379.30	18.922
379.66	19.342
380.02	19.504
380.38	19.124
380.74	19.324
381.09	18.990
381.45	19.318
381.81	19.965
382.17	19.477
382.53	18.596
382.89	19.865
383.25	18.992
383.61	18.229
383.97	19.022
384.32	19.318
384.68	18.677
385.04	19.838
385.40	19.859
385.76	19.637
386.12	19.150
386.48	19.588
386.83	20.143
387.19	19.525
387.55	18.545
387.91	20.263
388.27	19.688
388.62	19.301
388.98	19.571
389.34	19.976
389.70	20.395
390.06	19.775
390.42	19.096
390.77	20.470
391.13	20.246
391.49	19.928
391.85	19.273
392.20	19.573
392.56	19.669
392.92	20.665
393.28	19.790
393.64	20.335
393.99	21.034
394.35	20.736
394.71	20.299
395.07	20.120
395.42	19.931
395.78	20.719
396.14	20.143
396.50	20.428
396.85	20.274
397.21	20.414
397.57	20.024
397.92	19.989
398.28	20.152
398.64	20.881
399.00	20.052
399.35	20.524
399.71	20.815
400.07	19.933
400.42	21.071
400.78	21.238
401.14	20.489
401.49	20.978
401.85	20.930
402.21	21.379
402.57	22.007
402.92	21.513
403.28	21.077
403.63	20.346
403.99	19.893
404.35	21.092
404.70	20.963
405.06	21.413
405.42	20.433
405.77	21.374
406.13	20.800
406.49	21.284
406.84	22.216
407.20	21.129
407.55	21.442
407.91	20.742
408.27	21.143
408.62	22.280
408.98	21.300
409.34	20.352
409.69	21.570
410.05	21.981
410.40	21.810
410.76	22.154
411.11	22.092
411.47	22.113
411.83	21.869
412.18	22.289
412.54	22.288
412.89	22.177
413.25	21.332
413.60	21.310
413.96	22.028
414.31	21.303
414.67	21.228
415.03	21.785
415.38	22.257
415.74	22.541
416.09	22.332
416.45	21.666
416.80	21.359
417.16	21.775
417.51	22.727
417.87	22.808
418.22	21.737
418.58	21.128
418.93	22.119
419.29	22.133
419.64	22.389
420.00	22.136
420.35	22.403
420.71	21.884
421.06	22.082
421.42	21.961
421.77	22.563
422.12	22.463
422.48	22.427
422.83	23.165
423.19	23.024
423.54	23.009
423.90	23.357
424.25	22.453
424.61	22.044
424.96	22.680
425.31	24.257
425.67	23.188
426.02	22.524
426.38	23.307
426.73	22.489
427.09	23.356
427.44	22.174
427.79	22.941
428.15	22.432
428.50	22.921
428.85	22.388
429.21	23.191
429.56	23.396
429.92	23.292
430.27	23.518
430.62	23.547
430.98	23.020
431.33	22.972
431.68	22.749
432.04	23.108
432.39	22.764
432.74	23.231
433.10	23.580
433.45	23.300
433.80	23.498
434.16	23.140
434.51	23.638
434.86	23.941
435.22	23.007
435.57	23.349
435.92	22.649
436.28	22.298
436.63	22.829
436.98	23.242
437.34	23.168
437.69	22.895
438.04	23.427
438.39	22.458
438.75	22.911
439.10	23.837
439.45	23.421
439.81	22.429
440.16	22.413
440.51	23.188
440.86	23.013
441.22	22.937
441.57	23.008
441.92	23.957
442.27	24.141
442.63	23.547
442.98	24.066
443.33	23.882
443.68	24.232
444.03	24.412
444.39	24.041
444.74	24.043
445.09	23.974
445.44	23.762
445.79	23.755
446.15	24.101
446.50	23.152
446.85	23.298
447.20	23.501
447.55	23.849
447.91	23.508
448.26	24.366
448.61	23.167
448.96	24.464
449.31	23.860
449.66	23.094
450.02	23.892
450.37	24.188
450.72	23.681
451.07	23.861
451.42	23.801
451.77	23.013
452.12	23.871
452.47	23.708
452.83	24.324
453.18	23.234
453.53	23.837
453.88	22.584
454.23	23.503
454.58	23.506
454.93	23.847
455.28	23.299
455.63	23.764
455.98	23.966
456.34	23.675
456.69	23.163
457.04	24.054
457.39	23.614
457.74	23.881
458.09	23.339
458.44	24.192
458.79	23.517
459.14	23.440
459.49	23.769
459.84	25.026
460.19	23.654
460.54	24.645
460.89	24.669
461.24	23.851
461.59	24.239
461.94	22.932
462.29	24.188
462.64	23.657
462.99	23.917
463.34	23.816
463.69	23.681
464.04	24.736
464.39	23.767
464.74	24.287
465.09	22.953
465.44	23.337
465.79	23.374
466.14	23.762
466.49	23.421
466.84	24.573
467.19	23.757
467.54	23.090
467.89	22.701
468.24	23.158
468.59	23.046
468.94	23.193
469.29	22.615
469.64	24.539
469.99	24.410
470.34	23.639
470.68	23.513
471.03	24.361
471.38	24.068
471.73	23.277
472.08	22.272
472.43	24.383
472.78	24.181
473.13	23.072
473.48	23.746
473.83	24.318
474.17	23.447
474.52	24.173
474.87	24.419
475.22	25.014
475.57	23.936
475.92	24.141
476.27	23.908
476.61	23.884
476.96	23.253
477.31	24.851
477.66	25.236
478.01	23.386
478.36	23.480
478.70	24.335
479.05	24.693
479.40	24.334
479.75	24.496
480.10	24.254
480.45	23.838
480.79	24.626
481.14	24.862
481.49	23.807
481.84	24.935
482.19	24.602
482.53	24.836
482.88	24.324
483.23	24.100
483.58	23.930
483.92	23.404
484.27	24.725
484.62	24.051
484.97	24.883
485.31	24.463
485.66	22.900
486.01	22.936
486.36	24.384
486.70	24.855
487.05	25.198
487.40	24.890
487.75	24.809
488.09	24.486
488.44	24.414
488.79	24.148
489.13	24.258
489.48	23.456
489.83	24.266
490.17	23.248
490.52	23.974
490.87	24.239
491.22	24.263
491.56	24.275
491.91	24.684
492.26	24.059
492.60	24.180
492.95	24.221
493.30	24.563
493.64	24.573
493.99	24.298
494.34	24.347
494.68	23.812
495.03	25.022
495.37	24.190
495.72	24.263
496.07	24.408
496.41	24.067
496.76	24.354
497.11	24.459
497.45	23.910
497.80	24.256
498.14	24.036
498.49	24.265
498.84	24.543
499.18	24.202
499.53	24.439
499.87	24.484
500.22	23.731
500.56	24.516
500.91	24.760
501.26	24.545
501.60	24.127
501.95	24.794
502.29	24.265
502.64	24.486
502.98	23.814
503.33	23.801
503.67	23.681
504.02	24.606
504.36	24.441
504.71	24.621
505.06	24.557
505.40	24.406
505.75	23.816
506.09	24.632
506.44	25.348
506.78	24.725
507.13	24.942
507.47	25.154
507.82	24.195
508.16	24.570
508.51	24.941
508.85	24.658
509.19	24.822
509.54	25.360
509.88	24.332
510.23	25.158
510.57	25.085
510.92	24.625
511.26	25.349
511.61	24.433
511.95	24.305
512.30	24.815
512.64	24.038
512.98	25.363
513.33	25.202
513.67	24.732
514.02	25.600
514.36	25.064
514.70	25.104
515.05	25.339
515.39	24.777
515.74	25.663
516.08	25.357
516.42	24.961
516.77	24.711
517.11	24.807
517.46	25.027
517.80	25.975
518.14	25.843
518.49	26.410
518.83	24.907
519.17	24.448
519.52	26.153
519.86	25.766
520.20	25.559
520.55	24.754
520.89	25.563
521.23	26.019
521.58	26.158
521.92	25.439
522.26	25.143
522.61	26.389
522.95	26.125
523.29	26.437
523.64	25.448
523.98	26.526
524.32	26.762
524.66	26.864
525.01	25.595
525.35	25.273
525.69	25.986
526.04	25.890
526.38	25.690
526.72	26.817
527.06	26.334
527.41	25.656
527.75	26.306
528.09	25.797
528.43	26.051
528.78	25.665
529.12	25.344
529.46	26.026
529.80	25.114
530.15	26.841
530.49	25.445
530.83	26.151
531.17	26.105
531.51	25.933
531.86	25.541
532.20	26.829
532.54	25.015
532.88	25.212
533.22	26.046
533.57	25.389
533.91	25.365
534.25	25.834
534.59	26.207
534.93	25.410
535.27	26.479
535.62	26.379
535.96	26.148
536.30	25.088
536.64	25.826
536.98	26.199
537.32	26.605
537.66	25.951
538.01	25.136
538.35	25.457
538.69	25.901
539.03	25.751
539.37	25.501
539.71	26.066
540.05	25.300
540.39	24.756
540.73	24.469
541.07	25.935
541.42	25.340
541.76	25.208
542.10	24.970
542.44	24.726
542.78	26.277
543.12	24.613
543.46	24.237
543.80	25.719
544.14	25.314
544.48	25.296
544.82	25.913
545.16	24.925
545.50	24.745
545.84	24.372
546.18	26.420
546.52	24.650
546.86	24.654
547.20	25.127
547.54	25.156
547.88	24.292
548.22	23.684
548.56	24.108
548.90	24.358
549.24	24.438
549.58	25.047
549.92	24.490
550.26	25.372
550.60	25.207
550.94	24.515
551.28	24.224
551.62	26.213
551.96	23.948
552.30	25.239
552.64	24.020
552.98	23.955
553.32	25.338
553.66	24.116
554.00	25.158
554.34	24.968
554.68	23.822
555.02	25.230
555.36	24.326
555.69	23.703
556.03	23.581
556.37	24.906
556.71	23.716
557.05	24.728
557.39	24.088
557.73	24.637
558.07	24.503
558.41	24.385
558.75	24.544
559.08	24.426
559.42	23.937
559.76	24.627
560.10	24.113
560.44	24.274
560.78	24.625
561.12	23.892
561.45	23.905
561.79	24.237
562.13	23.475
562.47	23.181
562.81	23.861
563.15	23.864
563.48	24.239
563.82	23.579
564.16	22.714
564.50	23.063
564.84	22.950
565.17	23.412
565.51	22.957
565.85	23.990
566.19	22.523
566.52	23.464
566.86	22.920
567.20	22.893
567.54	23.314
567.88	23.242
568.21	24.012
568.55	22.446
568.89	23.196
569.23	22.729
569.56	22.392
569.90	22.808
570.24	22.664
570.57	22.322
570.91	21.831
571.25	21.782
571.59	21.959
571.92	22.042
572.26	22.287
572.60	22.058
572.93	21.876
573.27	22.085
573.61	22.181
573.95	21.801
574.28	21.701
574.62	21.464
574.96	21.659
575.29	21.304
575.63	21.391
575.97	21.509
576.30	21.318
576.64	21.451
576.98	21.116
577.31	21.616
577.65	21.296
577.98	21.386
578.32	20.941
578.66	21.429
578.99	20.889
579.33	21.098
579.67	21.215
580.00	21.038
580.34	21.270
580.67	20.984
581.01	20.576
581.35	20.651
581.68	21.118
582.02	20.912
582.35	21.440
582.69	20.989
583.02	20.669
583.36	21.113
583.70	20.995
584.03	20.230
584.37	20.958
584.70	20.587
585.04	20.484
585.37	20.504
585.71	20.453
586.04	20.476
586.38	20.729
586.72	20.030
587.05	20.721
587.39	20.618
587.72	20.311
588.06	20.696
588.39	20.513
588.73	19.841
589.06	20.090
589.40	20.406
589.73	21.337
590.07	20.259
590.40	20.487
590.73	20.255
591.07	20.700
591.40	20.295
591.74	19.992
592.07	20.828
592.41	20.347
592.74	20.092
593.08	19.777
593.41	20.035
593.75	20.000
594.08	20.267
594.41	19.840
594.75	20.126
595.08	19.852
595.42	19.968
595.75	19.729
596.09	20.095
596.42	20.566
596.75	20.069
597.09	19.677
597.42	19.865
597.75	19.600
598.09	20.357
598.42	19.863
598.76	19.259
599.09	19.865
599.42	19.444
599.76	19.115
600.09	19.953
600.42	19.019
600.76	19.221
601.09	19.615
601.42	19.602
601.76	19.138
602.09	19.442
602.42	18.757
602.76	19.410
603.09	19.640
603.42	19.473
603.76	19.274
604.09	19.659
604.42	19.670
604.76	18.227
605.09	19.585
605.42	19.298
605.75	18.962
606.09	18.402
606.42	18.935
606.75	18.516
607.09	18.587
607.42	19.037
607.75	18.523
608.08	18.903
608.42	18.783
608.75	18.947
609.08	18.548
609.41	18.350
609.75	18.214
610.08	18.821
610.41	18.267
610.74	19.076
611.07	18.650
611.41	19.058
611.74	19.169
612.07	18.747
612.40	18.489
612.73	19.609
613.07	19.413
613.40	19.105
613.73	18.488
614.06	18.204
614.39	18.367
614.72	17.855
615.06	18.816
615.39	18.560
615.72	18.246
616.05	17.727
616.38	18.264
616.71	18.077
617.05	17.412
617.38	18.459
617.71	18.305
618.04	18.403
618.37	19.126
618.70	18.100
619.03	18.041
619.36	17.509
619.69	18.386
620.03	18.581
620.36	18.650
620.69	17.767
621.02	18.110
621.35	18.723
621.68	18.872
622.01	18.149
622.34	17.713
622.67	17.457
623.00	17.072
623.33	18.447
623.66	18.677
623.99	17.841
624.32	18.324
624.65	17.375
624.99	17.815
625.32	18.615
625.65	18.409
625.98	17.763
626.31	17.505
626.64	18.315
626.97	16.879
627.30	16.629
627.63	17.404
627.96	18.769
628.29	17.588
628.62	17.128
628.95	19.018
629.28	17.757
629.61	17.340
629.94	17.490
630.26	16.864
630.59	17.271
630.92	17.229
631.25	19.141
631.58	17.514
631.91	16.401
632.24	18.732
