SpectraSuite Data File
++++++++++++++++++++++++++++++++++++
Date: Thu May 14 15:50:13 PDT 2015
User: schluterlab
Dark Spectrum Present: Yes
Reference Spectrum Present: Yes
Number of Sampled Component Spectra: 1
Spectrometers: USB2E3373
Integration Time (usec): 3000 (USB2E3373)
Spectra Averaged: 3 (USB2E3373)
Boxcar Smoothing: 0 (USB2E3373)
Correct for Electrical Dark: No (USB2E3373)
Strobe/Lamp Enabled: No (USB2E3373)
Correct for Detector Non-linearity: No (USB2E3373)
Correct for Stray Light: No (USB2E3373)
Number of Pixels in Processed Spectrum: 2048
>>>>>Begin Processed Spectral Data<<<<<
178.53	0.000
178.91	700.000
179.29	-4800.000
179.67	-4800.000
180.04	421.429
180.42	430.000
180.80	840.000
181.18	-5100.000
181.56	-3100.000
181.94	900.000
182.31	-1000.000
182.69	1400.000
183.07	-2250.000
183.45	1300.000
183.83	-883.333
184.20	-1733.333
184.58	4400.000
184.96	-1100.000
185.34	-455.556
185.72	-700.000
186.09	577.778
186.47	2600.000
186.85	960.000
187.23	-511.111
187.61	-4000.000
187.98	760.000
188.36	1300.000
188.74	-1050.000
189.12	-1566.667
189.49	-218.750
189.87	-725.000
190.25	-444.444
190.63	-900.000
191.00	-477.778
191.38	0.000
191.76	-1200.000
192.14	-783.333
192.51	2300.000
192.89	-683.333
193.27	0.000
193.65	-500.000
194.02	-5000.000
194.40	-542.857
194.78	728.571
195.15	0.000
195.53	-318.182
195.91	0.000
196.29	-850.000
196.66	-253.846
197.04	-4400.000
197.42	-642.857
197.79	-2200.000
198.17	-637.500
198.55	-628.571
198.92	-455.556
199.30	-625.000
199.68	-327.273
200.05	-285.714
200.43	-2500.000
200.81	771.429
201.18	0.000
201.56	544.444
201.94	0.000
202.31	1466.667
202.69	-500.000
203.07	3500.000
203.44	-422.222
203.82	-1100.000
204.19	-341.667
204.57	-650.000
204.95	-562.500
205.32	-3800.000
205.70	1025.000
206.08	-716.667
206.45	-683.333
206.83	1200.000
207.20	-750.000
207.58	-840.000
207.96	-783.333
208.33	-566.667
208.71	391.667
209.08	-666.667
209.46	0.000
209.84	816.667
210.21	1950.000
210.59	2500.000
210.96	1866.667
211.34	-975.000
211.71	-500.000
212.09	-5100.000
212.46	0.000
212.84	2200.000
213.22	-820.000
213.59	-925.000
213.97	-300.000
214.34	-1133.333
214.72	700.000
215.09	-975.000
215.47	0.000
215.84	542.857
216.22	2450.000
216.59	-840.000
216.97	-880.000
217.34	-1050.000
217.72	-550.000
218.09	-1050.000
218.47	-1075.000
218.84	0.000
219.22	720.000
219.59	-229.412
219.97	-160.000
220.34	1950.000
220.72	-466.667
221.09	-269.231
221.47	-1533.333
221.84	-310.000
222.22	-500.000
222.59	0.000
222.97	-387.500
223.34	-960.000
223.72	-4400.000
224.09	-1200.000
224.46	-1325.000
224.84	-800.000
225.21	-628.571
225.59	-1075.000
225.96	-1125.000
226.34	-103.846
226.71	933.333
227.08	-2250.000
227.46	-200.000
227.83	-850.000
228.21	-215.789
228.58	675.000
228.95	2400.000
229.33	-333.333
229.70	-530.000
230.08	-142.105
230.45	480.000
230.82	-1033.333
231.20	-235.714
231.57	-325.000
231.95	-418.182
232.32	-409.091
232.69	-215.000
233.07	-950.000
233.44	-229.412
233.81	-360.000
234.19	-144.444
234.56	-136.364
234.93	-100.000
235.31	-147.368
235.68	-216.667
236.05	-210.000
236.43	-88.462
236.80	-60.000
237.17	-96.296
237.55	-81.818
237.92	-290.000
238.29	-93.548
238.67	-59.091
239.04	-77.778
239.41	-52.381
239.79	-52.174
240.16	-46.296
240.53	-36.957
240.91	-50.980
241.28	-16.393
241.65	-5.970
242.02	-4.054
242.40	-15.385
242.77	-22.667
243.14	-12.195
243.51	-15.789
243.89	-6.410
244.26	4.950
244.63	1.961
245.00	5.607
245.38	5.263
245.75	0.000
246.12	10.317
246.49	13.178
246.87	17.143
247.24	17.881
247.61	19.079
247.98	12.752
248.36	23.457
248.73	16.564
249.10	27.869
249.47	35.323
249.84	25.654
250.22	29.016
250.59	36.111
250.96	30.455
251.33	26.020
251.70	27.350
252.08	27.500
252.45	35.246
252.82	32.231
253.19	29.297
253.56	32.700
253.94	33.846
254.31	36.364
254.68	36.364
255.05	36.156
255.42	35.034
255.79	35.922
256.16	37.086
256.54	33.444
256.91	35.410
257.28	34.098
257.65	34.395
258.02	35.398
258.39	35.613
258.76	37.003
259.14	41.092
259.51	40.346
259.88	39.377
260.25	36.944
260.62	40.000
260.99	39.891
261.36	36.997
261.73	37.666
262.10	43.407
262.47	42.091
262.85	42.929
263.22	36.364
263.59	38.421
263.96	41.432
264.33	37.852
264.70	41.235
265.07	42.482
265.44	44.671
265.81	41.667
266.18	40.816
266.55	40.402
266.92	40.091
267.29	43.764
267.66	41.907
268.03	41.703
268.40	39.040
268.77	41.913
269.14	38.987
269.51	40.570
269.88	42.418
270.25	39.437
270.62	43.671
270.99	41.212
271.36	42.574
271.73	40.275
272.10	42.084
272.47	42.084
272.84	41.968
273.21	42.084
273.58	41.935
273.95	39.423
274.32	38.593
274.69	41.006
275.06	40.476
275.43	38.262
275.80	41.975
276.17	39.259
276.54	38.433
276.91	39.893
277.28	41.591
277.65	42.190
278.02	40.809
278.39	41.123
278.76	41.828
279.13	40.780
279.50	39.863
279.87	39.714
280.23	38.204
280.60	37.797
280.97	40.625
281.34	41.596
281.71	38.917
282.08	39.203
282.45	39.771
282.82	37.677
283.19	38.772
283.56	40.000
283.92	41.141
284.29	40.126
284.66	38.259
285.03	37.019
285.40	36.321
285.77	39.783
286.14	39.542
286.51	38.508
286.87	37.915
287.24	39.910
287.61	39.611
287.98	39.124
288.35	39.645
288.72	37.130
289.08	37.921
289.45	38.314
289.82	34.036
290.19	38.362
290.56	36.197
290.93	35.093
291.29	35.399
291.66	37.466
292.03	34.735
292.40	38.231
292.77	36.658
293.13	35.047
293.50	34.034
293.87	32.752
294.24	33.600
294.60	33.249
294.97	32.349
295.34	34.571
295.71	31.526
296.08	33.721
296.44	32.353
296.81	31.547
297.18	31.756
297.55	31.250
297.91	32.028
298.28	31.754
298.65	29.013
299.02	30.460
299.38	30.892
299.75	30.140
300.12	30.440
300.48	30.645
300.85	30.596
301.22	30.201
301.59	30.708
301.95	29.153
302.32	29.778
302.69	30.449
303.05	30.794
303.42	29.157
303.79	29.583
304.15	30.705
304.52	28.964
304.89	30.471
305.25	27.433
305.62	29.154
305.99	29.485
306.35	28.730
306.72	30.196
307.09	27.614
307.45	29.089
307.82	28.355
308.19	28.658
308.55	29.026
308.92	27.945
309.29	27.969
309.65	29.045
310.02	27.030
310.38	26.575
310.75	28.350
311.12	28.859
311.48	28.837
311.85	29.725
312.22	26.850
312.58	28.732
312.95	27.151
313.31	28.004
313.68	28.114
314.05	28.636
314.41	28.233
314.78	28.701
315.14	28.312
315.51	27.147
315.87	28.803
316.24	28.037
316.61	28.952
316.97	27.149
317.34	26.455
317.70	27.336
318.07	27.072
318.43	26.616
318.80	27.843
319.16	26.695
319.53	25.021
319.89	26.205
320.26	27.936
320.62	26.507
320.99	25.300
321.35	26.895
321.72	26.326
322.08	26.871
322.45	28.094
322.81	28.971
323.18	27.965
323.54	27.328
323.91	27.224
324.27	25.818
324.64	28.296
325.00	25.290
325.37	27.191
325.73	25.950
326.10	26.845
326.46	27.362
326.83	27.942
327.19	26.850
327.56	28.538
327.92	26.829
328.29	26.694
328.65	25.963
329.01	25.973
329.38	27.296
329.74	26.798
330.11	27.997
330.47	26.201
330.84	26.443
331.20	28.250
331.56	26.863
331.93	26.444
332.29	26.271
332.66	26.578
333.02	25.963
333.38	26.007
333.75	25.842
334.11	25.771
334.48	25.908
334.84	26.678
335.20	25.189
335.57	26.138
335.93	25.868
336.29	25.790
336.66	26.325
337.02	25.920
337.38	25.935
337.75	26.694
338.11	26.493
338.47	25.476
338.84	24.450
339.20	24.516
339.56	24.712
339.93	26.190
340.29	24.396
340.65	24.818
341.02	26.257
341.38	25.950
341.74	24.939
342.11	25.101
342.47	25.417
342.83	25.282
343.20	24.530
343.56	25.341
343.92	25.460
344.28	25.078
344.65	25.581
345.01	25.039
345.37	25.350
345.73	23.539
346.10	25.507
346.46	24.684
346.82	25.169
347.19	24.599
347.55	25.038
347.91	24.220
348.27	23.976
348.63	25.590
349.00	25.429
349.36	24.610
349.72	25.149
350.08	24.146
350.45	23.422
350.81	24.434
351.17	24.361
351.53	24.261
351.89	24.601
352.26	25.000
352.62	24.254
352.98	23.817
353.34	23.898
353.70	24.961
354.07	23.621
354.43	23.994
354.79	24.682
355.15	24.209
355.51	24.854
355.87	23.560
356.24	23.878
356.60	23.725
356.96	23.277
357.32	22.528
357.68	23.719
358.04	22.680
358.40	23.209
358.77	24.050
359.13	23.412
359.49	22.379
359.85	23.640
360.21	24.247
360.57	22.757
360.93	24.189
361.29	23.860
361.66	23.823
362.02	24.565
362.38	23.753
362.74	23.254
363.10	23.659
363.46	22.715
363.82	23.793
364.18	23.786
364.54	23.098
364.90	23.612
365.26	22.621
365.62	23.133
365.98	22.056
366.35	23.289
366.71	22.721
367.07	22.733
367.43	23.900
367.79	24.353
368.15	23.612
368.51	23.275
368.87	23.514
369.23	22.800
369.59	21.926
369.95	23.056
370.31	23.363
370.67	22.971
371.03	23.061
371.39	22.901
371.75	23.246
372.11	23.442
372.47	21.598
372.83	23.364
373.19	21.681
373.55	22.900
373.91	22.086
374.27	22.768
374.63	22.598
374.99	22.613
375.35	22.662
375.71	22.516
376.07	22.853
376.42	22.292
376.78	23.120
377.14	22.520
377.50	22.644
377.86	23.522
378.22	23.234
378.58	23.424
378.94	22.653
379.30	22.554
379.66	22.163
380.02	22.504
380.38	23.560
380.74	23.437
381.09	22.648
381.45	22.727
381.81	22.951
382.17	22.684
382.53	22.105
382.89	22.235
383.25	23.271
383.61	22.859
383.97	22.556
384.32	22.428
384.68	22.158
385.04	22.730
385.40	22.923
385.76	23.564
386.12	21.843
386.48	22.824
386.83	22.765
387.19	22.190
387.55	21.831
387.91	22.374
388.27	22.229
388.62	21.592
388.98	21.940
389.34	21.273
389.70	22.022
390.06	21.670
390.42	22.349
390.77	23.058
391.13	22.477
391.49	21.981
391.85	21.939
392.20	22.479
392.56	22.918
392.92	22.519
393.28	21.669
393.64	22.626
393.99	22.719
394.35	22.780
394.71	22.874
395.07	21.976
395.42	21.702
395.78	23.035
396.14	22.282
396.50	22.150
396.85	21.705
397.21	21.479
397.57	21.673
397.92	21.306
398.28	21.510
398.64	21.911
399.00	20.681
399.35	21.937
399.71	21.467
400.07	21.673
400.42	21.420
400.78	21.354
401.14	21.571
401.49	22.172
401.85	21.977
402.21	22.596
402.57	22.946
402.92	21.099
403.28	21.311
403.63	20.346
403.99	21.675
404.35	21.433
404.70	21.246
405.06	21.087
405.42	22.365
405.77	21.865
406.13	21.718
406.49	22.016
406.84	20.886
407.20	21.576
407.55	21.563
407.91	20.805
408.27	20.730
408.62	21.350
408.98	22.171
409.34	20.821
409.69	21.137
410.05	21.747
410.40	21.752
410.76	21.256
411.11	21.625
411.47	21.683
411.83	21.693
412.18	21.687
412.54	21.280
412.89	20.664
413.25	21.896
413.60	21.252
413.96	21.212
414.31	21.813
414.67	21.646
415.03	20.615
415.38	20.177
415.74	20.525
416.09	22.517
416.45	21.290
416.80	20.073
417.16	21.967
417.51	20.797
417.87	21.214
418.22	21.138
418.58	21.190
418.93	21.304
419.29	20.469
419.64	20.408
420.00	21.009
420.35	21.561
420.71	21.424
421.06	21.507
421.42	21.732
421.77	20.786
422.12	20.085
422.48	21.403
422.83	21.139
423.19	22.122
423.54	21.958
423.90	20.486
424.25	21.440
424.61	20.207
424.96	20.319
425.31	22.240
425.67	20.344
426.02	21.859
426.38	20.781
426.73	20.313
427.09	21.280
427.44	21.573
427.79	21.282
428.15	20.091
428.50	20.506
428.85	20.379
429.21	21.543
429.56	20.731
429.92	20.885
430.27	21.398
430.62	21.544
430.98	21.299
431.33	20.968
431.68	21.552
432.04	22.346
432.39	21.585
432.74	20.719
433.10	20.606
433.45	20.624
433.80	20.815
434.16	21.074
434.51	20.966
434.86	21.336
435.22	21.360
435.57	20.991
435.92	20.812
436.28	20.648
436.63	20.644
436.98	20.505
437.34	20.913
437.69	20.088
438.04	20.783
438.39	20.563
438.75	20.697
439.10	21.882
439.45	21.520
439.81	20.508
440.16	19.732
440.51	20.959
440.86	19.900
441.22	20.954
441.57	20.597
441.92	20.708
442.27	20.909
442.63	21.560
442.98	20.811
443.33	21.725
443.68	21.705
444.03	22.342
444.39	22.330
444.74	21.440
445.09	21.034
445.44	20.653
445.79	21.695
446.15	20.709
446.50	21.395
446.85	21.644
447.20	21.180
447.55	20.921
447.91	20.524
448.26	21.512
448.61	20.510
448.96	21.942
449.31	20.838
449.66	19.880
450.02	20.411
450.37	21.790
450.72	21.259
451.07	21.469
451.42	20.508
451.77	20.456
452.12	20.260
452.47	20.974
452.83	20.270
453.18	19.790
453.53	20.103
453.88	20.928
454.23	20.960
454.58	20.488
454.93	20.206
455.28	19.868
455.63	20.864
455.98	20.726
456.34	19.729
456.69	19.694
457.04	20.863
457.39	20.510
457.74	20.358
458.09	19.220
458.44	21.175
458.79	19.856
459.14	21.605
459.49	20.543
459.84	20.619
460.19	19.767
460.54	21.522
460.89	20.699
461.24	20.230
461.59	21.029
461.94	20.365
462.29	20.941
462.64	20.036
462.99	20.025
463.34	20.311
463.69	20.574
464.04	20.623
464.39	20.291
464.74	20.125
465.09	20.531
465.44	20.601
465.79	20.888
466.14	20.792
466.49	21.211
466.84	21.102
467.19	20.462
467.54	19.741
467.89	20.000
468.24	20.665
468.59	18.992
468.94	18.531
469.29	19.976
469.64	18.627
469.99	19.567
470.34	18.812
470.68	19.959
471.03	19.712
471.38	18.967
471.73	17.880
472.08	19.607
472.43	19.326
472.78	19.710
473.13	19.406
473.48	20.121
473.83	19.907
474.17	19.519
474.52	19.483
474.87	19.989
475.22	20.000
475.57	19.938
475.92	19.960
476.27	19.862
476.61	20.197
476.96	19.812
477.31	20.149
477.66	19.622
478.01	19.624
478.36	19.691
478.70	19.606
479.05	20.399
479.40	19.941
479.75	19.452
480.10	20.322
480.45	19.827
480.79	20.408
481.14	20.358
481.49	20.218
481.84	20.017
482.19	20.258
482.53	19.983
482.88	19.451
483.23	20.053
483.58	20.349
483.92	19.858
484.27	20.195
484.62	19.513
484.97	19.984
485.31	20.345
485.66	19.309
486.01	20.295
486.36	21.399
486.70	22.913
487.05	23.792
487.40	23.729
487.75	23.003
488.09	22.880
488.44	21.887
488.79	21.518
489.13	21.035
489.48	20.117
489.83	19.517
490.17	19.360
490.52	19.787
490.87	19.712
491.22	19.541
491.56	19.582
491.91	19.451
492.26	19.602
492.60	19.720
492.95	19.746
493.30	19.767
493.64	19.229
493.99	19.781
494.34	19.425
494.68	19.229
495.03	20.044
495.37	20.062
495.72	20.000
496.07	19.369
496.41	19.520
496.76	19.850
497.11	19.703
497.45	19.853
497.80	20.036
498.14	19.456
498.49	19.669
498.84	19.241
499.18	19.073
499.53	19.462
499.87	19.516
500.22	19.056
500.56	19.433
500.91	19.222
501.26	20.091
501.60	18.957
501.95	19.366
502.29	19.394
502.64	19.764
502.98	19.672
503.33	18.920
503.67	19.014
504.02	19.002
504.36	19.348
504.71	18.925
505.06	19.600
505.40	19.241
505.75	19.035
506.09	19.337
506.44	19.406
506.78	19.083
507.13	19.963
507.47	19.185
507.82	19.081
508.16	19.073
508.51	18.894
508.85	18.800
509.19	19.233
509.54	19.452
509.88	18.164
510.23	19.184
510.57	18.995
510.92	19.448
511.26	18.615
511.61	18.204
511.95	18.985
512.30	18.956
512.64	18.841
512.98	18.859
513.33	18.095
513.67	18.868
514.02	18.906
514.36	18.568
514.70	18.333
515.05	18.196
515.39	18.425
515.74	18.823
516.08	18.384
516.42	19.048
516.77	17.666
517.11	18.257
517.46	18.346
517.80	19.134
518.14	18.553
518.49	18.492
518.83	17.403
519.17	17.501
519.52	18.553
519.86	18.321
520.20	18.690
520.55	18.510
520.89	17.117
521.23	17.420
521.58	17.966
521.92	18.074
522.26	17.526
522.61	17.708
522.95	16.955
523.29	18.161
523.64	17.096
523.98	17.513
524.32	18.109
524.66	18.042
525.01	17.271
525.35	17.748
525.69	17.459
526.04	17.222
526.38	17.529
526.72	17.186
527.06	17.302
527.41	17.434
527.75	17.993
528.09	17.532
528.43	17.703
528.78	16.879
529.12	17.890
529.46	16.807
529.80	17.506
530.15	17.623
530.49	17.734
530.83	16.824
531.17	17.861
531.51	17.750
531.86	18.029
532.20	17.988
532.54	17.235
532.88	17.091
533.22	16.735
533.57	17.657
533.91	17.845
534.25	17.467
534.59	18.276
534.93	17.770
535.27	17.465
535.62	19.045
535.96	17.664
536.30	17.803
536.64	18.619
536.98	18.512
537.32	17.901
537.66	18.528
538.01	18.006
538.35	16.748
538.69	17.608
539.03	17.413
539.37	18.551
539.71	17.598
540.05	18.345
540.39	17.543
540.73	18.033
541.07	18.332
541.42	17.838
541.76	17.972
542.10	17.612
542.44	17.844
542.78	18.005
543.12	18.117
543.46	17.399
543.80	17.146
544.14	17.475
544.48	18.440
544.82	17.534
545.16	18.128
545.50	17.675
545.84	17.453
546.18	18.889
546.52	17.070
546.86	16.541
547.20	17.875
547.54	17.353
547.88	17.722
548.22	17.602
548.56	18.841
548.90	18.149
549.24	17.690
549.58	17.729
549.92	17.283
550.26	17.411
550.60	18.188
550.94	18.111
551.28	17.360
551.62	16.914
551.96	16.764
552.30	17.145
552.64	17.797
552.98	18.153
553.32	17.428
553.66	17.556
554.00	17.213
554.34	18.404
554.68	17.495
555.02	17.871
555.36	17.883
555.69	17.168
556.03	17.781
556.37	18.523
556.71	17.628
557.05	17.636
557.39	16.257
557.73	17.371
558.07	16.954
558.41	17.807
558.75	16.971
559.08	17.537
559.42	16.529
559.76	17.300
560.10	16.611
560.44	17.546
560.78	17.375
561.12	17.980
561.45	17.822
561.79	17.155
562.13	18.792
562.47	17.078
562.81	17.975
563.15	18.182
563.48	17.651
563.82	17.654
564.16	17.929
564.50	17.402
564.84	18.053
565.17	18.941
565.51	17.549
565.85	18.230
566.19	17.569
566.52	18.373
566.86	18.336
567.20	16.966
567.54	18.109
567.88	19.062
568.21	18.577
568.55	19.472
568.89	19.383
569.23	19.687
569.56	19.617
569.90	19.636
570.24	20.742
570.57	19.820
570.91	20.606
571.25	21.522
571.59	21.653
571.92	21.562
572.26	21.096
572.60	21.403
572.93	21.542
573.27	21.354
573.61	21.493
573.95	21.753
574.28	21.397
574.62	21.351
574.96	21.240
575.29	21.657
575.63	21.483
575.97	21.964
576.30	21.811
576.64	21.451
576.98	21.412
577.31	22.317
577.65	21.998
577.98	21.706
578.32	22.100
578.66	22.069
578.99	21.913
579.33	22.321
579.67	22.371
580.00	22.702
580.34	22.164
580.67	21.690
581.01	22.047
581.35	21.898
581.68	21.721
582.02	21.906
582.35	22.673
582.69	22.905
583.02	22.968
583.36	22.530
583.70	22.722
584.03	22.678
584.37	22.464
584.70	21.565
585.04	21.530
585.37	21.586
585.71	21.467
586.04	21.819
586.38	21.820
586.72	21.860
587.05	21.387
587.39	21.640
587.72	21.746
588.06	22.365
588.39	21.708
588.73	21.825
589.06	22.037
589.40	21.850
589.73	21.530
590.07	21.718
590.40	21.129
590.73	21.209
591.07	20.849
591.40	20.101
591.74	20.469
592.07	20.219
592.41	19.479
592.74	20.270
593.08	21.242
593.41	21.406
593.75	20.747
594.08	21.387
594.41	21.090
594.75	21.089
595.08	20.592
595.42	21.266
595.75	21.246
596.09	21.179
596.42	20.745
596.75	20.687
597.09	21.293
597.42	20.302
597.75	19.953
598.09	20.595
598.42	20.708
598.76	20.787
599.09	20.328
599.42	20.751
599.76	20.667
600.09	20.787
600.42	20.921
600.76	21.301
601.09	20.279
601.42	20.872
601.76	20.483
602.09	21.158
602.42	20.356
602.76	20.627
603.09	20.044
603.42	20.448
603.76	20.014
604.09	21.434
604.42	20.661
604.76	20.586
605.09	20.702
605.42	21.013
605.75	20.654
606.09	20.082
606.42	20.139
606.75	19.678
607.09	19.547
607.42	20.617
607.75	20.711
608.08	20.126
608.42	20.516
608.75	20.025
609.08	20.119
609.41	20.468
609.75	19.732
610.08	20.361
610.41	19.669
610.74	19.706
611.07	19.982
611.41	20.090
611.74	19.723
612.07	19.729
612.40	19.582
612.73	19.853
613.07	19.267
613.40	19.442
613.73	19.403
614.06	19.971
614.39	19.096
614.72	19.262
615.06	19.394
615.39	18.318
615.72	18.863
616.05	20.058
616.38	19.677
616.71	19.227
617.05	18.584
617.38	19.208
617.71	19.276
618.04	19.320
618.37	19.126
618.70	18.891
619.03	18.757
619.36	17.941
619.69	18.898
620.03	18.330
620.36	18.282
620.69	17.520
621.02	17.257
621.35	18.505
621.68	18.221
622.01	17.580
622.34	17.085
622.67	17.457
623.00	17.139
623.33	17.717
623.66	17.445
623.99	17.051
624.32	18.324
624.65	18.147
624.99	18.401
625.32	18.158
625.65	17.195
625.98	17.492
626.31	17.151
626.64	17.436
626.97	17.629
627.30	16.705
627.63	17.104
627.96	17.192
628.29	16.031
628.62	16.037
628.95	15.688
629.28	14.783
629.61	15.657
629.94	15.565
