SpectraSuite Data File
++++++++++++++++++++++++++++++++++++
Date: Thu May 14 16:02:00 PDT 2015
User: schluterlab
Dark Spectrum Present: Yes
Reference Spectrum Present: Yes
Number of Sampled Component Spectra: 1
Spectrometers: USB2E3373
Integration Time (usec): 3000 (USB2E3373)
Spectra Averaged: 3 (USB2E3373)
Boxcar Smoothing: 0 (USB2E3373)
Correct for Electrical Dark: No (USB2E3373)
Strobe/Lamp Enabled: No (USB2E3373)
Correct for Detector Non-linearity: No (USB2E3373)
Correct for Stray Light: No (USB2E3373)
Number of Pixels in Processed Spectrum: 2048
>>>>>Begin Processed Spectral Data<<<<<
178.53	0.000
178.91	157.143
179.29	-1900.000
179.67	-1400.000
180.04	235.714
180.42	200.000
180.80	420.000
181.18	-1000.000
181.56	-1300.000
181.94	300.000
182.31	-350.000
182.69	200.000
183.07	-1000.000
183.45	300.000
183.83	-183.333
184.20	-333.333
184.58	1400.000
184.96	-400.000
185.34	-188.889
185.72	-220.000
186.09	300.000
186.47	750.000
186.85	440.000
187.23	-255.556
187.61	-2500.000
187.98	380.000
188.36	625.000
188.74	-500.000
189.12	-166.667
189.49	-31.250
189.87	-112.500
190.25	-55.556
190.63	-420.000
191.00	-155.556
191.38	0.000
191.76	-625.000
192.14	-300.000
192.51	550.000
192.89	-150.000
193.27	0.000
193.65	-214.286
194.02	-1600.000
194.40	-114.286
194.78	57.143
195.15	0.000
195.53	-181.818
195.91	0.000
196.29	-275.000
196.66	-115.385
197.04	-1600.000
197.42	-228.571
197.79	-900.000
198.17	-187.500
198.55	-157.143
198.92	-144.444
199.30	-100.000
199.68	-181.818
200.05	-28.571
200.43	-1250.000
200.81	242.857
201.18	0.000
201.56	200.000
201.94	0.000
202.31	533.333
202.69	-222.222
203.07	400.000
203.44	-100.000
203.82	-525.000
204.19	-91.667
204.57	-250.000
204.95	-237.500
205.32	-1500.000
205.70	175.000
206.08	-50.000
206.45	-283.333
206.83	600.000
207.20	-283.333
207.58	-200.000
207.96	-383.333
208.33	-183.333
208.71	175.000
209.08	-116.667
209.46	0.000
209.84	216.667
210.21	550.000
210.59	800.000
210.96	1000.000
211.34	-300.000
211.71	-125.000
212.09	-1200.000
212.46	0.000
212.84	950.000
213.22	-280.000
213.59	-450.000
213.97	-100.000
214.34	-500.000
214.72	316.667
215.09	-300.000
215.47	0.000
215.84	185.714
216.22	950.000
216.59	-340.000
216.97	-220.000
217.34	-450.000
217.72	-150.000
218.09	-425.000
218.47	-375.000
218.84	0.000
219.22	360.000
219.59	-64.706
219.97	-45.000
220.34	1200.000
220.72	-255.556
221.09	-76.923
221.47	-400.000
221.84	-150.000
222.22	-271.429
222.59	0.000
222.97	-150.000
223.34	-260.000
223.72	-800.000
224.09	-375.000
224.46	-450.000
224.84	-200.000
225.21	-185.714
225.59	-450.000
225.96	-350.000
226.34	-30.769
226.71	516.667
227.08	-900.000
227.46	-53.333
227.83	-350.000
228.21	-47.368
228.58	212.500
228.95	850.000
229.33	-41.667
229.70	-100.000
230.08	42.105
230.45	170.000
230.82	-333.333
231.20	-35.714
231.57	-83.333
231.95	-81.818
232.32	-136.364
232.69	-40.000
233.07	-275.000
233.44	-52.941
233.81	-90.000
234.19	-22.222
234.56	-36.364
234.93	-17.241
235.31	-57.895
235.68	-72.222
236.05	-70.000
236.43	-11.538
236.80	36.000
237.17	-7.407
237.55	-21.212
237.92	-50.000
238.29	-19.355
238.67	-29.545
239.04	-25.000
239.41	-23.810
239.79	-15.217
240.16	-5.556
240.53	-17.391
240.91	-9.804
241.28	-8.197
241.65	11.940
242.02	5.405
242.40	-1.538
242.77	2.667
243.14	1.220
243.51	-2.632
243.89	-3.846
244.26	19.802
244.63	13.725
245.00	6.542
245.38	7.895
245.75	2.655
246.12	3.175
246.49	9.302
246.87	15.714
247.24	16.556
247.61	10.526
247.98	10.738
248.36	4.938
248.73	6.135
249.10	11.475
249.47	19.403
249.84	17.277
250.22	9.326
250.59	13.889
250.96	16.364
251.33	14.286
251.70	16.667
252.08	16.667
252.45	16.393
252.82	21.901
253.19	11.719
253.56	18.251
253.94	14.615
254.31	20.076
254.68	17.832
255.05	18.893
255.42	18.027
255.79	15.534
256.16	19.536
256.54	11.921
256.91	18.033
257.28	17.049
257.65	14.650
258.02	16.814
258.39	21.083
258.76	21.407
259.14	19.828
259.51	17.291
259.88	17.847
260.25	21.111
260.62	19.178
260.99	18.579
261.36	20.375
261.73	17.507
262.10	18.407
262.47	17.158
262.85	21.717
263.22	19.221
263.59	16.316
263.96	17.136
264.33	19.437
264.70	20.494
265.07	21.480
265.44	23.583
265.81	16.435
266.18	19.048
266.55	19.643
266.92	20.729
267.29	19.475
267.66	20.621
268.03	19.214
268.40	18.789
268.77	19.134
269.14	17.181
269.51	19.956
269.88	18.648
270.25	19.517
270.62	19.620
270.99	22.626
271.36	21.386
271.73	18.468
272.10	18.036
272.47	19.439
272.84	19.277
273.21	16.433
273.58	21.371
273.95	18.654
274.32	19.011
274.69	18.569
275.06	21.978
275.43	18.115
275.80	20.106
276.17	18.148
276.54	18.284
276.91	18.247
277.28	20.253
277.65	17.415
278.02	20.588
278.39	17.572
278.76	18.278
279.13	16.667
279.50	20.619
279.87	20.751
280.23	18.134
280.60	18.136
280.97	19.243
281.34	18.506
281.71	20.812
282.08	16.113
282.45	17.676
282.82	17.896
283.19	16.640
283.56	18.033
283.92	19.820
284.29	18.325
284.66	17.241
285.03	16.506
285.40	20.247
285.77	18.421
286.14	20.000
286.51	17.352
286.87	19.431
287.24	18.373
287.61	15.994
287.98	18.278
288.35	18.639
288.72	18.195
289.08	18.887
289.45	16.716
289.82	18.072
290.19	16.954
290.56	18.028
290.93	18.117
291.29	16.804
291.66	16.942
292.03	17.368
292.40	17.959
292.77	15.768
293.13	16.238
293.50	15.506
293.87	15.168
294.24	19.333
294.60	15.676
294.97	14.497
295.34	16.133
295.71	16.141
296.08	14.987
296.44	15.809
296.81	14.007
297.18	14.321
297.55	14.505
297.91	14.116
298.28	14.929
298.65	15.339
299.02	15.230
299.38	14.645
299.75	13.551
300.12	14.005
300.48	14.862
300.85	15.411
301.22	14.653
301.59	14.954
301.95	15.141
302.32	13.889
302.69	15.444
303.05	15.778
303.42	14.191
303.79	13.125
304.15	15.037
304.52	14.271
304.89	13.508
305.25	13.147
305.62	13.584
305.99	14.845
306.35	12.802
306.72	15.615
307.09	13.909
307.45	14.493
307.82	14.127
308.19	14.834
308.55	16.008
308.92	14.508
309.29	14.847
309.65	14.035
310.02	12.772
310.38	15.059
310.75	14.466
311.12	14.861
311.48	13.685
311.85	15.100
312.22	15.560
312.58	14.836
312.95	14.436
313.31	16.621
313.68	16.117
314.05	15.808
314.41	15.756
314.78	16.440
315.14	16.878
315.51	17.175
315.87	16.832
316.24	17.078
316.61	18.472
316.97	17.466
317.34	18.430
317.70	19.127
318.07	18.959
318.43	18.963
318.80	20.903
319.16	20.000
319.53	20.480
319.89	21.385
320.26	22.865
320.62	22.518
320.99	24.284
321.35	25.139
321.72	26.791
322.08	26.240
322.45	27.823
322.81	28.520
323.18	27.345
323.54	29.052
323.91	30.249
324.27	31.411
324.64	32.326
325.00	32.836
325.37	35.545
325.73	35.785
326.10	37.551
326.46	39.902
326.83	40.512
327.19	40.000
327.56	42.688
327.92	42.093
328.29	44.274
328.65	44.556
329.01	46.954
329.38	49.452
329.74	50.514
330.11	51.113
330.47	50.295
330.84	50.474
331.20	51.250
331.56	52.946
331.93	55.900
332.29	56.186
332.66	56.478
333.02	54.774
333.38	57.215
333.75	58.586
334.11	58.299
334.48	58.498
334.84	62.022
335.20	59.950
335.57	61.298
335.93	61.322
336.29	60.566
336.66	63.246
337.02	62.291
337.38	64.796
337.75	64.132
338.11	66.863
338.47	64.930
338.84	64.805
339.20	66.723
339.56	64.827
339.93	64.614
340.29	65.378
340.65	66.504
341.02	66.959
341.38	69.361
341.74	68.281
342.11	68.544
342.47	67.911
342.83	69.646
343.20	70.973
343.56	70.409
343.92	70.216
344.28	69.531
344.65	70.853
345.01	71.373
345.37	70.607
345.73	69.525
346.10	72.933
346.46	72.152
346.82	70.187
347.19	71.963
347.55	71.017
347.91	71.917
348.27	73.596
348.63	71.973
349.00	72.632
349.36	73.457
349.72	74.405
350.08	73.848
350.45	75.285
350.81	73.680
351.17	74.887
351.53	76.346
351.89	75.778
352.26	76.119
352.62	77.164
352.98	75.954
353.34	73.936
353.70	77.504
354.07	77.571
354.43	77.828
354.79	77.038
355.15	76.968
355.51	76.462
355.87	77.786
356.24	79.544
356.60	76.571
356.96	78.058
357.32	76.877
357.68	78.843
358.04	78.368
358.40	76.940
358.77	79.386
359.13	78.065
359.49	79.331
359.85	79.478
360.21	79.053
360.57	79.110
360.93	78.843
361.29	78.947
361.66	80.232
362.02	79.541
362.38	78.848
362.74	80.656
363.10	80.261
363.46	80.817
363.82	80.540
364.18	80.647
364.54	79.461
364.90	80.067
365.26	80.276
365.62	79.867
365.98	80.735
366.35	80.470
366.71	79.320
367.07	80.650
367.43	81.615
367.79	81.685
368.15	80.669
368.51	80.244
368.87	81.058
369.23	81.933
369.59	82.787
369.95	80.865
370.31	81.567
370.67	81.293
371.03	80.540
371.39	80.927
371.75	81.912
372.11	81.843
372.47	82.464
372.83	81.348
373.19	79.920
373.55	80.623
373.91	81.254
374.27	81.565
374.63	81.394
374.99	82.095
375.35	82.403
375.71	81.613
376.07	81.666
376.42	81.045
376.78	82.039
377.14	81.160
377.50	83.491
377.86	81.712
378.22	81.557
378.58	82.402
378.94	80.869
379.30	81.136
379.66	82.834
380.02	82.285
380.38	83.237
380.74	82.254
381.09	82.636
381.45	81.364
381.81	84.368
382.17	81.651
382.53	81.813
382.89	79.571
383.25	81.946
383.61	81.887
383.97	82.097
384.32	81.998
384.68	80.278
385.04	82.244
385.40	82.204
385.76	83.411
386.12	82.765
386.48	82.118
386.83	82.300
387.19	80.997
387.55	82.394
387.91	81.450
388.27	81.928
388.62	81.329
388.98	80.654
389.34	81.320
389.70	82.452
390.06	82.001
390.42	80.120
390.77	81.758
391.13	81.397
391.49	82.850
391.85	82.061
392.20	81.791
392.56	81.394
392.92	79.771
393.28	81.039
393.64	79.497
393.99	82.510
394.35	81.075
394.71	82.156
395.07	79.760
395.42	78.412
395.78	81.840
396.14	80.154
396.50	79.869
396.85	80.382
397.21	80.000
397.57	80.330
397.92	79.095
398.28	80.120
398.64	79.348
399.00	78.272
399.35	79.581
399.71	78.804
400.07	80.573
400.42	79.511
400.78	80.440
401.14	78.201
401.49	79.420
401.85	80.698
402.21	79.548
402.57	80.634
402.92	78.428
403.28	78.220
403.63	79.773
403.99	78.622
404.35	77.260
404.70	78.470
405.06	77.337
405.42	77.869
405.77	79.226
406.13	78.768
406.49	79.617
406.84	77.839
407.20	77.585
407.55	79.225
407.91	77.184
408.27	77.915
408.62	78.185
408.98	77.191
409.34	78.475
409.69	77.812
410.05	78.664
410.40	77.900
410.76	76.837
411.11	79.135
411.47	77.211
411.83	77.190
412.18	77.590
412.54	77.060
412.89	77.299
413.25	76.637
413.60	77.829
413.96	76.515
414.31	75.751
414.67	75.373
415.03	75.692
415.38	78.310
415.74	75.321
416.09	75.756
416.45	75.830
416.80	74.847
417.16	76.437
417.51	75.529
417.87	75.475
418.22	75.449
418.58	75.960
418.93	75.204
419.29	75.339
419.64	74.910
420.00	76.202
420.35	75.351
420.71	73.808
421.06	75.331
421.42	76.606
421.77	73.990
422.12	73.573
422.48	75.166
422.83	75.685
423.19	74.377
423.54	75.719
423.90	73.827
424.25	74.240
424.61	75.488
424.96	74.904
425.31	74.735
425.67	73.376
426.02	75.318
426.38	74.110
426.73	74.051
427.09	74.683
427.44	73.457
427.79	74.516
428.15	72.945
428.50	73.539
428.85	74.053
429.21	73.670
429.56	72.557
429.92	74.201
430.27	74.120
430.62	73.962
430.98	73.930
431.33	72.923
431.68	73.228
432.04	72.829
432.39	72.630
432.74	74.258
433.10	74.527
433.45	72.965
433.80	73.015
434.16	74.329
434.51	74.563
434.86	75.950
435.22	73.911
435.57	74.528
435.92	74.179
436.28	73.606
436.63	75.806
436.98	71.820
437.34	73.563
437.69	73.858
438.04	73.189
438.39	72.372
438.75	72.994
439.10	73.256
439.45	71.884
439.81	73.051
440.16	72.118
440.51	73.188
440.86	70.650
441.22	71.811
441.57	72.484
441.92	71.387
442.27	73.283
442.63	71.386
442.98	72.519
443.33	71.647
443.68	70.268
444.03	72.719
444.39	72.769
444.74	72.333
445.09	71.566
445.44	73.498
445.79	71.121
446.15	70.915
446.50	71.008
446.85	70.623
447.20	69.971
447.55	70.502
447.91	71.047
448.26	71.036
448.61	70.829
448.96	71.567
449.31	70.944
449.66	69.771
450.02	69.778
450.37	70.112
450.72	69.429
451.07	69.134
451.42	70.248
451.77	69.427
452.12	70.598
452.47	68.271
452.83	70.721
453.18	69.060
453.53	68.754
453.88	69.409
454.23	68.870
454.58	70.168
454.93	68.629
455.28	69.717
455.63	67.538
455.98	68.268
456.34	67.903
456.69	68.372
457.04	69.149
457.39	68.570
457.74	69.407
458.09	67.381
458.44	67.888
458.79	66.890
459.14	66.492
459.49	68.138
459.84	68.520
460.19	66.463
460.54	68.313
460.89	67.125
461.24	66.149
461.59	66.242
461.94	65.830
462.29	67.861
462.64	66.506
462.99	67.169
463.34	66.126
463.69	65.006
464.04	65.870
464.39	66.143
464.74	65.393
465.09	65.052
465.44	63.895
465.79	64.199
466.14	63.940
466.49	63.263
466.84	65.399
467.19	63.931
467.54	63.984
467.89	63.966
468.24	65.097
468.59	64.852
468.94	61.946
469.29	64.007
469.64	62.810
469.99	64.436
470.34	63.861
470.68	64.730
471.03	64.702
471.38	64.748
471.73	63.784
472.08	63.642
472.43	63.998
472.78	62.846
473.13	63.780
473.48	62.900
473.83	63.146
474.17	63.540
474.52	63.199
474.87	61.517
475.22	63.211
475.57	61.942
475.92	60.926
476.27	61.076
476.61	60.748
476.96	61.157
477.31	61.040
477.66	61.490
478.01	60.905
478.36	60.818
478.70	60.394
479.05	61.708
479.40	60.168
479.75	61.191
480.10	60.872
480.45	59.480
480.79	60.816
481.14	59.237
481.49	59.927
481.84	60.009
482.19	58.624
482.53	60.385
482.88	60.257
483.23	60.427
483.58	59.039
483.92	58.688
484.27	58.594
484.62	58.581
484.97	57.815
485.31	58.043
485.66	54.604
486.01	53.721
486.36	54.615
486.70	56.824
487.05	57.369
487.40	56.791
487.75	57.583
488.09	57.227
488.44	55.364
488.79	56.256
489.13	56.879
489.48	55.845
489.83	57.384
490.17	56.055
490.52	55.419
490.87	57.953
491.22	57.886
491.56	56.015
491.91	56.345
492.26	56.945
492.60	56.449
492.95	56.516
493.30	56.701
493.64	56.943
493.99	56.404
494.34	56.882
494.68	55.418
495.03	55.463
495.37	56.724
495.72	55.193
496.07	55.916
496.41	54.955
496.76	55.630
497.11	56.221
497.45	56.237
497.80	54.953
498.14	55.011
498.49	55.974
498.84	55.484
499.18	55.241
499.53	55.291
499.87	54.593
500.22	54.452
500.56	55.016
500.91	55.789
501.26	55.909
501.60	53.955
501.95	54.190
502.29	54.366
502.64	55.181
502.98	53.926
503.33	53.952
503.67	52.944
504.02	53.853
504.36	54.468
504.71	54.065
505.06	53.570
505.40	53.656
505.75	54.554
506.09	53.085
506.44	54.039
506.78	54.633
507.13	52.559
507.47	54.287
507.82	52.509
508.16	52.964
508.51	52.461
508.85	53.944
509.19	53.671
509.54	53.074
509.88	53.327
510.23	54.832
510.57	53.987
510.92	53.604
511.26	52.237
511.61	52.487
511.95	52.855
512.30	53.323
512.64	52.924
512.98	52.776
513.33	53.881
513.67	53.901
514.02	53.909
514.36	53.350
514.70	54.375
515.05	53.389
515.39	53.596
515.74	54.401
516.08	52.456
516.42	53.898
516.77	53.207
517.11	51.986
517.46	52.916
517.80	54.623
518.14	54.135
518.49	53.037
518.83	51.889
519.17	52.558
519.52	52.306
519.86	52.482
520.20	53.408
520.55	52.848
520.89	53.322
521.23	51.759
521.58	53.898
521.92	52.351
522.26	52.405
522.61	52.257
522.95	53.864
523.29	53.563
523.64	51.345
523.98	52.424
524.32	52.837
524.66	52.191
525.01	52.492
525.35	51.465
525.69	50.638
526.04	51.780
526.38	52.184
526.72	52.018
527.06	53.196
527.41	50.146
527.75	51.722
528.09	51.830
528.43	51.510
528.78	51.098
529.12	51.319
529.46	50.984
529.80	50.915
530.15	51.362
530.49	52.372
530.83	51.181
531.17	51.434
531.51	51.384
531.86	51.082
532.20	51.646
532.54	50.748
532.88	51.576
533.22	49.912
533.57	50.144
533.91	49.551
534.25	49.576
534.59	49.770
534.93	49.293
535.27	49.577
535.62	50.767
535.96	50.378
536.30	49.824
536.64	50.450
536.98	49.938
537.32	50.741
537.66	50.468
538.01	48.882
538.35	49.208
538.69	49.940
539.03	50.092
539.37	48.469
539.71	48.769
540.05	48.801
540.39	48.778
540.73	47.541
541.07	49.601
541.42	47.372
541.76	47.924
542.10	48.673
542.44	47.442
542.78	49.696
543.12	48.272
543.46	47.741
543.80	47.602
544.14	48.055
544.48	46.927
544.82	47.636
545.16	48.122
545.50	47.454
545.84	47.765
546.18	48.889
546.52	47.452
546.86	48.365
547.20	48.982
547.54	46.941
547.88	47.378
548.22	46.901
548.56	47.162
548.90	48.776
549.24	47.112
549.58	47.445
549.92	48.151
550.26	47.573
550.60	48.245
550.94	47.930
551.28	47.063
551.62	48.518
551.96	48.155
552.30	47.929
552.64	47.729
552.98	46.600
553.32	48.296
553.66	46.752
554.00	46.217
554.34	47.941
554.68	46.869
555.02	46.321
555.36	47.798
555.69	45.420
556.03	46.469
556.37	47.059
556.71	46.354
557.05	46.965
557.39	47.180
557.73	46.499
558.07	46.159
558.41	45.980
558.75	46.788
559.08	46.903
559.42	46.845
559.76	47.422
560.10	46.685
560.44	46.372
560.78	46.500
561.12	45.874
561.45	45.925
561.79	46.154
562.13	46.334
562.47	45.684
562.81	45.949
563.15	45.391
563.48	45.432
563.82	44.559
564.16	44.882
564.50	44.100
564.84	45.251
565.17	45.059
565.51	44.189
565.85	44.240
566.19	44.470
566.52	43.827
566.86	44.539
567.20	43.502
567.54	43.654
567.88	44.343
568.21	43.182
568.55	43.789
568.89	42.941
569.23	42.417
569.56	41.852
569.90	41.661
570.24	41.214
570.57	40.443
570.91	40.080
571.25	39.572
571.59	39.939
571.92	39.472
572.26	39.704
572.60	39.503
572.93	39.159
573.27	39.786
573.61	39.148
573.95	39.039
574.28	38.122
574.62	38.381
574.96	38.024
575.29	38.246
575.63	38.369
575.97	38.395
576.30	38.243
576.64	38.630
576.98	38.109
577.31	38.086
577.65	38.279
577.98	37.801
578.32	36.753
578.66	36.958
578.99	37.313
579.33	38.195
579.67	37.897
580.00	37.312
580.34	37.565
580.67	37.379
581.01	37.776
581.35	36.996
581.68	36.770
582.02	37.020
582.35	37.060
582.69	37.102
583.02	37.713
583.36	37.605
583.70	37.469
584.03	37.005
584.37	37.373
584.70	37.922
585.04	37.084
585.37	37.097
585.71	36.505
586.04	36.856
586.38	37.558
586.72	36.751
587.05	36.889
587.39	37.846
587.72	36.746
588.06	37.065
588.39	36.968
588.73	37.011
589.06	37.331
589.40	37.800
589.73	37.339
590.07	38.163
590.40	38.269
590.73	37.540
591.07	38.421
591.40	38.530
591.74	38.434
592.07	38.287
592.41	37.815
592.74	37.309
593.08	37.357
593.41	37.854
593.75	36.466
594.08	37.201
594.41	37.981
594.75	36.732
595.08	37.853
595.42	37.078
595.75	37.230
596.09	37.479
596.42	37.370
596.75	38.364
597.09	38.384
597.42	37.624
597.75	37.436
598.09	37.897
598.42	37.957
598.76	37.791
599.09	37.522
599.42	36.373
599.76	37.141
600.09	36.970
600.42	36.904
600.76	36.988
601.09	36.940
601.42	36.389
601.76	36.276
602.09	37.169
602.42	36.787
602.76	36.347
603.09	37.078
603.42	36.705
603.76	36.751
604.09	37.509
604.42	36.661
604.76	36.377
605.09	37.495
605.42	37.520
605.75	36.192
606.09	36.543
606.42	35.607
606.75	35.795
607.09	36.175
607.42	36.724
607.75	37.046
608.08	36.346
608.42	36.195
608.75	37.189
609.08	36.715
609.41	37.186
609.75	38.259
610.08	36.895
610.41	36.236
610.74	36.050
611.07	36.812
611.41	37.534
611.74	36.767
612.07	37.167
612.40	37.452
612.73	37.506
613.07	37.800
613.40	37.536
613.73	37.121
614.06	37.341
614.39	36.832
614.72	37.361
615.06	37.151
615.39	36.201
615.72	37.915
616.05	36.814
616.38	37.790
616.71	36.886
617.05	37.700
617.38	38.256
617.71	37.581
618.04	37.669
618.37	37.268
618.70	38.518
619.03	37.037
619.36	38.964
619.69	38.501
620.03	38.544
620.36	37.975
620.69	38.125
621.02	39.042
621.35	40.131
621.68	40.275
622.01	40.000
622.34	38.982
622.67	39.381
623.00	38.394
623.33	38.885
623.66	38.975
623.99	37.525
624.32	39.116
624.65	37.194
624.99	38.752
625.32	38.863
625.65	37.964
625.98	38.441
626.31	38.554
626.64	38.315
626.97	39.985
627.30	39.939
627.63	39.010
627.96	40.390
628.29	38.677
628.62	39.966
628.95	42.244
629.28	40.272
629.61	40.825
629.94	38.912
630.26	38.814
630.59	39.637
630.92	39.654
631.25	40.787
631.58	41.337
