SpectraSuite Data File
++++++++++++++++++++++++++++++++++++
Date: Thu May 14 15:52:11 PDT 2015
User: schluterlab
Dark Spectrum Present: Yes
Reference Spectrum Present: Yes
Number of Sampled Component Spectra: 1
Spectrometers: USB2E3373
Integration Time (usec): 3000 (USB2E3373)
Spectra Averaged: 3 (USB2E3373)
Boxcar Smoothing: 0 (USB2E3373)
Correct for Electrical Dark: No (USB2E3373)
Strobe/Lamp Enabled: No (USB2E3373)
Correct for Detector Non-linearity: No (USB2E3373)
Correct for Stray Light: No (USB2E3373)
Number of Pixels in Processed Spectrum: 2048
>>>>>Begin Processed Spectral Data<<<<<
178.53	0.000
178.91	614.286
179.29	-5100.000
179.67	-4100.000
180.04	364.286
180.42	340.000
180.80	900.000
181.18	-3100.000
181.56	-4000.000
181.94	1150.000
182.31	-825.000
182.69	1400.000
183.07	-1850.000
183.45	1200.000
183.83	-583.333
184.20	-1366.667
184.58	4500.000
184.96	-1175.000
185.34	-433.333
185.72	-780.000
186.09	566.667
186.47	2150.000
186.85	980.000
187.23	-455.556
187.61	-4300.000
187.98	820.000
188.36	1000.000
188.74	-1075.000
189.12	-1133.333
189.49	-187.500
189.87	-425.000
190.25	-411.111
190.63	-880.000
191.00	-466.667
191.38	0.000
191.76	-1100.000
192.14	-750.000
192.51	2150.000
192.89	-716.667
193.27	0.000
193.65	-557.143
194.02	-4300.000
194.40	-471.429
194.78	614.286
195.15	0.000
195.53	-309.091
195.91	0.000
196.29	-825.000
196.66	-246.154
197.04	-4500.000
197.42	-628.571
197.79	-2250.000
198.17	-350.000
198.55	-442.857
198.92	-344.444
199.30	-537.500
199.68	-290.909
200.05	-200.000
200.43	-2400.000
200.81	671.429
201.18	0.000
201.56	588.889
201.94	0.000
202.31	1633.333
202.69	-500.000
203.07	4200.000
203.44	-455.556
203.82	-1175.000
204.19	-291.667
204.57	-650.000
204.95	-537.500
205.32	-3100.000
205.70	875.000
206.08	-733.333
206.45	-650.000
206.83	880.000
207.20	-566.667
207.58	-820.000
207.96	-600.000
208.33	-566.667
208.71	400.000
209.08	-633.333
209.46	0.000
209.84	883.333
210.21	1700.000
210.59	2150.000
210.96	1900.000
211.34	-1075.000
211.71	-462.500
212.09	-3700.000
212.46	0.000
212.84	2750.000
213.22	-680.000
213.59	-1050.000
213.97	-340.000
214.34	-1400.000
214.72	750.000
215.09	-1200.000
215.47	0.000
215.84	657.143
216.22	2650.000
216.59	-740.000
216.97	-820.000
217.34	-750.000
217.72	-412.500
218.09	-900.000
218.47	-1100.000
218.84	0.000
219.22	800.000
219.59	-205.882
219.97	-150.000
220.34	2050.000
220.72	-511.111
221.09	-192.308
221.47	-966.667
221.84	-380.000
222.22	-628.571
222.59	0.000
222.97	-450.000
223.34	-1000.000
223.72	-4600.000
224.09	-1025.000
224.46	-975.000
224.84	-700.000
225.21	-628.571
225.59	-1300.000
225.96	-975.000
226.34	-138.462
226.71	633.333
227.08	-2000.000
227.46	-226.667
227.83	-975.000
228.21	-163.158
228.58	487.500
228.95	1500.000
229.33	-266.667
229.70	-330.000
230.08	-110.526
230.45	440.000
230.82	-1266.667
231.20	-300.000
231.57	-258.333
231.95	-363.636
232.32	-327.273
232.69	-170.000
233.07	-1025.000
233.44	-235.294
233.81	-420.000
234.19	-183.333
234.56	-209.091
234.93	-106.897
235.31	-205.263
235.68	-227.778
236.05	-205.000
236.43	-92.308
236.80	-120.000
237.17	-118.519
237.55	-100.000
237.92	-480.000
238.29	-109.677
238.67	-79.545
239.04	-97.222
239.41	-90.476
239.79	-67.391
240.16	-61.111
240.53	-84.783
240.91	-101.961
241.28	-57.377
241.65	-37.313
242.02	-31.081
242.40	-53.846
242.77	-44.000
243.14	-54.878
243.51	-65.789
243.89	-71.795
244.26	-41.584
244.63	-45.098
245.00	-35.514
245.38	-32.456
245.75	-40.708
246.12	-20.635
246.49	-33.333
246.87	-27.143
247.24	-21.192
247.61	-17.763
247.98	-28.859
248.36	-19.136
248.73	-28.221
249.10	-19.672
249.47	-7.960
249.84	-12.042
250.22	-24.352
250.59	-18.889
250.96	-15.909
251.33	-20.918
251.70	-11.966
252.08	-11.250
252.45	-15.574
252.82	-16.116
253.19	-12.500
253.56	-14.449
253.94	-14.231
254.31	-12.121
254.68	-10.839
255.05	-9.121
255.42	-12.245
255.79	-9.709
256.16	-13.245
256.54	-13.576
256.91	-9.180
257.28	-12.787
257.65	-13.694
258.02	-10.619
258.39	-7.692
258.76	-10.703
259.14	-7.759
259.51	-11.527
259.88	-13.881
260.25	-10.000
260.62	-7.671
260.99	-4.918
261.36	-6.702
261.73	-9.814
262.10	-8.791
262.47	-11.796
262.85	-4.545
263.22	-8.831
263.59	-12.895
263.96	-5.371
264.33	-8.951
264.70	-4.691
265.07	-3.341
265.44	-3.855
265.81	-7.407
266.18	-6.349
266.55	-7.366
266.92	-7.745
267.29	-5.470
267.66	-7.317
268.03	-5.677
268.40	-5.219
268.77	-9.339
269.14	-6.608
269.51	-5.921
269.88	-4.303
270.25	-4.427
270.62	-6.962
270.99	-4.040
271.36	-4.752
271.73	-4.715
272.10	-3.607
272.47	-6.012
272.84	-6.426
273.21	-5.611
273.58	-7.056
273.95	-5.192
274.32	-6.464
274.69	-5.996
275.06	-5.495
275.43	-6.654
275.80	-2.293
276.17	-6.852
276.54	-5.410
276.91	-4.114
277.28	-3.617
277.65	-4.129
278.02	-4.412
278.39	-5.978
278.76	-5.975
279.13	-4.433
279.50	-2.405
279.87	-2.862
280.23	-6.866
280.60	-3.390
280.97	-2.961
281.34	-5.772
281.71	-2.707
282.08	-4.319
282.45	-4.583
282.82	-3.611
283.19	-5.977
283.56	-4.918
283.92	-3.453
284.29	-1.422
284.66	-3.284
285.03	-6.090
285.40	-3.091
285.77	-5.882
286.14	-2.443
286.51	-3.349
286.87	-4.265
287.24	-3.916
287.61	-3.587
287.98	-2.568
288.35	-3.402
288.72	-3.994
289.08	-3.221
289.45	-3.994
289.82	-4.217
290.19	-2.443
290.56	-2.817
290.93	-3.281
291.29	-3.581
291.66	-3.168
292.03	-3.528
292.40	-1.905
292.77	-3.774
293.13	-2.300
293.50	-3.548
293.87	-2.416
294.24	-2.133
294.60	-1.517
294.97	-3.893
295.34	-1.280
295.71	-3.279
296.08	-2.713
296.44	-2.328
296.81	-2.071
297.18	-2.117
297.55	-1.179
297.91	-0.593
298.28	-1.659
298.65	-0.713
299.02	-1.535
299.38	0.114
299.75	-1.402
300.12	-2.662
300.48	-1.382
300.85	-0.225
301.22	0.000
301.59	-1.370
301.95	-1.469
302.32	1.444
302.69	-0.438
303.05	0.762
303.42	0.776
303.79	-0.417
304.15	0.421
304.52	0.211
304.89	0.314
305.25	0.518
305.62	0.000
305.99	1.031
306.35	1.310
306.72	2.068
307.09	0.305
307.45	0.932
307.82	0.807
308.19	1.413
308.55	2.700
308.92	1.753
309.29	1.820
309.65	1.852
310.02	2.970
310.38	3.150
310.75	2.330
311.12	3.739
311.48	3.226
311.85	4.084
312.22	3.795
312.58	3.850
312.95	4.589
313.31	5.239
313.68	6.319
314.05	6.052
314.41	7.468
314.78	6.630
315.14	6.715
315.51	7.664
315.87	8.011
316.24	8.950
316.61	8.792
316.97	8.688
317.34	8.642
317.70	11.528
318.07	9.612
318.43	11.310
318.80	12.625
319.16	12.361
319.53	11.568
319.89	13.322
320.26	14.769
320.62	14.805
320.99	14.127
321.35	14.972
321.72	16.279
322.08	15.600
322.45	17.164
322.81	17.419
323.18	17.876
323.54	18.966
323.91	20.196
324.27	19.105
324.64	21.662
325.00	21.559
325.37	22.523
325.73	24.959
326.10	24.331
326.46	25.651
326.83	27.142
327.19	26.535
327.56	27.352
327.92	28.560
328.29	27.903
328.65	29.732
329.01	30.457
329.38	32.013
329.74	30.993
330.11	31.764
330.47	32.856
330.84	32.214
331.20	34.000
331.56	34.055
331.93	33.808
332.29	33.814
332.66	34.468
333.02	34.087
333.38	34.312
333.75	33.586
334.11	34.779
334.48	34.818
334.84	36.279
335.20	36.524
335.57	38.196
335.93	37.603
336.29	35.857
336.66	38.183
337.02	38.796
337.38	38.435
337.75	38.264
338.11	38.352
338.47	38.296
338.84	37.733
339.20	36.479
339.56	38.056
339.93	40.148
340.29	39.130
340.65	38.200
341.02	40.064
341.38	41.633
341.74	40.517
342.11	40.949
342.47	40.508
342.83	42.512
343.20	41.619
343.56	41.299
343.92	42.594
344.28	41.875
344.65	42.171
345.01	42.512
345.37	42.613
345.73	41.933
346.10	43.526
346.46	42.880
346.82	43.745
347.19	42.857
347.55	43.323
347.91	44.428
348.27	43.930
348.63	44.554
349.00	43.699
349.36	44.684
349.72	45.536
350.08	44.502
350.45	44.715
350.81	44.344
351.17	46.015
351.53	45.716
351.89	45.710
352.26	47.164
352.62	46.567
352.98	47.176
353.34	45.706
353.70	46.610
354.07	47.541
354.43	47.912
354.79	47.046
355.15	47.388
355.51	47.807
355.87	48.093
356.24	48.821
356.60	47.081
356.96	49.592
357.32	46.245
357.68	48.902
358.04	48.952
358.40	48.955
358.77	49.781
359.13	48.449
359.49	48.327
359.85	49.239
360.21	49.498
360.57	49.246
360.93	49.224
361.29	49.965
361.66	49.819
362.02	50.452
362.38	51.160
362.74	50.908
363.10	50.963
363.46	50.346
363.82	50.426
364.18	50.669
364.54	52.075
364.90	50.903
365.26	51.517
365.62	51.800
365.98	51.259
366.35	51.477
366.71	51.905
367.07	52.233
367.43	51.674
367.79	50.829
368.15	52.308
368.51	51.624
368.87	50.686
369.23	51.333
369.59	54.167
369.95	52.806
370.31	51.857
370.67	53.370
371.03	52.632
371.39	51.645
371.75	53.164
372.11	53.591
372.47	51.930
372.83	53.730
373.19	52.101
373.55	52.507
373.91	53.442
374.27	52.393
374.63	53.586
374.99	51.989
375.35	53.377
375.71	53.226
376.07	53.518
376.42	53.401
376.78	54.009
377.14	51.591
377.50	53.510
377.86	52.771
378.22	52.874
378.58	54.043
378.94	53.521
379.30	52.900
379.66	53.674
380.02	52.741
380.38	53.687
380.74	53.352
381.09	54.704
381.45	53.352
381.81	54.098
382.17	53.029
382.53	52.865
382.89	52.201
383.25	54.045
383.61	53.472
383.97	52.945
384.32	54.007
384.68	53.016
385.04	53.268
385.40	53.742
385.76	54.689
386.12	53.022
386.48	54.176
386.83	53.754
387.19	52.375
387.55	52.406
387.91	52.740
388.27	54.042
388.62	52.635
388.98	51.438
389.34	54.331
389.70	53.225
390.06	53.108
390.42	51.386
390.77	52.378
391.13	52.289
391.49	52.234
391.85	52.424
392.20	53.321
392.56	52.392
392.92	52.672
393.28	51.520
393.64	51.397
393.99	51.947
394.35	52.512
394.71	52.036
395.07	51.677
395.42	50.428
395.78	51.798
396.14	51.277
396.50	50.416
396.85	50.388
397.21	49.586
397.57	50.766
397.92	51.031
398.28	49.267
398.64	50.458
399.00	49.843
399.35	50.681
399.71	50.326
400.07	51.319
400.42	50.175
400.78	50.116
401.14	50.825
401.49	49.801
401.85	50.698
402.21	50.290
402.57	50.235
402.92	49.645
403.28	48.946
403.63	48.091
403.99	48.634
404.35	47.982
404.70	49.122
405.06	48.207
405.42	47.951
405.77	50.709
406.13	48.352
406.49	47.635
406.84	49.086
407.20	47.121
407.55	47.062
407.91	46.826
408.27	46.643
408.62	46.771
408.98	47.591
409.34	46.862
409.69	47.960
410.05	46.600
410.40	47.158
410.76	45.653
411.11	47.107
411.47	46.069
411.83	46.267
412.18	46.867
412.54	46.058
412.89	44.761
413.25	46.219
413.60	45.951
413.96	46.911
414.31	44.249
414.67	45.677
415.03	42.892
415.38	44.451
415.74	43.922
416.09	45.527
416.45	42.580
416.80	43.513
417.16	43.295
417.51	44.583
417.87	43.470
418.22	43.114
418.58	43.247
418.93	44.063
419.29	44.575
419.64	43.637
420.00	43.680
420.35	43.234
420.71	42.677
421.06	42.323
421.42	42.087
421.77	42.649
422.12	41.966
422.48	41.372
422.83	42.881
423.19	42.016
423.54	42.478
423.90	42.408
424.25	42.027
424.61	40.930
424.96	41.241
425.31	40.393
425.67	41.546
426.02	40.897
426.38	41.906
426.73	40.346
427.09	40.773
427.44	40.524
427.79	39.801
428.15	39.384
428.50	40.112
428.85	39.093
429.21	40.745
429.56	40.326
429.92	39.263
430.27	39.036
430.62	39.814
430.98	39.547
431.33	38.807
431.68	39.368
432.04	39.919
432.39	38.725
432.74	38.071
433.10	38.615
433.45	38.294
433.80	37.339
434.16	38.585
434.51	38.489
434.86	39.468
435.22	37.885
435.57	36.910
435.92	37.117
436.28	38.168
436.63	37.520
436.98	36.983
437.34	37.486
437.69	37.094
438.04	36.753
438.39	35.784
438.75	35.307
439.10	37.209
439.45	36.389
439.81	35.424
440.16	35.174
440.51	35.619
440.86	35.131
441.22	35.155
441.57	35.325
441.92	35.597
442.27	36.313
442.63	35.221
442.98	34.632
443.33	34.929
443.68	35.530
444.03	34.619
444.39	34.951
444.74	34.916
445.09	34.313
445.44	32.877
445.79	34.722
446.15	34.173
446.50	33.798
446.85	33.220
447.20	33.897
447.55	33.473
447.91	33.403
448.26	33.245
448.61	33.369
448.96	33.423
449.31	32.185
449.66	32.462
450.02	32.700
450.37	32.339
450.72	32.562
451.07	32.631
451.42	31.138
451.77	30.628
452.12	31.151
452.47	30.957
452.83	32.095
453.18	30.940
453.53	30.787
453.88	30.425
454.23	31.469
454.58	30.412
454.93	29.248
455.28	30.223
455.63	30.074
455.98	30.503
456.34	29.682
456.69	29.982
457.04	29.255
457.39	29.324
457.74	29.810
458.09	29.270
458.44	30.119
458.79	29.500
459.14	28.894
459.49	29.202
459.84	28.332
460.19	28.207
460.54	29.415
460.89	29.169
461.24	28.161
461.59	28.500
461.94	27.439
462.29	27.716
462.64	26.614
462.99	26.616
463.34	26.606
463.69	26.788
464.04	27.515
464.39	26.177
464.74	26.967
465.09	27.278
465.44	27.843
465.79	27.287
466.14	26.264
466.49	26.737
466.84	27.328
467.19	26.416
467.54	24.736
467.89	24.425
468.24	24.986
468.59	24.088
468.94	24.534
469.29	24.295
469.64	24.730
469.99	24.028
470.34	23.515
470.68	24.129
471.03	24.231
471.38	24.330
471.73	23.342
472.08	23.604
472.43	23.239
472.78	22.670
473.13	22.566
473.48	23.686
473.83	23.273
474.17	23.681
474.52	22.790
474.87	22.979
475.22	23.380
475.57	22.949
475.92	23.395
476.27	23.163
476.61	22.118
476.96	21.794
477.31	22.426
477.66	22.718
478.01	21.352
478.36	22.383
478.70	21.232
479.05	22.086
479.40	22.458
479.75	21.902
480.10	21.743
480.45	22.015
480.79	21.995
481.14	21.691
481.49	21.081
481.84	21.410
482.19	21.204
482.53	21.469
482.88	21.356
483.23	20.809
483.58	19.694
483.92	19.770
484.27	20.195
484.62	20.215
484.97	20.879
485.31	20.345
485.66	19.633
486.01	20.166
486.36	21.200
486.70	21.789
487.05	21.890
487.40	20.966
487.75	20.331
488.09	19.752
488.44	19.205
488.79	19.528
489.13	19.334
489.48	18.330
489.83	18.270
490.17	17.983
490.52	18.144
490.87	18.316
491.22	18.458
491.56	18.814
491.91	18.142
492.26	17.698
492.60	17.753
492.95	18.166
493.30	17.884
493.64	17.565
493.99	17.456
494.34	16.768
494.68	17.859
495.03	17.930
495.37	17.621
495.72	17.007
496.07	17.353
496.41	16.602
496.76	16.931
497.11	17.070
497.45	16.746
497.80	16.704
498.14	16.644
498.49	16.774
498.84	16.865
499.18	16.959
499.53	16.861
499.87	16.527
500.22	15.450
500.56	16.059
500.91	16.110
501.26	15.727
501.60	15.864
501.95	15.588
502.29	15.533
502.64	15.872
502.98	16.178
503.33	15.119
503.67	15.133
504.02	14.930
504.36	15.103
504.71	15.158
505.06	15.643
505.40	15.265
505.75	15.346
506.09	14.963
506.44	14.113
506.78	14.541
507.13	15.722
507.47	15.064
507.82	14.867
508.16	14.484
508.51	14.205
508.85	14.643
509.19	14.638
509.54	14.457
509.88	14.473
510.23	14.182
510.57	14.935
510.92	14.272
511.26	13.468
511.61	13.568
511.95	13.568
512.30	13.589
512.64	13.443
512.98	12.956
513.33	13.659
513.67	12.698
514.02	13.899
514.36	13.862
514.70	12.552
515.05	13.399
515.39	12.966
515.74	13.468
516.08	13.259
516.42	13.187
516.77	12.618
517.11	13.100
517.46	12.990
517.80	13.255
518.14	13.112
518.49	13.666
518.83	12.986
519.17	11.901
519.52	12.526
519.86	12.777
520.20	12.726
520.55	11.774
520.89	11.768
521.23	12.172
521.58	11.921
521.92	11.728
522.26	12.600
522.61	11.806
522.95	11.822
523.29	12.241
523.64	11.827
523.98	11.808
524.32	11.519
524.66	11.269
525.01	11.438
525.35	10.684
525.69	11.079
526.04	10.907
526.38	11.264
526.72	11.015
527.06	11.144
527.41	11.778
527.75	11.639
528.09	10.921
528.43	10.420
528.78	11.214
529.12	10.665
529.46	10.512
529.80	10.469
530.15	10.783
530.49	10.142
530.83	10.921
531.17	11.231
531.51	10.048
531.86	10.757
532.20	10.915
532.54	10.054
532.88	9.758
533.22	11.019
533.57	10.964
533.91	10.662
534.25	10.119
534.59	10.747
534.93	9.394
535.27	10.141
535.62	10.802
535.96	10.750
536.30	9.929
536.64	10.991
536.98	10.332
537.32	10.309
537.66	10.168
538.01	10.453
538.35	9.927
538.69	9.495
539.03	9.994
539.37	9.835
539.71	10.330
540.05	9.892
540.39	9.352
540.73	9.897
541.07	9.749
541.42	10.159
541.76	9.312
542.10	8.926
542.44	9.135
542.78	10.036
543.12	9.356
543.46	9.035
543.80	8.453
544.14	8.857
544.48	9.752
544.82	10.353
545.16	9.779
545.50	8.928
545.84	9.063
546.18	9.938
546.52	8.662
546.86	8.679
547.20	8.715
547.54	8.864
547.88	8.981
548.22	9.006
548.56	8.484
548.90	8.299
549.24	9.179
549.58	8.454
549.92	7.972
550.26	8.803
550.60	9.190
550.94	8.732
551.28	9.571
551.62	8.693
551.96	8.803
552.30	9.114
552.64	8.587
552.98	7.985
553.32	8.424
553.66	8.682
554.00	8.386
554.34	8.108
554.68	8.199
555.02	7.950
555.36	8.613
555.69	7.559
556.03	7.945
556.37	8.448
556.71	8.244
557.05	9.201
557.39	7.498
557.73	7.530
558.07	8.079
558.41	8.439
558.75	7.235
559.08	8.142
559.42	7.888
559.76	8.548
560.10	8.372
560.44	8.245
560.78	8.000
561.12	7.759
561.45	9.124
561.79	7.937
562.13	8.256
562.47	8.015
562.81	7.785
563.15	8.018
563.48	7.769
563.82	7.618
564.16	6.784
564.50	7.509
564.84	7.198
565.17	7.647
565.51	7.250
565.85	7.185
566.19	7.258
566.52	7.548
566.86	7.244
567.20	7.450
567.54	8.019
567.88	8.002
568.21	7.806
568.55	7.962
568.89	8.261
569.23	8.238
569.56	8.324
569.90	8.874
570.24	8.938
570.57	7.858
570.91	8.022
571.25	8.128
571.59	8.656
571.92	8.582
572.26	8.258
572.60	8.272
572.93	8.711
573.27	8.457
573.61	8.735
573.95	8.643
574.28	8.619
574.62	8.504
574.96	8.580
575.29	8.196
575.63	8.224
575.97	8.287
576.30	8.463
576.64	8.494
576.98	8.292
577.31	8.344
577.65	8.502
577.98	8.547
578.32	8.145
578.66	8.123
578.99	8.151
579.33	8.270
579.67	7.933
580.00	8.114
580.34	8.639
580.67	7.944
581.01	7.832
581.35	8.299
581.68	8.270
582.02	8.176
582.35	8.353
582.69	8.023
583.02	8.241
583.36	8.359
583.70	7.771
584.03	7.703
584.37	7.998
584.70	7.628
585.04	7.952
585.37	7.910
585.71	8.112
586.04	7.684
586.38	7.892
586.72	7.596
587.05	7.240
587.39	7.554
587.72	7.679
588.06	7.471
588.39	7.593
588.73	7.513
589.06	7.449
589.40	7.007
589.73	7.359
590.07	7.294
590.40	7.945
590.73	7.105
591.07	6.962
591.40	6.649
591.74	7.075
592.07	7.511
592.41	6.467
592.74	7.739
593.08	7.707
593.41	8.078
593.75	7.098
594.08	7.149
594.41	7.212
594.75	7.406
595.08	6.763
595.42	7.240
595.75	6.555
596.09	7.455
596.42	7.345
596.75	6.947
597.09	6.990
597.42	6.317
597.75	6.586
598.09	6.627
598.42	7.398
598.76	6.572
599.09	7.049
599.42	6.872
599.76	7.329
600.09	7.574
600.42	6.974
600.76	6.902
601.09	6.771
601.42	6.934
601.76	6.517
602.09	6.648
602.42	6.688
602.76	6.421
603.09	6.938
603.42	7.045
603.76	6.483
604.09	7.133
604.42	7.046
604.76	6.469
605.09	6.422
605.42	6.778
605.75	6.654
606.09	6.570
606.42	6.129
606.75	5.847
607.09	6.298
607.42	6.821
607.75	6.526
608.08	6.354
608.42	6.247
608.75	6.343
609.08	6.324
609.41	6.352
609.75	6.250
610.08	6.245
610.41	6.627
610.74	6.134
611.07	6.350
611.41	6.816
611.74	6.097
612.07	6.218
612.40	6.226
612.73	6.210
613.07	5.721
613.40	6.256
613.73	5.681
614.06	5.594
614.39	6.754
614.72	5.919
615.06	5.823
615.39	5.317
615.72	6.588
616.05	5.634
616.38	6.307
616.71	5.434
617.05	5.272
617.38	5.993
617.71	5.994
618.04	6.044
618.37	6.011
618.70	5.882
619.03	5.496
619.36	5.734
619.69	5.766
620.03	4.834
620.36	5.521
620.69	4.503
621.02	5.643
621.35	4.572
621.68	5.857
622.01	5.053
622.34	5.160
622.67	4.467
623.00	4.116
623.33	5.176
623.66	6.291
623.99	3.950
624.32	5.848
624.65	4.698
624.99	5.657
625.32	5.421
625.65	5.462
625.98	4.610
626.31	5.103
626.64	5.275
626.97	4.351
627.30	4.176
627.63	4.651
627.96	5.631
628.29	4.903
628.62	3.442
628.95	4.382
629.28	3.908
629.61	4.461
629.94	3.766
630.26	3.983
630.59	4.145
630.92	3.723
631.25	4.562
631.58	4.331
631.91	3.655
632.24	4.707
632.57	4.459
632.90	2.508
633.23	3.265
633.56	3.469
633.89	3.306
634.22	2.911
634.55	3.445
634.88	3.247
635.20	3.552
635.53	3.277
635.86	4.009
636.19	4.242
