SpectraSuite Data File
++++++++++++++++++++++++++++++++++++
Date: Thu May 14 15:52:00 PDT 2015
User: schluterlab
Dark Spectrum Present: Yes
Reference Spectrum Present: Yes
Number of Sampled Component Spectra: 1
Spectrometers: USB2E3373
Integration Time (usec): 3000 (USB2E3373)
Spectra Averaged: 3 (USB2E3373)
Boxcar Smoothing: 0 (USB2E3373)
Correct for Electrical Dark: No (USB2E3373)
Strobe/Lamp Enabled: No (USB2E3373)
Correct for Detector Non-linearity: No (USB2E3373)
Correct for Stray Light: No (USB2E3373)
Number of Pixels in Processed Spectrum: 2048
>>>>>Begin Processed Spectral Data<<<<<
178.53	0.000
178.91	614.286
179.29	-6300.000
179.67	-4800.000
180.04	392.857
180.42	430.000
180.80	980.000
181.18	-4600.000
181.56	-3400.000
181.94	1150.000
182.31	-1000.000
182.69	1500.000
183.07	-1600.000
183.45	1025.000
183.83	-566.667
184.20	-1400.000
184.58	3900.000
184.96	-1100.000
185.34	-433.333
185.72	-760.000
186.09	500.000
186.47	2100.000
186.85	820.000
187.23	-511.111
187.61	-4800.000
187.98	880.000
188.36	1025.000
188.74	-825.000
189.12	-1166.667
189.49	-250.000
189.87	-537.500
190.25	-444.444
190.63	-760.000
191.00	-522.222
191.38	0.000
191.76	-1200.000
192.14	-666.667
192.51	2050.000
192.89	-650.000
193.27	0.000
193.65	-528.571
194.02	-4800.000
194.40	-557.143
194.78	614.286
195.15	0.000
195.53	-318.182
195.91	0.000
196.29	-900.000
196.66	-261.538
197.04	-4000.000
197.42	-600.000
197.79	-2200.000
198.17	-562.500
198.55	-685.714
198.92	-411.111
199.30	-512.500
199.68	-300.000
200.05	-207.143
200.43	-2650.000
200.81	700.000
201.18	0.000
201.56	488.889
201.94	0.000
202.31	1466.667
202.69	-544.444
203.07	3600.000
203.44	-388.889
203.82	-875.000
204.19	-308.333
204.57	-700.000
204.95	-525.000
205.32	-4800.000
205.70	1125.000
206.08	-700.000
206.45	-700.000
206.83	1020.000
207.20	-650.000
207.58	-860.000
207.96	-733.333
208.33	-566.667
208.71	375.000
209.08	-450.000
209.46	0.000
209.84	783.333
210.21	1900.000
210.59	1800.000
210.96	1400.000
211.34	-775.000
211.71	-512.500
212.09	-4500.000
212.46	0.000
212.84	2700.000
213.22	-860.000
213.59	-950.000
213.97	-290.000
214.34	-1433.333
214.72	733.333
215.09	-1225.000
215.47	0.000
215.84	571.429
216.22	2150.000
216.59	-780.000
216.97	-780.000
217.34	-1050.000
217.72	-537.500
218.09	-975.000
218.47	-1000.000
218.84	0.000
219.22	820.000
219.59	-205.882
219.97	-145.000
220.34	2050.000
220.72	-433.333
221.09	-261.538
221.47	-1400.000
221.84	-400.000
222.22	-614.286
222.59	0.000
222.97	-487.500
223.34	-900.000
223.72	-4600.000
224.09	-950.000
224.46	-1100.000
224.84	-800.000
225.21	-685.714
225.59	-1200.000
225.96	-1275.000
226.34	-130.769
226.71	683.333
227.08	-2250.000
227.46	-220.000
227.83	-850.000
228.21	-142.105
228.58	525.000
228.95	1950.000
229.33	-325.000
229.70	-340.000
230.08	-168.421
230.45	520.000
230.82	-1433.333
231.20	-257.143
231.57	-283.333
231.95	-281.818
232.32	-290.909
232.69	-155.000
233.07	-725.000
233.44	-235.294
233.81	-320.000
234.19	-155.556
234.56	-150.000
234.93	-120.690
235.31	-147.368
235.68	-211.111
236.05	-210.000
236.43	-138.462
236.80	-72.000
237.17	-133.333
237.55	-96.970
237.92	-380.000
238.29	-96.774
238.67	-52.273
239.04	-94.444
239.41	-73.810
239.79	-76.087
240.16	-29.630
240.53	-56.522
240.91	-68.627
241.28	-54.098
241.65	-22.388
242.02	-22.973
242.40	-47.692
242.77	-30.667
243.14	-30.488
243.51	-35.526
243.89	-30.769
244.26	-13.861
244.63	-2.941
245.00	-10.280
245.38	-5.263
245.75	-19.469
246.12	-5.556
246.49	-11.628
246.87	-0.714
247.24	0.662
247.61	5.921
247.98	-1.342
248.36	-1.235
248.73	-8.589
249.10	1.093
249.47	4.975
249.84	4.712
250.22	0.518
250.59	1.111
250.96	2.727
251.33	0.000
251.70	6.410
252.08	9.167
252.45	7.787
252.82	7.438
253.19	3.516
253.56	6.084
253.94	8.077
254.31	7.955
254.68	11.189
255.05	13.029
255.42	8.163
255.79	8.414
256.16	10.927
256.54	7.616
256.91	8.197
257.28	10.820
257.65	7.962
258.02	7.670
258.39	9.687
258.76	14.985
259.14	12.356
259.51	12.392
259.88	9.915
260.25	9.722
260.62	12.329
260.99	14.208
261.36	14.745
261.73	10.345
262.10	14.560
262.47	9.383
262.85	14.899
263.22	12.208
263.59	7.632
263.96	12.020
264.33	11.509
264.70	12.840
265.07	13.126
265.44	16.553
265.81	12.963
266.18	17.234
266.55	14.732
266.92	13.895
267.29	16.411
267.66	14.856
268.03	16.157
268.40	12.735
268.77	12.301
269.14	10.793
269.51	15.570
269.88	13.934
270.25	14.085
270.62	17.089
270.99	17.778
271.36	15.446
271.73	13.949
272.10	17.234
272.47	15.431
272.84	14.659
273.21	14.629
273.58	15.121
273.95	13.654
274.32	15.399
274.69	15.280
275.06	16.667
275.43	12.200
275.80	15.168
276.17	13.333
276.54	13.806
276.91	14.669
277.28	13.924
277.65	17.056
278.02	14.522
278.39	13.768
278.76	15.114
279.13	14.539
279.50	16.323
279.87	14.132
280.23	13.380
280.60	14.746
280.97	17.270
281.34	16.299
281.71	16.582
282.08	14.618
282.45	12.766
282.82	15.228
283.19	13.893
283.56	15.082
283.92	16.066
284.29	15.324
284.66	15.764
285.03	14.263
285.40	15.920
285.77	15.789
286.14	16.031
286.51	13.699
286.87	13.902
287.24	15.663
287.61	15.546
287.98	14.048
288.35	13.166
288.72	14.645
289.08	15.813
289.45	13.609
289.82	14.157
290.19	14.511
290.56	15.352
290.93	14.551
291.29	13.361
291.66	14.601
292.03	12.212
292.40	15.782
292.77	12.668
293.13	12.855
293.50	13.535
293.87	12.617
294.24	14.800
294.60	14.539
294.97	11.678
295.34	14.981
295.71	13.241
296.08	12.274
296.44	13.725
296.81	12.058
297.18	12.329
297.55	13.797
297.91	11.981
298.28	11.374
298.65	12.723
299.02	11.334
299.38	12.929
299.75	12.734
300.12	11.690
300.48	13.134
300.85	12.036
301.22	12.864
301.59	12.100
301.95	11.977
302.32	12.889
302.69	12.377
303.05	12.405
303.42	11.973
303.79	12.812
304.15	13.880
304.52	10.888
304.89	12.356
305.25	12.112
305.62	10.658
305.99	12.990
306.35	11.190
306.72	12.203
307.09	11.878
307.45	11.801
307.82	12.311
308.19	12.412
308.55	12.343
308.92	11.782
309.29	12.835
309.65	13.450
310.02	10.693
310.38	11.909
310.75	11.942
311.12	12.752
311.48	12.805
311.85	12.346
312.22	12.524
312.58	12.582
312.95	13.002
313.31	13.731
313.68	13.553
314.05	14.815
314.41	13.024
314.78	13.987
315.14	14.338
315.51	14.220
315.87	13.411
316.24	13.516
316.61	15.719
316.97	13.484
317.34	14.462
317.70	14.498
318.07	15.079
318.43	14.201
318.80	16.722
319.16	15.622
319.53	14.053
319.89	14.812
320.26	16.281
320.62	16.401
320.99	15.789
321.35	15.989
321.72	18.140
322.08	16.592
322.45	17.706
322.81	18.412
323.18	18.319
323.54	18.621
323.91	18.683
324.27	19.880
324.64	19.899
325.00	20.149
325.37	19.902
325.73	20.331
326.10	21.087
326.46	21.498
326.83	22.258
327.19	21.260
327.56	21.976
327.92	23.053
328.29	22.500
328.65	23.116
329.01	23.012
329.38	23.420
329.74	24.144
330.11	24.914
330.47	23.757
330.84	24.806
331.20	25.250
331.56	25.910
331.93	25.272
332.29	24.153
332.66	25.332
333.02	24.958
333.38	25.419
333.75	26.178
334.11	26.355
334.48	26.073
334.84	26.423
335.20	26.280
335.57	27.909
335.93	26.777
336.29	26.456
336.66	26.325
337.02	27.341
337.38	26.190
337.75	26.033
338.11	27.334
338.47	27.874
338.84	27.496
339.20	26.285
339.56	27.265
339.93	26.437
340.29	26.570
340.65	27.088
341.02	27.773
341.38	27.809
341.74	27.361
342.11	28.158
342.47	26.608
342.83	28.905
343.20	28.373
343.56	28.388
343.92	28.343
344.28	28.516
344.65	29.070
345.01	29.563
345.37	28.538
345.73	28.215
346.10	30.577
346.46	29.905
346.82	28.839
347.19	28.801
347.55	29.514
347.91	29.495
348.27	29.514
348.63	29.094
349.00	28.784
349.36	29.740
349.72	30.357
350.08	29.643
350.45	30.951
350.81	28.884
351.17	30.526
351.53	30.933
351.89	30.144
352.26	30.373
352.62	31.119
352.98	30.076
353.34	30.471
353.70	31.510
354.07	31.967
354.43	31.283
354.79	31.414
355.15	30.905
355.51	32.895
355.87	30.740
356.24	32.548
356.60	30.525
356.96	32.098
357.32	32.045
357.68	31.259
358.04	30.988
358.40	31.866
358.77	32.091
359.13	32.275
359.49	32.639
359.85	32.125
360.21	31.636
360.57	32.879
360.93	32.722
361.29	32.351
361.66	33.454
362.02	34.099
362.38	34.294
362.74	33.031
363.10	32.806
363.46	34.695
363.82	34.091
364.18	35.046
364.54	34.578
364.90	34.916
365.26	34.000
365.62	36.400
365.98	35.262
366.35	35.168
366.71	35.714
367.07	35.250
367.43	34.997
367.79	36.297
368.15	36.187
368.51	35.386
368.87	36.055
369.23	35.933
369.59	37.842
369.95	37.120
370.31	37.407
370.67	36.382
371.03	36.773
371.39	37.139
371.75	37.276
372.11	37.060
372.47	36.831
372.83	37.631
373.19	37.425
373.55	37.602
373.91	36.401
374.27	37.516
374.63	39.039
374.99	38.395
375.35	39.156
375.71	37.677
376.07	38.476
376.42	38.161
376.78	39.776
377.14	39.239
377.50	39.469
377.86	40.086
378.22	40.419
378.58	39.774
378.94	39.085
379.30	39.719
379.66	40.388
380.02	40.739
380.38	41.302
380.74	40.282
381.09	41.986
381.45	40.966
381.81	41.862
382.17	41.211
382.53	41.345
382.89	40.463
383.25	41.501
383.61	41.377
383.97	41.225
384.32	42.883
384.68	41.705
385.04	42.857
385.40	42.487
385.76	42.438
386.12	41.113
386.48	42.706
386.83	43.087
387.19	42.526
387.55	42.547
387.91	42.808
388.27	43.303
388.62	41.237
388.98	41.455
389.34	42.958
389.70	44.218
390.06	42.392
390.42	43.373
390.77	42.745
391.13	43.310
391.49	42.210
391.85	43.152
392.20	42.645
392.56	42.587
392.92	43.948
393.28	43.449
393.64	42.626
393.99	43.521
394.35	44.042
394.71	44.731
395.07	42.874
395.42	42.147
395.78	44.302
396.14	43.672
396.50	44.359
396.85	42.516
397.21	44.260
397.57	43.286
397.92	43.643
398.28	43.455
398.64	43.478
399.00	43.246
399.35	44.031
399.71	42.935
400.07	44.975
400.42	44.645
400.78	44.502
401.14	42.573
401.49	44.173
401.85	43.663
402.21	45.655
402.57	44.425
402.92	43.322
403.28	43.208
403.63	44.332
403.99	43.171
404.35	43.434
404.70	44.249
405.06	43.261
405.42	44.438
405.77	43.511
406.13	45.273
406.49	44.820
406.84	44.321
407.20	44.326
407.55	44.034
407.91	43.997
408.27	44.641
408.62	43.921
408.98	44.225
409.34	43.460
409.69	44.561
410.05	44.373
410.40	44.780
410.76	43.130
411.11	44.360
411.47	44.533
411.83	44.974
412.18	44.699
412.54	44.517
412.89	43.306
413.25	44.131
413.60	44.974
413.96	44.347
414.31	44.419
414.67	43.590
415.03	44.308
415.38	45.082
415.74	43.433
416.09	44.047
416.45	42.893
416.80	43.819
417.16	44.253
417.51	42.839
417.87	44.390
418.22	45.210
418.58	43.432
418.93	44.994
419.29	43.896
419.64	43.277
420.00	44.036
420.35	43.739
420.71	43.423
421.06	43.416
421.42	43.349
421.77	43.296
422.12	43.288
422.48	44.649
422.83	45.838
423.19	44.668
423.54	45.243
423.90	44.727
424.25	44.267
424.61	44.145
424.96	45.524
425.31	44.268
425.67	45.196
426.02	43.498
426.38	44.374
426.73	44.475
427.09	45.502
427.44	42.654
427.79	44.555
428.15	44.235
428.50	44.382
428.85	44.030
429.21	45.160
429.56	44.817
429.92	43.587
430.27	44.434
430.62	44.700
430.98	44.417
431.33	43.891
431.68	44.349
432.04	44.845
432.39	44.938
432.74	43.664
433.10	44.997
433.45	44.370
433.80	43.884
434.16	44.215
434.51	45.221
434.86	45.440
435.22	44.474
435.57	45.401
435.92	44.352
436.28	44.767
436.63	46.204
436.98	44.015
437.34	44.138
437.69	44.524
438.04	44.950
438.39	43.136
438.75	45.102
439.10	45.507
439.45	45.221
439.81	44.915
440.16	44.129
440.51	45.151
440.86	43.635
441.22	43.944
441.57	45.178
441.92	43.550
442.27	44.091
442.63	44.610
442.98	45.518
443.33	44.135
443.68	44.301
444.03	46.049
444.39	45.446
444.74	44.155
445.09	43.842
445.44	45.047
445.79	44.923
446.15	44.347
446.50	43.824
446.85	44.650
447.20	44.052
447.55	44.351
447.91	43.822
448.26	44.873
448.61	42.774
448.96	46.191
449.31	42.630
449.66	42.919
450.02	43.143
450.37	44.166
450.72	43.703
451.07	44.362
451.42	44.079
451.77	44.469
452.12	44.695
452.47	43.850
452.83	46.171
453.18	43.549
453.53	43.940
453.88	43.898
454.23	44.463
454.58	44.980
454.93	44.478
455.28	44.913
455.63	43.206
455.98	44.358
456.34	43.698
456.69	43.739
457.04	43.381
457.39	43.016
457.74	44.966
458.09	42.943
458.44	43.265
458.79	43.837
459.14	43.209
459.49	43.973
459.84	43.075
460.19	42.754
460.54	43.441
460.89	43.833
461.24	43.908
461.59	43.774
461.94	41.757
462.29	43.169
462.64	43.271
462.99	43.315
463.34	42.959
463.69	42.145
464.04	44.080
464.39	42.769
464.74	42.303
465.09	42.272
465.44	41.416
465.79	41.988
466.14	42.053
466.49	42.789
466.84	42.920
467.19	41.503
467.54	43.067
467.89	42.356
468.24	42.659
468.59	41.054
468.94	42.075
469.29	41.692
469.64	41.767
469.99	42.320
470.34	42.017
470.68	42.515
471.03	43.549
471.38	42.642
471.73	42.328
472.08	41.434
472.43	42.324
472.78	42.254
473.13	43.110
473.48	42.659
473.83	42.194
474.17	41.618
474.52	41.311
474.87	41.085
475.22	41.859
475.57	41.900
475.92	42.160
476.27	42.119
476.61	41.848
476.96	41.919
477.31	41.683
477.66	41.973
478.01	41.586
478.36	42.074
478.70	41.232
479.05	42.894
479.40	42.646
479.75	41.883
480.10	41.686
480.45	40.930
480.79	41.859
481.14	40.809
481.49	41.345
481.84	42.080
482.19	41.892
482.53	41.976
482.88	41.914
483.23	40.729
483.58	40.961
483.92	40.780
484.27	41.279
484.62	41.213
484.97	40.863
485.31	39.247
485.66	37.348
486.01	36.768
486.36	38.175
486.70	39.483
487.05	41.561
487.40	41.467
487.75	40.127
488.09	40.490
488.44	40.166
488.79	40.472
489.13	39.211
489.48	39.301
489.83	39.678
490.17	40.745
490.52	40.189
490.87	40.059
491.22	40.381
491.56	40.401
491.91	39.555
492.26	40.026
492.60	39.309
492.95	40.193
493.30	40.206
493.64	40.342
493.99	39.737
494.34	39.678
494.68	39.615
495.03	39.780
495.37	40.657
495.72	41.043
496.07	40.491
496.41	39.683
496.76	40.575
497.11	39.278
497.45	40.354
497.80	39.405
498.14	39.546
498.49	39.063
498.84	40.814
499.18	39.136
499.53	39.193
499.87	40.440
500.22	39.181
500.56	39.091
500.91	40.458
501.26	39.591
501.60	38.533
501.95	38.993
502.29	39.140
502.64	39.703
502.98	38.309
503.33	38.747
503.67	38.727
504.02	39.361
504.36	39.455
504.71	38.080
505.06	38.972
505.40	39.397
505.75	38.069
506.09	39.180
506.44	38.951
506.78	38.807
507.13	40.018
507.47	39.555
507.82	39.678
508.16	39.436
508.51	37.506
508.85	39.490
509.19	39.507
509.54	39.289
509.88	39.048
510.23	38.951
510.57	40.116
510.92	38.849
511.26	38.576
511.61	38.049
511.95	37.677
512.30	38.848
512.64	38.381
512.98	39.270
513.33	38.911
513.67	39.113
514.02	38.937
514.36	39.335
514.70	38.229
515.05	38.895
515.39	38.530
515.74	39.820
516.08	39.461
516.42	39.299
516.77	39.169
517.11	37.700
517.46	40.191
517.80	38.963
518.14	40.261
518.49	39.317
518.83	38.425
519.17	38.180
519.52	38.103
519.86	39.916
520.20	38.871
520.55	37.842
520.89	39.245
521.23	39.028
521.58	39.435
521.92	38.697
522.26	39.233
522.61	40.104
522.95	39.735
523.29	39.023
523.64	38.621
523.98	38.677
524.32	39.713
524.66	38.930
525.01	38.109
525.35	38.311
525.69	37.819
526.04	38.232
526.38	39.655
526.72	37.889
527.06	39.413
527.41	38.484
527.75	39.667
528.09	39.079
528.43	38.899
528.78	38.439
529.12	39.106
529.46	38.730
529.80	36.899
530.15	37.855
530.49	38.197
530.83	38.843
531.17	38.650
531.51	38.748
531.86	38.822
532.20	38.415
532.54	38.300
532.88	38.606
533.22	37.537
533.57	38.430
533.91	37.823
534.25	38.101
534.59	37.586
534.93	37.408
535.27	38.028
535.62	37.919
535.96	37.943
536.30	37.309
536.64	37.718
536.98	38.069
537.32	37.593
537.66	37.929
538.01	37.644
538.35	37.942
538.69	36.779
539.03	37.707
539.37	35.866
539.71	37.718
540.05	37.530
540.39	36.980
540.73	36.733
541.07	36.297
541.42	36.149
541.76	36.062
542.10	36.731
542.44	35.932
542.78	36.010
543.12	35.161
543.46	36.935
543.80	36.391
544.14	36.146
544.48	35.402
544.82	35.129
545.16	36.374
545.50	36.369
545.84	36.252
546.18	35.988
546.52	35.796
546.86	35.597
547.20	36.196
547.54	35.019
547.88	34.780
548.22	34.737
548.56	35.108
548.90	35.821
549.24	35.502
549.58	34.763
549.92	35.651
550.26	35.599
550.60	35.482
550.94	35.446
551.28	35.182
551.62	35.243
551.96	35.599
552.30	36.393
552.64	35.096
552.98	34.560
553.32	36.141
553.66	34.598
554.00	35.309
554.34	36.229
554.68	34.797
555.02	35.283
555.36	36.292
555.69	35.618
556.03	34.805
556.37	34.981
556.71	35.384
557.05	34.696
557.39	35.368
557.73	34.478
558.07	34.901
558.41	35.415
558.75	34.077
559.08	33.751
559.42	34.156
559.76	34.328
560.10	34.561
560.44	33.971
560.78	35.062
561.12	34.914
561.45	33.516
561.79	34.493
562.13	34.504
562.47	33.600
562.81	35.000
563.15	33.712
563.48	34.058
563.82	34.220
564.16	33.253
564.50	32.539
564.84	32.271
565.17	32.647
565.51	33.084
565.85	33.135
566.19	32.373
566.52	32.709
566.86	33.107
567.20	32.681
567.54	32.820
567.88	32.977
568.21	32.115
568.55	32.518
568.89	32.229
569.23	31.939
569.56	31.497
569.90	30.756
570.24	30.185
570.57	30.629
570.91	30.098
571.25	30.084
571.59	30.031
571.92	29.424
572.26	29.619
572.60	29.866
572.93	28.834
573.27	29.587
573.61	29.857
573.95	29.255
574.28	28.825
574.62	29.081
574.96	28.694
575.29	28.773
575.63	28.783
575.97	29.653
576.30	28.818
576.64	28.967
576.98	28.223
577.31	28.887
577.65	28.704
577.98	28.106
578.32	27.965
578.66	27.742
578.99	27.954
579.33	28.568
579.67	28.876
580.00	28.433
580.34	28.076
580.67	28.045
581.01	27.910
581.35	27.703
581.68	27.773
582.02	27.524
582.35	27.984
582.69	28.088
583.02	28.611
583.36	28.322
583.70	28.516
584.03	28.222
584.37	27.944
584.70	28.166
585.04	27.714
585.37	27.419
585.71	27.681
586.04	27.455
586.38	28.087
586.72	28.203
587.05	27.373
587.39	27.549
587.72	27.656
588.06	27.732
588.39	28.330
588.73	28.016
589.06	27.793
589.40	28.519
589.73	27.860
590.07	27.851
590.40	28.871
590.73	27.925
591.07	28.444
591.40	28.266
591.74	28.657
592.07	28.096
592.41	28.273
592.74	28.080
593.08	27.771
593.41	27.238
593.75	27.270
594.08	27.386
594.41	28.237
594.75	27.831
595.08	27.725
595.42	27.403
595.75	27.866
596.09	27.855
596.42	28.305
596.75	27.518
597.09	28.162
597.42	28.049
597.75	27.636
598.09	27.937
598.42	28.388
598.76	27.130
599.09	27.625
599.42	27.254
599.76	27.039
600.09	27.160
600.42	27.361
600.76	27.576
601.09	26.884
601.42	26.742
601.76	26.862
602.09	27.448
602.42	27.226
602.76	26.937
603.09	27.129
603.42	26.842
603.76	26.568
604.09	27.644
604.42	26.752
604.76	26.788
605.09	27.363
605.42	27.592
605.75	27.115
606.09	26.689
606.42	26.450
606.75	26.499
607.09	25.960
607.42	26.474
607.75	26.338
608.08	26.559
608.42	26.320
608.75	26.949
609.08	26.740
609.41	26.952
609.75	26.250
610.08	27.441
610.41	26.296
610.74	26.513
611.07	26.465
611.41	27.085
611.74	26.744
612.07	26.180
612.40	27.947
612.73	27.482
613.07	27.042
613.40	26.997
613.73	26.818
614.06	26.595
614.39	26.190
614.72	26.929
615.06	25.794
615.39	26.583
615.72	26.682
616.05	27.003
616.38	26.892
616.71	26.803
617.05	26.784
617.38	27.127
617.71	27.646
618.04	26.983
618.37	26.885
618.70	28.507
619.03	27.121
619.36	27.004
619.69	27.290
620.03	26.554
620.36	27.301
620.69	26.712
621.02	27.625
621.35	28.012
621.68	28.200
622.01	27.260
622.34	26.499
622.67	28.797
623.00	25.978
623.33	26.742
623.66	27.821
623.99	26.596
624.32	27.485
624.65	26.834
624.99	27.958
625.32	28.086
625.65	28.186
625.98	27.390
626.31	27.640
626.64	27.473
626.97	27.007
627.30	26.348
627.63	27.082
627.96	27.477
628.29	28.171
628.62	27.624
628.95	27.783
629.28	28.207
629.61	28.367
629.94	28.117
630.26	27.458
