SpectraSuite Data File
++++++++++++++++++++++++++++++++++++
Date: Thu May 14 16:03:17 PDT 2015
User: schluterlab
Dark Spectrum Present: Yes
Reference Spectrum Present: Yes
Number of Sampled Component Spectra: 1
Spectrometers: USB2E3373
Integration Time (usec): 3000 (USB2E3373)
Spectra Averaged: 3 (USB2E3373)
Boxcar Smoothing: 0 (USB2E3373)
Correct for Electrical Dark: No (USB2E3373)
Strobe/Lamp Enabled: No (USB2E3373)
Correct for Detector Non-linearity: No (USB2E3373)
Correct for Stray Light: No (USB2E3373)
Number of Pixels in Processed Spectrum: 2048
>>>>>Begin Processed Spectral Data<<<<<
178.53	0.000
178.91	171.429
179.29	-2000.000
179.67	-1900.000
180.04	242.857
180.42	150.000
180.80	400.000
181.18	-1600.000
181.56	-600.000
181.94	450.000
182.31	-150.000
182.69	433.333
183.07	-650.000
183.45	450.000
183.83	-150.000
184.20	-300.000
184.58	1800.000
184.96	-475.000
185.34	-133.333
185.72	-120.000
186.09	333.333
186.47	850.000
186.85	580.000
187.23	-222.222
187.61	-2500.000
187.98	340.000
188.36	225.000
188.74	-350.000
189.12	-166.667
189.49	-43.750
189.87	-137.500
190.25	-88.889
190.63	-340.000
191.00	-200.000
191.38	0.000
191.76	-650.000
192.14	-283.333
192.51	1050.000
192.89	-216.667
193.27	0.000
193.65	-157.143
194.02	-2800.000
194.40	-142.857
194.78	314.286
195.15	0.000
195.53	-118.182
195.91	0.000
196.29	-375.000
196.66	-115.385
197.04	-1900.000
197.42	-228.571
197.79	-800.000
198.17	-100.000
198.55	-142.857
198.92	-177.778
199.30	-225.000
199.68	-54.545
200.05	-57.143
200.43	-750.000
200.81	185.714
201.18	0.000
201.56	255.556
201.94	0.000
202.31	766.667
202.69	-255.556
203.07	1300.000
203.44	-122.222
203.82	-325.000
204.19	-100.000
204.57	-200.000
204.95	-200.000
205.32	-1900.000
205.70	275.000
206.08	-100.000
206.45	-200.000
206.83	580.000
207.20	-150.000
207.58	-420.000
207.96	-283.333
208.33	-233.333
208.71	166.667
209.08	-183.333
209.46	0.000
209.84	266.667
210.21	450.000
210.59	600.000
210.96	566.667
211.34	-225.000
211.71	-275.000
212.09	-1500.000
212.46	0.000
212.84	1000.000
213.22	-340.000
213.59	-525.000
213.97	-170.000
214.34	-533.333
214.72	333.333
215.09	-425.000
215.47	0.000
215.84	342.857
216.22	1200.000
216.59	-340.000
216.97	-300.000
217.34	-300.000
217.72	-125.000
218.09	-475.000
218.47	-350.000
218.84	0.000
219.22	100.000
219.59	-5.882
219.97	-70.000
220.34	950.000
220.72	-155.556
221.09	-7.692
221.47	-433.333
221.84	-110.000
222.22	-142.857
222.59	0.000
222.97	-162.500
223.34	-240.000
223.72	-1600.000
224.09	-425.000
224.46	-500.000
224.84	60.000
225.21	-214.286
225.59	-550.000
225.96	-300.000
226.34	0.000
226.71	383.333
227.08	-600.000
227.46	-53.333
227.83	-350.000
228.21	15.789
228.58	275.000
228.95	1050.000
229.33	-25.000
229.70	10.000
230.08	31.579
230.45	270.000
230.82	-466.667
231.20	-7.143
231.57	-66.667
231.95	-200.000
232.32	-54.545
232.69	-60.000
233.07	-400.000
233.44	-76.471
233.81	-150.000
234.19	-27.778
234.56	-4.545
234.93	-13.793
235.31	-63.158
235.68	11.111
236.05	-115.000
236.43	23.077
236.80	32.000
237.17	-37.037
237.55	-36.364
237.92	-140.000
238.29	-12.903
238.67	-34.091
239.04	-27.778
239.41	-21.429
239.79	-13.043
240.16	3.704
240.53	-28.261
240.91	-27.451
241.28	-3.279
241.65	4.478
242.02	4.054
242.40	-15.385
242.77	-4.000
243.14	-7.317
243.51	-1.316
243.89	-2.564
244.26	4.950
244.63	8.824
245.00	-2.804
245.38	3.509
245.75	1.770
246.12	15.079
246.49	4.651
246.87	12.143
247.24	12.583
247.61	15.132
247.98	10.738
248.36	12.346
248.73	7.975
249.10	16.393
249.47	21.393
249.84	20.419
250.22	16.062
250.59	13.333
250.96	13.636
251.33	7.143
251.70	11.966
252.08	16.667
252.45	13.525
252.82	16.116
253.19	9.375
253.56	18.631
253.94	13.077
254.31	14.394
254.68	17.832
255.05	14.658
255.42	15.306
255.79	14.887
256.16	19.205
256.54	14.901
256.91	14.754
257.28	16.721
257.65	12.420
258.02	13.274
258.39	15.954
258.76	20.183
259.14	17.529
259.51	18.732
259.88	16.714
260.25	17.222
260.62	17.260
260.99	17.213
261.36	17.426
261.73	18.568
262.10	18.407
262.47	17.962
262.85	17.172
263.22	15.584
263.59	16.579
263.96	16.113
264.33	18.670
264.70	16.790
265.07	18.138
265.44	21.088
265.81	16.667
266.18	20.181
266.55	18.527
266.92	18.679
267.29	17.724
267.66	17.295
268.03	17.904
268.40	16.284
268.77	17.312
269.14	17.181
269.51	18.640
269.88	21.311
270.25	18.913
270.62	18.565
270.99	19.394
271.36	19.208
271.73	17.289
272.10	20.441
272.47	19.238
272.84	20.884
273.21	18.838
273.58	17.742
273.95	16.731
274.32	17.110
274.69	16.441
275.06	19.414
275.43	17.006
275.80	20.282
276.17	15.926
276.54	16.604
276.91	16.637
277.28	18.083
277.65	17.235
278.02	16.728
278.39	20.652
278.76	16.520
279.13	19.858
279.50	19.072
279.87	18.068
280.23	15.317
280.60	18.136
280.97	16.612
281.34	17.148
281.71	19.459
282.08	16.445
282.45	16.858
282.82	17.111
283.19	15.994
283.56	16.230
283.92	18.769
284.29	18.483
284.66	19.376
285.03	15.865
285.40	18.083
285.77	16.409
286.14	19.237
286.51	17.656
286.87	17.536
287.24	19.428
287.61	16.741
287.98	16.012
288.35	16.124
288.72	18.195
289.08	17.130
289.45	16.420
289.82	16.867
290.19	17.672
290.56	17.324
290.93	17.261
291.29	15.978
291.66	15.565
292.03	14.790
292.40	18.095
292.77	15.094
293.13	14.344
293.50	14.323
293.87	15.034
294.24	15.200
294.60	15.929
294.97	13.826
295.34	15.877
295.71	14.502
296.08	14.858
296.44	14.216
296.81	14.129
297.18	12.827
297.55	15.448
297.91	13.523
298.28	13.152
298.65	14.388
299.02	14.050
299.38	14.302
299.75	15.421
300.12	13.657
300.48	14.862
300.85	15.298
301.22	14.206
301.59	14.954
301.95	13.898
302.32	14.000
302.69	13.801
303.05	14.799
303.42	12.528
303.79	12.812
304.15	14.721
304.52	13.319
304.89	13.927
305.25	13.872
305.62	12.330
305.99	13.608
306.35	12.601
306.72	14.064
307.09	13.503
307.45	14.182
307.82	13.219
308.19	13.219
308.55	13.308
308.92	13.437
309.29	13.602
309.65	12.378
310.02	12.376
310.38	12.303
310.75	12.816
311.12	13.710
311.48	13.783
311.85	13.580
312.22	12.429
312.58	13.991
312.95	13.767
313.31	13.369
313.68	13.095
314.05	13.911
314.41	14.572
314.78	13.715
315.14	13.884
315.51	14.127
315.87	14.491
316.24	14.064
316.61	15.364
316.97	13.756
317.34	13.757
317.70	15.546
318.07	15.168
318.43	15.306
318.80	16.054
319.16	14.936
319.53	14.567
319.89	15.074
320.26	14.591
320.62	14.628
320.99	15.328
321.35	15.712
321.72	15.814
322.08	16.772
322.45	15.899
322.81	15.975
323.18	15.487
323.54	15.862
323.91	16.281
324.27	15.491
324.64	17.380
325.00	16.335
325.37	17.854
325.73	16.942
326.10	18.329
326.46	17.264
326.83	18.094
327.19	18.504
327.56	16.601
327.92	17.388
328.29	17.823
328.65	18.258
329.01	18.951
329.38	18.787
329.74	18.408
330.11	19.092
330.47	18.450
330.84	19.294
331.20	18.667
331.56	18.804
331.93	18.996
332.29	20.169
332.66	19.518
333.02	19.263
333.38	19.631
333.75	18.687
334.11	19.433
334.48	20.050
334.84	20.986
335.20	18.892
335.57	19.983
335.93	20.909
336.29	18.552
336.66	20.101
337.02	19.565
337.38	19.898
337.75	19.669
338.11	20.185
338.47	19.686
338.84	19.120
339.20	19.714
339.56	20.675
339.93	19.212
340.29	19.082
340.65	19.708
341.02	20.192
341.38	19.725
341.74	19.693
342.11	20.032
342.47	19.142
342.83	20.370
343.20	19.460
343.56	19.888
343.92	20.016
344.28	19.062
344.65	21.163
345.01	19.969
345.37	21.151
345.73	19.486
346.10	21.451
346.46	20.570
346.82	21.498
347.19	20.092
347.55	20.106
347.91	20.877
348.27	20.637
348.63	21.325
349.00	21.402
349.36	21.784
349.72	20.833
350.08	21.545
350.45	19.468
350.81	20.287
351.17	21.654
351.53	21.001
351.89	20.577
352.26	21.045
352.62	20.896
352.98	20.916
353.34	21.509
353.70	21.109
354.07	21.311
354.43	21.412
354.79	21.391
355.15	21.413
355.51	22.588
355.87	20.942
356.24	23.118
356.60	21.656
356.96	21.942
357.32	21.561
357.68	22.767
358.04	21.407
358.40	22.612
358.77	22.442
359.13	22.157
359.49	21.561
359.85	22.553
360.21	21.664
360.57	22.613
360.93	22.426
361.29	23.088
361.66	23.316
362.02	23.800
362.38	22.839
362.74	23.743
363.10	23.590
363.46	24.723
363.82	24.361
364.18	23.223
364.54	24.412
364.90	23.880
365.26	23.862
365.62	24.133
365.98	23.962
366.35	24.362
366.71	23.401
367.07	24.222
367.43	23.966
367.79	24.751
368.15	25.819
368.51	24.290
368.87	24.886
369.23	24.533
369.59	24.863
369.95	25.220
370.31	25.726
370.67	25.034
371.03	25.069
371.39	25.319
371.75	25.585
372.11	24.932
372.47	25.592
372.83	25.916
373.19	25.751
373.55	24.932
373.91	25.290
374.27	25.744
374.63	24.831
374.99	26.194
375.35	26.623
375.71	26.129
376.07	25.113
376.42	26.134
376.78	27.222
377.14	26.513
377.50	26.692
377.86	26.355
378.22	27.126
378.58	26.278
378.94	26.585
379.30	26.362
379.66	26.690
380.02	27.063
380.38	26.901
380.74	26.704
381.09	26.945
381.45	27.273
381.81	26.991
382.17	27.375
382.53	27.076
382.89	26.749
383.25	27.784
383.61	27.257
383.97	27.915
384.32	28.469
384.68	26.392
385.04	27.473
385.40	27.637
385.76	28.195
386.12	26.152
386.48	27.353
386.83	29.082
387.19	27.810
387.55	27.347
387.91	27.397
388.27	27.887
388.62	27.320
388.98	27.355
389.34	28.462
389.70	28.181
390.06	28.242
390.42	27.831
390.77	28.417
391.13	28.345
391.49	28.442
391.85	27.636
392.20	27.699
392.56	27.643
392.92	27.481
393.28	27.474
393.64	27.989
393.99	28.181
394.35	28.037
394.71	28.743
395.07	27.246
395.42	26.842
395.78	29.129
396.14	27.807
396.50	26.841
396.85	27.907
397.21	28.284
397.57	28.210
397.92	28.522
398.28	28.028
398.64	27.860
399.00	27.016
399.35	28.115
399.71	27.500
400.07	27.906
400.42	27.590
400.78	27.778
401.14	27.092
401.49	27.800
401.85	27.849
402.21	28.389
402.57	28.169
402.92	27.778
403.28	27.225
403.63	27.029
403.99	27.138
404.35	27.459
404.70	27.139
405.06	27.228
405.42	27.225
405.77	26.881
406.13	26.850
406.49	27.815
406.84	26.981
407.20	27.390
407.55	27.559
407.91	27.718
408.27	25.854
408.62	27.225
408.98	27.510
409.34	26.510
409.69	27.379
410.05	27.550
410.40	27.900
410.76	27.145
411.11	26.885
411.47	27.457
411.83	26.808
412.18	26.807
412.54	26.971
412.89	26.484
413.25	27.088
413.60	26.364
413.96	26.457
414.31	25.496
414.67	26.357
415.03	26.400
415.38	26.797
415.74	26.634
416.09	26.589
416.45	25.548
416.80	26.499
417.16	27.139
417.51	25.903
417.87	26.119
418.22	26.826
418.58	26.766
418.93	27.066
419.29	24.661
419.64	26.291
420.00	26.113
420.35	26.502
420.71	26.594
421.06	26.222
421.42	25.803
421.77	25.525
422.12	26.268
422.48	25.960
422.83	27.218
423.19	25.995
423.54	26.604
423.90	26.063
424.25	26.453
424.61	25.603
424.96	26.963
425.31	26.858
425.67	25.604
426.02	26.785
426.38	25.775
426.73	26.618
427.09	27.047
427.44	25.724
427.79	26.479
428.15	25.628
428.50	26.067
428.85	26.005
429.21	26.968
429.56	26.061
429.92	26.437
430.27	26.120
430.62	26.575
430.98	26.316
431.33	25.758
431.68	25.718
432.04	26.765
432.39	26.834
432.74	26.256
433.10	25.960
433.45	25.084
433.80	26.556
434.16	25.620
434.51	26.619
434.86	27.524
435.22	25.930
435.57	27.300
435.92	25.876
436.28	26.906
436.63	26.925
436.98	26.302
437.34	26.663
437.69	25.482
438.04	26.230
438.39	26.939
438.75	26.287
439.10	26.427
439.45	27.446
439.81	26.328
440.16	26.220
440.51	26.812
440.86	25.570
441.22	25.884
441.57	25.419
441.92	26.285
442.27	26.111
442.63	26.180
442.98	25.720
443.33	25.355
443.68	26.710
444.03	27.093
444.39	26.075
444.74	27.208
445.09	26.001
445.44	25.922
445.79	27.059
446.15	27.184
446.50	25.323
446.85	26.848
447.20	26.596
447.55	25.889
447.91	25.916
448.26	27.008
448.61	26.514
448.96	26.985
449.31	26.511
449.66	26.089
450.02	26.108
450.37	26.585
450.72	26.211
451.07	25.797
451.42	25.303
451.77	26.014
452.12	27.032
452.47	26.144
452.83	26.239
453.18	26.503
453.53	25.330
453.88	25.732
454.23	26.271
454.58	25.595
454.93	26.092
455.28	26.189
455.63	25.014
455.98	26.257
456.34	25.324
456.69	25.985
457.04	27.778
457.39	25.887
457.74	25.783
458.09	25.865
458.44	25.916
458.79	25.374
459.14	25.275
459.49	26.089
459.84	25.918
460.19	24.931
460.54	25.894
460.89	25.569
461.24	25.632
461.59	25.678
461.94	24.472
462.29	26.484
462.64	25.226
462.99	25.298
463.34	25.373
463.69	24.795
464.04	26.181
464.39	25.336
464.74	25.200
465.09	24.683
465.44	25.322
465.79	24.696
466.14	24.909
466.49	25.684
466.84	25.620
467.19	25.896
467.54	24.971
467.89	24.483
468.24	25.208
468.59	24.667
468.94	24.592
469.29	25.495
469.64	25.683
469.99	25.430
470.34	25.619
470.68	25.632
471.03	25.213
471.38	25.311
471.73	25.943
472.08	25.571
472.43	24.925
472.78	26.259
473.13	25.537
473.48	26.103
473.83	26.001
474.17	25.322
474.52	25.917
474.87	25.028
475.22	25.577
475.57	24.663
475.92	25.137
476.27	26.092
476.61	25.130
476.96	24.870
477.31	25.693
477.66	25.498
478.01	25.826
478.36	25.025
478.70	25.468
479.05	26.534
479.40	25.864
479.75	25.793
480.10	25.296
480.45	25.387
480.79	24.762
481.14	24.770
481.49	25.170
481.84	25.109
482.19	25.505
482.53	25.361
482.88	25.831
483.23	25.611
483.58	25.066
483.92	25.222
484.27	24.640
484.62	24.505
484.97	23.950
485.31	24.041
485.66	23.359
486.01	23.176
486.36	23.282
486.70	24.149
487.05	24.723
487.40	24.890
487.75	24.377
488.09	24.993
488.44	24.044
488.79	24.384
489.13	24.837
489.48	23.961
489.83	24.386
490.17	24.625
490.52	23.892
490.87	25.296
491.22	24.913
491.56	25.000
491.91	25.033
492.26	25.141
492.60	24.661
492.95	24.660
493.30	25.056
493.64	24.748
493.99	24.430
494.34	23.998
494.68	24.026
495.03	23.744
495.37	24.678
495.72	24.626
496.07	24.058
496.41	23.381
496.76	24.354
497.11	24.628
497.45	24.687
497.80	25.233
498.14	24.354
498.49	24.265
498.84	24.132
499.18	23.527
499.53	24.574
499.87	24.703
500.22	23.419
500.56	23.887
500.91	24.577
501.26	24.500
501.60	24.569
501.95	24.620
502.29	24.748
502.64	24.574
502.98	24.202
503.33	24.017
503.67	23.550
504.02	23.117
504.36	24.844
504.71	24.299
505.06	24.466
505.40	23.675
505.75	23.907
506.09	23.849
506.44	24.791
506.78	25.138
507.13	24.112
507.47	25.201
507.82	24.053
508.16	24.092
508.51	24.332
508.85	24.610
509.19	25.201
509.54	24.976
509.88	25.255
510.23	24.769
510.57	25.713
510.92	24.915
511.26	24.820
511.61	24.771
511.95	24.549
512.30	25.111
512.64	24.738
512.98	24.812
513.33	24.899
513.67	24.987
514.02	25.089
514.36	25.524
514.70	25.729
515.05	25.547
515.39	25.512
515.74	26.087
516.08	25.198
516.42	27.054
516.77	25.657
517.11	25.116
517.46	24.920
517.80	26.510
518.14	26.877
518.49	25.813
518.83	25.599
519.17	25.202
519.52	26.730
519.86	25.977
520.20	25.453
520.55	26.013
520.89	26.014
521.23	26.633
521.58	26.384
521.92	26.459
522.26	26.518
522.61	26.157
522.95	25.952
523.29	26.494
523.64	26.906
523.98	26.355
524.32	27.335
524.66	26.807
525.01	25.651
525.35	25.962
525.69	25.870
526.04	26.406
526.38	25.632
526.72	27.105
527.06	26.804
527.41	26.531
527.75	26.781
528.09	26.682
528.43	26.347
528.78	25.434
529.12	26.147
529.46	26.363
529.80	25.858
530.15	25.623
530.49	25.682
530.83	27.037
531.17	27.180
531.51	26.294
531.86	26.082
532.20	27.317
532.54	25.913
532.88	25.515
533.22	25.928
533.57	26.717
533.91	25.758
534.25	26.399
534.59	25.172
534.93	25.580
535.27	25.690
535.62	26.094
535.96	26.438
536.30	26.263
536.64	26.486
536.98	26.261
537.32	26.420
537.66	26.201
538.01	24.894
538.35	25.335
538.69	25.661
539.03	26.487
539.37	25.795
539.71	25.465
540.05	26.139
540.39	24.878
540.73	25.562
541.07	26.487
541.42	24.985
541.76	24.555
542.10	25.151
542.44	25.213
542.78	25.669
543.12	24.851
543.46	25.275
543.80	23.861
544.14	25.913
544.48	25.118
544.82	25.015
545.16	25.820
545.50	24.685
545.84	24.495
546.18	26.173
546.52	24.586
546.86	24.277
547.20	25.700
547.54	24.844
547.88	24.171
548.22	24.152
548.56	24.751
548.90	25.254
549.24	25.714
549.58	25.363
549.92	24.362
550.26	24.595
550.60	25.080
550.94	24.838
551.28	25.215
551.62	26.550
551.96	24.725
552.30	25.430
552.64	24.829
552.98	24.579
553.32	25.531
553.66	24.309
554.00	24.905
554.34	24.453
554.68	24.080
555.02	24.639
555.36	25.115
555.69	22.806
556.03	24.086
556.37	24.781
556.71	24.984
557.05	24.792
557.39	24.950
557.73	24.571
558.07	23.974
558.41	25.116
558.75	24.138
559.08	25.052
559.42	24.348
559.76	25.645
560.10	23.711
560.44	24.604
560.78	23.312
561.12	24.076
561.45	24.148
561.79	24.420
562.13	24.276
562.47	23.490
562.81	24.241
563.15	23.548
563.48	24.487
563.82	23.096
564.16	23.440
564.50	24.255
564.84	23.481
565.17	23.647
565.51	23.590
565.85	23.812
566.19	23.675
566.52	23.698
566.86	23.147
567.20	23.382
567.54	23.261
567.88	24.057
568.21	23.123
568.55	23.405
568.89	22.515
569.23	21.969
569.56	22.235
569.90	21.882
570.24	21.079
570.57	21.873
570.91	21.188
571.25	21.290
571.59	21.681
571.92	21.082
572.26	21.228
572.60	21.239
572.93	21.486
573.27	21.354
573.61	21.043
573.95	21.097
574.28	20.813
574.62	20.691
574.96	20.049
575.29	20.621
575.63	20.906
575.97	21.126
576.30	20.923
576.64	20.854
576.98	20.501
577.31	20.631
577.65	20.491
577.98	20.294
578.32	20.151
578.66	19.883
578.99	19.926
579.33	20.720
579.67	20.286
580.00	20.139
580.34	20.572
580.67	19.748
581.01	19.926
581.35	20.086
581.68	19.858
582.02	19.479
582.35	20.191
582.69	20.099
583.02	20.333
583.36	20.107
583.70	20.109
584.03	19.990
584.37	20.118
584.70	19.976
585.04	19.391
585.37	19.576
585.71	19.806
586.04	19.727
586.38	19.870
586.72	19.604
587.05	20.005
587.39	19.870
587.72	19.976
588.06	19.971
588.39	19.990
588.73	19.788
589.06	20.514
589.40	20.436
589.73	20.051
590.07	20.325
590.40	20.487
590.73	20.042
591.07	20.812
591.40	20.840
591.74	20.350
592.07	21.112
592.41	20.110
592.74	20.057
593.08	20.478
593.41	20.385
593.75	19.684
594.08	20.085
594.41	19.808
594.75	20.359
595.08	19.717
595.42	19.968
595.75	20.116
596.09	19.925
596.42	20.423
596.75	20.378
597.09	20.727
597.42	20.064
597.75	20.737
598.09	19.722
598.42	20.909
598.76	20.634
599.09	19.722
599.42	19.376
599.76	18.785
600.09	19.620
600.42	20.420
600.76	19.551
601.09	19.283
601.42	20.082
601.76	19.172
602.09	20.122
602.42	19.811
602.76	19.520
603.09	20.264
603.42	19.617
603.76	19.168
604.09	20.121
604.42	20.330
604.76	18.569
605.09	20.343
605.42	20.016
605.75	19.962
606.09	19.298
606.42	19.409
606.75	19.303
607.09	18.280
607.42	19.499
607.75	19.461
608.08	19.376
608.42	19.307
608.75	19.569
609.08	19.822
609.41	19.894
609.75	19.732
610.08	19.921
610.41	19.754
610.74	19.664
611.07	19.627
611.41	20.135
611.74	20.277
612.07	20.290
612.40	19.914
612.73	20.342
613.07	20.342
613.40	20.115
613.73	19.740
614.06	19.480
614.39	19.874
614.72	19.554
615.06	19.779
615.39	19.188
615.72	19.621
616.05	19.961
616.38	19.879
616.71	19.958
617.05	19.808
617.38	20.011
617.71	20.032
618.04	19.320
618.37	20.820
618.70	20.079
619.03	19.773
619.36	20.469
619.69	20.307
620.03	19.648
620.36	20.429
620.69	19.926
621.02	20.604
621.35	21.843
621.68	20.897
622.01	20.285
622.34	19.456
622.67	19.381
623.00	19.433
623.33	20.305
623.66	20.233
623.99	19.026
624.32	21.313
624.65	19.627
624.99	20.546
625.32	20.509
625.65	20.701
625.98	20.271
626.31	20.553
626.64	20.220
626.97	20.180
627.30	19.666
627.63	20.105
627.96	21.396
628.29	20.700
628.62	20.571
628.95	21.034
629.28	20.731
629.61	19.949
629.94	20.669
630.26	19.322
630.59	21.071
630.92	19.567
631.25	21.646
631.58	21.186
