SpectraSuite Data File
++++++++++++++++++++++++++++++++++++
Date: Thu May 14 16:03:24 PDT 2015
User: schluterlab
Dark Spectrum Present: Yes
Reference Spectrum Present: Yes
Number of Sampled Component Spectra: 1
Spectrometers: USB2E3373
Integration Time (usec): 3000 (USB2E3373)
Spectra Averaged: 3 (USB2E3373)
Boxcar Smoothing: 0 (USB2E3373)
Correct for Electrical Dark: No (USB2E3373)
Strobe/Lamp Enabled: No (USB2E3373)
Correct for Detector Non-linearity: No (USB2E3373)
Correct for Stray Light: No (USB2E3373)
Number of Pixels in Processed Spectrum: 2048
>>>>>Begin Processed Spectral Data<<<<<
178.53	0.000
178.91	171.429
179.29	-1900.000
179.67	-1800.000
180.04	142.857
180.42	130.000
180.80	400.000
181.18	-1900.000
181.56	-800.000
181.94	425.000
182.31	-100.000
182.69	400.000
183.07	-850.000
183.45	475.000
183.83	-216.667
184.20	-300.000
184.58	700.000
184.96	-450.000
185.34	-244.444
185.72	-280.000
186.09	333.333
186.47	1050.000
186.85	240.000
187.23	-222.222
187.61	-2400.000
187.98	300.000
188.36	400.000
188.74	-350.000
189.12	-266.667
189.49	-31.250
189.87	-137.500
190.25	-44.444
190.63	-300.000
191.00	-255.556
191.38	0.000
191.76	-500.000
192.14	-250.000
192.51	850.000
192.89	-166.667
193.27	0.000
193.65	-185.714
194.02	-2400.000
194.40	-100.000
194.78	171.429
195.15	0.000
195.53	-63.636
195.91	0.000
196.29	-325.000
196.66	-76.923
197.04	-1500.000
197.42	-114.286
197.79	0.000
198.17	-225.000
198.55	-257.143
198.92	-77.778
199.30	-137.500
199.68	0.000
200.05	-42.857
200.43	-800.000
200.81	314.286
201.18	0.000
201.56	211.111
201.94	0.000
202.31	700.000
202.69	-211.111
203.07	1100.000
203.44	-155.556
203.82	-200.000
204.19	-108.333
204.57	-216.667
204.95	-275.000
205.32	-1900.000
205.70	450.000
206.08	-150.000
206.45	-333.333
206.83	480.000
207.20	-66.667
207.58	-180.000
207.96	-433.333
208.33	-133.333
208.71	75.000
209.08	16.667
209.46	0.000
209.84	366.667
210.21	900.000
210.59	600.000
210.96	733.333
211.34	-500.000
211.71	-250.000
212.09	-1500.000
212.46	0.000
212.84	1300.000
213.22	-280.000
213.59	-300.000
213.97	-70.000
214.34	-533.333
214.72	283.333
215.09	-350.000
215.47	0.000
215.84	100.000
216.22	1500.000
216.59	-400.000
216.97	-300.000
217.34	-250.000
217.72	-100.000
218.09	-400.000
218.47	-475.000
218.84	0.000
219.22	280.000
219.59	-47.059
219.97	-10.000
220.34	700.000
220.72	-122.222
221.09	-61.538
221.47	-400.000
221.84	-180.000
222.22	-285.714
222.59	0.000
222.97	-125.000
223.34	-280.000
223.72	-1300.000
224.09	-250.000
224.46	-500.000
224.84	20.000
225.21	-271.429
225.59	-475.000
225.96	-250.000
226.34	-15.385
226.71	216.667
227.08	-700.000
227.46	-80.000
227.83	-325.000
228.21	-47.368
228.58	187.500
228.95	750.000
229.33	-50.000
229.70	-150.000
230.08	5.263
230.45	140.000
230.82	-433.333
231.20	-78.571
231.57	-58.333
231.95	-181.818
232.32	-81.818
232.69	5.000
233.07	-325.000
233.44	-29.412
233.81	-90.000
234.19	5.556
234.56	-22.727
234.93	-6.897
235.31	-31.579
235.68	-11.111
236.05	-115.000
236.43	-11.538
236.80	16.000
237.17	-29.630
237.55	12.121
237.92	-140.000
238.29	-38.710
238.67	-13.636
239.04	11.111
239.41	-21.429
239.79	-19.565
240.16	5.556
240.53	-2.174
240.91	-15.686
241.28	0.000
241.65	-1.493
242.02	21.622
242.40	3.077
242.77	2.667
243.14	2.439
243.51	0.000
243.89	15.385
244.26	23.762
244.63	13.725
245.00	1.869
245.38	13.158
245.75	-0.885
246.12	13.492
246.49	12.403
246.87	15.714
247.24	17.219
247.61	11.184
247.98	9.396
248.36	17.284
248.73	9.202
249.10	11.475
249.47	24.876
249.84	23.560
250.22	15.544
250.59	12.222
250.96	16.364
251.33	14.286
251.70	16.239
252.08	19.583
252.45	20.902
252.82	14.876
253.19	14.453
253.56	19.011
253.94	15.000
254.31	18.939
254.68	19.231
255.05	23.779
255.42	19.048
255.79	16.505
256.16	17.550
256.54	16.887
256.91	19.344
257.28	16.721
257.65	20.382
258.02	12.389
258.39	20.798
258.76	18.960
259.14	22.126
259.51	20.749
259.88	17.564
260.25	19.444
260.62	18.904
260.99	21.038
261.36	21.180
261.73	18.568
262.10	20.879
262.47	20.643
262.85	18.434
263.22	19.221
263.59	17.632
263.96	21.995
264.33	20.972
264.70	20.494
265.07	22.196
265.44	21.769
265.81	20.139
266.18	20.408
266.55	22.098
266.92	18.451
267.29	21.882
267.66	20.177
268.03	20.087
268.40	22.547
268.77	17.768
269.14	17.181
269.51	21.272
269.88	21.926
270.25	19.517
270.62	22.152
270.99	21.414
271.36	19.604
271.73	20.629
272.10	22.244
272.47	20.240
272.84	19.679
273.21	20.441
273.58	19.758
273.95	18.269
274.32	20.152
274.69	18.182
275.06	21.062
275.43	20.148
275.80	20.459
276.17	19.630
276.54	19.776
276.91	20.215
277.28	18.807
277.65	21.185
278.02	20.772
278.39	19.928
278.76	21.265
279.13	19.504
279.50	20.962
279.87	19.141
280.23	16.549
280.60	20.339
280.97	20.395
281.34	19.355
281.71	23.689
282.08	18.937
282.45	19.313
282.82	19.780
283.19	18.578
283.56	19.836
283.92	21.772
284.29	21.959
284.66	21.675
285.03	18.590
285.40	17.929
285.77	19.350
286.14	20.000
286.51	19.330
286.87	18.957
287.24	18.825
287.61	17.489
287.98	17.523
288.35	18.787
288.72	18.491
289.08	19.327
289.45	17.308
289.82	19.578
290.19	18.247
290.56	18.310
290.93	17.832
291.29	18.044
291.66	17.493
292.03	17.368
292.40	20.000
292.77	15.903
293.13	17.185
293.50	16.820
293.87	16.242
294.24	19.867
294.60	16.688
294.97	13.691
295.34	17.286
295.71	16.772
296.08	16.537
296.44	17.157
296.81	15.834
297.18	17.186
297.55	16.392
297.91	16.251
298.28	13.507
298.65	16.647
299.02	14.876
299.38	14.989
299.75	16.472
300.12	14.815
300.48	16.244
300.85	16.760
301.22	17.002
301.59	14.954
301.95	15.932
302.32	16.222
302.69	15.005
303.05	16.431
303.42	16.741
303.79	15.937
304.15	15.563
304.52	15.328
304.89	15.602
305.25	16.563
305.62	16.405
305.99	16.082
306.35	14.516
306.72	16.339
307.09	15.431
307.45	16.667
307.82	16.549
308.19	15.943
308.55	16.683
308.92	17.332
309.29	15.326
309.65	15.692
310.02	15.248
310.38	16.142
310.75	16.019
311.12	17.450
311.48	16.422
311.85	16.239
312.22	16.888
312.58	17.089
312.95	16.826
313.31	18.067
313.68	16.667
314.05	18.970
314.41	19.035
314.78	17.711
315.14	18.693
315.51	18.837
315.87	19.622
316.24	19.361
316.61	20.959
316.97	19.548
317.34	19.312
317.70	21.048
318.07	21.605
318.43	22.024
318.80	21.990
319.16	22.575
319.53	20.051
319.89	21.911
320.26	22.865
320.62	22.695
320.99	23.823
321.35	23.383
321.72	25.209
322.08	24.527
322.45	26.920
322.81	26.986
323.18	27.611
323.54	27.328
323.91	27.491
324.27	28.399
324.64	29.051
325.00	27.612
325.37	28.419
325.73	30.000
326.10	30.251
326.46	30.863
326.83	30.745
327.19	30.315
327.56	32.253
327.92	30.685
328.29	31.613
328.65	32.328
329.01	34.518
329.38	33.698
329.74	35.188
330.11	34.589
330.47	33.446
330.84	34.711
331.20	34.417
331.56	34.229
331.93	35.314
332.29	35.000
332.66	34.468
333.02	35.846
333.38	35.235
333.75	35.438
334.11	36.197
334.48	34.983
334.84	36.024
335.20	36.440
335.57	36.931
335.93	36.364
336.29	34.443
336.66	35.408
337.02	36.120
337.38	36.905
337.75	35.785
338.11	36.501
338.47	35.980
338.84	36.210
339.20	35.973
339.56	35.255
339.93	36.700
340.29	35.507
340.65	35.766
341.02	36.233
341.38	35.732
341.74	37.288
342.11	37.168
342.47	35.902
342.83	37.601
343.20	35.895
343.56	37.370
343.92	37.230
344.28	36.328
344.65	36.744
345.01	36.895
345.37	36.625
345.73	35.776
346.10	37.988
346.46	37.342
346.82	36.180
347.19	37.433
347.55	36.571
347.91	36.404
348.27	36.039
348.63	37.243
349.00	37.360
349.36	36.580
349.72	36.310
350.08	36.627
350.45	36.502
350.81	37.783
351.17	36.241
351.53	38.666
351.89	38.193
352.26	36.194
352.62	38.284
352.98	36.412
353.34	35.624
353.70	36.980
354.07	36.587
354.43	37.130
354.79	35.901
355.15	36.056
355.51	36.915
355.87	35.976
356.24	37.490
356.60	35.994
356.96	36.397
357.32	35.167
357.68	36.603
358.04	36.377
358.40	36.418
358.77	34.942
359.13	35.968
359.49	35.390
359.85	36.186
360.21	36.442
360.57	36.540
360.93	35.684
361.29	35.930
361.66	37.002
362.02	36.952
362.38	35.699
362.74	36.592
363.10	35.832
363.46	36.634
363.82	36.151
364.18	36.031
364.54	36.169
364.90	37.793
365.26	35.448
365.62	36.867
365.98	37.781
366.35	36.107
366.71	36.054
367.07	36.265
367.43	36.113
367.79	35.501
368.15	35.585
368.51	35.792
368.87	36.185
369.23	36.533
369.59	35.519
369.95	35.429
370.31	36.394
370.67	35.282
371.03	35.526
371.39	33.915
371.75	36.107
372.11	36.382
372.47	35.680
372.83	35.733
373.19	35.490
373.55	34.959
373.91	33.947
374.27	33.571
374.63	35.995
374.99	35.080
375.35	35.909
375.71	35.226
376.07	34.861
376.42	35.013
376.78	35.674
377.14	35.184
377.50	35.610
377.86	35.714
378.22	35.269
378.58	35.077
378.94	34.624
379.30	34.446
379.66	35.861
380.02	34.853
380.38	36.578
380.74	34.930
381.09	34.204
381.45	35.170
381.81	34.778
382.17	35.511
382.53	34.269
382.89	34.537
383.25	35.346
383.61	33.391
383.97	34.217
384.32	34.629
384.68	33.991
385.04	34.586
385.40	35.651
385.76	33.822
386.12	33.573
386.48	33.765
386.83	34.386
387.19	33.372
387.55	33.862
387.91	34.361
388.27	34.988
388.62	33.734
388.98	32.939
389.34	35.180
389.70	34.515
390.06	33.156
390.42	33.434
390.77	33.534
391.13	33.627
391.49	34.118
391.85	33.394
392.20	33.037
392.56	32.841
392.92	32.388
393.28	33.389
393.64	32.626
393.99	33.178
394.35	34.054
394.71	32.695
395.07	33.293
395.42	32.439
395.78	33.577
396.14	33.274
396.50	31.651
396.85	32.677
397.21	32.249
397.57	32.568
397.92	32.875
398.28	32.048
398.64	31.522
399.00	31.257
399.35	32.880
399.71	32.120
400.07	31.668
400.42	32.072
400.78	31.539
401.14	31.417
401.49	31.950
401.85	32.616
402.21	31.170
402.57	32.394
402.92	31.442
403.28	30.152
403.63	30.967
403.99	30.404
404.35	30.131
404.70	30.368
405.06	30.652
405.42	31.382
405.77	31.134
406.13	30.902
406.49	30.124
406.84	30.859
407.20	30.967
407.55	29.255
407.91	30.170
408.27	29.093
408.62	30.017
408.98	29.716
409.34	28.328
409.69	30.655
410.05	30.422
410.40	29.756
410.76	29.893
411.11	30.041
411.47	29.177
411.83	29.453
412.18	29.940
412.54	29.105
412.89	29.627
413.25	29.684
413.60	28.374
413.96	28.788
414.31	29.292
414.67	28.980
415.03	28.615
415.38	29.887
415.74	28.650
416.09	28.994
416.45	28.366
416.80	27.234
417.16	29.055
417.51	28.456
417.87	27.713
418.22	28.503
418.58	27.819
418.93	28.813
419.29	28.052
419.64	28.031
420.00	27.715
420.35	27.850
420.71	26.996
421.06	27.085
421.42	27.982
421.77	26.925
422.12	26.903
422.48	27.087
422.83	27.382
423.19	26.737
423.54	27.544
423.90	26.781
424.25	27.733
424.61	27.268
424.96	26.908
425.31	26.274
425.67	26.033
426.02	26.397
426.38	26.521
426.73	26.674
427.09	27.278
427.44	26.379
427.79	25.263
428.15	25.228
428.50	27.022
428.85	25.488
429.21	27.713
429.56	26.752
429.92	26.486
430.27	25.398
430.62	25.550
430.98	25.332
431.33	25.464
431.68	25.383
432.04	25.343
432.39	25.603
432.74	24.829
433.10	25.635
433.45	25.474
433.80	25.483
434.16	24.690
434.51	25.694
434.86	25.244
435.22	26.196
435.57	25.236
435.92	24.875
436.28	25.313
436.63	25.451
436.98	24.852
437.34	24.803
437.69	24.381
438.04	24.749
438.39	25.158
438.75	24.073
439.10	24.207
439.45	23.868
439.81	23.616
440.16	23.646
440.51	24.192
440.86	24.569
441.22	24.277
441.57	24.476
441.92	24.006
442.27	23.990
442.63	24.342
442.98	23.693
443.33	23.724
443.68	25.372
444.03	24.365
444.39	24.087
444.74	24.400
445.09	23.365
445.44	24.816
445.79	24.234
446.15	23.792
446.50	23.463
446.85	23.638
447.20	23.888
447.55	24.268
447.91	23.141
448.26	22.886
448.61	23.273
448.96	24.303
449.31	22.747
449.66	22.603
450.02	23.470
450.37	23.708
450.72	23.358
451.07	23.121
451.42	22.761
451.77	22.513
452.12	23.589
452.47	22.757
452.83	23.029
453.18	22.884
453.53	21.884
453.88	23.026
454.23	22.825
454.58	23.506
454.93	22.330
455.28	22.336
455.63	22.229
455.98	22.291
456.34	22.261
456.69	22.457
457.04	22.222
457.39	22.007
457.74	23.322
458.09	21.527
458.44	22.252
458.79	22.022
459.14	22.077
459.49	22.524
459.84	21.878
460.19	21.766
460.54	21.976
460.89	22.234
461.24	21.264
461.59	21.859
461.94	21.392
462.29	22.508
462.64	21.907
462.99	21.343
463.34	21.350
463.69	21.981
464.04	22.290
464.39	22.365
464.74	21.152
465.09	21.338
465.44	21.888
465.79	21.206
466.14	20.584
466.49	21.421
466.84	20.882
467.19	21.445
467.54	21.093
467.89	20.862
468.24	20.554
468.59	20.672
468.94	21.096
469.29	21.476
469.64	20.788
469.99	20.650
470.34	20.606
470.68	22.351
471.03	21.742
471.38	20.078
471.73	19.766
472.08	21.320
472.43	20.831
472.78	21.285
473.13	20.354
473.48	21.148
473.83	20.662
474.17	21.571
474.52	20.204
474.87	20.930
475.22	21.014
475.57	20.665
475.92	20.060
476.27	20.501
476.61	20.768
476.96	19.917
477.31	20.792
477.66	20.986
478.01	19.878
478.36	20.140
478.70	20.345
479.05	20.245
479.40	20.188
479.75	20.557
480.10	20.701
480.45	19.644
480.79	20.862
481.14	19.577
481.49	20.036
481.84	20.279
482.19	20.645
482.53	20.114
482.88	20.160
483.23	19.742
483.58	19.869
483.92	20.745
484.27	19.602
484.62	19.018
484.97	20.062
485.31	19.641
485.66	19.255
486.01	18.079
486.36	18.047
486.70	19.348
487.05	20.246
487.40	20.432
487.75	20.992
488.09	20.907
488.44	21.054
488.79	20.675
489.13	20.203
489.48	18.990
489.83	19.759
490.17	19.482
490.52	19.171
490.87	19.628
491.22	19.844
491.56	19.326
491.91	19.756
492.26	19.602
492.60	19.545
492.95	19.614
493.30	19.005
493.64	18.528
493.99	20.044
494.34	18.728
494.68	19.572
495.03	18.855
495.37	18.287
495.72	19.229
496.07	18.712
496.41	18.662
496.76	18.599
497.11	19.703
497.45	19.033
497.80	19.280
498.14	19.546
498.49	18.796
498.84	19.561
499.18	18.713
499.53	18.879
499.87	18.857
500.22	18.566
500.56	18.623
500.91	17.941
501.26	19.136
501.60	17.941
501.95	18.628
502.29	19.175
502.64	18.627
502.98	18.680
503.33	17.883
503.67	18.186
504.02	18.433
504.36	18.275
504.71	18.833
505.06	18.508
505.40	18.373
505.75	18.534
506.09	18.785
506.44	19.127
506.78	18.807
507.13	18.718
507.47	18.333
507.82	18.466
508.16	18.834
508.51	18.331
508.85	18.753
509.19	19.327
509.54	19.597
509.88	18.213
510.23	19.233
510.57	19.381
510.92	18.723
511.26	17.653
511.61	17.866
511.95	18.350
512.30	18.661
512.64	17.841
512.98	18.159
513.33	18.599
513.67	18.664
514.02	18.140
514.36	18.005
514.70	18.125
515.05	18.300
515.39	18.425
515.74	18.770
516.08	17.750
516.42	19.466
516.77	18.244
517.11	17.999
517.46	18.823
517.80	18.653
518.14	18.444
518.49	19.035
518.83	17.829
519.17	18.309
519.52	18.239
519.86	19.219
520.20	18.317
520.55	17.634
520.89	18.525
521.23	18.649
521.58	17.910
521.92	18.924
522.26	18.499
522.61	17.998
522.95	17.647
523.29	18.391
523.64	18.442
523.98	18.483
524.32	18.223
524.66	18.384
525.01	18.063
525.35	17.461
525.69	17.691
526.04	17.336
526.38	18.506
526.72	17.474
527.06	18.475
527.41	18.659
527.75	18.646
528.09	18.005
528.43	17.940
528.78	17.746
529.12	16.858
529.46	17.594
529.80	17.849
530.15	17.507
530.49	17.734
530.83	17.946
531.17	17.921
531.51	17.990
531.86	18.209
532.20	18.232
532.54	18.372
532.88	17.758
533.22	18.444
533.57	17.888
533.91	18.294
534.25	16.902
534.59	18.161
534.93	17.148
535.27	18.366
535.62	18.022
535.96	17.722
536.30	17.568
536.64	17.838
536.98	18.450
537.32	18.086
537.66	17.779
538.01	17.825
538.35	17.966
538.69	17.788
539.03	17.167
539.37	17.845
539.71	17.838
540.05	17.806
540.39	16.687
540.73	16.818
541.07	17.474
541.42	17.602
541.76	16.845
542.10	18.335
542.44	16.931
542.78	18.005
543.12	16.746
543.46	17.460
543.80	16.966
544.14	17.056
544.48	17.967
544.82	17.295
545.16	17.651
545.50	17.016
545.84	18.004
546.18	18.148
546.52	17.134
546.86	16.855
547.20	17.303
547.54	17.228
547.88	17.722
548.22	17.076
548.56	17.086
548.90	17.194
549.24	16.778
549.58	16.088
549.92	17.028
550.26	17.217
550.60	16.656
550.94	16.882
551.28	17.096
551.62	17.318
551.96	17.152
552.30	17.973
552.64	16.739
552.98	17.342
553.32	17.556
553.66	17.363
554.00	17.276
554.34	16.281
554.68	17.301
555.02	16.886
555.36	18.475
555.69	17.040
556.03	16.646
556.37	16.959
556.71	17.755
557.05	17.380
557.39	17.386
557.73	16.843
558.07	16.821
558.41	17.342
558.75	16.565
559.08	17.049
559.42	16.461
559.76	17.232
560.10	16.477
560.44	17.018
560.78	16.562
561.12	16.256
561.45	17.032
561.79	17.338
562.13	17.067
562.47	16.461
562.81	16.709
563.15	16.856
563.48	17.340
563.82	17.412
564.16	16.233
564.50	16.865
564.84	16.106
565.17	16.824
565.51	16.571
565.85	16.568
566.19	16.244
566.52	17.086
566.86	16.016
567.20	16.476
567.54	17.313
567.88	16.565
568.21	16.354
568.55	16.787
568.89	16.024
569.23	16.181
569.56	16.139
569.90	15.788
570.24	15.717
570.57	15.715
570.91	15.799
571.25	15.910
571.59	16.198
571.92	16.018
572.26	16.173
572.60	16.216
572.93	16.449
573.27	16.437
573.61	16.305
573.95	16.363
574.28	15.884
574.62	15.848
574.96	15.770
575.29	16.017
575.63	16.055
575.97	16.335
576.30	16.013
576.64	16.130
576.98	15.877
577.31	15.791
577.65	15.683
577.98	15.606
578.32	15.352
578.66	15.398
578.99	15.953
579.33	16.118
579.67	16.228
580.00	15.689
580.34	15.969
580.67	15.733
581.01	16.140
581.35	15.878
581.68	15.404
582.02	15.261
582.35	15.751
582.69	15.771
583.02	16.072
583.36	16.430
583.70	16.087
584.03	16.439
584.37	16.588
584.70	15.550
585.04	15.462
585.37	15.709
585.71	15.599
586.04	15.698
586.38	15.645
586.72	15.718
587.05	15.733
587.39	15.757
587.72	15.550
588.06	15.474
588.39	15.882
588.73	15.794
589.06	16.084
589.40	16.533
589.73	16.228
590.07	15.650
590.40	16.193
590.73	16.048
591.07	16.679
591.40	16.058
591.74	15.501
592.07	16.119
592.41	14.866
592.74	15.868
593.08	15.669
593.41	15.661
593.75	15.172
594.08	16.116
594.41	15.897
594.75	15.809
595.08	15.612
595.42	16.266
595.75	16.080
596.09	16.571
596.42	16.087
596.75	16.210
597.09	16.323
597.42	15.971
597.75	16.425
598.09	15.675
598.42	16.365
598.76	15.361
599.09	14.988
599.42	14.851
599.76	15.484
600.09	15.816
600.42	15.249
600.76	15.026
601.09	15.765
601.42	15.242
601.76	15.931
602.09	15.904
602.42	15.449
602.76	15.941
603.09	15.786
603.42	15.354
603.76	14.940
604.09	16.075
604.42	15.743
604.76	15.335
605.09	15.836
605.42	16.108
605.75	15.385
606.09	15.080
606.42	14.812
606.75	14.730
607.09	14.670
607.42	15.607
607.75	15.084
608.08	15.154
608.42	15.437
608.75	16.169
609.08	15.365
609.41	15.351
609.75	15.402
610.08	15.787
610.41	14.528
610.74	15.000
611.07	15.631
611.41	16.009
611.74	16.074
612.07	15.288
612.40	15.447
612.73	15.599
613.07	15.697
613.40	15.207
613.73	15.311
614.06	15.260
614.39	14.917
614.72	14.702
615.06	15.111
615.39	14.693
615.72	16.398
616.05	15.444
616.38	15.691
616.71	16.196
617.05	14.590
617.38	15.195
617.71	15.335
618.04	14.895
618.37	15.137
618.70	16.233
619.03	15.114
619.36	14.920
619.69	16.464
620.03	15.254
620.36	14.908
620.69	13.942
621.02	15.354
621.35	16.763
621.68	15.329
622.01	15.943
622.34	15.202
622.67	15.326
623.00	14.305
623.33	15.727
623.66	15.175
623.99	14.483
624.32	16.049
624.65	15.315
624.99	14.304
625.32	16.395
625.65	15.779
625.98	15.390
626.31	16.584
626.64	15.897
626.97	15.979
627.30	14.427
627.63	14.404
627.96	15.841
628.29	15.564
628.62	15.617
628.95	15.776
629.28	14.698
629.61	15.741
629.94	14.644
630.26	14.237
630.59	13.731
630.92	14.372
631.25	15.295
631.58	15.537
631.91	15.745
