SpectraSuite Data File
++++++++++++++++++++++++++++++++++++
Date: Thu May 14 15:56:40 PDT 2015
User: schluterlab
Dark Spectrum Present: Yes
Reference Spectrum Present: Yes
Number of Sampled Component Spectra: 1
Spectrometers: USB2E3373
Integration Time (usec): 3000 (USB2E3373)
Spectra Averaged: 3 (USB2E3373)
Boxcar Smoothing: 0 (USB2E3373)
Correct for Electrical Dark: No (USB2E3373)
Strobe/Lamp Enabled: No (USB2E3373)
Correct for Detector Non-linearity: No (USB2E3373)
Correct for Stray Light: No (USB2E3373)
Number of Pixels in Processed Spectrum: 2048
>>>>>Begin Processed Spectral Data<<<<<
178.53	0.000
178.91	428.571
179.29	-3200.000
179.67	-3200.000
180.04	314.286
180.42	250.000
180.80	440.000
181.18	-2500.000
181.56	-1200.000
181.94	700.000
182.31	-600.000
182.69	500.000
183.07	-850.000
183.45	800.000
183.83	-533.333
184.20	-566.667
184.58	2500.000
184.96	-625.000
185.34	-322.222
185.72	-400.000
186.09	311.111
186.47	1100.000
186.85	480.000
187.23	-266.667
187.61	-3400.000
187.98	440.000
188.36	525.000
188.74	-500.000
189.12	-700.000
189.49	-143.750
189.87	-250.000
190.25	-166.667
190.63	-500.000
191.00	-344.444
191.38	0.000
191.76	-550.000
192.14	-383.333
192.51	1300.000
192.89	-200.000
193.27	0.000
193.65	-357.143
194.02	-3400.000
194.40	-271.429
194.78	385.714
195.15	0.000
195.53	-109.091
195.91	0.000
196.29	-675.000
196.66	-100.000
197.04	-2700.000
197.42	-400.000
197.79	-1200.000
198.17	-300.000
198.55	-414.286
198.92	-233.333
199.30	-250.000
199.68	-209.091
200.05	-164.286
200.43	-1400.000
200.81	385.714
201.18	0.000
201.56	377.778
201.94	0.000
202.31	966.667
202.69	-344.444
203.07	2500.000
203.44	-266.667
203.82	-725.000
204.19	-183.333
204.57	-500.000
204.95	-375.000
205.32	-3700.000
205.70	750.000
206.08	-500.000
206.45	-316.667
206.83	600.000
207.20	-233.333
207.58	-820.000
207.96	-450.000
208.33	-383.333
208.71	175.000
209.08	-266.667
209.46	0.000
209.84	633.333
210.21	850.000
210.59	950.000
210.96	1066.667
211.34	-650.000
211.71	-287.500
212.09	-2700.000
212.46	0.000
212.84	2050.000
213.22	-820.000
213.59	-600.000
213.97	-220.000
214.34	-1200.000
214.72	400.000
215.09	-700.000
215.47	0.000
215.84	442.857
216.22	1250.000
216.59	-480.000
216.97	-420.000
217.34	-575.000
217.72	-300.000
218.09	-650.000
218.47	-650.000
218.84	0.000
219.22	520.000
219.59	-129.412
219.97	-90.000
220.34	1450.000
220.72	-355.556
221.09	-130.769
221.47	-733.333
221.84	-220.000
222.22	-371.429
222.59	0.000
222.97	-237.500
223.34	-640.000
223.72	-2200.000
224.09	-700.000
224.46	-525.000
224.84	-400.000
225.21	-500.000
225.59	-550.000
225.96	-725.000
226.34	-69.231
226.71	550.000
227.08	-1500.000
227.46	-146.667
227.83	-550.000
228.21	-89.474
228.58	362.500
228.95	1100.000
229.33	-158.333
229.70	-240.000
230.08	-89.474
230.45	310.000
230.82	-733.333
231.20	-214.286
231.57	-241.667
231.95	-245.455
232.32	-227.273
232.69	-105.000
233.07	-400.000
233.44	-164.706
233.81	-190.000
234.19	-83.333
234.56	-45.455
234.93	-48.276
235.31	-100.000
235.68	-105.556
236.05	-125.000
236.43	-38.462
236.80	-36.000
237.17	-55.556
237.55	-42.424
237.92	-300.000
238.29	-74.194
238.67	-63.636
239.04	-33.333
239.41	-57.143
239.79	-60.870
240.16	-29.630
240.53	-34.783
240.91	-56.863
241.28	-27.869
241.65	-14.925
242.02	-10.811
242.40	-20.000
242.77	-9.333
243.14	-21.951
243.51	-36.842
243.89	-25.641
244.26	-6.931
244.63	-11.765
245.00	-4.673
245.38	-7.895
245.75	-14.159
246.12	3.175
246.49	-5.426
246.87	2.857
247.24	-1.987
247.61	-3.289
247.98	-1.342
248.36	-1.852
248.73	-0.613
249.10	2.732
249.47	6.965
249.84	14.136
250.22	3.109
250.59	3.889
250.96	7.273
251.33	2.041
251.70	2.564
252.08	5.000
252.45	8.607
252.82	4.132
253.19	6.641
253.56	7.605
253.94	4.231
254.31	8.333
254.68	12.937
255.05	11.075
255.42	5.442
255.79	7.767
256.16	4.967
256.54	7.947
256.91	6.230
257.28	9.508
257.65	4.459
258.02	6.785
258.39	10.826
258.76	9.786
259.14	10.632
259.51	10.375
259.88	9.065
260.25	4.167
260.62	9.589
260.99	11.749
261.36	10.724
261.73	6.101
262.10	11.264
262.47	8.847
262.85	13.131
263.22	8.571
263.59	7.368
263.96	9.719
264.33	9.463
264.70	10.370
265.07	14.081
265.44	13.605
265.81	10.648
266.18	13.605
266.55	12.277
266.92	9.567
267.29	10.284
267.66	10.200
268.03	10.044
268.40	10.647
268.77	9.339
269.14	7.709
269.51	10.307
269.88	11.066
270.25	11.871
270.62	9.916
270.99	13.737
271.36	10.891
271.73	12.574
272.10	12.425
272.47	11.423
272.84	13.253
273.21	12.024
273.58	10.081
273.95	10.385
274.32	9.125
274.69	11.412
275.06	12.271
275.43	9.797
275.80	12.875
276.17	10.185
276.54	12.873
276.91	11.807
277.28	10.307
277.65	12.926
278.02	13.051
278.39	10.507
278.76	10.369
279.13	10.993
279.50	12.199
279.87	11.270
280.23	8.979
280.60	11.186
280.97	12.007
281.34	11.715
281.71	13.198
282.08	12.957
282.45	11.129
282.82	10.989
283.19	10.662
283.56	10.820
283.92	12.462
284.29	13.112
284.66	13.136
285.03	9.295
285.40	11.592
285.77	11.455
286.14	12.519
286.51	9.589
286.87	10.900
287.24	11.747
287.61	12.257
287.98	11.027
288.35	9.911
288.72	9.763
289.08	11.567
289.45	11.538
289.82	11.295
290.19	11.063
290.56	12.394
290.93	9.415
291.29	10.055
291.66	10.055
292.03	11.262
292.40	12.109
292.77	9.973
293.13	10.961
293.50	9.724
293.87	10.201
294.24	11.200
294.60	11.757
294.97	8.054
295.34	10.755
295.71	9.079
296.08	10.207
296.44	9.559
296.81	10.231
297.18	8.219
297.55	9.788
297.91	9.490
298.28	9.597
298.65	9.037
299.02	9.681
299.38	9.268
299.75	9.229
300.12	9.028
300.48	8.410
300.85	11.024
301.22	10.179
301.59	9.703
301.95	9.266
302.32	10.778
302.69	10.405
303.05	9.684
303.42	8.758
303.79	8.854
304.15	10.620
304.52	9.619
304.89	11.414
305.25	9.420
305.62	9.718
305.99	10.722
306.35	10.786
306.72	11.169
307.09	9.442
307.45	11.077
307.82	11.504
308.19	10.898
308.55	11.861
308.92	10.516
309.29	10.345
309.65	10.624
310.02	10.495
310.38	10.728
310.75	11.845
311.12	13.039
311.48	12.708
311.85	12.346
312.22	13.472
312.58	12.394
312.95	13.098
313.31	14.453
313.68	14.377
314.05	15.176
314.41	15.027
314.78	13.806
315.14	14.338
315.51	16.251
315.87	15.932
316.24	17.717
316.61	16.696
316.97	15.747
317.34	17.460
317.70	18.079
318.07	17.549
318.43	17.942
318.80	19.816
319.16	19.399
319.53	19.366
319.89	19.720
320.26	21.619
320.62	21.720
320.99	21.699
321.35	23.198
321.72	24.651
322.08	23.264
322.45	24.210
322.81	25.271
323.18	25.752
323.54	27.586
323.91	28.470
324.27	28.830
324.64	29.555
325.00	30.100
325.37	31.859
325.73	34.298
326.10	33.333
326.46	34.365
326.83	36.509
327.19	37.480
327.56	37.154
327.92	38.316
328.29	38.871
328.65	37.940
329.01	42.132
329.38	41.955
329.74	42.295
330.11	43.151
330.47	43.134
330.84	44.531
331.20	45.250
331.56	45.667
331.93	46.276
332.29	48.559
332.66	47.841
333.02	47.236
333.38	48.070
333.75	48.148
334.11	50.959
334.48	49.670
334.84	50.977
335.20	50.294
335.57	52.698
335.93	51.653
336.29	50.832
336.66	52.481
337.02	52.007
337.38	53.741
337.75	53.058
338.11	53.490
338.47	52.854
338.84	53.723
339.20	53.075
339.56	52.059
339.93	53.859
340.29	53.462
340.65	54.258
341.02	55.626
341.38	56.103
341.74	54.076
342.11	55.752
342.47	55.361
342.83	55.636
343.20	58.299
343.56	57.498
343.92	57.486
344.28	57.109
344.65	56.977
345.01	56.786
345.37	56.454
345.73	56.274
346.10	59.984
346.46	58.228
346.82	57.154
347.19	58.442
347.55	57.815
347.91	57.207
348.27	59.181
348.63	58.720
349.00	59.881
349.36	58.513
349.72	58.854
350.08	58.395
350.45	59.240
350.81	58.522
351.17	60.677
351.53	61.410
351.89	61.276
352.26	62.761
352.62	61.642
352.98	60.534
353.34	59.821
353.70	61.248
354.07	62.742
354.43	61.655
354.79	61.481
355.15	62.104
355.51	63.085
355.87	61.780
356.24	63.498
356.60	61.789
356.96	64.566
357.32	62.156
357.68	63.397
358.04	63.249
358.40	63.060
358.77	64.693
359.13	64.623
359.49	64.164
359.85	63.959
360.21	65.208
360.57	63.747
360.93	65.162
361.29	64.000
361.66	65.749
362.02	66.458
362.38	66.479
362.74	66.061
363.10	65.750
363.46	67.105
363.82	66.903
364.18	67.347
364.54	66.321
364.90	67.157
365.26	67.931
365.62	66.400
365.98	68.142
366.35	66.711
366.71	67.347
367.07	68.403
367.43	68.155
367.79	70.139
368.15	69.565
368.51	70.095
368.87	67.538
369.23	68.400
369.59	70.697
369.95	69.371
370.31	70.020
370.67	68.638
371.03	70.360
371.39	69.174
371.75	69.876
372.11	69.783
372.47	69.601
372.83	70.353
373.19	68.312
373.55	70.799
373.91	70.075
374.27	71.022
374.63	72.395
374.99	69.960
375.35	70.974
375.71	70.774
376.07	71.465
376.42	71.033
376.78	71.162
377.14	70.742
377.50	73.308
377.86	70.813
378.22	73.054
378.58	75.386
378.94	72.829
379.30	72.056
379.66	73.898
380.02	73.053
380.38	73.502
380.74	73.070
381.09	73.868
381.45	73.523
381.81	74.063
382.17	73.872
382.53	73.626
382.89	72.743
383.25	76.905
383.61	76.042
383.97	76.031
384.32	74.222
384.68	75.058
385.04	75.766
385.40	75.722
385.76	75.440
386.12	75.883
386.48	74.647
386.83	74.672
387.19	74.392
387.55	75.880
387.91	75.457
388.27	74.307
388.62	74.227
388.98	75.183
389.34	76.724
389.70	76.641
390.06	74.067
390.42	74.699
390.77	75.557
391.13	76.056
391.49	75.845
391.85	75.636
392.20	75.682
392.56	75.783
392.92	75.300
393.28	76.617
393.64	75.698
393.99	76.119
394.35	76.402
394.71	76.048
395.07	75.329
395.42	74.929
395.78	76.478
396.14	76.471
396.50	75.831
396.85	75.253
397.21	76.036
397.57	76.148
397.92	76.231
398.28	75.883
398.64	75.915
399.00	74.764
399.35	74.869
399.71	75.435
400.07	77.260
400.42	75.204
400.78	75.868
401.14	75.470
401.49	76.236
401.85	76.105
402.21	76.651
402.57	77.113
402.92	76.714
403.28	74.063
403.63	76.313
403.99	74.169
404.35	74.531
404.70	76.091
405.06	75.109
405.42	75.703
405.77	76.009
406.13	75.257
406.49	75.394
406.84	76.731
407.20	73.784
407.55	75.893
407.91	75.236
408.27	74.028
408.62	75.451
408.98	75.276
409.34	74.194
409.69	75.278
410.05	74.619
410.40	75.928
410.76	74.201
411.11	76.563
411.47	75.921
411.83	74.780
412.18	77.229
412.54	75.222
412.89	74.098
413.25	76.072
413.60	75.072
413.96	75.699
414.31	74.731
414.67	74.896
415.03	74.708
415.38	75.725
415.74	73.671
416.09	75.447
416.45	74.076
416.80	73.133
417.16	74.457
417.51	74.035
417.87	74.555
418.22	75.150
418.58	75.651
418.93	74.331
419.29	75.401
419.64	76.651
420.00	75.964
420.35	75.014
420.71	75.416
421.06	75.273
421.42	76.491
421.77	74.637
422.12	73.520
422.48	76.344
422.83	75.739
423.19	75.597
423.54	76.327
423.90	74.986
424.25	76.853
424.61	76.177
424.96	76.387
425.31	76.221
425.67	76.221
426.02	77.975
426.38	76.349
426.73	76.395
427.09	77.047
427.44	75.642
427.79	75.732
428.15	76.370
428.50	76.461
428.85	75.603
429.21	78.085
429.56	76.752
429.92	77.641
430.27	77.542
430.62	77.821
430.98	77.472
431.33	77.224
431.68	76.437
432.04	78.923
432.39	78.147
432.74	77.397
433.10	78.691
433.45	76.533
433.80	77.253
434.16	77.893
434.51	79.959
434.86	79.370
435.22	79.171
435.57	80.366
435.92	78.742
436.28	79.238
436.63	79.574
436.98	78.207
437.34	79.143
437.69	78.866
438.04	79.164
438.39	80.069
438.75	79.856
439.10	80.338
439.45	79.039
439.81	79.492
440.16	78.660
440.51	79.933
440.86	78.655
441.22	77.921
441.57	79.927
441.92	80.747
442.27	81.364
442.63	80.030
442.98	81.323
443.33	80.379
443.68	80.030
444.03	81.468
444.39	81.368
444.74	80.704
445.09	79.270
445.44	82.086
445.79	81.130
446.15	81.809
446.50	80.568
446.85	81.226
447.20	81.576
447.55	81.851
447.91	81.780
448.26	80.708
448.61	81.881
448.96	82.833
449.31	80.859
449.66	80.828
450.02	81.857
450.37	81.513
450.72	82.024
451.07	82.916
451.42	80.358
451.77	81.823
452.12	82.788
452.47	81.402
452.83	83.390
453.18	81.786
453.53	81.850
453.88	81.060
454.23	81.130
454.58	83.575
454.93	81.796
455.28	82.721
455.63	81.580
455.98	82.570
456.34	81.861
456.69	81.481
457.04	85.047
457.39	83.038
457.74	82.550
458.09	82.867
458.44	81.358
458.79	81.176
459.14	82.119
459.49	83.022
459.84	82.371
460.19	80.677
460.54	82.794
460.89	82.478
461.24	80.632
461.59	82.512
461.94	79.521
462.29	81.859
462.64	81.171
462.99	82.172
463.34	82.284
463.69	80.188
464.04	83.102
464.39	81.558
464.74	79.818
465.09	80.854
465.44	80.794
465.79	81.227
466.14	80.198
466.49	80.421
466.84	82.204
467.19	80.809
467.54	79.318
467.89	80.345
468.24	81.385
468.59	78.749
468.94	80.303
469.29	78.584
469.64	79.021
469.99	81.644
470.34	79.889
470.68	81.887
471.03	81.991
471.38	82.080
471.73	82.250
472.08	81.155
472.43	80.313
472.78	80.416
473.13	81.163
473.48	80.302
473.83	81.254
474.17	78.957
474.52	81.239
474.87	79.956
475.22	79.887
475.57	79.024
475.92	79.940
476.27	80.831
476.61	78.609
476.96	79.666
477.31	78.416
477.66	80.797
478.01	79.919
478.36	77.966
478.70	79.557
479.05	80.624
479.40	79.714
479.75	78.963
480.10	80.009
480.45	78.304
480.79	78.594
481.14	77.941
481.49	79.146
481.84	79.591
482.19	78.753
482.53	81.067
482.88	79.087
483.23	79.591
483.58	78.865
483.92	77.970
484.27	78.620
484.62	76.939
484.97	78.927
485.31	76.839
485.66	73.508
486.01	72.373
486.36	73.351
486.70	76.140
487.05	77.179
487.40	76.759
487.75	76.234
488.09	75.148
488.44	75.370
488.79	76.121
489.13	75.199
489.48	75.883
489.83	75.010
490.17	77.076
490.52	76.683
490.87	77.284
491.22	78.120
491.56	76.365
491.91	76.668
492.26	76.980
492.60	76.519
492.95	77.051
493.30	77.095
493.64	77.135
493.99	76.798
494.34	76.742
494.68	75.931
495.03	76.256
495.37	78.029
495.72	76.190
496.07	76.293
496.41	74.818
496.76	76.647
497.11	77.410
497.45	75.183
497.80	76.499
498.14	75.918
498.49	75.827
498.84	75.137
499.18	75.034
499.53	75.112
499.87	75.516
500.22	75.245
500.56	74.449
500.91	74.966
501.26	76.227
501.60	74.326
501.95	74.946
502.29	74.814
502.64	75.251
502.98	74.072
503.33	73.132
503.67	73.354
504.02	72.636
504.36	74.441
504.71	74.277
505.06	73.533
505.40	74.132
505.75	73.679
506.09	73.435
506.44	74.745
506.78	75.000
507.13	72.937
507.47	74.230
507.82	73.106
508.16	74.474
508.51	72.808
508.85	74.350
509.19	73.093
509.54	73.535
509.88	72.220
510.23	74.648
510.57	74.480
510.92	73.295
511.26	71.332
511.61	71.801
511.95	73.206
512.30	73.954
512.64	72.114
512.98	71.836
513.33	73.639
513.67	71.545
514.02	72.816
514.36	72.941
514.70	73.802
515.05	72.941
515.39	72.651
515.74	73.118
516.08	72.953
516.42	73.260
516.77	73.554
517.11	71.583
517.46	72.587
517.80	73.169
518.14	73.123
518.49	72.126
518.83	70.782
519.17	70.813
519.52	70.964
519.86	70.908
520.20	71.193
520.55	72.070
520.89	72.523
521.23	70.966
521.58	72.373
521.92	70.538
522.26	70.332
522.61	70.949
522.95	71.223
523.29	72.011
523.64	70.404
523.98	71.477
524.32	72.092
524.66	71.144
525.01	70.272
525.35	69.787
525.69	69.954
526.04	68.542
526.38	69.598
526.72	70.531
527.06	70.674
527.41	69.388
527.75	69.121
528.09	69.067
528.43	69.568
528.78	67.746
529.12	68.062
529.46	68.241
529.80	68.021
530.15	68.058
530.49	69.514
530.83	68.300
531.17	69.056
531.51	68.231
531.86	68.329
532.20	68.354
532.54	66.846
532.88	67.576
533.22	66.117
533.57	65.724
533.91	66.835
534.25	66.422
534.59	66.034
534.93	65.705
535.27	64.282
535.62	65.776
535.96	66.647
536.30	66.275
536.64	65.225
536.98	66.728
537.32	64.815
537.66	65.876
538.01	64.773
538.35	64.921
538.69	64.063
539.03	65.175
539.37	64.252
539.71	64.625
540.05	65.707
540.39	64.303
540.73	62.538
541.07	64.868
541.42	63.733
541.76	62.752
542.10	63.691
542.44	62.607
542.78	63.260
543.12	63.349
543.46	62.576
543.80	63.609
544.14	62.597
544.48	62.707
544.82	62.298
545.16	61.419
545.50	62.193
545.84	61.115
546.18	62.716
546.52	62.548
546.86	60.755
547.20	62.659
547.54	59.925
547.88	60.940
548.22	60.877
548.56	61.556
548.90	61.373
549.24	60.304
549.58	61.514
549.92	60.459
550.26	61.165
550.60	59.541
550.94	60.802
551.28	59.670
551.62	61.590
551.96	60.065
552.30	60.739
552.64	60.548
552.98	60.324
553.32	61.736
553.66	60.000
554.00	59.269
554.34	59.395
554.68	59.070
555.02	59.396
555.36	61.210
555.69	59.193
556.03	58.764
556.37	59.700
556.71	58.592
557.05	59.361
557.39	60.319
557.73	59.445
558.07	58.742
558.41	59.801
558.75	59.297
559.08	59.151
559.42	59.122
559.76	58.345
560.10	58.004
560.44	58.707
560.78	58.500
561.12	57.882
561.45	57.908
561.79	57.204
562.13	57.178
562.47	56.597
562.81	56.203
563.15	57.071
563.48	57.116
563.82	56.409
564.16	55.300
564.50	54.410
564.84	55.693
565.17	55.765
565.51	54.948
565.85	56.235
566.19	54.608
566.52	55.998
566.86	55.631
567.20	54.541
567.54	55.019
567.88	54.638
568.21	53.854
568.55	53.621
568.89	54.426
569.23	52.978
569.56	52.052
569.90	51.283
570.24	52.007
570.57	50.321
570.91	50.153
571.25	49.291
571.59	49.875
571.92	49.920
572.26	49.047
572.60	49.113
572.93	48.873
573.27	48.637
573.61	48.174
573.95	48.264
574.28	48.423
574.62	47.999
574.96	47.375
575.29	46.883
575.63	47.517
575.97	47.234
576.30	48.038
576.64	46.982
576.98	47.449
577.31	46.759
577.65	47.627
577.98	46.084
578.32	46.203
578.66	46.495
578.99	46.344
579.33	47.021
579.67	45.852
580.00	46.505
580.34	46.444
580.67	45.587
581.01	45.868
581.35	45.802
581.68	45.572
582.02	45.456
582.35	45.890
582.69	45.963
583.02	45.861
583.36	45.163
583.70	45.944
584.03	45.764
584.37	46.137
584.70	44.572
585.04	44.478
585.37	45.294
585.71	44.293
586.04	45.178
586.38	45.079
586.72	44.873
587.05	45.101
587.39	45.001
587.72	44.952
588.06	45.430
588.39	45.059
588.73	44.603
589.06	45.119
589.40	45.759
589.73	46.080
590.07	45.557
590.40	45.707
590.73	45.387
591.07	46.798
591.40	45.918
591.74	46.145
592.07	46.123
592.41	45.584
592.74	44.870
593.08	44.809
593.41	44.678
593.75	43.448
594.08	45.138
594.41	45.577
594.75	44.769
595.08	44.616
595.42	44.805
595.75	43.978
596.09	43.748
596.42	43.784
596.75	43.613
597.09	45.333
597.42	44.497
597.75	44.845
598.09	44.921
598.42	44.150
598.76	44.058
599.09	43.574
599.42	42.642
599.76	43.282
600.09	43.610
600.42	42.976
600.76	43.197
601.09	42.748
601.42	42.122
601.76	43.207
602.09	42.816
602.42	42.457
602.76	43.432
603.09	43.282
603.42	43.172
603.76	42.953
604.09	43.754
604.42	43.156
604.76	42.960
605.09	41.883
605.42	42.743
605.75	42.500
606.09	42.404
606.42	41.700
606.75	41.867
607.09	42.780
607.42	42.775
607.75	42.165
608.08	41.752
608.42	41.354
608.75	42.123
609.08	41.384
609.41	42.964
609.75	42.054
610.08	43.580
610.41	42.311
610.74	42.059
611.07	42.407
611.41	43.139
611.74	42.494
612.07	42.216
612.40	42.633
612.73	43.130
613.07	42.592
613.40	43.455
613.73	42.273
614.06	42.051
614.39	41.983
614.72	41.242
615.06	42.445
615.39	41.663
615.72	41.517
616.05	42.011
616.38	42.381
616.71	41.954
617.05	40.522
617.38	42.643
617.71	42.495
618.04	41.500
618.37	44.044
618.70	42.364
619.03	43.130
619.36	42.232
619.69	43.049
620.03	41.368
620.36	41.840
620.69	41.703
621.02	43.504
621.35	43.832
621.68	43.745
622.01	43.274
622.34	43.375
622.67	43.024
623.00	41.363
623.33	43.198
623.66	41.634
623.99	42.462
624.32	43.080
624.65	42.278
624.99	43.368
625.32	42.652
625.65	41.942
625.98	42.441
626.31	42.877
626.64	41.758
626.97	42.986
627.30	42.293
627.63	42.311
627.96	43.994
628.29	43.346
628.62	42.821
628.95	45.048
629.28	43.246
629.61	42.256
629.94	42.176
630.26	42.627
630.59	42.142
630.92	41.732
631.25	44.544
631.58	44.915
631.91	43.299
