SpectraSuite Data File
++++++++++++++++++++++++++++++++++++
Date: Thu May 14 16:13:12 PDT 2015
User: schluterlab
Dark Spectrum Present: Yes
Reference Spectrum Present: Yes
Number of Sampled Component Spectra: 1
Spectrometers: USB2E3373
Integration Time (usec): 3000 (USB2E3373)
Spectra Averaged: 3 (USB2E3373)
Boxcar Smoothing: 0 (USB2E3373)
Correct for Electrical Dark: No (USB2E3373)
Strobe/Lamp Enabled: No (USB2E3373)
Correct for Detector Non-linearity: No (USB2E3373)
Correct for Stray Light: No (USB2E3373)
Number of Pixels in Processed Spectrum: 2048
>>>>>Begin Processed Spectral Data<<<<<
178.53	0.000
178.91	-14.286
179.29	-800.000
179.67	-1100.000
180.04	185.714
180.42	90.000
180.80	240.000
181.18	500.000
181.56	0.000
181.94	275.000
182.31	-50.000
182.69	366.667
183.07	-150.000
183.45	350.000
183.83	-33.333
184.20	0.000
184.58	-0.000
184.96	-75.000
185.34	11.111
185.72	-220.000
186.09	188.889
186.47	500.000
186.85	400.000
187.23	-144.444
187.61	-1000.000
187.98	160.000
188.36	350.000
188.74	-300.000
189.12	-133.333
189.49	-25.000
189.87	-112.500
190.25	-11.111
190.63	0.000
191.00	-122.222
191.38	0.000
191.76	-325.000
192.14	-83.333
192.51	300.000
192.89	66.667
193.27	0.000
193.65	-42.857
194.02	-1100.000
194.40	-71.429
194.78	171.429
195.15	0.000
195.53	-45.455
195.91	0.000
196.29	225.000
196.66	23.077
197.04	-1400.000
197.42	-171.429
197.79	-700.000
198.17	-137.500
198.55	-128.571
198.92	11.111
199.30	-225.000
199.68	0.000
200.05	7.143
200.43	-900.000
200.81	328.571
201.18	0.000
201.56	133.333
201.94	0.000
202.31	400.000
202.69	-100.000
203.07	700.000
203.44	-44.444
203.82	-225.000
204.19	-66.667
204.57	-216.667
204.95	-87.500
205.32	-700.000
205.70	100.000
206.08	-100.000
206.45	-16.667
206.83	380.000
207.20	-83.333
207.58	-200.000
207.96	-200.000
208.33	-16.667
208.71	83.333
209.08	16.667
209.46	0.000
209.84	250.000
210.21	450.000
210.59	350.000
210.96	333.333
211.34	-200.000
211.71	-112.500
212.09	-300.000
212.46	0.000
212.84	600.000
213.22	-240.000
213.59	-75.000
213.97	-10.000
214.34	-300.000
214.72	233.333
215.09	-125.000
215.47	0.000
215.84	157.143
216.22	850.000
216.59	-80.000
216.97	-140.000
217.34	-75.000
217.72	0.000
218.09	-350.000
218.47	-225.000
218.84	0.000
219.22	60.000
219.59	-11.765
219.97	10.000
220.34	600.000
220.72	-133.333
221.09	-7.692
221.47	-66.667
221.84	-80.000
222.22	28.571
222.59	0.000
222.97	-12.500
223.34	-360.000
223.72	-900.000
224.09	-50.000
224.46	-325.000
224.84	140.000
225.21	-85.714
225.59	-325.000
225.96	-275.000
226.34	30.769
226.71	33.333
227.08	-400.000
227.46	26.667
227.83	-175.000
228.21	15.789
228.58	100.000
228.95	450.000
229.33	25.000
229.70	-40.000
230.08	0.000
230.45	190.000
230.82	333.333
231.20	0.000
231.57	0.000
231.95	0.000
232.32	45.455
232.69	15.000
233.07	-200.000
233.44	-5.882
233.81	-30.000
234.19	11.111
234.56	18.182
234.93	20.690
235.31	21.053
235.68	-33.333
236.05	-5.000
236.43	26.923
236.80	60.000
237.17	59.259
237.55	27.273
237.92	-10.000
238.29	-6.452
238.67	45.455
239.04	38.889
239.41	23.810
239.79	50.000
240.16	7.407
240.53	6.522
240.91	-1.961
241.28	9.836
241.65	40.299
242.02	41.892
242.40	41.538
242.77	34.667
243.14	18.293
243.51	25.000
243.89	35.897
244.26	31.683
244.63	19.608
245.00	29.907
245.38	18.421
245.75	11.504
246.12	34.921
246.49	26.357
246.87	33.571
247.24	29.139
247.61	34.868
247.98	32.215
248.36	33.951
248.73	33.742
249.10	28.962
249.47	34.826
249.84	40.314
250.22	33.161
250.59	33.333
250.96	36.364
251.33	30.612
251.70	36.752
252.08	30.833
252.45	37.295
252.82	36.777
253.19	32.812
253.56	36.882
253.94	31.154
254.31	38.636
254.68	34.615
255.05	36.482
255.42	32.653
255.79	33.657
256.16	32.450
256.54	34.437
256.91	38.361
257.28	36.066
257.65	36.306
258.02	33.038
258.39	35.897
258.76	41.896
259.14	41.379
259.51	35.735
259.88	36.261
260.25	38.056
260.62	36.164
260.99	35.519
261.36	35.657
261.73	39.523
262.10	34.615
262.47	39.142
262.85	38.384
263.22	38.182
263.59	33.684
263.96	37.596
264.33	33.760
264.70	34.568
265.07	39.141
265.44	37.868
265.81	35.648
266.18	36.508
266.55	38.839
266.92	34.169
267.29	40.263
267.66	37.694
268.03	37.336
268.40	36.952
268.77	36.902
269.14	36.784
269.51	33.991
269.88	36.680
270.25	34.809
270.62	38.819
270.99	38.788
271.36	37.624
271.73	37.917
272.10	38.277
272.47	36.673
272.84	37.149
273.21	33.467
273.58	37.500
273.95	35.769
274.32	33.270
274.69	36.170
275.06	35.897
275.43	33.457
275.80	37.213
276.17	36.111
276.54	35.448
276.91	33.810
277.28	36.709
277.65	34.650
278.02	36.949
278.39	35.145
278.76	35.852
279.13	36.702
279.50	36.426
279.87	36.315
280.23	32.218
280.60	36.271
280.97	35.855
281.34	34.805
281.71	34.687
282.08	33.056
282.45	34.697
282.82	32.182
283.19	35.864
283.56	33.934
283.92	33.934
284.29	36.177
284.66	37.438
285.03	32.212
285.40	35.858
285.77	34.365
286.14	34.504
286.51	33.790
286.87	33.017
287.24	34.036
287.61	34.230
287.98	33.988
288.35	35.799
288.72	33.432
289.08	33.382
289.45	33.284
289.82	32.982
290.19	33.046
290.56	34.085
290.93	33.524
291.29	31.956
291.66	32.094
292.03	30.393
292.40	32.245
292.77	29.515
293.13	32.070
293.50	29.961
293.87	29.530
294.24	31.733
294.60	29.962
294.97	29.799
295.34	30.218
295.71	28.247
296.08	29.587
296.44	28.922
296.81	28.380
297.18	28.892
297.55	29.363
297.91	27.995
298.28	26.303
298.65	28.775
299.02	28.099
299.38	28.375
299.75	27.687
300.12	26.968
300.48	28.226
300.85	28.121
301.22	27.740
301.59	28.196
301.95	26.780
302.32	27.556
302.69	25.739
303.05	26.007
303.42	25.166
303.79	27.604
304.15	26.288
304.52	26.110
304.89	26.073
305.25	26.915
305.62	27.273
305.99	26.907
306.35	25.806
306.72	25.750
307.09	26.599
307.45	26.294
307.82	25.530
308.19	25.429
308.55	25.265
308.92	26.193
309.29	25.479
309.65	26.316
310.02	24.257
310.38	25.098
310.75	26.311
311.12	26.558
311.48	25.220
311.85	24.501
312.22	25.142
312.58	24.977
312.95	24.379
313.31	25.023
313.68	24.817
314.05	26.197
314.41	25.319
314.78	25.613
315.14	26.225
315.51	25.762
315.87	25.833
316.24	24.749
316.61	25.755
316.97	25.973
317.34	24.250
317.70	25.590
318.07	24.515
318.43	25.850
318.80	26.421
319.16	26.180
319.53	24.336
319.89	23.313
320.26	24.822
320.62	23.936
320.99	24.838
321.35	25.601
321.72	25.209
322.08	24.256
322.45	24.842
322.81	25.090
323.18	23.894
323.54	25.603
323.91	25.979
324.27	23.752
324.64	26.029
325.00	24.378
325.37	24.488
325.73	24.628
326.10	26.277
326.46	24.267
326.83	25.941
327.19	24.567
327.56	26.482
327.92	25.492
328.29	24.032
328.65	23.869
329.01	25.381
329.38	24.263
329.74	26.027
330.11	26.455
330.47	25.021
330.84	24.117
331.20	25.333
331.56	24.610
331.93	25.272
332.29	24.915
332.66	24.169
333.02	23.786
333.38	24.161
333.75	25.337
334.11	24.771
334.48	25.000
334.84	25.828
335.20	24.097
335.57	26.138
335.93	25.207
336.29	23.211
336.66	24.474
337.02	24.666
337.38	25.425
337.75	25.620
338.11	24.727
338.47	24.235
338.84	24.365
339.20	22.915
339.56	22.652
339.93	23.153
340.29	23.752
340.65	24.169
341.02	24.581
341.38	24.656
341.74	24.617
342.11	23.572
342.47	24.226
342.83	24.155
343.20	23.957
343.56	24.379
343.92	23.219
344.28	22.969
344.65	25.116
345.01	23.401
345.37	23.795
345.73	22.214
346.10	22.465
346.46	23.813
346.82	23.146
347.19	23.529
347.55	23.824
347.91	24.294
348.27	23.217
348.63	23.534
349.00	23.565
349.36	23.420
349.72	22.693
350.08	24.517
350.45	23.802
350.81	23.152
351.17	24.286
351.53	23.124
351.89	24.525
352.26	23.657
352.62	22.164
352.98	23.511
353.34	22.330
353.70	22.573
354.07	23.025
354.43	23.538
354.79	23.111
355.15	22.517
355.51	24.050
355.87	23.485
356.24	22.433
356.60	21.877
356.96	22.683
357.32	21.710
357.68	22.767
358.04	22.455
358.40	22.687
358.77	23.465
359.13	21.935
359.49	21.636
359.85	22.263
360.21	22.812
360.57	22.972
360.93	22.285
361.29	23.368
361.66	22.158
362.02	23.521
362.38	22.136
362.74	23.115
363.10	23.796
363.46	22.022
363.82	22.514
364.18	21.886
364.54	22.337
364.90	22.876
365.26	22.276
365.62	22.333
365.98	22.805
366.35	23.356
366.71	21.497
367.07	22.666
367.43	21.930
367.79	22.893
368.15	22.943
368.51	22.666
368.87	22.796
369.23	22.267
369.59	22.951
369.95	22.110
370.31	22.755
370.67	22.971
371.03	22.022
371.39	21.357
371.75	21.733
372.11	21.748
372.47	21.598
372.83	22.971
373.19	21.481
373.55	21.816
373.91	21.745
374.27	21.863
374.63	21.786
374.99	21.950
375.35	22.403
375.71	22.000
376.07	22.079
376.42	22.418
376.78	22.250
377.14	22.208
377.50	21.822
377.86	22.352
378.22	21.916
378.58	21.106
378.94	22.066
379.30	21.910
379.66	21.869
380.02	21.119
380.38	21.889
380.74	21.746
381.09	22.242
381.45	22.159
381.81	22.248
382.17	21.793
382.53	21.813
382.89	22.065
383.25	21.864
383.61	21.412
383.97	21.437
384.32	21.711
384.68	21.346
385.04	22.556
385.40	22.569
385.76	22.333
386.12	21.664
386.48	22.294
386.83	22.288
387.19	21.611
387.55	20.775
387.91	21.632
388.27	21.478
388.62	21.363
388.98	20.812
389.34	21.626
389.70	21.034
390.06	21.847
390.42	21.566
390.77	22.216
391.13	21.362
391.49	21.377
391.85	21.212
392.20	21.471
392.56	21.087
392.92	21.701
393.28	22.001
393.64	21.844
393.99	21.383
394.35	22.547
394.71	22.335
395.07	21.377
395.42	20.560
395.78	21.633
396.14	21.569
396.50	21.200
396.85	21.169
397.21	21.243
397.57	22.438
397.92	22.279
398.28	21.727
398.64	21.396
399.00	20.733
399.35	21.675
399.71	21.739
400.07	21.449
400.42	21.478
400.78	21.759
401.14	22.026
401.49	21.433
401.85	21.919
402.21	21.669
402.57	22.711
402.92	20.981
403.28	20.433
403.63	20.585
403.99	22.209
404.35	20.068
404.70	21.586
405.06	21.087
405.42	22.190
405.77	21.919
406.13	21.394
406.49	21.509
406.84	21.551
407.20	21.185
407.55	21.018
407.91	21.433
408.27	20.907
408.62	21.408
408.98	21.764
409.34	20.880
409.69	22.435
410.05	21.688
410.40	21.984
410.76	21.312
411.11	21.859
411.47	21.560
411.83	21.517
412.18	21.627
412.54	20.925
412.89	21.711
413.25	20.598
413.60	21.597
413.96	22.494
414.31	21.643
414.67	21.884
415.03	21.415
415.38	22.005
415.74	20.892
416.09	21.900
416.45	22.041
416.80	21.420
417.16	22.414
417.51	20.922
417.87	21.153
418.22	21.976
418.58	21.437
418.93	22.119
419.29	22.318
419.64	20.768
420.00	21.365
420.35	21.673
420.71	20.793
421.06	20.989
421.42	21.216
421.77	21.163
422.12	21.617
422.48	21.249
422.83	22.125
423.19	21.273
423.54	21.515
423.90	20.707
424.25	21.867
424.61	21.584
424.96	20.977
425.31	21.656
425.67	21.739
426.02	21.472
426.38	20.838
426.73	21.652
427.09	22.722
427.44	21.136
427.79	21.006
428.15	20.605
428.50	21.966
428.85	20.264
429.21	20.585
429.56	21.076
429.92	20.688
430.27	21.060
430.62	21.641
430.98	20.708
431.33	21.261
431.68	21.264
432.04	21.077
432.39	21.585
432.74	21.918
433.10	20.714
433.45	20.736
433.80	22.103
434.16	21.281
434.51	21.737
434.86	22.421
435.22	21.732
435.57	21.875
435.92	21.814
436.28	21.672
436.63	21.300
436.98	21.793
437.34	22.097
437.69	21.794
438.04	21.259
438.39	21.424
438.75	21.140
439.10	21.195
439.45	20.906
439.81	20.113
440.16	21.019
440.51	21.293
440.86	20.845
441.22	21.436
441.57	21.279
441.92	20.951
442.27	22.374
442.63	21.461
442.98	21.505
443.33	21.883
443.68	21.506
444.03	22.295
444.39	21.544
444.74	21.797
445.09	21.389
445.44	22.023
445.79	21.935
446.15	22.045
446.50	21.654
446.85	22.276
447.20	21.712
447.55	22.176
447.91	21.728
448.26	21.723
448.61	21.785
448.96	22.210
449.31	22.057
449.66	21.351
450.02	21.097
450.37	22.536
450.72	21.744
451.07	21.925
451.42	21.895
451.77	21.456
452.12	22.235
452.47	21.331
452.83	22.241
453.18	21.600
453.53	21.080
453.88	21.645
454.23	22.881
454.58	22.113
454.93	21.299
455.28	22.396
455.63	21.489
455.98	22.570
456.34	21.731
456.69	21.811
457.04	21.809
457.39	21.452
457.74	22.371
458.09	22.405
458.44	22.091
458.79	21.506
459.14	21.395
459.49	21.845
459.84	22.403
460.19	21.266
460.54	22.203
460.89	21.863
461.24	21.782
461.59	22.634
461.94	21.335
462.29	21.892
462.64	22.209
462.99	21.218
463.34	21.220
463.69	22.216
464.04	22.568
464.39	21.357
464.74	22.520
465.09	22.607
465.44	21.727
465.79	21.893
466.14	22.460
466.49	21.947
466.84	22.094
467.19	21.734
467.54	21.034
467.89	21.839
468.24	21.773
468.59	21.367
468.94	22.203
469.29	21.656
469.64	20.979
469.99	22.180
470.34	21.844
470.68	22.693
471.03	23.314
471.38	22.237
471.73	21.586
472.08	22.145
472.43	21.734
472.78	22.040
473.13	21.492
473.48	22.115
473.83	22.519
474.17	21.161
474.52	22.189
474.87	22.038
475.22	22.310
475.57	21.755
475.92	21.453
476.27	22.258
476.61	21.495
476.96	21.794
477.31	21.683
477.66	22.560
478.01	22.318
478.36	21.735
478.70	21.970
479.05	23.057
479.40	21.767
479.75	22.382
480.10	22.264
480.45	22.470
480.79	22.676
481.14	21.415
481.49	21.672
481.84	22.150
482.19	22.237
482.53	22.431
482.88	22.729
483.23	22.188
483.58	22.096
483.92	21.099
484.27	22.566
484.62	22.112
484.97	21.540
485.31	21.331
485.66	21.712
486.01	21.477
486.36	21.659
486.70	22.270
487.05	22.306
487.40	22.429
487.75	21.730
488.09	22.119
488.44	21.887
488.79	21.788
489.13	22.411
489.48	22.058
489.83	22.012
490.17	21.223
490.52	21.798
490.87	22.124
491.22	22.270
491.56	21.587
491.91	22.678
492.26	21.679
492.60	21.775
492.95	22.466
493.30	22.411
493.64	21.813
493.99	22.412
494.34	22.343
494.68	21.542
495.03	22.775
495.37	22.503
495.72	22.313
496.07	22.086
496.41	21.407
496.76	22.602
497.11	21.614
497.45	22.184
497.80	22.745
498.14	21.723
498.49	21.967
498.84	22.075
499.18	22.627
499.53	22.063
499.87	22.593
500.22	21.594
500.56	21.952
500.91	22.059
501.26	22.409
501.60	22.050
501.95	22.058
502.29	22.159
502.64	22.606
502.98	22.045
503.33	21.901
503.67	22.111
504.02	22.067
504.36	22.341
504.71	22.049
505.06	22.419
505.40	22.943
505.75	22.632
506.09	22.698
506.44	22.563
506.78	22.156
507.13	22.222
507.47	22.501
507.82	22.112
508.16	22.132
508.51	21.331
508.85	21.634
509.19	22.217
509.54	22.911
509.88	22.195
510.23	22.778
510.57	22.716
510.92	22.206
511.26	23.377
511.61	21.246
511.95	21.523
512.30	22.058
512.64	21.589
512.98	21.411
513.33	22.379
513.67	22.591
514.02	22.330
514.36	21.841
514.70	22.500
515.05	22.263
515.39	22.415
515.74	23.489
516.08	22.979
516.42	22.920
516.77	22.503
517.11	22.022
517.46	23.065
517.80	22.715
518.14	22.905
518.49	22.343
518.83	22.406
519.17	21.809
519.52	22.537
519.86	22.386
520.20	22.364
520.55	22.180
520.89	22.973
521.23	22.111
521.58	22.768
521.92	22.720
522.26	22.509
522.61	22.569
522.95	23.529
523.29	22.874
523.64	23.767
523.98	22.761
524.32	23.324
524.66	23.221
525.01	23.046
525.35	22.918
525.69	22.854
526.04	22.273
526.38	22.529
526.72	22.376
527.06	22.815
527.41	23.149
527.75	22.268
528.09	23.613
528.43	22.854
528.78	21.965
529.12	22.706
529.46	22.597
529.80	23.227
530.15	22.667
530.49	22.123
530.83	23.731
531.17	22.999
531.51	22.744
531.86	23.017
532.20	23.659
532.54	22.501
532.88	23.758
533.22	22.687
533.57	23.543
533.91	22.840
534.25	23.347
534.59	23.161
534.93	22.411
535.27	23.324
535.62	23.252
535.96	22.952
536.30	22.679
536.64	23.604
536.98	24.354
537.32	23.086
537.66	23.643
538.01	22.719
538.35	23.203
538.69	22.776
539.03	23.483
539.37	23.675
539.71	22.763
540.05	23.381
540.39	23.044
540.73	23.194
541.07	23.360
541.42	22.977
541.76	22.776
542.10	23.824
542.44	22.655
542.78	24.513
543.12	23.004
543.46	22.772
543.80	22.242
544.14	22.442
544.48	23.404
544.82	23.220
545.16	22.838
545.50	23.008
545.84	22.780
546.18	23.704
546.52	22.357
546.86	22.327
547.20	22.265
547.54	21.910
547.88	22.905
548.22	22.749
548.56	22.996
548.90	23.701
549.24	22.979
549.58	23.028
549.92	23.469
550.26	22.524
550.60	23.484
550.94	23.157
551.28	22.904
551.62	22.911
551.96	22.913
552.30	23.773
552.64	22.651
552.98	23.768
553.32	23.408
553.66	23.987
554.00	23.834
554.34	23.359
554.68	22.789
555.02	23.719
555.36	24.589
555.69	22.293
556.03	23.707
556.37	24.030
556.71	23.209
557.05	23.898
557.39	23.490
557.73	23.514
558.07	22.185
558.41	24.120
558.75	23.259
559.08	24.078
559.42	22.908
559.76	23.474
560.10	22.773
560.44	23.285
560.78	23.438
561.12	22.845
561.45	24.088
561.79	23.199
562.13	23.660
562.47	22.873
562.81	23.418
563.15	23.801
563.48	23.617
563.82	22.672
564.16	23.622
564.50	23.242
564.84	23.717
565.17	23.412
565.51	22.497
565.85	23.634
566.19	22.350
566.52	22.820
566.86	23.203
567.20	23.654
567.54	22.570
567.88	22.936
568.21	22.777
568.55	23.693
568.89	23.967
569.23	23.785
569.56	22.313
569.90	22.808
570.24	22.968
570.57	23.445
570.91	22.413
571.25	22.563
571.59	22.850
571.92	23.054
572.26	22.790
572.60	22.304
572.93	22.683
573.27	22.366
573.61	22.446
573.95	22.360
574.28	22.588
574.62	22.237
574.96	22.254
575.29	22.538
575.63	22.800
575.97	22.539
576.30	22.601
576.64	22.668
576.98	22.210
577.31	22.777
577.65	22.802
577.98	22.534
578.32	22.357
578.66	22.503
578.99	21.790
579.33	22.432
579.67	22.688
580.00	22.275
580.34	22.666
580.67	22.440
581.01	22.458
581.35	22.755
581.68	22.591
582.02	22.182
582.35	22.690
582.69	22.819
583.02	22.781
583.36	22.777
583.70	22.608
584.03	22.558
584.37	22.636
584.70	22.812
585.04	22.739
585.37	22.316
585.71	22.524
586.04	22.765
586.38	22.632
586.72	21.685
587.05	22.691
587.39	22.563
587.72	22.297
588.06	22.921
588.39	22.878
588.73	22.646
589.06	22.856
589.40	22.403
589.73	23.201
590.07	22.944
590.40	22.684
590.73	21.951
591.07	22.636
591.40	23.056
591.74	22.893
592.07	22.412
592.41	22.831
592.74	23.323
593.08	22.675
593.41	23.476
593.75	22.672
594.08	22.993
594.41	22.981
594.75	22.185
595.08	22.746
595.42	22.890
595.75	22.764
596.09	23.111
596.42	22.716
596.75	22.926
597.09	22.990
597.42	23.043
597.75	22.971
598.09	23.135
598.42	22.678
598.76	22.965
599.09	22.820
599.42	22.058
599.76	22.747
600.09	22.589
600.42	22.489
600.76	22.952
601.09	22.204
601.42	22.279
601.76	22.931
602.09	22.337
602.42	22.719
602.76	22.768
603.09	23.201
603.42	22.290
603.76	22.445
604.09	23.208
604.42	23.046
604.76	22.336
605.09	22.776
605.42	22.648
605.75	22.385
606.09	22.322
606.42	22.364
606.75	22.639
607.09	22.427
607.42	22.428
607.75	22.782
608.08	22.178
608.42	22.733
608.75	22.305
609.08	21.902
609.41	22.364
609.75	22.366
610.08	23.527
610.41	22.770
610.74	22.479
611.07	23.224
611.41	23.229
611.74	23.464
612.07	22.908
612.40	23.337
612.73	23.814
613.07	22.787
613.40	22.955
613.73	22.581
614.06	23.258
614.39	22.449
614.72	22.853
615.06	22.137
615.39	22.136
615.72	22.417
616.05	23.312
616.38	23.461
616.71	22.623
617.05	22.364
617.38	23.114
617.71	23.758
618.04	23.098
618.37	23.005
618.70	24.038
619.03	23.118
619.36	22.380
619.69	23.703
620.03	22.473
620.36	22.822
620.69	23.010
621.02	24.016
621.35	23.730
621.68	23.933
622.01	22.918
622.34	22.873
622.67	23.780
623.00	22.537
623.33	22.827
623.66	23.606
623.99	22.581
624.32	24.172
624.65	23.230
624.99	24.122
625.32	23.775
625.65	24.005
625.98	22.847
626.31	24.026
626.64	23.223
626.97	22.806
627.30	23.538
627.63	23.856
627.96	23.949
628.29	24.047
628.62	23.090
628.95	24.277
629.28	23.619
629.61	23.822
629.94	22.678
630.26	23.051
630.59	24.007
630.92	23.030
631.25	24.061
631.58	24.200
631.91	24.461
632.24	23.823
632.57	24.194
632.90	24.273
633.23	24.184
633.56	23.367
