SpectraSuite Data File
++++++++++++++++++++++++++++++++++++
Date: Thu May 14 16:13:31 PDT 2015
User: schluterlab
Dark Spectrum Present: Yes
Reference Spectrum Present: Yes
Number of Sampled Component Spectra: 1
Spectrometers: USB2E3373
Integration Time (usec): 3000 (USB2E3373)
Spectra Averaged: 3 (USB2E3373)
Boxcar Smoothing: 0 (USB2E3373)
Correct for Electrical Dark: No (USB2E3373)
Strobe/Lamp Enabled: No (USB2E3373)
Correct for Detector Non-linearity: No (USB2E3373)
Correct for Stray Light: No (USB2E3373)
Number of Pixels in Processed Spectrum: 2048
>>>>>Begin Processed Spectral Data<<<<<
178.53	0.000
178.91	128.571
179.29	-300.000
179.67	-300.000
180.04	142.857
180.42	140.000
180.80	240.000
181.18	-700.000
181.56	200.000
181.94	-0.000
182.31	25.000
182.69	400.000
183.07	-400.000
183.45	225.000
183.83	33.333
184.20	-233.333
184.58	700.000
184.96	-225.000
185.34	-11.111
185.72	-100.000
186.09	300.000
186.47	1050.000
186.85	380.000
187.23	-55.556
187.61	-600.000
187.98	120.000
188.36	175.000
188.74	-225.000
189.12	-133.333
189.49	-18.750
189.87	-125.000
190.25	66.667
190.63	180.000
191.00	-88.889
191.38	0.000
191.76	-375.000
192.14	-133.333
192.51	400.000
192.89	-16.667
193.27	0.000
193.65	-28.571
194.02	-1300.000
194.40	100.000
194.78	-14.286
195.15	0.000
195.53	0.000
195.91	0.000
196.29	-50.000
196.66	-53.846
197.04	-1300.000
197.42	-28.571
197.79	-50.000
198.17	-112.500
198.55	28.571
198.92	0.000
199.30	-62.500
199.68	-18.182
200.05	14.286
200.43	-700.000
200.81	200.000
201.18	0.000
201.56	288.889
201.94	0.000
202.31	233.333
202.69	-88.889
203.07	-0.000
203.44	55.556
203.82	-75.000
204.19	50.000
204.57	-233.333
204.95	-50.000
205.32	-1200.000
205.70	250.000
206.08	-50.000
206.45	-66.667
206.83	360.000
207.20	-66.667
207.58	-420.000
207.96	-83.333
208.33	50.000
208.71	16.667
209.08	50.000
209.46	0.000
209.84	216.667
210.21	250.000
210.59	350.000
210.96	500.000
211.34	-100.000
211.71	-50.000
212.09	-700.000
212.46	0.000
212.84	600.000
213.22	-220.000
213.59	-25.000
213.97	10.000
214.34	-233.333
214.72	250.000
215.09	-175.000
215.47	0.000
215.84	185.714
216.22	750.000
216.59	-20.000
216.97	-120.000
217.34	-50.000
217.72	-50.000
218.09	0.000
218.47	-250.000
218.84	0.000
219.22	100.000
219.59	5.882
219.97	-15.000
220.34	500.000
220.72	44.444
221.09	-7.692
221.47	-66.667
221.84	-100.000
222.22	-157.143
222.59	0.000
222.97	-12.500
223.34	-180.000
223.72	-800.000
224.09	-150.000
224.46	-175.000
224.84	160.000
225.21	-200.000
225.59	-225.000
225.96	-75.000
226.34	-7.692
226.71	166.667
227.08	-150.000
227.46	6.667
227.83	25.000
228.21	-15.789
228.58	75.000
228.95	500.000
229.33	25.000
229.70	10.000
230.08	31.579
230.45	100.000
230.82	-133.333
231.20	-21.429
231.57	-41.667
231.95	-18.182
232.32	-18.182
232.69	55.000
233.07	-275.000
233.44	-11.765
233.81	-90.000
234.19	38.889
234.56	27.273
234.93	-3.448
235.31	10.526
235.68	27.778
236.05	-35.000
236.43	15.385
236.80	44.000
237.17	22.222
237.55	33.333
237.92	-40.000
238.29	19.355
238.67	18.182
239.04	0.000
239.41	-19.048
239.79	15.217
240.16	-11.111
240.53	2.174
240.91	-15.686
241.28	-1.639
241.65	11.940
242.02	13.514
242.40	0.000
242.77	2.667
243.14	8.537
243.51	-7.895
243.89	-10.256
244.26	2.970
244.63	5.882
245.00	9.346
245.38	-0.877
245.75	-5.310
246.12	7.143
246.49	5.426
246.87	15.000
247.24	9.934
247.61	10.526
247.98	0.671
248.36	1.852
248.73	3.681
249.10	2.186
249.47	5.970
249.84	8.901
250.22	3.627
250.59	3.333
250.96	11.818
251.33	5.102
251.70	6.410
252.08	6.667
252.45	8.607
252.82	4.132
253.19	6.250
253.56	5.703
253.94	5.385
254.31	10.227
254.68	8.741
255.05	9.446
255.42	5.442
255.79	3.883
256.16	6.291
256.54	3.974
256.91	4.262
257.28	6.230
257.65	2.229
258.02	3.540
258.39	6.553
258.76	9.786
259.14	9.195
259.51	3.170
259.88	6.232
260.25	9.167
260.62	7.945
260.99	9.016
261.36	8.311
261.73	5.040
262.10	7.143
262.47	8.043
262.85	10.101
263.22	5.974
263.59	4.211
263.96	8.696
264.33	4.859
264.70	8.395
265.07	8.353
265.44	8.617
265.81	7.407
266.18	6.803
266.55	7.589
266.92	4.100
267.29	7.221
267.66	6.430
268.03	9.389
268.40	8.351
268.77	7.289
269.14	4.185
269.51	6.579
269.88	9.836
270.25	9.457
270.62	9.283
270.99	8.889
271.36	8.317
271.73	8.448
272.10	8.016
272.47	7.615
272.84	8.233
273.21	6.814
273.58	8.065
273.95	6.731
274.32	6.844
274.69	7.350
275.06	10.989
275.43	8.503
275.80	8.289
276.17	6.296
276.54	4.851
276.91	8.050
277.28	8.318
277.65	8.259
278.02	7.721
278.39	6.159
278.76	6.503
279.13	6.383
279.50	6.701
279.87	7.692
280.23	6.690
280.60	10.678
280.97	6.908
281.34	6.112
281.71	6.768
282.08	9.302
282.45	7.038
282.82	6.122
283.19	4.039
283.56	7.213
283.92	8.559
284.29	8.215
284.66	8.374
285.03	5.609
285.40	7.419
285.77	8.359
286.14	8.244
286.51	8.219
286.87	7.425
287.24	8.283
287.61	8.371
287.98	6.647
288.35	6.953
288.72	8.432
289.08	7.028
289.45	5.917
289.82	6.627
290.19	7.471
290.56	8.732
290.93	7.418
291.29	7.163
291.66	7.851
292.03	5.970
292.40	6.803
292.77	7.278
293.13	7.713
293.50	5.519
293.87	6.309
294.24	7.467
294.60	8.091
294.97	5.638
295.34	7.810
295.71	7.188
296.08	7.364
296.44	7.475
296.81	7.430
297.18	7.347
297.55	6.368
297.91	6.762
298.28	6.517
298.65	8.323
299.02	6.494
299.38	8.581
299.75	7.360
300.12	6.713
300.48	8.295
300.85	7.537
301.22	7.159
301.59	6.735
301.95	8.475
302.32	8.556
302.69	6.681
303.05	8.923
303.42	8.869
303.79	9.479
304.15	8.833
304.52	8.879
304.89	8.272
305.25	10.145
305.62	8.255
305.99	9.175
306.35	9.778
306.72	9.824
307.09	9.340
307.45	10.145
307.82	10.394
308.19	10.192
308.55	10.608
308.92	10.516
309.29	10.153
309.65	10.526
310.02	10.396
310.38	11.713
310.75	12.039
311.12	11.985
311.48	12.317
311.85	12.821
312.22	11.860
312.58	11.737
312.95	12.237
313.31	13.911
313.68	14.469
314.05	14.724
314.41	13.570
314.78	14.623
315.14	14.882
315.51	14.681
315.87	17.012
316.24	16.804
316.61	16.607
316.97	16.742
317.34	16.755
317.70	17.205
318.07	18.519
318.43	19.558
318.80	20.234
319.16	19.657
319.53	19.109
319.89	19.106
320.26	19.573
320.62	20.567
320.99	21.607
321.35	21.719
321.72	22.233
322.08	22.543
322.45	24.029
322.81	25.632
323.18	24.779
323.54	25.431
323.91	27.402
324.27	28.571
324.64	28.547
325.00	27.529
325.37	30.794
325.73	32.066
326.10	31.955
326.46	33.388
326.83	34.107
327.19	34.488
327.56	34.545
327.92	35.248
328.29	35.000
328.65	36.432
329.01	36.633
329.38	38.500
329.74	37.928
330.11	39.555
330.47	39.174
330.84	41.344
331.20	40.333
331.56	40.121
331.93	42.510
332.29	43.898
332.66	41.944
333.02	42.044
333.38	42.534
333.75	41.919
334.11	43.786
334.48	42.657
334.84	44.775
335.20	41.562
335.57	45.025
335.93	44.876
336.29	43.178
336.66	43.987
337.02	43.311
337.38	44.558
337.75	43.719
338.11	46.846
338.47	44.996
338.84	44.924
339.20	43.471
339.56	46.046
339.93	46.223
340.29	43.800
340.65	46.229
341.02	47.007
341.38	47.130
341.74	46.086
342.11	47.627
342.47	45.671
342.83	47.665
343.20	47.016
343.56	47.474
343.92	47.318
344.28	47.500
344.65	46.899
345.01	45.944
345.37	47.823
345.73	47.857
346.10	47.972
346.46	47.785
346.82	48.464
347.19	49.198
347.55	47.572
347.91	49.183
348.27	48.407
348.63	48.972
349.00	48.471
349.36	48.327
349.72	48.586
350.08	48.737
350.45	49.354
350.81	50.000
351.17	49.699
351.53	50.114
351.89	51.025
352.26	48.433
352.62	49.776
352.98	49.237
353.34	48.992
353.70	52.619
354.07	49.553
354.43	51.557
354.79	48.766
355.15	49.669
355.51	50.365
355.87	52.431
356.24	51.179
356.60	51.811
356.96	51.001
357.32	52.119
357.68	51.318
358.04	51.796
358.40	52.463
358.77	51.096
359.13	51.182
359.49	52.639
359.85	51.922
360.21	52.726
360.57	52.046
360.93	52.327
361.29	52.000
361.66	53.367
362.02	53.445
362.38	53.900
362.74	53.142
363.10	51.513
363.46	53.116
363.82	53.764
364.18	54.750
364.54	52.905
364.90	53.378
365.26	54.828
365.62	53.200
365.98	54.391
366.35	53.893
366.71	54.558
367.07	54.263
367.43	54.629
367.79	54.745
368.15	53.913
368.51	54.601
368.87	53.233
369.23	53.133
369.59	55.464
369.95	54.158
370.31	56.381
370.67	53.783
371.03	54.294
371.39	54.265
371.75	55.846
372.11	55.759
372.47	53.825
372.83	55.301
373.19	54.236
373.55	55.623
373.91	56.578
374.27	55.304
374.63	57.984
374.99	55.239
375.35	54.935
375.71	53.484
376.07	55.778
376.42	55.479
376.78	54.568
377.14	55.646
377.50	57.242
377.86	56.281
378.22	56.467
378.58	56.302
378.94	55.458
379.30	55.653
379.66	56.379
380.02	56.607
380.38	57.776
380.74	55.887
381.09	56.794
381.45	56.136
381.81	56.733
382.17	58.076
382.53	56.842
382.89	56.151
383.25	57.386
383.61	56.076
383.97	56.360
384.32	57.237
384.68	55.626
385.04	56.738
385.40	57.631
385.76	57.972
386.12	56.134
386.48	56.412
386.83	57.747
387.19	56.025
387.55	55.692
387.91	55.936
388.27	56.582
388.62	55.097
388.98	54.992
389.34	56.865
389.70	56.769
390.06	55.595
390.42	56.024
390.77	56.051
391.13	55.575
391.49	55.857
391.85	56.727
392.20	55.813
392.56	55.523
392.92	56.270
393.28	56.938
393.64	55.307
393.99	56.363
394.35	56.951
394.71	55.808
395.07	55.928
395.42	56.139
395.78	56.429
396.14	56.447
396.50	55.582
396.85	54.741
397.21	55.621
397.57	55.065
397.92	55.155
398.28	54.210
398.64	54.062
399.00	53.822
399.35	54.398
399.71	54.402
400.07	55.587
400.42	54.831
400.78	54.456
401.14	55.208
401.49	54.861
401.85	54.593
402.21	55.156
402.57	54.812
402.92	54.374
403.28	54.625
403.63	54.177
403.99	53.860
404.35	54.122
404.70	53.484
405.06	53.424
405.42	53.396
405.77	53.926
406.13	54.295
406.49	53.773
406.84	52.964
407.20	53.046
407.55	52.574
407.91	53.426
408.27	52.768
408.62	53.287
408.98	52.583
409.34	52.551
409.69	53.214
410.05	52.814
410.40	53.886
410.76	52.776
411.11	53.244
411.47	52.457
411.83	52.851
412.18	53.675
412.54	53.053
412.89	52.736
413.25	51.919
413.60	52.096
413.96	52.331
414.31	51.331
414.67	51.342
415.03	51.077
415.38	52.585
415.74	51.374
416.09	51.943
416.45	51.096
416.80	51.224
417.16	52.746
417.51	51.806
417.87	51.625
418.22	52.395
418.58	51.053
418.93	50.640
419.29	51.048
419.64	50.660
420.00	51.632
420.35	51.656
420.71	51.752
421.06	50.776
421.42	51.147
421.77	50.404
422.12	49.841
422.48	50.077
422.83	50.986
423.19	50.663
423.54	51.991
423.90	50.966
424.25	51.573
424.61	50.976
424.96	50.796
425.31	51.327
425.67	50.456
426.02	51.909
426.38	51.607
426.73	50.670
427.09	51.845
427.44	50.519
427.79	52.018
428.15	50.171
428.50	51.292
428.85	50.057
429.21	50.638
429.56	50.148
429.92	50.074
430.27	51.518
430.62	50.366
430.98	51.107
431.33	50.489
431.68	50.144
432.04	50.787
432.39	50.562
432.74	50.171
433.10	50.189
433.45	50.557
433.80	50.483
434.16	50.517
434.51	51.079
434.86	52.009
435.22	51.541
435.57	53.243
435.92	51.196
436.28	50.796
436.63	52.321
436.98	49.758
437.34	51.747
437.69	50.798
438.04	50.873
438.39	52.039
438.75	50.858
439.10	50.899
439.45	50.084
439.81	51.243
440.16	51.367
440.51	51.449
440.86	50.973
441.22	50.697
441.57	52.463
441.92	51.697
442.27	51.061
442.63	51.068
442.98	51.121
443.33	51.289
443.68	51.833
444.03	52.916
444.39	51.549
444.74	52.782
445.09	50.836
445.44	51.897
445.79	52.155
446.15	52.261
446.50	51.473
446.85	51.751
447.20	51.596
447.55	52.458
447.91	51.780
448.26	51.691
448.61	52.019
448.96	52.897
449.31	52.227
449.66	51.035
450.02	52.110
450.37	52.477
450.72	51.830
451.07	51.651
451.42	50.895
451.77	51.584
452.12	52.427
452.47	50.921
452.83	53.097
453.18	51.430
453.53	51.752
453.88	51.518
454.23	52.825
454.58	51.538
454.93	52.609
455.28	52.739
455.63	51.336
455.98	51.564
456.34	52.532
456.69	51.146
457.04	51.891
457.39	51.220
457.74	51.734
458.09	50.192
458.44	51.401
458.79	51.470
459.14	49.869
459.49	50.481
459.84	52.676
460.19	50.694
460.54	52.186
460.89	52.197
461.24	51.724
461.59	51.522
461.94	50.542
462.29	51.848
462.64	49.909
462.99	51.475
463.34	52.044
463.69	50.176
464.04	50.917
464.39	50.448
464.74	49.544
465.09	50.750
465.44	50.054
465.79	51.348
466.14	49.557
466.49	50.526
466.84	49.697
467.19	50.116
467.54	49.824
467.89	50.632
468.24	48.698
468.59	49.160
468.94	49.359
469.29	49.310
469.64	49.841
469.99	50.542
470.34	50.619
470.68	50.444
471.03	49.640
471.38	51.275
471.73	50.845
472.08	50.190
472.43	50.692
472.78	49.055
473.13	48.925
473.48	49.486
473.83	49.913
474.17	48.652
474.52	50.692
474.87	48.450
475.22	50.141
475.57	49.533
475.92	48.681
476.27	47.977
476.61	48.598
476.96	48.384
477.31	48.465
477.66	48.951
478.01	48.653
478.36	48.554
478.70	48.621
479.05	48.620
479.40	48.667
479.75	48.271
480.10	48.176
480.45	47.812
480.79	47.710
481.14	47.013
481.49	47.433
481.84	47.694
482.19	48.430
482.53	48.710
482.88	47.718
483.23	47.443
483.58	47.336
483.92	46.809
484.27	47.163
484.62	45.875
484.97	46.540
485.31	45.371
485.66	44.261
486.01	43.158
486.36	43.747
486.70	44.605
487.05	45.662
487.40	45.229
487.75	45.751
488.09	44.660
488.44	45.438
488.79	45.902
489.13	46.271
489.48	45.981
489.83	45.835
490.17	44.755
490.52	45.690
490.87	46.362
491.22	46.144
491.56	45.691
491.91	46.402
492.26	45.781
492.60	45.824
492.95	45.634
493.30	46.437
493.64	45.948
493.99	45.702
494.34	45.470
494.68	45.268
495.03	46.652
495.37	46.915
495.72	44.580
496.07	46.056
496.41	44.487
496.76	45.580
497.11	45.180
497.45	44.842
497.80	44.869
498.14	45.442
498.49	45.358
498.84	46.069
499.18	44.354
499.53	45.695
499.87	45.231
500.22	44.078
500.56	44.489
500.91	44.622
501.26	44.364
501.60	43.084
501.95	44.203
502.29	44.537
502.64	44.469
502.98	43.572
503.33	44.017
503.67	43.218
504.02	43.827
504.36	43.968
504.71	44.832
505.06	44.293
505.40	43.236
505.75	44.353
506.09	44.245
506.44	44.568
506.78	44.541
507.13	44.398
507.47	43.913
507.82	44.697
508.16	43.212
508.51	43.694
508.85	43.552
509.19	44.671
509.54	44.044
509.88	44.196
510.23	43.371
510.57	44.369
510.92	43.396
511.26	41.943
511.61	42.830
511.95	42.753
512.30	43.919
512.64	43.528
512.98	43.872
513.33	44.355
513.67	43.192
514.02	43.587
514.36	43.223
514.70	43.333
515.05	42.805
515.39	43.360
515.74	44.751
516.08	43.317
516.42	44.165
516.77	44.006
517.11	43.424
517.46	43.213
517.80	44.361
518.14	44.233
518.49	44.360
518.83	42.895
519.17	42.272
519.52	43.239
519.86	43.506
520.20	43.610
520.55	43.483
520.89	43.525
521.23	44.277
521.58	43.616
521.92	43.513
522.26	43.013
522.61	44.097
522.95	43.022
523.29	44.138
523.64	42.152
523.98	43.525
524.32	44.183
524.66	43.312
525.01	41.903
525.35	42.102
525.69	44.084
526.04	41.332
526.38	42.184
526.72	43.599
527.06	42.874
527.41	43.149
527.75	43.112
528.09	42.267
528.43	41.859
528.78	41.850
529.12	41.800
529.46	41.034
529.80	41.076
530.15	42.145
530.49	42.349
530.83	42.444
531.17	41.517
531.51	41.276
531.86	41.406
532.20	42.317
532.54	40.934
532.88	42.061
533.22	41.308
533.57	40.046
533.91	39.843
534.25	40.588
534.59	40.287
534.93	40.634
535.27	40.338
535.62	39.966
535.96	40.732
536.30	40.423
536.64	40.661
536.98	39.975
537.32	40.432
537.66	41.485
538.01	40.483
538.35	39.647
538.69	39.784
539.03	40.098
539.37	39.399
539.71	39.700
540.05	39.209
540.39	40.037
540.73	40.498
541.07	40.037
541.42	38.571
541.76	39.087
542.10	39.928
542.44	39.403
542.78	39.720
543.12	39.094
543.46	38.950
543.80	38.309
544.14	38.899
544.48	39.835
544.82	39.557
545.16	39.117
545.50	38.945
545.84	38.273
546.18	39.383
546.52	39.873
546.86	39.560
547.20	38.677
547.54	38.514
547.88	38.336
548.22	37.895
548.56	37.741
548.90	37.910
549.24	38.419
549.58	38.044
549.92	38.776
550.26	40.129
550.60	38.098
550.94	39.004
551.28	38.482
551.62	40.094
551.96	37.670
552.30	38.623
552.64	38.830
552.98	38.366
553.32	38.778
553.66	37.814
554.00	38.525
554.34	38.610
554.68	38.025
555.02	39.159
555.36	39.448
555.69	36.195
556.03	38.462
556.37	37.735
556.71	38.110
557.05	37.955
557.39	36.828
557.73	37.781
558.07	37.550
558.41	37.874
558.75	38.742
559.08	38.900
559.42	37.654
559.76	38.060
560.10	38.044
560.44	36.741
560.78	37.688
561.12	37.500
561.45	37.105
561.79	36.813
562.13	37.770
562.47	36.190
562.81	37.215
563.15	38.005
563.48	37.228
563.82	37.424
564.16	35.615
564.50	35.757
564.84	36.224
565.17	35.765
565.51	34.695
565.85	35.808
566.19	35.829
566.52	36.279
566.86	36.446
567.20	35.237
567.54	35.688
567.88	35.627
568.21	35.326
568.55	34.436
568.89	34.816
569.23	34.136
569.56	33.451
569.90	32.823
570.24	32.479
570.57	32.104
570.91	32.088
571.25	31.357
571.59	31.506
571.92	30.997
572.26	31.260
572.60	31.641
572.93	31.840
573.27	32.060
573.61	30.704
573.95	30.711
574.28	30.133
574.62	30.218
574.96	30.172
575.29	30.051
575.63	30.122
575.97	30.299
576.30	30.644
576.64	30.112
576.98	30.364
577.31	30.180
577.65	30.479
577.98	29.650
578.32	29.307
578.66	29.514
578.99	29.388
579.33	29.947
579.67	29.805
580.00	30.097
580.34	29.908
580.67	29.214
581.01	29.554
581.35	29.534
581.68	29.175
582.02	29.218
582.35	29.415
582.69	29.559
583.02	29.733
583.36	29.657
583.70	29.493
584.03	30.118
584.37	29.770
584.70	29.633
585.04	29.110
585.37	29.585
585.71	29.213
586.04	29.172
586.38	29.573
586.72	29.682
587.05	29.266
587.39	29.868
587.72	29.378
588.06	29.884
588.39	29.276
588.73	29.894
589.06	29.599
589.40	30.455
589.73	29.916
590.07	29.973
590.40	30.730
590.73	29.869
591.07	30.864
591.40	30.365
591.74	30.922
592.07	30.857
592.41	31.112
592.74	29.854
593.08	29.873
593.41	29.309
593.75	29.684
594.08	29.870
594.41	30.353
594.75	29.957
595.08	29.643
595.42	30.130
595.75	29.319
596.09	30.024
596.42	29.918
596.75	30.567
597.09	30.626
597.42	30.393
597.75	30.106
598.09	30.516
598.42	30.720
598.76	29.308
599.09	29.512
599.42	28.763
599.76	29.052
600.09	29.563
600.42	28.929
600.76	29.194
601.09	29.638
601.42	29.042
601.76	29.276
602.09	29.199
602.42	29.008
602.76	29.262
603.09	29.369
603.42	29.155
603.76	28.436
604.09	29.702
604.42	29.284
604.76	28.843
605.09	29.996
605.42	29.346
605.75	29.500
606.09	28.593
606.42	28.493
606.75	28.823
607.09	28.533
607.42	29.249
607.75	29.035
608.08	28.848
608.42	28.980
608.75	28.814
609.08	29.414
609.41	29.466
609.75	29.330
610.08	29.376
610.41	28.717
610.74	29.118
611.07	28.908
611.41	29.238
611.74	30.208
612.07	30.295
612.40	29.563
612.73	29.633
613.07	30.024
613.40	29.596
613.73	29.273
614.06	29.392
614.39	28.231
614.72	28.869
615.06	28.537
615.39	29.000
615.72	29.336
616.05	28.800
616.38	29.213
616.71	29.833
617.05	29.286
617.38	29.749
617.71	29.806
618.04	30.005
618.37	30.383
618.70	30.713
619.03	29.988
619.36	29.593
619.69	30.814
620.03	30.508
620.36	29.509
620.69	29.426
621.02	31.168
621.35	32.075
621.68	31.887
622.01	31.174
622.34	30.823
622.67	30.859
623.00	30.162
623.33	31.453
623.66	30.934
623.99	30.283
624.32	30.669
624.65	30.373
624.99	30.494
625.32	31.156
625.65	31.827
625.98	31.186
626.31	30.262
626.64	31.355
626.97	30.908
627.30	30.828
627.63	30.833
627.96	32.057
628.29	31.440
628.62	32.494
628.95	31.814
629.28	31.096
629.61	32.912
629.94	32.134
630.26	30.508
630.59	31.088
630.92	31.255
631.25	32.469
631.58	32.486
631.91	32.427
632.24	34.102
632.57	32.638
632.90	32.197
633.23	33.367
633.56	32.551
633.89	32.231
634.22	33.368
634.55	33.716
634.88	33.766
635.20	34.338
635.53	33.559
635.86	33.911
636.19	34.040
636.52	33.439
636.85	31.563
637.18	32.744
