SpectraSuite Data File
++++++++++++++++++++++++++++++++++++
Date: Thu May 14 16:18:51 PDT 2015
User: schluterlab
Dark Spectrum Present: Yes
Reference Spectrum Present: Yes
Number of Sampled Component Spectra: 1
Spectrometers: USB2E3373
Integration Time (usec): 3000 (USB2E3373)
Spectra Averaged: 3 (USB2E3373)
Boxcar Smoothing: 0 (USB2E3373)
Correct for Electrical Dark: No (USB2E3373)
Strobe/Lamp Enabled: No (USB2E3373)
Correct for Detector Non-linearity: No (USB2E3373)
Correct for Stray Light: No (USB2E3373)
Number of Pixels in Processed Spectrum: 2048
>>>>>Begin Processed Spectral Data<<<<<
178.53	0.000
178.91	157.143
179.29	-1400.000
179.67	-1100.000
180.04	157.143
180.42	40.000
180.80	220.000
181.18	0.000
181.56	500.000
181.94	100.000
182.31	-50.000
182.69	233.333
183.07	-150.000
183.45	375.000
183.83	83.333
184.20	-133.333
184.58	600.000
184.96	-200.000
185.34	11.111
185.72	-40.000
186.09	133.333
186.47	500.000
186.85	100.000
187.23	-144.444
187.61	-1100.000
187.98	260.000
188.36	-50.000
188.74	25.000
189.12	-200.000
189.49	-31.250
189.87	12.500
190.25	0.000
190.63	160.000
191.00	-133.333
191.38	0.000
191.76	-250.000
192.14	-166.667
192.51	100.000
192.89	-66.667
193.27	0.000
193.65	42.857
194.02	-1800.000
194.40	-157.143
194.78	128.571
195.15	0.000
195.53	-27.273
195.91	0.000
196.29	-50.000
196.66	-23.077
197.04	-1600.000
197.42	-114.286
197.79	-400.000
198.17	-125.000
198.55	-57.143
198.92	-44.444
199.30	-50.000
199.68	0.000
200.05	7.143
200.43	-400.000
200.81	157.143
201.18	0.000
201.56	144.444
201.94	0.000
202.31	400.000
202.69	-133.333
203.07	-400.000
203.44	-55.556
203.82	-25.000
204.19	58.333
204.57	-150.000
204.95	-87.500
205.32	-100.000
205.70	100.000
206.08	133.333
206.45	-116.667
206.83	340.000
207.20	-83.333
207.58	-260.000
207.96	-133.333
208.33	100.000
208.71	33.333
209.08	33.333
209.46	0.000
209.84	133.333
210.21	400.000
210.59	-100.000
210.96	200.000
211.34	150.000
211.71	-62.500
212.09	-300.000
212.46	0.000
212.84	500.000
213.22	-320.000
213.59	-225.000
213.97	40.000
214.34	-100.000
214.72	166.667
215.09	-50.000
215.47	0.000
215.84	57.143
216.22	550.000
216.59	20.000
216.97	-120.000
217.34	-175.000
217.72	0.000
218.09	-200.000
218.47	-175.000
218.84	0.000
219.22	60.000
219.59	23.529
219.97	-5.000
220.34	450.000
220.72	-111.111
221.09	30.769
221.47	-133.333
221.84	-120.000
222.22	-57.143
222.59	0.000
222.97	-37.500
223.34	-300.000
223.72	-100.000
224.09	-150.000
224.46	-175.000
224.84	-80.000
225.21	-214.286
225.59	-150.000
225.96	-100.000
226.34	3.846
226.71	133.333
227.08	-550.000
227.46	0.000
227.83	-50.000
228.21	26.316
228.58	37.500
228.95	500.000
229.33	-50.000
229.70	30.000
230.08	15.789
230.45	120.000
230.82	-266.667
231.20	21.429
231.57	16.667
231.95	-100.000
232.32	-18.182
232.69	0.000
233.07	-125.000
233.44	11.765
233.81	-140.000
234.19	22.222
234.56	13.636
234.93	34.483
235.31	5.263
235.68	-5.556
236.05	-10.000
236.43	26.923
236.80	64.000
237.17	14.815
237.55	21.212
237.92	10.000
238.29	-3.226
238.67	4.545
239.04	-2.778
239.41	4.762
239.79	8.696
240.16	9.259
240.53	-10.870
240.91	5.882
241.28	4.918
241.65	16.418
242.02	18.919
242.40	13.846
242.77	8.000
243.14	10.976
243.51	10.526
243.89	12.821
244.26	19.802
244.63	16.667
245.00	17.757
245.38	5.263
245.75	3.540
246.12	21.429
246.49	12.403
246.87	12.143
247.24	16.556
247.61	17.105
247.98	18.121
248.36	16.049
248.73	10.429
249.10	10.929
249.47	19.403
249.84	17.801
250.22	9.326
250.59	20.000
250.96	15.000
251.33	9.184
251.70	17.949
252.08	17.917
252.45	18.443
252.82	11.157
253.19	11.719
253.56	14.829
253.94	15.000
254.31	17.045
254.68	18.531
255.05	18.241
255.42	15.986
255.79	10.356
256.16	16.225
256.54	12.583
256.91	16.721
257.28	13.443
257.65	15.287
258.02	13.569
258.39	14.815
258.76	19.572
259.14	18.391
259.51	14.697
259.88	13.031
260.25	16.111
260.62	19.178
260.99	19.672
261.36	18.499
261.73	14.854
262.10	16.484
262.47	16.086
262.85	17.172
263.22	15.065
263.59	11.053
263.96	17.136
264.33	15.090
264.70	17.037
265.07	15.990
265.44	17.007
265.81	17.130
266.18	15.193
266.55	15.625
266.92	15.262
267.29	17.287
267.66	16.630
268.03	16.376
268.40	13.361
268.77	11.390
269.14	16.740
269.51	13.816
269.88	16.598
270.25	16.499
270.62	16.245
270.99	16.364
271.36	14.653
271.73	17.682
272.10	17.234
272.47	14.429
272.84	14.458
273.21	15.431
273.58	15.323
273.95	15.192
274.32	14.449
274.69	15.280
275.06	16.117
275.43	12.754
275.80	16.049
276.17	12.778
276.54	13.619
276.91	16.279
277.28	14.105
277.65	14.542
278.02	13.787
278.39	15.217
278.76	15.993
279.13	15.603
279.50	16.495
279.87	14.490
280.23	13.556
280.60	16.610
280.97	16.283
281.34	15.450
281.71	17.766
282.08	12.458
282.45	15.221
282.82	14.757
283.19	14.701
283.56	14.590
283.92	16.817
284.29	17.536
284.66	17.241
285.03	15.224
285.40	14.529
285.77	16.254
286.14	16.183
286.51	15.525
286.87	13.270
287.24	17.018
287.61	13.602
287.98	14.199
288.35	13.609
288.72	15.828
289.08	15.959
289.45	13.757
289.82	14.307
290.19	14.080
290.56	13.662
290.93	13.980
291.29	14.325
291.66	14.601
292.03	13.976
292.40	15.374
292.77	16.038
293.13	13.802
293.50	13.535
293.87	13.423
294.24	14.000
294.60	14.791
294.97	11.544
295.34	15.365
295.71	13.619
296.08	12.145
296.44	13.235
296.81	13.155
297.18	12.080
297.55	13.561
297.91	12.574
298.28	12.322
298.65	13.317
299.02	12.397
299.38	13.387
299.75	12.383
300.12	12.153
300.48	13.479
300.85	14.173
301.22	13.758
301.59	13.014
301.95	11.864
302.32	14.000
302.69	11.829
303.05	13.819
303.42	13.636
303.79	13.021
304.15	14.196
304.52	13.108
304.89	14.031
305.25	13.251
305.62	12.017
305.99	12.887
306.35	12.298
306.72	13.133
307.09	12.284
307.45	14.286
307.82	13.421
308.19	12.815
308.55	13.790
308.92	12.950
309.29	13.889
309.65	12.768
310.02	13.168
310.38	13.287
310.75	14.175
311.12	13.806
311.48	14.174
311.85	14.435
312.22	13.662
312.58	15.117
312.95	14.245
313.31	14.815
313.68	16.026
314.05	15.628
314.41	15.847
314.78	15.713
315.14	16.152
315.51	16.528
315.87	15.662
316.24	16.256
316.61	17.407
316.97	16.290
317.34	16.490
317.70	17.642
318.07	17.019
318.43	17.347
318.80	17.559
319.16	17.511
319.53	16.881
319.89	18.142
320.26	18.772
320.62	17.730
320.99	17.913
321.35	19.224
321.72	19.907
322.08	18.936
322.45	20.596
322.81	20.939
323.18	19.823
323.54	21.034
323.91	20.552
324.27	20.568
324.64	22.250
325.00	20.564
325.37	21.048
325.73	23.471
326.10	22.141
326.46	22.068
326.83	23.699
327.19	21.890
327.56	23.320
327.92	21.794
328.29	23.710
328.65	23.032
329.01	24.112
329.38	24.179
329.74	23.716
330.11	24.144
330.47	25.442
330.84	23.600
331.20	24.583
331.56	24.350
331.93	24.184
332.29	24.661
332.66	24.917
333.02	24.372
333.38	23.406
333.75	25.337
334.11	24.771
334.48	24.587
334.84	26.083
335.20	24.349
335.57	24.621
335.93	24.711
336.29	24.875
336.66	25.231
337.02	25.669
337.38	25.765
337.75	24.793
338.11	25.820
338.47	25.393
338.84	24.704
339.20	25.274
339.56	24.794
339.93	24.959
340.29	25.040
340.65	25.629
341.02	26.417
341.38	26.516
341.74	24.052
342.11	25.503
342.47	24.146
342.83	25.523
343.20	24.939
343.56	25.100
343.92	25.060
344.28	24.375
344.65	27.054
345.01	25.273
345.37	25.739
345.73	25.097
346.10	25.663
346.46	24.842
346.82	25.543
347.19	25.974
347.55	25.645
347.91	26.003
348.27	25.721
348.63	27.570
349.00	26.547
349.36	26.394
349.72	26.339
350.08	26.895
350.45	26.920
350.81	25.867
351.17	25.338
351.53	25.777
351.89	27.183
352.26	26.045
352.62	25.970
352.98	26.336
353.34	26.512
353.70	26.579
354.07	27.496
354.43	26.803
354.79	26.552
355.15	26.490
355.51	28.143
355.87	27.001
356.24	26.844
356.60	25.942
356.96	26.761
357.32	26.914
357.68	27.233
358.04	27.994
358.40	26.791
358.77	27.632
359.13	27.622
359.49	27.584
359.85	27.556
360.21	26.829
360.57	26.777
360.93	27.362
361.29	27.579
361.66	27.589
362.02	29.367
362.38	28.110
362.74	28.492
363.10	28.611
363.46	27.632
363.82	28.054
364.18	28.360
364.54	28.285
364.90	28.896
365.26	28.138
365.62	27.333
365.98	28.863
366.35	29.195
366.71	29.796
367.07	29.093
367.43	29.481
367.79	29.728
368.15	30.100
368.51	28.687
368.87	29.523
369.23	30.067
369.59	31.011
369.95	29.074
370.31	30.452
370.67	29.711
371.03	29.294
371.39	29.617
371.75	30.261
372.11	31.030
372.47	30.467
372.83	30.366
373.19	30.287
373.55	30.623
373.91	30.539
374.27	31.307
374.63	30.244
374.99	30.504
375.35	31.169
375.71	31.419
376.07	31.052
376.42	30.605
376.78	31.510
377.14	31.441
377.50	31.815
377.86	32.759
378.22	32.335
378.58	32.640
378.94	31.984
379.30	32.337
379.66	32.745
380.02	31.391
380.38	32.834
380.74	31.944
381.09	33.159
381.45	33.011
381.81	33.841
382.17	32.601
382.53	32.456
382.89	33.014
383.25	33.763
383.61	32.002
383.97	33.628
384.32	34.270
384.68	32.425
385.04	33.025
385.40	33.471
385.76	33.998
386.12	32.914
386.48	33.941
386.83	34.327
387.19	33.604
387.55	33.744
387.91	34.589
388.27	34.353
388.62	33.047
388.98	32.769
389.34	34.590
389.70	34.108
390.06	35.169
390.42	34.096
390.77	34.738
391.13	33.275
391.49	34.662
391.85	34.545
392.20	34.935
392.56	34.613
392.92	34.678
393.28	34.881
393.64	34.581
393.99	35.154
394.35	35.164
394.71	34.850
395.07	34.850
395.42	34.780
395.78	35.040
396.14	35.413
396.50	34.857
396.85	35.480
397.21	34.556
397.57	35.630
397.92	35.510
398.28	34.764
398.64	34.211
399.00	34.764
399.35	34.712
399.71	34.674
400.07	35.149
400.42	35.157
400.78	35.359
401.14	35.174
401.49	36.100
401.85	35.058
402.21	35.921
402.57	36.092
402.92	36.643
403.28	35.422
403.63	35.442
403.99	35.867
404.35	35.532
404.70	35.014
405.06	34.457
405.42	35.539
405.77	35.605
406.13	35.873
406.49	35.867
406.84	35.180
407.20	35.662
407.55	34.525
407.91	35.701
408.27	35.395
408.62	35.486
408.98	35.171
409.34	35.660
409.69	36.465
410.05	36.518
410.40	35.383
410.76	35.109
411.11	36.645
411.47	35.688
411.83	36.449
412.18	36.566
412.54	36.752
412.89	34.983
413.25	34.763
413.60	36.186
413.96	35.723
414.31	34.334
414.67	35.957
415.03	35.323
415.38	36.192
415.74	35.125
416.09	36.521
416.45	35.066
416.80	35.496
417.16	36.015
417.51	36.426
417.87	35.929
418.22	35.629
418.58	36.121
418.93	36.030
419.29	36.498
419.64	36.375
420.00	36.202
420.35	35.654
420.71	35.669
421.06	35.998
421.42	34.977
421.77	34.949
422.12	35.412
422.48	35.330
422.83	36.309
423.19	35.225
423.54	37.168
423.90	35.616
424.25	36.320
424.61	35.476
424.96	35.530
425.31	36.412
425.67	36.071
426.02	35.971
426.38	36.567
426.73	34.989
427.09	36.505
427.44	36.046
427.79	35.987
428.15	35.388
428.50	35.618
428.85	35.362
429.21	35.426
429.56	36.180
429.92	35.627
430.27	36.386
430.62	35.809
430.98	36.203
431.33	35.973
431.68	35.776
432.04	35.449
432.39	36.369
432.74	35.502
433.10	36.236
433.45	35.897
433.80	36.052
434.16	36.312
434.51	36.948
434.86	36.319
435.22	37.354
435.57	36.439
435.92	35.615
436.28	36.121
436.63	36.810
436.98	35.427
437.34	36.359
437.69	36.709
438.04	36.542
438.39	35.382
438.75	35.750
439.10	36.839
439.45	36.165
439.81	36.384
440.16	35.603
440.51	35.452
440.86	35.742
441.22	35.852
441.57	36.216
441.92	36.469
442.27	36.566
442.63	37.158
442.98	35.806
443.33	35.665
443.68	36.670
444.03	36.500
444.39	36.847
444.74	36.345
445.09	36.543
445.44	35.722
445.79	36.782
446.15	35.817
446.50	35.711
446.85	35.992
447.20	36.702
447.55	35.774
447.91	35.602
448.26	36.152
448.61	35.388
448.96	37.017
449.31	35.472
449.66	35.022
450.02	35.707
450.37	36.761
450.72	35.791
451.07	35.592
451.42	36.915
451.77	34.797
452.12	36.738
452.47	36.245
452.83	36.824
453.18	35.085
453.53	35.727
453.88	34.898
454.23	35.424
454.58	35.752
454.93	35.133
455.28	35.942
455.63	35.986
455.98	36.034
456.34	35.512
456.69	34.803
457.04	35.461
457.39	35.310
457.74	34.676
458.09	34.926
458.44	35.399
458.79	35.327
459.14	35.815
459.49	36.106
459.84	35.152
460.19	33.926
460.54	35.207
460.89	35.151
461.24	35.345
461.59	35.196
461.94	35.140
462.29	35.778
462.64	34.882
462.99	35.844
463.34	35.886
463.69	34.174
464.04	35.742
464.39	35.146
464.74	34.550
465.09	34.833
465.44	34.496
465.79	34.849
466.14	34.080
466.49	34.632
466.84	35.537
467.19	33.757
467.54	33.137
467.89	33.506
468.24	33.795
468.59	33.642
468.94	33.392
469.29	34.493
469.64	34.202
469.99	34.417
470.34	34.158
470.68	34.586
471.03	34.316
471.38	35.121
471.73	33.875
472.08	34.962
472.43	34.317
472.78	34.194
473.13	35.145
473.48	34.018
473.83	34.359
474.17	34.115
474.52	35.478
474.87	33.998
475.22	33.521
475.57	32.762
475.92	34.047
476.27	34.026
476.61	33.697
476.96	33.160
477.31	33.069
477.66	33.788
478.01	32.435
478.36	33.200
478.70	33.448
479.05	34.816
479.40	32.922
479.75	33.237
480.10	33.112
480.45	32.771
480.79	33.333
481.14	33.226
481.49	32.531
481.84	32.985
482.19	32.301
482.53	33.406
482.88	33.407
483.23	32.770
483.58	32.707
483.92	33.112
484.27	32.684
484.62	32.467
484.97	32.504
485.31	31.855
485.66	30.867
486.01	30.175
486.36	31.701
486.70	31.776
487.05	32.151
487.40	31.553
487.75	30.789
488.09	30.769
488.44	30.857
488.79	30.793
489.13	30.014
489.48	30.330
489.83	30.382
490.17	30.134
490.52	30.583
490.87	30.711
491.22	32.019
491.56	31.015
491.91	31.007
492.26	30.203
492.60	31.220
492.95	30.715
493.30	30.345
493.64	31.625
493.99	30.526
494.34	30.662
494.68	30.407
495.03	30.044
495.37	30.537
495.72	30.431
496.07	30.368
496.41	30.287
496.76	30.609
497.11	30.955
497.45	29.780
497.80	30.120
498.14	29.977
498.49	30.974
498.84	30.439
499.18	29.645
499.53	29.955
499.87	30.725
500.22	29.875
500.56	29.960
500.91	29.977
501.26	30.000
501.60	30.446
501.95	29.874
502.29	30.013
502.64	29.383
502.98	28.991
503.33	28.942
503.67	29.568
504.02	29.641
504.36	30.697
504.71	29.398
505.06	29.513
505.40	28.976
505.75	28.461
506.09	28.913
506.44	29.294
506.78	29.037
507.13	28.953
507.47	29.844
507.82	28.362
508.16	28.442
508.51	28.176
508.85	28.625
509.19	28.944
509.54	28.722
509.88	28.412
510.23	28.218
510.57	29.386
510.92	29.124
511.26	27.513
511.61	28.199
511.95	28.062
512.30	28.951
512.64	27.636
512.98	28.014
513.33	29.133
513.67	28.047
514.02	28.411
514.36	29.207
514.70	29.010
515.05	28.259
515.39	27.927
515.74	29.374
516.08	28.473
516.42	28.571
516.77	28.654
517.11	27.231
517.46	28.208
517.80	29.022
518.14	28.074
518.49	27.711
518.83	28.047
519.17	27.194
519.52	27.987
519.86	28.511
520.20	28.754
520.55	27.601
520.89	27.872
521.23	28.643
521.58	27.514
521.92	28.215
522.26	26.747
522.61	27.315
522.95	27.682
523.29	28.506
523.64	27.242
523.98	27.553
524.32	28.596
524.66	26.636
525.01	27.520
525.35	27.743
525.69	27.204
526.04	27.325
526.38	26.782
526.72	26.932
527.06	27.801
527.41	26.764
527.75	27.613
528.09	27.332
528.43	26.643
528.78	26.358
529.12	26.606
529.46	27.094
529.80	27.002
530.15	26.551
530.49	26.809
530.83	26.978
531.17	26.643
531.51	25.933
531.86	26.983
532.20	27.500
532.54	26.332
532.88	26.727
533.22	25.457
533.57	26.370
533.91	25.814
534.25	26.682
534.59	26.667
534.93	25.863
535.27	25.803
535.62	26.322
535.96	26.031
536.30	25.264
536.64	25.165
536.98	25.400
537.32	24.506
537.66	25.265
538.01	25.680
538.35	24.848
538.69	25.120
539.03	25.199
539.37	25.736
539.71	25.886
540.05	25.779
540.39	25.428
540.73	24.590
541.07	24.525
541.42	24.276
541.76	23.725
542.10	25.090
542.44	23.325
542.78	24.331
543.12	24.851
543.46	24.847
543.80	24.281
544.14	24.117
544.48	25.296
544.82	24.057
545.16	24.925
545.50	23.787
545.84	23.209
546.18	25.679
546.52	25.478
546.86	24.969
547.20	24.491
547.54	24.032
547.88	23.930
548.22	23.216
548.56	24.342
548.90	23.821
549.24	24.316
549.58	24.353
549.92	23.661
550.26	23.819
550.60	23.676
550.94	23.545
551.28	23.432
551.62	23.113
551.96	23.560
552.30	23.773
552.64	24.393
552.98	22.957
553.32	23.344
553.66	23.087
554.00	24.149
554.34	23.037
554.68	22.595
555.02	22.668
555.36	23.997
555.69	23.126
556.03	23.834
556.37	23.091
556.71	23.335
557.05	23.131
557.39	22.960
557.73	22.655
558.07	21.523
558.41	22.791
558.75	22.380
559.08	22.895
559.42	22.565
559.76	22.999
560.10	21.969
560.44	22.955
560.78	22.812
561.12	22.660
561.45	23.114
561.79	22.405
562.13	22.674
562.47	21.147
562.81	22.468
563.15	22.790
563.48	21.753
563.82	21.282
564.16	21.381
564.50	21.395
564.84	21.888
565.17	22.176
565.51	20.886
565.85	21.853
566.19	21.141
566.52	21.884
566.86	21.562
567.20	21.533
567.54	21.827
567.88	21.713
568.21	21.393
568.55	21.535
568.89	22.197
569.23	21.420
569.56	21.336
569.90	21.739
570.24	21.585
570.57	20.205
570.91	20.514
571.25	20.538
571.59	21.514
571.92	20.629
572.26	20.434
572.60	20.584
572.93	20.735
573.27	20.736
573.61	20.566
573.95	20.272
574.28	20.463
574.62	20.418
574.96	19.916
575.29	19.960
575.63	19.658
575.97	20.024
576.30	19.738
576.64	19.757
576.98	19.841
577.31	19.886
577.65	20.367
577.98	19.936
578.32	19.728
578.66	19.600
578.99	19.435
579.33	19.987
579.67	19.175
580.00	19.577
580.34	19.895
580.67	19.484
581.01	18.974
581.35	19.443
581.68	19.698
582.02	19.349
582.35	19.829
582.69	19.894
583.02	19.436
583.36	19.860
583.70	19.314
584.03	19.078
584.37	19.427
584.70	19.291
585.04	18.903
585.37	19.311
585.71	19.504
586.04	18.868
586.38	19.359
586.72	19.253
587.05	19.084
587.39	19.771
587.72	19.426
588.06	19.004
588.39	19.467
588.73	19.048
589.06	19.300
589.40	19.115
589.73	18.991
590.07	19.264
590.40	18.830
590.73	19.335
591.07	19.360
591.40	18.974
591.74	19.873
592.07	19.488
592.41	19.006
592.74	18.317
593.08	19.140
593.41	19.102
593.75	19.052
594.08	18.540
594.41	18.526
594.75	19.130
595.08	18.708
595.42	18.636
595.75	18.469
596.09	19.248
596.42	19.097
596.75	19.182
597.09	19.313
597.42	19.070
597.75	18.385
598.09	19.365
598.42	19.903
598.76	18.265
599.09	18.654
599.42	18.840
599.76	18.455
600.09	18.452
600.42	18.819
600.76	18.329
601.09	17.856
601.42	18.366
601.76	18.069
602.09	17.941
602.42	18.139
602.76	18.081
603.09	18.392
603.42	18.642
603.76	18.393
604.09	18.950
604.42	18.385
604.76	18.607
605.09	18.109
605.42	18.461
605.75	17.846
606.09	17.656
606.42	17.366
606.75	17.354
607.09	17.665
607.42	18.420
607.75	18.288
608.08	17.758
608.42	17.936
608.75	17.828
609.08	17.954
609.41	18.174
609.75	18.125
610.08	17.898
610.41	17.460
610.74	17.605
611.07	18.428
611.41	18.879
611.74	18.799
612.07	18.186
612.40	17.586
612.73	18.240
613.07	17.604
613.40	18.046
613.73	18.055
614.06	18.449
614.39	17.396
614.72	17.273
615.06	17.902
615.39	16.578
615.72	17.393
616.05	17.533
616.38	17.407
616.71	18.025
617.05	17.572
617.38	18.138
617.71	17.603
618.04	17.809
618.37	18.361
618.70	18.835
619.03	16.906
619.36	17.818
619.69	17.297
620.03	18.142
620.36	17.239
620.69	17.520
621.02	17.979
621.35	17.707
621.68	18.438
622.01	17.367
622.34	17.852
622.67	17.595
623.00	15.520
623.33	17.319
623.66	17.899
623.99	16.985
624.32	18.324
624.65	16.731
624.99	18.661
625.32	16.982
625.65	18.476
625.98	16.814
626.31	18.214
626.64	17.436
626.97	16.429
627.30	18.299
627.63	16.654
627.96	18.694
628.29	18.132
628.62	16.793
628.95	17.704
629.28	18.182
629.61	18.182
629.94	17.908
630.26	17.203
630.59	17.444
630.92	16.450
631.25	18.605
631.58	18.173
631.91	16.589
632.24	18.156
632.57	19.070
632.90	17.653
633.23	18.367
633.56	16.837
