SpectraSuite Data File
++++++++++++++++++++++++++++++++++++
Date: Thu May 14 16:10:22 PDT 2015
User: schluterlab
Dark Spectrum Present: Yes
Reference Spectrum Present: Yes
Number of Sampled Component Spectra: 1
Spectrometers: USB2E3373
Integration Time (usec): 3000 (USB2E3373)
Spectra Averaged: 3 (USB2E3373)
Boxcar Smoothing: 0 (USB2E3373)
Correct for Electrical Dark: No (USB2E3373)
Strobe/Lamp Enabled: No (USB2E3373)
Correct for Detector Non-linearity: No (USB2E3373)
Correct for Stray Light: No (USB2E3373)
Number of Pixels in Processed Spectrum: 2048
>>>>>Begin Processed Spectral Data<<<<<
178.53	0.000
178.91	157.143
179.29	-1800.000
179.67	-1300.000
180.04	121.429
180.42	60.000
180.80	60.000
181.18	-1600.000
181.56	500.000
181.94	125.000
182.31	-250.000
182.69	433.333
183.07	-500.000
183.45	125.000
183.83	-166.667
184.20	-366.667
184.58	1100.000
184.96	-250.000
185.34	-44.444
185.72	-160.000
186.09	177.778
186.47	700.000
186.85	340.000
187.23	-133.333
187.61	-1600.000
187.98	300.000
188.36	325.000
188.74	-325.000
189.12	-566.667
189.49	-87.500
189.87	-25.000
190.25	-77.778
190.63	-180.000
191.00	-222.222
191.38	0.000
191.76	-400.000
192.14	-33.333
192.51	800.000
192.89	-100.000
193.27	0.000
193.65	-142.857
194.02	-1400.000
194.40	-85.714
194.78	100.000
195.15	0.000
195.53	-45.455
195.91	0.000
196.29	-25.000
196.66	-100.000
197.04	-1900.000
197.42	-214.286
197.79	-950.000
198.17	-112.500
198.55	-71.429
198.92	-22.222
199.30	-25.000
199.68	-45.455
200.05	-85.714
200.43	-750.000
200.81	314.286
201.18	0.000
201.56	211.111
201.94	0.000
202.31	600.000
202.69	-166.667
203.07	600.000
203.44	-100.000
203.82	-250.000
204.19	-83.333
204.57	-200.000
204.95	-150.000
205.32	0.000
205.70	100.000
206.08	-66.667
206.45	-116.667
206.83	320.000
207.20	-200.000
207.58	-400.000
207.96	-133.333
208.33	0.000
208.71	58.333
209.08	-83.333
209.46	0.000
209.84	216.667
210.21	400.000
210.59	750.000
210.96	566.667
211.34	-200.000
211.71	-75.000
212.09	-1200.000
212.46	0.000
212.84	1150.000
213.22	-400.000
213.59	-250.000
213.97	-50.000
214.34	-400.000
214.72	200.000
215.09	-250.000
215.47	0.000
215.84	157.143
216.22	1150.000
216.59	40.000
216.97	-260.000
217.34	-275.000
217.72	-87.500
218.09	-300.000
218.47	-275.000
218.84	0.000
219.22	100.000
219.59	-52.941
219.97	10.000
220.34	700.000
220.72	-55.556
221.09	15.385
221.47	-300.000
221.84	-140.000
222.22	-200.000
222.59	0.000
222.97	12.500
223.34	-40.000
223.72	-1500.000
224.09	-300.000
224.46	-475.000
224.84	-40.000
225.21	-200.000
225.59	-325.000
225.96	-400.000
226.34	-3.846
226.71	366.667
227.08	-700.000
227.46	-53.333
227.83	-275.000
228.21	-26.316
228.58	187.500
228.95	750.000
229.33	-41.667
229.70	-60.000
230.08	36.842
230.45	50.000
230.82	-200.000
231.20	-21.429
231.57	-25.000
231.95	-72.727
232.32	-54.545
232.69	0.000
233.07	-375.000
233.44	-11.765
233.81	-80.000
234.19	27.778
234.56	-4.545
234.93	6.897
235.31	0.000
235.68	-33.333
236.05	-45.000
236.43	30.769
236.80	36.000
237.17	-22.222
237.55	-9.091
237.92	-110.000
238.29	3.226
238.67	18.182
239.04	0.000
239.41	4.762
239.79	17.391
240.16	9.259
240.53	-17.391
240.91	-13.725
241.28	11.475
241.65	17.910
242.02	16.216
242.40	12.308
242.77	4.000
243.14	17.073
243.51	-3.947
243.89	2.564
244.26	25.743
244.63	13.725
245.00	19.626
245.38	8.772
245.75	4.425
246.12	22.222
246.49	21.705
246.87	12.857
247.24	17.219
247.61	17.763
247.98	12.752
248.36	15.432
248.73	10.429
249.10	12.568
249.47	17.910
249.84	25.654
250.22	16.062
250.59	18.889
250.96	25.000
251.33	9.184
251.70	19.658
252.08	16.667
252.45	19.672
252.82	18.182
253.19	20.703
253.56	24.715
253.94	19.615
254.31	20.833
254.68	21.678
255.05	22.476
255.42	17.687
255.79	17.476
256.16	17.219
256.54	14.238
256.91	22.295
257.28	15.738
257.65	21.019
258.02	19.764
258.39	21.937
258.76	22.936
259.14	25.000
259.51	17.579
259.88	13.598
260.25	20.833
260.62	20.548
260.99	23.497
261.36	19.571
261.73	18.568
262.10	16.484
262.47	20.912
262.85	20.960
263.22	15.325
263.59	19.211
263.96	20.716
264.33	18.414
264.70	18.272
265.07	21.241
265.44	22.449
265.81	16.204
266.18	21.542
266.55	20.089
266.92	18.907
267.29	21.007
267.66	19.069
268.03	23.144
268.40	16.075
268.77	16.856
269.14	20.264
269.51	19.518
269.88	19.057
270.25	19.115
270.62	21.097
270.99	23.838
271.36	22.574
271.73	20.039
272.10	20.441
272.47	18.437
272.84	19.277
273.21	21.042
273.58	21.371
273.95	17.500
274.32	20.722
274.69	21.277
275.06	20.330
275.43	17.375
275.80	20.635
276.17	19.444
276.54	18.657
276.91	20.394
277.28	20.253
277.65	22.621
278.02	19.485
278.39	20.833
278.76	17.047
279.13	19.681
279.50	21.306
279.87	19.320
280.23	18.662
280.60	19.661
280.97	20.724
281.34	17.657
281.71	19.966
282.08	20.598
282.45	20.458
282.82	18.995
283.19	18.255
283.56	16.885
283.92	19.369
284.29	21.169
284.66	21.346
285.03	16.186
285.40	19.165
285.77	17.957
286.14	20.763
286.51	19.178
286.87	18.799
287.24	18.223
287.61	17.937
287.98	17.674
288.35	19.379
288.72	17.899
289.08	19.327
289.45	17.012
289.82	17.470
290.19	19.397
290.56	17.746
290.93	17.118
291.29	17.355
291.66	19.972
292.03	16.282
292.40	19.728
292.77	18.464
293.13	15.968
293.50	18.134
293.87	17.315
294.24	18.000
294.60	17.067
294.97	15.839
295.34	17.286
295.71	15.385
296.08	15.891
296.44	16.789
296.81	15.591
297.18	17.186
297.55	15.448
297.91	14.947
298.28	15.521
298.65	15.101
299.02	16.057
299.38	16.934
299.75	15.888
300.12	15.856
300.48	15.553
300.85	16.085
301.22	16.667
301.59	14.498
301.95	16.723
302.32	15.444
302.69	15.334
303.05	16.540
303.42	15.743
303.79	16.875
304.15	15.878
304.52	15.539
304.89	16.754
305.25	15.735
305.62	17.137
305.99	16.804
306.35	17.137
306.72	16.960
307.09	15.431
307.45	17.805
307.82	17.356
308.19	15.641
308.55	17.068
308.92	17.137
309.29	16.858
309.65	16.959
310.02	17.129
310.38	17.913
310.75	18.252
311.12	18.600
311.48	18.671
311.85	18.519
312.22	18.027
312.58	18.873
312.95	18.642
313.31	18.699
313.68	19.139
314.05	19.512
314.41	21.311
314.78	20.073
315.14	20.599
315.51	20.960
315.87	21.422
316.24	23.014
316.61	22.913
316.97	21.629
317.34	22.928
317.70	24.017
318.07	23.898
318.43	24.915
318.80	26.003
319.16	24.893
319.53	25.450
319.89	25.504
320.26	27.224
320.62	26.684
320.99	27.054
321.35	28.281
321.72	30.419
322.08	29.666
322.45	31.346
322.81	30.866
323.18	31.858
323.54	31.897
323.91	34.342
324.27	33.993
324.64	35.684
325.00	34.328
325.37	37.428
325.73	37.438
326.10	38.848
326.46	39.414
326.83	40.833
327.19	40.472
327.56	41.581
327.92	41.463
328.29	42.823
328.65	43.132
329.01	45.347
329.38	45.577
329.74	46.747
330.11	47.175
330.47	46.251
330.84	47.976
331.20	46.417
331.56	48.180
331.93	49.791
332.29	49.831
332.66	49.668
333.02	49.079
333.38	50.755
333.75	49.832
334.11	49.875
334.48	51.403
334.84	53.271
335.20	53.065
335.57	53.204
335.93	51.983
336.29	52.163
336.66	51.220
337.02	53.010
337.38	52.381
337.75	52.810
338.11	53.995
338.47	53.515
338.84	52.623
339.20	53.328
339.56	52.883
339.93	53.120
340.29	52.415
340.65	53.285
341.02	53.791
341.38	52.708
341.74	54.076
342.11	54.787
342.47	53.693
342.83	54.750
343.20	55.110
343.56	54.370
343.92	53.803
344.28	53.594
344.65	53.798
345.01	53.744
345.37	54.666
345.73	54.949
346.10	55.226
346.46	55.775
346.82	55.581
347.19	55.768
347.55	54.628
347.91	56.241
348.27	55.918
348.63	55.369
349.00	54.959
349.36	55.093
349.72	54.167
350.08	56.389
350.45	55.741
350.81	54.449
351.17	55.188
351.53	57.544
351.89	56.948
352.26	58.209
352.62	57.015
352.98	56.107
353.34	55.937
353.70	58.629
354.07	58.197
354.43	57.479
354.79	57.292
355.15	57.322
355.51	55.190
355.87	56.320
356.24	57.338
356.60	55.063
356.96	57.746
357.32	56.803
357.68	56.589
358.04	57.111
358.40	55.896
358.77	56.798
359.13	56.721
359.49	56.431
359.85	58.231
360.21	57.819
360.57	56.425
360.93	57.123
361.29	56.982
361.66	57.495
362.02	57.550
362.38	57.273
362.74	56.285
363.10	58.322
363.46	56.648
363.82	59.304
364.18	57.847
364.54	57.884
364.90	57.057
365.26	57.724
365.62	57.067
365.98	57.931
366.35	58.188
366.71	58.367
367.07	57.713
367.43	58.240
367.79	58.129
368.15	59.130
368.51	56.698
368.87	58.459
369.23	56.533
369.59	58.948
369.95	58.012
370.31	58.609
370.67	58.459
371.03	58.934
371.39	57.287
371.75	59.147
372.11	58.808
372.47	57.820
372.83	57.330
373.19	57.238
373.55	57.453
373.91	58.419
374.27	58.409
374.63	59.675
374.99	57.493
375.35	57.987
375.71	57.935
376.07	57.973
376.42	58.816
376.78	58.732
377.14	57.704
377.50	58.634
377.86	58.067
378.22	58.144
378.58	57.967
378.94	58.392
379.30	56.766
379.66	57.025
380.02	58.165
380.38	57.834
380.74	57.577
381.09	57.782
381.45	57.841
381.81	58.899
382.17	58.314
382.53	57.953
382.89	56.490
383.25	58.675
383.61	57.986
383.97	57.479
384.32	58.493
384.68	57.135
385.04	58.300
385.40	59.045
385.76	57.972
386.12	56.194
386.48	57.706
386.83	58.164
387.19	56.952
387.55	57.688
387.91	56.906
388.27	56.755
388.62	56.415
388.98	56.120
389.34	57.690
389.70	57.699
390.06	56.661
390.42	57.048
390.77	56.954
391.13	56.925
391.49	56.461
391.85	55.152
392.20	57.058
392.56	57.413
392.92	55.889
393.28	57.711
393.64	56.369
393.99	57.815
394.35	57.243
394.71	55.868
395.07	56.228
395.42	55.511
395.78	58.135
396.14	56.150
396.50	55.344
396.85	54.681
397.21	55.858
397.57	54.476
397.92	55.441
398.28	55.405
398.64	56.407
399.00	54.764
399.35	54.712
399.71	54.946
400.07	54.295
400.42	55.530
400.78	54.919
401.14	53.557
401.49	54.633
401.85	55.640
402.21	55.910
402.57	55.516
402.92	55.851
403.28	54.274
403.63	53.699
403.99	54.276
404.35	53.269
404.70	53.258
405.06	53.587
405.42	53.337
405.77	54.526
406.13	52.728
406.49	54.730
406.84	53.352
407.20	53.102
407.55	52.877
407.91	54.368
408.27	52.473
408.62	53.403
408.98	53.105
409.34	52.669
409.69	54.203
410.05	54.396
410.40	53.828
410.76	52.832
411.11	53.127
411.47	52.518
411.83	52.792
412.18	52.530
412.54	53.349
412.89	52.678
413.25	51.637
413.60	52.039
413.96	52.273
414.31	51.048
414.67	52.594
415.03	52.615
415.38	52.018
415.74	51.313
416.09	52.807
416.45	50.908
416.80	51.836
417.16	52.427
417.51	51.806
417.87	52.238
418.22	51.617
418.58	51.673
418.93	51.630
419.29	51.480
419.64	51.080
420.00	51.217
420.35	51.600
420.71	50.833
421.06	50.949
421.42	51.606
421.77	50.188
422.12	50.370
422.48	51.613
422.83	52.464
423.19	50.398
423.54	50.664
423.90	50.856
424.25	50.560
424.61	51.665
424.96	50.851
425.31	50.743
425.67	50.564
426.02	51.577
426.38	50.517
426.73	50.558
427.09	51.615
427.44	50.246
427.79	50.193
428.15	49.658
428.50	51.292
428.85	50.344
429.21	51.223
429.56	49.358
429.92	50.123
430.27	51.084
430.62	51.148
430.98	50.025
431.33	50.782
431.68	49.761
432.04	50.381
432.39	50.187
432.74	50.457
433.10	51.163
433.45	49.164
433.80	49.893
434.16	50.155
434.51	50.308
434.86	51.086
435.22	52.338
435.57	51.238
435.92	50.473
436.28	50.398
436.63	51.502
436.98	49.168
437.34	50.958
437.69	50.688
438.04	51.031
438.39	49.569
438.75	49.972
439.10	49.789
439.45	50.252
439.81	49.831
440.16	50.134
440.51	49.777
440.86	49.639
441.22	50.911
441.57	50.052
441.92	49.758
442.27	49.747
442.63	49.528
442.98	51.121
443.33	50.342
443.68	50.149
444.03	51.364
444.39	49.191
444.74	50.485
445.09	49.671
445.44	50.263
445.79	50.527
446.15	50.360
446.50	51.421
446.85	50.730
447.20	48.985
447.55	50.262
447.91	49.634
448.26	49.894
448.61	49.469
448.96	51.127
449.31	48.993
449.66	48.584
450.02	49.736
450.37	49.654
450.72	50.700
451.07	49.715
451.42	49.451
451.77	49.805
452.12	50.000
452.47	49.911
452.83	50.788
453.18	47.928
453.53	49.167
453.88	48.647
454.23	49.209
454.58	50.203
454.93	49.272
455.28	49.849
455.63	50.540
455.98	50.112
456.34	49.058
456.69	49.677
457.04	49.232
457.39	49.667
457.74	50.224
458.09	47.666
458.44	48.707
458.79	48.840
459.14	47.981
459.49	48.217
459.84	49.633
460.19	48.084
460.54	48.722
460.89	49.021
461.24	48.908
461.59	48.423
461.94	46.492
462.29	47.424
462.64	48.159
462.99	48.525
463.34	48.280
463.69	47.069
464.04	48.082
464.39	46.973
464.74	46.921
465.09	48.212
465.44	46.084
465.79	46.748
466.14	45.961
466.49	46.737
466.84	47.273
467.19	45.838
467.54	46.592
467.89	46.034
468.24	47.479
468.59	45.107
468.94	47.145
469.29	46.671
469.64	46.281
469.99	46.781
470.34	46.349
470.68	47.642
471.03	46.758
471.38	46.109
471.73	47.139
472.08	46.764
472.43	47.200
472.78	47.040
473.13	46.144
473.48	47.190
473.83	45.850
474.17	45.721
474.52	45.881
474.87	45.681
475.22	46.310
475.57	46.366
475.92	45.147
476.27	45.634
476.61	45.950
476.96	43.796
477.31	45.297
477.66	45.750
478.01	44.840
478.36	45.862
478.70	44.138
479.05	45.603
479.40	46.150
479.75	44.428
480.10	45.429
480.45	45.032
480.79	44.263
481.14	43.658
481.49	44.162
481.84	44.430
482.19	44.301
482.53	43.725
482.88	44.129
483.23	44.286
483.58	44.105
483.92	42.598
484.27	43.141
484.62	43.523
484.97	42.885
485.31	42.168
485.66	40.643
486.01	40.332
486.36	41.084
486.70	41.940
487.05	43.265
487.40	42.953
487.75	42.774
488.09	43.223
488.44	42.663
488.79	42.327
489.13	42.614
489.48	42.330
489.83	42.495
490.17	42.082
490.52	42.282
490.87	41.455
491.22	42.331
491.56	42.491
491.91	42.826
492.26	42.882
492.60	41.539
492.95	41.992
493.30	41.372
493.64	42.181
493.99	41.184
494.34	41.638
494.68	41.713
495.03	41.630
495.37	42.077
495.72	41.633
496.07	40.622
496.41	40.970
496.76	41.618
497.11	41.401
497.45	40.915
497.80	41.315
498.14	41.678
498.49	41.406
498.84	42.139
499.18	40.846
499.53	41.166
499.87	41.495
500.22	39.849
500.56	40.216
500.91	41.007
501.26	40.955
501.60	40.698
501.95	40.208
502.29	40.544
502.64	41.014
502.98	40.207
503.33	39.266
503.67	39.948
504.02	39.974
504.36	40.483
504.71	40.836
505.06	38.790
505.40	39.717
505.75	39.390
506.09	40.055
506.44	40.297
506.78	40.505
507.13	40.065
507.47	39.934
507.82	39.062
508.16	40.344
508.51	38.725
508.85	40.246
509.19	40.123
509.54	40.394
509.88	39.631
510.23	39.194
510.57	40.406
510.92	39.042
511.26	38.672
511.61	37.904
511.95	39.336
512.30	38.454
512.64	37.281
512.98	39.070
513.33	38.710
513.67	39.266
514.02	39.448
514.36	39.591
514.70	39.844
515.05	38.999
515.39	39.318
515.74	39.873
516.08	38.827
516.42	39.979
516.77	39.064
517.11	37.751
517.46	38.918
517.80	39.337
518.14	38.901
518.49	38.612
518.83	37.414
519.17	37.749
519.52	38.312
519.86	39.282
520.20	38.605
520.55	37.459
520.89	38.345
521.23	38.917
521.58	38.249
521.92	37.620
522.26	37.400
522.61	38.773
522.95	38.408
523.29	37.816
523.64	37.836
523.98	38.505
524.32	39.713
524.66	37.849
525.01	37.259
525.35	37.220
525.69	38.457
526.04	36.338
526.38	38.161
526.72	37.370
527.06	38.065
527.41	37.201
527.75	37.589
528.09	37.839
528.43	36.353
528.78	36.185
529.12	36.697
529.46	36.875
529.80	37.471
530.15	37.855
530.49	36.833
530.83	36.718
531.17	36.141
531.51	36.342
531.86	36.418
532.20	36.646
532.54	35.488
532.88	36.424
533.22	35.828
533.57	35.892
533.91	35.915
534.25	35.726
534.59	36.437
534.93	35.371
535.27	36.169
535.62	36.157
535.96	35.561
536.30	36.251
536.64	36.757
536.98	36.039
537.32	35.802
537.66	35.122
538.01	34.864
538.35	35.201
538.69	35.337
539.03	34.887
539.37	34.806
539.71	35.075
540.05	34.712
540.39	35.086
540.73	34.487
541.07	34.519
541.42	34.613
541.76	34.520
542.10	34.499
542.44	34.836
542.78	35.462
543.12	34.505
543.46	33.455
543.80	34.353
544.14	33.812
544.48	34.043
544.82	35.069
545.16	34.526
545.50	33.972
545.84	34.783
546.18	36.173
546.52	34.713
546.86	33.648
547.20	34.606
547.54	33.833
547.88	33.514
548.22	33.977
548.56	34.699
548.90	34.090
549.24	33.799
549.58	34.259
549.92	34.311
550.26	34.628
550.60	33.504
550.94	34.541
551.28	33.795
551.62	35.445
551.96	34.045
552.30	33.397
552.64	34.163
552.98	33.874
553.32	33.955
553.66	33.633
554.00	33.480
554.34	33.398
554.68	32.473
555.02	33.771
555.36	33.399
555.69	32.992
556.03	33.480
556.37	33.917
556.71	33.101
557.05	33.291
557.39	32.714
557.73	33.487
558.07	33.444
558.41	33.023
558.75	32.792
559.08	34.168
559.42	32.853
559.76	32.564
560.10	33.088
560.44	33.377
560.78	33.250
561.12	31.650
561.45	33.455
561.79	32.112
562.13	32.656
562.47	31.628
562.81	32.089
563.15	32.071
563.48	33.126
563.82	32.527
564.16	31.617
564.50	32.300
564.84	32.271
565.17	31.412
565.51	31.185
565.85	32.304
566.19	31.912
566.52	31.305
566.86	31.409
567.20	31.158
567.54	31.386
567.88	32.059
568.21	31.374
568.55	30.743
568.89	31.185
569.23	31.432
569.56	29.973
569.90	29.936
570.24	29.713
570.57	29.795
570.91	28.934
571.25	29.592
571.59	29.196
571.92	28.838
572.26	29.037
572.60	28.883
572.93	29.223
573.27	29.559
573.61	29.142
573.95	28.891
574.28	28.148
574.62	28.627
574.96	27.702
575.29	27.892
575.63	28.274
575.97	28.455
576.30	28.078
576.64	28.394
576.98	28.497
577.31	28.187
577.65	27.817
577.98	27.748
578.32	27.487
578.66	27.818
578.99	28.036
579.33	28.213
579.67	28.264
580.00	27.737
580.34	27.880
580.67	27.846
581.01	28.061
581.35	27.508
581.68	27.311
582.02	27.117
582.35	27.639
582.69	27.249
583.02	27.789
583.36	27.398
583.70	27.766
584.03	27.934
584.37	28.487
584.70	27.702
585.04	27.482
585.37	27.419
585.71	26.990
586.04	27.279
586.38	27.298
586.72	27.100
587.05	27.194
587.39	28.048
587.72	27.297
588.06	27.369
588.39	27.782
588.73	27.566
589.06	27.342
589.40	28.580
589.73	28.149
590.07	28.515
590.40	27.992
590.73	27.713
591.07	28.220
591.40	27.955
591.74	28.100
592.07	28.461
592.41	27.445
592.74	27.086
593.08	27.643
593.41	27.676
593.75	27.241
594.08	27.386
594.41	27.660
594.75	27.798
595.08	27.153
595.42	27.597
595.75	27.672
596.09	27.618
596.42	27.804
596.75	27.866
597.09	28.525
597.42	27.533
597.75	27.205
598.09	28.214
598.42	28.026
598.76	27.283
599.09	26.664
599.42	27.221
599.76	27.171
600.09	26.927
600.42	27.094
600.76	27.213
601.09	26.352
601.42	26.262
601.76	26.793
602.09	26.948
602.42	26.790
602.76	27.011
603.09	27.203
603.42	27.782
603.76	26.885
604.09	27.644
604.42	26.606
604.76	26.256
605.09	27.124
605.42	26.555
605.75	27.000
606.09	26.689
606.42	25.648
606.75	26.387
607.09	26.190
607.42	26.358
607.75	27.433
608.08	26.598
608.42	27.046
608.75	26.658
609.08	26.188
609.41	26.864
609.75	26.964
610.08	26.165
610.41	25.743
610.74	26.891
611.07	26.909
611.41	26.861
611.74	27.390
612.07	27.115
612.40	27.186
612.73	27.090
613.07	26.846
613.40	26.901
613.73	26.866
614.06	26.987
614.39	26.968
614.72	27.074
615.06	26.083
615.39	25.906
615.72	25.782
616.05	26.275
616.38	26.791
616.71	27.273
617.05	26.198
617.38	27.287
617.71	27.322
618.04	26.713
618.37	26.995
618.70	27.262
619.03	26.583
619.36	27.374
619.69	26.970
620.03	27.056
620.36	26.442
620.69	26.897
621.02	27.756
621.35	28.520
621.68	28.923
622.01	27.117
622.34	26.081
622.67	27.148
623.00	26.181
623.33	27.405
623.66	26.459
623.99	26.596
624.32	27.745
624.65	26.770
624.99	27.373
625.32	27.433
625.65	26.635
625.98	27.525
626.31	28.278
626.64	27.106
626.97	28.282
627.30	27.487
627.63	26.932
627.96	27.853
628.29	28.249
628.62	27.708
628.95	27.432
629.28	27.528
629.61	27.441
629.94	27.950
630.26	28.475
630.59	27.461
630.92	26.667
631.25	28.801
631.58	29.190
631.91	29.428
632.24	27.281
632.57	28.558
