SpectraSuite Data File
++++++++++++++++++++++++++++++++++++
Date: Thu May 14 16:10:26 PDT 2015
User: schluterlab
Dark Spectrum Present: Yes
Reference Spectrum Present: Yes
Number of Sampled Component Spectra: 1
Spectrometers: USB2E3373
Integration Time (usec): 3000 (USB2E3373)
Spectra Averaged: 3 (USB2E3373)
Boxcar Smoothing: 0 (USB2E3373)
Correct for Electrical Dark: No (USB2E3373)
Strobe/Lamp Enabled: No (USB2E3373)
Correct for Detector Non-linearity: No (USB2E3373)
Correct for Stray Light: No (USB2E3373)
Number of Pixels in Processed Spectrum: 2048
>>>>>Begin Processed Spectral Data<<<<<
178.53	0.000
178.91	385.714
179.29	-1500.000
179.67	-1300.000
180.04	192.857
180.42	80.000
180.80	280.000
181.18	-1100.000
181.56	-300.000
181.94	525.000
182.31	-250.000
182.69	266.667
183.07	-500.000
183.45	300.000
183.83	-16.667
184.20	33.333
184.58	600.000
184.96	-525.000
185.34	-155.556
185.72	-60.000
186.09	177.778
186.47	600.000
186.85	160.000
187.23	-155.556
187.61	-1300.000
187.98	180.000
188.36	575.000
188.74	-125.000
189.12	-300.000
189.49	-75.000
189.87	-237.500
190.25	-133.333
190.63	-180.000
191.00	-44.444
191.38	0.000
191.76	-425.000
192.14	-233.333
192.51	750.000
192.89	-250.000
193.27	0.000
193.65	-242.857
194.02	-1700.000
194.40	-157.143
194.78	157.143
195.15	0.000
195.53	-36.364
195.91	0.000
196.29	0.000
196.66	-92.308
197.04	-1000.000
197.42	-128.571
197.79	-150.000
198.17	-75.000
198.55	-85.714
198.92	-11.111
199.30	-150.000
199.68	-18.182
200.05	-42.857
200.43	-850.000
200.81	242.857
201.18	0.000
201.56	233.333
201.94	0.000
202.31	633.333
202.69	-200.000
203.07	1100.000
203.44	-144.444
203.82	-250.000
204.19	-91.667
204.57	-166.667
204.95	-250.000
205.32	-1700.000
205.70	175.000
206.08	-133.333
206.45	-133.333
206.83	440.000
207.20	-200.000
207.58	-320.000
207.96	-333.333
208.33	-216.667
208.71	83.333
209.08	-150.000
209.46	0.000
209.84	350.000
210.21	450.000
210.59	-200.000
210.96	700.000
211.34	-150.000
211.71	-175.000
212.09	-1700.000
212.46	0.000
212.84	1050.000
213.22	-180.000
213.59	-25.000
213.97	-10.000
214.34	-366.667
214.72	400.000
215.09	-125.000
215.47	0.000
215.84	257.143
216.22	450.000
216.59	-240.000
216.97	-120.000
217.34	-325.000
217.72	-125.000
218.09	-100.000
218.47	-250.000
218.84	0.000
219.22	-20.000
219.59	-5.882
219.97	60.000
220.34	600.000
220.72	-133.333
221.09	-23.077
221.47	-233.333
221.84	-100.000
222.22	-271.429
222.59	0.000
222.97	-50.000
223.34	-180.000
223.72	-1400.000
224.09	-150.000
224.46	-350.000
224.84	180.000
225.21	-171.429
225.59	-425.000
225.96	-625.000
226.34	-15.385
226.71	333.333
227.08	-750.000
227.46	-6.667
227.83	-175.000
228.21	21.053
228.58	137.500
228.95	150.000
229.33	33.333
229.70	-120.000
230.08	47.368
230.45	120.000
230.82	-133.333
231.20	-42.857
231.57	-41.667
231.95	-81.818
232.32	-27.273
232.69	-25.000
233.07	-75.000
233.44	-58.824
233.81	-150.000
234.19	-16.667
234.56	-9.091
234.93	27.586
235.31	15.789
235.68	-44.444
236.05	-55.000
236.43	30.769
236.80	40.000
237.17	7.407
237.55	-18.182
237.92	-100.000
238.29	-19.355
238.67	4.545
239.04	-11.111
239.41	-19.048
239.79	-2.174
240.16	-5.556
240.53	-23.913
240.91	-21.569
241.28	-4.918
241.65	10.448
242.02	4.054
242.40	-6.154
242.77	0.000
243.14	-3.659
243.51	-7.895
243.89	-6.410
244.26	0.000
244.63	-2.941
245.00	2.804
245.38	8.772
245.75	-7.080
246.12	6.349
246.49	13.953
246.87	10.000
247.24	8.609
247.61	11.842
247.98	4.698
248.36	7.407
248.73	3.681
249.10	5.464
249.47	16.418
249.84	15.707
250.22	4.145
250.59	7.222
250.96	11.818
251.33	3.571
251.70	8.120
252.08	9.583
252.45	11.885
252.82	9.504
253.19	4.297
253.56	8.745
253.94	6.154
254.31	9.848
254.68	12.238
255.05	12.378
255.42	8.844
255.79	9.061
256.16	7.947
256.54	6.954
256.91	9.180
257.28	6.230
257.65	6.688
258.02	10.619
258.39	8.547
258.76	11.621
259.14	10.632
259.51	12.680
259.88	10.198
260.25	10.833
260.62	14.795
260.99	12.842
261.36	13.405
261.73	9.549
262.10	12.637
262.47	11.260
262.85	14.899
263.22	7.013
263.59	5.789
263.96	10.230
264.33	8.951
264.70	12.099
265.07	13.365
265.44	15.193
265.81	12.269
266.18	11.338
266.55	11.830
266.92	10.023
267.29	11.816
267.66	10.200
268.03	10.480
268.40	14.614
268.77	7.973
269.14	9.692
269.51	12.281
269.88	13.525
270.25	10.865
270.62	10.970
270.99	14.545
271.36	13.465
271.73	10.020
272.10	12.024
272.47	11.022
272.84	11.245
273.21	10.621
273.58	10.282
273.95	10.769
274.32	10.646
274.69	10.638
275.06	11.538
275.43	9.057
275.80	11.993
276.17	11.296
276.54	11.007
276.91	10.376
277.28	11.754
277.65	12.388
278.02	11.581
278.39	9.964
278.76	10.369
279.13	13.121
279.50	12.027
279.87	10.376
280.23	9.859
280.60	11.017
280.97	10.033
281.34	9.168
281.71	12.352
282.08	13.289
282.45	10.802
282.82	10.361
283.19	10.985
283.56	11.639
283.92	12.162
284.29	13.270
284.66	12.808
285.03	9.135
285.40	11.592
285.77	10.991
286.14	11.450
286.51	10.959
286.87	9.795
287.24	12.199
287.61	11.360
287.98	9.819
288.35	10.947
288.72	11.391
289.08	12.152
289.45	9.763
289.82	10.392
290.19	10.345
290.56	13.099
290.93	11.127
291.29	12.397
291.66	11.983
292.03	9.091
292.40	12.109
292.77	9.838
293.13	10.149
293.50	8.541
293.87	9.396
294.24	11.333
294.60	11.252
294.97	9.530
295.34	10.627
295.71	9.710
296.08	10.724
296.44	9.559
296.81	9.257
297.18	9.465
297.55	9.552
297.91	9.371
298.28	8.886
298.65	9.750
299.02	9.563
299.38	10.412
299.75	10.280
300.12	9.491
300.48	10.138
300.85	10.236
301.22	10.962
301.59	10.616
301.95	9.605
302.32	10.556
302.69	9.858
303.05	10.664
303.42	9.978
303.79	11.042
304.15	10.095
304.52	9.725
304.89	9.424
305.25	9.834
305.62	10.240
305.99	9.691
306.35	10.484
306.72	11.479
307.09	9.949
307.45	10.352
307.82	10.293
308.19	11.100
308.55	11.572
308.92	10.224
309.29	10.824
309.65	11.306
310.02	11.287
310.38	11.614
310.75	11.262
311.12	12.848
311.48	12.023
311.85	11.301
312.22	11.480
312.58	11.831
312.95	12.141
313.31	13.731
313.68	13.278
314.05	13.369
314.41	14.299
314.78	13.987
315.14	14.973
315.51	15.143
315.87	15.392
316.24	16.530
316.61	17.229
316.97	16.199
317.34	17.549
317.70	17.904
318.07	18.078
318.43	18.282
318.80	20.067
319.16	20.858
319.53	18.423
319.89	19.544
320.26	21.975
320.62	19.770
320.99	21.422
321.35	22.921
321.72	22.698
322.08	23.715
322.45	24.390
322.81	26.173
323.18	25.664
323.54	26.379
323.91	28.292
324.27	27.625
324.64	28.296
325.00	29.104
325.37	30.549
325.73	30.661
326.10	32.279
326.46	34.121
326.83	34.508
327.19	34.252
327.56	35.573
327.92	33.753
328.29	36.129
328.65	35.930
329.01	36.633
329.38	38.922
329.74	38.784
330.11	40.068
330.47	39.680
330.84	40.310
331.20	39.667
331.56	41.161
331.93	42.762
332.29	41.864
332.66	42.110
333.02	42.965
333.38	41.359
333.75	43.182
334.11	42.452
334.48	43.812
334.84	44.690
335.20	44.081
335.57	44.266
335.93	45.124
336.29	42.928
336.66	44.996
337.02	43.980
337.38	44.048
337.75	44.050
338.11	44.491
338.47	44.996
338.84	44.755
339.20	44.650
339.56	44.399
339.93	44.089
340.29	44.283
340.65	46.148
341.02	45.172
341.38	46.726
341.74	43.987
342.11	45.535
342.47	44.400
342.83	45.411
343.20	46.280
343.56	46.431
343.92	45.236
344.28	46.172
344.65	45.891
345.01	48.128
345.37	45.723
345.73	45.596
346.10	46.958
346.46	46.282
346.82	46.891
347.19	45.455
347.55	46.813
347.91	45.765
348.27	46.586
348.63	46.002
349.00	47.278
349.36	45.874
349.72	45.461
350.08	46.657
350.45	48.441
350.81	47.210
351.17	46.316
351.53	48.673
351.89	47.304
352.26	48.507
352.62	47.463
352.98	47.099
353.34	47.349
353.70	48.459
354.07	46.796
354.43	48.368
354.79	46.148
355.15	47.609
355.51	48.611
355.87	48.542
356.24	48.441
356.60	47.672
356.96	49.222
357.32	48.773
357.68	47.657
358.04	48.653
358.40	49.030
358.77	49.342
359.13	48.671
359.49	50.632
359.85	49.239
360.21	48.565
360.57	49.318
360.93	49.224
361.29	48.702
361.66	49.457
362.02	51.357
362.38	50.246
362.74	49.791
363.10	49.381
363.46	49.861
363.82	50.000
364.18	49.331
364.54	50.415
364.90	49.833
365.26	51.586
365.62	50.933
365.98	49.898
366.35	49.195
366.71	49.320
367.07	50.744
367.43	50.295
367.79	51.493
368.15	52.107
368.51	50.203
368.87	49.118
369.23	50.667
369.59	51.776
369.95	51.521
370.31	52.059
370.67	51.376
371.03	51.039
371.39	50.907
371.75	51.926
372.11	51.965
372.47	50.305
372.83	51.505
373.19	50.434
373.55	50.610
373.91	52.556
374.27	49.935
374.63	52.706
374.99	51.592
375.35	52.143
375.71	52.129
376.07	51.130
376.42	52.078
376.78	50.590
377.14	50.967
377.50	52.309
377.86	51.786
378.22	53.653
378.58	52.616
378.94	52.171
379.30	51.611
379.66	51.675
380.02	51.645
380.38	53.168
380.74	52.958
381.09	52.265
381.45	51.875
381.81	52.986
382.17	52.969
382.53	52.047
382.89	51.693
383.25	52.872
383.61	52.720
383.97	51.885
384.32	54.486
384.68	51.450
385.04	52.921
385.40	52.740
385.76	53.693
386.12	51.287
386.48	53.412
386.83	53.576
387.19	51.854
387.55	52.876
387.91	53.710
388.27	51.443
388.62	51.947
388.98	51.833
389.34	53.565
389.70	52.876
390.06	51.983
390.42	51.867
390.77	52.860
391.13	52.523
391.49	53.200
391.85	52.970
392.20	53.084
392.56	52.156
392.92	52.017
393.28	53.344
393.64	51.285
393.99	52.818
394.35	52.570
394.71	52.395
395.07	51.796
395.42	51.685
395.78	52.773
396.14	52.288
396.50	51.663
396.85	51.461
397.21	52.012
397.57	51.355
397.92	52.291
398.28	50.353
398.64	51.316
399.00	51.047
399.35	51.832
399.71	50.598
400.07	51.207
400.42	50.873
400.78	51.852
401.14	51.508
401.49	51.279
401.85	51.977
402.21	52.897
402.57	52.171
402.92	50.709
403.28	50.585
403.63	51.671
403.99	51.128
404.35	50.995
404.70	51.671
405.06	50.000
405.42	50.527
405.77	50.654
406.13	50.945
406.49	51.070
406.84	50.970
407.20	50.978
407.55	51.605
407.91	50.911
408.27	49.352
408.62	51.193
408.98	49.739
409.34	49.912
409.69	50.927
410.05	49.883
410.40	51.102
410.76	50.028
411.11	49.737
411.47	50.430
411.83	50.206
412.18	51.145
412.54	49.911
412.89	50.000
413.25	50.339
413.60	49.167
413.96	50.524
414.31	48.442
414.67	49.434
415.03	49.477
415.38	51.198
415.74	48.870
416.09	48.735
416.45	48.403
416.80	48.592
417.16	50.000
417.51	49.377
417.87	49.479
418.22	49.880
418.58	49.938
418.93	49.418
419.29	49.507
419.64	49.640
420.00	49.080
420.35	49.523
420.71	47.674
421.06	49.051
421.42	49.427
421.77	48.196
422.12	49.101
422.48	48.643
422.83	49.233
423.19	48.382
423.54	49.447
423.90	48.316
424.25	48.533
424.61	48.852
424.96	48.051
425.31	49.788
425.67	47.665
426.02	49.419
426.38	47.819
426.73	48.103
427.09	50.923
427.44	48.170
427.79	48.646
428.15	48.174
428.50	48.034
428.85	48.163
429.21	48.457
429.56	49.112
429.92	47.273
430.27	48.964
430.62	48.657
430.98	48.697
431.33	48.045
431.68	47.701
432.04	48.349
432.39	49.384
432.74	48.459
433.10	49.216
433.45	48.328
433.80	48.712
434.16	48.295
434.51	49.486
434.86	49.349
435.22	48.512
435.57	49.646
435.92	48.470
436.28	48.862
436.63	49.153
436.98	48.256
437.34	49.211
437.69	48.982
438.04	48.440
438.39	48.363
438.75	48.091
439.10	49.894
439.45	48.966
439.81	48.757
440.16	47.024
440.51	49.108
440.86	47.582
441.22	49.143
441.57	49.004
441.92	48.885
442.27	49.495
442.63	48.535
442.98	48.559
443.33	48.238
443.68	50.248
444.03	49.341
444.39	48.729
444.74	48.392
445.09	47.592
445.44	48.736
445.79	49.138
446.15	48.047
446.50	47.390
446.85	48.444
447.20	48.453
447.55	48.379
447.91	48.220
448.26	46.829
448.61	47.556
448.96	49.785
449.31	48.197
449.66	47.495
450.02	47.838
450.37	47.682
450.72	47.470
451.07	48.462
451.42	47.371
451.77	46.804
452.12	47.743
452.47	47.712
452.83	48.142
453.18	47.402
453.53	47.501
453.88	46.218
454.23	47.910
454.58	47.824
454.93	48.058
455.28	47.923
455.63	46.276
455.98	48.101
456.34	46.702
456.69	46.620
457.04	48.641
457.39	47.949
457.74	47.763
458.09	47.282
458.44	47.468
458.79	46.364
459.14	46.093
459.49	47.085
459.84	47.219
460.19	46.086
460.54	48.154
460.89	47.168
461.24	45.805
461.59	48.257
461.94	46.149
462.29	47.872
462.64	45.926
462.99	46.077
463.34	46.593
463.69	45.838
464.04	46.526
464.39	46.805
464.74	45.325
465.09	46.251
465.44	45.762
465.79	45.955
466.14	45.180
466.49	45.737
466.84	46.501
467.19	45.549
467.54	44.653
467.89	44.540
468.24	45.097
468.59	44.239
468.94	44.056
469.29	44.211
469.64	44.056
469.99	44.359
470.34	44.369
470.68	44.976
471.03	45.252
471.38	46.501
471.73	44.278
472.08	45.812
472.43	43.287
472.78	46.222
473.13	45.196
473.48	44.532
473.83	44.980
474.17	43.787
474.52	44.799
474.87	43.743
475.22	44.563
475.57	43.718
475.92	43.106
476.27	44.196
476.61	44.237
476.96	43.848
477.31	43.564
477.66	43.547
478.01	42.552
478.36	43.220
478.70	43.744
479.05	43.916
479.40	43.287
479.75	43.564
480.10	43.202
480.45	43.573
480.79	42.993
481.14	42.096
481.49	42.844
481.84	42.994
482.19	42.882
482.53	42.326
482.88	43.155
483.23	43.753
483.58	42.402
483.92	41.578
484.27	42.295
484.62	41.254
484.97	42.224
485.31	41.112
485.66	40.400
486.01	40.074
486.36	41.237
486.70	42.357
487.05	42.334
487.40	41.885
487.75	41.527
488.09	41.336
488.44	40.629
488.79	41.079
489.13	41.021
489.48	40.738
489.83	40.362
490.17	40.219
490.52	39.819
490.87	40.609
491.22	41.334
491.56	40.102
491.91	40.078
492.26	40.069
492.60	41.189
492.95	40.676
493.30	40.341
493.64	40.254
493.99	40.439
494.34	40.026
494.68	39.786
495.03	40.088
495.37	39.458
495.72	39.501
496.07	40.622
496.41	39.683
496.76	40.284
497.11	39.788
497.45	39.361
497.80	38.516
498.14	39.955
498.49	39.108
498.84	39.488
499.18	38.282
499.53	39.865
499.87	39.341
500.22	38.646
500.56	38.417
500.91	39.268
501.26	39.682
501.60	39.152
501.95	39.036
502.29	37.955
502.64	38.741
502.98	37.877
503.33	37.495
503.67	37.636
504.02	38.004
504.36	38.427
504.71	38.493
505.06	37.335
505.40	37.888
505.75	38.342
506.09	38.306
506.44	38.765
506.78	38.028
507.13	37.713
507.47	37.755
507.82	36.979
508.16	36.138
508.51	36.709
508.85	37.270
509.19	37.755
509.54	37.368
509.88	37.591
510.23	37.640
510.57	37.506
510.92	36.817
511.26	36.556
511.61	36.939
511.95	36.018
512.30	37.765
512.64	35.982
512.98	36.418
513.33	36.694
513.67	36.308
514.02	36.331
514.36	36.522
514.70	36.979
515.05	37.122
515.39	35.748
515.74	36.585
516.08	35.763
516.42	36.368
516.77	35.962
517.11	35.534
517.46	36.426
517.80	36.772
518.14	36.616
518.49	35.575
518.83	35.072
519.17	35.487
519.52	34.906
519.86	35.164
520.20	34.931
520.55	33.844
520.89	34.854
521.23	35.678
521.58	35.763
521.92	35.864
522.26	35.109
522.61	35.359
522.95	35.236
523.29	35.230
523.64	34.081
523.98	34.626
524.32	35.301
524.66	35.743
525.01	34.202
525.35	33.831
525.69	33.527
526.04	33.467
526.38	34.425
526.72	34.083
527.06	34.018
527.41	33.061
527.75	34.857
528.09	33.530
528.43	33.570
528.78	33.699
529.12	32.454
529.46	32.996
529.80	33.181
530.15	33.101
530.49	33.274
530.83	33.589
531.17	32.198
531.51	33.514
531.86	33.173
532.20	34.146
532.54	32.914
532.88	34.061
533.22	33.883
533.57	32.891
533.91	32.211
534.25	33.070
534.59	32.586
534.93	31.353
535.27	32.394
535.62	32.803
535.96	32.016
536.30	31.727
536.64	32.973
536.98	33.641
537.32	31.605
537.66	32.626
538.01	32.145
538.35	32.582
538.69	32.692
539.03	32.434
539.37	31.154
539.71	31.832
540.05	30.995
540.39	31.846
540.73	30.783
541.07	31.392
541.42	31.187
541.76	30.842
542.10	31.906
542.44	30.816
542.78	30.779
543.12	30.751
543.46	31.624
543.80	30.336
544.14	31.239
544.48	30.733
544.82	31.299
545.16	32.021
545.50	30.377
545.84	30.741
546.18	31.852
546.52	30.573
546.86	30.818
547.20	30.598
547.54	29.775
547.88	29.656
548.22	29.591
548.56	30.193
548.90	30.030
549.24	31.003
549.58	30.284
549.92	29.464
550.26	29.709
550.60	30.440
550.94	30.466
551.28	30.033
551.62	31.402
551.96	29.838
552.30	29.063
552.64	28.874
552.98	29.382
553.32	30.032
553.66	29.003
554.00	29.887
554.34	29.794
554.68	28.986
555.02	28.581
555.36	29.652
555.69	28.507
556.03	28.184
556.37	29.161
556.71	28.725
557.05	29.585
557.39	28.534
557.73	28.732
558.07	28.609
558.41	29.037
558.75	29.006
559.08	29.436
559.42	27.915
559.76	28.494
560.10	28.734
560.44	28.958
560.78	28.188
561.12	27.956
561.45	28.650
561.79	28.327
562.13	28.343
562.47	28.237
562.81	27.658
563.15	27.967
563.48	27.843
563.82	27.570
564.16	27.741
564.50	27.712
564.84	27.257
565.17	27.824
565.51	27.560
565.85	28.444
566.19	27.074
566.52	28.262
566.86	27.391
567.20	26.645
567.54	27.244
567.88	27.370
568.21	27.816
568.55	27.818
568.89	27.780
569.23	26.700
569.56	27.237
569.90	26.942
570.24	27.150
570.57	26.780
570.91	26.485
571.25	26.699
571.59	26.078
571.92	26.119
572.26	26.231
572.60	26.017
572.93	26.357
573.27	26.524
573.61	26.972
573.95	26.099
574.28	26.419
574.62	26.148
574.96	25.187
575.29	25.270
575.63	25.410
575.97	25.557
576.30	25.734
576.64	25.817
576.98	25.148
577.31	25.537
577.65	25.980
577.98	25.640
578.32	25.299
578.66	25.179
578.99	25.312
579.33	25.500
579.67	25.544
580.00	25.287
580.34	25.371
580.67	24.735
581.01	25.400
581.35	24.937
581.68	25.217
582.02	25.277
582.35	25.469
582.69	25.180
583.02	25.135
583.36	25.262
583.70	24.653
584.03	25.054
584.37	24.932
584.70	24.548
585.04	24.134
585.37	24.658
585.71	24.401
586.04	24.395
586.38	24.420
586.72	24.618
587.05	24.098
587.39	24.582
587.72	25.000
588.06	24.758
588.39	24.595
588.73	24.074
589.06	24.097
589.40	24.892
589.73	24.550
590.07	24.768
590.40	24.679
590.73	24.143
591.07	25.354
591.40	24.417
591.74	24.483
592.07	25.254
592.41	23.935
592.74	23.784
593.08	24.841
593.41	24.614
593.75	23.994
594.08	23.872
594.41	24.167
594.75	23.846
595.08	23.822
595.42	23.896
595.75	24.282
596.09	23.721
596.42	24.257
596.75	23.775
597.09	24.242
597.42	23.242
597.75	23.324
598.09	24.048
598.42	24.085
598.76	22.851
599.09	23.282
599.42	23.399
599.76	22.945
600.09	23.857
600.42	23.524
600.76	22.919
601.09	23.133
601.42	23.378
601.76	23.138
602.09	23.195
602.42	23.010
602.76	22.841
603.09	23.605
603.42	23.952
603.76	22.868
604.09	23.208
604.42	23.633
604.76	22.755
605.09	22.617
605.42	23.604
605.75	22.731
606.09	23.367
606.42	22.619
606.75	22.826
607.09	22.158
607.42	22.659
607.75	22.978
608.08	22.849
608.42	22.289
608.75	22.595
609.08	22.453
609.41	23.158
609.75	22.589
610.08	23.087
610.41	22.770
610.74	22.311
611.07	22.558
611.41	22.466
611.74	22.771
612.07	23.282
612.40	22.766
612.73	22.494
613.07	22.396
613.40	23.436
613.73	22.918
614.06	22.080
614.39	21.963
614.72	21.834
615.06	21.800
615.39	22.233
615.72	22.370
616.05	22.341
616.38	22.452
616.71	21.944
617.05	22.204
617.38	22.311
617.71	22.138
618.04	22.234
618.37	22.350
618.70	22.455
619.03	22.103
619.36	21.887
619.69	21.973
620.03	22.348
620.36	21.350
620.69	22.023
621.02	22.441
621.35	23.004
621.68	22.560
622.01	22.776
622.34	21.897
622.67	20.962
623.00	20.580
623.33	22.628
623.66	21.595
623.99	20.869
624.32	21.702
624.65	20.978
624.99	21.586
625.32	21.685
625.65	22.185
625.98	20.881
626.31	20.695
626.64	22.491
626.97	21.305
627.30	20.729
627.63	21.155
627.96	21.922
628.29	21.401
628.62	20.067
628.95	21.560
629.28	22.430
629.61	20.791
629.94	21.172
630.26	19.915
630.59	20.812
630.92	20.952
631.25	22.004
631.58	21.469
631.91	22.306
632.24	20.749
632.57	22.391
632.90	21.063
633.23	22.143
633.56	22.347
