SpectraSuite Data File
++++++++++++++++++++++++++++++++++++
Date: Thu May 14 16:10:33 PDT 2015
User: schluterlab
Dark Spectrum Present: Yes
Reference Spectrum Present: Yes
Number of Sampled Component Spectra: 1
Spectrometers: USB2E3373
Integration Time (usec): 3000 (USB2E3373)
Spectra Averaged: 3 (USB2E3373)
Boxcar Smoothing: 0 (USB2E3373)
Correct for Electrical Dark: No (USB2E3373)
Strobe/Lamp Enabled: No (USB2E3373)
Correct for Detector Non-linearity: No (USB2E3373)
Correct for Stray Light: No (USB2E3373)
Number of Pixels in Processed Spectrum: 2048
>>>>>Begin Processed Spectral Data<<<<<
178.53	0.000
178.91	285.714
179.29	-1600.000
179.67	-1200.000
180.04	121.429
180.42	80.000
180.80	320.000
181.18	-800.000
181.56	-1000.000
181.94	325.000
182.31	-75.000
182.69	466.667
183.07	-450.000
183.45	200.000
183.83	-100.000
184.20	-566.667
184.58	1100.000
184.96	-350.000
185.34	-155.556
185.72	-360.000
186.09	288.889
186.47	650.000
186.85	480.000
187.23	-244.444
187.61	-1100.000
187.98	260.000
188.36	325.000
188.74	-275.000
189.12	-333.333
189.49	50.000
189.87	-100.000
190.25	-88.889
190.63	-220.000
191.00	-211.111
191.38	0.000
191.76	-175.000
192.14	-116.667
192.51	750.000
192.89	-33.333
193.27	0.000
193.65	-114.286
194.02	-1700.000
194.40	-171.429
194.78	128.571
195.15	0.000
195.53	-36.364
195.91	0.000
196.29	125.000
196.66	-23.077
197.04	-1700.000
197.42	-257.143
197.79	-50.000
198.17	-87.500
198.55	-71.429
198.92	-55.556
199.30	-262.500
199.68	45.455
200.05	-21.429
200.43	-500.000
200.81	285.714
201.18	0.000
201.56	188.889
201.94	0.000
202.31	533.333
202.69	-200.000
203.07	1000.000
203.44	-111.111
203.82	-275.000
204.19	8.333
204.57	-200.000
204.95	-100.000
205.32	-500.000
205.70	-200.000
206.08	-183.333
206.45	-50.000
206.83	260.000
207.20	83.333
207.58	-440.000
207.96	-233.333
208.33	-233.333
208.71	108.333
209.08	0.000
209.46	0.000
209.84	150.000
210.21	650.000
210.59	400.000
210.96	666.667
211.34	-300.000
211.71	-212.500
212.09	-1300.000
212.46	0.000
212.84	1150.000
213.22	-360.000
213.59	-250.000
213.97	-20.000
214.34	-466.667
214.72	233.333
215.09	-175.000
215.47	0.000
215.84	57.143
216.22	1150.000
216.59	-280.000
216.97	-120.000
217.34	-75.000
217.72	37.500
218.09	-450.000
218.47	-550.000
218.84	0.000
219.22	120.000
219.59	-105.882
219.97	-50.000
220.34	650.000
220.72	-33.333
221.09	23.077
221.47	-133.333
221.84	-70.000
222.22	-228.571
222.59	0.000
222.97	-25.000
223.34	-240.000
223.72	-900.000
224.09	-150.000
224.46	-150.000
224.84	0.000
225.21	-142.857
225.59	-350.000
225.96	-250.000
226.34	-11.538
226.71	266.667
227.08	-550.000
227.46	-60.000
227.83	-150.000
228.21	-36.842
228.58	100.000
228.95	450.000
229.33	0.000
229.70	-90.000
230.08	-5.263
230.45	130.000
230.82	-133.333
231.20	-21.429
231.57	-83.333
231.95	-72.727
232.32	-54.545
232.69	0.000
233.07	-225.000
233.44	5.882
233.81	-120.000
234.19	-33.333
234.56	-22.727
234.93	3.448
235.31	-63.158
235.68	0.000
236.05	-65.000
236.43	26.923
236.80	32.000
237.17	3.704
237.55	-12.121
237.92	-130.000
238.29	-35.484
238.67	-18.182
239.04	-36.111
239.41	-7.143
239.79	10.870
240.16	-12.963
240.53	-10.870
240.91	-29.412
241.28	-6.557
241.65	5.970
242.02	-1.351
242.40	-15.385
242.77	-4.000
243.14	-6.098
243.51	-14.474
243.89	-2.564
244.26	2.970
244.63	13.725
245.00	7.477
245.38	0.877
245.75	-15.044
246.12	11.905
246.49	1.550
246.87	1.429
247.24	0.662
247.61	6.579
247.98	6.040
248.36	3.704
248.73	-3.067
249.10	6.011
249.47	8.458
249.84	14.136
250.22	8.290
250.59	3.889
250.96	7.727
251.33	1.020
251.70	10.684
252.08	5.000
252.45	5.328
252.82	3.719
253.19	7.812
253.56	6.844
253.94	1.923
254.31	8.712
254.68	8.042
255.05	10.098
255.42	6.122
255.79	5.825
256.16	8.609
256.54	1.656
256.91	6.885
257.28	8.525
257.65	7.006
258.02	4.130
258.39	9.402
258.76	10.398
259.14	9.195
259.51	6.340
259.88	6.232
260.25	7.500
260.62	7.945
260.99	9.016
261.36	8.579
261.73	5.040
262.10	5.495
262.47	6.166
262.85	10.606
263.22	7.532
263.59	6.053
263.96	6.905
264.33	6.905
264.70	10.123
265.07	10.263
265.44	8.390
265.81	5.093
266.18	10.431
266.55	8.482
266.92	5.695
267.29	9.847
267.66	8.426
268.03	9.825
268.40	7.516
268.77	5.695
269.14	3.965
269.51	8.553
269.88	7.172
270.25	9.054
270.62	8.650
270.99	8.081
271.36	8.911
271.73	7.662
272.10	10.220
272.47	6.413
272.84	8.835
273.21	8.216
273.58	6.452
273.95	5.769
274.32	7.795
274.69	4.836
275.06	8.242
275.43	5.545
275.80	9.171
276.17	6.852
276.54	6.903
276.91	8.229
277.28	6.329
277.65	8.079
278.02	9.559
278.39	8.333
278.76	8.084
279.13	9.220
279.50	7.216
279.87	8.945
280.23	4.930
280.60	8.475
280.97	7.566
281.34	6.621
281.71	8.122
282.08	7.807
282.45	7.692
282.82	6.907
283.19	4.362
283.56	7.705
283.92	9.459
284.29	11.058
284.66	9.852
285.03	4.647
285.40	6.491
285.77	6.811
286.14	9.008
286.51	8.219
286.87	8.689
287.24	8.434
287.61	6.428
287.98	6.949
288.35	8.580
288.72	8.284
289.08	8.199
289.45	5.621
289.82	7.229
290.19	6.178
290.56	9.296
290.93	6.705
291.29	7.851
291.66	7.851
292.03	7.056
292.40	8.707
292.77	6.739
293.13	7.848
293.50	5.388
293.87	6.443
294.24	7.333
294.60	6.321
294.97	5.638
295.34	8.323
295.71	5.801
296.08	6.202
296.44	5.392
296.81	6.821
297.18	5.479
297.55	5.660
297.91	6.050
298.28	5.095
298.65	5.232
299.02	5.077
299.38	8.124
299.75	5.958
300.12	6.597
300.48	6.336
300.85	5.624
301.22	6.152
301.59	5.365
301.95	5.650
302.32	6.222
302.69	5.367
303.05	6.964
303.42	5.654
303.79	6.979
304.15	5.152
304.52	6.554
304.89	5.759
305.25	5.694
305.62	6.792
305.99	4.948
306.35	6.149
306.72	6.205
307.09	5.482
307.45	5.383
307.82	5.752
308.19	6.559
308.55	6.847
308.92	6.232
309.29	6.705
309.65	5.263
310.02	5.743
310.38	5.807
310.75	5.728
311.12	6.136
311.48	4.203
311.85	5.793
312.22	6.452
312.58	6.948
312.95	5.832
313.31	5.872
313.68	7.234
314.05	7.859
314.41	7.468
314.78	6.994
315.14	7.260
315.51	8.126
315.87	8.011
316.24	7.580
316.61	8.348
316.97	7.149
317.34	7.407
317.70	8.122
318.07	9.347
318.43	9.779
318.80	9.783
319.16	10.129
319.53	9.083
319.89	9.465
320.26	10.676
320.62	9.752
320.99	10.342
321.35	11.275
321.72	12.837
322.08	11.001
322.45	11.563
322.81	11.643
323.18	12.743
323.54	12.586
323.91	13.523
324.27	12.995
324.64	13.770
325.00	12.521
325.37	14.824
325.73	15.289
326.10	15.247
326.46	15.065
326.83	16.894
327.19	16.220
327.56	17.312
327.92	16.837
328.29	16.532
328.65	17.002
329.01	16.667
329.38	16.765
329.74	17.380
330.11	18.493
330.47	17.270
330.84	18.691
331.20	19.333
331.56	18.024
331.93	18.494
332.29	18.390
332.66	18.439
333.02	19.598
333.38	18.792
333.75	18.182
334.11	18.682
334.48	19.554
334.84	20.221
335.20	19.060
335.57	18.971
335.93	18.099
336.29	18.968
336.66	19.092
337.02	20.652
337.38	18.963
337.75	20.083
338.11	19.260
338.47	19.189
338.84	19.459
339.20	19.208
339.56	20.264
339.93	19.787
340.29	19.163
340.65	19.789
341.02	18.915
341.38	21.504
341.74	19.451
342.11	18.986
342.47	19.698
342.83	21.256
343.20	20.687
343.56	19.567
343.92	19.856
344.28	21.250
344.65	21.550
345.01	19.501
345.37	20.218
345.73	19.953
346.10	19.813
346.46	18.908
346.82	19.925
347.19	20.015
347.55	19.423
347.91	19.688
348.27	19.044
348.63	20.183
349.00	20.507
349.36	21.636
349.72	19.866
350.08	20.728
350.45	19.924
350.81	19.306
351.17	20.226
351.53	19.939
351.89	21.488
352.26	20.672
352.62	20.522
352.98	20.916
353.34	19.791
353.70	21.109
354.07	20.194
354.43	20.121
354.79	19.970
355.15	20.898
355.51	21.272
355.87	19.895
356.24	21.065
356.60	20.251
356.96	21.794
357.32	20.892
357.68	21.376
358.04	20.434
358.40	21.493
358.77	21.857
359.13	21.123
359.49	20.892
359.85	22.480
360.21	22.238
360.57	21.752
360.93	21.298
361.29	21.684
361.66	22.375
362.02	22.756
362.38	21.785
362.74	21.788
363.10	23.384
363.46	22.715
363.82	21.449
364.18	22.730
364.54	22.683
364.90	22.943
365.26	22.552
365.62	22.000
365.98	22.532
366.35	22.819
366.71	24.422
367.07	24.087
367.43	23.309
367.79	24.154
368.15	23.144
368.51	24.493
368.87	23.318
369.23	23.600
369.59	24.590
369.95	23.327
370.31	23.903
370.67	24.072
371.03	23.892
371.39	23.237
371.75	24.897
372.11	23.509
372.47	24.983
372.83	24.935
373.19	24.216
373.55	25.474
373.91	24.813
374.27	25.809
374.63	25.034
374.99	25.862
375.35	25.909
375.71	25.677
376.07	25.629
376.42	26.637
376.78	26.352
377.14	26.076
377.50	27.767
377.86	26.970
378.22	26.347
378.58	26.694
378.94	27.817
379.30	27.065
379.66	26.925
380.02	27.986
380.38	28.917
380.74	28.056
381.09	28.630
381.45	28.466
381.81	28.630
382.17	28.266
382.53	28.655
382.89	28.499
383.25	29.719
383.61	29.340
383.97	29.211
384.32	30.801
384.68	29.408
385.04	30.596
385.40	31.055
385.76	31.125
386.12	30.281
386.48	30.824
386.83	30.632
387.19	30.881
387.55	30.986
387.91	31.849
388.27	31.178
388.62	31.271
388.98	30.964
389.34	32.705
389.70	32.423
390.06	31.676
390.42	30.843
390.77	32.270
391.13	32.394
391.49	33.031
391.85	32.667
392.20	33.155
392.56	32.900
392.92	32.988
393.28	33.554
393.64	33.184
393.99	33.236
394.35	34.755
394.71	34.671
395.07	33.293
395.42	33.866
395.78	35.405
396.14	35.116
396.50	34.501
396.85	34.287
397.21	33.669
397.57	34.865
397.92	34.994
398.28	35.144
398.64	35.183
399.00	35.445
399.35	35.026
399.71	35.326
400.07	36.552
400.42	35.215
400.78	35.764
401.14	36.824
401.49	35.816
401.85	36.628
402.21	36.964
402.57	36.854
402.92	36.939
403.28	36.768
403.63	36.038
403.99	36.580
404.35	36.441
404.70	36.374
405.06	37.120
405.42	36.183
405.77	37.459
406.13	37.385
406.49	38.626
406.84	37.396
407.20	38.010
407.55	37.795
407.91	37.712
408.27	37.809
408.62	38.453
408.98	38.073
409.34	37.595
409.69	38.937
410.05	39.449
410.40	39.385
410.76	39.372
411.11	38.925
411.47	39.066
411.83	39.212
412.18	39.819
412.54	39.004
412.89	39.173
413.25	38.939
413.60	38.541
413.96	39.336
414.31	38.924
414.67	39.356
415.03	38.954
415.38	41.047
415.74	40.623
416.09	39.605
416.45	40.764
416.80	39.412
417.16	40.421
417.51	40.286
417.87	40.159
418.22	40.419
418.58	40.582
418.93	40.570
419.29	40.321
419.64	40.336
420.00	40.712
420.35	39.304
420.71	40.896
421.06	38.930
421.42	41.456
421.77	39.580
422.12	40.645
422.48	40.502
422.83	41.731
423.19	41.061
423.54	42.367
423.90	40.917
424.25	40.693
424.61	41.504
424.96	41.790
425.31	42.038
425.67	41.331
426.02	41.173
426.38	42.021
426.73	40.904
427.09	42.099
427.44	42.163
427.79	42.289
428.15	41.210
428.50	40.843
428.85	40.758
429.21	41.436
429.56	40.819
429.92	41.425
430.27	41.976
430.62	41.622
430.98	41.515
431.33	41.398
431.68	41.954
432.04	41.392
432.39	41.778
432.74	41.381
433.10	42.347
433.45	41.583
433.80	41.363
434.16	41.632
434.51	42.446
434.86	42.671
435.22	42.667
435.57	42.925
435.92	42.404
436.28	43.515
436.63	42.381
436.98	40.955
437.34	42.052
437.69	42.433
438.04	42.729
438.39	42.275
438.75	41.063
439.10	42.812
439.45	41.196
439.81	41.751
440.16	41.072
440.51	42.085
440.86	40.634
441.22	41.908
441.57	41.719
441.92	42.726
442.27	41.717
442.63	42.077
442.98	42.956
443.33	41.820
443.68	42.170
444.03	43.180
444.39	42.950
444.74	42.573
445.09	42.321
445.44	42.308
445.79	42.816
446.15	42.446
446.50	42.532
446.85	41.732
447.20	42.408
447.55	43.201
447.91	41.309
448.26	42.389
448.61	41.870
448.96	42.758
449.31	41.410
449.66	42.102
450.02	41.878
450.37	42.461
450.72	42.250
451.07	42.141
451.42	42.172
451.77	41.801
452.12	41.591
452.47	40.761
452.83	42.736
453.18	40.806
453.53	41.356
453.88	41.745
454.23	41.921
454.58	41.555
454.93	41.748
455.28	42.143
455.63	40.762
455.98	42.291
456.34	42.344
456.69	40.976
457.04	41.489
457.39	40.521
457.74	42.394
458.09	41.021
458.44	40.894
458.79	41.052
459.14	40.640
459.49	41.653
459.84	41.553
460.19	40.255
460.54	40.772
460.89	40.603
461.24	40.805
461.59	41.339
461.94	39.760
462.29	40.873
462.64	40.374
462.99	40.490
463.34	39.390
463.69	40.328
464.04	39.744
464.39	40.191
464.74	39.624
465.09	40.254
465.44	40.021
465.79	39.873
466.14	39.291
466.49	40.421
466.84	40.165
467.19	40.000
467.54	39.130
467.89	38.448
468.24	39.003
468.59	38.159
468.94	39.044
469.29	38.572
469.64	38.589
469.99	38.623
470.34	38.861
470.68	39.850
471.03	39.358
471.38	37.999
471.73	38.817
472.08	39.150
472.43	38.651
472.78	38.728
473.13	39.381
473.48	37.704
473.83	39.814
474.17	38.159
474.52	39.808
474.87	38.151
475.22	38.366
475.57	37.020
475.92	38.477
476.27	38.179
476.61	38.318
476.96	37.643
477.31	38.218
477.66	38.877
478.01	37.316
478.36	37.537
478.70	38.768
479.05	38.139
479.40	38.203
479.75	37.512
480.10	37.044
480.45	36.964
480.79	37.415
481.14	36.765
481.49	36.756
481.84	36.728
482.19	37.591
482.53	37.473
482.88	36.730
483.23	36.372
483.58	35.328
483.92	36.348
484.27	35.182
484.62	35.767
484.97	35.809
485.31	35.304
485.66	33.837
486.01	33.500
486.36	34.456
486.70	35.292
487.05	35.539
487.40	35.152
487.75	34.835
488.09	34.883
488.44	34.032
488.79	34.233
489.13	34.830
489.48	34.252
489.83	34.125
490.17	34.062
490.52	33.908
490.87	34.433
491.22	34.575
491.56	34.428
491.91	34.017
492.26	34.531
492.60	33.319
492.95	34.401
493.30	34.693
493.64	33.596
493.99	33.465
494.34	33.449
494.68	32.934
495.03	33.084
495.37	32.712
495.72	33.016
496.07	33.085
496.41	33.162
496.76	33.695
497.11	32.824
497.45	33.319
497.80	33.807
498.14	32.200
498.49	32.077
498.84	32.770
499.18	32.659
499.53	31.749
499.87	32.308
500.22	32.458
500.56	31.984
500.91	32.265
501.26	32.136
501.60	31.728
501.95	32.349
502.29	31.724
502.64	31.920
502.98	30.889
503.33	31.058
503.67	30.702
504.02	31.261
504.36	31.367
504.71	31.741
505.06	30.969
505.40	30.896
505.75	31.375
506.09	30.617
506.44	30.919
506.78	30.229
507.13	30.429
507.47	31.123
507.82	30.492
508.16	30.067
508.51	29.677
508.85	29.948
509.19	29.986
509.54	30.019
509.88	30.986
510.23	30.549
510.57	30.739
510.92	30.576
511.26	28.908
511.61	28.537
511.95	29.527
512.30	29.739
512.64	28.486
512.98	29.715
513.33	28.831
513.67	29.424
514.02	29.484
514.36	28.696
514.70	29.740
515.05	29.927
515.39	28.766
515.74	30.064
516.08	28.790
516.42	29.304
516.77	29.075
517.11	28.417
517.46	28.155
517.80	29.610
518.14	29.053
518.49	29.230
518.83	28.366
519.17	27.841
519.52	28.721
519.86	28.458
520.20	28.381
520.55	28.478
520.89	28.885
521.23	28.029
521.58	27.797
521.92	28.442
522.26	26.919
522.61	28.125
522.95	28.028
523.29	28.046
523.64	27.522
523.98	28.465
524.32	28.481
524.66	27.718
525.01	26.387
525.35	27.341
525.69	26.856
526.04	26.579
526.38	27.759
526.72	27.451
527.06	26.979
527.41	27.055
527.75	27.850
528.09	27.037
528.43	25.696
528.78	26.185
529.12	26.606
529.46	26.532
529.80	26.602
530.15	26.841
530.49	26.335
530.83	26.151
531.17	26.045
531.51	25.812
531.86	26.382
532.20	25.793
532.54	25.793
532.88	26.545
533.22	25.280
533.57	25.967
533.91	25.477
534.25	25.551
534.59	25.632
534.93	25.467
535.27	25.746
535.62	25.469
535.96	25.741
536.30	24.559
536.64	25.946
536.98	26.015
537.32	25.494
537.66	25.577
538.01	24.773
538.35	25.091
538.69	25.060
539.03	25.015
539.37	24.971
539.71	24.865
540.05	25.060
540.39	24.572
540.73	24.044
541.07	24.218
541.42	23.213
541.76	23.725
542.10	24.065
542.44	23.508
542.78	23.723
543.12	23.838
543.46	23.504
543.80	23.441
544.14	24.057
544.48	24.232
544.82	23.878
545.16	24.448
545.50	23.547
545.84	22.964
546.18	23.333
546.52	22.739
546.86	23.899
547.20	23.346
547.54	23.283
547.88	22.845
548.22	22.047
548.56	22.703
548.90	22.627
549.24	22.918
549.58	22.082
549.92	22.321
550.26	24.142
550.60	22.846
550.94	22.833
551.28	22.706
551.62	22.978
551.96	21.489
552.30	23.327
552.64	22.651
552.98	23.144
553.32	21.994
553.66	22.251
554.00	22.005
554.34	22.008
554.68	22.014
555.02	22.339
555.36	21.499
555.69	21.845
556.03	22.383
556.37	21.965
556.71	21.560
557.05	21.342
557.39	20.372
557.73	21.664
558.07	20.927
558.41	21.063
558.75	21.907
559.08	21.851
559.42	21.056
559.76	21.506
560.10	21.299
560.44	20.976
560.78	21.312
561.12	21.244
561.45	20.742
561.79	21.306
562.13	21.134
562.47	19.729
562.81	20.443
563.15	20.833
563.48	20.883
563.82	20.254
564.16	20.715
564.50	20.024
564.84	20.354
565.17	20.471
565.51	20.253
565.85	20.309
566.19	19.988
566.52	20.772
566.86	20.487
567.20	19.848
567.54	19.649
567.88	19.623
568.21	19.862
568.55	20.096
568.89	19.473
569.23	19.392
569.56	19.187
569.90	19.244
570.24	19.123
570.57	19.147
570.91	18.677
571.25	19.236
571.59	18.981
571.92	18.550
572.26	18.290
572.60	18.810
572.93	19.065
573.27	18.657
573.61	18.740
573.95	18.354
574.28	18.103
574.62	18.236
574.96	17.887
575.29	17.955
575.63	18.596
575.97	18.132
576.30	18.159
576.64	18.086
576.98	18.041
577.31	18.090
577.65	18.386
577.98	18.110
578.32	17.669
578.66	17.980
578.99	17.940
579.33	17.719
579.67	17.928
580.00	17.375
580.34	17.627
580.67	17.564
581.01	17.114
581.35	17.553
581.68	17.143
582.02	17.378
582.35	17.412
582.69	17.568
583.02	17.399
583.36	17.909
583.70	17.246
584.03	17.159
584.37	17.477
584.70	17.531
585.04	17.019
585.37	17.212
585.71	17.152
586.04	16.931
586.38	17.177
586.72	16.922
587.05	16.859
587.39	17.302
587.72	17.105
588.06	16.707
588.39	16.878
588.73	16.693
589.06	17.212
589.40	16.533
589.73	17.577
590.07	16.976
590.40	17.343
590.73	17.144
591.07	17.051
591.40	16.446
591.74	16.971
592.07	17.621
592.41	16.562
592.74	16.862
593.08	17.166
593.41	16.710
593.75	16.437
594.08	16.722
594.41	16.859
594.75	16.440
595.08	16.454
595.42	16.591
595.75	16.532
596.09	16.571
596.42	16.661
596.75	17.098
597.09	17.293
597.42	16.408
597.75	16.503
598.09	16.349
598.42	16.848
598.76	16.125
599.09	15.913
599.42	16.259
599.76	15.814
600.09	16.149
600.42	16.116
600.76	16.182
601.09	15.798
601.42	15.997
601.76	16.241
602.09	16.476
602.42	16.176
602.76	16.162
603.09	15.932
603.42	15.824
603.76	15.610
604.09	16.678
604.42	15.817
604.76	15.791
605.09	16.354
605.42	16.029
605.75	15.538
606.09	16.349
606.42	15.615
606.75	15.255
607.09	15.361
607.42	15.877
607.75	15.240
608.08	15.588
608.42	14.833
608.75	15.796
609.08	15.195
609.41	15.792
609.75	15.223
610.08	15.831
610.41	16.228
610.74	15.756
611.07	15.542
611.41	16.233
611.74	15.889
612.07	15.708
612.40	15.352
612.73	15.941
613.07	15.599
613.40	15.784
613.73	15.792
614.06	15.996
614.39	16.035
614.72	15.235
615.06	15.496
615.39	14.596
615.72	15.498
616.05	14.910
616.38	15.388
616.71	15.047
617.05	15.069
617.38	16.319
617.71	15.767
618.04	15.111
618.37	15.738
618.70	15.781
619.03	15.173
619.36	16.461
619.69	15.887
620.03	14.564
620.36	15.215
620.69	15.052
621.02	16.207
621.35	15.893
621.68	16.341
622.01	16.940
622.34	15.132
622.67	14.433
623.00	15.182
623.33	16.324
623.66	16.342
623.99	14.352
624.32	16.504
624.65	14.414
624.99	15.865
625.32	16.786
625.65	15.846
625.98	14.169
626.31	15.450
626.64	15.531
626.97	15.679
627.30	14.655
627.63	14.854
627.96	15.390
628.29	15.642
628.62	15.533
628.95	16.126
629.28	15.463
629.61	15.488
629.94	14.644
630.26	15.593
630.59	13.472
630.92	15.152
631.25	16.011
631.58	16.102
631.91	14.808
632.24	14.601
632.57	14.326
632.90	15.145
633.23	15.102
633.56	14.490
633.89	15.496
634.22	16.008
634.55	15.031
634.88	14.827
635.20	16.792
635.53	15.480
635.86	14.626
636.19	15.376
636.52	14.768
