SpectraSuite Data File
++++++++++++++++++++++++++++++++++++
Date: Thu May 14 16:21:18 PDT 2015
User: schluterlab
Dark Spectrum Present: Yes
Reference Spectrum Present: Yes
Number of Sampled Component Spectra: 1
Spectrometers: USB2E3373
Integration Time (usec): 3000 (USB2E3373)
Spectra Averaged: 3 (USB2E3373)
Boxcar Smoothing: 0 (USB2E3373)
Correct for Electrical Dark: No (USB2E3373)
Strobe/Lamp Enabled: No (USB2E3373)
Correct for Detector Non-linearity: No (USB2E3373)
Correct for Stray Light: No (USB2E3373)
Number of Pixels in Processed Spectrum: 2048
>>>>>Begin Processed Spectral Data<<<<<
178.53	0.000
178.91	128.571
179.29	-1900.000
179.67	-700.000
180.04	142.857
180.42	30.000
180.80	420.000
181.18	-1400.000
181.56	-100.000
181.94	50.000
182.31	-50.000
182.69	-266.667
183.07	-350.000
183.45	175.000
183.83	16.667
184.20	-100.000
184.58	300.000
184.96	-175.000
185.34	77.778
185.72	80.000
186.09	122.222
186.47	400.000
186.85	220.000
187.23	-122.222
187.61	-900.000
187.98	180.000
188.36	300.000
188.74	-50.000
189.12	-33.333
189.49	31.250
189.87	-112.500
190.25	-44.444
190.63	-20.000
191.00	-144.444
191.38	0.000
191.76	-350.000
192.14	-50.000
192.51	550.000
192.89	-66.667
193.27	0.000
193.65	-57.143
194.02	-1800.000
194.40	-114.286
194.78	114.286
195.15	0.000
195.53	-36.364
195.91	0.000
196.29	-125.000
196.66	-30.769
197.04	-1400.000
197.42	-14.286
197.79	-450.000
198.17	-237.500
198.55	-85.714
198.92	-11.111
199.30	-137.500
199.68	-36.364
200.05	14.286
200.43	-50.000
200.81	114.286
201.18	0.000
201.56	233.333
201.94	0.000
202.31	300.000
202.69	-55.556
203.07	-300.000
203.44	33.333
203.82	-75.000
204.19	8.333
204.57	-66.667
204.95	-137.500
205.32	-1200.000
205.70	250.000
206.08	-216.667
206.45	-150.000
206.83	340.000
207.20	16.667
207.58	-300.000
207.96	-150.000
208.33	-16.667
208.71	100.000
209.08	-50.000
209.46	0.000
209.84	83.333
210.21	500.000
210.59	650.000
210.96	600.000
211.34	-125.000
211.71	-100.000
212.09	-1200.000
212.46	0.000
212.84	850.000
213.22	-240.000
213.59	-300.000
213.97	-40.000
214.34	33.333
214.72	166.667
215.09	-375.000
215.47	0.000
215.84	128.571
216.22	600.000
216.59	0.000
216.97	-80.000
217.34	75.000
217.72	-87.500
218.09	-425.000
218.47	-425.000
218.84	0.000
219.22	240.000
219.59	-5.882
219.97	-5.000
220.34	450.000
220.72	-66.667
221.09	38.462
221.47	-166.667
221.84	0.000
222.22	-157.143
222.59	0.000
222.97	-100.000
223.34	-220.000
223.72	-1000.000
224.09	-150.000
224.46	-100.000
224.84	-140.000
225.21	-42.857
225.59	-100.000
225.96	-150.000
226.34	15.385
226.71	316.667
227.08	-450.000
227.46	13.333
227.83	-100.000
228.21	5.263
228.58	-75.000
228.95	650.000
229.33	-16.667
229.70	0.000
230.08	63.158
230.45	190.000
230.82	33.333
231.20	-7.143
231.57	-58.333
231.95	-127.273
232.32	18.182
232.69	-40.000
233.07	-375.000
233.44	-11.765
233.81	-100.000
234.19	33.333
234.56	-45.455
234.93	13.793
235.31	-5.263
235.68	-27.778
236.05	-65.000
236.43	30.769
236.80	24.000
237.17	-33.333
237.55	-21.212
237.92	-100.000
238.29	3.226
238.67	11.364
239.04	13.889
239.41	-16.667
239.79	8.696
240.16	7.407
240.53	-2.174
240.91	-19.608
241.28	0.000
241.65	1.493
242.02	20.270
242.40	-6.154
242.77	8.000
243.14	0.000
243.51	-1.316
243.89	-6.410
244.26	-0.990
244.63	6.863
245.00	6.542
245.38	3.509
245.75	-7.080
246.12	8.730
246.49	0.000
246.87	7.143
247.24	4.636
247.61	11.842
247.98	4.698
248.36	3.704
248.73	0.000
249.10	6.557
249.47	13.930
249.84	14.660
250.22	3.627
250.59	7.778
250.96	14.091
251.33	2.041
251.70	12.821
252.08	10.000
252.45	10.656
252.82	9.091
253.19	6.250
253.56	8.365
253.94	2.692
254.31	9.470
254.68	10.490
255.05	13.029
255.42	6.803
255.79	8.414
256.16	7.616
256.54	7.285
256.91	9.836
257.28	6.230
257.65	5.414
258.02	7.375
258.39	7.123
258.76	12.844
259.14	12.356
259.51	8.069
259.88	8.499
260.25	8.611
260.62	9.589
260.99	10.383
261.36	10.456
261.73	6.366
262.10	8.242
262.47	8.043
262.85	11.869
263.22	10.130
263.59	5.000
263.96	9.207
264.33	7.417
264.70	8.889
265.07	12.888
265.44	10.431
265.81	10.417
266.18	8.390
266.55	11.384
266.92	6.606
267.29	9.409
267.66	10.200
268.03	8.952
268.40	10.856
268.77	7.973
269.14	5.727
269.51	8.553
269.88	11.885
270.25	9.457
270.62	9.494
270.99	10.505
271.36	10.297
271.73	10.806
272.10	8.818
272.47	11.623
272.84	9.639
273.21	11.623
273.58	9.274
273.95	10.000
274.32	9.506
274.69	9.478
275.06	10.623
275.43	7.394
275.80	9.524
276.17	6.667
276.54	9.515
276.91	7.871
277.28	9.403
277.65	10.592
278.02	8.456
278.39	7.246
278.76	7.733
279.13	9.220
279.50	9.966
279.87	9.123
280.23	7.394
280.60	10.678
280.97	9.539
281.34	8.659
281.71	10.998
282.08	7.807
282.45	9.165
282.82	8.320
283.19	8.078
283.56	9.508
283.92	11.712
284.29	9.953
284.66	10.837
285.03	7.212
285.40	7.728
285.77	10.062
286.14	10.840
286.51	10.198
286.87	8.373
287.24	9.488
287.61	8.072
287.98	7.855
288.35	8.728
288.72	10.059
289.08	9.078
289.45	7.101
289.82	8.133
290.19	9.195
290.56	10.282
290.93	7.275
291.29	9.229
291.66	7.989
292.03	7.056
292.40	10.204
292.77	8.356
293.13	8.796
293.50	5.650
293.87	6.443
294.24	9.600
294.60	7.838
294.97	6.711
295.34	9.859
295.71	6.557
296.08	8.140
296.44	7.230
296.81	8.404
297.18	7.970
297.55	7.665
297.91	7.592
298.28	6.991
298.65	7.610
299.02	6.612
299.38	6.979
299.75	7.827
300.12	7.060
300.48	6.221
300.85	8.099
301.22	8.389
301.59	6.963
301.95	6.441
302.32	9.000
302.69	6.681
303.05	6.529
303.42	6.541
303.79	7.292
304.15	6.414
304.52	7.188
304.89	7.435
305.25	7.971
305.62	6.583
305.99	7.526
306.35	6.956
306.72	6.308
307.09	6.701
307.45	5.694
307.82	6.458
308.19	7.265
308.55	7.136
308.92	6.719
309.29	6.897
309.65	6.725
310.02	6.139
310.38	6.890
310.75	7.184
311.12	7.958
311.48	6.061
311.85	6.933
312.22	5.882
312.58	6.573
312.95	6.119
313.31	6.143
313.68	6.777
314.05	7.678
314.41	6.831
314.78	6.812
315.14	6.352
315.51	7.664
315.87	7.651
316.24	7.854
316.61	7.638
316.97	6.335
317.34	7.055
317.70	7.074
318.07	7.055
318.43	7.823
318.80	8.194
319.16	7.983
319.53	6.512
319.89	6.924
320.26	7.829
320.62	7.092
320.99	6.925
321.35	6.470
321.72	8.558
322.08	6.763
322.45	7.317
322.81	8.935
323.18	7.876
323.54	9.138
323.91	8.363
324.27	8.778
324.64	9.572
325.00	9.038
325.37	7.862
325.73	9.835
326.10	9.408
326.46	9.283
326.83	9.448
327.19	10.236
327.56	10.830
327.92	10.543
328.29	9.919
328.65	11.055
329.01	10.068
329.38	11.373
329.74	11.387
330.11	12.243
330.47	10.952
330.84	11.628
331.20	11.833
331.56	11.265
331.93	11.799
332.29	11.186
332.66	12.043
333.02	11.055
333.38	11.913
333.75	12.374
334.11	11.259
334.48	11.551
334.84	13.084
335.20	11.503
335.57	12.226
335.93	13.306
336.29	11.398
336.66	11.775
337.02	12.375
337.38	13.435
337.75	11.488
338.11	12.279
338.47	12.738
338.84	12.521
339.20	12.300
339.56	12.026
339.93	12.726
340.29	12.721
340.65	12.571
341.02	13.567
341.38	11.964
341.74	12.914
342.11	12.711
342.47	12.867
342.83	12.480
343.20	12.837
343.56	13.392
343.92	12.250
344.28	13.672
344.65	13.953
345.01	12.480
345.37	13.453
345.73	11.925
346.10	13.963
346.46	12.975
346.82	13.184
347.19	12.299
347.55	13.354
347.91	11.664
348.27	13.278
348.63	13.481
349.00	12.304
349.36	12.714
349.72	13.244
350.08	13.447
350.45	13.080
350.81	12.443
351.17	13.008
351.53	13.268
351.89	12.149
352.26	12.687
352.62	12.612
352.98	13.206
353.34	11.800
353.70	12.481
354.07	13.562
354.43	12.528
354.79	12.416
355.15	12.804
355.51	13.962
355.87	12.117
356.24	12.471
356.60	13.599
356.96	13.640
357.32	12.937
357.68	12.811
358.04	13.548
358.40	13.209
358.77	13.743
359.13	13.442
359.49	13.160
359.85	12.763
360.21	13.056
360.57	12.563
360.93	12.130
361.29	13.193
361.66	13.251
362.02	13.083
362.38	14.406
362.74	13.687
363.10	13.755
363.46	12.742
363.82	13.352
364.18	13.652
364.54	13.624
364.90	13.445
365.26	13.310
365.62	14.267
365.98	13.002
366.35	13.154
366.71	13.878
367.07	13.329
367.43	13.526
367.79	13.603
368.15	14.247
368.51	14.141
368.87	13.586
369.23	13.733
369.59	13.661
369.95	13.320
370.31	13.910
370.67	14.030
371.03	14.404
371.39	13.029
371.75	14.099
372.11	13.076
372.47	14.218
372.83	13.613
373.19	14.743
373.55	12.602
373.91	13.838
374.27	13.454
374.63	13.396
374.99	13.462
375.35	13.117
375.71	14.516
376.07	14.396
376.42	13.980
376.78	14.357
377.14	13.724
377.50	13.978
377.86	14.409
378.22	13.653
378.58	14.150
378.94	13.322
379.30	14.587
379.66	13.933
380.02	14.137
380.38	13.998
380.74	14.085
381.09	13.937
381.45	15.568
381.81	14.988
382.17	14.371
382.53	14.854
382.89	14.391
383.25	14.302
383.61	13.426
383.97	14.429
384.32	15.012
384.68	13.341
385.04	15.442
385.40	15.321
385.76	14.537
386.12	14.542
386.48	14.765
386.83	15.495
387.19	14.195
387.55	14.847
387.91	14.384
388.27	14.088
388.62	14.548
388.98	14.721
389.34	14.732
389.70	14.526
390.06	14.506
390.42	14.096
390.77	15.172
391.13	14.026
391.49	14.130
391.85	14.121
392.20	14.353
392.56	15.535
392.92	14.885
393.28	14.981
393.64	14.637
393.99	15.805
394.35	15.012
394.71	14.671
395.07	13.653
395.42	15.420
395.78	14.991
396.14	15.508
396.50	14.549
396.85	14.609
397.21	14.734
397.57	14.723
397.92	14.891
398.28	14.394
398.64	14.416
399.00	14.555
399.35	14.346
399.71	14.674
400.07	14.767
400.42	13.970
400.78	15.162
401.14	14.286
401.49	14.667
401.85	15.465
402.21	14.832
402.57	15.376
402.92	14.716
403.28	14.696
403.63	14.678
403.99	14.489
404.35	15.179
404.70	14.788
405.06	14.674
405.42	15.164
405.77	15.049
406.13	15.451
406.49	15.146
406.84	14.460
407.20	14.589
407.55	14.718
407.91	14.959
408.27	14.311
408.62	15.358
408.98	14.393
409.34	14.721
409.69	14.710
410.05	14.889
410.40	16.299
410.76	14.526
411.11	15.780
411.47	15.233
411.83	16.108
412.18	15.422
412.54	15.649
412.89	16.298
413.25	15.350
413.60	14.819
413.96	15.501
414.31	15.127
414.67	15.862
415.03	15.323
415.38	14.691
415.74	16.127
416.09	15.854
416.45	15.842
416.80	14.688
417.16	15.581
417.51	15.068
417.87	14.960
418.22	16.287
418.58	15.551
418.93	15.541
419.29	15.598
419.64	15.246
420.00	15.668
420.35	16.171
420.71	15.451
421.06	15.756
421.42	15.826
421.77	15.455
422.12	15.486
422.48	16.078
422.83	16.375
423.19	16.127
423.54	16.482
423.90	16.179
424.25	15.680
424.61	15.442
424.96	16.639
425.31	17.197
425.67	15.727
426.02	16.104
426.38	16.475
426.73	15.458
427.09	17.647
427.44	16.275
427.79	16.971
428.15	17.466
428.50	16.798
428.85	16.762
429.21	17.500
429.56	16.041
429.92	16.708
430.27	16.096
430.62	16.756
430.98	16.576
431.33	16.325
431.68	16.379
432.04	17.572
432.39	17.408
432.74	16.324
433.10	16.766
433.45	17.168
433.80	16.953
434.16	16.839
434.51	17.626
434.86	17.698
435.22	17.694
435.57	17.866
435.92	17.474
436.28	17.861
436.63	18.078
436.98	17.338
437.34	17.418
437.69	17.887
438.04	18.191
438.39	17.117
438.75	17.820
439.10	19.239
439.45	18.502
439.81	18.588
440.16	18.123
440.51	18.785
440.86	17.454
441.22	18.650
441.57	17.977
441.92	18.186
442.27	18.889
442.63	18.082
442.98	18.356
443.33	19.306
443.68	18.979
444.03	18.956
444.39	18.955
444.74	18.938
445.09	19.007
445.44	19.494
445.79	19.636
446.15	18.962
446.50	18.450
446.85	19.796
447.20	18.907
447.55	19.613
447.91	18.168
448.26	18.869
448.61	19.501
448.96	18.938
449.31	18.929
449.66	19.336
450.02	19.093
450.37	19.766
450.72	19.752
451.07	19.875
451.42	19.353
451.77	20.122
452.12	19.752
452.47	19.192
452.83	19.707
453.18	18.856
453.53	19.701
453.88	19.768
454.23	20.339
454.58	19.443
454.93	19.175
455.28	19.747
455.63	19.613
455.98	19.777
456.34	19.670
456.69	19.929
457.04	19.976
457.39	20.455
457.74	20.022
458.09	20.319
458.44	19.504
458.79	19.804
459.14	20.084
459.49	19.921
459.84	20.619
460.19	19.323
460.54	19.818
460.89	20.011
461.24	20.460
461.59	20.199
461.94	20.080
462.29	21.221
462.64	20.278
462.99	20.778
463.34	20.247
463.69	19.461
464.04	21.456
464.39	20.852
464.74	20.639
465.09	20.704
465.44	20.923
465.79	20.360
466.14	19.333
466.49	19.684
466.84	20.716
467.19	20.925
467.54	20.270
467.89	21.207
468.24	21.274
468.59	20.845
468.94	20.688
469.29	20.636
469.64	20.598
469.99	21.096
470.34	21.844
470.68	22.215
471.03	21.611
471.38	22.106
471.73	21.456
472.08	21.701
472.43	21.794
472.78	21.285
473.13	20.986
473.48	21.994
473.83	21.184
474.17	21.454
474.52	22.069
474.87	21.816
475.22	22.254
475.57	21.963
475.92	21.055
476.27	21.459
476.61	22.170
476.96	21.794
477.31	21.634
477.66	23.033
478.01	22.369
478.36	21.585
478.70	21.872
479.05	22.699
479.40	22.211
479.75	22.334
480.10	22.264
480.45	22.060
480.79	22.268
481.14	21.921
481.49	22.672
481.84	22.367
482.19	22.151
482.53	21.775
482.88	22.995
483.23	22.410
483.58	21.659
483.92	21.853
484.27	22.185
484.62	22.195
484.97	21.695
485.31	21.295
485.66	20.713
486.01	19.501
486.36	20.098
486.70	20.970
487.05	22.108
487.40	21.964
487.75	22.595
488.09	22.570
488.44	21.763
488.79	22.867
489.13	22.556
489.48	21.981
489.83	22.575
490.17	22.600
490.52	22.578
490.87	22.716
491.22	22.184
491.56	23.422
491.91	22.503
492.26	22.847
492.60	22.781
492.95	22.642
493.30	23.308
493.64	22.514
493.99	21.974
494.34	22.735
494.68	22.827
495.03	23.436
495.37	23.302
495.72	22.222
496.07	23.050
496.41	22.480
496.76	23.144
497.11	22.548
497.45	22.572
497.80	23.590
498.14	23.311
498.49	23.759
498.84	23.629
499.18	23.257
499.53	23.857
499.87	23.297
500.22	23.553
500.56	23.212
500.91	23.021
501.26	24.182
501.60	22.890
501.95	23.535
502.29	23.738
502.64	24.530
502.98	23.943
503.33	23.931
503.67	23.201
504.02	23.774
504.36	24.084
504.71	24.208
505.06	23.829
505.40	23.949
505.75	24.454
506.09	23.849
506.44	24.513
506.78	25.138
507.13	24.574
507.47	24.775
507.82	24.148
508.16	24.044
508.51	24.051
508.85	24.374
509.19	25.012
509.54	25.648
509.88	24.429
510.23	26.372
510.57	25.423
510.92	25.738
511.26	24.531
511.61	25.350
511.95	25.573
512.30	25.948
512.64	25.387
512.98	26.363
513.33	26.210
513.67	26.568
514.02	26.725
514.36	27.059
514.70	26.927
515.05	26.590
515.39	27.087
515.74	26.988
516.08	26.889
516.42	27.786
516.77	27.129
517.11	26.921
517.46	28.314
517.80	28.274
518.14	28.672
518.49	27.711
518.83	28.206
519.17	27.679
519.52	27.254
519.86	28.722
520.20	28.435
520.55	28.313
520.89	29.110
521.23	28.476
521.58	29.661
521.92	29.065
522.26	28.923
522.61	29.456
522.95	28.720
523.29	29.828
523.64	29.540
523.98	29.720
524.32	29.398
524.66	29.596
525.01	29.332
525.35	29.351
525.69	29.872
526.04	29.621
526.38	30.977
526.72	29.988
527.06	29.208
527.41	29.971
527.75	30.879
528.09	29.398
528.43	29.603
528.78	29.191
529.12	30.505
529.46	29.342
529.80	29.519
530.15	30.493
530.49	30.190
530.83	30.756
531.17	30.765
531.51	30.144
531.86	31.010
532.20	31.159
532.54	30.281
532.88	31.515
533.22	29.110
533.57	29.544
533.91	31.313
534.25	30.017
534.59	30.057
534.93	28.862
535.27	29.746
535.62	31.609
535.96	30.506
536.30	31.492
536.64	31.051
536.98	31.919
537.32	31.852
537.66	32.065
538.01	30.091
538.35	30.207
538.69	30.529
539.03	30.901
539.37	30.153
539.71	31.051
540.05	30.815
540.39	30.868
540.73	29.933
541.07	31.024
541.42	29.652
541.76	30.842
542.10	30.157
542.44	30.268
542.78	30.596
543.12	30.334
543.46	30.464
543.80	30.216
544.14	30.401
544.48	31.087
544.82	30.999
545.16	30.888
545.50	30.497
545.84	31.047
546.18	32.531
546.52	31.465
546.86	30.252
547.20	31.234
547.54	31.273
547.88	30.922
548.22	30.175
548.56	30.837
548.90	31.164
549.24	31.185
549.58	31.546
549.92	31.696
550.26	31.521
550.60	31.015
550.94	32.018
551.28	32.211
551.62	32.682
551.96	31.715
552.30	31.995
552.64	30.803
552.98	31.503
553.32	32.476
553.66	31.704
554.00	32.598
554.34	31.789
554.68	30.600
555.02	32.260
555.36	32.939
555.69	30.621
556.03	31.148
556.37	31.665
556.71	30.881
557.05	32.141
557.39	32.780
557.73	32.166
558.07	31.788
558.41	32.957
558.75	31.981
559.08	32.289
559.42	31.413
559.76	32.293
560.10	31.949
560.44	31.992
560.78	31.437
561.12	30.850
561.45	31.630
561.79	32.173
562.13	31.362
562.47	31.381
562.81	32.152
563.15	32.386
563.48	30.827
563.82	32.346
564.16	30.890
564.50	31.228
564.84	31.681
565.17	31.471
565.51	30.610
565.85	32.363
566.19	30.760
566.52	31.656
566.86	30.673
567.20	30.506
567.54	30.430
567.88	30.887
568.21	31.472
568.55	30.600
568.89	29.641
569.23	29.700
569.56	28.839
569.90	28.190
570.24	29.005
570.57	28.287
570.91	27.250
571.25	27.596
571.59	27.748
571.92	27.425
572.26	27.051
572.60	27.518
572.93	27.832
573.27	28.042
573.61	27.316
573.95	26.778
574.28	27.120
574.62	26.626
574.96	25.915
575.29	26.438
575.63	26.750
575.97	26.778
576.30	26.548
576.64	27.058
576.98	26.515
577.31	26.281
577.65	26.661
577.98	26.374
578.32	25.814
578.66	26.008
578.99	26.541
579.33	27.145
579.67	27.176
580.00	26.613
580.34	26.571
580.67	26.324
581.01	26.720
581.35	26.145
581.68	25.963
582.02	26.189
582.35	25.995
582.69	26.394
583.02	27.135
583.36	26.905
583.70	27.676
584.03	27.238
584.37	27.549
584.70	26.430
585.04	26.715
585.37	27.110
585.71	26.429
586.04	27.081
586.38	27.484
586.72	27.626
587.05	27.040
587.39	27.001
587.72	27.105
588.06	27.345
588.39	27.035
588.73	26.825
589.06	28.019
589.40	27.720
589.73	27.860
590.07	28.084
590.40	28.972
590.73	28.314
591.07	28.518
591.40	28.266
591.74	29.094
592.07	28.786
592.41	28.785
592.74	27.796
593.08	28.217
593.41	28.055
593.75	27.385
594.08	27.931
594.41	28.077
594.75	28.296
595.08	28.096
595.42	27.792
595.75	27.510
596.09	28.634
596.42	28.807
596.75	29.409
597.09	29.212
597.42	28.367
597.75	28.146
598.09	28.492
598.42	29.916
598.76	27.780
599.09	27.803
599.42	27.858
599.76	26.940
600.09	28.262
600.42	28.295
600.76	28.369
601.09	28.311
601.42	28.184
601.76	28.448
602.09	28.914
602.42	28.172
602.76	28.376
603.09	27.680
603.42	28.577
603.76	27.872
604.09	28.176
604.42	28.257
604.76	27.740
605.09	28.640
605.42	28.349
605.75	27.423
606.09	27.734
606.42	27.326
606.75	27.361
607.09	27.688
607.42	28.478
607.75	27.902
608.08	27.901
608.42	28.134
608.75	28.566
609.08	28.565
609.41	28.496
609.75	28.438
610.08	28.496
610.41	28.887
610.74	28.319
611.07	28.108
611.41	28.924
611.74	28.684
612.07	28.331
612.40	29.325
612.73	29.389
613.07	29.340
613.40	28.922
613.73	28.743
614.06	28.263
614.39	28.377
614.72	28.675
615.06	29.018
615.39	28.420
615.72	28.199
616.05	28.072
616.38	29.617
616.71	29.676
617.05	29.393
617.38	29.535
617.71	30.238
618.04	29.574
618.37	29.945
618.70	29.186
619.03	30.287
619.36	30.086
619.69	30.429
620.03	30.006
620.36	29.632
620.69	29.488
621.02	31.365
621.35	32.075
621.68	31.453
622.01	30.463
622.34	29.149
622.67	30.790
623.00	29.487
623.33	30.392
623.66	30.350
623.99	29.954
624.32	30.604
624.65	29.601
624.99	30.884
625.32	30.503
625.65	31.153
625.98	29.898
626.31	31.184
626.64	31.795
626.97	30.533
627.30	29.916
627.63	30.083
627.96	31.832
628.29	32.918
628.62	31.486
628.95	32.954
629.28	32.201
629.61	31.902
629.94	31.297
630.26	31.949
630.59	31.347
630.92	31.688
631.25	33.631
631.58	33.992
631.91	33.271
632.24	33.622
632.57	32.922
632.90	32.497
633.23	33.163
633.56	33.469
633.89	31.921
634.22	34.200
634.55	33.820
634.88	31.926
635.20	35.091
635.53	34.124
635.86	32.394
636.19	33.086
636.52	32.278
636.85	32.584
637.18	32.328
