SpectraSuite Data File
++++++++++++++++++++++++++++++++++++
Date: Thu May 14 16:05:52 PDT 2015
User: schluterlab
Dark Spectrum Present: Yes
Reference Spectrum Present: Yes
Number of Sampled Component Spectra: 1
Spectrometers: USB2E3373
Integration Time (usec): 3000 (USB2E3373)
Spectra Averaged: 3 (USB2E3373)
Boxcar Smoothing: 0 (USB2E3373)
Correct for Electrical Dark: No (USB2E3373)
Strobe/Lamp Enabled: No (USB2E3373)
Correct for Detector Non-linearity: No (USB2E3373)
Correct for Stray Light: No (USB2E3373)
Number of Pixels in Processed Spectrum: 2048
>>>>>Begin Processed Spectral Data<<<<<
178.53	0.000
178.91	242.857
179.29	-2400.000
179.67	-1800.000
180.04	192.857
180.42	110.000
180.80	440.000
181.18	-1200.000
181.56	500.000
181.94	300.000
182.31	-325.000
182.69	300.000
183.07	-750.000
183.45	325.000
183.83	-216.667
184.20	-600.000
184.58	1200.000
184.96	-200.000
185.34	-200.000
185.72	-160.000
186.09	244.444
186.47	1050.000
186.85	440.000
187.23	-144.444
187.61	-2200.000
187.98	240.000
188.36	275.000
188.74	-300.000
189.12	-566.667
189.49	-56.250
189.87	-150.000
190.25	-11.111
190.63	-280.000
191.00	-122.222
191.38	0.000
191.76	-200.000
192.14	-183.333
192.51	800.000
192.89	-150.000
193.27	0.000
193.65	-185.714
194.02	-2500.000
194.40	-100.000
194.78	114.286
195.15	0.000
195.53	-81.818
195.91	0.000
196.29	-250.000
196.66	-107.692
197.04	-2400.000
197.42	-100.000
197.79	-300.000
198.17	-62.500
198.55	-257.143
198.92	-44.444
199.30	-187.500
199.68	-127.273
200.05	-28.571
200.43	-800.000
200.81	342.857
201.18	0.000
201.56	222.222
201.94	0.000
202.31	700.000
202.69	-222.222
203.07	1200.000
203.44	-133.333
203.82	-425.000
204.19	-58.333
204.57	-216.667
204.95	-162.500
205.32	-200.000
205.70	450.000
206.08	-150.000
206.45	-216.667
206.83	420.000
207.20	-33.333
207.58	-280.000
207.96	-216.667
208.33	-133.333
208.71	116.667
209.08	-133.333
209.46	0.000
209.84	200.000
210.21	500.000
210.59	800.000
210.96	600.000
211.34	-325.000
211.71	-162.500
212.09	-1900.000
212.46	0.000
212.84	1050.000
213.22	-160.000
213.59	-350.000
213.97	-80.000
214.34	-300.000
214.72	266.667
215.09	-350.000
215.47	0.000
215.84	228.571
216.22	650.000
216.59	-240.000
216.97	-300.000
217.34	-300.000
217.72	-250.000
218.09	-350.000
218.47	-425.000
218.84	0.000
219.22	220.000
219.59	-76.471
219.97	-5.000
220.34	950.000
220.72	-133.333
221.09	-46.154
221.47	-500.000
221.84	-10.000
222.22	-200.000
222.59	0.000
222.97	-25.000
223.34	-380.000
223.72	-1900.000
224.09	-525.000
224.46	-375.000
224.84	-100.000
225.21	-328.571
225.59	-500.000
225.96	-325.000
226.34	-30.769
226.71	316.667
227.08	-900.000
227.46	-33.333
227.83	-125.000
228.21	21.053
228.58	175.000
228.95	1300.000
229.33	-91.667
229.70	-80.000
230.08	10.526
230.45	110.000
230.82	-233.333
231.20	-64.286
231.57	8.333
231.95	-136.364
232.32	-18.182
232.69	-10.000
233.07	-150.000
233.44	-35.294
233.81	-150.000
234.19	-16.667
234.56	-36.364
234.93	27.586
235.31	-5.263
235.68	11.111
236.05	-45.000
236.43	3.846
236.80	52.000
237.17	14.815
237.55	-6.061
237.92	-110.000
238.29	-22.581
238.67	4.545
239.04	5.556
239.41	-4.762
239.79	-19.565
240.16	-7.407
240.53	8.696
240.91	1.961
241.28	1.639
241.65	25.373
242.02	24.324
242.40	0.000
242.77	9.333
243.14	8.537
243.51	7.895
243.89	20.513
244.26	28.713
244.63	16.667
245.00	22.430
245.38	15.789
245.75	14.159
246.12	29.365
246.49	19.380
246.87	23.571
247.24	27.815
247.61	25.000
247.98	29.530
248.36	24.074
248.73	23.926
249.10	25.137
249.47	29.851
249.84	27.225
250.22	24.352
250.59	28.333
250.96	31.818
251.33	20.408
251.70	25.214
252.08	27.917
252.45	28.279
252.82	29.339
253.19	27.344
253.56	30.418
253.94	26.154
254.31	31.818
254.68	29.371
255.05	31.596
255.42	31.293
255.79	31.068
256.16	31.457
256.54	25.166
256.91	31.475
257.28	29.508
257.65	26.433
258.02	26.549
258.39	31.909
258.76	33.639
259.14	33.046
259.51	28.530
259.88	30.595
260.25	31.944
260.62	35.342
260.99	32.514
261.36	33.244
261.73	32.361
262.10	34.615
262.47	32.172
262.85	33.838
263.22	32.987
263.59	28.158
263.96	33.248
264.33	31.458
264.70	33.580
265.07	33.890
265.44	34.467
265.81	33.333
266.18	32.200
266.55	33.036
266.92	32.118
267.29	36.980
267.66	31.264
268.03	32.969
268.40	34.447
268.77	32.574
269.14	32.379
269.51	32.237
269.88	33.197
270.25	33.400
270.62	34.599
270.99	34.343
271.36	34.257
271.73	29.273
272.10	31.663
272.47	34.269
272.84	34.337
273.21	33.868
273.58	32.863
273.95	31.731
274.32	32.890
274.69	29.981
275.06	35.531
275.43	29.205
275.80	35.097
276.17	31.667
276.54	33.955
276.91	31.843
277.28	33.454
277.65	32.316
278.02	33.272
278.39	32.065
278.76	31.986
279.13	32.801
279.50	34.708
279.87	32.558
280.23	29.754
280.60	33.220
280.97	31.579
281.34	34.465
281.71	33.841
282.08	33.389
282.45	33.388
282.82	32.967
283.19	31.664
283.56	31.639
283.92	32.432
284.29	31.438
284.66	33.662
285.03	30.609
285.40	31.839
285.77	32.508
286.14	31.756
286.51	30.898
286.87	32.227
287.24	33.133
287.61	31.540
287.98	32.628
288.35	31.361
288.72	31.805
289.08	30.893
289.45	29.290
289.82	30.723
290.19	29.741
290.56	29.296
290.93	29.101
291.29	28.926
291.66	30.028
292.03	28.223
292.40	30.340
292.77	27.628
293.13	28.687
293.50	29.304
293.87	28.725
294.24	29.067
294.60	27.054
294.97	26.040
295.34	26.376
295.71	27.617
296.08	24.548
296.44	26.593
296.81	26.066
297.18	27.522
297.55	24.646
297.91	24.911
298.28	24.171
298.65	26.873
299.02	24.321
299.38	25.744
299.75	25.117
300.12	24.190
300.48	24.770
300.85	24.409
301.22	24.497
301.59	26.142
301.95	24.068
302.32	25.889
302.69	25.301
303.05	24.483
303.42	24.834
303.79	24.375
304.15	25.342
304.52	23.784
304.89	23.455
305.25	22.050
305.62	23.720
305.99	24.124
306.35	21.875
306.72	24.095
307.09	22.538
307.45	22.671
307.82	23.713
308.19	20.989
308.55	23.337
308.92	22.687
309.29	24.521
309.65	23.684
310.02	22.970
310.38	23.622
310.75	23.398
311.12	23.778
311.48	23.754
311.85	25.071
312.22	22.486
312.58	22.629
312.95	21.797
313.31	24.210
313.68	22.894
314.05	23.848
314.41	22.951
314.78	23.252
315.14	23.684
315.51	23.269
315.87	23.672
316.24	23.379
316.61	23.712
316.97	21.810
317.34	22.222
317.70	22.096
318.07	22.928
318.43	23.384
318.80	22.910
319.16	22.403
319.53	21.422
319.89	22.174
320.26	23.399
320.62	21.631
320.99	22.530
321.35	23.290
321.72	24.372
322.08	22.002
322.45	22.764
322.81	23.285
323.18	22.035
323.54	21.983
323.91	21.975
324.27	23.064
324.64	23.006
325.00	21.227
325.37	22.441
325.73	23.306
326.10	23.033
326.46	23.127
326.83	24.740
327.19	22.441
327.56	22.451
327.92	22.030
328.29	22.097
328.65	22.194
329.01	22.166
329.38	22.157
329.74	23.801
330.11	23.031
330.47	22.494
330.84	23.428
331.20	23.333
331.56	22.964
331.93	23.180
332.29	22.034
332.66	23.090
333.02	21.608
333.38	22.567
333.75	21.044
334.11	23.186
334.48	22.277
334.84	23.110
335.20	21.579
335.57	23.019
335.93	22.727
336.29	21.215
336.66	21.194
337.02	20.819
337.38	22.279
337.75	22.066
338.11	22.204
338.47	21.671
338.84	21.912
339.20	20.893
339.56	22.323
339.93	22.003
340.29	20.612
340.65	22.060
341.02	21.947
341.38	22.555
341.74	21.388
342.11	21.722
342.47	21.128
342.83	21.981
343.20	21.995
343.56	20.770
343.92	21.057
344.28	22.500
344.65	21.163
345.01	22.075
345.37	20.140
345.73	20.577
346.10	21.451
346.46	20.570
346.82	22.247
347.19	21.467
347.55	21.624
347.91	21.545
348.27	20.789
348.63	21.554
349.00	21.178
349.36	21.710
349.72	20.908
350.08	21.397
350.45	20.989
350.81	20.513
351.17	21.353
351.53	21.152
351.89	21.109
352.26	19.776
352.62	21.343
352.98	20.458
353.34	20.687
353.70	20.031
354.07	21.237
354.43	20.349
354.79	20.419
355.15	20.383
355.51	21.930
355.87	20.793
356.24	21.293
356.60	19.438
356.96	20.163
357.32	20.223
357.68	20.717
358.04	19.461
358.40	21.716
358.77	20.175
359.13	20.901
359.49	19.703
359.85	20.522
360.21	20.732
360.57	20.531
360.93	20.522
361.29	20.211
361.66	20.058
362.02	20.390
362.38	21.715
362.74	19.204
363.10	20.151
363.46	20.983
363.82	20.313
364.18	19.634
364.54	20.055
364.90	20.134
365.26	19.517
365.62	19.867
365.98	20.286
366.35	19.463
366.71	20.748
367.07	19.689
367.43	20.158
367.79	19.310
368.15	20.669
368.51	20.568
368.87	19.856
369.23	19.533
369.59	19.331
369.95	20.622
370.31	20.527
370.67	19.601
371.03	20.291
371.39	19.006
371.75	20.977
372.11	19.919
372.47	19.973
372.83	20.026
373.19	19.013
373.55	19.512
373.91	18.405
374.27	19.599
374.63	20.501
374.99	19.032
375.35	20.130
375.71	18.968
376.07	20.013
376.42	20.025
376.78	20.323
377.14	20.150
377.50	20.367
377.86	19.335
378.22	20.299
378.58	19.501
378.94	20.012
379.30	19.215
379.66	20.282
380.02	20.369
380.38	19.873
380.74	20.394
381.09	20.616
381.45	19.773
381.81	20.433
382.17	20.131
382.53	19.825
382.89	19.695
383.25	19.930
383.61	19.213
383.97	19.847
384.32	19.737
384.68	18.155
385.04	19.780
385.40	19.682
385.76	19.871
386.12	18.851
386.48	18.706
386.83	20.262
387.19	18.076
387.55	18.897
387.91	19.064
388.27	19.400
388.62	19.416
388.98	19.233
389.34	19.564
389.70	19.814
390.06	19.301
390.42	18.855
390.77	19.506
391.13	19.131
391.49	19.082
391.85	18.788
392.20	18.327
392.56	19.315
392.92	19.629
393.28	19.348
393.64	18.492
393.99	19.175
394.35	18.808
394.71	19.581
395.07	18.024
395.42	19.589
395.78	19.988
396.14	18.954
396.50	19.002
396.85	18.605
397.21	18.402
397.57	19.258
397.92	19.129
398.28	18.523
398.64	19.050
399.00	18.482
399.35	19.058
399.71	18.750
400.07	19.259
400.42	19.267
400.78	18.634
401.14	18.441
401.49	18.761
401.85	18.198
402.21	20.046
402.57	18.838
402.92	20.331
403.28	18.326
403.63	18.258
403.99	18.824
404.35	19.386
404.70	18.810
405.06	18.533
405.42	18.267
405.77	18.593
406.13	18.963
406.49	18.694
406.84	17.839
407.20	18.614
407.55	18.958
407.91	18.919
408.27	18.257
408.62	19.081
408.98	18.688
409.34	18.358
409.69	18.480
410.05	19.519
410.40	19.548
410.76	18.116
411.11	19.404
411.47	18.735
411.83	19.106
412.18	19.398
412.54	18.554
412.89	19.267
413.25	19.357
413.60	19.012
413.96	18.590
414.31	19.037
414.67	19.738
415.03	18.031
415.38	18.348
415.74	18.571
416.09	19.124
416.45	18.597
416.80	18.849
417.16	17.625
417.51	19.552
417.87	18.148
418.22	18.922
418.58	18.773
418.93	19.267
419.29	18.989
419.64	18.367
420.00	18.635
420.35	19.989
420.71	18.725
421.06	18.286
421.42	18.750
421.77	18.417
422.12	18.763
422.48	19.713
422.83	18.894
423.19	19.098
423.54	18.861
423.90	18.277
424.25	19.253
424.61	18.829
424.96	18.232
425.31	19.161
425.67	18.465
426.02	18.816
426.38	17.796
426.73	17.969
427.09	19.262
427.44	17.968
427.79	18.629
428.15	18.379
428.50	17.921
428.85	18.599
429.21	19.468
429.56	19.052
429.92	18.575
430.27	18.699
430.62	19.443
430.98	18.544
431.33	18.035
431.68	18.534
432.04	18.690
432.39	18.532
432.74	17.922
433.10	18.929
433.45	17.781
433.80	19.206
434.16	18.802
434.51	18.654
434.86	18.893
435.22	18.704
435.57	19.340
435.92	18.753
436.28	18.487
436.63	18.842
436.98	18.357
437.34	18.884
437.69	17.887
438.04	19.038
438.39	18.438
438.75	18.650
439.10	19.133
439.45	18.614
439.81	18.249
440.16	19.142
440.51	18.841
440.86	18.066
441.22	18.167
441.57	19.235
441.92	18.962
442.27	19.394
442.63	18.629
442.98	18.570
443.33	18.622
443.68	19.078
444.03	19.520
444.39	18.308
444.74	19.500
445.09	18.550
445.44	19.231
445.79	19.157
446.15	19.322
446.50	19.276
446.85	19.066
447.20	19.004
447.55	18.724
447.91	18.429
448.26	18.763
448.61	18.225
448.96	19.796
449.31	18.346
449.66	17.865
450.02	18.513
450.37	18.594
450.72	18.622
451.07	18.565
451.42	18.775
451.77	18.232
452.12	18.284
452.47	18.479
452.83	17.962
453.18	18.681
453.53	17.863
453.88	19.326
454.23	18.475
454.58	18.514
454.93	17.718
455.28	18.784
455.63	19.159
455.98	18.939
456.34	18.787
456.69	18.754
457.04	18.381
457.39	18.071
457.74	18.680
458.09	18.671
458.44	19.073
458.79	18.618
459.14	18.563
459.49	19.185
459.84	19.203
460.19	18.989
460.54	19.080
460.89	19.111
461.24	17.759
461.59	18.428
461.94	17.969
462.29	19.037
462.64	18.105
462.99	18.393
463.34	18.754
463.69	18.347
464.04	18.844
464.39	18.946
464.74	18.814
465.09	19.319
465.44	18.670
465.79	19.249
466.14	18.708
466.49	18.579
466.84	18.402
467.19	18.902
467.54	18.155
467.89	18.103
468.24	18.670
468.59	17.719
468.94	18.007
469.29	18.176
469.64	17.546
469.99	17.655
470.34	18.502
470.68	17.977
471.03	18.402
471.38	18.640
471.73	17.685
472.08	18.147
472.43	18.904
472.78	18.577
473.13	17.826
473.48	18.671
473.83	18.688
474.17	18.523
474.52	18.160
474.87	18.660
475.22	19.099
475.57	18.744
475.92	18.118
476.27	18.371
476.61	18.951
476.96	17.831
477.31	18.713
477.66	18.888
478.01	18.353
478.36	17.946
478.70	18.818
479.05	19.172
479.40	18.411
479.75	19.116
480.10	18.475
480.45	18.687
480.79	19.320
481.14	18.796
481.49	18.083
481.84	19.408
482.19	18.581
482.53	18.671
482.88	18.963
483.23	18.675
483.58	18.079
483.92	18.573
484.27	18.882
484.62	18.317
484.97	18.935
485.31	18.585
485.66	18.526
486.01	19.021
486.36	19.547
486.70	20.135
487.05	19.790
487.40	19.225
487.75	18.651
488.09	18.400
488.44	17.818
488.79	18.415
489.13	18.718
489.48	18.058
489.83	18.109
490.17	17.375
490.52	18.186
490.87	18.486
491.22	18.154
491.56	18.942
491.91	18.491
492.26	18.650
492.60	18.015
492.95	18.385
493.30	18.019
493.64	18.484
493.99	18.553
494.34	18.162
494.68	18.373
495.03	18.590
495.37	18.597
495.72	18.231
496.07	19.325
496.41	18.490
496.76	18.891
497.11	19.406
497.45	18.256
497.80	18.658
498.14	18.277
498.49	18.015
498.84	18.556
499.18	18.264
499.53	18.341
499.87	18.637
500.22	17.364
500.56	18.084
500.91	18.764
501.26	18.864
501.60	18.118
501.95	17.933
502.29	18.956
502.64	18.714
502.98	18.939
503.33	18.186
503.67	17.837
504.02	18.039
504.36	18.767
504.71	18.787
505.06	18.417
505.40	18.464
505.75	18.761
506.09	18.278
506.44	18.802
506.78	18.486
507.13	17.981
507.47	18.333
507.82	18.466
508.16	17.734
508.51	18.237
508.85	18.375
509.19	18.475
509.54	19.068
509.88	17.970
510.23	18.407
510.57	18.995
510.92	18.626
511.26	18.470
511.61	18.204
511.95	18.790
512.30	18.316
512.64	17.941
512.98	18.609
513.33	18.800
513.67	18.256
514.02	18.855
514.36	18.875
514.70	18.125
515.05	17.987
515.39	18.215
515.74	18.717
516.08	18.648
516.42	18.995
516.77	18.191
517.11	17.690
517.46	19.353
517.80	18.600
518.14	18.444
518.49	18.330
518.83	18.627
519.17	18.417
519.52	18.029
519.86	17.793
520.20	18.158
520.55	18.182
520.89	17.568
521.23	18.760
521.58	18.814
521.92	18.414
522.26	17.984
522.61	18.692
522.95	18.685
523.29	18.448
523.64	18.666
523.98	18.597
524.32	19.427
524.66	18.725
525.01	18.007
525.35	18.093
525.69	17.749
526.04	17.910
526.38	18.678
526.72	18.166
527.06	17.830
527.41	18.659
527.75	18.884
528.09	18.890
528.43	18.058
528.78	17.803
529.12	18.119
529.46	18.269
529.80	18.707
530.15	18.899
530.49	18.268
530.83	18.949
531.17	18.817
531.51	17.990
531.86	18.450
532.20	18.110
532.54	18.432
532.88	19.030
533.22	18.798
533.57	18.696
533.91	18.126
534.25	19.163
534.59	19.080
534.93	18.563
535.27	18.592
535.62	18.988
535.96	19.117
536.30	18.038
536.64	19.399
536.98	18.450
537.32	18.519
537.66	19.027
538.01	19.275
538.35	18.758
538.69	18.750
539.03	19.252
539.37	18.610
539.71	19.099
540.05	18.525
540.39	19.193
540.73	18.215
541.07	19.068
541.42	18.901
541.76	18.624
542.10	19.180
542.44	18.575
542.78	18.127
543.12	18.772
543.46	18.254
543.80	18.405
544.14	19.270
544.48	18.676
544.82	18.552
545.16	18.962
545.50	18.933
545.84	19.473
546.18	19.259
546.52	18.089
546.86	18.553
547.20	19.148
547.54	19.164
547.88	18.807
548.22	18.012
548.56	18.666
548.90	18.806
549.24	18.237
549.58	18.675
549.92	18.622
550.26	19.288
550.60	18.634
550.94	18.241
551.28	18.680
551.62	19.070
551.96	17.864
552.30	18.866
552.64	19.415
552.98	18.590
553.32	18.392
553.66	19.421
554.00	19.798
554.34	18.919
554.68	18.786
555.02	18.857
555.36	19.264
555.69	18.706
556.03	19.357
556.37	19.462
556.71	19.023
557.05	18.466
557.39	18.912
557.73	17.503
558.07	18.609
558.41	17.940
558.75	17.647
559.08	18.650
559.42	18.930
559.76	18.928
560.10	19.491
560.44	19.525
560.78	19.500
561.12	19.150
561.45	19.161
561.79	19.414
562.13	19.347
562.47	17.571
562.81	19.114
563.15	18.371
563.48	18.645
563.82	18.924
564.16	18.353
564.50	18.772
564.84	19.233
565.17	19.118
565.51	19.160
565.85	18.705
566.19	18.491
566.52	18.198
566.86	19.581
567.20	18.380
567.54	18.640
567.88	19.776
568.21	19.170
568.55	19.616
568.89	19.746
569.23	19.603
569.56	19.852
569.90	20.456
570.24	20.034
570.57	20.334
570.91	20.024
571.25	20.046
571.59	20.206
571.92	20.043
572.26	20.090
572.60	19.874
572.93	19.788
573.27	20.034
573.61	20.566
573.95	19.932
574.28	20.649
574.62	19.964
574.96	19.762
575.29	20.423
575.63	19.820
575.97	19.713
576.30	19.590
576.64	19.995
576.98	19.749
577.31	20.346
577.65	20.491
577.98	20.576
578.32	20.132
578.66	20.034
578.99	20.070
579.33	20.031
579.67	19.334
580.00	19.937
580.34	20.179
580.67	19.704
581.01	19.818
581.35	19.988
581.68	20.231
582.02	20.961
582.35	20.996
582.69	20.476
583.02	20.856
583.36	20.251
583.70	19.473
584.03	19.846
584.37	19.526
584.70	19.267
585.04	19.321
585.37	20.482
585.71	19.957
586.04	20.277
586.38	20.032
586.72	19.378
587.05	19.468
587.39	20.095
587.72	20.789
588.06	19.947
588.39	19.791
588.73	19.815
589.06	19.582
589.40	19.607
589.73	19.826
590.07	19.264
590.40	19.709
590.73	19.300
591.07	19.806
591.40	19.635
591.74	19.674
592.07	20.300
592.41	19.361
592.74	20.057
593.08	20.987
593.41	20.881
593.75	19.856
594.08	20.145
594.41	20.192
594.75	19.429
595.08	19.448
595.42	19.870
595.75	19.600
596.09	20.400
596.42	19.706
596.75	20.108
597.09	20.202
597.42	18.951
597.75	19.404
598.09	19.524
598.42	20.909
598.76	19.297
599.09	19.865
599.42	19.745
599.76	19.742
600.09	19.786
600.42	19.386
600.76	19.617
601.09	19.648
601.42	20.151
601.76	20.828
602.09	19.514
602.42	19.702
602.76	19.594
603.09	19.530
603.42	19.653
603.76	19.309
604.09	20.405
604.42	20.037
604.76	19.635
605.09	20.064
605.42	19.418
605.75	20.346
606.09	19.448
606.42	19.737
606.75	19.603
607.09	19.124
607.42	20.578
607.75	19.383
608.08	19.653
608.42	18.863
608.75	19.569
609.08	19.610
609.41	19.188
609.75	18.795
610.08	19.569
610.41	19.244
610.74	19.412
611.07	19.316
611.41	19.731
611.74	19.908
612.07	19.729
612.40	19.297
612.73	19.658
613.07	19.609
613.40	19.297
613.73	19.884
614.06	18.940
614.39	18.659
614.72	18.195
615.06	19.634
615.39	18.511
615.72	18.863
616.05	19.136
616.38	19.475
616.71	19.383
617.05	18.797
617.38	19.850
617.71	18.790
618.04	19.320
618.37	20.219
618.70	19.740
619.03	18.578
619.36	18.927
619.69	19.475
620.03	18.958
620.36	17.914
620.69	19.062
621.02	18.570
621.35	18.795
621.68	18.727
622.01	19.075
622.34	17.922
622.67	18.076
623.00	17.544
623.33	20.106
623.66	19.455
623.99	19.816
624.32	18.908
624.65	19.176
624.99	19.246
625.32	19.334
625.65	19.353
625.98	18.983
626.31	18.781
626.64	18.535
626.97	18.305
627.30	17.236
627.63	18.830
627.96	19.444
628.29	18.132
628.62	17.296
628.95	18.843
629.28	17.417
629.61	18.771
629.94	18.159
630.26	17.373
630.59	17.358
630.92	17.143
631.25	19.410
631.58	20.151
631.91	17.526
