SpectraSuite Data File
++++++++++++++++++++++++++++++++++++
Date: Thu May 14 16:09:11 PDT 2015
User: schluterlab
Dark Spectrum Present: Yes
Reference Spectrum Present: Yes
Number of Sampled Component Spectra: 1
Spectrometers: USB2E3373
Integration Time (usec): 3000 (USB2E3373)
Spectra Averaged: 3 (USB2E3373)
Boxcar Smoothing: 0 (USB2E3373)
Correct for Electrical Dark: No (USB2E3373)
Strobe/Lamp Enabled: No (USB2E3373)
Correct for Detector Non-linearity: No (USB2E3373)
Correct for Stray Light: No (USB2E3373)
Number of Pixels in Processed Spectrum: 2048
>>>>>Begin Processed Spectral Data<<<<<
178.53	0.000
178.91	200.000
179.29	-1500.000
179.67	-1200.000
180.04	157.143
180.42	170.000
180.80	360.000
181.18	-1300.000
181.56	-400.000
181.94	300.000
182.31	-350.000
182.69	600.000
183.07	-250.000
183.45	475.000
183.83	-66.667
184.20	-533.333
184.58	1300.000
184.96	-350.000
185.34	-144.444
185.72	-140.000
186.09	200.000
186.47	1200.000
186.85	380.000
187.23	-100.000
187.61	-2200.000
187.98	240.000
188.36	250.000
188.74	-250.000
189.12	-366.667
189.49	6.250
189.87	-162.500
190.25	-77.778
190.63	-120.000
191.00	-100.000
191.38	0.000
191.76	-325.000
192.14	-300.000
192.51	1100.000
192.89	0.000
193.27	0.000
193.65	-185.714
194.02	-2100.000
194.40	-228.571
194.78	157.143
195.15	0.000
195.53	-90.909
195.91	0.000
196.29	-150.000
196.66	-46.154
197.04	-1200.000
197.42	-142.857
197.79	-1000.000
198.17	-237.500
198.55	-185.714
198.92	44.444
199.30	-162.500
199.68	-72.727
200.05	-28.571
200.43	-950.000
200.81	200.000
201.18	0.000
201.56	177.778
201.94	0.000
202.31	700.000
202.69	-211.111
203.07	1100.000
203.44	-77.778
203.82	-325.000
204.19	-175.000
204.57	-216.667
204.95	0.000
205.32	-1800.000
205.70	325.000
206.08	-216.667
206.45	-166.667
206.83	420.000
207.20	-233.333
207.58	-420.000
207.96	-150.000
208.33	-150.000
208.71	141.667
209.08	-116.667
209.46	0.000
209.84	250.000
210.21	700.000
210.59	950.000
210.96	366.667
211.34	-200.000
211.71	-87.500
212.09	-1300.000
212.46	0.000
212.84	1000.000
213.22	-240.000
213.59	-375.000
213.97	-60.000
214.34	-500.000
214.72	316.667
215.09	-225.000
215.47	0.000
215.84	171.429
216.22	900.000
216.59	-100.000
216.97	-380.000
217.34	-250.000
217.72	-175.000
218.09	-300.000
218.47	-125.000
218.84	0.000
219.22	280.000
219.59	-58.824
219.97	-50.000
220.34	850.000
220.72	-277.778
221.09	-69.231
221.47	-300.000
221.84	-80.000
222.22	-328.571
222.59	0.000
222.97	-37.500
223.34	-380.000
223.72	-1400.000
224.09	-275.000
224.46	-325.000
224.84	-120.000
225.21	-142.857
225.59	-400.000
225.96	-125.000
226.34	42.308
226.71	250.000
227.08	-600.000
227.46	-80.000
227.83	-275.000
228.21	-31.579
228.58	137.500
228.95	600.000
229.33	-116.667
229.70	-110.000
230.08	26.316
230.45	160.000
230.82	-233.333
231.20	-35.714
231.57	0.000
231.95	-63.636
232.32	-118.182
232.69	-50.000
233.07	-50.000
233.44	-35.294
233.81	-140.000
234.19	16.667
234.56	-13.636
234.93	3.448
235.31	-10.526
235.68	-44.444
236.05	-95.000
236.43	0.000
236.80	-8.000
237.17	-22.222
237.55	-9.091
237.92	-140.000
238.29	-9.677
238.67	-15.909
239.04	27.778
239.41	-2.381
239.79	4.348
240.16	11.111
240.53	17.391
240.91	1.961
241.28	13.115
241.65	17.910
242.02	6.757
242.40	-6.154
242.77	5.333
243.14	7.317
243.51	5.263
243.89	3.846
244.26	21.782
244.63	18.627
245.00	13.084
245.38	9.649
245.75	3.540
246.12	16.667
246.49	10.078
246.87	15.000
247.24	13.245
247.61	15.132
247.98	10.738
248.36	11.728
248.73	5.521
249.10	15.847
249.47	17.413
249.84	14.660
250.22	12.953
250.59	16.111
250.96	22.727
251.33	12.755
251.70	17.521
252.08	14.583
252.45	17.623
252.82	14.876
253.19	12.109
253.56	19.392
253.94	15.000
254.31	13.636
254.68	18.182
255.05	18.567
255.42	16.327
255.79	13.916
256.16	16.556
256.54	16.225
256.91	17.377
257.28	18.689
257.65	13.376
258.02	11.799
258.39	20.798
258.76	18.960
259.14	21.552
259.51	17.003
259.88	15.864
260.25	17.222
260.62	20.274
260.99	16.393
261.36	17.426
261.73	17.772
262.10	18.681
262.47	18.499
262.85	19.192
263.22	16.364
263.59	16.316
263.96	18.670
264.33	20.460
264.70	18.765
265.07	19.093
265.44	21.995
265.81	15.972
266.18	21.542
266.55	16.964
266.92	18.907
267.29	16.630
267.66	17.295
268.03	19.214
268.40	18.580
268.77	16.173
269.14	14.317
269.51	20.175
269.88	18.443
270.25	20.121
270.62	17.932
270.99	19.596
271.36	17.624
271.73	17.878
272.10	19.439
272.47	17.836
272.84	19.478
273.21	19.038
273.58	18.952
273.95	17.308
274.32	16.160
274.69	17.021
275.06	17.216
275.43	16.081
275.80	19.400
276.17	17.222
276.54	15.299
276.91	16.816
277.28	19.349
277.65	19.569
278.02	20.772
278.39	20.109
278.76	18.102
279.13	18.262
279.50	19.244
279.87	18.962
280.23	17.430
280.60	18.136
280.97	18.586
281.34	18.846
281.71	20.812
282.08	17.774
282.45	16.039
282.82	17.425
283.19	15.832
283.56	18.197
283.92	18.018
284.29	18.167
284.66	18.062
285.03	15.224
285.40	19.320
285.77	18.731
286.14	20.000
286.51	16.134
286.87	17.378
287.24	18.223
287.61	16.891
287.98	17.523
288.35	15.828
288.72	18.343
289.08	17.716
289.45	16.272
289.82	16.566
290.19	17.816
290.56	16.197
290.93	15.977
291.29	16.667
291.66	15.152
292.03	16.418
292.40	17.143
292.77	15.768
293.13	15.020
293.50	16.294
293.87	16.913
294.24	17.467
294.60	17.067
294.97	14.631
295.34	16.517
295.71	15.637
296.08	14.858
296.44	15.074
296.81	15.104
297.18	14.321
297.55	15.448
297.91	14.591
298.28	11.848
298.65	14.507
299.02	14.522
299.38	14.416
299.75	14.486
300.12	13.194
300.48	14.401
300.85	13.723
301.22	15.101
301.59	13.584
301.95	13.672
302.32	15.444
302.69	14.129
303.05	13.275
303.42	14.523
303.79	14.688
304.15	14.406
304.52	15.962
304.89	13.613
305.25	13.872
305.62	13.584
305.99	15.670
306.35	14.214
306.72	14.995
307.09	14.518
307.45	13.354
307.82	14.329
308.19	14.531
308.55	13.790
308.92	15.774
309.29	15.134
309.65	14.327
310.02	13.762
310.38	14.370
310.75	15.146
311.12	14.765
311.48	14.663
311.85	14.720
312.22	15.560
312.58	14.366
312.95	14.627
313.31	15.447
313.68	15.385
314.05	15.989
314.41	17.213
314.78	16.076
315.14	16.152
315.51	16.251
315.87	17.282
316.24	15.890
316.61	18.117
316.97	16.109
317.34	16.755
317.70	17.380
318.07	18.166
318.43	17.007
318.80	18.395
319.16	18.026
319.53	17.481
319.89	17.528
320.26	18.327
320.62	16.578
320.99	18.190
321.35	18.946
321.72	20.000
322.08	18.305
322.45	18.880
322.81	17.960
323.18	18.319
323.54	18.793
323.91	20.463
324.27	18.761
324.64	20.907
325.00	18.574
325.37	20.885
325.73	20.331
326.10	20.843
326.46	20.521
326.83	20.977
327.19	21.811
327.56	21.186
327.92	20.614
328.29	19.919
328.65	19.514
329.01	21.066
329.38	20.977
329.74	20.976
330.11	21.490
330.47	21.820
330.84	21.447
331.20	21.083
331.56	20.971
331.93	22.343
332.29	21.271
332.66	20.847
333.02	20.436
333.38	19.966
333.75	21.801
334.11	21.184
334.48	20.132
334.84	21.665
335.20	21.662
335.57	21.164
335.93	21.736
336.29	20.133
336.66	21.110
337.02	20.401
337.38	21.259
337.75	21.240
338.11	21.615
338.47	19.355
338.84	21.151
339.20	18.787
339.56	21.170
339.93	21.018
340.29	19.726
340.65	19.546
341.02	21.788
341.38	19.887
341.74	20.258
342.11	20.113
342.47	18.507
342.83	20.048
343.20	20.278
343.56	19.567
343.92	19.696
344.28	19.609
344.65	20.775
345.01	20.359
345.37	20.295
345.73	18.316
346.10	20.905
346.46	18.671
346.82	19.850
347.19	19.939
347.55	21.472
347.91	19.391
348.27	19.347
348.63	19.726
349.00	20.134
349.36	19.033
349.72	19.792
350.08	20.208
350.45	19.163
350.81	18.929
351.17	18.571
351.53	19.257
351.89	19.894
352.26	19.030
352.62	19.254
352.98	18.015
353.34	19.119
353.70	19.029
354.07	18.852
354.43	18.527
354.79	18.025
355.15	18.102
355.51	19.298
355.87	18.998
356.24	18.707
356.60	18.477
356.96	18.681
357.32	18.141
357.68	18.228
358.04	18.563
358.40	17.761
358.77	18.567
359.13	17.578
359.49	18.736
359.85	18.274
360.21	17.719
360.57	18.306
360.93	17.842
361.29	18.596
361.66	17.379
362.02	18.998
362.38	17.498
362.74	17.947
363.10	18.707
363.46	17.798
363.82	17.756
364.18	17.593
364.54	17.427
364.90	17.993
365.26	17.931
365.62	17.400
365.98	18.584
366.35	17.181
366.71	17.891
367.07	18.200
367.43	16.875
367.79	17.784
368.15	17.926
368.51	17.862
368.87	17.636
369.23	16.467
369.59	17.623
369.95	17.850
370.31	17.961
370.67	16.300
371.03	17.175
371.39	16.588
371.75	16.781
372.11	17.480
372.47	17.400
372.83	17.605
373.19	17.278
373.55	16.734
373.91	16.087
374.27	16.753
374.63	17.185
374.99	16.379
375.35	17.338
375.71	16.645
376.07	16.398
376.42	16.436
376.78	17.029
377.14	16.220
377.50	17.457
377.86	17.365
378.22	16.707
378.58	16.528
378.94	16.725
379.30	16.403
379.66	16.285
380.02	16.619
380.38	17.569
380.74	16.958
381.09	16.899
381.45	16.364
381.81	17.330
382.17	16.746
382.53	16.140
382.89	16.084
383.25	17.057
383.61	15.972
383.97	16.078
384.32	16.268
384.68	15.139
385.04	16.715
385.40	16.500
385.76	16.706
386.12	16.397
386.48	16.235
386.83	16.627
387.19	15.585
387.55	16.138
387.91	16.495
388.27	16.051
388.62	16.724
388.98	14.946
389.34	16.028
389.70	17.199
390.06	16.045
390.42	16.566
390.77	16.315
391.13	15.904
391.49	16.486
391.85	15.455
392.20	15.302
392.56	15.830
392.92	16.085
393.28	16.363
393.64	15.363
393.99	15.747
394.35	16.414
394.71	15.928
395.07	16.287
395.42	16.048
395.78	16.697
396.14	16.221
396.50	15.558
396.85	15.564
397.21	16.036
397.57	16.254
397.92	16.266
398.28	15.046
398.64	15.217
399.00	14.921
399.35	15.131
399.71	15.652
400.07	15.497
400.42	15.832
400.78	15.625
401.14	15.595
401.49	15.748
401.85	15.930
402.21	16.686
402.57	16.080
402.92	15.780
403.28	14.344
403.63	14.737
403.99	15.499
404.35	15.350
404.70	15.524
405.06	14.891
405.42	14.696
405.77	15.540
406.13	15.343
406.49	15.315
406.84	14.903
407.20	15.148
407.55	13.931
407.91	14.519
408.27	15.548
408.62	15.649
408.98	14.858
409.34	13.724
409.69	14.648
410.05	15.299
410.40	14.501
410.76	15.704
411.11	15.430
411.47	14.988
411.83	15.403
412.18	15.482
412.54	14.760
412.89	15.716
413.25	15.519
413.60	15.106
413.96	14.918
414.31	14.561
414.67	14.311
415.03	15.077
415.38	14.124
415.74	14.600
416.09	15.423
416.45	14.778
416.80	14.565
417.16	15.517
417.51	14.633
417.87	14.347
418.22	14.790
418.58	14.684
418.93	15.658
419.29	14.735
419.64	14.106
420.00	14.540
420.35	14.992
420.71	14.934
421.06	13.974
421.42	14.622
421.77	15.293
422.12	15.169
422.48	14.491
422.83	15.279
423.19	14.164
423.54	14.657
423.90	14.025
424.25	14.027
424.61	13.605
424.96	14.388
425.31	15.074
425.67	14.654
426.02	13.890
426.38	14.811
426.73	14.342
427.09	14.706
427.44	14.691
427.79	14.704
428.15	13.299
428.50	14.213
428.85	14.351
429.21	15.053
429.56	14.413
429.92	14.349
430.27	15.036
430.62	14.704
430.98	14.707
431.33	14.272
431.68	14.559
432.04	13.916
432.39	14.408
432.74	13.927
433.10	14.062
433.45	13.880
433.80	14.217
434.16	14.618
434.51	14.800
434.86	14.495
435.22	14.665
435.57	14.858
435.92	14.302
436.28	14.391
436.63	14.145
436.98	13.419
437.34	14.262
437.69	14.144
438.04	14.278
438.39	14.991
438.75	13.614
439.10	14.958
439.45	14.589
439.81	14.576
440.16	14.102
440.51	14.270
440.86	14.119
441.22	14.255
441.57	14.570
441.92	14.694
442.27	14.343
442.63	15.152
442.98	15.101
443.33	14.519
443.68	15.560
444.03	14.817
444.39	14.424
444.74	14.191
445.09	14.901
445.44	14.436
445.79	15.469
446.15	14.800
446.50	15.090
446.85	14.300
447.20	15.329
447.55	14.644
447.91	14.346
448.26	15.011
448.61	15.037
448.96	15.397
449.31	14.369
449.66	14.216
450.02	15.032
450.37	14.704
450.72	14.855
451.07	14.237
451.42	14.789
451.77	15.064
452.12	15.124
452.47	14.557
452.83	14.921
453.18	14.011
453.53	15.336
453.88	15.019
454.23	15.819
454.58	14.510
454.93	14.745
455.28	15.412
455.63	14.667
455.98	15.307
456.34	15.077
456.69	14.580
457.04	14.243
457.39	14.468
457.74	14.485
458.09	15.431
458.44	14.655
458.79	14.801
459.14	14.473
459.49	14.884
459.84	15.110
460.19	14.214
460.54	15.162
460.89	14.876
461.24	14.310
461.59	15.551
461.94	14.261
462.29	15.174
462.64	14.484
462.99	15.694
463.34	14.860
463.69	15.123
464.04	15.286
464.39	14.350
464.74	14.253
465.09	14.764
465.44	14.539
465.79	15.177
466.14	14.904
466.49	15.105
466.84	14.821
467.19	15.318
467.54	15.159
467.89	14.540
468.24	15.457
468.59	13.550
468.94	14.569
469.29	14.217
469.64	14.177
469.99	14.277
470.34	14.542
470.68	14.217
471.03	14.800
471.38	14.454
471.73	14.434
472.08	14.594
472.43	14.389
472.78	14.987
473.13	14.602
473.48	15.045
473.83	14.800
474.17	14.889
474.52	15.394
474.87	15.559
475.22	14.817
475.57	14.849
475.92	15.281
476.27	15.335
476.61	14.486
476.96	14.546
477.31	14.604
477.66	15.425
478.01	15.150
478.36	15.304
478.70	14.975
479.05	14.622
479.40	15.202
479.75	15.226
480.10	14.401
480.45	14.859
480.79	15.057
481.14	15.074
481.49	14.902
481.84	14.970
482.19	14.882
482.53	14.517
482.88	15.241
483.23	14.584
483.58	14.017
483.92	14.628
484.27	14.649
484.62	14.851
484.97	15.008
485.31	14.889
485.66	14.502
486.01	14.220
486.36	14.312
486.70	14.627
487.05	14.956
487.40	14.372
487.75	15.064
488.09	14.342
488.44	14.211
488.79	14.435
489.13	14.808
489.48	13.981
489.83	14.245
490.17	14.095
490.52	14.286
490.87	14.763
491.22	14.991
491.56	15.444
491.91	15.220
492.26	15.448
492.60	15.304
492.95	14.217
493.30	14.971
493.64	15.331
493.99	14.386
494.34	14.460
494.68	14.775
495.03	15.066
495.37	14.825
495.72	14.694
496.07	15.469
496.41	15.058
496.76	14.929
497.11	14.692
497.45	14.804
497.80	15.460
498.14	14.286
498.49	15.441
498.84	14.671
499.18	15.385
499.53	15.426
499.87	15.560
500.22	14.648
500.56	15.115
500.91	15.011
501.26	15.591
501.60	14.450
501.95	14.937
502.29	15.050
502.64	15.654
502.98	14.754
503.33	15.076
503.67	14.784
504.02	14.229
504.36	15.505
504.71	15.480
505.06	14.916
505.40	14.808
505.75	15.255
506.09	14.871
506.44	15.135
506.78	15.596
507.13	15.629
507.47	15.017
507.82	15.152
508.16	14.914
508.51	14.534
508.85	14.974
509.19	15.348
509.54	15.562
509.88	15.056
510.23	15.687
510.57	15.273
510.92	15.433
511.26	15.007
511.61	14.872
511.95	15.764
512.30	15.608
512.64	14.793
512.98	15.558
513.33	15.776
513.67	15.808
514.02	15.278
514.36	15.448
514.70	15.417
515.05	15.589
515.39	16.483
515.74	15.960
516.08	14.844
516.42	15.751
516.77	16.246
517.11	15.988
517.46	15.589
517.80	15.179
518.14	15.941
518.49	14.371
518.83	15.859
519.17	15.078
519.52	15.409
519.86	15.470
520.20	15.442
520.55	15.334
520.89	15.146
521.23	15.690
521.58	15.198
521.92	15.637
522.26	15.349
522.61	15.336
522.95	15.110
523.29	15.287
523.64	15.471
523.98	15.801
524.32	16.791
524.66	15.424
525.01	15.006
525.35	15.796
525.69	15.777
526.04	15.270
526.38	16.034
526.72	15.975
527.06	14.956
527.41	16.152
527.75	15.202
528.09	15.880
528.43	16.104
528.78	15.723
529.12	14.908
529.46	14.896
529.80	15.561
530.15	15.942
530.49	15.302
530.83	15.584
531.17	15.532
531.51	15.764
531.86	15.264
532.20	15.732
532.54	15.799
532.88	15.636
533.22	14.143
533.57	16.215
533.91	15.488
534.25	15.998
534.59	14.828
534.93	14.771
535.27	15.324
535.62	16.032
535.96	15.107
536.30	15.159
536.64	15.736
536.98	15.929
537.32	15.926
537.66	15.783
538.01	15.287
538.35	15.225
538.69	15.084
539.03	15.083
539.37	15.371
539.71	15.736
540.05	14.688
540.39	15.037
540.73	15.058
541.07	16.002
541.42	15.830
541.76	15.184
542.10	15.320
542.44	14.738
542.78	15.937
543.12	15.137
543.46	14.957
543.80	15.468
544.14	15.021
544.48	15.012
544.82	15.200
545.16	15.146
545.50	14.560
545.84	14.697
546.18	16.049
546.52	14.968
546.86	15.409
547.20	15.776
547.54	15.106
547.88	14.888
548.22	15.146
548.56	13.692
548.90	15.045
549.24	15.927
549.58	14.763
549.92	14.732
550.26	15.275
550.60	14.231
550.94	15.718
551.28	15.710
551.62	16.173
551.96	16.052
552.30	15.934
552.64	15.432
552.98	15.658
553.32	15.434
553.66	15.370
554.00	15.259
554.34	15.315
554.68	15.300
555.02	15.243
555.36	15.845
555.69	15.311
556.03	14.691
556.37	15.144
556.71	15.409
557.05	14.952
557.39	14.068
557.73	15.654
558.07	15.762
558.41	16.213
558.75	15.348
559.08	15.588
559.42	15.981
559.76	14.790
560.10	15.606
560.44	15.172
560.78	14.750
561.12	14.470
561.45	16.119
561.79	15.690
562.13	15.280
562.47	15.536
562.81	16.076
563.15	14.836
563.48	14.854
563.82	15.901
564.16	14.718
564.50	14.660
564.84	15.044
565.17	14.824
565.51	14.327
565.85	14.549
566.19	14.977
566.52	14.394
566.86	14.884
567.20	15.063
567.54	15.082
567.88	14.934
568.21	14.970
568.55	15.060
568.89	14.117
569.23	14.913
569.56	14.302
569.90	14.612
570.24	14.266
570.57	14.144
570.91	14.054
571.25	14.001
571.59	13.972
571.92	13.699
572.26	13.949
572.60	13.514
572.93	13.276
573.27	13.768
573.61	13.552
573.95	13.741
574.28	13.268
574.62	13.165
574.96	12.991
575.29	13.505
575.63	13.144
575.97	13.246
576.30	13.225
576.64	13.147
576.98	12.779
577.31	13.338
577.65	13.496
577.98	13.441
578.32	13.201
578.66	13.230
578.99	12.902
579.33	13.184
579.67	13.259
580.00	13.014
580.34	13.154
580.67	12.974
581.01	13.046
581.35	12.897
581.68	13.345
582.02	13.502
582.35	13.647
582.69	13.308
583.02	13.418
583.36	13.144
583.70	12.724
584.03	12.887
584.37	13.330
584.70	13.007
585.04	12.881
585.37	13.456
585.71	13.398
586.04	12.990
586.38	13.533
586.72	13.261
587.05	13.200
587.39	13.463
587.72	13.349
588.06	13.685
588.39	13.144
588.73	13.360
589.06	13.459
589.40	13.368
589.73	13.464
590.07	13.395
590.40	13.556
590.73	13.538
591.07	14.259
591.40	13.103
591.74	13.672
592.07	13.317
592.41	13.841
592.74	14.164
593.08	13.153
593.41	13.940
593.75	13.448
594.08	13.753
594.41	13.942
594.75	13.716
595.08	13.122
595.42	13.604
595.75	14.143
596.09	13.961
596.42	13.938
596.75	13.894
597.09	14.384
597.42	14.025
597.75	13.603
598.09	13.889
598.42	14.355
598.76	13.451
599.09	14.276
599.42	13.577
599.76	13.833
600.09	14.114
600.42	13.680
600.76	13.871
601.09	13.575
601.42	13.594
601.76	13.138
602.09	13.724
602.42	13.341
602.76	13.838
603.09	13.583
603.42	14.017
603.76	13.672
604.09	13.982
604.42	13.982
604.76	13.737
605.09	13.761
605.42	13.636
605.75	13.692
606.09	13.177
606.42	13.827
606.75	13.306
607.09	13.095
607.42	14.066
607.75	13.873
608.08	13.536
608.42	13.220
608.75	13.889
609.08	13.625
609.41	14.116
609.75	13.482
610.08	14.160
610.41	13.849
610.74	13.824
611.07	13.233
611.41	14.753
611.74	13.811
612.07	14.212
612.40	13.546
612.73	14.328
613.07	14.328
613.40	14.389
613.73	14.155
614.06	13.199
614.39	14.091
614.72	14.022
615.06	13.859
615.39	13.533
615.72	14.408
616.05	14.036
616.38	13.875
616.71	14.054
617.05	13.578
617.38	14.125
617.71	14.093
618.04	14.301
618.37	14.317
618.70	14.027
619.03	14.695
619.36	14.427
619.69	14.350
620.03	13.371
620.36	13.620
620.69	14.127
621.02	14.961
621.35	14.949
621.68	14.823
622.01	14.662
622.34	13.598
622.67	14.708
623.00	13.023
623.33	14.798
623.66	15.240
623.99	14.220
624.32	15.465
624.65	14.221
624.99	14.759
625.32	15.219
625.65	14.835
625.98	14.034
626.31	15.734
626.64	14.652
626.97	13.878
627.30	14.123
627.63	15.229
627.96	15.766
628.29	14.864
628.62	14.694
628.95	16.039
629.28	14.104
629.61	16.582
629.94	14.477
630.26	14.492
630.59	16.580
630.92	14.892
631.25	16.100
631.58	16.196
631.91	14.808
632.24	14.890
