SpectraSuite Data File
++++++++++++++++++++++++++++++++++++
Date: Thu May 14 16:13:38 PDT 2015
User: schluterlab
Dark Spectrum Present: Yes
Reference Spectrum Present: Yes
Number of Sampled Component Spectra: 1
Spectrometers: USB2E3373
Integration Time (usec): 3000 (USB2E3373)
Spectra Averaged: 3 (USB2E3373)
Boxcar Smoothing: 0 (USB2E3373)
Correct for Electrical Dark: No (USB2E3373)
Strobe/Lamp Enabled: No (USB2E3373)
Correct for Detector Non-linearity: No (USB2E3373)
Correct for Stray Light: No (USB2E3373)
Number of Pixels in Processed Spectrum: 2048
>>>>>Begin Processed Spectral Data<<<<<
178.53	0.000
178.91	200.000
179.29	-1400.000
179.67	-1100.000
180.04	200.000
180.42	60.000
180.80	160.000
181.18	-500.000
181.56	-300.000
181.94	-25.000
182.31	-200.000
182.69	166.667
183.07	50.000
183.45	325.000
183.83	-183.333
184.20	-66.667
184.58	1500.000
184.96	-200.000
185.34	-122.222
185.72	-100.000
186.09	155.556
186.47	300.000
186.85	120.000
187.23	-100.000
187.61	-400.000
187.98	60.000
188.36	250.000
188.74	150.000
189.12	-166.667
189.49	6.250
189.87	-37.500
190.25	11.111
190.63	80.000
191.00	-177.778
191.38	0.000
191.76	-150.000
192.14	-116.667
192.51	550.000
192.89	-16.667
193.27	0.000
193.65	100.000
194.02	-1400.000
194.40	-57.143
194.78	114.286
195.15	0.000
195.53	-63.636
195.91	0.000
196.29	-25.000
196.66	-23.077
197.04	-2000.000
197.42	-85.714
197.79	-200.000
198.17	-225.000
198.55	-157.143
198.92	-11.111
199.30	-12.500
199.68	-27.273
200.05	21.429
200.43	50.000
200.81	42.857
201.18	0.000
201.56	177.778
201.94	0.000
202.31	400.000
202.69	-100.000
203.07	200.000
203.44	-11.111
203.82	-250.000
204.19	-8.333
204.57	-133.333
204.95	-162.500
205.32	700.000
205.70	250.000
206.08	0.000
206.45	-116.667
206.83	260.000
207.20	-83.333
207.58	-80.000
207.96	-300.000
208.33	66.667
208.71	50.000
209.08	33.333
209.46	0.000
209.84	216.667
210.21	500.000
210.59	800.000
210.96	266.667
211.34	-25.000
211.71	-87.500
212.09	-900.000
212.46	0.000
212.84	1150.000
213.22	-40.000
213.59	-125.000
213.97	-10.000
214.34	-133.333
214.72	266.667
215.09	-275.000
215.47	0.000
215.84	-0.000
216.22	750.000
216.59	100.000
216.97	-200.000
217.34	-175.000
217.72	0.000
218.09	-325.000
218.47	-175.000
218.84	0.000
219.22	80.000
219.59	47.059
219.97	10.000
220.34	250.000
220.72	-122.222
221.09	-23.077
221.47	-266.667
221.84	-90.000
222.22	-114.286
222.59	0.000
222.97	12.500
223.34	-280.000
223.72	-200.000
224.09	-150.000
224.46	-300.000
224.84	120.000
225.21	-157.143
225.59	-300.000
225.96	-225.000
226.34	30.769
226.71	300.000
227.08	-550.000
227.46	6.667
227.83	-50.000
228.21	47.368
228.58	75.000
228.95	550.000
229.33	-33.333
229.70	20.000
230.08	57.895
230.45	90.000
230.82	-166.667
231.20	-14.286
231.57	-16.667
231.95	-63.636
232.32	-27.273
232.69	5.000
233.07	0.000
233.44	-29.412
233.81	-100.000
234.19	38.889
234.56	4.545
234.93	24.138
235.31	10.526
235.68	-38.889
236.05	-60.000
236.43	50.000
236.80	44.000
237.17	14.815
237.55	-9.091
237.92	-120.000
238.29	-9.677
238.67	13.636
239.04	0.000
239.41	-19.048
239.79	-32.609
240.16	5.556
240.53	-6.522
240.91	-17.647
241.28	3.279
241.65	5.970
242.02	5.405
242.40	-1.538
242.77	-9.333
243.14	-14.634
243.51	-22.368
243.89	-12.821
244.26	-3.960
244.63	-6.863
245.00	-3.738
245.38	-3.509
245.75	-15.929
246.12	-3.175
246.49	-4.651
246.87	-2.143
247.24	4.636
247.61	-3.947
247.98	-2.685
248.36	3.086
248.73	-6.135
249.10	3.279
249.47	10.945
249.84	3.665
250.22	0.518
250.59	0.000
250.96	0.909
251.33	-3.061
251.70	2.564
252.08	0.833
252.45	3.279
252.82	0.826
253.19	-5.469
253.56	1.521
253.94	1.154
254.31	0.379
254.68	2.098
255.05	2.606
255.42	-3.061
255.79	-0.647
256.16	1.987
256.54	-1.987
256.91	0.000
257.28	-3.279
257.65	0.000
258.02	-0.590
258.39	1.709
258.76	7.339
259.14	6.034
259.51	2.017
259.88	-1.416
260.25	1.389
260.62	1.644
260.99	3.279
261.36	1.877
261.73	0.796
262.10	-2.473
262.47	0.804
262.85	4.040
263.22	-1.558
263.59	-2.105
263.96	2.813
264.33	-1.279
264.70	1.975
265.07	2.387
265.44	2.268
265.81	0.926
266.18	3.175
266.55	2.009
266.92	-1.822
267.29	2.407
267.66	0.887
268.03	2.183
268.40	1.670
268.77	-1.595
269.14	-1.101
269.51	0.219
269.88	1.844
270.25	2.414
270.62	2.321
270.99	5.253
271.36	3.564
271.73	1.965
272.10	2.405
272.47	0.802
272.84	0.402
273.21	1.002
273.58	0.806
273.95	0.577
274.32	0.380
274.69	1.354
275.06	1.648
275.43	0.739
275.80	1.764
276.17	-0.185
276.54	0.373
276.91	1.252
277.28	2.170
277.65	4.129
278.02	2.022
278.39	0.000
278.76	1.582
279.13	0.532
279.50	4.296
279.87	2.326
280.23	-0.880
280.60	1.356
280.97	1.316
281.34	-0.509
281.71	2.200
282.08	1.163
282.45	1.473
282.82	1.256
283.19	0.969
283.56	0.164
283.92	3.303
284.29	3.318
284.66	1.478
285.03	0.000
285.40	3.091
285.77	0.310
286.14	2.137
286.51	0.152
286.87	1.738
287.24	2.711
287.61	1.046
287.98	1.511
288.35	1.479
288.72	1.923
289.08	1.611
289.45	0.592
289.82	0.151
290.19	1.006
290.56	1.690
290.93	1.427
291.29	0.826
291.66	0.275
292.03	1.221
292.40	3.265
292.77	1.752
293.13	1.624
293.50	0.657
293.87	0.805
294.24	1.333
294.60	2.149
294.97	1.074
295.34	2.817
295.71	0.883
296.08	1.292
296.44	1.471
296.81	2.314
297.18	2.117
297.55	2.123
297.91	2.254
298.28	0.118
298.65	2.378
299.02	1.771
299.38	2.632
299.75	3.388
300.12	1.273
300.48	1.498
300.85	1.800
301.22	2.685
301.59	2.626
301.95	2.373
302.32	4.111
302.69	1.314
303.05	2.938
303.42	2.550
303.79	2.500
304.15	3.155
304.52	2.326
304.89	2.827
305.25	3.106
305.62	3.762
305.99	3.505
306.35	2.722
306.72	4.550
307.09	2.741
307.45	3.727
307.82	3.935
308.19	4.440
308.55	3.954
308.92	4.771
309.29	3.640
309.65	3.509
310.02	3.069
310.38	3.642
310.75	5.049
311.12	5.944
311.48	4.888
311.85	4.368
312.22	5.408
312.58	5.258
312.95	4.398
313.31	5.510
313.68	7.051
314.05	7.498
314.41	7.104
314.78	7.266
315.14	7.350
315.51	7.018
315.87	8.101
316.24	7.945
316.61	9.414
316.97	7.511
317.34	8.113
317.70	9.432
318.07	8.642
318.43	10.544
318.80	10.535
319.16	9.700
319.53	8.569
319.89	9.641
320.26	11.032
320.62	10.550
320.99	11.265
321.35	11.091
321.72	12.465
322.08	10.550
322.45	11.653
322.81	10.830
323.18	12.301
323.54	12.500
323.91	12.811
324.27	13.511
324.64	14.106
325.00	13.847
325.37	13.759
325.73	13.719
326.10	14.436
326.46	15.147
326.83	15.132
327.19	15.276
327.56	15.494
327.92	15.421
328.29	15.000
328.65	15.327
329.01	15.567
329.38	16.681
329.74	16.695
330.11	17.551
330.47	16.428
330.84	16.537
331.20	16.667
331.56	16.898
331.93	17.406
332.29	17.797
332.66	17.359
333.02	17.504
333.38	16.779
333.75	16.582
334.11	18.182
334.48	17.904
334.84	17.417
335.20	17.128
335.57	17.201
335.93	18.760
336.29	16.722
336.66	17.746
337.02	17.559
337.38	17.942
337.75	18.099
338.11	16.569
338.47	16.543
338.84	18.020
339.20	17.186
339.56	16.310
339.93	18.391
340.29	18.035
340.65	16.869
341.02	17.638
341.38	19.321
341.74	17.918
342.11	17.056
342.47	17.633
342.83	18.680
343.20	17.416
343.56	18.123
343.92	18.175
344.28	18.438
344.65	18.605
345.01	18.565
345.37	18.274
345.73	16.991
346.10	18.253
346.46	17.722
346.82	18.876
347.19	18.029
347.55	18.058
347.91	18.351
348.27	17.982
348.63	18.964
349.00	18.792
349.36	18.067
349.72	18.304
350.08	19.094
350.45	18.555
350.81	18.703
351.17	18.045
351.53	19.257
351.89	19.362
352.26	18.284
352.62	19.403
352.98	19.771
353.34	18.745
353.70	19.260
354.07	19.300
354.43	19.210
354.79	18.624
355.15	19.426
355.51	19.152
355.87	19.970
356.24	19.392
356.60	19.808
356.96	20.015
357.32	18.736
357.68	18.887
358.04	19.611
358.40	20.746
358.77	19.444
359.13	20.384
359.49	20.074
359.85	20.087
360.21	20.301
360.57	19.598
360.93	20.592
361.29	22.386
361.66	20.927
362.02	21.851
362.38	20.661
362.74	21.020
363.10	21.664
363.46	21.953
363.82	21.946
364.18	22.379
364.54	20.954
364.90	21.204
365.26	22.069
365.62	22.067
365.98	21.443
366.35	21.208
366.71	22.993
367.07	23.275
367.43	22.259
367.79	22.893
368.15	23.211
368.51	22.530
368.87	22.992
369.23	22.800
369.59	21.585
369.95	23.056
370.31	22.957
370.67	22.215
371.03	23.753
371.39	23.439
371.75	24.484
372.11	23.713
372.47	23.968
372.83	25.589
373.19	23.682
373.55	24.390
373.91	24.404
374.27	24.709
374.63	24.696
374.99	24.138
375.35	24.870
375.71	23.742
376.07	25.307
376.42	25.063
376.78	25.544
377.14	24.704
377.50	25.490
377.86	25.924
378.22	26.347
378.58	26.100
378.94	25.528
379.30	26.128
379.66	25.750
380.02	25.736
380.38	27.131
380.74	26.141
381.09	26.307
381.45	27.159
381.81	27.927
382.17	27.197
382.53	26.374
382.89	26.919
383.25	28.370
383.61	27.083
383.97	28.033
384.32	28.947
384.68	26.682
385.04	28.976
385.40	29.110
385.76	28.839
386.12	28.785
386.48	29.294
386.83	29.380
387.19	28.447
387.55	28.638
387.91	28.311
388.27	30.831
388.62	29.439
388.98	28.934
389.34	29.699
389.70	29.460
390.06	29.603
390.42	30.663
390.77	31.246
391.13	29.988
391.49	30.495
391.85	30.545
392.20	29.715
392.56	30.774
392.92	30.044
393.28	30.348
393.64	30.670
393.99	31.145
394.35	30.958
394.71	31.377
395.07	30.359
395.42	31.125
395.78	32.236
396.14	31.313
396.50	32.126
396.85	31.783
397.21	31.598
397.57	32.038
397.92	32.818
398.28	31.993
398.64	31.693
399.00	30.890
399.35	31.518
399.71	32.772
400.07	32.566
400.42	32.072
400.78	31.887
401.14	32.328
401.49	32.177
401.85	32.849
402.21	33.314
402.57	33.333
402.92	32.447
403.28	32.026
403.63	33.174
403.99	32.838
404.35	32.007
404.70	32.805
405.06	31.630
405.42	33.021
405.77	33.261
406.13	33.712
406.49	33.052
406.84	33.075
407.20	33.203
407.55	33.434
407.91	32.684
408.27	33.098
408.62	33.275
408.98	33.894
409.34	33.724
409.69	33.313
410.05	33.939
410.40	33.875
410.76	33.371
411.11	34.541
411.47	34.582
411.83	34.509
412.18	34.699
412.54	34.321
412.89	33.877
413.25	33.296
413.60	34.233
413.96	34.382
414.31	33.994
414.67	35.003
415.03	33.415
415.38	35.372
415.74	34.575
416.09	34.608
416.45	34.627
416.80	33.599
417.16	35.696
417.51	34.184
417.87	33.722
418.22	35.988
418.58	35.006
418.93	34.983
419.29	34.155
419.64	34.814
420.00	34.006
420.35	34.924
420.71	34.061
421.06	34.445
421.42	35.722
421.77	34.087
422.12	33.932
422.48	34.562
422.83	34.940
423.19	35.650
423.54	35.564
423.90	35.174
424.25	34.773
424.61	34.443
424.96	35.420
425.31	35.775
425.67	34.568
426.02	35.307
426.38	34.902
426.73	34.598
427.09	35.640
427.44	34.681
427.79	34.826
428.15	34.018
428.50	35.000
428.85	33.869
429.21	35.372
429.56	35.390
429.92	34.545
430.27	35.422
430.62	36.248
430.98	35.366
431.33	35.142
431.68	34.818
432.04	35.246
432.39	34.976
432.74	34.817
433.10	36.019
433.45	34.894
433.80	35.569
434.16	36.105
434.51	36.588
434.86	36.428
435.22	36.132
435.57	36.085
435.92	35.559
436.28	35.779
436.63	37.029
436.98	35.856
437.34	36.133
437.69	35.718
438.04	36.118
438.39	35.669
438.75	36.248
439.10	36.892
439.45	36.892
439.81	36.384
440.16	35.764
440.51	35.730
440.86	36.187
441.22	36.281
441.57	36.688
441.92	35.839
442.27	37.525
442.63	36.761
442.98	36.980
443.33	36.454
443.68	36.868
444.03	37.394
444.39	37.864
444.74	37.366
445.09	35.986
445.44	37.302
445.79	36.877
446.15	36.536
446.50	37.106
446.85	37.403
447.20	36.509
447.55	36.872
447.91	37.592
448.26	36.099
448.61	36.610
448.96	37.822
449.31	36.214
449.66	37.255
450.02	38.133
450.37	37.880
450.72	36.706
451.07	36.959
451.42	37.319
451.77	36.465
452.12	36.512
452.47	37.671
452.83	37.894
453.18	37.595
453.53	36.646
453.88	36.665
454.23	37.401
454.58	36.912
454.93	36.286
455.28	36.424
455.63	36.669
455.98	37.486
456.34	37.161
456.69	36.919
457.04	37.943
457.39	36.973
457.74	37.360
458.09	37.507
458.44	37.446
458.79	36.978
459.14	36.917
459.49	37.125
459.84	37.985
460.19	36.924
460.54	36.797
460.89	36.898
461.24	36.552
461.59	36.525
461.94	36.110
462.29	35.834
462.64	36.029
462.99	36.911
463.34	36.665
463.69	35.053
464.04	36.798
464.39	35.146
464.74	35.462
465.09	35.063
465.44	36.320
465.79	35.854
466.14	34.237
466.49	35.737
466.84	35.923
467.19	35.318
467.54	34.254
467.89	34.713
468.24	34.681
468.59	35.263
468.94	34.149
469.29	34.733
469.64	35.029
469.99	34.799
470.34	34.839
470.68	35.475
471.03	34.905
471.38	35.252
471.73	33.875
472.08	34.645
472.43	34.919
472.78	35.579
473.13	34.640
473.48	34.683
473.83	34.765
474.17	33.763
474.52	34.636
474.87	33.942
475.22	33.521
475.57	34.320
475.92	33.350
476.27	34.026
476.61	33.385
476.96	33.055
477.31	34.059
477.66	33.893
478.01	33.096
478.36	33.549
478.70	34.039
479.05	34.151
479.40	34.551
479.75	33.814
480.10	33.065
480.45	34.275
480.79	33.878
481.14	33.410
481.49	33.212
481.84	33.377
482.19	33.591
482.53	33.406
482.88	33.141
483.23	32.904
483.58	32.576
483.92	32.491
484.27	32.007
484.62	32.261
484.97	32.387
485.31	31.468
485.66	31.218
486.01	31.727
486.36	32.451
486.70	32.932
487.05	32.290
487.40	31.600
487.75	31.603
488.09	31.192
488.44	30.025
488.79	30.590
489.13	31.209
489.48	30.563
489.83	30.382
490.17	30.984
490.52	30.008
490.87	31.091
491.22	31.456
491.56	31.143
491.91	31.182
492.26	30.247
492.60	30.477
492.95	30.803
493.30	30.480
493.64	30.793
493.99	30.175
494.34	30.357
494.68	30.278
495.03	30.529
495.37	30.404
495.72	30.658
496.07	29.273
496.41	30.287
496.76	30.400
497.11	30.149
497.45	29.046
497.80	29.765
498.14	29.388
498.49	30.377
498.84	29.707
499.18	29.915
499.53	30.045
499.87	29.846
500.22	28.540
500.56	29.330
500.91	28.513
501.26	28.500
501.60	28.458
501.95	28.528
502.29	29.048
502.64	29.034
502.98	28.559
503.33	27.862
503.67	28.129
504.02	27.846
504.36	28.820
504.71	27.699
505.06	28.058
505.40	28.748
505.75	28.233
506.09	27.624
506.44	27.716
506.78	28.440
507.13	27.801
507.47	28.091
507.82	27.367
508.16	27.103
508.51	27.098
508.85	28.153
509.19	27.096
509.54	26.753
509.88	26.372
510.23	27.149
510.57	28.081
510.92	27.673
511.26	27.225
511.61	25.881
511.95	26.110
512.30	27.228
512.64	26.887
512.98	26.213
513.33	26.764
513.67	26.364
514.02	27.133
514.36	26.854
514.70	26.406
515.05	26.955
515.39	25.984
515.74	26.723
516.08	26.994
516.42	26.531
516.77	26.446
517.11	25.271
517.46	25.345
517.80	26.991
518.14	26.551
518.49	26.410
518.83	25.333
519.17	24.771
519.52	25.052
519.86	25.607
520.20	25.186
520.55	25.192
520.89	25.619
521.23	25.572
521.58	25.367
521.92	25.099
522.26	25.143
522.61	24.884
522.95	24.856
523.29	25.115
523.64	24.888
523.98	26.013
524.32	24.986
524.66	24.644
525.01	24.575
525.35	24.469
525.69	24.710
526.04	23.651
526.38	24.483
526.72	23.702
527.06	24.106
527.41	24.315
527.75	24.169
528.09	24.911
528.43	23.860
528.78	22.948
529.12	23.624
529.46	23.328
529.80	23.513
530.15	23.188
530.49	23.250
530.83	23.849
531.17	22.939
531.51	23.767
531.86	24.459
532.20	23.598
532.54	22.741
532.88	23.152
533.22	23.453
533.57	23.254
533.91	22.391
534.25	22.668
534.59	23.276
534.93	22.298
535.27	22.873
535.62	23.195
535.96	22.952
536.30	22.444
536.64	22.943
536.98	22.940
537.32	22.531
537.66	22.707
538.01	21.511
538.35	22.838
538.69	22.476
539.03	22.992
539.37	22.026
539.71	22.402
540.05	22.002
540.39	21.149
540.73	21.069
541.07	22.134
541.42	22.209
541.76	20.937
542.10	20.627
542.44	20.585
542.78	22.749
543.12	21.514
543.46	21.368
543.80	21.763
544.14	20.168
544.48	21.690
544.82	21.604
545.16	21.705
545.50	20.431
545.84	21.004
546.18	21.543
546.52	20.064
546.86	20.440
547.20	20.738
547.54	20.037
547.88	20.253
548.22	20.526
548.56	20.246
548.90	20.299
549.24	21.033
549.58	20.883
549.92	19.643
550.26	20.388
550.60	20.230
550.94	20.246
551.28	20.792
551.62	20.889
551.96	19.223
552.30	21.351
552.64	20.597
552.98	19.838
553.32	19.871
553.66	19.550
554.00	19.609
554.34	19.755
554.68	19.432
555.02	19.382
555.36	19.987
555.69	18.834
556.03	19.546
556.37	19.962
556.71	18.453
557.05	19.553
557.39	18.845
557.73	18.692
558.07	18.940
558.41	18.538
558.75	18.796
559.08	19.763
559.42	18.999
559.76	18.996
560.10	18.888
560.44	18.206
560.78	18.687
561.12	19.150
561.45	19.161
561.79	19.109
562.13	19.532
562.47	18.187
562.81	18.165
563.15	18.750
563.48	18.583
563.82	18.742
564.16	18.716
564.50	18.117
564.84	17.817
565.17	18.353
565.51	17.261
565.85	17.458
566.19	17.627
566.52	18.198
566.86	18.280
567.20	17.401
567.54	17.685
567.88	17.992
568.21	17.836
568.55	17.074
568.89	17.068
569.23	18.040
569.56	17.859
569.90	18.033
570.24	17.437
570.57	16.966
570.91	17.085
571.25	17.443
571.59	17.506
571.92	17.138
572.26	17.099
572.60	16.844
572.93	16.616
573.27	16.465
573.61	17.125
573.95	16.557
574.28	16.819
574.62	16.394
574.96	16.343
575.29	16.347
575.63	16.262
575.97	16.934
576.30	16.432
576.64	16.345
576.98	16.378
577.31	16.491
577.65	16.508
577.98	16.510
578.32	16.253
578.66	16.265
578.99	16.158
579.33	16.274
579.67	15.911
580.00	16.116
580.34	16.209
580.67	15.953
581.01	15.989
581.35	15.995
581.68	16.131
582.02	15.651
582.35	16.113
582.69	15.977
583.02	15.791
583.36	15.938
583.70	15.769
584.03	15.383
584.37	15.971
584.70	15.379
585.04	14.927
585.37	15.289
585.71	15.491
586.04	15.456
586.38	15.483
586.72	15.392
587.05	15.298
587.39	15.532
587.72	15.335
588.06	15.305
588.39	15.459
588.73	15.185
589.06	15.181
589.40	15.366
589.73	14.653
590.07	15.285
590.40	15.348
590.73	14.917
591.07	15.264
591.40	14.930
591.74	14.666
592.07	15.185
592.41	14.984
592.74	14.838
593.08	15.000
593.41	15.515
593.75	15.144
594.08	15.208
594.41	14.679
594.75	14.680
595.08	14.939
595.42	15.065
595.75	14.789
596.09	14.809
596.42	14.833
596.75	14.743
597.09	14.949
597.42	15.177
597.75	14.426
598.09	14.206
598.42	15.199
598.76	14.100
599.09	14.347
599.42	14.482
599.76	14.130
600.09	14.715
600.42	14.448
600.76	13.606
601.09	14.106
601.42	14.281
601.76	14.345
602.09	13.438
602.42	13.813
602.76	13.579
603.09	13.656
603.42	13.909
603.76	14.165
604.09	15.117
604.42	14.569
604.76	14.117
605.09	14.400
605.42	13.596
605.75	13.923
606.09	13.289
606.42	13.645
606.75	13.043
607.09	13.364
607.42	13.449
607.75	13.951
608.08	13.615
608.42	14.027
608.75	13.557
609.08	13.370
609.41	13.410
609.75	13.929
610.08	14.292
610.41	13.594
610.74	13.403
611.07	13.544
611.41	14.170
611.74	13.025
612.07	13.604
612.40	13.831
612.73	13.545
613.07	13.252
613.40	13.330
613.73	13.818
614.06	13.641
614.39	13.022
614.72	13.440
615.06	13.811
615.39	13.001
615.72	12.559
616.05	13.453
616.38	13.623
616.71	12.800
617.05	12.780
617.38	13.162
617.71	12.743
618.04	13.222
618.37	13.169
618.70	13.235
619.03	13.262
619.36	13.317
619.69	12.684
620.03	13.183
620.36	13.252
620.69	13.140
621.02	13.123
621.35	13.425
621.68	13.087
622.01	13.381
622.34	12.901
622.67	12.990
623.00	12.483
623.33	12.873
623.66	14.008
623.99	12.311
624.32	13.840
624.65	12.355
624.99	13.589
625.32	12.280
625.65	12.542
625.98	13.017
626.31	12.332
626.64	12.821
626.97	12.453
627.30	11.541
627.63	13.353
627.96	13.739
628.29	12.996
628.62	11.923
628.95	12.270
629.28	12.234
629.61	14.226
629.94	12.134
630.26	11.780
630.59	13.558
630.92	11.602
631.25	13.417
631.58	11.205
631.91	12.652
632.24	12.680
632.57	12.239
632.90	13.039
633.23	13.061
633.56	14.592
633.89	10.847
634.22	12.786
634.55	12.735
634.88	13.203
635.20	13.886
635.53	12.881
635.86	13.001
636.19	12.831
636.52	13.502
636.85	11.951
637.18	11.642
