SpectraSuite Data File
++++++++++++++++++++++++++++++++++++
Date: Thu May 14 16:09:22 PDT 2015
User: schluterlab
Dark Spectrum Present: Yes
Reference Spectrum Present: Yes
Number of Sampled Component Spectra: 1
Spectrometers: USB2E3373
Integration Time (usec): 3000 (USB2E3373)
Spectra Averaged: 3 (USB2E3373)
Boxcar Smoothing: 0 (USB2E3373)
Correct for Electrical Dark: No (USB2E3373)
Strobe/Lamp Enabled: No (USB2E3373)
Correct for Detector Non-linearity: No (USB2E3373)
Correct for Stray Light: No (USB2E3373)
Number of Pixels in Processed Spectrum: 2048
>>>>>Begin Processed Spectral Data<<<<<
178.53	0.000
178.91	71.429
179.29	-1700.000
179.67	-1200.000
180.04	192.857
180.42	210.000
180.80	480.000
181.18	-1100.000
181.56	-400.000
181.94	450.000
182.31	-225.000
182.69	366.667
183.07	-100.000
183.45	225.000
183.83	-66.667
184.20	-800.000
184.58	1700.000
184.96	-550.000
185.34	-111.111
185.72	-80.000
186.09	288.889
186.47	450.000
186.85	400.000
187.23	-200.000
187.61	-2400.000
187.98	420.000
188.36	300.000
188.74	-400.000
189.12	-133.333
189.49	-87.500
189.87	-237.500
190.25	-133.333
190.63	-260.000
191.00	-244.444
191.38	0.000
191.76	-450.000
192.14	-316.667
192.51	950.000
192.89	-66.667
193.27	0.000
193.65	-228.571
194.02	-2300.000
194.40	-200.000
194.78	128.571
195.15	0.000
195.53	-27.273
195.91	0.000
196.29	-200.000
196.66	-76.923
197.04	-1500.000
197.42	-185.714
197.79	-800.000
198.17	-312.500
198.55	-300.000
198.92	-66.667
199.30	-175.000
199.68	-45.455
200.05	-28.571
200.43	-1250.000
200.81	342.857
201.18	0.000
201.56	233.333
201.94	0.000
202.31	666.667
202.69	-166.667
203.07	1200.000
203.44	-166.667
203.82	-300.000
204.19	-75.000
204.57	-150.000
204.95	-175.000
205.32	-1200.000
205.70	475.000
206.08	-66.667
206.45	-116.667
206.83	560.000
207.20	-150.000
207.58	-440.000
207.96	-216.667
208.33	-83.333
208.71	83.333
209.08	0.000
209.46	0.000
209.84	383.333
210.21	500.000
210.59	900.000
210.96	433.333
211.34	-200.000
211.71	-100.000
212.09	-1200.000
212.46	0.000
212.84	1350.000
213.22	-240.000
213.59	-250.000
213.97	-190.000
214.34	-566.667
214.72	333.333
215.09	-275.000
215.47	0.000
215.84	171.429
216.22	750.000
216.59	-300.000
216.97	-240.000
217.34	-250.000
217.72	-87.500
218.09	-450.000
218.47	-225.000
218.84	0.000
219.22	340.000
219.59	-35.294
219.97	-20.000
220.34	600.000
220.72	-177.778
221.09	-30.769
221.47	-33.333
221.84	-60.000
222.22	-242.857
222.59	0.000
222.97	-100.000
223.34	-280.000
223.72	-1100.000
224.09	-400.000
224.46	-400.000
224.84	-140.000
225.21	-114.286
225.59	-550.000
225.96	-325.000
226.34	-46.154
226.71	166.667
227.08	-550.000
227.46	-100.000
227.83	-350.000
228.21	-68.421
228.58	150.000
228.95	850.000
229.33	-91.667
229.70	-80.000
230.08	0.000
230.45	240.000
230.82	-466.667
231.20	-50.000
231.57	-83.333
231.95	-63.636
232.32	-145.455
232.69	-20.000
233.07	-225.000
233.44	-100.000
233.81	-120.000
234.19	-33.333
234.56	-36.364
234.93	10.345
235.31	-15.789
235.68	-44.444
236.05	-80.000
236.43	-3.846
236.80	24.000
237.17	-22.222
237.55	-18.182
237.92	-240.000
238.29	-51.613
238.67	-18.182
239.04	-33.333
239.41	-40.476
239.79	-28.261
240.16	-9.259
240.53	-8.696
240.91	-15.686
241.28	-21.311
241.65	-14.925
242.02	-10.811
242.40	-23.077
242.77	-12.000
243.14	-13.415
243.51	-25.000
243.89	-11.538
244.26	-2.970
244.63	-4.902
245.00	-11.215
245.38	-7.895
245.75	-21.239
246.12	3.968
246.49	-10.853
246.87	-5.000
247.24	4.636
247.61	1.316
247.98	-4.027
248.36	-5.556
248.73	-8.589
249.10	-0.546
249.47	4.478
249.84	-1.047
250.22	-7.254
250.59	-3.889
250.96	2.273
251.33	-2.551
251.70	0.427
252.08	0.833
252.45	2.459
252.82	2.479
253.19	1.563
253.56	4.183
253.94	1.923
254.31	0.000
254.68	3.147
255.05	4.235
255.42	3.741
255.79	0.000
256.16	-0.331
256.54	-1.987
256.91	0.656
257.28	2.623
257.65	-1.592
258.02	0.295
258.39	1.994
258.76	3.670
259.14	4.310
259.51	4.899
259.88	1.416
260.25	6.111
260.62	3.014
260.99	4.098
261.36	4.021
261.73	1.061
262.10	2.198
262.47	1.072
262.85	4.040
263.22	0.519
263.59	-0.526
263.96	1.023
264.33	0.256
264.70	2.963
265.07	5.967
265.44	6.576
265.81	0.694
266.18	1.814
266.55	3.571
266.92	0.228
267.29	2.845
267.66	2.439
268.03	2.838
268.40	3.758
268.77	0.000
269.14	0.220
269.51	2.632
269.88	4.918
270.25	4.024
270.62	3.165
270.99	4.444
271.36	3.366
271.73	3.733
272.10	3.607
272.47	2.605
272.84	2.410
273.21	2.004
273.58	2.621
273.95	1.346
274.32	1.711
274.69	1.934
275.06	3.480
275.43	0.739
275.80	2.998
276.17	0.741
276.54	0.746
276.91	1.610
277.28	3.978
277.65	3.232
278.02	2.022
278.39	3.261
278.76	2.988
279.13	3.546
279.50	3.952
279.87	2.862
280.23	-0.176
280.60	2.203
280.97	4.112
281.34	2.037
281.71	3.723
282.08	2.658
282.45	3.437
282.82	2.198
283.19	-0.485
283.56	0.492
283.92	4.054
284.29	4.265
284.66	2.135
285.03	0.321
285.40	2.937
285.77	2.322
286.14	2.748
286.51	2.283
286.87	1.422
287.24	2.711
287.61	2.242
287.98	2.719
288.35	3.402
288.72	2.959
289.08	3.367
289.45	1.923
289.82	2.108
290.19	1.149
290.56	1.972
290.93	1.712
291.29	3.306
291.66	3.857
292.03	2.849
292.40	5.578
292.77	1.752
293.13	3.112
293.50	2.365
293.87	2.550
294.24	3.600
294.60	3.034
294.97	2.148
295.34	3.457
295.71	2.396
296.08	2.067
296.44	2.941
296.81	2.558
297.18	1.993
297.55	2.948
297.91	2.017
298.28	1.659
298.65	3.210
299.02	2.361
299.38	3.776
299.75	3.271
300.12	1.042
300.48	2.419
300.85	3.600
301.22	3.356
301.59	1.484
301.95	1.808
302.32	3.222
302.69	3.724
303.05	3.482
303.42	3.215
303.79	3.229
304.15	2.629
304.52	2.008
304.89	2.618
305.25	3.830
305.62	2.821
305.99	3.814
306.35	3.125
306.72	3.723
307.09	2.944
307.45	3.106
307.82	2.825
308.19	2.825
308.55	3.954
308.92	3.895
309.29	4.502
309.65	3.411
310.02	3.267
310.38	2.953
310.75	2.816
311.12	3.739
311.48	3.324
311.85	4.274
312.22	3.605
312.58	4.319
312.95	4.685
313.31	5.420
313.68	5.769
314.05	5.691
314.41	6.284
314.78	4.632
315.14	4.446
315.51	4.340
315.87	6.301
316.24	5.114
316.61	6.128
316.97	6.425
317.34	5.467
317.70	6.463
318.07	6.614
318.43	6.548
318.80	7.776
319.16	7.210
319.53	6.598
319.89	5.697
320.26	8.274
320.62	6.472
320.99	7.387
321.35	7.579
321.72	9.023
322.08	7.394
322.45	8.040
322.81	8.664
323.18	7.345
323.54	8.534
323.91	7.918
324.27	7.573
324.64	9.572
325.00	8.541
325.37	9.664
325.73	9.504
326.10	9.895
326.46	9.772
326.83	10.969
327.19	8.819
327.56	9.565
327.92	9.284
328.29	8.952
328.65	9.464
329.01	9.729
329.38	10.110
329.74	10.103
330.11	10.445
330.47	10.783
330.84	9.647
331.20	11.250
331.56	9.879
331.93	10.628
332.29	11.610
332.66	9.136
333.02	10.469
333.38	9.228
333.75	9.848
334.11	10.092
334.48	10.066
334.84	11.215
335.20	8.648
335.57	10.961
335.93	11.157
336.29	10.067
336.66	10.177
337.02	10.117
337.38	11.054
337.75	9.174
338.11	10.849
338.47	10.422
338.84	9.137
339.20	9.267
339.56	10.214
339.93	10.181
340.29	10.306
340.65	10.057
341.02	9.976
341.38	10.186
341.74	9.443
342.11	9.413
342.47	9.373
342.83	10.870
343.20	10.793
343.56	9.543
343.92	10.088
344.28	10.000
344.65	10.310
345.01	10.686
345.37	10.109
345.73	9.041
346.10	10.452
346.46	10.206
346.82	10.487
347.19	10.772
347.55	10.622
347.91	9.955
348.27	10.698
348.63	11.043
349.00	9.993
349.36	10.186
349.72	9.821
350.08	10.624
350.45	9.430
350.81	9.427
351.17	9.549
351.53	10.159
351.89	9.643
352.26	10.000
352.62	9.104
352.98	9.924
353.34	9.335
353.70	9.784
354.07	9.836
354.43	9.643
354.79	9.648
355.15	10.743
355.51	10.307
355.87	9.574
356.24	10.266
356.60	9.460
356.96	10.971
357.32	10.037
357.68	10.102
358.04	9.281
358.40	9.552
358.77	10.599
359.13	8.936
359.49	8.476
359.85	9.790
360.21	10.187
360.57	9.476
360.93	10.085
361.29	9.684
361.66	9.703
362.02	10.230
362.38	9.909
362.74	9.916
363.10	9.972
363.46	9.834
363.82	9.304
364.18	9.923
364.54	10.235
364.90	10.234
365.26	9.655
365.62	10.667
365.98	9.258
366.35	9.329
366.71	9.592
367.07	9.946
367.43	9.849
367.79	10.086
368.15	10.569
368.51	9.540
368.87	10.124
369.23	10.133
369.59	10.109
369.95	9.669
370.31	9.926
370.67	10.523
371.03	10.319
371.39	10.074
371.75	10.591
372.11	10.434
372.47	9.614
372.83	10.929
373.19	9.940
373.55	9.011
373.91	10.157
374.27	10.349
374.63	10.622
374.99	9.350
375.35	10.779
375.71	10.710
376.07	10.587
376.42	9.824
376.78	11.125
377.14	10.106
377.50	9.298
377.86	10.099
378.22	10.359
378.58	9.869
378.94	10.387
379.30	10.252
379.66	10.112
380.02	10.502
380.38	10.484
380.74	10.254
381.09	10.395
381.45	11.023
381.81	11.358
382.17	11.223
382.53	10.702
382.89	10.271
383.25	10.199
383.61	10.822
383.97	10.542
384.32	10.885
384.68	9.803
385.04	11.336
385.40	11.373
385.76	11.196
386.12	10.652
386.48	11.294
386.83	11.621
387.19	10.255
387.55	10.387
387.91	10.502
388.27	10.624
388.62	10.538
388.98	10.886
389.34	10.666
389.70	10.633
390.06	10.065
390.42	10.542
390.77	11.740
391.13	11.209
391.49	12.017
391.85	10.485
392.20	11.032
392.56	11.813
392.92	11.178
393.28	10.890
393.64	10.447
393.99	11.273
394.35	11.273
394.71	12.156
395.07	10.659
395.42	10.680
395.78	11.152
396.14	10.873
396.50	10.570
396.85	10.853
397.21	10.414
397.57	10.247
397.92	11.111
398.28	10.103
398.64	11.041
399.00	10.314
399.35	10.733
399.71	10.761
400.07	10.780
400.42	10.768
400.78	11.227
401.14	10.985
401.49	11.029
401.85	10.523
402.21	10.834
402.57	11.385
402.92	11.466
403.28	10.187
403.63	9.964
403.99	9.501
404.35	10.063
404.70	11.048
405.06	10.761
405.42	11.300
405.77	10.905
406.13	10.751
406.49	9.741
406.84	10.526
407.20	9.726
407.55	9.752
407.91	10.622
408.27	10.777
408.62	10.064
408.98	11.434
409.34	9.619
409.69	10.507
410.05	10.199
410.40	10.963
410.76	9.983
411.11	10.462
411.47	10.197
411.83	10.817
412.18	10.361
412.54	10.077
412.89	10.536
413.25	10.214
413.60	10.684
413.96	9.848
414.31	10.028
414.67	10.078
415.03	9.723
415.38	9.710
415.74	10.202
416.09	10.302
416.45	10.520
416.80	9.425
417.16	10.153
417.51	10.772
417.87	9.933
418.22	10.958
418.58	9.851
418.93	10.594
419.29	9.556
419.64	9.244
420.00	10.089
420.35	9.433
420.71	9.765
421.06	9.603
421.42	9.576
421.77	9.208
422.12	9.937
422.48	9.524
422.83	10.186
423.19	9.549
423.54	9.569
423.90	9.884
424.25	9.440
424.61	8.898
424.96	9.061
425.31	9.979
425.67	9.071
426.02	9.408
426.38	8.898
426.73	9.487
427.09	10.438
427.44	9.831
427.79	8.845
428.15	9.247
428.50	8.876
428.85	8.209
429.21	9.681
429.56	8.835
429.92	9.042
430.27	8.867
430.62	8.891
430.98	8.805
431.33	8.895
431.68	8.573
432.04	9.446
432.39	8.838
432.74	7.877
433.10	9.140
433.45	8.082
433.80	8.959
434.16	9.814
434.51	8.479
434.86	9.066
435.22	9.086
435.57	8.785
435.92	8.625
436.28	9.499
436.63	8.575
436.98	8.642
437.34	8.568
437.69	8.531
438.04	8.408
438.39	8.156
438.75	8.135
439.10	8.087
439.45	8.273
439.81	8.644
440.16	8.365
440.51	8.138
440.86	8.338
441.22	8.307
441.57	8.333
441.92	8.390
442.27	8.131
442.63	8.346
442.98	9.232
443.33	8.101
443.68	8.474
444.03	8.984
444.39	8.460
444.74	8.627
445.09	8.008
445.44	8.008
445.79	8.285
446.15	8.325
446.50	7.855
446.85	8.463
447.20	8.656
447.55	8.054
447.91	7.801
448.26	7.928
448.61	8.289
448.96	8.423
449.31	7.423
449.66	7.898
450.02	7.700
450.37	8.045
450.72	7.966
451.07	7.631
451.42	7.972
451.77	7.337
452.12	8.521
452.47	7.368
452.83	7.714
453.18	7.531
453.53	7.639
453.88	7.510
454.23	8.192
454.58	7.487
454.93	7.828
455.28	7.947
455.63	8.869
455.98	8.492
456.34	7.538
456.69	7.701
457.04	7.624
457.39	7.428
457.74	8.557
458.09	7.084
458.44	7.381
458.79	6.395
459.14	7.184
459.49	7.980
459.84	7.555
460.19	7.052
460.54	7.723
460.89	7.253
461.24	6.897
461.59	7.471
461.94	7.131
462.29	7.671
462.64	7.061
462.99	7.470
463.34	7.528
463.69	7.093
464.04	7.282
464.39	7.567
464.74	8.039
465.09	7.382
465.44	7.350
465.79	7.033
466.14	7.348
466.49	7.895
466.84	7.163
467.19	7.457
467.54	6.345
467.89	7.184
468.24	6.759
468.59	6.022
468.94	6.702
469.29	6.299
469.64	6.167
469.99	6.692
470.34	6.559
470.68	6.972
471.03	6.811
471.38	6.802
471.73	6.372
472.08	6.155
472.43	6.863
472.78	6.864
473.13	6.511
473.48	6.284
473.83	6.732
474.17	6.565
474.52	5.953
474.87	6.755
475.22	6.930
475.57	6.594
475.92	6.421
476.27	7.029
476.61	6.750
476.96	6.621
477.31	7.030
477.66	7.030
478.01	6.304
478.36	6.481
478.70	6.798
479.05	7.106
479.40	5.923
479.75	6.916
480.10	6.774
480.45	6.108
480.79	6.757
481.14	6.020
481.49	6.224
481.84	7.006
482.19	6.538
482.53	6.515
482.88	6.646
483.23	6.181
483.58	5.895
483.92	6.516
484.27	6.478
484.62	6.601
484.97	6.765
485.31	6.829
485.66	6.346
486.01	6.150
486.36	6.444
486.70	6.712
487.05	6.834
487.40	6.733
487.75	6.972
488.09	6.453
488.44	6.412
488.79	6.644
489.13	6.336
489.48	6.330
489.83	6.157
490.17	6.278
490.52	6.445
490.87	5.795
491.22	6.239
491.56	6.570
491.91	6.367
492.26	5.712
492.60	6.078
492.95	6.582
493.30	6.096
493.64	6.045
493.99	5.833
494.34	5.618
494.68	5.696
495.03	6.123
495.37	6.258
495.72	6.213
496.07	5.784
496.41	5.363
496.76	5.796
497.11	5.732
497.45	5.395
497.80	5.820
498.14	5.624
498.49	6.066
498.84	5.987
499.18	5.848
499.53	6.009
499.87	5.758
500.22	5.610
500.56	6.118
500.91	5.538
501.26	5.591
501.60	5.259
501.95	5.992
502.29	5.792
502.64	5.772
502.98	5.997
503.33	5.400
503.67	5.539
504.02	5.823
504.36	6.032
504.71	5.650
505.06	6.185
505.40	5.393
505.75	5.556
506.09	5.755
506.44	5.432
506.78	6.284
507.13	5.486
507.47	6.111
507.82	5.256
508.16	5.449
508.51	5.673
508.85	5.668
509.19	5.874
509.54	6.772
509.88	5.682
510.23	5.780
510.57	5.945
510.92	5.660
511.26	4.858
511.61	5.698
511.95	4.978
512.30	5.662
512.64	5.497
512.98	5.203
513.33	5.796
513.67	5.558
514.02	5.519
514.36	5.524
514.70	5.625
515.05	5.631
515.39	5.302
515.74	6.310
516.08	6.022
516.42	5.808
516.77	5.152
517.11	5.003
517.46	5.673
517.80	5.879
518.14	6.094
518.49	5.857
518.83	5.322
519.17	5.170
519.52	5.660
519.86	5.649
520.20	5.272
520.55	6.134
520.89	5.124
521.23	5.583
521.58	5.989
521.92	5.382
522.26	5.384
522.61	5.440
522.95	5.536
523.29	5.172
523.64	5.774
523.98	6.503
524.32	5.673
524.66	5.179
525.01	4.870
525.35	5.227
525.69	5.510
526.04	5.052
526.38	5.287
526.72	5.479
527.06	5.396
527.41	6.006
527.75	5.463
528.09	5.844
528.43	5.625
528.78	5.549
529.12	5.333
529.46	5.396
529.80	5.778
530.15	5.623
530.49	5.101
530.83	4.900
531.17	4.182
531.51	5.174
531.86	5.288
532.20	6.341
532.54	5.506
532.88	5.394
533.22	5.245
533.57	5.886
533.91	5.499
534.25	5.879
534.59	4.713
534.93	4.924
535.27	6.197
535.62	5.514
535.96	5.578
536.30	5.229
536.64	6.006
536.98	5.843
537.32	5.926
537.66	6.051
538.01	5.559
538.35	5.847
538.69	5.288
539.03	5.395
539.37	5.830
539.71	5.165
540.05	5.815
540.39	5.807
540.73	5.282
541.07	5.518
541.42	5.257
541.76	5.753
542.10	4.885
542.44	4.994
542.78	5.839
543.12	4.946
543.46	4.701
543.80	4.317
544.14	5.326
544.48	5.615
544.82	5.625
545.16	5.367
545.50	4.913
545.84	4.899
546.18	6.173
546.52	5.032
546.86	4.843
547.20	5.216
547.54	5.119
547.88	5.063
548.22	5.439
548.56	5.559
548.90	5.134
549.24	5.471
549.58	6.435
549.92	4.719
550.26	5.178
550.60	5.871
550.94	5.239
551.28	5.215
551.62	5.526
551.96	5.243
552.30	6.437
552.64	5.165
552.98	5.115
553.32	5.145
553.66	5.209
554.00	5.864
554.34	5.856
554.68	5.165
555.02	5.191
555.36	5.720
555.69	4.805
556.03	4.918
556.37	5.382
556.71	4.946
557.05	5.048
557.39	4.844
557.73	5.020
558.07	5.232
558.41	5.648
558.75	5.206
559.08	5.706
559.42	4.733
559.76	5.699
560.10	5.291
560.44	5.013
560.78	5.500
561.12	4.926
561.45	5.900
561.79	5.861
562.13	5.792
562.47	4.254
562.81	5.316
563.15	5.366
563.48	5.096
563.82	4.776
564.16	4.603
564.50	4.827
564.84	4.956
565.17	5.824
565.51	4.948
565.85	4.572
566.19	5.127
566.52	5.325
566.86	5.263
567.20	4.459
567.54	4.142
567.88	5.352
568.21	5.781
568.55	4.940
568.89	5.810
569.23	5.619
569.56	4.807
569.90	5.488
570.24	4.924
570.57	5.035
570.91	4.930
571.25	5.641
571.59	5.678
571.92	5.730
572.26	5.267
572.60	5.160
572.93	6.012
573.27	5.030
573.61	5.135
573.95	5.560
574.28	5.793
574.62	5.298
574.96	5.404
575.29	5.750
575.63	5.452
575.97	5.269
576.30	5.551
576.64	5.536
576.98	5.421
577.31	5.388
577.65	5.386
577.98	5.441
578.32	5.277
578.66	5.428
578.99	5.509
579.33	5.336
579.67	5.372
580.00	5.394
580.34	5.388
580.67	5.229
581.01	5.322
581.35	5.085
581.68	5.395
582.02	5.423
582.35	5.459
582.69	5.713
583.02	5.476
583.36	5.402
583.70	5.203
584.03	5.256
584.37	5.875
584.70	5.501
585.04	5.092
585.37	5.259
585.71	5.502
586.04	5.548
586.38	5.246
586.72	4.989
587.05	4.733
587.39	5.610
587.72	5.359
588.06	5.706
588.39	5.477
588.73	4.974
589.06	5.277
589.40	5.409
589.73	5.077
590.07	5.371
590.40	5.747
590.73	5.267
591.07	5.398
591.40	5.560
591.74	5.048
592.07	5.847
592.41	4.929
592.74	5.573
593.08	5.127
593.41	5.599
593.75	5.489
594.08	5.150
594.41	5.192
594.75	4.982
595.08	5.585
595.42	5.357
595.75	4.940
596.09	5.354
596.42	5.016
596.75	5.210
597.09	5.293
597.42	5.085
597.75	5.292
598.09	5.317
598.42	5.710
598.76	5.082
599.09	5.233
599.42	5.297
599.76	5.381
600.09	5.739
600.42	5.539
600.76	5.350
601.09	5.144
601.42	4.909
601.76	5.103
602.09	5.147
602.42	5.162
602.76	5.240
603.09	5.176
603.42	5.419
603.76	4.757
604.09	5.536
604.42	5.358
604.76	4.795
605.09	5.345
605.42	5.183
605.75	5.000
606.09	5.077
606.42	4.487
606.75	5.322
607.09	4.877
607.42	5.549
607.75	5.002
608.08	5.683
608.42	5.320
608.75	5.100
609.08	4.924
609.41	4.896
609.75	5.179
610.08	5.277
610.41	4.715
610.74	5.378
611.07	4.707
611.41	5.247
611.74	5.589
612.07	5.330
612.40	5.038
612.73	5.183
613.07	5.330
613.40	5.101
613.73	4.622
614.06	5.054
614.39	4.810
614.72	4.998
615.06	4.957
615.39	4.882
615.72	4.882
616.05	5.391
616.38	5.701
616.71	5.643
617.05	4.899
617.38	5.618
617.71	5.238
618.04	4.695
618.37	4.973
618.70	5.373
619.03	4.719
619.36	5.055
619.69	4.741
620.03	4.708
620.36	4.540
620.69	4.997
621.02	5.118
621.35	4.862
621.68	5.206
622.01	5.623
622.34	3.766
622.67	4.330
623.00	3.036
623.33	4.579
623.66	4.799
623.99	4.806
624.32	5.458
624.65	5.019
624.99	4.486
625.32	5.683
625.65	5.327
625.98	4.475
626.31	4.607
626.64	4.689
626.97	4.501
627.30	4.328
627.63	4.276
627.96	6.231
628.29	5.292
628.62	4.618
628.95	4.294
629.28	3.908
629.61	4.125
629.94	4.268
630.26	4.068
630.59	4.231
630.92	4.589
631.25	5.277
631.58	4.520
631.91	4.311
632.24	3.842
632.57	4.175
632.90	4.915
633.23	4.592
633.56	4.898
633.89	3.409
634.22	6.341
634.55	4.593
634.88	3.896
635.20	5.382
635.53	4.746
635.86	5.309
636.19	4.984
636.52	4.747
636.85	3.882
637.18	4.990
637.51	3.871
637.83	5.537
638.16	5.415
638.49	3.991
638.82	3.946
639.15	4.353
639.48	5.081
639.81	5.081
640.13	5.065
640.46	2.667
640.79	4.044
641.12	5.714
641.45	4.266
641.77	4.878
642.10	5.381
642.43	6.250
642.76	4.743
643.09	5.753
643.41	3.361
643.74	4.828
644.07	4.138
644.40	3.395
644.73	4.064
645.05	4.112
645.38	4.892
645.71	3.519
646.04	6.313
646.36	3.942
646.69	4.908
647.02	3.823
647.35	5.344
647.67	5.475
648.00	4.618
648.33	5.255
648.66	4.280
648.98	3.673
649.31	3.924
649.64	5.312
649.96	5.438
650.29	3.477
650.62	3.678
650.94	3.604
651.27	3.144
651.60	3.070
651.92	2.736
652.25	4.342
652.58	4.814
