SpectraSuite Data File
++++++++++++++++++++++++++++++++++++
Date: Thu May 14 16:10:05 PDT 2015
User: schluterlab
Dark Spectrum Present: Yes
Reference Spectrum Present: Yes
Number of Sampled Component Spectra: 1
Spectrometers: USB2E3373
Integration Time (usec): 3000 (USB2E3373)
Spectra Averaged: 3 (USB2E3373)
Boxcar Smoothing: 0 (USB2E3373)
Correct for Electrical Dark: No (USB2E3373)
Strobe/Lamp Enabled: No (USB2E3373)
Correct for Detector Non-linearity: No (USB2E3373)
Correct for Stray Light: No (USB2E3373)
Number of Pixels in Processed Spectrum: 2048
>>>>>Begin Processed Spectral Data<<<<<
178.53	0.000
178.91	171.429
179.29	-1800.000
179.67	-1600.000
180.04	214.286
180.42	130.000
180.80	300.000
181.18	-1000.000
181.56	-800.000
181.94	75.000
182.31	-250.000
182.69	500.000
183.07	-400.000
183.45	475.000
183.83	-166.667
184.20	-166.667
184.58	1100.000
184.96	-325.000
185.34	-33.333
185.72	-180.000
186.09	211.111
186.47	800.000
186.85	400.000
187.23	-77.778
187.61	-900.000
187.98	260.000
188.36	225.000
188.74	-300.000
189.12	-366.667
189.49	-68.750
189.87	-212.500
190.25	-77.778
190.63	-80.000
191.00	-177.778
191.38	0.000
191.76	-450.000
192.14	-266.667
192.51	500.000
192.89	33.333
193.27	0.000
193.65	-42.857
194.02	-1200.000
194.40	-185.714
194.78	200.000
195.15	0.000
195.53	-127.273
195.91	0.000
196.29	-25.000
196.66	-46.154
197.04	-1500.000
197.42	-100.000
197.79	-500.000
198.17	-137.500
198.55	-171.429
198.92	-77.778
199.30	-175.000
199.68	-109.091
200.05	-42.857
200.43	-800.000
200.81	300.000
201.18	0.000
201.56	177.778
201.94	0.000
202.31	300.000
202.69	-155.556
203.07	700.000
203.44	-133.333
203.82	-350.000
204.19	-83.333
204.57	-183.333
204.95	-137.500
205.32	-1500.000
205.70	225.000
206.08	-183.333
206.45	33.333
206.83	380.000
207.20	-83.333
207.58	-460.000
207.96	-350.000
208.33	-133.333
208.71	108.333
209.08	-66.667
209.46	0.000
209.84	283.333
210.21	350.000
210.59	400.000
210.96	600.000
211.34	-175.000
211.71	-87.500
212.09	-1200.000
212.46	0.000
212.84	1050.000
213.22	-380.000
213.59	-250.000
213.97	-90.000
214.34	-566.667
214.72	250.000
215.09	-575.000
215.47	0.000
215.84	128.571
216.22	1000.000
216.59	-300.000
216.97	-180.000
217.34	-275.000
217.72	-125.000
218.09	-300.000
218.47	-675.000
218.84	0.000
219.22	80.000
219.59	-41.176
219.97	-10.000
220.34	750.000
220.72	-144.444
221.09	53.846
221.47	-33.333
221.84	-30.000
222.22	-142.857
222.59	0.000
222.97	-237.500
223.34	-360.000
223.72	-1600.000
224.09	-350.000
224.46	-600.000
224.84	-180.000
225.21	-200.000
225.59	-325.000
225.96	-325.000
226.34	-3.846
226.71	316.667
227.08	-750.000
227.46	-66.667
227.83	-400.000
228.21	-57.895
228.58	225.000
228.95	400.000
229.33	8.333
229.70	-60.000
230.08	31.579
230.45	270.000
230.82	-366.667
231.20	-85.714
231.57	8.333
231.95	-90.909
232.32	-36.364
232.69	90.000
233.07	-225.000
233.44	5.882
233.81	-170.000
234.19	-5.556
234.56	-36.364
234.93	20.690
235.31	-5.263
235.68	-38.889
236.05	-40.000
236.43	30.769
236.80	-16.000
237.17	-11.111
237.55	12.121
237.92	-180.000
238.29	-9.677
238.67	-13.636
239.04	13.889
239.41	-4.762
239.79	0.000
240.16	1.852
240.53	8.696
240.91	1.961
241.28	8.197
241.65	26.866
242.02	20.270
242.40	10.769
242.77	9.333
243.14	0.000
243.51	5.263
243.89	16.667
244.26	15.842
244.63	17.647
245.00	21.495
245.38	18.421
245.75	12.389
246.12	20.635
246.49	11.628
246.87	17.143
247.24	23.841
247.61	21.053
247.98	16.107
248.36	19.136
248.73	22.086
249.10	18.579
249.47	22.886
249.84	20.942
250.22	20.207
250.59	16.111
250.96	25.000
251.33	22.959
251.70	21.795
252.08	19.583
252.45	25.000
252.82	19.835
253.19	21.484
253.56	21.293
253.94	18.077
254.31	23.485
254.68	27.273
255.05	29.642
255.42	21.769
255.79	20.388
256.16	21.192
256.54	18.874
256.91	28.525
257.28	20.656
257.65	13.376
258.02	24.779
258.39	25.356
258.76	25.076
259.14	26.149
259.51	24.496
259.88	20.113
260.25	24.167
260.62	26.027
260.99	24.863
261.36	27.614
261.73	21.751
262.10	23.901
262.47	25.737
262.85	25.253
263.22	24.416
263.59	22.368
263.96	24.552
264.33	21.995
264.70	22.963
265.07	24.344
265.44	25.850
265.81	22.685
266.18	25.850
266.55	23.884
266.92	22.323
267.29	25.821
267.66	23.725
268.03	24.891
268.40	24.426
268.77	21.868
269.14	22.247
269.51	26.974
269.88	24.385
270.25	25.956
270.62	24.473
270.99	27.677
271.36	24.752
271.73	23.379
272.10	27.655
272.47	23.046
272.84	27.510
273.21	23.447
273.58	23.589
273.95	22.692
274.32	24.525
274.69	22.437
275.06	23.260
275.43	21.257
275.80	26.984
276.17	24.444
276.54	23.507
276.91	22.719
277.28	22.785
277.65	23.878
278.02	24.081
278.39	25.725
278.76	24.956
279.13	21.986
279.50	22.680
279.87	22.719
280.23	19.894
280.60	23.220
280.97	23.684
281.34	22.920
281.71	25.888
282.08	23.754
282.45	23.732
282.82	22.292
283.19	19.063
283.56	21.311
283.92	23.874
284.29	25.276
284.66	24.631
285.03	23.077
285.40	21.329
285.77	23.529
286.14	24.275
286.51	22.831
286.87	22.591
287.24	23.795
287.61	22.422
287.98	20.997
288.35	23.817
288.72	21.154
289.08	22.255
289.45	22.189
289.82	21.687
290.19	21.839
290.56	20.141
290.93	20.542
291.29	21.350
291.66	20.110
292.03	19.539
292.40	21.497
292.77	21.294
293.13	19.080
293.50	19.054
293.87	19.732
294.24	20.267
294.60	19.216
294.97	20.268
295.34	20.615
295.71	18.411
296.08	18.992
296.44	18.750
296.81	17.905
297.18	19.427
297.55	18.160
297.91	19.336
298.28	16.588
298.65	18.549
299.02	18.418
299.38	18.192
299.75	17.640
300.12	16.782
300.48	17.627
300.85	17.323
301.22	19.016
301.59	17.009
301.95	17.853
302.32	17.556
302.69	17.306
303.05	17.845
303.42	17.295
303.79	17.708
304.15	17.666
304.52	17.019
304.89	17.382
305.25	17.909
305.62	16.301
305.99	17.216
306.35	16.835
306.72	17.890
307.09	15.431
307.45	16.770
307.82	17.558
308.19	17.760
308.55	16.008
308.92	15.969
309.29	17.337
309.65	15.984
310.02	16.337
310.38	14.862
310.75	16.117
311.12	17.258
311.48	15.836
311.85	16.049
312.22	15.370
312.58	16.526
312.95	15.201
313.31	16.531
313.68	16.209
314.05	17.525
314.41	17.031
314.78	15.622
315.14	15.971
315.51	15.512
315.87	16.832
316.24	16.804
316.61	17.229
316.97	15.294
317.34	14.638
317.70	15.022
318.07	16.049
318.43	16.156
318.80	16.722
319.16	16.309
319.53	15.938
319.89	15.688
320.26	16.726
320.62	15.071
320.99	15.882
321.35	16.636
321.72	16.465
322.08	15.059
322.45	17.073
322.81	16.065
323.18	14.248
323.54	15.862
323.91	16.815
324.27	16.007
324.64	17.380
325.00	15.589
325.37	15.643
325.73	16.777
326.10	17.032
326.46	17.345
326.83	17.694
327.19	17.087
327.56	16.443
327.92	15.736
328.29	16.210
328.65	15.494
329.01	16.328
329.38	15.670
329.74	17.637
330.11	16.010
330.47	16.596
330.84	17.485
331.20	16.417
331.56	17.158
331.93	16.485
332.29	17.203
332.66	17.193
333.02	15.494
333.38	15.268
333.75	16.077
334.11	16.514
334.48	16.997
334.84	16.737
335.20	16.205
335.57	17.285
335.93	16.860
336.29	16.805
336.66	16.569
337.02	17.726
337.38	16.582
337.75	15.950
338.11	15.812
338.47	16.873
338.84	16.667
339.20	16.007
339.56	15.815
339.93	16.174
340.29	16.908
340.65	14.842
341.02	15.403
341.38	17.300
341.74	15.577
342.11	16.331
342.47	15.647
342.83	16.425
343.20	15.699
343.56	16.680
343.92	15.933
344.28	16.172
344.65	17.132
345.01	15.601
345.37	16.174
345.73	14.731
346.10	16.459
346.46	15.348
346.82	15.206
347.19	15.966
347.55	16.540
347.91	16.122
348.27	15.326
348.63	16.679
349.00	15.958
349.36	16.134
349.72	15.699
350.08	15.825
350.45	15.437
350.81	15.686
351.17	15.714
351.53	15.542
351.89	15.793
352.26	16.493
352.62	15.373
352.98	14.275
353.34	14.862
353.70	14.638
354.07	14.903
354.43	15.262
354.79	15.707
355.15	14.937
355.51	16.374
355.87	16.305
356.24	15.894
356.60	14.782
356.96	15.938
357.32	15.688
357.68	15.154
358.04	15.045
358.40	15.075
358.77	14.620
359.13	15.362
359.49	14.424
359.85	15.446
360.21	15.352
360.57	14.788
360.93	14.316
361.29	15.579
361.66	14.772
362.02	16.214
362.38	14.758
362.74	14.735
363.10	15.681
363.46	15.305
363.82	14.489
364.18	14.708
364.54	14.869
364.90	15.652
365.26	15.310
365.62	15.733
365.98	14.840
366.35	15.168
366.71	15.170
367.07	15.968
367.43	15.430
367.79	15.063
368.15	15.318
368.51	15.968
368.87	15.937
369.23	15.200
369.59	14.754
369.95	15.619
370.31	15.057
370.67	14.856
371.03	14.751
371.39	14.238
371.75	15.199
372.11	14.973
372.47	14.353
372.83	15.183
373.19	14.810
373.55	14.566
373.91	13.429
374.27	15.201
374.63	15.223
374.99	14.920
375.35	15.455
375.71	15.355
376.07	14.590
376.42	14.861
376.78	14.481
377.14	14.722
377.50	14.231
377.86	15.579
378.22	14.551
378.58	14.744
378.94	13.791
379.30	15.407
379.66	14.874
380.02	14.657
380.38	15.035
380.74	14.310
381.09	14.576
381.45	14.943
381.81	14.344
382.17	14.905
382.53	14.386
382.89	14.898
383.25	15.240
383.61	14.178
383.97	15.312
384.32	14.952
384.68	13.921
385.04	14.459
385.40	14.437
385.76	15.709
386.12	14.363
386.48	14.706
386.83	15.018
387.19	14.137
387.55	14.143
387.91	14.269
388.27	14.550
388.62	14.032
388.98	14.157
389.34	14.437
389.70	13.829
390.06	13.973
390.42	14.518
390.77	14.810
391.13	13.967
391.49	15.580
391.85	13.636
392.20	14.650
392.56	15.475
392.92	14.558
393.28	14.538
393.64	14.078
393.99	14.352
394.35	14.428
394.71	14.850
395.07	14.371
395.42	13.821
395.78	15.356
396.14	15.092
396.50	14.489
396.85	14.132
397.21	14.320
397.57	14.900
397.92	14.662
398.28	14.394
398.64	13.444
399.00	14.764
399.35	14.346
399.71	14.293
400.07	14.935
400.42	14.901
400.78	13.947
401.14	13.773
401.49	14.667
401.85	14.477
402.21	14.890
402.57	14.437
402.92	14.421
403.28	14.227
403.63	14.200
403.99	13.895
404.35	14.213
404.70	13.768
405.06	14.457
405.42	14.169
405.77	15.213
406.13	14.641
406.49	14.865
406.84	14.183
407.20	14.421
407.55	15.082
407.91	14.833
408.27	13.722
408.62	15.009
408.98	14.626
409.34	13.372
409.69	15.451
410.05	14.713
410.40	14.443
410.76	14.694
411.11	14.319
411.47	15.049
411.83	14.403
412.18	14.940
412.54	14.701
412.89	14.668
413.25	15.406
413.60	14.877
413.96	14.627
414.31	14.504
414.67	15.146
415.03	14.954
415.38	15.322
415.74	14.844
416.09	14.189
416.45	15.216
416.80	14.565
417.16	14.304
417.51	15.380
417.87	15.451
418.22	15.389
418.58	14.622
418.93	15.192
419.29	14.550
419.64	15.066
420.00	15.668
420.35	15.104
420.71	13.957
421.06	14.319
421.42	14.622
421.77	14.109
422.12	14.429
422.48	14.183
422.83	14.348
423.19	14.589
423.54	14.491
423.90	13.915
424.25	14.987
424.61	14.466
424.96	14.827
425.31	14.650
425.67	14.707
426.02	15.495
426.38	14.007
426.73	14.342
427.09	15.917
427.44	14.364
427.79	14.760
428.15	14.669
428.50	14.831
428.85	14.524
429.21	14.947
429.56	14.265
429.92	14.496
430.27	15.084
430.62	14.607
430.98	15.593
431.33	14.809
431.68	13.697
432.04	14.779
432.39	15.533
432.74	14.498
433.10	15.251
433.45	13.768
433.80	15.343
434.16	14.824
434.51	15.416
434.86	14.495
435.22	14.931
435.57	15.684
435.92	14.969
436.28	15.017
436.63	14.582
436.98	14.224
437.34	15.502
437.69	14.640
438.04	14.648
438.39	14.934
438.75	14.942
439.10	16.173
439.45	15.539
439.81	14.802
440.16	14.692
440.51	14.883
440.86	14.675
441.22	14.898
441.57	15.776
441.92	15.713
442.27	15.909
442.63	15.450
442.98	15.848
443.33	15.150
443.68	16.056
444.03	15.522
444.39	15.626
444.74	15.722
445.09	15.053
445.44	14.805
445.79	15.996
446.15	16.033
446.50	15.401
446.85	15.759
447.20	15.377
447.55	15.795
447.91	14.660
448.26	15.433
448.61	15.143
448.96	15.826
449.31	15.589
449.66	14.978
450.02	15.928
450.37	15.557
450.72	14.747
451.07	16.230
451.42	14.847
451.77	15.342
452.12	15.688
452.47	15.389
452.83	15.653
453.18	15.995
453.53	15.508
453.88	15.461
454.23	15.706
454.58	15.902
454.93	15.352
455.28	16.376
455.63	15.748
455.98	16.592
456.34	15.901
456.69	15.520
457.04	15.426
457.39	16.630
457.74	16.107
458.09	15.486
458.44	16.379
458.79	16.245
459.14	15.627
459.49	16.412
459.84	16.317
460.19	15.158
460.54	16.014
460.89	16.517
461.24	15.977
461.59	16.657
461.94	15.174
462.29	16.461
462.64	16.174
462.99	15.631
463.34	15.769
463.69	15.885
464.04	16.287
464.39	16.143
464.74	16.135
465.09	15.917
465.44	16.094
465.79	16.341
466.14	16.050
466.49	16.263
466.84	16.639
467.19	17.052
467.54	16.216
467.89	15.517
468.24	17.008
468.59	15.924
468.94	16.317
469.29	15.537
469.64	15.512
469.99	16.444
470.34	15.965
470.68	17.225
471.03	16.961
471.38	16.678
471.73	17.425
472.08	17.005
472.43	16.616
472.78	17.569
473.13	15.487
473.48	17.402
473.83	16.831
474.17	16.530
474.52	16.657
474.87	16.667
475.22	17.803
475.57	16.355
475.92	16.775
476.27	17.306
476.61	16.044
476.96	16.215
477.31	17.871
477.66	17.366
478.01	16.523
478.36	16.999
478.70	16.355
479.05	17.025
479.40	16.930
479.75	16.955
480.10	16.959
480.45	16.819
480.79	16.327
481.14	16.360
481.49	16.493
481.84	17.406
482.19	17.419
482.53	17.053
482.88	17.767
483.23	17.608
483.58	16.725
483.92	16.711
484.27	16.892
484.62	17.120
484.97	16.757
485.31	16.227
485.66	15.933
486.01	15.623
486.36	15.674
486.70	15.928
487.05	16.105
487.40	15.951
487.75	16.539
488.09	16.314
488.44	16.122
488.79	16.695
489.13	16.980
489.48	16.583
489.83	16.177
490.17	16.768
490.52	17.652
490.87	17.174
491.22	17.114
491.56	17.193
491.91	17.837
492.26	17.135
492.60	17.403
492.95	17.025
493.30	17.571
493.64	17.696
493.99	17.719
494.34	17.465
494.68	17.045
495.03	17.357
495.37	18.065
495.72	17.506
496.07	17.923
496.41	17.160
496.76	17.598
497.11	17.665
497.45	17.695
497.80	17.903
498.14	18.413
498.49	17.601
498.84	17.687
499.18	17.274
499.53	18.072
499.87	17.626
500.22	17.587
500.56	17.904
500.91	18.261
501.26	18.273
501.60	17.145
501.95	18.281
502.29	18.166
502.64	18.102
502.98	17.731
503.33	17.408
503.67	17.662
504.02	18.082
504.36	18.007
504.71	18.328
505.06	18.372
505.40	17.916
505.75	18.852
506.09	18.462
506.44	18.709
506.78	18.578
507.13	18.165
507.47	19.090
507.82	18.419
508.16	18.929
508.51	17.815
508.85	18.186
509.19	19.233
509.54	19.020
509.88	18.261
510.23	18.747
510.57	18.946
510.92	18.723
511.26	18.134
511.61	17.769
511.95	18.594
512.30	18.365
512.64	18.491
512.98	18.609
513.33	19.052
513.67	18.307
514.02	18.651
514.36	19.437
514.70	18.490
515.05	18.874
515.39	18.950
515.74	19.671
516.08	18.648
516.42	19.152
516.77	19.348
517.11	18.618
517.46	20.255
517.80	19.508
518.14	19.532
518.49	19.469
518.83	19.319
519.17	18.955
519.52	19.444
519.86	19.588
520.20	19.595
520.55	19.934
520.89	19.426
521.23	20.268
521.58	20.056
521.92	19.717
522.26	19.359
522.61	19.502
522.95	21.050
523.29	19.655
523.64	20.235
523.98	20.821
524.32	20.974
524.66	19.693
525.01	19.083
525.35	20.103
525.69	20.070
526.04	19.862
526.38	20.747
526.72	19.666
527.06	20.352
527.41	20.175
527.75	20.606
528.09	20.720
528.43	19.893
528.78	20.231
529.12	19.954
529.46	19.730
529.80	19.565
530.15	20.058
530.49	20.285
530.83	20.425
531.17	20.131
531.51	20.337
531.86	20.733
532.20	20.366
532.54	20.227
532.88	20.727
533.22	19.859
533.57	20.254
533.91	20.202
534.25	19.898
534.59	20.000
534.93	19.694
535.27	19.211
535.62	20.637
535.96	20.337
536.30	20.212
536.64	20.721
536.98	21.648
537.32	20.556
537.66	21.210
538.01	19.698
538.35	19.549
538.69	20.673
539.03	19.559
539.37	20.318
539.71	21.562
540.05	20.863
540.39	20.416
540.73	19.065
541.07	20.785
541.42	19.728
541.76	19.039
542.10	20.024
542.44	20.585
542.78	20.864
543.12	20.918
543.46	20.147
543.80	20.144
544.14	20.287
544.48	20.154
544.82	20.826
545.16	19.857
545.50	20.312
545.84	19.963
546.18	21.358
546.52	19.682
546.86	20.377
547.20	20.674
547.54	19.975
547.88	20.916
548.22	20.468
548.56	20.421
548.90	20.119
549.24	20.182
549.58	20.505
549.92	21.173
550.26	21.294
550.60	20.740
550.94	20.375
551.28	20.264
551.62	21.294
551.96	20.194
552.30	21.287
552.64	21.282
552.98	20.462
553.32	21.093
553.66	21.029
554.00	20.681
554.34	20.463
554.68	21.627
555.02	20.959
555.36	21.499
555.69	20.564
556.03	20.050
556.37	21.151
556.71	20.672
557.05	19.936
557.39	20.836
557.73	21.004
558.07	20.662
558.41	21.728
558.75	21.231
559.08	20.738
559.42	20.027
559.76	21.913
560.10	21.567
560.44	21.702
560.78	21.188
561.12	20.628
561.45	21.959
561.79	21.123
562.13	20.518
562.47	20.469
562.81	21.203
563.15	20.581
563.48	20.758
563.82	20.435
564.16	19.927
564.50	20.560
564.84	21.062
565.17	20.412
565.51	19.908
565.85	20.843
566.19	20.795
566.52	20.714
566.86	20.770
567.20	20.065
567.54	20.234
567.88	20.082
568.21	19.664
568.55	19.904
568.89	19.246
569.23	19.814
569.56	19.148
569.90	18.746
570.24	18.449
570.57	18.185
570.91	18.065
571.25	17.674
571.59	18.007
571.92	17.617
572.26	17.284
572.60	17.718
572.93	17.478
573.27	17.983
573.61	17.972
573.95	17.650
574.28	17.449
574.62	17.485
574.96	17.137
575.29	17.030
575.63	17.163
575.97	17.317
576.30	17.345
576.64	17.347
576.98	17.335
577.31	17.433
577.65	17.334
577.98	16.717
578.32	16.768
578.66	17.000
578.99	16.895
579.33	16.830
579.67	17.384
580.00	16.948
580.34	16.972
580.67	16.946
581.01	16.876
581.35	16.832
581.68	17.001
582.02	16.726
582.35	17.034
582.69	17.037
583.02	16.782
583.36	16.841
583.70	16.837
584.03	16.943
584.37	16.983
584.70	16.870
585.04	16.950
585.37	16.814
585.71	16.872
586.04	17.019
586.38	17.131
586.72	16.871
587.05	16.833
587.39	17.028
587.72	17.368
588.06	17.481
588.39	17.177
588.73	17.381
589.06	17.269
589.40	17.271
589.73	17.834
590.07	18.203
590.40	18.458
590.73	18.098
591.07	18.541
591.40	18.118
591.74	18.323
592.07	18.961
592.41	18.218
592.74	18.317
593.08	17.357
593.41	17.644
593.75	17.471
594.08	17.964
594.41	17.724
594.75	17.801
595.08	17.665
595.42	17.045
595.75	18.243
596.09	18.468
596.42	17.736
596.75	19.143
597.09	19.071
597.42	18.196
597.75	18.463
598.09	18.294
598.42	18.094
598.76	17.616
599.09	18.227
599.42	17.901
599.76	17.035
600.09	18.385
600.42	17.951
600.76	17.900
601.09	17.624
601.42	18.057
601.76	18.000
602.09	17.405
602.42	18.103
602.76	18.413
603.09	17.731
603.42	17.522
603.76	17.618
604.09	18.630
604.42	18.275
604.76	18.113
605.09	18.229
605.42	18.780
605.75	17.769
606.09	17.059
606.42	18.023
606.75	18.291
607.09	17.358
607.42	18.651
607.75	18.288
608.08	18.350
608.42	17.936
608.75	19.030
609.08	18.336
609.41	19.012
609.75	18.438
610.08	18.382
610.41	17.884
610.74	18.235
611.07	18.472
611.41	18.744
611.74	19.446
612.07	19.308
612.40	18.441
612.73	19.756
613.07	19.315
613.40	19.394
613.73	18.970
614.06	18.989
614.39	19.728
614.72	18.632
615.06	18.864
615.39	18.946
615.72	18.246
616.05	19.330
616.38	19.122
616.71	20.063
617.05	18.584
617.38	19.797
617.71	19.600
618.04	19.644
618.37	19.508
618.70	20.984
619.03	19.833
619.36	19.852
619.69	20.564
620.03	21.155
620.36	20.123
620.69	20.543
621.02	21.129
621.35	21.480
621.68	22.270
622.01	21.566
622.34	20.642
622.67	19.794
623.00	19.906
623.33	20.902
623.66	20.882
623.99	19.618
624.32	21.248
624.65	20.849
624.99	20.156
625.32	21.293
625.65	20.499
625.98	19.864
626.31	22.254
626.64	20.659
626.97	21.080
627.30	20.425
627.63	21.155
627.96	22.748
628.29	22.257
628.62	21.327
628.95	22.261
629.28	21.835
629.61	22.138
629.94	21.088
630.26	21.102
630.59	22.539
630.92	21.299
631.25	23.345
631.58	22.976
631.91	22.774
632.24	24.015
