SpectraSuite Data File
++++++++++++++++++++++++++++++++++++
Date: Thu May 14 16:21:34 PDT 2015
User: schluterlab
Dark Spectrum Present: Yes
Reference Spectrum Present: Yes
Number of Sampled Component Spectra: 1
Spectrometers: USB2E3373
Integration Time (usec): 3000 (USB2E3373)
Spectra Averaged: 3 (USB2E3373)
Boxcar Smoothing: 0 (USB2E3373)
Correct for Electrical Dark: No (USB2E3373)
Strobe/Lamp Enabled: No (USB2E3373)
Correct for Detector Non-linearity: No (USB2E3373)
Correct for Stray Light: No (USB2E3373)
Number of Pixels in Processed Spectrum: 2048
>>>>>Begin Processed Spectral Data<<<<<
178.53	0.000
178.91	-14.286
179.29	-1500.000
179.67	0.000
180.04	92.857
180.42	80.000
180.80	300.000
181.18	-1300.000
181.56	200.000
181.94	-300.000
182.31	50.000
182.69	400.000
183.07	-500.000
183.45	-75.000
183.83	-83.333
184.20	-233.333
184.58	400.000
184.96	-275.000
185.34	-111.111
185.72	0.000
186.09	244.444
186.47	200.000
186.85	260.000
187.23	-22.222
187.61	-800.000
187.98	80.000
188.36	275.000
188.74	-275.000
189.12	-100.000
189.49	-31.250
189.87	-175.000
190.25	0.000
190.63	-60.000
191.00	-155.556
191.38	0.000
191.76	-175.000
192.14	-116.667
192.51	500.000
192.89	-33.333
193.27	0.000
193.65	-185.714
194.02	-1400.000
194.40	-114.286
194.78	42.857
195.15	0.000
195.53	-27.273
195.91	0.000
196.29	-25.000
196.66	-107.692
197.04	-1300.000
197.42	-14.286
197.79	-300.000
198.17	-37.500
198.55	-128.571
198.92	-44.444
199.30	-87.500
199.68	36.364
200.05	-7.143
200.43	-550.000
200.81	114.286
201.18	0.000
201.56	100.000
201.94	0.000
202.31	233.333
202.69	-33.333
203.07	900.000
203.44	-11.111
203.82	-175.000
204.19	-33.333
204.57	-150.000
204.95	-62.500
205.32	-1100.000
205.70	-125.000
206.08	-83.333
206.45	-33.333
206.83	240.000
207.20	-66.667
207.58	-240.000
207.96	-183.333
208.33	50.000
208.71	108.333
209.08	-66.667
209.46	0.000
209.84	200.000
210.21	500.000
210.59	300.000
210.96	533.333
211.34	-175.000
211.71	12.500
212.09	-300.000
212.46	0.000
212.84	400.000
213.22	-140.000
213.59	-125.000
213.97	-40.000
214.34	-233.333
214.72	266.667
215.09	-125.000
215.47	0.000
215.84	171.429
216.22	650.000
216.59	-100.000
216.97	-120.000
217.34	0.000
217.72	-75.000
218.09	-175.000
218.47	-375.000
218.84	0.000
219.22	-20.000
219.59	-29.412
219.97	45.000
220.34	650.000
220.72	-133.333
221.09	-92.308
221.47	-200.000
221.84	-90.000
222.22	-100.000
222.59	0.000
222.97	62.500
223.34	-240.000
223.72	-1300.000
224.09	-100.000
224.46	50.000
224.84	40.000
225.21	-157.143
225.59	-375.000
225.96	-325.000
226.34	38.462
226.71	166.667
227.08	-100.000
227.46	-13.333
227.83	-150.000
228.21	5.263
228.58	162.500
228.95	300.000
229.33	0.000
229.70	-50.000
230.08	36.842
230.45	90.000
230.82	-266.667
231.20	-14.286
231.57	-33.333
231.95	-27.273
232.32	-81.818
232.69	45.000
233.07	-50.000
233.44	-35.294
233.81	-50.000
234.19	5.556
234.56	-22.727
234.93	48.276
235.31	42.105
235.68	16.667
236.05	10.000
236.43	42.308
236.80	52.000
237.17	18.519
237.55	3.030
237.92	-40.000
238.29	16.129
238.67	11.364
239.04	27.778
239.41	4.762
239.79	28.261
240.16	18.519
240.53	17.391
240.91	0.000
241.28	26.230
241.65	25.373
242.02	40.541
242.40	20.000
242.77	25.333
243.14	29.268
243.51	18.421
243.89	12.821
244.26	37.624
244.63	30.392
245.00	23.364
245.38	24.561
245.75	21.239
246.12	30.952
246.49	24.806
246.87	33.571
247.24	31.126
247.61	36.184
247.98	26.846
248.36	28.395
248.73	24.540
249.10	32.787
249.47	32.338
249.84	33.508
250.22	27.461
250.59	32.778
250.96	35.455
251.33	34.694
251.70	29.487
252.08	32.083
252.45	32.377
252.82	33.471
253.19	33.203
253.56	32.700
253.94	30.385
254.31	32.576
254.68	36.014
255.05	30.619
255.42	32.993
255.79	28.479
256.16	31.788
256.54	30.795
256.91	35.738
257.28	32.459
257.65	30.573
258.02	31.268
258.39	31.909
258.76	34.862
259.14	39.655
259.51	31.700
259.88	33.144
260.25	30.556
260.62	35.616
260.99	32.514
261.36	30.295
261.73	31.830
262.10	35.714
262.47	32.976
262.85	34.596
263.22	31.169
263.59	31.053
263.96	33.504
264.33	34.527
264.70	29.877
265.07	35.084
265.44	33.333
265.81	32.407
266.18	33.787
266.55	34.598
266.92	31.435
267.29	34.792
267.66	30.820
268.03	31.659
268.40	33.194
268.77	30.752
269.14	31.278
269.51	32.895
269.88	33.197
270.25	29.779
270.62	34.177
270.99	36.364
271.36	33.861
271.73	34.185
272.10	33.066
272.47	31.463
272.84	32.329
273.21	30.862
273.58	30.645
273.95	32.308
274.32	29.658
274.69	30.368
275.06	34.982
275.43	29.575
275.80	31.041
276.17	31.296
276.54	31.530
276.91	32.558
277.28	32.188
277.65	33.034
278.02	33.640
278.39	33.152
278.76	29.877
279.13	31.560
279.50	31.271
279.87	30.769
280.23	30.282
280.60	29.831
280.97	32.401
281.34	32.937
281.71	32.318
282.08	32.226
282.45	30.278
282.82	30.298
283.19	29.079
283.56	30.328
283.92	29.880
284.29	30.806
284.66	32.348
285.03	28.205
285.40	30.448
285.77	30.960
286.14	30.534
286.51	31.050
286.87	29.068
287.24	30.120
287.61	30.045
287.98	28.399
288.35	28.846
288.72	28.994
289.08	28.111
289.45	30.621
289.82	28.012
290.19	29.167
290.56	30.563
290.93	30.670
291.29	30.441
291.66	27.686
292.03	27.408
292.40	29.796
292.77	27.358
293.13	28.281
293.50	27.070
293.87	28.054
294.24	28.800
294.60	28.824
294.97	26.846
295.34	28.425
295.71	27.869
296.08	27.907
296.44	26.838
296.81	26.553
297.18	26.775
297.55	25.825
297.91	25.623
298.28	25.829
298.65	26.159
299.02	25.856
299.38	25.400
299.75	24.650
300.12	26.968
300.48	25.461
300.85	26.209
301.22	26.734
301.59	24.315
301.95	25.989
302.32	26.667
302.69	25.958
303.05	25.789
303.42	25.388
303.79	27.187
304.15	25.973
304.52	24.736
304.89	25.340
305.25	25.673
305.62	26.646
305.99	25.876
306.35	25.706
306.72	25.750
307.09	25.482
307.45	25.983
307.82	26.539
308.19	25.832
308.55	26.712
308.92	26.290
309.29	26.341
309.65	26.121
310.02	28.119
310.38	25.492
310.75	26.408
311.12	27.900
311.48	27.370
311.85	25.166
312.22	26.376
312.58	26.854
312.95	26.769
313.31	27.823
313.68	26.282
314.05	28.365
314.41	28.233
314.78	27.975
315.14	28.040
315.51	28.163
315.87	27.633
316.24	27.580
316.61	27.886
316.97	29.050
317.34	29.189
317.70	27.424
318.07	28.042
318.43	28.571
318.80	30.100
319.16	28.670
319.53	27.678
319.89	28.309
320.26	29.448
320.62	27.571
320.99	29.548
321.35	29.945
321.72	29.767
322.08	29.216
322.45	28.636
322.81	29.242
323.18	29.912
323.54	29.914
323.91	30.783
324.27	29.518
324.64	30.563
325.00	30.182
325.37	30.221
325.73	31.240
326.10	31.144
326.46	31.107
326.83	32.746
327.19	31.969
327.56	31.937
327.92	30.606
328.29	31.532
328.65	31.658
329.01	33.418
329.38	32.772
329.74	32.877
330.11	32.192
330.47	32.182
330.84	32.730
331.20	32.583
331.56	32.409
331.93	33.222
332.29	34.068
332.66	32.724
333.02	33.333
333.38	31.963
333.75	32.407
334.11	33.194
334.48	32.756
334.84	33.305
335.20	31.822
335.57	32.884
335.93	33.636
336.29	32.030
336.66	32.801
337.02	32.609
337.38	33.248
337.75	32.397
338.11	34.483
338.47	33.830
338.84	32.741
339.20	32.435
339.56	31.301
339.93	32.102
340.29	33.092
340.65	33.171
341.02	33.440
341.38	32.902
341.74	32.607
342.11	33.387
342.47	31.692
342.83	33.253
343.20	33.115
343.56	34.563
343.92	33.147
344.28	33.203
344.65	32.636
345.01	31.981
345.37	32.271
345.73	32.502
346.10	34.165
346.46	33.228
346.82	32.659
347.19	34.072
347.55	34.219
347.91	33.284
348.27	33.460
348.63	33.587
349.00	32.737
349.36	33.011
349.72	33.557
350.08	34.324
350.45	33.384
350.81	33.484
351.17	33.158
351.53	34.496
351.89	33.865
352.26	32.761
352.62	32.687
352.98	33.282
353.34	32.860
353.70	33.282
354.07	34.203
354.43	34.320
354.79	33.508
355.15	33.407
355.51	33.406
355.87	34.106
356.24	34.449
356.60	32.816
356.96	34.248
357.32	32.937
357.68	33.821
358.04	33.982
358.40	32.836
358.77	33.187
359.13	33.309
359.49	34.201
359.85	33.720
360.21	34.505
360.57	33.166
360.93	35.049
361.29	33.825
361.66	34.395
362.02	35.003
362.38	33.310
362.74	34.288
363.10	33.700
363.46	34.072
363.82	35.511
364.18	35.046
364.54	33.887
364.90	34.849
365.26	34.759
365.62	35.000
365.98	33.560
366.35	33.826
366.71	34.558
367.07	35.521
367.43	33.487
367.79	35.368
368.15	35.050
368.51	33.897
368.87	35.075
369.23	35.000
369.59	33.743
369.95	34.753
370.31	35.179
370.67	34.250
371.03	34.488
371.39	34.251
371.75	35.144
372.11	35.298
372.47	35.003
372.83	34.817
373.19	33.889
373.55	33.808
373.91	34.151
374.27	34.670
374.63	34.777
374.99	35.411
375.35	36.104
375.71	34.710
376.07	34.151
376.42	34.824
376.78	34.991
377.14	33.812
377.50	34.535
377.86	34.360
378.22	35.449
378.58	35.612
378.94	34.624
379.30	34.974
379.66	35.038
380.02	35.488
380.38	35.081
380.74	34.986
381.09	34.959
381.45	35.284
381.81	35.480
382.17	35.214
382.53	35.029
382.89	34.707
383.25	35.639
383.61	35.532
383.97	34.688
384.32	35.227
384.68	34.455
385.04	35.685
385.40	35.946
385.76	35.756
386.12	34.650
386.48	36.353
386.83	35.936
387.19	34.820
387.55	35.329
387.91	35.274
388.27	35.855
388.62	34.994
388.98	34.518
389.34	35.474
389.70	36.374
390.06	35.110
390.42	35.361
390.77	35.882
391.13	35.387
391.49	35.990
391.85	35.030
392.20	35.587
392.56	36.326
392.92	35.060
393.28	36.097
393.64	35.642
393.99	36.781
394.35	35.864
394.71	36.707
395.07	36.228
395.42	35.808
395.78	35.588
396.14	36.245
396.50	35.511
396.85	35.003
397.21	34.379
397.57	35.925
397.92	35.395
398.28	35.687
398.64	35.355
399.00	33.822
399.35	34.241
399.71	35.054
400.07	35.373
400.42	35.157
400.78	35.359
401.14	34.661
401.49	34.792
401.85	35.000
402.21	35.979
402.57	34.859
402.92	34.929
403.28	34.543
403.63	35.800
403.99	34.442
404.35	33.599
404.70	34.618
405.06	34.239
405.42	34.426
405.77	34.951
406.13	34.036
406.49	35.191
406.84	33.463
407.20	34.712
407.55	34.343
407.91	35.072
408.27	35.453
408.62	34.555
408.98	34.591
409.34	34.956
409.69	35.352
410.05	34.115
410.40	34.281
410.76	34.324
411.11	34.775
411.47	34.705
411.83	34.862
412.18	34.578
412.54	34.381
412.89	33.993
413.25	34.537
413.60	33.659
413.96	34.324
414.31	33.768
414.67	34.109
415.03	34.154
415.38	35.057
415.74	34.026
416.09	34.176
416.45	32.624
416.80	32.925
417.16	34.036
417.51	33.686
417.87	33.109
418.22	32.814
418.58	33.581
418.93	33.877
419.29	33.847
419.64	34.034
420.00	33.887
420.35	34.475
420.71	33.946
421.06	33.065
421.42	34.117
421.77	32.687
422.12	33.668
422.48	33.385
422.83	34.611
423.19	34.748
423.54	34.126
423.90	33.076
424.25	33.547
424.61	33.123
424.96	33.498
425.31	33.970
425.67	32.689
426.02	33.702
426.38	33.352
426.73	32.980
427.09	34.371
427.44	32.059
427.79	32.172
428.15	32.534
428.50	32.640
428.85	33.123
429.21	32.553
429.56	32.922
429.92	32.236
430.27	33.494
430.62	33.317
430.98	32.514
431.33	33.138
431.68	32.136
432.04	32.402
432.39	32.405
432.74	32.021
433.10	32.612
433.45	31.773
433.80	31.921
434.16	32.696
434.51	31.963
434.86	32.628
435.22	32.147
435.57	32.724
435.92	33.166
436.28	31.684
436.63	32.824
436.98	32.475
437.34	32.356
437.69	31.646
438.04	31.571
438.39	31.591
438.75	31.931
439.10	31.871
439.45	31.694
439.81	31.808
440.16	31.206
440.51	32.163
440.86	31.240
441.22	32.101
441.57	31.918
441.92	32.056
442.27	31.919
442.63	31.595
442.98	32.497
443.33	31.878
443.68	31.814
444.03	31.797
444.39	31.808
444.74	32.108
445.09	30.765
445.44	30.717
445.79	31.274
446.15	31.603
446.50	31.111
446.85	31.469
447.20	30.803
447.55	31.328
447.91	30.524
448.26	30.814
448.61	30.818
448.96	31.009
449.31	30.117
449.66	30.937
450.02	31.382
450.37	30.900
450.72	30.732
451.07	31.492
451.42	30.098
451.77	30.684
452.12	30.305
452.47	30.660
452.83	30.856
453.18	29.772
453.53	30.155
453.88	29.652
454.23	30.226
454.58	29.948
454.93	30.704
455.28	30.945
455.63	29.903
455.98	30.503
456.34	30.330
456.69	29.630
457.04	29.905
457.39	30.211
457.74	29.978
458.09	30.148
458.44	30.819
458.79	29.603
459.14	30.362
459.49	30.504
459.84	30.797
460.19	29.484
460.54	29.869
460.89	29.539
461.24	29.195
461.59	29.441
461.94	28.237
462.29	29.339
462.64	29.149
462.99	28.939
463.34	29.396
463.69	27.960
464.04	30.183
464.39	29.484
464.74	28.848
465.09	29.008
465.44	29.131
465.79	29.032
466.14	28.661
466.49	28.947
466.84	29.366
467.19	28.671
467.54	28.320
467.89	28.448
468.24	28.587
468.59	28.778
468.94	27.273
469.29	27.534
469.64	27.845
469.99	27.980
470.34	28.651
470.68	27.888
471.03	28.160
471.38	28.254
471.73	28.088
472.08	28.617
472.43	27.935
472.78	28.778
473.13	27.623
473.48	27.915
473.83	28.787
474.17	27.257
474.52	27.901
474.87	27.630
475.22	27.380
475.57	26.947
475.92	27.327
476.27	27.636
476.61	27.207
476.96	27.216
477.31	28.366
477.66	27.912
478.01	28.114
478.36	26.770
478.70	27.833
479.05	28.170
479.40	27.048
479.75	26.945
480.10	26.907
480.45	27.940
480.79	26.893
481.14	26.517
481.49	27.306
481.84	27.763
482.19	26.968
482.53	26.672
482.88	26.274
483.23	27.479
483.58	26.376
483.92	26.684
484.27	26.037
484.62	26.650
484.97	26.711
485.31	26.329
485.66	25.574
486.01	25.392
486.36	26.313
486.70	27.136
487.05	26.882
487.40	26.329
487.75	26.031
488.09	25.838
488.44	25.123
488.79	25.970
489.13	25.706
489.48	25.748
489.83	25.513
490.17	24.990
490.52	25.205
490.87	25.635
491.22	25.867
491.56	25.299
491.91	26.254
492.26	25.963
492.60	25.273
492.95	26.020
493.30	25.370
493.64	25.580
493.99	25.307
494.34	24.869
494.68	25.353
495.03	25.595
495.37	24.900
495.72	25.896
496.07	25.329
496.41	25.054
496.76	25.646
497.11	25.435
497.45	24.601
497.80	25.900
498.14	25.533
498.49	24.954
498.84	25.000
499.18	25.056
499.53	25.516
499.87	26.022
500.22	24.221
500.56	24.426
500.91	25.309
501.26	25.000
501.60	24.613
501.95	25.098
502.29	24.572
502.64	25.011
502.98	24.461
503.33	24.406
503.67	25.294
504.02	24.694
504.36	25.156
504.71	24.759
505.06	24.375
505.40	24.360
505.75	25.000
506.09	24.816
506.44	24.698
506.78	25.000
507.13	24.758
507.47	24.822
507.82	24.669
508.16	24.474
508.51	24.613
508.85	24.516
509.19	24.728
509.54	24.784
509.88	24.186
510.23	24.332
510.57	24.505
510.92	24.577
511.26	24.531
511.61	24.046
511.95	24.256
512.30	24.668
512.64	23.238
512.98	24.912
513.33	24.395
513.67	24.069
514.02	24.425
514.36	23.734
514.70	24.427
515.05	24.765
515.39	24.357
515.74	24.920
516.08	24.247
516.42	24.228
516.77	24.027
517.11	23.724
517.46	25.027
517.80	25.227
518.14	25.136
518.49	24.295
518.83	23.363
519.17	23.856
519.52	24.423
519.86	23.601
520.20	23.908
520.55	23.877
520.89	23.367
521.23	23.786
521.58	24.802
521.92	23.683
522.26	23.769
522.61	23.380
522.95	24.048
523.29	22.989
523.64	23.935
523.98	23.503
524.32	24.413
524.66	24.303
525.01	23.783
525.35	23.377
525.69	23.144
526.04	23.364
526.38	25.287
526.72	24.221
527.06	23.050
527.41	22.915
527.75	23.397
528.09	23.672
528.43	23.091
528.78	22.832
529.12	22.936
529.46	22.934
529.80	23.570
530.15	23.536
530.49	22.894
530.83	23.377
531.17	23.656
531.51	23.285
531.86	23.618
532.20	23.537
532.54	23.100
532.88	23.515
533.22	22.746
533.57	23.658
533.91	23.569
534.25	22.838
534.59	23.046
534.93	23.260
535.27	23.155
535.62	23.422
535.96	23.649
536.30	22.914
536.64	23.303
536.98	23.678
537.32	23.148
537.66	22.770
538.01	22.538
538.35	22.412
538.69	23.137
539.03	23.850
539.37	22.438
539.71	22.462
540.05	23.381
540.39	23.472
540.73	21.736
541.07	22.685
541.42	22.504
541.76	22.776
542.10	22.919
542.44	22.838
542.78	23.054
543.12	22.706
543.46	22.344
543.80	22.662
544.14	21.963
544.48	22.695
544.82	23.459
545.16	22.182
545.50	22.469
545.84	22.719
546.18	23.272
546.52	22.293
546.86	22.138
547.20	22.392
547.54	21.411
547.88	22.544
548.22	22.515
548.56	21.943
548.90	21.910
549.24	22.736
549.58	22.587
549.92	22.385
550.26	22.006
550.60	22.272
550.94	23.221
551.28	22.244
551.62	22.237
551.96	22.460
552.30	22.180
552.64	23.024
552.98	22.832
553.32	22.701
553.66	22.572
554.00	22.257
554.34	23.166
554.68	21.885
555.02	21.748
555.36	22.419
555.69	21.012
556.03	22.257
556.37	23.091
556.71	21.814
557.05	21.981
557.39	21.367
557.73	22.193
558.07	21.788
558.41	22.126
558.75	22.515
559.08	22.756
559.42	21.331
559.76	22.185
560.10	21.969
560.44	21.900
560.78	22.875
561.12	22.537
561.45	21.898
561.79	22.161
562.13	22.058
562.47	21.702
562.81	21.139
563.15	22.601
563.48	22.561
563.82	21.282
564.16	22.168
564.50	22.408
564.84	21.652
565.17	21.824
565.51	21.979
565.85	22.803
566.19	21.832
566.52	21.767
566.86	22.354
567.20	21.805
567.54	21.880
567.88	21.865
568.21	22.085
568.55	22.350
568.89	21.834
569.23	21.926
569.56	22.118
569.90	22.238
570.24	21.990
570.57	22.097
570.91	21.127
571.25	21.348
571.59	21.987
571.92	21.375
572.26	21.175
572.60	21.321
572.93	21.347
573.27	21.242
573.61	21.255
573.95	21.462
574.28	21.303
574.62	21.191
574.96	20.865
575.29	21.260
575.63	21.206
575.97	21.030
576.30	20.750
576.64	21.069
576.98	21.071
577.31	21.397
577.65	21.440
577.98	21.160
578.32	21.144
578.66	20.863
578.99	20.582
579.33	20.831
579.67	20.988
580.00	20.949
580.34	20.812
580.67	20.984
581.01	21.051
581.35	20.729
581.68	21.739
582.02	21.156
582.35	21.424
582.69	21.040
583.02	20.987
583.36	21.072
583.70	20.473
584.03	20.494
584.37	20.908
584.70	20.220
585.04	20.646
585.37	21.034
585.71	20.583
586.04	21.224
586.38	21.216
586.72	20.531
587.05	20.645
587.39	20.469
587.72	20.885
588.06	21.035
588.39	21.110
588.73	20.741
589.06	20.711
589.40	20.836
589.73	20.983
590.07	20.259
590.40	21.467
590.73	20.961
591.07	21.072
591.40	20.918
591.74	20.946
592.07	21.112
592.41	20.268
592.74	20.731
593.08	21.051
593.41	21.172
593.75	20.603
594.08	21.418
594.41	21.442
594.75	20.591
595.08	21.030
595.42	21.006
595.75	20.342
596.09	21.179
596.42	20.674
596.75	20.996
597.09	21.414
597.42	21.375
597.75	20.972
598.09	20.833
598.42	20.989
598.76	20.978
599.09	20.434
599.42	20.784
599.76	20.667
600.09	20.587
600.42	20.587
600.76	20.608
601.09	20.378
601.42	20.460
601.76	20.862
602.09	20.693
602.42	19.847
602.76	20.369
603.09	20.338
603.42	20.556
603.76	20.719
604.09	20.724
604.42	20.771
604.76	19.330
605.09	21.101
605.42	20.335
605.75	19.962
606.09	20.418
606.42	20.175
606.75	20.240
607.09	20.507
607.42	20.655
607.75	20.594
608.08	20.481
608.42	20.032
608.75	21.061
609.08	20.840
609.41	20.159
609.75	20.446
610.08	20.405
610.41	20.603
610.74	20.042
611.07	20.737
611.41	20.762
611.74	20.554
612.07	21.318
612.40	20.057
612.73	20.489
613.07	20.685
613.40	20.549
613.73	21.088
614.06	20.854
614.39	20.457
614.72	20.184
615.06	20.308
615.39	19.961
615.72	20.616
616.05	20.398
616.38	20.434
616.71	20.219
617.05	19.915
617.38	20.920
617.71	21.652
618.04	20.777
618.37	20.710
618.70	20.814
619.03	20.789
619.36	19.790
619.69	21.397
620.03	20.151
620.36	20.123
620.69	20.790
621.02	21.522
621.35	20.610
621.68	22.054
622.01	20.214
622.34	21.130
622.67	19.863
623.00	19.906
623.33	21.367
623.66	20.623
623.99	19.552
624.32	21.962
624.65	20.528
624.99	20.871
625.32	20.640
625.65	21.241
625.98	20.339
626.31	21.049
626.64	20.513
626.97	20.180
627.30	20.121
627.63	20.330
627.96	21.321
628.29	19.922
628.62	20.151
628.95	21.297
629.28	20.136
629.61	20.623
629.94	19.582
630.26	20.763
630.59	19.948
630.92	20.173
631.25	20.841
631.58	20.245
631.91	19.119
632.24	20.749
632.57	20.683
632.90	20.762
633.23	20.918
