SpectraSuite Data File
++++++++++++++++++++++++++++++++++++
Date: Thu May 14 16:11:54 PDT 2015
User: schluterlab
Dark Spectrum Present: Yes
Reference Spectrum Present: Yes
Number of Sampled Component Spectra: 1
Spectrometers: USB2E3373
Integration Time (usec): 3000 (USB2E3373)
Spectra Averaged: 3 (USB2E3373)
Boxcar Smoothing: 0 (USB2E3373)
Correct for Electrical Dark: No (USB2E3373)
Strobe/Lamp Enabled: No (USB2E3373)
Correct for Detector Non-linearity: No (USB2E3373)
Correct for Stray Light: No (USB2E3373)
Number of Pixels in Processed Spectrum: 2048
>>>>>Begin Processed Spectral Data<<<<<
178.53	0.000
178.91	114.286
179.29	-1200.000
179.67	-1000.000
180.04	142.857
180.42	30.000
180.80	220.000
181.18	-1300.000
181.56	-400.000
181.94	275.000
182.31	-200.000
182.69	66.667
183.07	-200.000
183.45	300.000
183.83	-116.667
184.20	-200.000
184.58	700.000
184.96	-125.000
185.34	11.111
185.72	-20.000
186.09	277.778
186.47	450.000
186.85	220.000
187.23	-255.556
187.61	-1900.000
187.98	240.000
188.36	325.000
188.74	-250.000
189.12	-366.667
189.49	-56.250
189.87	-37.500
190.25	-111.111
190.63	-100.000
191.00	-144.444
191.38	0.000
191.76	-200.000
192.14	-100.000
192.51	550.000
192.89	33.333
193.27	0.000
193.65	-71.429
194.02	-1000.000
194.40	-128.571
194.78	200.000
195.15	0.000
195.53	63.636
195.91	0.000
196.29	-100.000
196.66	-100.000
197.04	-900.000
197.42	-114.286
197.79	-400.000
198.17	-12.500
198.55	-85.714
198.92	-22.222
199.30	-225.000
199.68	-63.636
200.05	-21.429
200.43	-450.000
200.81	228.571
201.18	0.000
201.56	177.778
201.94	0.000
202.31	233.333
202.69	-88.889
203.07	200.000
203.44	55.556
203.82	-350.000
204.19	-83.333
204.57	-133.333
204.95	-75.000
205.32	0.000
205.70	150.000
206.08	-83.333
206.45	-50.000
206.83	520.000
207.20	-16.667
207.58	-460.000
207.96	-150.000
208.33	0.000
208.71	83.333
209.08	-50.000
209.46	0.000
209.84	233.333
210.21	500.000
210.59	-150.000
210.96	400.000
211.34	-150.000
211.71	-12.500
212.09	-900.000
212.46	0.000
212.84	650.000
213.22	-340.000
213.59	-200.000
213.97	40.000
214.34	-366.667
214.72	200.000
215.09	-200.000
215.47	0.000
215.84	57.143
216.22	500.000
216.59	-60.000
216.97	-200.000
217.34	-225.000
217.72	-25.000
218.09	-175.000
218.47	-250.000
218.84	0.000
219.22	140.000
219.59	-58.824
219.97	-10.000
220.34	650.000
220.72	-11.111
221.09	69.231
221.47	-200.000
221.84	-90.000
222.22	-128.571
222.59	0.000
222.97	-62.500
223.34	-280.000
223.72	-200.000
224.09	-225.000
224.46	-250.000
224.84	-140.000
225.21	-157.143
225.59	-400.000
225.96	-200.000
226.34	3.846
226.71	116.667
227.08	-450.000
227.46	-73.333
227.83	-225.000
228.21	5.263
228.58	87.500
228.95	350.000
229.33	25.000
229.70	-60.000
230.08	21.053
230.45	150.000
230.82	-366.667
231.20	-50.000
231.57	-50.000
231.95	-45.455
232.32	-27.273
232.69	-15.000
233.07	-200.000
233.44	-58.824
233.81	-100.000
234.19	-55.556
234.56	-27.273
234.93	0.000
235.31	-36.842
235.68	5.556
236.05	-85.000
236.43	26.923
236.80	8.000
237.17	-29.630
237.55	6.061
237.92	-70.000
238.29	19.355
238.67	11.364
239.04	8.333
239.41	-23.810
239.79	-15.217
240.16	-3.704
240.53	-13.043
240.91	-15.686
241.28	-3.279
241.65	11.940
242.02	17.568
242.40	-7.692
242.77	2.667
243.14	-2.439
243.51	-10.526
243.89	-7.692
244.26	0.000
244.63	14.706
245.00	5.607
245.38	3.509
245.75	-3.540
246.12	0.000
246.49	-6.977
246.87	6.429
247.24	6.623
247.61	13.816
247.98	1.342
248.36	1.852
248.73	-0.613
249.10	1.093
249.47	15.423
249.84	6.806
250.22	0.000
250.59	8.889
250.96	5.909
251.33	-3.571
251.70	6.410
252.08	4.583
252.45	11.066
252.82	8.678
253.19	4.687
253.56	11.027
253.94	2.692
254.31	7.197
254.68	12.587
255.05	11.726
255.42	7.143
255.79	6.472
256.16	4.305
256.54	2.980
256.91	5.574
257.28	5.246
257.65	3.822
258.02	6.195
258.39	7.692
258.76	11.009
259.14	7.471
259.51	5.764
259.88	7.082
260.25	6.944
260.62	7.397
260.99	10.656
261.36	8.847
261.73	7.427
262.10	5.495
262.47	6.166
262.85	7.323
263.22	7.792
263.59	4.211
263.96	7.417
264.33	5.882
264.70	8.148
265.07	12.172
265.44	10.658
265.81	9.491
266.18	8.390
266.55	6.250
266.92	5.923
267.29	8.315
267.66	8.426
268.03	9.607
268.40	7.933
268.77	6.378
269.14	6.608
269.51	8.772
269.88	9.631
270.25	7.445
270.62	8.017
270.99	11.919
271.36	7.921
271.73	8.448
272.10	9.419
272.47	10.220
272.84	8.032
273.21	8.016
273.58	10.282
273.95	7.308
274.32	7.224
274.69	8.511
275.06	6.593
275.43	7.579
275.80	8.818
276.17	5.741
276.54	8.022
276.91	7.156
277.28	7.776
277.65	7.720
278.02	8.824
278.39	8.333
278.76	7.733
279.13	9.397
279.50	10.997
279.87	7.513
280.23	5.634
280.60	8.644
280.97	8.059
281.34	6.621
281.71	8.799
282.08	6.811
282.45	7.529
282.82	9.733
283.19	6.462
283.56	7.869
283.92	10.811
284.29	9.637
284.66	8.703
285.03	4.647
285.40	8.346
285.77	8.978
286.14	8.550
286.51	8.828
286.87	7.899
287.24	8.735
287.61	7.175
287.98	7.704
288.35	7.840
288.72	8.876
289.08	9.078
289.45	7.544
289.82	6.777
290.19	7.040
290.56	8.310
290.93	8.274
291.29	9.091
291.66	7.713
292.03	6.242
292.40	7.891
292.77	7.682
293.13	6.901
293.50	5.519
293.87	5.101
294.24	8.400
294.60	7.585
294.97	6.846
295.34	7.939
295.71	7.945
296.08	6.460
296.44	7.721
296.81	7.552
297.18	5.729
297.55	6.958
297.91	7.948
298.28	6.161
298.65	7.372
299.02	4.959
299.38	7.208
299.75	7.243
300.12	6.019
300.48	6.797
300.85	7.424
301.22	7.383
301.59	7.534
301.95	6.102
302.32	7.333
302.69	5.915
303.05	7.073
303.42	7.428
303.79	7.187
304.15	7.571
304.52	7.611
304.89	7.435
305.25	6.108
305.62	7.210
305.99	8.866
306.35	7.661
306.72	7.549
307.09	7.513
307.45	8.696
307.82	8.174
308.19	7.669
308.55	9.257
308.92	7.887
309.29	8.812
309.65	7.797
310.02	8.317
310.38	9.055
310.75	8.932
311.12	9.204
311.48	8.895
311.85	8.642
312.22	9.013
312.58	9.859
312.95	9.656
313.31	10.840
313.68	10.623
314.05	11.201
314.41	11.566
314.78	10.990
315.14	11.343
315.51	11.634
315.87	12.601
316.24	12.694
316.61	13.588
316.97	12.217
317.34	12.963
317.70	14.934
318.07	14.198
318.43	14.711
318.80	14.883
319.16	14.249
319.53	15.510
319.89	15.513
320.26	14.947
320.62	15.603
320.99	16.805
321.35	16.728
321.72	17.023
322.08	16.772
322.45	17.164
322.81	17.690
323.18	18.407
323.54	19.052
323.91	19.217
324.27	18.847
324.64	20.235
325.00	19.486
325.37	20.475
325.73	20.248
326.10	20.762
326.46	21.824
326.83	22.018
327.19	20.709
327.56	21.186
327.92	21.794
328.29	21.532
328.65	22.027
329.01	22.420
329.38	22.157
329.74	22.860
330.11	22.175
330.47	22.999
330.84	23.342
331.20	22.833
331.56	22.704
331.93	23.347
332.29	22.034
332.66	23.007
333.02	22.027
333.38	23.070
333.75	22.727
334.11	23.269
334.48	23.432
334.84	24.894
335.20	23.594
335.57	23.862
335.93	25.455
336.29	22.463
336.66	22.876
337.02	23.662
337.38	24.065
337.75	22.397
338.11	22.876
338.47	23.573
338.84	22.589
339.20	22.578
339.56	22.405
339.93	23.071
340.29	22.625
340.65	21.411
341.02	23.783
341.38	23.201
341.74	21.630
342.11	22.446
342.47	21.604
342.83	22.947
343.20	22.976
343.56	21.572
343.92	23.139
344.28	22.266
344.65	22.868
345.01	22.309
345.37	22.317
345.73	21.590
346.10	22.855
346.46	22.547
346.82	22.846
347.19	22.002
347.55	22.534
347.91	21.768
348.27	20.865
348.63	20.716
349.00	21.924
349.36	21.784
349.72	21.801
350.08	22.065
350.45	22.738
350.81	23.002
351.17	21.805
351.53	21.077
351.89	22.399
352.26	22.313
352.62	21.343
352.98	21.756
353.34	20.762
353.70	20.724
354.07	21.088
354.43	20.957
354.79	21.316
355.15	20.971
355.51	22.295
355.87	20.194
356.24	22.281
356.60	20.547
356.96	21.275
357.32	21.561
357.68	21.157
358.04	20.958
358.40	20.000
358.77	20.980
359.13	20.458
359.49	20.372
359.85	20.232
360.21	20.230
360.57	20.675
360.93	20.733
361.29	21.404
361.66	20.058
362.02	21.155
362.38	19.817
362.74	20.461
363.10	19.601
363.46	21.191
363.82	19.034
364.18	20.690
364.54	20.539
364.90	20.870
365.26	19.931
365.62	19.933
365.98	20.422
366.35	20.805
366.71	20.612
367.07	21.448
367.43	20.026
367.79	21.500
368.15	21.605
368.51	20.771
368.87	19.595
369.23	20.800
369.59	20.697
369.95	20.554
370.31	20.662
370.67	20.358
371.03	20.222
371.39	20.282
371.75	20.358
372.11	20.461
372.47	19.973
372.83	20.157
373.19	20.080
373.55	20.393
373.91	20.245
374.27	19.793
374.63	21.516
374.99	21.286
375.35	20.584
375.71	19.935
376.07	20.465
376.42	19.710
376.78	20.634
377.14	20.150
377.50	20.367
377.86	20.197
378.22	20.299
378.58	19.798
378.94	19.249
379.30	20.211
379.66	20.635
380.02	19.273
380.38	20.449
380.74	20.056
381.09	21.429
381.45	20.909
381.81	20.082
382.17	19.359
382.53	19.298
382.89	20.090
383.25	19.812
383.61	19.618
383.97	20.612
384.32	20.335
384.68	19.954
385.04	20.648
385.40	19.741
385.76	20.985
386.12	20.287
386.48	20.588
386.83	20.679
387.19	20.510
387.55	20.129
387.91	20.605
388.27	20.727
388.62	21.249
388.98	19.966
389.34	20.094
389.70	20.279
390.06	19.657
390.42	19.277
390.77	19.988
391.13	20.833
391.49	20.471
391.85	20.182
392.20	19.810
392.56	21.028
392.92	20.229
393.28	20.232
393.64	19.385
393.99	20.163
394.35	20.911
394.71	19.820
395.07	20.060
395.42	20.160
395.78	20.902
396.14	19.905
396.50	19.418
396.85	20.871
397.21	19.882
397.57	20.318
397.92	20.218
398.28	20.858
398.64	20.080
399.00	20.000
399.35	20.314
399.71	19.837
400.07	20.382
400.42	20.081
400.78	20.486
401.14	20.376
401.49	21.148
401.85	19.767
402.21	20.568
402.57	20.599
402.92	19.563
403.28	20.141
403.63	19.391
403.99	19.537
404.35	19.841
404.70	20.680
405.06	21.087
405.42	20.550
405.77	20.665
406.13	20.475
406.49	20.495
406.84	20.388
407.20	20.626
407.55	19.867
407.91	20.679
408.27	20.024
408.62	20.652
408.98	20.197
409.34	19.003
409.69	20.643
410.05	20.692
410.40	20.128
410.76	20.415
411.11	21.157
411.47	21.130
411.83	20.459
412.18	20.843
412.54	20.154
412.89	21.246
413.25	20.880
413.60	20.793
413.96	19.930
414.31	19.943
414.67	20.751
415.03	20.554
415.38	20.429
415.74	20.159
416.09	21.530
416.45	20.225
416.80	20.012
417.16	20.690
417.51	21.108
417.87	20.417
418.22	20.299
418.58	20.074
418.93	21.246
419.29	19.852
419.64	20.708
420.00	20.297
420.35	20.831
420.71	21.195
421.06	20.472
421.42	19.725
421.77	19.763
422.12	20.772
422.48	20.533
422.83	21.413
423.19	20.743
423.54	20.465
423.90	20.652
424.25	20.800
424.61	20.379
424.96	20.209
425.31	21.338
425.67	20.290
426.02	19.923
426.38	20.781
426.73	19.922
427.09	21.684
427.44	20.262
427.79	20.398
428.15	20.947
428.50	20.562
428.85	20.608
429.21	21.862
429.56	20.138
429.92	20.737
430.27	21.157
430.62	20.811
430.98	20.364
431.33	21.212
431.68	20.738
432.04	20.366
432.39	20.407
432.74	20.377
433.10	20.876
433.45	20.736
433.80	20.815
434.16	21.281
434.51	21.531
434.86	20.575
435.22	21.520
435.57	20.519
435.92	21.146
436.28	21.104
436.63	21.354
436.98	20.880
437.34	21.026
437.69	20.473
438.04	20.888
438.39	19.874
438.75	19.757
439.10	21.247
439.45	21.632
439.81	20.904
440.16	20.214
440.51	21.014
440.86	20.845
441.22	20.472
441.57	20.860
441.92	20.708
442.27	20.859
442.63	21.063
442.98	21.398
443.33	20.673
443.68	21.110
444.03	21.590
444.39	20.804
444.74	21.031
445.09	20.628
445.44	21.180
445.79	21.216
446.15	21.120
446.50	20.930
446.85	21.304
447.20	20.793
447.55	20.921
447.91	19.843
448.26	20.190
448.61	20.829
448.96	21.620
449.31	20.626
449.66	20.316
450.02	20.622
450.37	20.778
450.72	21.313
451.07	20.501
451.42	21.028
451.77	21.679
452.12	20.937
452.47	20.261
452.83	21.622
453.18	21.074
453.53	20.908
453.88	21.204
454.23	21.356
454.58	21.184
454.93	20.206
455.28	21.674
455.63	20.864
455.98	20.838
456.34	20.436
456.69	20.929
457.04	20.863
457.39	20.676
457.74	20.749
458.09	20.758
458.44	21.013
458.79	20.113
459.14	20.399
459.49	19.977
459.84	20.409
460.19	20.822
460.54	20.500
460.89	20.434
461.24	20.517
461.59	20.697
461.94	19.395
462.29	20.997
462.64	19.855
462.99	20.653
463.34	20.960
463.69	20.106
464.04	20.678
464.39	21.076
464.74	20.296
465.09	20.012
465.44	20.762
465.79	20.571
466.14	19.906
466.49	20.421
466.84	19.780
467.19	20.116
467.54	20.505
467.89	20.287
468.24	20.111
468.59	19.166
468.94	19.988
469.29	18.476
469.64	19.072
469.99	19.822
470.34	19.059
470.68	20.096
471.03	19.319
471.38	19.294
471.73	19.506
472.08	20.812
472.43	20.289
472.78	19.395
473.13	18.963
473.48	20.302
473.83	20.546
474.17	19.578
474.52	19.603
474.87	19.380
475.22	19.887
475.57	19.159
475.92	19.711
476.27	19.116
476.61	19.107
476.96	19.187
477.31	19.158
477.66	20.934
478.01	19.420
478.36	18.843
478.70	19.409
479.05	19.274
479.40	19.891
479.75	18.492
480.10	19.138
480.45	19.234
480.79	19.728
481.14	19.485
481.49	18.991
481.84	19.408
482.19	19.484
482.53	19.108
482.88	19.318
483.23	19.164
483.58	17.860
483.92	18.129
484.27	19.094
484.62	18.317
484.97	18.896
485.31	18.374
485.66	17.850
486.01	17.101
486.36	17.404
486.70	17.759
487.05	18.146
487.40	17.994
487.75	18.193
488.09	18.230
488.44	18.187
488.79	18.010
489.13	18.537
489.48	18.291
489.83	18.229
490.17	17.537
490.52	18.103
490.87	18.570
491.22	18.024
491.56	18.643
491.91	18.011
492.26	18.304
492.60	18.408
492.95	18.561
493.30	18.108
493.64	18.616
493.99	18.026
494.34	17.944
494.68	17.430
495.03	17.621
495.37	17.710
495.72	18.458
496.07	18.142
496.41	17.804
496.76	17.598
497.11	17.240
497.45	17.954
497.80	18.436
498.14	17.460
498.49	17.555
498.84	17.687
499.18	17.814
499.53	18.027
499.87	18.462
500.22	17.498
500.56	16.959
500.91	17.712
501.26	18.136
501.60	17.145
501.95	17.238
502.29	17.683
502.64	17.359
502.98	17.084
503.33	16.631
503.67	17.183
504.02	17.207
504.36	17.426
504.71	17.042
505.06	17.326
505.40	16.682
505.75	17.168
506.09	16.897
506.44	17.317
506.78	17.615
507.13	16.920
507.47	17.101
507.82	17.235
508.16	16.539
508.51	17.159
508.85	17.100
509.19	16.580
509.54	16.090
509.88	17.047
510.23	16.659
510.57	18.125
510.92	17.175
511.26	16.643
511.61	16.610
511.95	15.861
512.30	17.233
512.64	17.291
512.98	16.358
513.33	16.784
513.67	16.522
514.02	17.425
514.36	16.368
514.70	16.302
515.05	16.267
515.39	17.218
515.74	16.490
516.08	16.535
516.42	17.111
516.77	16.088
517.11	15.678
517.46	16.914
517.80	16.676
518.14	16.594
518.49	17.354
518.83	16.605
519.17	15.940
519.52	16.771
519.86	15.998
520.20	16.187
520.55	16.156
520.89	17.173
521.23	16.192
521.58	17.119
521.92	16.431
522.26	15.922
522.61	16.493
522.95	16.205
523.29	16.264
523.64	15.639
523.98	16.999
524.32	16.619
524.66	15.936
525.01	16.025
525.35	15.738
525.69	15.777
526.04	16.073
526.38	16.494
526.72	15.686
527.06	16.129
527.41	15.860
527.75	16.746
528.09	15.762
528.43	15.216
528.78	15.434
529.12	16.170
529.46	15.739
529.80	16.190
530.15	15.710
530.49	15.362
530.83	15.998
531.17	15.412
531.51	15.644
531.86	16.587
532.20	16.463
532.54	15.141
532.88	15.333
533.22	15.262
533.57	15.234
533.91	15.713
534.25	15.376
534.59	15.230
534.93	14.601
535.27	14.986
535.62	15.236
535.96	14.817
536.30	15.100
536.64	14.715
536.98	14.945
537.32	15.556
537.66	15.970
538.01	14.562
538.35	14.251
538.69	14.363
539.03	15.389
539.37	15.077
539.71	14.354
540.05	15.288
540.39	13.998
540.73	14.390
541.07	14.286
541.42	14.885
541.76	14.887
542.10	14.355
542.44	14.007
542.78	14.842
543.12	15.197
543.46	14.347
543.80	13.609
544.14	14.243
544.48	14.775
544.82	14.782
545.16	14.311
545.50	13.841
545.84	14.391
546.18	15.741
546.52	14.904
546.86	13.648
547.20	14.822
547.54	14.170
547.88	13.984
548.22	13.041
548.56	15.272
548.90	13.910
549.24	14.286
549.58	13.628
549.92	13.329
550.26	13.851
550.60	14.295
550.94	14.166
551.28	14.719
551.62	14.286
551.96	14.175
552.30	14.723
552.64	14.437
552.98	13.974
553.32	13.055
553.66	13.248
554.00	13.871
554.34	13.514
554.68	13.234
555.02	13.272
555.36	14.267
555.69	12.876
556.03	13.556
556.37	13.892
556.71	13.760
557.05	14.185
557.39	13.869
557.73	14.729
558.07	13.642
558.41	13.621
558.75	13.455
559.08	13.570
559.42	13.992
559.76	13.976
560.10	13.798
560.44	12.599
560.78	13.813
561.12	13.670
561.45	13.017
561.79	14.164
562.13	14.356
562.47	13.687
562.81	13.038
563.15	13.573
563.48	13.114
563.82	13.301
564.16	13.628
564.50	12.992
564.84	12.507
565.17	12.941
565.51	12.198
565.85	13.302
566.19	12.558
566.52	12.580
566.86	13.016
567.20	12.779
567.54	12.799
567.88	12.742
568.21	12.055
568.55	12.662
568.89	12.665
569.23	12.548
569.56	12.505
569.90	12.366
570.24	12.344
570.57	11.706
570.91	11.911
571.25	11.860
571.59	11.467
571.92	11.567
572.26	11.699
572.60	11.493
572.93	11.940
573.27	11.352
573.61	11.726
573.95	11.556
574.28	11.306
574.62	11.460
574.96	10.962
575.29	11.214
575.63	11.365
575.97	11.425
576.30	11.670
576.64	11.405
576.98	11.162
577.31	11.016
577.65	11.267
577.98	10.881
578.32	10.792
578.66	11.101
578.99	11.141
579.33	11.049
579.67	10.834
580.00	11.171
580.34	11.235
580.67	10.591
581.01	10.710
581.35	10.832
581.68	10.985
582.02	10.961
582.35	10.753
582.69	10.794
583.02	10.559
583.36	11.008
583.70	11.361
584.03	10.775
584.37	11.182
584.70	10.709
585.04	10.904
585.37	11.003
585.71	11.025
586.04	10.612
586.38	10.678
586.72	10.504
587.05	10.489
587.39	10.970
587.72	10.837
588.06	11.049
588.39	10.929
588.73	11.005
589.06	11.202
589.40	10.756
589.73	11.215
590.07	11.406
590.40	11.460
590.73	10.993
591.07	11.727
591.40	11.003
591.74	10.930
592.07	11.571
592.41	10.844
592.74	11.076
593.08	10.860
593.41	11.286
593.75	10.805
594.08	10.845
594.41	11.090
594.75	10.694
595.08	10.868
595.42	10.812
595.75	10.817
596.09	10.844
596.42	11.609
596.75	11.849
597.09	11.475
597.42	11.283
597.75	11.446
598.09	11.151
598.42	11.661
598.76	10.814
599.09	10.894
599.42	10.627
599.76	10.697
600.09	10.777
600.42	10.878
600.76	11.096
601.09	10.687
601.42	10.814
601.76	11.207
602.09	11.151
602.42	10.869
602.76	10.738
603.09	10.646
603.42	10.838
603.76	10.641
604.09	11.036
604.42	10.826
604.76	11.301
605.09	10.969
605.42	11.244
605.75	11.154
606.09	11.012
606.42	10.762
606.75	10.832
607.09	10.330
607.42	10.674
607.75	10.551
608.08	10.852
608.42	10.359
608.75	11.028
609.08	10.781
609.41	11.160
609.75	10.714
610.08	11.170
610.41	11.172
610.74	11.008
611.07	11.234
611.41	11.166
611.74	11.455
612.07	11.688
612.40	11.074
612.73	11.051
613.07	11.247
613.40	10.972
613.73	11.026
614.06	10.942
614.39	11.030
614.72	10.966
615.06	10.780
615.39	10.343
615.72	10.758
616.05	10.928
616.38	11.806
616.71	10.815
617.05	11.076
617.38	10.701
617.71	12.149
618.04	11.549
618.37	11.749
618.70	10.860
619.03	11.051
619.36	11.899
619.69	11.595
620.03	12.367
620.36	10.982
620.69	11.536
621.02	11.549
621.35	11.684
621.68	12.003
622.01	12.313
622.34	10.391
622.67	11.271
623.00	11.066
623.33	12.077
623.66	11.284
623.99	11.060
624.32	12.671
624.65	11.647
624.99	11.443
625.32	11.888
625.65	12.272
625.98	10.508
626.31	12.048
626.64	12.088
626.97	12.228
627.30	10.251
627.63	11.403
627.96	12.988
628.29	10.895
628.62	10.747
628.95	11.569
629.28	11.810
629.61	11.869
629.94	11.297
630.26	12.119
630.59	11.226
630.92	11.775
631.25	12.165
631.58	12.053
631.91	12.371
632.24	13.737
632.57	12.239
632.90	11.133
633.23	12.857
633.56	11.939
633.89	12.087
634.22	13.202
634.55	12.004
634.88	11.255
635.20	13.025
635.53	11.751
635.86	13.543
636.19	12.513
636.52	12.025
