SpectraSuite Data File
++++++++++++++++++++++++++++++++++++
Date: Thu May 14 16:14:42 PDT 2015
User: schluterlab
Dark Spectrum Present: Yes
Reference Spectrum Present: Yes
Number of Sampled Component Spectra: 1
Spectrometers: USB2E3373
Integration Time (usec): 3000 (USB2E3373)
Spectra Averaged: 3 (USB2E3373)
Boxcar Smoothing: 0 (USB2E3373)
Correct for Electrical Dark: No (USB2E3373)
Strobe/Lamp Enabled: No (USB2E3373)
Correct for Detector Non-linearity: No (USB2E3373)
Correct for Stray Light: No (USB2E3373)
Number of Pixels in Processed Spectrum: 2048
>>>>>Begin Processed Spectral Data<<<<<
178.53	0.000
178.91	100.000
179.29	-1100.000
179.67	100.000
180.04	135.714
180.42	110.000
180.80	260.000
181.18	-400.000
181.56	-200.000
181.94	250.000
182.31	-75.000
182.69	-133.333
183.07	150.000
183.45	350.000
183.83	-166.667
184.20	-66.667
184.58	500.000
184.96	-150.000
185.34	11.111
185.72	80.000
186.09	66.667
186.47	350.000
186.85	200.000
187.23	-66.667
187.61	-1400.000
187.98	240.000
188.36	200.000
188.74	-75.000
189.12	0.000
189.49	-6.250
189.87	12.500
190.25	-33.333
190.63	-40.000
191.00	-77.778
191.38	0.000
191.76	-200.000
192.14	-100.000
192.51	200.000
192.89	183.333
193.27	0.000
193.65	-28.571
194.02	-1000.000
194.40	14.286
194.78	-28.571
195.15	0.000
195.53	18.182
195.91	0.000
196.29	250.000
196.66	-69.231
197.04	-1100.000
197.42	-42.857
197.79	50.000
198.17	-62.500
198.55	-128.571
198.92	-44.444
199.30	-162.500
199.68	54.545
200.05	14.286
200.43	-450.000
200.81	157.143
201.18	0.000
201.56	111.111
201.94	0.000
202.31	133.333
202.69	-77.778
203.07	-0.000
203.44	-111.111
203.82	-75.000
204.19	25.000
204.57	-133.333
204.95	-25.000
205.32	-500.000
205.70	-50.000
206.08	-16.667
206.45	-16.667
206.83	180.000
207.20	50.000
207.58	-180.000
207.96	-116.667
208.33	166.667
208.71	33.333
209.08	200.000
209.46	0.000
209.84	183.333
210.21	50.000
210.59	450.000
210.96	366.667
211.34	25.000
211.71	62.500
212.09	-100.000
212.46	0.000
212.84	950.000
213.22	-140.000
213.59	100.000
213.97	10.000
214.34	0.000
214.72	83.333
215.09	-25.000
215.47	0.000
215.84	-28.571
216.22	600.000
216.59	80.000
216.97	140.000
217.34	100.000
217.72	-62.500
218.09	-50.000
218.47	-100.000
218.84	0.000
219.22	140.000
219.59	-47.059
219.97	10.000
220.34	600.000
220.72	-11.111
221.09	46.154
221.47	266.667
221.84	10.000
222.22	-42.857
222.59	0.000
222.97	87.500
223.34	-240.000
223.72	-500.000
224.09	-150.000
224.46	-25.000
224.84	180.000
225.21	-28.571
225.59	-500.000
225.96	-275.000
226.34	-7.692
226.71	83.333
227.08	-550.000
227.46	-53.333
227.83	0.000
228.21	21.053
228.58	100.000
228.95	400.000
229.33	-25.000
229.70	-50.000
230.08	31.579
230.45	130.000
230.82	133.333
231.20	-28.571
231.57	-41.667
231.95	54.545
232.32	90.909
232.69	15.000
233.07	-25.000
233.44	17.647
233.81	-90.000
234.19	22.222
234.56	27.273
234.93	27.586
235.31	-36.842
235.68	-33.333
236.05	-40.000
236.43	30.769
236.80	48.000
237.17	7.407
237.55	-6.061
237.92	-110.000
238.29	9.677
238.67	25.000
239.04	19.444
239.41	9.524
239.79	21.739
240.16	11.111
240.53	19.565
240.91	15.686
241.28	24.590
241.65	32.836
242.02	32.432
242.40	16.923
242.77	13.333
243.14	3.659
243.51	-3.947
243.89	14.103
244.26	30.693
244.63	30.392
245.00	27.103
245.38	8.772
245.75	13.274
246.12	21.429
246.49	18.605
246.87	22.857
247.24	21.854
247.61	20.395
247.98	20.134
248.36	16.667
248.73	14.110
249.10	20.765
249.47	24.876
249.84	21.466
250.22	17.098
250.59	19.444
250.96	25.455
251.33	21.429
251.70	19.658
252.08	22.083
252.45	20.082
252.82	17.769
253.19	17.969
253.56	22.433
253.94	20.385
254.31	20.833
254.68	19.231
255.05	26.710
255.42	19.388
255.79	18.447
256.16	23.841
256.54	21.192
256.91	22.295
257.28	26.230
257.65	17.197
258.02	17.404
258.39	22.222
258.76	22.630
259.14	24.713
259.51	24.207
259.88	20.113
260.25	21.389
260.62	23.836
260.99	20.492
261.36	20.643
261.73	20.159
262.10	23.626
262.47	23.861
262.85	23.990
263.22	21.818
263.59	19.737
263.96	23.274
264.33	19.949
264.70	22.222
265.07	23.389
265.44	25.397
265.81	22.917
266.18	23.810
266.55	22.991
266.92	21.640
267.29	27.133
267.66	22.395
268.03	24.891
268.40	21.294
268.77	21.185
269.14	20.485
269.51	22.149
269.88	26.025
270.25	22.334
270.62	23.629
270.99	24.040
271.36	23.960
271.73	22.397
272.10	25.251
272.47	21.042
272.84	20.281
273.21	21.643
273.58	23.387
273.95	19.808
274.32	21.103
274.69	20.309
275.06	22.161
275.43	19.963
275.80	21.517
276.17	19.074
276.54	22.015
276.91	19.678
277.28	20.434
277.65	23.160
278.02	21.140
278.39	21.196
278.76	21.265
279.13	22.518
279.50	21.649
279.87	21.646
280.23	20.423
280.60	20.508
280.97	21.382
281.34	21.732
281.71	22.166
282.08	21.595
282.45	20.295
282.82	22.135
283.19	18.578
283.56	20.492
283.92	21.922
284.29	22.433
284.66	24.466
285.03	18.590
285.40	20.247
285.77	19.814
286.14	23.817
286.51	21.157
286.87	20.379
287.24	23.042
287.61	22.720
287.98	20.544
288.35	19.675
288.72	21.893
289.08	20.937
289.45	19.083
289.82	20.331
290.19	19.684
290.56	20.141
290.93	19.686
291.29	19.697
291.66	21.212
292.03	19.674
292.40	21.769
292.77	17.790
293.13	18.945
293.50	17.608
293.87	18.658
294.24	20.267
294.60	19.343
294.97	17.852
295.34	18.822
295.71	17.528
296.08	17.829
296.44	18.505
296.81	17.905
297.18	18.555
297.55	18.632
297.91	18.031
298.28	18.483
298.65	16.766
299.02	17.237
299.38	19.336
299.75	17.523
300.12	17.824
300.48	16.590
300.85	17.885
301.22	17.897
301.59	18.037
301.95	18.870
302.32	19.111
302.69	18.729
303.05	17.410
303.42	17.295
303.79	17.917
304.15	18.507
304.52	17.653
304.89	18.429
305.25	16.563
305.62	17.764
305.99	18.041
306.35	17.540
306.72	19.131
307.09	17.056
307.45	19.565
307.82	19.273
308.19	18.466
308.55	19.479
308.92	18.111
309.29	18.391
309.65	18.421
310.02	19.010
310.38	18.799
310.75	19.320
311.12	19.655
311.48	19.746
311.85	20.418
312.22	19.355
312.58	19.155
312.95	20.459
313.31	19.422
313.68	21.429
314.05	20.145
314.41	20.128
314.78	21.163
315.14	21.325
315.51	22.622
315.87	22.232
316.24	22.283
316.61	23.179
316.97	22.353
317.34	22.046
317.70	23.406
318.07	24.427
318.43	24.660
318.80	23.997
319.16	24.292
319.53	22.365
319.89	23.751
320.26	25.534
320.62	26.330
320.99	24.469
321.35	25.786
321.72	26.605
322.08	26.150
322.45	26.649
322.81	27.708
323.18	27.257
323.54	27.069
323.91	27.313
324.27	27.625
324.64	29.051
325.00	27.612
325.37	29.075
325.73	30.661
326.10	30.008
326.46	30.782
326.83	31.785
327.19	29.449
327.56	31.067
327.92	31.786
328.29	30.806
328.65	31.993
329.01	31.810
329.38	32.350
329.74	34.675
330.11	34.075
330.47	33.361
330.84	33.850
331.20	35.000
331.56	34.575
331.93	35.314
332.29	33.898
332.66	34.385
333.02	34.506
333.38	33.473
333.75	35.017
334.11	35.113
334.48	35.396
334.84	35.599
335.20	34.341
335.57	35.413
335.93	35.537
336.29	33.111
336.66	34.987
337.02	34.699
337.38	35.799
337.75	34.463
338.11	35.828
338.47	34.491
338.84	35.533
339.20	34.962
339.56	33.937
339.93	35.140
340.29	33.414
340.65	33.414
341.02	35.355
341.38	35.893
341.74	34.140
342.11	34.916
342.47	34.313
342.83	34.138
343.20	35.895
343.56	35.605
343.92	34.908
344.28	34.375
344.65	35.194
345.01	34.633
345.37	34.292
345.73	34.606
346.10	35.257
346.46	34.652
346.82	34.607
347.19	36.134
347.55	36.039
347.91	34.844
348.27	35.508
348.63	34.425
349.00	35.048
349.36	34.052
349.72	33.780
350.08	34.844
350.45	35.285
350.81	34.766
351.17	34.812
351.53	34.193
351.89	35.080
352.26	35.299
352.62	34.552
352.98	35.191
353.34	34.877
353.70	34.515
354.07	33.234
354.43	34.700
354.79	34.854
355.15	34.069
355.51	34.942
355.87	33.657
356.24	34.981
356.60	33.481
356.96	34.692
357.32	34.275
357.68	35.066
358.04	34.656
358.40	32.612
358.77	34.649
359.13	34.343
359.49	34.052
359.85	33.865
360.21	34.290
360.57	34.386
360.93	33.427
361.29	35.509
361.66	33.454
362.02	35.421
362.38	34.996
362.74	34.497
363.10	34.732
363.46	35.042
363.82	35.156
364.18	34.061
364.54	34.440
364.90	35.518
365.26	34.276
365.62	35.133
365.98	34.445
366.35	34.631
366.71	35.918
367.07	35.386
367.43	34.471
367.79	35.169
368.15	35.452
368.51	34.709
368.87	34.291
369.23	34.067
369.59	35.178
369.95	35.835
370.31	36.124
370.67	35.420
371.03	34.141
371.39	34.654
371.75	35.007
372.11	34.621
372.47	35.274
372.83	34.555
373.19	33.756
373.55	34.553
373.91	34.969
374.27	34.153
374.63	34.980
374.99	34.748
375.35	35.000
375.71	35.806
376.07	34.538
376.42	35.768
376.78	34.618
377.14	34.186
377.50	34.662
377.86	34.914
378.22	35.749
378.58	35.018
378.94	34.566
379.30	34.798
379.66	35.332
380.02	35.603
380.38	36.002
380.74	36.507
381.09	36.469
381.45	35.170
381.81	36.768
382.17	36.223
382.53	36.082
382.89	35.553
383.25	35.053
383.61	35.764
383.97	34.982
384.32	36.663
384.68	35.151
385.04	36.322
385.40	35.710
385.76	35.522
386.12	35.667
386.48	36.176
386.83	36.770
387.19	35.979
387.55	36.033
387.91	36.244
388.27	35.450
388.62	35.052
388.98	35.533
389.34	37.242
389.70	35.038
390.06	35.820
390.42	36.024
390.77	37.327
391.13	35.622
391.49	36.836
391.85	35.636
392.20	35.943
392.56	36.799
392.92	35.605
393.28	36.650
393.64	35.196
393.99	36.200
394.35	36.916
394.71	35.569
395.07	35.689
395.42	35.979
395.78	36.746
396.14	35.235
396.50	36.817
396.85	36.255
397.21	36.213
397.57	36.278
397.92	36.942
398.28	36.230
398.64	36.041
399.00	35.497
399.35	36.073
399.71	36.630
400.07	36.384
400.42	35.972
400.78	35.706
401.14	36.198
401.49	35.759
401.85	36.628
402.21	36.848
402.57	37.676
402.92	36.702
403.28	36.007
403.63	36.814
403.99	36.461
404.35	35.475
404.70	35.354
405.06	36.304
405.42	36.007
405.77	36.750
406.13	36.197
406.49	36.712
406.84	36.343
407.20	37.395
407.55	35.796
407.91	36.204
408.27	35.689
408.62	37.173
408.98	35.810
409.34	34.956
409.69	37.145
410.05	37.632
410.40	36.543
410.76	36.231
411.11	37.171
411.47	36.671
411.83	37.566
412.18	36.988
412.54	38.056
412.89	35.797
413.25	37.020
413.60	36.818
413.96	35.956
414.31	36.884
414.67	36.374
415.03	35.446
415.38	37.074
415.74	36.836
416.09	36.336
416.45	36.130
416.80	36.536
417.16	36.909
417.51	36.800
417.87	36.419
418.22	37.545
418.58	35.564
418.93	36.671
419.29	36.868
419.64	35.954
420.00	37.270
420.35	36.665
420.71	36.760
421.06	36.515
421.42	36.640
421.77	36.564
422.12	36.786
422.48	36.150
422.83	36.747
423.19	36.552
423.54	37.832
423.90	36.334
424.25	37.280
424.61	35.821
424.96	36.848
425.31	36.890
425.67	36.822
426.02	37.023
426.38	35.821
426.73	35.993
427.09	38.120
427.44	35.336
427.79	36.042
428.15	36.929
428.50	36.404
428.85	35.936
429.21	37.447
429.56	36.673
429.92	35.823
430.27	36.145
430.62	37.079
430.98	36.744
431.33	37.341
431.68	36.063
432.04	37.024
432.39	36.529
432.74	35.103
433.10	37.804
433.45	37.291
433.80	36.964
434.16	37.190
434.51	37.307
434.86	37.242
435.22	37.407
435.57	37.500
435.92	37.507
436.28	36.633
436.63	38.121
436.98	36.447
437.34	36.866
437.69	37.644
438.04	37.599
438.39	36.703
438.75	37.078
439.10	37.738
439.45	37.563
439.81	37.345
440.16	37.748
440.51	38.294
440.86	35.909
441.22	36.549
441.57	37.631
441.92	37.585
442.27	37.828
442.63	37.606
442.98	36.766
443.33	37.244
443.68	37.661
444.03	37.441
444.39	37.263
444.74	37.060
445.09	36.594
445.44	37.092
445.79	37.308
446.15	37.564
446.50	36.848
446.85	38.035
447.20	37.814
447.55	37.238
447.91	37.330
448.26	36.786
448.61	38.204
448.96	38.197
449.31	37.063
449.66	37.691
450.02	37.078
450.37	37.027
450.72	37.783
451.07	37.699
451.42	37.204
451.77	37.799
452.12	37.923
452.47	37.730
452.83	38.514
453.18	36.778
453.53	38.139
453.88	37.548
454.23	37.740
454.58	38.944
454.93	37.257
455.28	37.929
455.63	37.180
455.98	38.492
456.34	39.399
456.69	38.213
457.04	38.357
457.39	36.807
457.74	39.262
458.09	37.836
458.44	38.039
458.79	38.112
459.14	38.123
459.49	38.879
459.84	38.825
460.19	37.091
460.54	37.933
460.89	37.321
461.24	37.529
461.59	37.908
461.94	37.422
462.29	38.578
462.64	37.900
462.99	38.041
463.34	37.638
463.69	37.866
464.04	38.688
464.39	37.668
464.74	37.457
465.09	37.486
465.44	37.124
465.79	37.705
466.14	37.728
466.49	38.263
466.84	37.576
467.19	38.092
467.54	37.309
467.89	37.644
468.24	37.839
468.59	36.827
468.94	37.471
469.29	37.612
469.64	38.462
469.99	39.133
470.34	38.676
470.68	38.688
471.03	38.638
471.38	38.064
471.73	38.427
472.08	39.023
472.43	38.049
472.78	38.980
473.13	37.484
473.48	38.610
473.83	39.292
474.17	37.808
474.52	38.665
474.87	37.818
475.22	39.493
475.57	38.214
475.92	38.228
476.27	37.593
476.61	37.643
476.96	38.425
477.31	37.178
477.66	39.035
478.01	37.926
478.36	37.537
478.70	37.833
479.05	38.753
479.40	38.351
479.75	38.713
480.10	38.134
480.45	37.192
480.79	37.551
481.14	36.949
481.49	37.256
481.84	37.772
482.19	37.591
482.53	37.429
482.88	38.547
483.23	38.239
483.58	37.467
483.92	37.500
484.27	37.638
484.62	37.335
484.97	37.519
485.31	36.255
485.66	35.296
486.01	33.943
486.36	34.226
486.70	34.907
487.05	35.301
487.40	35.036
487.75	36.209
488.09	35.644
488.44	34.895
488.79	35.919
489.13	36.278
489.48	36.505
489.83	36.740
490.17	36.938
490.52	37.151
490.87	38.409
491.22	37.998
491.56	37.201
491.91	37.636
492.26	37.949
492.60	37.604
492.95	37.648
493.30	36.934
493.64	37.626
493.99	37.412
494.34	37.064
494.68	36.831
495.03	38.370
495.37	38.083
495.72	38.367
496.07	38.212
496.41	36.637
496.76	37.865
497.11	38.047
497.45	37.203
497.80	38.427
498.14	37.642
498.49	37.178
498.84	37.569
499.18	38.057
499.53	37.399
499.87	36.571
500.22	36.732
500.56	37.247
500.91	37.025
501.26	37.227
501.60	37.030
501.95	36.648
502.29	37.297
502.64	36.817
502.98	36.109
503.33	36.587
503.67	37.069
504.02	37.084
504.36	37.131
504.71	37.712
505.06	36.880
505.40	36.654
505.75	37.250
506.09	37.109
506.44	37.372
506.78	36.193
507.13	37.575
507.47	37.944
507.82	37.784
508.16	37.141
508.51	36.381
508.85	36.892
509.19	37.470
509.54	37.608
509.88	37.057
510.23	37.737
510.57	38.183
510.92	36.913
511.26	37.133
511.61	37.084
511.95	37.286
512.30	38.060
512.64	36.882
512.98	36.768
513.33	37.248
513.67	37.430
514.02	37.609
514.36	38.005
514.70	37.917
515.05	37.852
515.39	37.743
515.74	37.964
516.08	38.880
516.42	38.723
516.77	38.433
517.11	38.216
517.46	37.593
517.80	39.177
518.14	39.010
518.49	38.449
518.83	37.147
519.17	37.264
519.52	38.365
519.86	37.540
520.20	38.285
520.55	37.897
520.89	38.570
521.23	38.135
521.58	38.814
521.92	37.394
522.26	37.400
522.61	38.252
522.95	38.754
523.29	36.724
523.64	38.845
523.98	38.848
524.32	38.453
524.66	37.052
525.01	37.429
525.35	37.220
525.69	37.413
526.04	37.371
526.38	37.414
526.72	37.601
527.06	37.713
527.41	37.376
527.75	38.599
528.09	37.367
528.43	38.070
528.78	36.763
529.12	37.844
529.46	37.493
529.80	37.243
530.15	37.275
530.49	37.722
530.83	37.485
531.17	37.873
531.51	37.064
531.86	37.380
532.20	38.293
532.54	37.223
532.88	36.727
533.22	35.887
533.57	36.988
533.91	35.971
534.25	35.613
534.59	36.782
534.93	35.993
535.27	36.563
535.62	36.214
535.96	36.723
536.30	36.722
536.64	37.538
536.98	36.470
537.32	36.481
537.66	36.369
538.01	35.227
538.35	35.566
538.69	35.877
539.03	36.052
539.37	35.807
539.71	36.396
540.05	36.391
540.39	35.086
540.73	35.641
541.07	35.500
541.42	35.735
541.76	35.469
542.10	35.163
542.44	34.775
542.78	36.071
543.12	35.757
543.46	35.165
543.80	35.192
544.14	34.889
544.48	35.284
544.82	35.907
545.16	34.764
545.50	34.991
545.84	35.028
546.18	36.111
546.52	34.395
546.86	34.843
547.20	34.924
547.54	36.017
547.88	33.816
548.22	34.678
548.56	33.938
548.90	34.925
549.24	33.799
549.58	35.899
549.92	35.459
550.26	35.340
550.60	35.546
550.94	35.446
551.28	35.314
551.62	35.377
551.96	34.822
552.30	34.863
552.64	35.594
552.98	35.434
553.32	35.370
553.66	35.756
554.00	34.300
554.34	34.041
554.68	33.764
555.02	35.414
555.36	35.503
555.69	33.889
556.03	33.733
556.37	34.731
556.71	34.052
557.05	34.249
557.39	34.307
557.73	33.950
558.07	34.172
558.41	35.282
558.75	35.227
559.08	35.908
559.42	34.431
559.76	35.007
560.10	35.499
560.44	33.839
560.78	33.750
561.12	34.360
561.45	34.428
561.79	33.639
562.13	33.888
562.47	32.984
562.81	34.114
563.15	34.217
563.48	33.686
563.82	34.341
564.16	32.344
564.50	33.611
564.84	32.448
565.17	33.529
565.51	32.048
565.85	32.779
566.19	33.180
566.52	32.300
566.86	32.258
567.20	31.158
567.54	31.970
567.88	31.855
568.21	31.769
568.55	31.847
568.89	31.185
569.23	31.010
569.56	29.191
569.90	28.795
570.24	29.241
570.57	28.993
570.91	28.169
571.25	27.365
571.59	27.748
571.92	27.425
572.26	27.395
572.60	26.863
572.93	28.138
573.27	27.564
573.61	27.184
573.95	27.361
574.28	26.956
574.62	26.467
574.96	26.423
575.29	25.909
575.63	26.126
575.97	26.204
576.30	26.450
576.64	26.342
576.98	26.333
577.31	26.172
577.65	25.898
577.98	26.130
578.32	25.280
578.66	24.915
578.99	26.111
579.33	26.523
579.67	25.997
580.00	26.118
580.34	25.545
580.67	25.684
581.01	25.811
581.35	25.560
581.68	25.129
582.02	25.000
582.35	25.321
582.69	25.453
583.02	25.005
583.36	25.734
583.70	25.653
584.03	25.582
584.37	26.018
584.70	25.355
585.04	25.064
585.37	24.724
585.71	25.156
586.04	25.649
586.38	25.441
586.72	25.445
587.05	25.556
587.39	26.028
587.72	25.598
588.06	25.967
588.39	25.541
588.73	25.608
589.06	26.298
589.40	26.214
589.73	26.414
590.07	26.592
590.40	26.741
590.73	26.759
591.07	27.550
591.40	27.760
591.74	26.987
592.07	28.096
592.41	26.853
592.74	27.334
593.08	26.369
593.41	26.947
593.75	26.236
594.08	26.234
594.41	26.635
594.75	26.005
595.08	26.447
595.42	26.656
595.75	25.573
596.09	26.872
596.42	27.087
596.75	27.132
597.09	27.838
597.42	27.612
597.75	26.695
598.09	27.063
598.42	27.463
598.76	26.557
599.09	26.344
599.42	26.148
599.76	25.817
600.09	26.593
600.42	26.159
600.76	25.859
601.09	25.888
601.42	26.262
601.76	25.759
602.09	26.555
602.42	25.591
602.76	26.679
603.09	26.468
603.42	26.445
603.76	26.498
604.09	26.437
604.42	25.872
604.76	26.142
605.09	26.326
605.42	27.472
605.75	26.577
606.09	25.607
606.42	25.721
606.75	26.574
607.09	26.344
607.42	26.281
607.75	26.026
608.08	25.809
608.42	26.199
608.75	26.493
609.08	26.443
609.41	27.084
609.75	26.875
610.08	26.957
610.41	26.253
610.74	26.050
611.07	26.776
611.41	27.578
611.74	27.252
612.07	27.957
612.40	27.519
612.73	27.971
613.07	28.166
613.40	28.537
613.73	27.636
614.06	27.527
614.39	27.017
614.72	27.268
615.06	27.238
615.39	27.018
615.72	27.299
616.05	27.295
616.38	27.649
616.71	27.847
617.05	27.370
617.38	29.106
617.71	28.618
618.04	28.063
618.37	28.689
618.70	29.921
619.03	28.136
619.36	28.483
619.69	29.660
620.03	28.562
620.36	28.834
620.69	28.439
621.02	29.724
621.35	30.842
621.68	31.453
622.01	30.178
622.34	29.986
622.67	30.103
623.00	28.880
623.33	29.927
623.66	28.210
623.99	28.901
624.32	29.370
624.65	28.829
624.99	28.544
625.32	30.634
625.65	30.344
625.98	29.424
626.31	29.341
626.64	30.403
626.97	30.683
627.30	29.461
627.63	30.308
627.96	32.132
628.29	30.739
628.62	31.822
628.95	32.340
629.28	31.096
629.61	32.407
629.94	31.130
630.26	31.271
630.59	31.952
630.92	31.342
631.25	33.453
631.58	32.486
631.91	33.083
632.24	33.141
632.57	33.017
632.90	32.899
633.23	35.306
633.56	33.980
633.89	35.021
