SpectraSuite Data File
++++++++++++++++++++++++++++++++++++
Date: Thu May 14 16:10:17 PDT 2015
User: schluterlab
Dark Spectrum Present: Yes
Reference Spectrum Present: Yes
Number of Sampled Component Spectra: 1
Spectrometers: USB2E3373
Integration Time (usec): 3000 (USB2E3373)
Spectra Averaged: 3 (USB2E3373)
Boxcar Smoothing: 0 (USB2E3373)
Correct for Electrical Dark: No (USB2E3373)
Strobe/Lamp Enabled: No (USB2E3373)
Correct for Detector Non-linearity: No (USB2E3373)
Correct for Stray Light: No (USB2E3373)
Number of Pixels in Processed Spectrum: 2048
>>>>>Begin Processed Spectral Data<<<<<
178.53	0.000
178.91	200.000
179.29	-2100.000
179.67	-1200.000
180.04	214.286
180.42	190.000
180.80	440.000
181.18	-1400.000
181.56	-1000.000
181.94	250.000
182.31	-350.000
182.69	566.667
183.07	-500.000
183.45	525.000
183.83	-266.667
184.20	-233.333
184.58	700.000
184.96	-375.000
185.34	-200.000
185.72	-220.000
186.09	288.889
186.47	800.000
186.85	400.000
187.23	-233.333
187.61	-1200.000
187.98	320.000
188.36	325.000
188.74	-300.000
189.12	-400.000
189.49	-18.750
189.87	-150.000
190.25	-55.556
190.63	-100.000
191.00	-122.222
191.38	0.000
191.76	-450.000
192.14	0.000
192.51	500.000
192.89	-100.000
193.27	0.000
193.65	-128.571
194.02	-1900.000
194.40	-171.429
194.78	228.571
195.15	0.000
195.53	0.000
195.91	0.000
196.29	-125.000
196.66	7.692
197.04	-2600.000
197.42	-142.857
197.79	-500.000
198.17	-50.000
198.55	-114.286
198.92	-66.667
199.30	-100.000
199.68	-54.545
200.05	-21.429
200.43	-1150.000
200.81	300.000
201.18	0.000
201.56	211.111
201.94	0.000
202.31	300.000
202.69	-44.444
203.07	1000.000
203.44	-100.000
203.82	-400.000
204.19	-50.000
204.57	-233.333
204.95	-150.000
205.32	-900.000
205.70	150.000
206.08	-100.000
206.45	-66.667
206.83	400.000
207.20	-200.000
207.58	-220.000
207.96	-350.000
208.33	-183.333
208.71	141.667
209.08	-50.000
209.46	0.000
209.84	266.667
210.21	400.000
210.59	300.000
210.96	600.000
211.34	-175.000
211.71	-150.000
212.09	-1000.000
212.46	0.000
212.84	1100.000
213.22	-460.000
213.59	-250.000
213.97	-50.000
214.34	-100.000
214.72	333.333
215.09	-175.000
215.47	0.000
215.84	-0.000
216.22	1050.000
216.59	-260.000
216.97	-180.000
217.34	-300.000
217.72	37.500
218.09	-425.000
218.47	-325.000
218.84	0.000
219.22	180.000
219.59	-52.941
219.97	-20.000
220.34	750.000
220.72	-111.111
221.09	-46.154
221.47	-33.333
221.84	-120.000
222.22	-242.857
222.59	0.000
222.97	-112.500
223.34	-220.000
223.72	-1600.000
224.09	-300.000
224.46	-325.000
224.84	0.000
225.21	-185.714
225.59	-325.000
225.96	-250.000
226.34	-38.462
226.71	216.667
227.08	-400.000
227.46	13.333
227.83	-500.000
228.21	-31.579
228.58	175.000
228.95	1050.000
229.33	0.000
229.70	-100.000
230.08	10.526
230.45	150.000
230.82	-266.667
231.20	-35.714
231.57	-8.333
231.95	-54.545
232.32	-54.545
232.69	-30.000
233.07	-25.000
233.44	-47.059
233.81	-170.000
234.19	-22.222
234.56	-36.364
234.93	6.897
235.31	-31.579
235.68	-22.222
236.05	-20.000
236.43	30.769
236.80	48.000
237.17	25.926
237.55	0.000
237.92	-150.000
238.29	-12.903
238.67	-18.182
239.04	11.111
239.41	16.667
239.79	23.913
240.16	7.407
240.53	30.435
240.91	7.843
241.28	3.279
241.65	28.358
242.02	14.865
242.40	15.385
242.77	28.000
243.14	18.293
243.51	13.158
243.89	7.692
244.26	40.594
244.63	21.569
245.00	27.103
245.38	17.544
245.75	14.159
246.12	25.397
246.49	23.256
246.87	30.000
247.24	27.152
247.61	30.921
247.98	24.832
248.36	25.309
248.73	21.472
249.10	27.322
249.47	34.328
249.84	33.508
250.22	23.834
250.59	30.000
250.96	32.273
251.33	25.510
251.70	25.214
252.08	28.333
252.45	25.820
252.82	25.620
253.19	26.172
253.56	26.996
253.94	24.231
254.31	33.333
254.68	29.371
255.05	32.573
255.42	24.830
255.79	28.155
256.16	27.483
256.54	27.483
256.91	29.508
257.28	30.492
257.65	26.752
258.02	23.009
258.39	28.775
258.76	30.887
259.14	28.736
259.51	27.954
259.88	25.496
260.25	27.778
260.62	29.041
260.99	30.055
261.36	31.903
261.73	26.790
262.10	31.319
262.47	29.223
262.85	32.323
263.22	28.052
263.59	25.789
263.96	26.343
264.33	25.575
264.70	29.136
265.07	32.458
265.44	31.293
265.81	27.546
266.18	29.705
266.55	28.795
266.92	28.246
267.29	31.072
267.66	29.712
268.03	30.568
268.40	28.810
268.77	26.879
269.14	27.533
269.51	30.044
269.88	30.738
270.25	27.565
270.62	28.270
270.99	31.313
271.36	30.495
271.73	28.291
272.10	28.858
272.47	31.263
272.84	28.112
273.21	27.255
273.58	29.435
273.95	26.346
274.32	25.665
274.69	29.207
275.06	29.853
275.43	25.323
275.80	28.924
276.17	26.111
276.54	28.545
276.91	28.265
277.28	27.667
277.65	28.725
278.02	29.044
278.39	29.529
278.76	28.295
279.13	26.241
279.50	29.897
279.87	28.444
280.23	27.641
280.60	28.983
280.97	27.467
281.34	25.297
281.71	29.949
282.08	27.076
282.45	25.859
282.82	26.845
283.19	27.141
283.56	25.902
283.92	26.276
284.29	27.646
284.66	28.571
285.03	26.923
285.40	26.893
285.77	26.935
286.14	28.244
286.51	26.941
286.87	25.592
287.24	27.861
287.61	26.756
287.98	25.831
288.35	26.775
288.72	26.775
289.08	28.697
289.45	25.296
289.82	25.452
290.19	23.707
290.56	24.930
290.93	25.963
291.29	25.344
291.66	25.758
292.03	23.202
292.40	26.122
292.77	24.394
293.13	25.981
293.50	25.099
293.87	23.624
294.24	24.933
294.60	24.399
294.97	24.430
295.34	23.560
295.71	23.455
296.08	22.997
296.44	23.039
296.81	22.168
297.18	22.914
297.55	23.231
297.91	22.183
298.28	21.919
298.65	21.641
299.02	22.432
299.38	22.082
299.75	21.729
300.12	21.412
300.48	21.659
300.85	21.485
301.22	22.260
301.59	20.205
301.95	21.921
302.32	21.889
302.69	22.234
303.05	22.416
303.42	21.064
303.79	20.938
304.15	21.346
304.52	20.825
304.89	21.675
305.25	20.290
305.62	22.466
305.99	21.649
306.35	20.262
306.72	22.130
307.09	20.812
307.45	21.325
307.82	20.283
308.19	20.585
308.55	21.022
308.92	20.351
309.29	21.169
309.65	20.468
310.02	22.079
310.38	19.685
310.75	21.748
311.12	20.709
311.48	19.746
311.85	19.943
312.22	20.304
312.58	21.127
312.95	21.128
313.31	20.867
313.68	21.337
314.05	21.951
314.41	21.767
314.78	22.616
315.14	20.780
315.51	21.884
315.87	21.602
316.24	21.279
316.61	21.048
316.97	20.452
317.34	20.370
317.70	21.834
318.07	20.899
318.43	22.109
318.80	22.157
319.16	22.403
319.53	20.566
319.89	19.982
320.26	22.776
320.62	20.124
320.99	21.237
321.35	21.257
321.72	22.791
322.08	21.280
322.45	23.397
322.81	22.473
323.18	22.124
323.54	23.362
323.91	22.509
324.27	23.838
324.64	23.846
325.00	22.056
325.37	21.785
325.73	21.983
326.10	22.466
326.46	22.720
326.83	22.658
327.19	22.992
327.56	23.241
327.92	22.109
328.29	22.258
328.65	21.273
329.01	22.504
329.38	22.578
329.74	23.373
330.11	23.202
330.47	21.314
330.84	22.739
331.20	23.000
331.56	21.837
331.93	23.515
332.29	22.203
332.66	24.003
333.02	23.283
333.38	22.399
333.75	22.138
334.11	23.269
334.48	23.350
334.84	22.685
335.20	22.250
335.57	23.862
335.93	21.818
336.29	20.632
336.66	22.204
337.02	22.241
337.38	22.364
337.75	22.066
338.11	21.867
338.47	21.175
338.84	21.997
339.20	20.640
339.56	21.087
339.93	21.921
340.29	22.544
340.65	21.411
341.02	22.985
341.38	22.555
341.74	21.550
342.11	21.641
342.47	20.969
342.83	22.464
343.20	21.832
343.56	21.331
343.92	21.217
344.28	21.406
344.65	21.240
345.01	21.529
345.37	22.395
345.73	20.421
346.10	21.295
346.46	21.677
346.82	22.097
347.19	22.078
347.55	21.927
347.91	21.545
348.27	21.396
348.63	22.620
349.00	21.178
349.36	21.041
349.72	21.652
350.08	21.025
350.45	21.141
350.81	21.342
351.17	21.579
351.53	21.077
351.89	21.792
352.26	21.493
352.62	20.672
352.98	20.687
353.34	20.388
353.70	20.647
354.07	21.311
354.43	22.172
354.79	21.990
355.15	21.781
355.51	21.857
355.87	21.092
356.24	21.369
356.60	20.843
356.96	21.127
357.32	20.669
357.68	21.010
358.04	20.808
358.40	20.746
358.77	21.053
359.13	21.196
359.49	20.818
359.85	20.667
360.21	22.956
360.57	21.608
360.93	20.522
361.29	21.123
361.66	21.941
362.02	21.781
362.38	22.417
362.74	20.670
363.10	21.939
363.46	21.953
363.82	21.307
364.18	21.464
364.54	21.231
364.90	21.405
365.26	21.724
365.62	22.600
365.98	21.239
366.35	20.872
366.71	21.633
367.07	20.839
367.43	21.405
367.79	22.296
368.15	22.140
368.51	21.854
368.87	21.881
369.23	21.067
369.59	20.970
369.95	22.312
370.31	22.012
370.67	21.458
371.03	21.676
371.39	21.155
371.75	22.421
372.11	22.629
372.47	22.072
372.83	22.579
373.19	21.348
373.55	22.290
373.91	21.268
374.27	21.863
374.63	21.854
374.99	22.082
375.35	21.883
375.71	22.194
376.07	22.208
376.42	22.103
376.78	22.001
377.14	21.460
377.50	22.581
377.86	23.707
378.22	22.455
378.58	22.176
378.94	22.477
379.30	21.734
379.66	22.399
380.02	23.197
380.38	23.214
380.74	23.775
381.09	23.229
381.45	22.898
381.81	22.892
382.17	22.862
382.53	22.924
382.89	23.081
383.25	22.392
383.61	23.495
383.97	22.497
384.32	23.923
384.68	22.796
385.04	24.523
385.40	23.689
385.76	23.916
386.12	23.758
386.48	24.471
386.83	24.613
387.19	23.465
387.55	23.005
387.91	24.144
388.27	24.480
388.62	23.482
388.98	23.012
389.34	24.042
389.70	23.765
390.06	23.683
390.42	24.880
390.77	24.744
391.13	24.413
391.49	25.060
391.85	24.909
392.20	24.318
392.56	25.281
392.92	24.973
393.28	25.318
393.64	24.637
393.99	24.463
394.35	25.759
394.71	25.269
395.07	24.611
395.42	25.642
395.78	26.325
396.14	25.074
396.50	25.534
396.85	24.985
397.21	25.503
397.57	25.559
397.92	26.346
398.28	25.638
398.64	25.458
399.00	25.445
399.35	25.759
399.71	25.924
400.07	26.727
400.42	27.299
400.78	26.215
401.14	26.693
401.49	26.777
401.85	26.744
402.21	26.709
402.57	27.582
402.92	27.423
403.28	25.995
403.63	26.313
403.99	27.197
404.35	27.118
404.70	27.705
405.06	27.120
405.42	26.522
405.77	27.099
406.13	27.661
406.49	27.309
406.84	27.812
407.20	28.508
407.55	27.377
407.91	28.284
408.27	26.796
408.62	28.389
408.98	28.961
409.34	27.977
409.69	28.801
410.05	28.253
410.40	28.654
410.76	28.155
411.11	29.106
411.47	28.624
411.83	28.571
412.18	29.157
412.54	28.868
412.89	28.463
413.25	29.233
413.60	29.408
413.96	29.371
414.31	28.782
414.67	29.159
415.03	29.108
415.38	29.130
415.74	28.955
416.09	31.339
416.45	29.618
416.80	29.743
417.16	29.566
417.51	29.514
417.87	29.552
418.22	29.760
418.58	30.112
418.93	29.744
419.29	31.011
419.64	30.492
420.00	29.970
420.35	30.657
420.71	30.155
421.06	30.305
421.42	30.218
421.77	29.779
422.12	29.334
422.48	31.234
422.83	30.668
423.19	30.557
423.54	31.914
423.90	30.701
424.25	30.880
424.61	30.827
424.96	31.906
425.31	30.998
425.67	31.025
426.02	31.765
426.38	30.999
426.73	30.469
427.09	31.719
427.44	31.131
427.79	31.288
428.15	30.765
428.50	31.404
428.85	31.056
429.21	31.277
429.56	31.688
429.92	31.302
430.27	31.277
430.62	31.705
430.98	31.284
431.33	30.352
431.68	31.226
432.04	31.488
432.39	32.191
432.74	31.906
433.10	31.693
433.45	30.992
433.80	32.028
434.16	31.921
434.51	31.757
434.86	32.682
435.22	32.253
435.57	32.783
435.92	32.666
436.28	31.684
436.63	32.277
436.98	30.918
437.34	31.454
437.69	32.306
438.04	32.152
438.39	32.740
438.75	31.987
439.10	31.554
439.45	31.750
439.81	32.316
440.16	31.743
440.51	31.996
440.86	32.629
441.22	31.940
441.57	32.180
441.92	31.862
442.27	32.525
442.63	31.893
442.98	33.031
443.33	31.510
443.68	32.706
444.03	33.819
444.39	32.779
444.74	32.823
445.09	32.894
445.44	32.034
445.79	32.423
446.15	33.299
446.50	32.713
446.85	32.879
447.20	32.640
447.55	32.322
447.91	32.775
448.26	32.347
448.61	33.688
448.96	32.725
449.31	32.503
449.66	32.135
450.02	32.806
450.37	33.404
450.72	32.454
451.07	32.688
451.42	32.178
451.77	32.740
452.12	32.844
452.47	32.977
452.83	32.883
453.18	32.224
453.53	32.567
453.88	32.413
454.23	32.260
454.58	33.256
454.93	32.828
455.28	33.173
455.63	32.177
455.98	33.352
456.34	32.332
456.69	33.392
457.04	33.215
457.39	33.370
457.74	33.557
458.09	32.729
458.44	32.435
458.79	31.975
459.14	32.092
459.49	33.503
459.84	32.371
460.19	32.260
460.54	32.936
460.89	32.663
461.24	32.529
461.59	33.315
461.94	31.945
462.29	33.259
462.64	33.856
462.99	32.706
463.34	32.511
463.69	32.239
464.04	33.352
464.39	32.455
464.74	33.181
465.09	33.045
465.44	31.384
465.79	33.104
466.14	32.465
466.49	32.421
466.84	33.609
467.19	33.757
467.54	32.432
467.89	32.701
468.24	33.241
468.59	32.774
468.94	32.692
469.29	32.873
469.64	33.439
469.99	32.823
470.34	32.426
470.68	33.014
471.03	33.726
471.38	33.290
471.73	33.030
472.08	34.137
472.43	32.812
472.78	33.249
473.13	32.427
473.48	33.474
473.83	33.082
474.17	33.529
474.52	33.794
474.87	32.946
475.22	33.239
475.57	32.191
475.92	32.255
476.27	32.375
476.61	33.126
476.96	33.525
477.31	33.366
477.66	33.893
478.01	33.045
478.36	32.353
478.70	32.512
479.05	33.947
479.40	33.662
479.75	34.006
480.10	33.396
480.45	33.318
480.79	32.925
481.14	32.675
481.49	32.440
481.84	33.681
482.19	33.204
482.53	33.056
482.88	34.072
483.23	32.592
483.58	33.188
483.92	32.491
484.27	33.065
484.62	32.632
484.97	32.698
485.31	32.805
485.66	31.164
486.01	29.880
486.36	30.185
486.70	32.017
487.05	33.538
487.40	33.527
487.75	34.148
488.09	33.925
488.44	33.446
488.79	33.626
489.13	33.599
489.48	32.893
489.83	32.515
490.17	32.807
490.52	32.348
490.87	33.883
491.22	33.449
491.56	32.722
491.91	32.795
492.26	32.540
492.60	32.663
492.95	32.646
493.30	32.990
493.64	32.939
493.99	32.368
494.34	32.230
494.68	32.934
495.03	33.480
495.37	32.446
495.72	32.200
496.07	33.129
496.41	32.518
496.76	33.319
497.11	32.994
497.45	32.628
497.80	32.252
498.14	32.971
498.49	32.537
498.84	34.141
499.18	32.659
499.53	33.184
499.87	32.440
500.22	33.170
500.56	33.513
500.91	33.959
501.26	34.045
501.60	32.833
501.95	32.306
502.29	33.348
502.64	33.406
502.98	32.355
503.33	32.354
503.67	33.014
504.02	32.925
504.36	33.110
504.71	32.889
505.06	33.333
505.40	32.998
505.75	33.288
506.09	32.919
506.44	33.658
506.78	33.486
507.13	33.472
507.47	33.823
507.82	33.002
508.16	33.126
508.51	33.146
508.85	33.207
509.19	33.396
509.54	33.525
509.88	32.589
510.23	33.463
510.57	34.123
510.92	33.430
511.26	33.237
511.61	33.366
511.95	33.187
512.30	34.663
512.64	32.334
512.98	33.967
513.33	34.375
513.67	34.268
514.02	34.083
514.36	34.629
514.70	33.438
515.05	33.420
515.39	33.596
515.74	35.048
516.08	34.231
516.42	35.113
516.77	34.122
517.11	34.709
517.46	34.624
517.80	34.901
518.14	34.929
518.49	34.924
518.83	34.220
519.17	34.841
519.52	35.535
519.86	34.372
520.20	34.665
520.55	34.940
520.89	34.685
521.23	35.902
521.58	36.384
521.92	35.411
522.26	34.765
522.61	35.532
522.95	35.121
523.29	35.575
523.64	34.697
523.98	35.197
524.32	36.046
524.66	35.458
525.01	35.334
525.35	35.727
525.69	34.803
526.04	35.419
526.38	35.460
526.72	35.640
527.06	36.833
527.41	35.977
527.75	36.580
528.09	37.013
528.43	35.998
528.78	35.376
529.12	36.411
529.46	35.807
529.80	35.240
530.15	36.348
530.49	35.884
530.83	36.305
531.17	36.260
531.51	36.823
531.86	36.178
532.20	36.524
532.54	36.086
532.88	36.970
533.22	36.181
533.57	35.718
533.91	36.869
534.25	35.726
534.59	37.011
534.93	35.484
535.27	35.775
535.62	36.384
535.96	36.490
536.30	35.723
536.64	37.237
536.98	38.130
537.32	36.975
537.66	36.619
538.01	35.589
538.35	35.932
538.69	35.096
539.03	35.622
539.37	35.689
539.71	36.456
540.05	35.911
540.39	35.330
540.73	36.430
541.07	36.113
541.42	35.027
541.76	35.350
542.10	35.887
542.44	35.688
542.78	36.253
543.12	35.459
543.46	35.470
543.80	35.971
544.14	35.847
544.48	35.875
544.82	36.266
545.16	35.838
545.50	36.369
545.84	35.089
546.18	36.296
546.52	35.605
546.86	35.597
547.20	35.878
547.54	35.768
547.88	35.684
548.22	35.439
548.56	35.401
548.90	34.567
549.24	36.109
549.58	34.763
549.92	36.607
550.26	35.987
550.60	36.184
550.94	35.576
551.28	36.238
551.62	36.523
551.96	34.757
552.30	36.456
552.64	35.905
552.98	36.057
553.32	35.241
553.66	36.206
554.00	35.435
554.34	35.199
554.68	34.409
555.02	35.677
555.36	35.700
555.69	34.529
556.03	34.111
556.37	36.108
556.71	34.813
557.05	35.335
557.39	35.036
557.73	34.941
558.07	34.305
558.41	35.083
558.75	35.903
559.08	36.952
559.42	35.940
559.76	35.414
560.10	35.231
560.44	35.422
560.78	35.500
561.12	34.298
561.45	34.732
561.79	34.921
562.13	35.059
562.47	35.512
562.81	34.937
563.15	34.659
563.48	34.058
563.82	33.978
564.16	33.919
564.50	34.565
564.84	33.982
565.17	34.118
565.51	33.659
565.85	33.967
566.19	32.604
566.52	34.172
566.86	34.126
567.20	32.953
567.54	32.714
567.88	33.435
568.21	33.053
568.55	33.285
568.89	32.592
569.23	32.911
569.56	32.903
569.90	32.003
570.24	32.614
570.57	31.527
570.91	31.353
571.25	31.299
571.59	31.951
571.92	31.370
572.26	31.763
572.60	31.095
572.93	32.146
573.27	31.666
573.61	30.810
573.95	30.906
574.28	30.507
574.62	30.309
574.96	30.415
575.29	30.690
575.63	30.792
575.97	30.683
576.30	30.570
576.64	30.375
576.98	30.592
577.31	31.078
577.65	31.139
577.98	30.045
578.32	30.097
578.66	30.079
578.99	30.637
579.33	30.658
579.67	30.734
580.00	30.389
580.34	30.672
580.67	29.965
581.01	30.679
581.35	29.827
581.68	29.086
582.02	29.495
582.35	29.661
582.69	30.328
583.02	30.219
583.36	30.807
583.70	31.061
584.03	31.054
584.37	31.103
584.70	29.731
585.04	29.993
585.37	29.563
585.71	29.601
586.04	29.921
586.38	29.805
586.72	29.932
587.05	30.519
587.39	29.968
587.72	30.072
588.06	30.077
588.39	29.948
588.73	30.079
589.06	30.418
589.40	31.131
589.73	30.688
590.07	30.239
590.40	30.561
590.73	30.505
591.07	30.975
591.40	30.871
591.74	30.763
592.07	30.451
592.41	30.875
592.74	29.854
593.08	30.446
593.41	29.396
593.75	29.483
594.08	29.839
594.41	30.417
594.75	30.023
595.08	29.172
595.42	29.740
595.75	29.480
596.09	30.803
596.42	30.240
596.75	30.799
597.09	30.263
597.42	29.797
597.75	29.988
598.09	29.722
598.42	29.513
598.76	28.964
599.09	29.334
599.42	28.629
599.76	28.887
600.09	28.929
600.42	28.829
600.76	28.864
601.09	28.211
601.42	28.871
601.76	29.138
602.09	29.736
602.42	29.298
602.76	29.114
603.09	29.038
603.42	28.793
603.76	28.682
604.09	29.383
604.42	29.505
604.76	29.528
605.09	29.198
605.42	29.107
605.75	29.231
606.09	28.705
606.42	28.311
606.75	28.411
607.09	29.147
607.42	28.593
607.75	29.504
608.08	28.098
608.42	28.335
608.75	28.400
609.08	28.862
609.41	29.069
609.75	28.750
610.08	29.683
610.41	28.505
610.74	28.866
611.07	29.085
611.41	28.341
611.74	29.654
612.07	28.331
612.40	28.612
612.73	29.193
613.07	28.509
613.40	29.740
613.73	28.936
614.06	28.852
614.39	27.988
614.72	28.724
615.06	28.585
615.39	28.178
615.72	27.962
616.05	28.023
616.38	29.112
616.71	29.154
617.05	28.594
617.38	29.802
617.71	28.348
618.04	29.574
618.37	29.290
618.70	29.299
619.03	29.630
619.36	29.100
619.69	28.635
620.03	28.500
620.36	28.528
620.69	28.809
621.02	29.790
621.35	30.842
621.68	30.803
622.01	29.324
622.34	28.731
622.67	28.247
623.00	28.003
623.33	28.600
623.66	28.405
623.99	29.230
624.32	28.915
624.65	28.443
624.99	28.349
625.32	29.458
625.65	28.793
625.98	28.000
626.31	29.199
626.64	29.524
626.97	29.182
627.30	27.715
627.63	28.657
627.96	29.655
628.29	29.650
628.62	29.135
628.95	29.535
629.28	29.397
629.61	29.461
629.94	29.372
630.26	30.085
630.59	27.461
630.92	27.186
631.25	29.875
631.58	29.944
631.91	29.803
632.24	29.971
