SpectraSuite Data File
++++++++++++++++++++++++++++++++++++
Date: Thu May 14 16:13:24 PDT 2015
User: schluterlab
Dark Spectrum Present: Yes
Reference Spectrum Present: Yes
Number of Sampled Component Spectra: 1
Spectrometers: USB2E3373
Integration Time (usec): 3000 (USB2E3373)
Spectra Averaged: 3 (USB2E3373)
Boxcar Smoothing: 0 (USB2E3373)
Correct for Electrical Dark: No (USB2E3373)
Strobe/Lamp Enabled: No (USB2E3373)
Correct for Detector Non-linearity: No (USB2E3373)
Correct for Stray Light: No (USB2E3373)
Number of Pixels in Processed Spectrum: 2048
>>>>>Begin Processed Spectral Data<<<<<
178.53	0.000
178.91	128.571
179.29	-1400.000
179.67	-700.000
180.04	107.143
180.42	80.000
180.80	260.000
181.18	-400.000
181.56	900.000
181.94	275.000
182.31	-225.000
182.69	300.000
183.07	-150.000
183.45	175.000
183.83	-83.333
184.20	-100.000
184.58	600.000
184.96	-275.000
185.34	-77.778
185.72	80.000
186.09	177.778
186.47	200.000
186.85	280.000
187.23	-255.556
187.61	-2600.000
187.98	200.000
188.36	400.000
188.74	-25.000
189.12	-66.667
189.49	25.000
189.87	-125.000
190.25	11.111
190.63	-40.000
191.00	-155.556
191.38	0.000
191.76	-325.000
192.14	16.667
192.51	350.000
192.89	83.333
193.27	0.000
193.65	-57.143
194.02	-1700.000
194.40	-42.857
194.78	14.286
195.15	0.000
195.53	63.636
195.91	0.000
196.29	-25.000
196.66	-23.077
197.04	-1600.000
197.42	-157.143
197.79	-550.000
198.17	-62.500
198.55	71.429
198.92	-55.556
199.30	-25.000
199.68	-27.273
200.05	7.143
200.43	-400.000
200.81	214.286
201.18	0.000
201.56	233.333
201.94	0.000
202.31	266.667
202.69	-88.889
203.07	500.000
203.44	-111.111
203.82	-200.000
204.19	0.000
204.57	-66.667
204.95	-162.500
205.32	-500.000
205.70	375.000
206.08	16.667
206.45	-50.000
206.83	440.000
207.20	100.000
207.58	-180.000
207.96	-166.667
208.33	-100.000
208.71	83.333
209.08	-16.667
209.46	0.000
209.84	16.667
210.21	150.000
210.59	250.000
210.96	433.333
211.34	150.000
211.71	-37.500
212.09	-600.000
212.46	0.000
212.84	850.000
213.22	-200.000
213.59	-275.000
213.97	0.000
214.34	-266.667
214.72	183.333
215.09	-75.000
215.47	0.000
215.84	142.857
216.22	600.000
216.59	-60.000
216.97	-100.000
217.34	-125.000
217.72	-100.000
218.09	-150.000
218.47	-225.000
218.84	0.000
219.22	140.000
219.59	-41.176
219.97	40.000
220.34	400.000
220.72	-55.556
221.09	-23.077
221.47	-433.333
221.84	-90.000
222.22	-71.429
222.59	0.000
222.97	25.000
223.34	-160.000
223.72	300.000
224.09	-100.000
224.46	-275.000
224.84	180.000
225.21	-257.143
225.59	-275.000
225.96	-225.000
226.34	11.538
226.71	66.667
227.08	-600.000
227.46	-26.667
227.83	-125.000
228.21	42.105
228.58	62.500
228.95	150.000
229.33	33.333
229.70	20.000
230.08	42.105
230.45	170.000
230.82	33.333
231.20	0.000
231.57	8.333
231.95	-63.636
232.32	18.182
232.69	35.000
233.07	0.000
233.44	-29.412
233.81	-160.000
234.19	55.556
234.56	0.000
234.93	34.483
235.31	-21.053
235.68	-5.556
236.05	-30.000
236.43	7.692
236.80	28.000
237.17	14.815
237.55	-18.182
237.92	-40.000
238.29	0.000
238.67	-6.818
239.04	5.556
239.41	-4.762
239.79	0.000
240.16	-20.370
240.53	0.000
240.91	-5.882
241.28	-4.918
241.65	14.925
242.02	22.973
242.40	4.615
242.77	-4.000
243.14	-1.220
243.51	0.000
243.89	-11.538
244.26	3.960
244.63	3.922
245.00	-1.869
245.38	6.140
245.75	-5.310
246.12	9.524
246.49	3.876
246.87	-1.429
247.24	3.974
247.61	7.237
247.98	-0.671
248.36	-1.235
248.73	4.908
249.10	1.639
249.47	12.438
249.84	8.901
250.22	-1.036
250.59	3.333
250.96	2.727
251.33	5.102
251.70	9.829
252.08	8.750
252.45	1.639
252.82	5.372
253.19	7.031
253.56	6.084
253.94	7.692
254.31	8.333
254.68	7.692
255.05	8.469
255.42	5.782
255.79	2.913
256.16	5.960
256.54	5.960
256.91	5.574
257.28	3.934
257.65	3.503
258.02	1.770
258.39	6.838
258.76	10.092
259.14	9.195
259.51	6.628
259.88	6.232
260.25	6.389
260.62	9.863
260.99	7.650
261.36	8.311
261.73	3.714
262.10	6.044
262.47	7.507
262.85	8.838
263.22	5.195
263.59	2.368
263.96	7.673
264.33	5.115
264.70	6.914
265.07	8.831
265.44	9.297
265.81	4.167
266.18	6.349
266.55	7.812
266.92	4.556
267.29	7.002
267.66	7.539
268.03	7.860
268.40	10.647
268.77	5.923
269.14	5.507
269.51	6.798
269.88	9.836
270.25	5.835
270.62	7.173
270.99	9.899
271.36	7.921
271.73	7.073
272.10	8.818
272.47	6.413
272.84	6.225
273.21	6.613
273.58	5.040
273.95	5.577
274.32	4.183
274.69	5.996
275.06	8.791
275.43	4.991
275.80	7.584
276.17	5.556
276.54	7.463
276.91	5.725
277.28	5.425
277.65	5.745
278.02	6.801
278.39	4.891
278.76	5.272
279.13	7.624
279.50	7.560
279.87	6.977
280.23	4.754
280.60	7.119
280.97	6.579
281.34	6.452
281.71	7.783
282.08	7.641
282.45	5.728
282.82	5.338
283.19	4.039
283.56	4.590
283.92	7.207
284.29	8.689
284.66	7.389
285.03	3.846
285.40	7.110
285.77	6.502
286.14	7.023
286.51	5.327
286.87	4.739
287.24	5.572
287.61	5.531
287.98	5.891
288.35	7.544
288.72	9.172
289.08	6.735
289.45	5.769
289.82	6.024
290.19	6.034
290.56	7.465
290.93	6.562
291.29	6.336
291.66	6.061
292.03	5.563
292.40	6.531
292.77	4.582
293.13	5.277
293.50	4.336
293.87	4.564
294.24	6.533
294.60	5.310
294.97	4.832
295.34	6.658
295.71	4.288
296.08	5.943
296.44	4.412
296.81	6.821
297.18	5.106
297.55	4.599
297.91	4.152
298.28	4.739
298.65	5.351
299.02	5.785
299.38	6.522
299.75	6.776
300.12	4.861
300.48	5.645
300.85	6.862
301.22	7.271
301.59	4.795
301.95	5.085
302.32	6.111
302.69	5.367
303.05	6.638
303.42	4.878
303.79	5.938
304.15	6.309
304.52	6.025
304.89	5.236
305.25	5.487
305.62	5.329
305.99	6.289
306.35	5.444
306.72	5.998
307.09	5.076
307.45	6.004
307.82	6.155
308.19	5.348
308.55	6.943
308.92	6.134
309.29	5.651
309.65	6.043
310.02	5.347
310.38	5.906
310.75	6.699
311.12	6.520
311.48	5.181
311.85	5.983
312.22	6.452
312.58	6.103
312.95	7.170
313.31	6.594
313.68	6.777
314.05	7.046
314.41	7.923
314.78	7.902
315.14	6.261
315.51	7.849
315.87	7.471
316.24	8.858
316.61	8.526
316.97	7.692
317.34	7.496
317.70	8.035
318.07	7.672
318.43	8.418
318.80	8.779
319.16	8.069
319.53	7.798
319.89	7.713
320.26	9.342
320.62	8.688
320.99	8.957
321.35	9.057
321.72	9.860
322.08	9.829
322.45	10.388
322.81	9.747
323.18	9.823
323.54	9.397
323.91	10.231
324.27	9.983
324.64	10.495
325.00	10.199
325.37	10.893
325.73	12.314
326.10	11.841
326.46	12.296
326.83	13.371
327.19	10.866
327.56	11.858
327.92	12.352
328.29	12.903
328.65	12.395
329.01	12.775
329.38	13.311
329.74	12.842
330.11	13.099
330.47	13.648
330.84	14.040
331.20	13.167
331.56	13.605
331.93	13.975
332.29	13.390
332.66	13.538
333.02	13.317
333.38	14.094
333.75	14.646
334.11	14.178
334.48	15.347
334.84	14.868
335.20	14.610
335.57	15.599
335.93	14.876
336.29	14.809
336.66	13.709
337.02	14.799
337.38	15.221
337.75	14.463
338.11	15.055
338.47	14.723
338.84	13.621
339.20	13.816
339.56	14.498
339.93	14.778
340.29	14.815
340.65	14.112
341.02	15.323
341.38	15.117
341.74	13.963
342.11	14.240
342.47	13.820
342.83	14.654
343.20	15.944
343.56	14.274
343.92	15.212
344.28	14.922
344.65	15.426
345.01	15.757
345.37	15.785
345.73	15.511
346.10	15.445
346.46	15.506
346.82	14.906
347.19	16.348
347.55	15.781
347.91	15.973
348.27	15.478
348.63	16.222
349.00	15.809
349.36	16.431
349.72	15.848
350.08	15.676
350.45	15.437
350.81	15.460
351.17	15.789
351.53	15.315
351.89	16.553
352.26	15.299
352.62	15.821
352.98	15.802
353.34	14.862
353.70	17.026
354.07	16.393
354.43	15.718
354.79	15.856
355.15	16.336
355.51	17.251
355.87	15.782
356.24	16.882
356.60	15.004
356.96	15.419
357.32	15.762
357.68	15.813
358.04	16.243
358.40	16.791
358.77	16.374
359.13	16.027
359.49	15.390
359.85	16.316
360.21	16.069
360.57	16.080
360.93	16.150
361.29	16.982
361.66	16.003
362.02	17.676
362.38	17.639
362.74	17.179
363.10	16.781
363.46	16.413
363.82	17.401
364.18	16.327
364.54	17.635
364.90	17.926
365.26	16.690
365.62	18.000
365.98	16.610
366.35	18.255
366.71	18.027
367.07	17.659
367.43	19.173
367.79	18.049
368.15	18.328
368.51	18.336
368.87	17.962
369.23	17.133
369.59	18.169
369.95	18.391
370.31	19.379
370.67	18.226
371.03	17.867
371.39	18.603
371.75	18.432
372.11	18.767
372.47	18.687
372.83	18.848
373.19	19.079
373.55	17.276
373.91	18.132
374.27	18.952
374.63	19.215
374.99	18.369
375.35	19.805
375.71	18.839
376.07	19.367
376.42	19.144
376.78	20.261
377.14	19.775
377.50	19.481
377.86	19.581
378.22	18.922
378.58	19.501
378.94	19.484
379.30	19.801
379.66	19.871
380.02	20.196
380.38	20.565
380.74	19.775
381.09	19.977
381.45	20.227
381.81	20.785
382.17	21.140
382.53	20.468
382.89	20.598
383.25	20.985
383.61	20.602
383.97	20.612
384.32	21.411
384.68	20.940
385.04	21.400
385.40	21.626
385.76	21.336
386.12	21.424
386.48	21.118
386.83	22.169
387.19	21.205
387.55	21.714
387.91	21.290
388.27	22.113
388.62	22.337
388.98	21.263
389.34	22.923
389.70	21.848
390.06	21.078
390.42	21.627
390.77	22.276
391.13	22.124
391.49	22.886
391.85	21.455
392.20	22.954
392.56	22.800
392.92	23.010
393.28	22.941
393.64	22.235
393.99	22.894
394.35	23.072
394.71	23.832
395.07	23.174
395.42	23.529
395.78	23.096
396.14	23.886
396.50	23.159
396.85	23.852
397.21	23.669
397.57	23.322
397.92	23.654
398.28	22.759
398.64	23.570
399.00	23.141
399.35	23.403
399.71	23.859
400.07	23.358
400.42	24.563
400.78	23.727
401.14	24.758
401.49	24.559
401.85	23.721
402.21	25.319
402.57	23.944
402.92	24.291
403.28	24.415
403.63	24.224
403.99	24.525
404.35	24.787
404.70	24.986
405.06	23.859
405.42	24.356
405.77	25.245
406.13	24.851
406.49	24.887
406.84	25.319
407.20	25.321
407.55	25.197
407.91	25.896
408.27	25.501
408.62	24.956
408.98	25.943
409.34	25.103
409.69	25.525
410.05	25.615
410.40	26.334
410.76	26.360
411.11	25.716
411.47	25.430
411.83	27.043
412.18	26.988
412.54	26.852
412.89	27.125
413.25	26.185
413.60	26.479
413.96	26.748
414.31	25.212
414.67	25.880
415.03	26.708
415.38	26.986
415.74	25.779
416.09	27.082
416.45	26.237
416.80	26.071
417.16	26.181
417.51	26.899
417.87	26.119
418.22	27.665
418.58	28.067
418.93	27.590
419.29	27.867
419.64	28.091
420.00	28.487
420.35	27.400
420.71	28.087
421.06	26.797
421.42	27.236
421.77	26.440
422.12	27.643
422.48	27.240
422.83	28.094
423.19	27.586
423.54	27.544
423.90	27.775
424.25	27.733
424.61	27.153
424.96	27.348
425.31	27.972
425.67	27.805
426.02	28.777
426.38	28.014
426.73	27.288
427.09	28.258
427.44	28.127
427.79	28.966
428.15	28.539
428.50	27.978
428.85	27.382
429.21	29.255
429.56	28.282
429.92	28.305
430.27	28.723
430.62	27.504
430.98	28.037
431.33	27.761
431.68	27.443
432.04	28.288
432.39	28.013
432.74	28.025
433.10	28.394
433.45	27.815
433.80	27.897
434.16	29.081
434.51	28.160
434.86	29.045
435.22	30.128
435.57	29.658
435.92	29.605
436.28	28.896
436.63	29.984
436.98	28.556
437.34	28.918
437.69	28.674
438.04	28.926
438.39	29.408
438.75	28.722
439.10	30.391
439.45	29.234
439.81	29.096
440.16	29.491
440.51	29.989
440.86	29.294
441.22	29.850
441.57	29.193
441.92	29.971
442.27	29.949
442.63	29.309
442.98	29.509
443.33	29.563
443.68	29.633
444.03	30.668
444.39	29.958
444.74	30.219
445.09	29.904
445.44	30.611
445.79	29.933
446.15	29.651
446.50	29.612
446.85	30.058
447.20	29.497
447.55	29.916
447.91	29.005
448.26	30.127
448.61	30.606
448.96	31.009
449.31	30.488
449.66	29.793
450.02	30.432
450.37	30.581
450.72	30.409
451.07	30.296
451.42	29.347
451.77	30.017
452.12	31.546
452.47	30.125
452.83	30.462
453.18	30.648
453.53	31.132
453.88	30.425
454.23	30.282
454.58	30.818
454.93	30.097
455.28	31.728
455.63	30.699
455.98	30.391
456.34	31.213
456.69	30.688
457.04	30.910
457.39	30.931
457.74	31.152
458.09	30.093
458.44	30.819
458.79	29.190
459.14	30.100
459.49	30.277
459.84	30.430
460.19	29.373
460.54	30.324
460.89	31.445
461.24	30.460
461.59	31.101
461.94	29.778
462.29	30.963
462.64	30.416
462.99	29.818
463.34	30.500
463.69	30.070
464.04	30.795
464.39	30.437
464.74	31.585
465.09	31.084
465.44	29.989
465.79	30.513
466.14	30.224
466.49	29.842
466.84	30.468
467.19	29.942
467.54	30.670
467.89	30.287
468.24	30.693
468.59	30.805
468.94	29.953
469.29	30.234
469.64	30.388
469.99	31.421
470.34	31.188
470.68	31.306
471.03	32.089
471.38	31.262
471.73	31.274
472.08	31.980
472.43	30.102
472.78	30.919
473.13	31.226
473.48	30.937
473.83	31.283
474.17	30.774
474.52	31.449
474.87	30.343
475.22	31.662
475.57	31.776
475.92	30.762
476.27	31.470
476.61	30.685
476.96	30.292
477.31	30.941
477.66	32.057
478.01	30.249
478.36	30.060
478.70	31.576
479.05	30.726
479.40	31.688
479.75	31.124
480.10	31.123
480.45	31.404
480.79	31.156
481.14	31.158
481.49	31.077
481.84	31.375
482.19	31.011
482.53	31.657
482.88	31.502
483.23	30.769
483.58	30.786
483.92	30.496
484.27	30.737
484.62	30.322
484.97	31.260
485.31	30.095
485.66	28.598
486.01	27.793
486.36	28.103
486.70	28.789
487.05	29.457
487.40	29.464
487.75	29.669
488.09	30.121
488.44	29.593
488.79	30.287
489.13	30.485
489.48	29.709
489.83	29.819
490.17	29.567
490.52	30.213
490.87	30.541
491.22	31.326
491.56	30.546
491.91	30.920
492.26	30.333
492.60	31.089
492.95	30.935
493.30	30.973
493.64	31.318
493.99	30.921
494.34	30.662
494.68	30.493
495.03	30.308
495.37	30.892
495.72	30.703
496.07	31.245
496.41	30.545
496.76	30.609
497.11	31.210
497.45	30.039
497.80	30.520
498.14	30.703
498.49	31.388
498.84	30.439
499.18	30.904
499.53	30.673
499.87	30.813
500.22	30.677
500.56	31.174
500.91	31.854
501.26	31.409
501.60	30.756
501.95	31.307
502.29	31.022
502.64	31.089
502.98	30.587
503.33	30.583
503.67	30.789
504.02	30.210
504.36	31.635
504.71	31.465
505.06	31.105
505.40	31.124
505.75	31.193
506.09	32.090
506.44	31.616
506.78	31.101
507.13	31.397
507.47	31.928
507.82	32.907
508.16	32.027
508.51	30.708
508.85	31.696
509.19	31.028
509.54	32.421
509.88	32.103
510.23	31.860
510.57	33.349
510.92	32.124
511.26	31.890
511.61	31.531
511.95	31.674
512.30	32.250
512.64	32.484
512.98	31.516
513.33	32.611
513.67	32.534
514.02	31.375
514.36	32.532
514.70	33.750
515.05	33.525
515.39	33.176
515.74	33.669
516.08	33.703
516.42	33.647
516.77	33.491
517.11	32.800
517.46	33.404
517.80	35.275
518.14	34.059
518.49	33.894
518.83	33.369
519.17	33.064
519.52	33.229
519.86	33.369
520.20	34.558
520.55	34.009
520.89	34.516
521.23	34.003
521.58	35.254
521.92	34.504
522.26	33.792
522.61	35.243
522.95	34.775
523.29	35.000
523.64	33.576
523.98	35.026
524.32	35.645
524.66	35.174
525.01	34.994
525.35	35.382
525.69	35.673
526.04	34.501
526.38	35.920
526.72	35.121
527.06	36.422
527.41	36.035
527.75	36.995
528.09	35.714
528.43	35.406
528.78	35.434
529.12	35.665
529.46	34.963
529.80	36.098
530.15	35.768
530.49	36.714
530.83	35.950
531.17	37.216
531.51	35.800
531.86	36.478
532.20	35.976
532.54	36.505
532.88	36.364
533.22	36.476
533.57	35.603
533.91	35.971
534.25	36.461
534.59	35.575
534.93	35.710
535.27	35.662
535.62	36.669
535.96	36.839
536.30	35.605
536.64	36.817
536.98	36.285
537.32	36.975
537.66	37.991
538.01	35.952
538.35	36.297
538.69	35.457
539.03	36.665
539.37	36.514
539.71	36.877
540.05	36.331
540.39	36.247
540.73	35.823
541.07	36.297
541.42	36.385
541.76	35.943
542.10	35.223
542.44	36.297
542.78	37.044
543.12	36.830
543.46	35.470
543.80	35.492
544.14	36.266
544.48	36.761
544.82	37.223
545.16	36.911
545.50	36.788
545.84	35.701
546.18	37.531
546.52	37.006
546.86	35.786
547.20	37.023
547.54	36.767
547.88	35.322
548.22	35.673
548.56	36.103
548.90	36.896
549.24	36.717
549.58	36.278
549.92	37.245
550.26	38.058
550.60	35.992
550.94	37.387
551.28	37.228
551.62	37.399
551.96	36.893
552.30	37.604
552.64	36.963
552.98	37.243
553.32	37.685
553.66	36.913
554.00	37.011
554.34	37.323
554.68	36.862
555.02	37.714
555.36	38.330
555.69	36.643
556.03	36.444
556.37	37.297
556.71	36.081
557.05	37.636
557.39	36.828
557.73	37.450
558.07	38.278
558.41	38.937
558.75	37.390
559.08	39.388
559.42	36.694
559.76	37.788
560.10	37.374
560.44	37.863
560.78	37.375
561.12	37.808
561.45	37.470
561.79	37.546
562.13	37.153
562.47	35.142
562.81	37.532
563.15	37.058
563.48	37.912
563.82	35.792
564.16	35.857
564.50	36.830
564.84	36.755
565.17	37.000
565.51	35.788
565.85	35.689
566.19	35.253
566.52	35.986
566.86	36.729
567.20	35.345
567.54	36.219
567.88	36.239
568.21	35.573
568.55	35.300
568.89	34.816
569.23	35.108
569.56	34.584
569.90	33.927
570.24	33.491
570.57	33.258
570.91	32.670
571.25	32.456
571.59	32.869
571.92	32.463
572.26	31.604
572.60	32.596
572.93	32.786
573.27	32.060
573.61	32.133
573.95	31.561
574.28	31.254
574.62	31.332
574.96	30.679
575.29	31.351
575.63	31.324
575.97	31.401
576.30	31.458
576.64	31.329
576.98	31.344
577.31	31.121
577.65	31.531
577.98	30.836
578.32	30.649
578.66	30.475
578.99	31.456
579.33	31.725
579.67	31.732
580.00	31.198
580.34	31.239
580.67	31.002
581.01	31.458
581.35	30.801
581.68	30.861
582.02	30.570
582.35	31.273
582.69	31.098
583.02	30.985
583.36	31.485
583.70	31.834
584.03	31.246
584.37	31.498
584.70	31.467
585.04	30.760
585.37	31.308
585.71	30.960
586.04	30.757
586.38	31.082
586.72	31.161
587.05	32.054
587.39	31.788
587.72	32.225
588.06	32.012
588.39	31.566
588.73	32.011
589.06	31.659
589.40	32.452
589.73	32.134
590.07	33.223
590.40	32.488
590.73	32.768
591.07	33.433
591.40	32.348
591.74	33.784
592.07	33.090
592.41	33.517
592.74	32.694
593.08	32.516
593.41	32.283
593.75	31.810
594.08	31.839
594.41	32.468
594.75	32.215
595.08	32.167
595.42	32.208
595.75	32.322
596.09	32.938
596.42	33.823
596.75	32.883
597.09	33.212
597.42	33.254
597.75	33.046
598.09	33.095
598.42	33.655
598.76	32.442
599.09	31.648
599.42	31.747
599.76	32.453
600.09	32.399
600.42	32.366
600.76	32.034
601.09	31.862
601.42	32.269
601.76	32.103
602.09	32.452
602.42	31.843
602.76	33.063
603.09	32.746
603.42	32.551
603.76	32.382
604.09	32.328
604.42	32.183
604.76	32.192
605.09	33.147
605.42	32.695
605.75	32.077
606.09	31.616
606.42	31.558
606.75	32.009
607.09	31.797
607.42	31.869
607.75	32.669
608.08	32.952
608.42	32.245
608.75	32.960
609.08	32.683
609.41	32.510
609.75	33.393
610.08	33.729
610.41	33.178
610.74	33.067
611.07	32.993
611.41	33.363
611.74	33.626
612.07	34.222
612.40	32.700
612.73	33.839
613.07	33.594
613.40	33.494
613.73	33.173
614.06	32.974
614.39	32.799
614.72	32.994
615.06	32.724
615.39	32.044
615.72	32.417
616.05	32.977
616.38	33.956
616.71	33.856
617.05	33.014
617.38	33.547
617.71	33.963
618.04	33.621
618.37	34.754
618.70	34.729
619.03	33.453
619.36	34.525
619.69	34.657
620.03	35.530
620.36	33.988
620.69	34.547
621.02	34.055
621.35	36.502
621.68	36.443
622.01	35.018
622.34	34.310
622.67	35.120
623.00	33.198
623.33	34.970
623.66	34.825
623.99	34.233
624.32	35.348
624.65	34.942
624.99	34.980
625.32	35.075
625.65	35.334
625.98	35.729
626.31	36.215
626.64	36.264
626.97	34.809
627.30	34.700
627.63	36.159
627.96	35.661
628.29	36.965
628.62	36.356
628.95	36.547
629.28	36.788
629.61	37.795
629.94	36.402
630.26	35.763
630.59	35.320
630.92	36.017
631.25	38.730
631.58	39.548
631.91	38.051
632.24	37.656
632.57	37.856
632.90	38.616
633.23	39.796
633.56	39.490
633.89	36.467
634.22	38.877
634.55	38.100
634.88	38.636
635.20	39.828
635.53	40.339
635.86	38.245
636.19	39.130
636.52	38.713
636.85	38.407
637.18	37.318
637.51	40.000
637.83	39.313
638.16	39.401
