SpectraSuite Data File
++++++++++++++++++++++++++++++++++++
Date: Thu May 14 16:07:22 PDT 2015
User: schluterlab
Dark Spectrum Present: Yes
Reference Spectrum Present: Yes
Number of Sampled Component Spectra: 1
Spectrometers: USB2E3373
Integration Time (usec): 3000 (USB2E3373)
Spectra Averaged: 3 (USB2E3373)
Boxcar Smoothing: 0 (USB2E3373)
Correct for Electrical Dark: No (USB2E3373)
Strobe/Lamp Enabled: No (USB2E3373)
Correct for Detector Non-linearity: No (USB2E3373)
Correct for Stray Light: No (USB2E3373)
Number of Pixels in Processed Spectrum: 2048
>>>>>Begin Processed Spectral Data<<<<<
178.53	0.000
178.91	185.714
179.29	-2100.000
179.67	-2000.000
180.04	185.714
180.42	130.000
180.80	420.000
181.18	-1600.000
181.56	200.000
181.94	475.000
182.31	-450.000
182.69	566.667
183.07	-600.000
183.45	350.000
183.83	-200.000
184.20	-333.333
184.58	600.000
184.96	-575.000
185.34	-155.556
185.72	-140.000
186.09	311.111
186.47	1250.000
186.85	580.000
187.23	-166.667
187.61	-1800.000
187.98	460.000
188.36	475.000
188.74	-500.000
189.12	-300.000
189.49	6.250
189.87	-225.000
190.25	11.111
190.63	-120.000
191.00	-211.111
191.38	0.000
191.76	-200.000
192.14	-266.667
192.51	650.000
192.89	-100.000
193.27	0.000
193.65	-285.714
194.02	-2500.000
194.40	-214.286
194.78	257.143
195.15	0.000
195.53	-136.364
195.91	0.000
196.29	-150.000
196.66	-61.538
197.04	-2500.000
197.42	-185.714
197.79	-750.000
198.17	-112.500
198.55	-242.857
198.92	-144.444
199.30	-125.000
199.68	-54.545
200.05	-50.000
200.43	-750.000
200.81	142.857
201.18	0.000
201.56	200.000
201.94	0.000
202.31	666.667
202.69	-222.222
203.07	300.000
203.44	-100.000
203.82	-375.000
204.19	-116.667
204.57	-316.667
204.95	-87.500
205.32	-1000.000
205.70	325.000
206.08	-100.000
206.45	-233.333
206.83	520.000
207.20	-216.667
207.58	-280.000
207.96	-283.333
208.33	-150.000
208.71	108.333
209.08	-133.333
209.46	0.000
209.84	166.667
210.21	750.000
210.59	950.000
210.96	466.667
211.34	-250.000
211.71	-187.500
212.09	-2000.000
212.46	0.000
212.84	750.000
213.22	-340.000
213.59	-350.000
213.97	-50.000
214.34	-133.333
214.72	116.667
215.09	-350.000
215.47	0.000
215.84	71.429
216.22	600.000
216.59	-280.000
216.97	-280.000
217.34	-325.000
217.72	-112.500
218.09	-300.000
218.47	-375.000
218.84	0.000
219.22	440.000
219.59	-17.647
219.97	-35.000
220.34	550.000
220.72	-111.111
221.09	-84.615
221.47	-200.000
221.84	-70.000
222.22	-328.571
222.59	0.000
222.97	-125.000
223.34	-440.000
223.72	-1200.000
224.09	-400.000
224.46	-225.000
224.84	-160.000
225.21	-171.429
225.59	-600.000
225.96	-325.000
226.34	-30.769
226.71	516.667
227.08	-700.000
227.46	-53.333
227.83	-425.000
228.21	-89.474
228.58	262.500
228.95	1000.000
229.33	-33.333
229.70	-70.000
230.08	26.316
230.45	200.000
230.82	-566.667
231.20	-28.571
231.57	-100.000
231.95	-136.364
232.32	-72.727
232.69	-30.000
233.07	-150.000
233.44	-82.353
233.81	-110.000
234.19	5.556
234.56	-9.091
234.93	6.897
235.31	-57.895
235.68	-55.556
236.05	-35.000
236.43	-7.692
236.80	24.000
237.17	25.926
237.55	6.061
237.92	-60.000
238.29	16.129
238.67	-6.818
239.04	33.333
239.41	4.762
239.79	-6.522
240.16	0.000
240.53	4.348
240.91	3.922
241.28	18.033
241.65	44.776
242.02	31.081
242.40	16.923
242.77	22.667
243.14	13.415
243.51	10.526
243.89	14.103
244.26	31.683
244.63	31.373
245.00	21.495
245.38	28.947
245.75	21.239
246.12	26.190
246.49	23.256
246.87	23.571
247.24	26.490
247.61	30.263
247.98	32.215
248.36	29.012
248.73	28.221
249.10	32.787
249.47	34.328
249.84	41.361
250.22	33.161
250.59	35.000
250.96	29.545
251.33	33.673
251.70	32.479
252.08	33.750
252.45	32.787
252.82	36.364
253.19	32.812
253.56	35.741
253.94	35.000
254.31	34.848
254.68	35.315
255.05	31.270
255.42	32.653
255.79	34.304
256.16	36.424
256.54	34.437
256.91	34.754
257.28	38.033
257.65	33.439
258.02	33.333
258.39	35.613
258.76	39.144
259.14	39.943
259.51	34.582
259.88	37.677
260.25	37.222
260.62	36.712
260.99	38.525
261.36	39.142
261.73	36.074
262.10	37.912
262.47	39.946
262.85	41.667
263.22	38.961
263.59	35.789
263.96	41.176
264.33	37.340
264.70	39.506
265.07	39.141
265.44	41.950
265.81	36.111
266.18	38.322
266.55	39.732
266.92	36.902
267.29	35.667
267.66	37.472
268.03	38.210
268.40	38.413
268.77	37.585
269.14	37.225
269.51	37.939
269.88	37.705
270.25	35.614
270.62	37.342
270.99	35.152
271.36	38.416
271.73	36.542
272.10	40.281
272.47	39.679
272.84	38.153
273.21	36.273
273.58	38.911
273.95	36.538
274.32	32.890
274.69	35.397
275.06	36.813
275.43	33.826
275.80	37.037
276.17	35.741
276.54	36.754
276.91	35.599
277.28	36.347
277.65	38.600
278.02	36.581
278.39	36.775
278.76	38.137
279.13	37.943
279.50	34.880
279.87	38.283
280.23	33.099
280.60	35.254
280.97	37.500
281.34	35.993
281.71	37.394
282.08	37.043
282.45	34.697
282.82	33.595
283.19	35.541
283.56	33.443
283.92	36.787
284.29	36.335
284.66	36.617
285.03	32.692
285.40	34.930
285.77	36.842
286.14	37.099
286.51	32.725
286.87	34.123
287.24	35.843
287.61	33.333
287.98	34.139
288.35	35.059
288.72	32.988
289.08	34.846
289.45	30.769
289.82	33.584
290.19	31.897
290.56	33.521
290.93	31.954
291.29	30.716
291.66	32.369
292.03	32.022
292.40	32.789
292.77	32.210
293.13	30.176
293.50	30.486
293.87	31.275
294.24	30.000
294.60	30.594
294.97	29.530
295.34	29.706
295.71	27.238
296.08	29.716
296.44	29.779
296.81	28.867
297.18	29.265
297.55	28.066
297.91	28.233
298.28	28.199
298.65	27.824
299.02	27.391
299.38	27.117
299.75	27.336
300.12	26.736
300.48	28.226
300.85	26.659
301.22	26.846
301.59	26.598
301.95	27.910
302.32	28.222
302.69	26.396
303.05	26.768
303.42	27.605
303.79	26.875
304.15	27.655
304.52	24.841
304.89	25.759
305.25	25.466
305.62	25.705
305.99	25.361
306.35	25.302
306.72	27.198
307.09	24.162
307.45	26.190
307.82	24.924
308.19	26.438
308.55	25.844
308.92	25.609
309.29	25.096
309.65	25.146
310.02	25.149
310.38	25.591
310.75	26.408
311.12	25.695
311.48	25.513
311.85	24.881
312.22	25.712
312.58	24.789
312.95	23.518
313.31	25.565
313.68	24.817
314.05	25.113
314.41	25.501
314.78	24.523
315.14	24.319
315.51	25.023
315.87	23.672
316.24	24.110
316.61	24.512
316.97	25.068
317.34	23.545
317.70	26.026
318.07	23.986
318.43	24.575
318.80	25.251
319.16	23.433
319.53	22.279
319.89	24.102
320.26	23.932
320.62	23.936
320.99	24.377
321.35	23.845
321.72	25.023
322.08	23.625
322.45	24.210
322.81	25.000
323.18	24.159
323.54	24.914
323.91	24.288
324.27	25.129
324.64	24.769
325.00	24.046
325.37	24.816
325.73	24.463
326.10	24.250
326.46	24.837
326.83	25.701
327.19	23.858
327.56	25.375
327.92	24.390
328.29	24.113
328.65	23.534
329.01	24.958
329.38	24.347
329.74	26.027
330.11	24.486
330.47	23.589
330.84	24.720
331.20	23.750
331.56	24.090
331.93	23.682
332.29	23.051
332.66	24.917
333.02	23.618
333.38	24.581
333.75	24.327
334.11	24.604
334.48	24.835
334.84	23.534
335.20	23.929
335.57	25.801
335.93	24.793
336.29	23.461
336.66	25.147
337.02	22.910
337.38	23.639
337.75	24.380
338.11	23.886
338.47	23.573
338.84	23.858
339.20	23.336
339.56	23.147
339.93	24.056
340.29	22.866
340.65	23.195
341.02	22.905
341.38	24.414
341.74	23.164
342.11	23.572
342.47	23.431
342.83	24.557
343.20	23.467
343.56	23.176
343.92	23.379
344.28	22.422
344.65	23.876
345.01	23.869
345.37	22.862
345.73	22.058
346.10	23.557
346.46	23.180
346.82	23.296
347.19	22.078
347.55	22.610
347.91	22.660
348.27	23.520
348.63	23.305
349.00	22.595
349.36	22.602
349.72	22.098
350.08	23.997
350.45	23.042
350.81	22.323
351.17	22.331
351.53	22.517
351.89	22.779
352.26	22.463
352.62	22.687
352.98	22.824
353.34	22.629
353.70	22.342
354.07	22.429
354.43	20.957
354.79	21.840
355.15	21.560
355.51	23.173
355.87	21.167
356.24	23.650
356.60	21.729
356.96	21.720
357.32	21.413
357.68	21.303
358.04	21.257
358.40	21.866
358.77	22.295
359.13	20.901
359.49	20.967
359.85	20.740
360.21	22.310
360.57	21.321
360.93	21.721
361.29	21.754
361.66	22.085
362.02	22.825
362.38	20.731
362.74	22.067
363.10	21.389
363.46	22.230
363.82	21.307
364.18	21.323
364.54	21.093
364.90	22.341
365.26	21.862
365.62	22.133
365.98	22.056
366.35	21.477
366.71	22.653
367.07	22.395
367.43	20.880
367.79	22.296
368.15	22.676
368.51	22.530
368.87	21.032
369.23	21.400
369.59	20.833
369.95	20.419
370.31	21.540
370.67	21.114
371.03	20.983
371.39	20.484
371.75	20.977
372.11	21.206
372.47	21.124
372.83	20.877
373.19	21.214
373.55	21.409
373.91	20.791
374.27	21.151
374.63	21.583
374.99	21.021
375.35	21.623
375.71	21.484
376.07	20.852
376.42	21.096
376.78	21.193
377.14	20.711
377.50	21.316
377.86	21.121
378.22	20.419
378.58	20.927
378.94	21.244
379.30	20.621
379.66	21.105
380.02	20.716
380.38	21.486
380.74	20.282
381.09	21.080
381.45	21.420
381.81	21.253
382.17	21.200
382.53	20.760
382.89	21.332
383.25	20.692
383.61	20.602
383.97	21.025
384.32	21.651
384.68	19.838
385.04	21.284
385.40	21.744
385.76	21.395
386.12	20.766
386.48	21.176
386.83	21.156
387.19	20.510
387.55	19.718
387.91	20.034
388.27	20.785
388.62	20.619
388.98	20.305
389.34	20.035
389.70	20.860
390.06	21.137
390.42	20.723
390.77	20.891
391.13	20.070
391.49	21.014
391.85	19.939
392.20	20.878
392.56	20.555
392.92	21.101
393.28	20.619
393.64	19.665
393.99	21.441
394.35	20.210
394.71	20.778
395.07	20.479
395.42	21.245
395.78	21.085
396.14	20.321
396.50	20.487
396.85	20.871
397.21	20.296
397.57	21.084
397.92	20.619
398.28	20.369
398.64	20.080
399.00	19.791
399.35	20.890
399.71	19.239
400.07	20.270
400.42	20.664
400.78	20.833
401.14	20.034
401.49	21.603
401.85	20.349
402.21	20.336
402.57	20.423
402.92	20.863
403.28	20.375
403.63	20.346
403.99	20.131
404.35	20.637
404.70	20.057
405.06	20.978
405.42	20.433
405.77	20.556
406.13	20.962
406.49	20.552
406.84	20.609
407.20	20.850
407.55	20.533
407.91	19.925
408.27	19.906
408.62	20.535
408.98	20.488
409.34	19.589
409.69	20.952
410.05	20.340
410.40	20.534
410.76	20.415
411.11	21.216
411.47	21.437
411.83	20.635
412.18	20.843
412.54	20.747
412.89	20.722
413.25	21.219
413.60	20.103
413.96	20.862
414.31	19.547
414.67	20.513
415.03	20.554
415.38	21.059
415.74	20.525
416.09	21.160
416.45	20.413
416.80	20.012
417.16	20.370
417.51	20.423
417.87	20.478
418.22	21.078
418.58	19.827
418.93	20.489
419.29	20.530
419.64	19.688
420.00	20.178
420.35	21.056
420.71	20.563
421.06	19.781
421.42	20.183
421.77	20.032
422.12	20.243
422.48	20.891
422.83	20.975
423.19	20.796
423.54	20.741
423.90	20.320
424.25	21.173
424.61	19.862
424.96	20.703
425.31	21.072
425.67	20.344
426.02	20.697
426.38	20.379
426.73	20.033
427.09	21.972
427.44	20.972
427.79	20.619
428.15	21.005
428.50	20.506
428.85	20.666
429.21	21.809
429.56	19.941
429.92	20.295
430.27	20.675
430.62	20.518
430.98	20.462
431.33	20.479
431.68	20.402
432.04	20.315
432.39	21.264
432.74	20.605
433.10	20.714
433.45	20.903
433.80	21.406
434.16	21.023
434.51	21.377
434.86	20.087
435.22	20.723
435.57	21.226
435.92	20.701
436.28	21.274
436.63	21.518
436.98	20.451
437.34	21.082
437.69	20.748
438.04	20.095
438.39	20.563
438.75	20.310
439.10	21.459
439.45	20.738
439.81	20.508
440.16	20.751
440.51	20.513
440.86	21.401
441.22	20.472
441.57	21.331
441.92	20.757
442.27	21.212
442.63	21.113
442.98	21.238
443.33	20.936
443.68	21.853
444.03	21.496
444.39	20.943
444.74	20.878
445.09	20.527
445.44	21.391
445.79	20.738
446.15	20.966
446.50	20.775
446.85	22.276
447.20	21.712
447.55	21.444
447.91	20.209
448.26	21.406
448.61	21.307
448.96	20.762
449.31	20.573
449.66	20.370
450.02	20.570
450.37	20.938
450.72	20.183
451.07	20.615
451.42	20.855
451.77	21.401
452.12	21.670
452.47	20.083
452.83	20.608
453.18	20.665
453.53	21.022
453.88	21.369
454.23	21.243
454.58	20.720
454.93	20.934
455.28	21.072
455.63	21.092
455.98	22.067
456.34	21.025
456.69	20.752
457.04	21.572
457.39	21.286
457.74	21.924
458.09	21.197
458.44	21.983
458.79	21.300
459.14	21.814
459.49	21.845
459.84	22.193
460.19	21.099
460.54	21.181
460.89	22.234
461.24	21.034
461.59	22.745
461.94	20.764
462.29	21.333
462.64	20.338
462.99	21.908
463.34	21.609
463.69	21.043
464.04	21.623
464.39	21.188
464.74	21.608
465.09	21.453
465.44	21.513
465.79	21.470
466.14	20.479
466.49	21.316
466.84	21.212
467.19	21.965
467.54	21.798
467.89	21.207
468.24	20.942
468.59	20.556
468.94	21.154
469.29	21.056
469.64	20.915
469.99	20.969
470.34	21.906
470.68	21.599
471.03	21.873
471.38	21.517
471.73	20.871
472.08	21.701
472.43	21.373
472.78	21.222
473.13	21.492
473.48	21.692
473.83	21.532
474.17	21.864
474.52	21.948
474.87	21.539
475.22	21.746
475.57	21.391
475.92	21.453
476.27	21.938
476.61	21.807
476.96	21.429
477.31	21.683
477.66	22.560
478.01	21.556
478.36	21.635
478.70	21.527
479.05	22.137
479.40	21.718
479.75	21.662
480.10	21.127
480.45	21.513
480.79	21.633
481.14	21.461
481.49	21.627
481.84	21.976
482.19	21.935
482.53	22.256
482.88	22.419
483.23	21.787
483.58	22.140
483.92	21.986
484.27	21.804
484.62	21.700
484.97	21.345
485.31	21.119
485.66	20.443
486.01	20.572
486.36	21.154
486.70	21.757
487.05	22.405
487.40	21.802
487.75	22.341
488.09	21.668
488.44	21.794
488.79	22.125
489.13	21.796
489.48	21.126
489.83	21.207
490.17	21.183
490.52	21.593
490.87	22.039
491.22	22.357
491.56	22.014
491.91	22.024
492.26	22.285
492.60	21.688
492.95	22.466
493.30	22.546
493.64	22.339
493.99	21.886
494.34	21.690
494.68	21.927
495.03	21.982
495.37	21.660
495.72	21.859
496.07	21.472
496.41	21.879
496.76	22.102
497.11	21.953
497.45	22.098
497.80	22.301
498.14	22.086
498.49	21.967
498.84	21.801
499.18	21.817
499.53	21.928
499.87	21.978
500.22	21.416
500.56	22.042
500.91	22.105
501.26	22.636
501.60	21.255
501.95	21.971
502.29	21.457
502.64	22.431
502.98	21.700
503.33	21.382
503.67	20.846
504.02	21.629
504.36	22.609
504.71	22.278
505.06	22.374
505.40	22.029
505.75	21.721
506.09	22.376
506.44	22.470
506.78	22.844
507.13	22.084
507.47	22.312
507.82	21.828
508.16	21.941
508.51	22.316
508.85	23.004
509.19	22.359
509.54	22.959
509.88	22.098
510.23	22.924
510.57	22.765
510.92	22.496
511.26	21.789
511.61	22.453
511.95	21.913
512.30	22.009
512.64	22.489
512.98	22.761
513.33	22.278
513.67	22.591
514.02	22.586
514.36	22.916
514.70	22.187
515.05	22.315
515.39	23.517
515.74	23.489
516.08	22.874
516.42	22.920
516.77	23.028
517.11	21.712
517.46	22.906
517.80	23.196
518.14	22.742
518.49	23.156
518.83	23.097
519.17	22.563
519.52	23.270
519.86	23.442
520.20	23.110
520.55	23.220
520.89	23.198
521.23	23.060
521.58	23.446
521.92	23.909
522.26	22.566
522.61	23.553
522.95	21.972
523.29	23.046
523.64	23.038
523.98	23.902
524.32	24.527
524.66	23.164
525.01	23.160
525.35	22.631
525.69	23.202
526.04	23.192
526.38	23.103
526.72	23.991
527.06	23.636
527.41	23.090
527.75	22.862
528.09	23.436
528.43	22.913
528.78	22.543
529.12	23.394
529.46	22.990
529.80	23.684
530.15	24.000
530.49	23.843
530.83	23.140
531.17	22.939
531.51	23.285
531.86	23.077
532.20	24.451
532.54	22.920
532.88	23.636
533.22	23.335
533.57	22.966
533.91	23.793
534.25	23.968
534.59	23.621
534.93	23.316
535.27	23.437
535.62	23.479
535.96	22.777
536.30	23.208
536.64	23.604
536.98	23.616
537.32	23.457
537.66	23.955
538.01	23.625
538.35	23.143
538.69	23.017
539.03	22.992
539.37	23.439
539.71	23.303
540.05	22.602
540.39	22.066
540.73	22.769
541.07	23.053
541.42	22.918
541.76	22.835
542.10	22.738
542.44	22.716
542.78	22.749
543.12	23.838
543.46	22.589
543.80	22.482
544.14	22.442
544.48	22.991
544.82	23.399
545.16	24.210
545.50	22.768
545.84	22.841
546.18	23.889
546.52	24.204
546.86	23.270
547.20	23.092
547.54	23.283
547.88	22.725
548.22	22.632
548.56	22.879
548.90	23.045
549.24	23.283
549.58	23.533
549.92	23.151
550.26	23.689
550.60	23.548
550.94	23.803
551.28	23.762
551.62	23.248
551.96	22.848
552.30	24.283
552.64	23.460
552.98	23.019
553.32	22.958
553.66	22.637
554.00	24.086
554.34	23.295
554.68	23.241
555.02	23.325
555.36	23.077
555.69	23.190
556.03	22.951
556.37	23.717
556.71	23.145
557.05	22.875
557.39	23.424
557.73	23.250
558.07	23.576
558.41	23.987
558.75	23.665
559.08	23.312
559.42	23.182
559.76	23.474
560.10	23.510
560.44	23.351
560.78	22.938
561.12	24.384
561.45	24.088
561.79	24.359
562.13	23.413
562.47	22.750
562.81	23.101
563.15	23.548
563.48	23.679
563.82	23.277
564.16	23.016
564.50	22.467
564.84	23.540
565.17	23.059
565.51	23.245
565.85	22.090
566.19	23.157
566.52	23.640
566.86	22.581
567.20	22.784
567.54	22.305
567.88	23.802
568.21	23.073
568.55	23.118
568.89	23.286
569.23	22.983
569.56	22.157
569.90	22.523
570.24	22.496
570.57	22.514
570.91	21.831
571.25	21.984
571.59	22.043
571.92	21.748
572.26	21.943
572.60	21.813
572.93	22.099
573.27	22.225
573.61	21.943
573.95	21.729
574.28	21.514
574.62	21.919
574.96	21.703
575.29	21.150
575.63	21.899
575.97	21.964
576.30	21.441
576.64	21.976
576.98	21.754
577.31	21.923
577.65	21.667
577.98	21.235
578.32	21.346
578.66	21.334
578.99	20.909
579.33	21.565
579.67	21.487
580.00	21.645
580.34	21.510
580.67	21.602
581.01	21.592
581.35	21.625
581.68	20.994
582.02	21.173
582.35	21.901
582.69	21.690
583.02	21.211
583.36	21.462
583.70	21.563
584.03	21.454
584.37	21.674
584.70	21.516
585.04	21.251
585.37	21.321
585.71	21.338
586.04	21.422
586.38	21.216
586.72	21.334
587.05	21.054
587.39	21.516
587.72	21.770
588.06	21.615
588.39	21.359
588.73	21.772
589.06	21.529
589.40	22.588
589.73	21.305
590.07	22.381
590.40	22.312
590.73	21.951
591.07	22.189
591.40	22.006
591.74	22.218
592.07	22.127
592.41	22.319
592.74	22.151
593.08	21.783
593.41	21.872
593.75	21.638
594.08	22.054
594.41	21.538
594.75	21.754
595.08	21.904
595.42	21.623
595.75	21.537
596.09	21.755
596.42	21.892
596.75	21.883
597.09	22.303
597.42	21.732
597.75	21.717
598.09	21.508
598.42	22.115
598.76	21.742
599.09	21.752
599.42	20.818
599.76	21.261
600.09	21.955
600.42	21.154
600.76	22.325
601.09	21.739
601.42	20.975
601.76	21.345
602.09	21.801
602.42	21.556
602.76	21.697
603.09	22.247
603.42	22.363
603.76	21.776
604.09	22.143
604.42	21.505
604.76	21.613
605.09	22.178
605.42	22.408
605.75	21.654
606.09	21.389
606.42	21.087
606.75	21.064
607.09	20.661
607.42	22.042
607.75	21.884
608.08	21.389
608.42	21.322
608.75	22.015
609.08	22.071
609.41	21.659
609.75	21.250
610.08	21.416
610.41	21.708
610.74	21.471
611.07	21.803
611.41	22.601
611.74	22.125
612.07	22.300
612.40	22.576
612.73	22.152
613.07	22.103
613.40	22.040
613.73	22.051
614.06	21.884
614.39	21.914
614.72	21.494
615.06	21.896
615.39	21.073
615.72	22.464
616.05	22.292
616.38	22.654
616.71	22.623
617.05	21.832
617.38	23.167
617.71	23.164
618.04	22.288
618.37	22.787
618.70	21.946
619.03	22.939
619.36	23.428
619.69	22.165
620.03	22.850
620.36	22.454
620.69	22.147
621.02	22.638
621.35	24.165
621.68	23.717
622.01	22.989
622.34	22.385
622.67	23.230
623.00	21.930
623.33	23.159
623.66	22.503
623.99	22.581
624.32	23.392
624.65	22.587
624.99	23.927
625.32	22.208
625.65	22.994
625.98	21.492
626.31	22.325
626.64	22.051
626.97	22.806
627.30	22.399
627.63	22.206
627.96	24.099
628.29	23.035
628.62	23.174
628.95	23.926
629.28	22.770
629.61	24.495
629.94	23.682
630.26	22.203
630.59	23.316
630.92	22.078
631.25	23.166
631.58	25.612
631.91	23.055
