SpectraSuite Data File
++++++++++++++++++++++++++++++++++++
Date: Thu May 14 16:06:16 PDT 2015
User: schluterlab
Dark Spectrum Present: Yes
Reference Spectrum Present: Yes
Number of Sampled Component Spectra: 1
Spectrometers: USB2E3373
Integration Time (usec): 3000 (USB2E3373)
Spectra Averaged: 3 (USB2E3373)
Boxcar Smoothing: 0 (USB2E3373)
Correct for Electrical Dark: No (USB2E3373)
Strobe/Lamp Enabled: No (USB2E3373)
Correct for Detector Non-linearity: No (USB2E3373)
Correct for Stray Light: No (USB2E3373)
Number of Pixels in Processed Spectrum: 2048
>>>>>Begin Processed Spectral Data<<<<<
178.53	0.000
178.91	214.286
179.29	-2000.000
179.67	-1800.000
180.04	185.714
180.42	80.000
180.80	460.000
181.18	-700.000
181.56	-100.000
181.94	400.000
182.31	-425.000
182.69	333.333
183.07	-350.000
183.45	425.000
183.83	-250.000
184.20	-366.667
184.58	1500.000
184.96	-350.000
185.34	-166.667
185.72	-60.000
186.09	211.111
186.47	850.000
186.85	340.000
187.23	-144.444
187.61	-900.000
187.98	240.000
188.36	475.000
188.74	-375.000
189.12	-400.000
189.49	-31.250
189.87	-175.000
190.25	-111.111
190.63	-360.000
191.00	-177.778
191.38	0.000
191.76	-250.000
192.14	-166.667
192.51	350.000
192.89	-100.000
193.27	0.000
193.65	-185.714
194.02	-2000.000
194.40	-257.143
194.78	228.571
195.15	0.000
195.53	-72.727
195.91	0.000
196.29	-350.000
196.66	-123.077
197.04	-1400.000
197.42	-171.429
197.79	-800.000
198.17	-212.500
198.55	-128.571
198.92	-66.667
199.30	-262.500
199.68	-109.091
200.05	-78.571
200.43	-800.000
200.81	385.714
201.18	0.000
201.56	188.889
201.94	0.000
202.31	66.667
202.69	-77.778
203.07	1600.000
203.44	-66.667
203.82	-250.000
204.19	-141.667
204.57	-183.333
204.95	-225.000
205.32	-1200.000
205.70	275.000
206.08	-250.000
206.45	-216.667
206.83	400.000
207.20	-316.667
207.58	-500.000
207.96	-300.000
208.33	-116.667
208.71	66.667
209.08	-50.000
209.46	0.000
209.84	266.667
210.21	600.000
210.59	650.000
210.96	800.000
211.34	-400.000
211.71	-137.500
212.09	-700.000
212.46	0.000
212.84	1350.000
213.22	-420.000
213.59	-450.000
213.97	-100.000
214.34	-666.667
214.72	366.667
215.09	-175.000
215.47	0.000
215.84	185.714
216.22	750.000
216.59	-340.000
216.97	-220.000
217.34	-100.000
217.72	-100.000
218.09	-475.000
218.47	-500.000
218.84	0.000
219.22	140.000
219.59	-29.412
219.97	25.000
220.34	600.000
220.72	-100.000
221.09	-107.692
221.47	-700.000
221.84	-140.000
222.22	-200.000
222.59	0.000
222.97	-137.500
223.34	-460.000
223.72	-1900.000
224.09	-600.000
224.46	-400.000
224.84	-160.000
225.21	-328.571
225.59	-425.000
225.96	-425.000
226.34	-30.769
226.71	366.667
227.08	-100.000
227.46	-53.333
227.83	-150.000
228.21	-36.842
228.58	250.000
228.95	950.000
229.33	-8.333
229.70	-130.000
230.08	21.053
230.45	140.000
230.82	-133.333
231.20	-21.429
231.57	-33.333
231.95	-54.545
232.32	-118.182
232.69	-25.000
233.07	-100.000
233.44	-76.471
233.81	-170.000
234.19	-72.222
234.56	-45.455
234.93	3.448
235.31	-42.105
235.68	-16.667
236.05	-60.000
236.43	-7.692
236.80	4.000
237.17	-3.704
237.55	-42.424
237.92	-110.000
238.29	-22.581
238.67	6.818
239.04	-16.667
239.41	-21.429
239.79	-17.391
240.16	0.000
240.53	-15.217
240.91	-7.843
241.28	-6.557
241.65	14.925
242.02	14.865
242.40	1.538
242.77	9.333
243.14	-9.756
243.51	-7.895
243.89	2.564
244.26	14.851
244.63	19.608
245.00	14.953
245.38	12.281
245.75	-1.770
246.12	15.873
246.49	5.426
246.87	14.286
247.24	13.245
247.61	13.816
247.98	11.409
248.36	6.790
248.73	9.816
249.10	13.661
249.47	18.408
249.84	16.754
250.22	13.472
250.59	15.000
250.96	14.091
251.33	14.796
251.70	22.222
252.08	17.083
252.45	15.164
252.82	13.223
253.19	12.891
253.56	20.152
253.94	13.462
254.31	18.939
254.68	18.531
255.05	17.590
255.42	17.687
255.79	15.534
256.16	15.563
256.54	14.570
256.91	15.410
257.28	16.066
257.65	19.108
258.02	13.569
258.39	13.960
258.76	17.737
259.14	19.540
259.51	18.444
259.88	15.864
260.25	16.111
260.62	19.726
260.99	20.492
261.36	21.716
261.73	17.772
262.10	17.857
262.47	17.962
262.85	23.232
263.22	15.584
263.59	14.737
263.96	19.182
264.33	16.113
264.70	17.284
265.07	20.525
265.44	20.181
265.81	18.519
266.18	19.274
266.55	17.857
266.92	15.718
267.29	20.788
267.66	18.625
268.03	17.904
268.40	19.415
268.77	18.679
269.14	16.300
269.51	19.298
269.88	19.467
270.25	19.316
270.62	18.987
270.99	19.798
271.36	19.010
271.73	18.468
272.10	20.842
272.47	18.036
272.84	17.470
273.21	16.433
273.58	18.347
273.95	17.308
274.32	17.110
274.69	18.762
275.06	19.780
275.43	18.669
275.80	19.929
276.17	17.222
276.54	19.590
276.91	17.531
277.28	17.541
277.65	18.671
278.02	19.853
278.39	18.297
278.76	18.102
279.13	19.149
279.50	21.134
279.87	19.499
280.23	16.373
280.60	17.288
280.97	16.612
281.34	17.827
281.71	19.120
282.08	16.611
282.45	18.822
282.82	17.582
283.19	16.640
283.56	18.033
283.92	17.868
284.29	19.431
284.66	19.540
285.03	16.987
285.40	17.156
285.77	16.254
286.14	18.168
286.51	18.265
286.87	16.588
287.24	17.771
287.61	17.190
287.98	16.918
288.35	17.751
288.72	15.828
289.08	19.034
289.45	17.751
289.82	16.867
290.19	17.098
290.56	17.183
290.93	16.833
291.29	17.493
291.66	16.529
292.03	15.197
292.40	17.687
292.77	16.038
293.13	15.562
293.50	14.455
293.87	13.960
294.24	17.200
294.60	16.056
294.97	13.960
295.34	16.645
295.71	14.628
296.08	16.021
296.44	15.931
296.81	14.129
297.18	13.450
297.55	16.274
297.91	14.116
298.28	14.692
298.65	14.625
299.02	15.230
299.38	15.446
299.75	14.603
300.12	15.162
300.48	14.631
300.85	14.736
301.22	15.660
301.59	13.356
301.95	14.802
302.32	15.444
302.69	15.882
303.05	14.146
303.42	15.743
303.79	14.479
304.15	14.090
304.52	14.482
304.89	13.927
305.25	14.389
305.62	15.465
305.99	15.155
306.35	14.617
306.72	16.236
307.09	15.127
307.45	15.217
307.82	14.026
308.19	14.632
308.55	16.393
308.92	14.508
309.29	15.517
309.65	14.035
310.02	16.337
310.38	14.862
310.75	15.728
311.12	16.203
311.48	17.204
311.85	17.189
312.22	16.983
312.58	17.277
312.95	16.061
313.31	17.435
313.68	17.674
314.05	18.519
314.41	17.942
314.78	18.983
315.14	19.147
315.51	18.837
315.87	20.792
316.24	20.822
316.61	19.805
316.97	19.819
317.34	21.517
317.70	22.620
318.07	20.282
318.43	22.109
318.80	22.742
319.16	23.262
319.53	23.479
319.89	23.751
320.26	23.132
320.62	24.468
320.99	26.593
321.35	25.139
321.72	26.419
322.08	27.322
322.45	27.191
322.81	27.617
323.18	29.115
323.54	27.759
323.91	29.893
324.27	29.776
324.64	30.647
325.00	29.436
325.37	31.695
325.73	32.727
326.10	32.766
326.46	33.469
326.83	35.308
327.19	34.567
327.56	35.020
327.92	35.169
328.29	36.129
328.65	36.181
329.01	37.817
329.38	38.079
329.74	38.185
330.11	39.726
330.47	38.669
330.84	39.190
331.20	39.000
331.56	41.508
331.93	40.418
332.29	40.847
332.66	40.282
333.02	41.122
333.38	40.520
333.75	41.667
334.11	41.284
334.48	41.584
334.84	42.311
335.20	39.966
335.57	42.580
335.93	42.479
336.29	42.512
336.66	42.220
337.02	43.395
337.38	42.347
337.75	42.231
338.11	43.314
338.47	42.184
338.84	42.978
339.20	42.291
339.56	42.504
339.93	42.447
340.29	41.948
340.65	42.255
341.02	43.895
341.38	43.654
341.74	42.131
342.11	42.639
342.47	41.859
342.83	43.639
343.20	43.908
343.56	42.582
343.92	43.475
344.28	43.125
344.65	43.488
345.01	42.668
345.37	42.768
345.73	42.167
346.10	43.370
346.46	42.880
346.82	43.670
347.19	43.850
347.55	43.475
347.91	42.719
348.27	43.020
348.63	43.260
349.00	43.177
349.36	42.230
349.72	44.048
350.08	43.091
350.45	43.118
350.81	43.213
351.17	43.684
351.53	44.958
351.89	43.280
352.26	44.179
352.62	43.731
352.98	43.282
353.34	42.196
353.70	44.607
354.07	43.219
354.43	42.673
354.79	42.483
355.15	42.311
355.51	43.348
355.87	42.633
356.24	42.738
356.60	41.094
356.96	43.810
357.32	44.238
357.68	42.094
358.04	43.787
358.40	42.985
358.77	42.982
359.13	42.097
359.49	42.305
359.85	42.857
360.21	42.826
360.57	43.431
360.93	42.807
361.29	42.667
361.66	41.709
362.02	43.911
362.38	43.429
362.74	43.017
363.10	42.641
363.46	43.629
363.82	43.679
364.18	43.631
364.54	43.707
364.90	43.612
365.26	43.241
365.62	43.000
365.98	43.499
366.35	43.490
366.71	43.197
367.07	44.384
367.43	43.795
367.79	43.796
368.15	43.746
368.51	43.437
368.87	42.978
369.23	42.333
369.59	43.306
369.95	42.732
370.31	42.741
370.67	43.741
371.03	43.490
371.39	42.445
371.75	43.673
372.11	43.157
372.47	43.331
372.83	43.259
373.19	43.429
373.55	42.683
373.91	43.490
374.27	42.755
374.63	42.490
374.99	43.170
375.35	42.727
375.71	43.161
376.07	43.318
376.42	42.884
376.78	44.251
377.14	42.109
377.50	44.529
377.86	42.980
378.22	42.695
378.58	44.293
378.94	42.958
379.30	42.179
379.66	43.386
380.02	43.797
380.38	43.779
380.74	42.423
381.09	44.019
381.45	43.807
381.81	44.262
382.17	42.993
382.53	44.269
382.89	42.777
383.25	43.376
383.61	43.056
383.97	42.933
384.32	42.404
384.68	43.387
385.04	43.609
385.40	43.547
385.76	44.021
386.12	42.490
386.48	43.412
386.83	44.279
387.19	42.294
387.55	43.486
387.91	42.979
388.27	42.725
388.62	41.924
388.98	42.358
389.34	42.958
389.70	43.056
390.06	42.866
390.42	42.711
390.77	42.625
391.13	42.488
391.49	42.754
391.85	42.606
392.20	42.764
392.56	43.001
392.92	41.767
393.28	43.007
393.64	41.620
393.99	42.592
394.35	42.582
394.71	42.156
395.07	42.096
395.42	42.661
395.78	42.535
396.14	42.662
396.50	42.637
396.85	42.815
397.21	42.840
397.57	42.521
397.92	42.039
398.28	42.205
398.64	41.705
399.00	42.251
399.35	41.623
399.71	41.576
400.07	43.178
400.42	42.666
400.78	42.072
401.14	40.581
401.49	43.320
401.85	43.256
402.21	42.642
402.57	42.136
402.92	42.494
403.28	41.511
403.63	41.945
403.99	42.280
404.35	40.989
404.70	40.397
405.06	41.902
405.42	41.159
405.77	42.639
406.13	41.437
406.49	41.948
406.84	40.609
407.20	41.084
407.55	41.187
407.91	41.546
408.27	41.578
408.62	41.478
408.98	40.395
409.34	41.290
409.69	40.729
410.05	41.559
410.40	41.589
410.76	40.830
411.11	40.736
411.47	41.093
411.83	41.740
412.18	41.928
412.54	41.197
412.89	39.872
413.25	41.084
413.60	41.068
413.96	41.084
414.31	40.850
414.67	40.608
415.03	39.877
415.38	42.055
415.74	41.173
416.09	41.086
416.45	40.764
416.80	39.229
417.16	41.124
417.51	40.598
417.87	40.650
418.22	40.180
418.58	40.397
418.93	40.279
419.29	40.506
419.64	40.636
420.00	40.297
420.35	40.202
420.71	40.437
421.06	39.678
421.42	41.055
421.77	39.634
422.12	40.169
422.48	40.195
422.83	40.854
423.19	39.841
423.54	40.487
423.90	39.812
424.25	40.800
424.61	38.863
424.96	39.978
425.31	40.021
425.67	38.647
426.02	40.509
426.38	41.045
426.73	40.458
427.09	40.888
427.44	38.777
427.79	40.299
428.15	38.984
428.50	40.393
428.85	39.667
429.21	40.319
429.56	39.684
429.92	39.754
430.27	39.036
430.62	40.059
430.98	39.547
431.33	39.394
431.68	39.416
432.04	39.614
432.39	39.529
432.74	39.669
433.10	40.508
433.45	38.963
433.80	39.270
434.16	39.618
434.51	39.723
434.86	40.499
435.22	40.648
435.57	39.917
435.92	40.067
436.28	40.444
436.63	39.760
436.98	38.916
437.34	39.177
437.69	40.837
438.04	39.450
438.39	39.920
438.75	38.351
439.10	40.275
439.45	39.463
439.81	39.548
440.16	39.035
440.51	39.688
440.86	38.521
441.22	39.657
441.57	39.518
441.92	39.622
442.27	39.495
442.63	39.344
442.98	40.021
443.33	38.769
443.68	39.990
444.03	40.169
444.39	39.112
444.74	39.918
445.09	39.331
445.44	40.622
445.79	40.230
446.15	39.877
446.50	39.173
446.85	40.029
447.20	38.975
447.55	39.069
447.91	39.738
448.26	39.799
448.61	40.808
448.96	41.041
449.31	39.343
449.66	39.869
450.02	38.713
450.37	40.011
450.72	39.935
451.07	39.408
451.42	39.919
451.77	38.799
452.12	39.503
452.47	38.622
452.83	40.597
453.18	39.463
453.53	39.632
453.88	38.377
454.23	39.774
454.58	40.453
454.93	39.078
455.28	39.133
455.63	39.966
455.98	39.832
456.34	40.459
456.69	38.389
457.04	40.307
457.39	38.525
457.74	40.548
458.09	38.770
458.44	38.955
458.79	39.711
459.14	39.853
459.49	40.238
459.84	39.297
460.19	38.756
460.54	40.999
460.89	39.492
461.24	39.138
461.59	38.572
461.94	38.677
462.29	39.586
462.64	38.805
462.99	39.109
463.34	39.455
463.69	38.921
464.04	39.522
464.39	39.294
464.74	38.769
465.09	38.581
465.44	38.895
465.79	38.551
466.14	38.041
466.49	38.474
466.84	38.788
467.19	39.306
467.54	37.133
467.89	37.816
468.24	38.615
468.59	38.854
468.94	39.627
469.29	39.232
469.64	37.572
469.99	39.069
470.34	38.181
470.68	39.576
471.03	39.358
471.38	38.849
471.73	37.776
472.08	39.530
472.43	39.795
472.78	38.665
473.13	38.053
473.48	37.704
473.83	38.189
474.17	38.042
474.52	38.725
474.87	39.037
475.22	38.704
475.57	37.799
475.92	37.481
476.27	38.339
476.61	37.695
476.96	37.591
477.31	37.228
477.66	38.720
478.01	38.027
478.36	36.889
478.70	37.241
479.05	38.037
479.40	37.858
479.75	37.080
480.10	37.613
480.45	36.873
480.79	37.370
481.14	37.730
481.49	37.665
481.84	37.859
482.19	37.677
482.53	38.653
482.88	37.882
483.23	37.884
483.58	37.118
483.92	36.658
484.27	37.130
484.62	36.345
484.97	36.353
485.31	35.832
485.66	34.405
486.01	33.112
486.36	34.211
486.70	35.148
487.05	36.569
487.40	36.545
487.75	36.768
488.09	36.574
488.44	36.467
488.79	37.099
489.13	36.025
489.48	36.272
489.83	35.694
490.17	36.938
490.52	36.453
490.87	37.014
491.22	36.872
491.56	36.305
491.91	36.633
492.26	36.564
492.60	37.123
492.95	36.902
493.30	36.620
493.64	36.662
493.99	37.018
494.34	36.629
494.68	36.103
495.03	35.859
495.37	37.195
495.72	36.054
496.07	35.408
496.41	35.607
496.76	35.988
497.11	35.966
497.45	36.513
497.80	36.961
498.14	35.420
498.49	35.708
498.84	36.106
499.18	35.987
499.53	36.278
499.87	36.791
500.22	34.639
500.56	35.807
500.91	36.659
501.26	36.545
501.60	35.440
501.95	35.519
502.29	36.025
502.64	35.986
502.98	34.728
503.33	35.119
503.67	34.932
504.02	34.151
504.36	35.657
504.71	35.140
505.06	35.107
505.40	35.238
505.75	35.428
506.09	35.221
506.44	35.747
506.78	35.321
507.13	35.224
507.47	35.339
507.82	35.275
508.16	35.564
508.51	35.209
508.85	34.861
509.19	35.765
509.54	35.927
509.88	35.211
510.23	36.765
510.57	36.781
510.92	35.365
511.26	35.017
511.61	34.862
511.95	34.114
512.30	34.958
512.64	34.633
512.98	35.368
513.33	35.685
513.67	35.696
514.02	35.258
514.36	36.010
514.70	36.042
515.05	35.923
515.39	35.643
515.74	36.055
516.08	35.024
516.42	35.269
516.77	35.962
517.11	35.637
517.46	35.207
517.80	36.344
518.14	36.235
518.49	35.629
518.83	35.657
519.17	35.541
519.52	34.853
519.86	34.055
520.20	35.091
520.55	35.214
520.89	35.417
521.23	35.343
521.58	35.932
521.92	34.504
522.26	34.078
522.61	35.880
522.95	34.775
523.29	35.977
523.64	34.865
523.98	36.680
524.32	35.645
524.66	35.401
525.01	34.202
525.35	34.233
525.69	34.977
526.04	33.927
526.38	35.517
526.72	34.890
527.06	34.897
527.41	34.169
527.75	34.798
528.09	35.655
528.43	35.228
528.78	34.393
529.12	34.289
529.46	34.233
529.80	34.954
530.15	35.072
530.49	34.520
530.83	34.593
531.17	33.513
531.51	34.898
531.86	34.736
532.20	35.366
532.54	33.752
532.88	34.364
533.22	34.178
533.57	33.295
533.91	33.895
534.25	33.352
534.59	34.080
534.93	33.447
535.27	33.972
535.62	33.826
535.96	34.689
536.30	32.374
536.64	33.273
536.98	34.994
537.32	34.691
537.66	34.560
538.01	32.810
538.35	33.496
538.69	34.014
539.03	34.090
539.37	33.098
539.71	33.093
540.05	32.914
540.39	33.313
540.73	33.212
541.07	33.599
541.42	32.014
541.76	32.147
542.10	31.725
542.44	33.009
542.78	33.029
543.12	33.015
543.46	32.601
543.80	32.014
544.14	32.795
544.48	33.156
544.82	32.735
545.16	33.751
545.50	32.235
545.84	31.966
546.18	33.457
546.52	32.930
546.86	32.453
547.20	33.779
547.54	32.085
547.88	32.731
548.22	31.345
548.56	30.954
548.90	32.239
549.24	32.644
549.58	31.987
549.92	32.207
550.26	33.463
550.60	32.546
550.94	32.471
551.28	32.475
551.62	33.558
551.96	31.521
552.30	32.250
552.64	31.798
552.98	31.878
553.32	32.733
553.66	31.511
554.00	31.463
554.34	31.982
554.68	30.342
555.02	32.983
555.36	32.216
555.69	30.814
556.03	31.337
556.37	31.414
556.71	30.691
557.05	32.396
557.39	32.382
557.73	32.497
558.07	32.053
558.41	32.625
558.75	32.792
559.08	31.663
559.42	31.481
559.76	32.429
560.10	30.342
560.44	30.937
560.78	30.125
561.12	30.665
561.45	31.873
561.79	31.624
562.13	30.930
562.47	30.210
562.81	31.456
563.15	30.871
563.48	31.635
563.82	31.378
564.16	30.648
564.50	30.632
564.84	29.676
565.17	31.000
565.51	30.092
565.85	31.295
566.19	29.493
566.52	29.783
566.86	30.390
567.20	28.766
567.54	30.324
567.88	30.683
568.21	29.101
568.55	28.537
568.89	29.142
569.23	29.235
569.56	28.370
569.90	28.190
570.24	27.386
570.57	27.453
570.91	27.128
571.25	27.047
571.59	27.275
571.92	26.599
572.26	26.972
572.60	26.809
572.93	27.192
573.27	26.356
573.61	26.575
573.95	26.123
574.28	26.349
574.62	26.239
574.96	25.562
575.29	26.107
575.63	26.034
575.97	26.323
576.30	25.981
576.64	25.698
576.98	26.014
577.31	25.799
577.65	25.836
577.98	25.433
578.32	25.299
578.66	25.292
578.99	25.599
579.33	26.056
579.67	25.816
580.00	26.118
580.34	25.153
580.67	25.618
581.01	25.249
581.35	25.015
581.68	24.862
582.02	24.902
582.35	25.058
582.69	25.624
583.02	25.509
583.36	25.755
583.70	25.767
584.03	25.534
584.37	25.920
584.70	25.403
585.04	25.645
585.37	25.851
585.71	24.962
586.04	24.857
586.38	24.838
586.72	25.470
587.05	25.608
587.39	25.505
587.72	25.096
588.06	25.653
588.39	25.492
588.73	25.529
589.06	25.762
589.40	25.476
589.73	25.611
590.07	26.194
590.40	26.504
590.73	25.910
591.07	26.061
591.40	25.700
591.74	26.113
592.07	26.553
592.41	26.538
592.74	25.453
593.08	25.764
593.41	25.868
593.75	25.402
594.08	25.568
594.41	25.353
594.75	25.971
595.08	25.135
595.42	25.325
595.75	25.605
596.09	25.449
596.42	26.550
596.75	26.515
597.09	26.505
597.42	25.705
597.75	25.206
598.09	25.595
598.42	26.578
598.76	25.143
599.09	24.991
599.42	24.908
599.76	24.860
600.09	25.259
600.42	25.125
600.76	24.670
601.09	24.129
601.42	24.717
601.76	24.966
602.09	25.554
602.42	24.973
602.76	24.982
603.09	25.514
603.42	25.181
603.76	24.630
604.09	25.692
604.42	25.248
604.76	25.381
605.09	25.209
605.42	25.319
605.75	25.000
606.09	24.748
606.42	24.553
606.75	24.663
607.09	25.000
607.42	24.355
607.75	25.088
608.08	25.612
608.42	25.111
608.75	25.373
609.08	24.491
609.41	25.761
609.75	25.089
610.08	25.682
610.41	24.639
610.74	24.622
611.07	25.089
611.41	26.323
611.74	26.005
612.07	25.993
612.40	25.475
612.73	26.650
613.07	26.112
613.40	25.361
613.73	24.844
614.06	25.172
614.39	25.121
614.72	24.745
615.06	24.928
615.39	24.311
615.72	24.882
616.05	25.644
616.38	26.589
616.71	26.071
617.05	25.399
617.38	26.217
617.71	26.458
618.04	25.634
618.37	25.355
618.70	26.527
619.03	25.806
619.36	26.202
619.69	26.778
620.03	26.051
620.36	25.583
620.69	25.787
621.02	25.984
621.35	27.068
621.68	27.332
622.01	27.117
622.34	25.941
622.67	25.636
623.00	25.169
623.33	26.808
623.66	26.070
623.99	25.280
624.32	26.576
624.65	25.997
624.99	25.943
625.32	26.519
625.65	26.365
625.98	25.898
626.31	26.435
626.64	27.179
626.97	25.656
627.30	25.513
627.63	27.457
627.96	27.402
628.29	27.393
628.62	26.952
628.95	28.571
629.28	27.613
629.61	26.768
629.94	27.280
630.26	26.017
630.59	27.029
630.92	26.580
631.25	28.265
631.58	28.719
631.91	27.366
