SpectraSuite Data File
++++++++++++++++++++++++++++++++++++
Date: Thu May 14 16:11:56 PDT 2015
User: schluterlab
Dark Spectrum Present: Yes
Reference Spectrum Present: Yes
Number of Sampled Component Spectra: 1
Spectrometers: USB2E3373
Integration Time (usec): 3000 (USB2E3373)
Spectra Averaged: 3 (USB2E3373)
Boxcar Smoothing: 0 (USB2E3373)
Correct for Electrical Dark: No (USB2E3373)
Strobe/Lamp Enabled: No (USB2E3373)
Correct for Detector Non-linearity: No (USB2E3373)
Correct for Stray Light: No (USB2E3373)
Number of Pixels in Processed Spectrum: 2048
>>>>>Begin Processed Spectral Data<<<<<
178.53	0.000
178.91	57.143
179.29	-1600.000
179.67	-1300.000
180.04	200.000
180.42	40.000
180.80	240.000
181.18	-400.000
181.56	-300.000
181.94	275.000
182.31	-225.000
182.69	333.333
183.07	0.000
183.45	250.000
183.83	50.000
184.20	0.000
184.58	300.000
184.96	-325.000
185.34	-77.778
185.72	-40.000
186.09	222.222
186.47	450.000
186.85	280.000
187.23	-44.444
187.61	-1800.000
187.98	20.000
188.36	450.000
188.74	0.000
189.12	166.667
189.49	56.250
189.87	-37.500
190.25	-100.000
190.63	-20.000
191.00	-122.222
191.38	0.000
191.76	-375.000
192.14	-183.333
192.51	-0.000
192.89	0.000
193.27	0.000
193.65	-42.857
194.02	-900.000
194.40	-171.429
194.78	214.286
195.15	0.000
195.53	-27.273
195.91	0.000
196.29	-125.000
196.66	-53.846
197.04	-1500.000
197.42	-114.286
197.79	-450.000
198.17	-150.000
198.55	28.571
198.92	-77.778
199.30	-237.500
199.68	0.000
200.05	42.857
200.43	-600.000
200.81	200.000
201.18	0.000
201.56	200.000
201.94	0.000
202.31	433.333
202.69	-111.111
203.07	400.000
203.44	-122.222
203.82	-100.000
204.19	25.000
204.57	-116.667
204.95	-87.500
205.32	-900.000
205.70	150.000
206.08	-233.333
206.45	-116.667
206.83	240.000
207.20	-66.667
207.58	-240.000
207.96	-233.333
208.33	-50.000
208.71	100.000
209.08	66.667
209.46	0.000
209.84	300.000
210.21	50.000
210.59	200.000
210.96	533.333
211.34	-100.000
211.71	0.000
212.09	-1100.000
212.46	0.000
212.84	1200.000
213.22	-380.000
213.59	-100.000
213.97	-120.000
214.34	-300.000
214.72	183.333
215.09	-125.000
215.47	0.000
215.84	42.857
216.22	900.000
216.59	-240.000
216.97	-60.000
217.34	-125.000
217.72	-75.000
218.09	-25.000
218.47	-100.000
218.84	0.000
219.22	100.000
219.59	-23.529
219.97	-50.000
220.34	600.000
220.72	-222.222
221.09	-15.385
221.47	0.000
221.84	-40.000
222.22	-157.143
222.59	0.000
222.97	-25.000
223.34	-220.000
223.72	-900.000
224.09	-225.000
224.46	-125.000
224.84	20.000
225.21	-171.429
225.59	-400.000
225.96	-50.000
226.34	26.923
226.71	200.000
227.08	-250.000
227.46	-60.000
227.83	-250.000
228.21	-5.263
228.58	137.500
228.95	1000.000
229.33	-8.333
229.70	10.000
230.08	57.895
230.45	160.000
230.82	-533.333
231.20	-57.143
231.57	-108.333
231.95	-27.273
232.32	-163.636
232.69	-25.000
233.07	-350.000
233.44	-64.706
233.81	-110.000
234.19	16.667
234.56	-22.727
234.93	20.690
235.31	-15.789
235.68	0.000
236.05	-75.000
236.43	-11.538
236.80	12.000
237.17	18.519
237.55	-15.152
237.92	-120.000
238.29	-29.032
238.67	-20.455
239.04	-8.333
239.41	-16.667
239.79	0.000
240.16	0.000
240.53	-13.043
240.91	-23.529
241.28	3.279
241.65	8.955
242.02	-1.351
242.40	-10.769
242.77	1.333
243.14	-8.537
243.51	-23.684
243.89	2.564
244.26	3.960
244.63	6.863
245.00	4.673
245.38	0.877
245.75	-16.814
246.12	3.175
246.49	-6.977
246.87	-2.143
247.24	0.662
247.61	3.289
247.98	-2.013
248.36	-4.321
248.73	-2.454
249.10	-2.186
249.47	7.960
249.84	7.330
250.22	-2.073
250.59	1.111
250.96	5.909
251.33	2.041
251.70	5.983
252.08	5.833
252.45	6.148
252.82	2.893
253.19	3.125
253.56	1.141
253.94	3.077
254.31	0.000
254.68	6.643
255.05	7.492
255.42	5.782
255.79	4.207
256.16	4.967
256.54	3.311
256.91	5.246
257.28	2.623
257.65	0.955
258.02	0.000
258.39	5.698
258.76	6.116
259.14	7.759
259.51	3.170
259.88	2.833
260.25	3.889
260.62	4.658
260.99	6.557
261.36	7.239
261.73	4.244
262.10	2.473
262.47	4.021
262.85	6.818
263.22	2.078
263.59	0.526
263.96	2.046
264.33	3.836
264.70	6.173
265.07	5.967
265.44	8.390
265.81	3.241
266.18	4.082
266.55	4.018
266.92	4.100
267.29	4.376
267.66	4.656
268.03	3.930
268.40	5.428
268.77	5.239
269.14	1.982
269.51	2.632
269.88	6.967
270.25	6.237
270.62	4.852
270.99	7.071
271.36	5.347
271.73	6.680
272.10	6.814
272.47	3.808
272.84	6.225
273.21	3.607
273.58	4.637
273.95	5.192
274.32	2.852
274.69	0.580
275.06	4.396
275.43	3.327
275.80	7.231
276.17	5.000
276.54	4.291
276.91	3.757
277.28	4.340
277.65	5.566
278.02	4.596
278.39	4.529
278.76	3.691
279.13	4.965
279.50	6.186
279.87	5.725
280.23	4.049
280.60	5.254
280.97	3.947
281.34	3.056
281.71	6.937
282.08	4.651
282.45	3.273
282.82	3.925
283.19	3.069
283.56	3.607
283.92	7.508
284.29	6.003
284.66	5.419
285.03	2.724
285.40	6.337
285.77	5.728
286.14	6.718
286.51	5.023
286.87	4.581
287.24	6.024
287.61	3.737
287.98	5.136
288.35	3.994
288.72	5.621
289.08	4.685
289.45	4.438
289.82	4.518
290.19	4.598
290.56	5.915
290.93	4.565
291.29	4.959
291.66	5.647
292.03	3.392
292.40	5.850
292.77	2.830
293.13	5.683
293.50	3.285
293.87	4.966
294.24	6.800
294.60	6.068
294.97	2.953
295.34	4.994
295.71	3.909
296.08	5.297
296.44	4.412
296.81	4.872
297.18	4.981
297.55	4.835
297.91	5.575
298.28	4.621
298.65	6.778
299.02	4.604
299.38	5.835
299.75	3.271
300.12	4.398
300.48	3.917
300.85	4.837
301.22	4.922
301.59	3.881
301.95	4.068
302.32	5.889
302.69	4.162
303.05	5.985
303.42	5.543
303.79	4.896
304.15	4.627
304.52	5.497
304.89	4.817
305.25	4.244
305.62	5.434
305.99	6.804
306.35	5.645
306.72	4.964
307.09	4.873
307.45	6.625
307.82	6.357
308.19	6.155
308.55	6.075
308.92	5.648
309.29	6.897
309.65	6.433
310.02	5.941
310.38	6.201
310.75	7.573
311.12	7.574
311.48	6.647
311.85	7.123
312.22	7.875
312.58	7.324
312.95	7.075
313.31	8.853
313.68	8.516
314.05	9.304
314.41	9.563
314.78	8.992
315.14	9.891
315.51	10.526
315.87	11.071
316.24	11.233
316.61	11.723
316.97	9.683
317.34	10.494
317.70	12.314
318.07	12.081
318.43	12.500
318.80	13.545
319.16	13.391
319.53	12.511
319.89	13.585
320.26	13.968
320.62	13.387
320.99	14.681
321.35	14.510
321.72	16.744
322.08	14.427
322.45	16.170
322.81	17.419
323.18	17.080
323.54	17.155
323.91	17.349
324.27	17.728
324.64	17.548
325.00	17.164
325.37	18.018
325.73	19.091
326.10	19.708
326.46	19.870
326.83	19.936
327.19	19.213
327.56	20.553
327.92	20.063
328.29	20.323
328.65	19.347
329.01	20.220
329.38	20.388
329.74	20.719
330.11	20.634
330.47	21.988
330.84	21.964
331.20	21.333
331.56	20.624
331.93	22.092
332.29	22.458
332.66	21.761
333.02	21.441
333.38	21.309
333.75	21.717
334.11	20.601
334.48	21.122
334.84	22.090
335.20	20.235
335.57	22.597
335.93	22.066
336.29	20.882
336.66	20.606
337.02	21.154
337.38	20.918
337.75	21.570
338.11	21.026
338.47	20.926
338.84	21.066
339.20	20.051
339.56	21.005
339.93	21.182
340.29	21.095
340.65	20.114
341.02	21.229
341.38	20.938
341.74	20.016
342.11	20.676
342.47	19.460
342.83	21.014
343.20	21.259
343.56	20.289
343.92	19.215
344.28	19.688
344.65	20.155
345.01	19.579
345.37	20.451
345.73	19.096
346.10	20.515
346.46	18.592
346.82	20.974
347.19	20.168
347.55	20.410
347.91	19.242
348.27	18.741
348.63	20.107
349.00	18.792
349.36	19.703
349.72	19.494
350.08	20.357
350.45	19.316
350.81	18.703
351.17	19.398
351.53	19.560
351.89	20.121
352.26	19.552
352.62	18.806
352.98	18.168
353.34	17.999
353.70	18.798
354.07	19.300
354.43	18.679
354.79	18.325
355.15	18.985
355.51	19.225
355.87	18.325
356.24	19.240
356.60	18.256
356.96	18.162
357.32	17.770
357.68	17.789
358.04	18.638
358.40	18.358
358.77	18.129
359.13	17.282
359.49	18.141
359.85	18.129
360.21	18.364
360.57	17.444
360.93	17.560
361.29	17.333
361.66	17.089
362.02	18.232
362.38	17.569
362.74	18.156
363.10	17.194
363.46	17.867
363.82	17.685
364.18	17.101
364.54	17.635
364.90	18.127
365.26	17.103
365.62	18.000
365.98	18.788
366.35	17.047
366.71	17.755
367.07	18.471
367.43	17.531
367.79	17.186
368.15	17.458
368.51	17.659
368.87	18.223
369.23	18.000
369.59	18.169
369.95	16.971
370.31	17.826
370.67	17.056
371.03	17.659
371.39	16.924
371.75	17.125
372.11	17.480
372.47	17.062
372.83	17.539
373.19	16.478
373.55	17.818
373.91	15.406
374.27	16.559
374.63	16.644
374.99	17.308
375.35	17.208
375.71	16.194
376.07	16.979
376.42	17.191
376.78	16.843
377.14	17.654
377.50	16.951
377.86	17.118
378.22	16.707
378.58	17.420
378.94	16.549
379.30	16.989
379.66	17.402
380.02	16.792
380.38	17.569
380.74	16.732
381.09	17.305
381.45	16.989
381.81	17.272
382.17	16.686
382.53	16.608
382.89	16.140
383.25	16.882
383.61	15.567
383.97	17.256
384.32	16.986
384.68	15.661
385.04	17.178
385.40	16.853
385.76	16.706
386.12	16.457
386.48	17.118
386.83	16.448
387.19	16.396
387.55	16.491
387.91	16.610
388.27	17.148
388.62	16.724
388.98	15.398
389.34	16.735
389.70	16.967
390.06	16.933
390.42	16.024
390.77	17.459
391.13	16.197
391.49	16.667
391.85	15.879
392.20	17.497
392.56	16.893
392.92	16.848
393.28	16.971
393.64	15.978
393.99	17.490
394.35	16.238
394.71	16.527
395.07	15.629
395.42	16.219
395.78	17.672
396.14	16.340
396.50	16.271
396.85	16.696
397.21	16.213
397.57	15.842
397.92	16.552
398.28	15.100
398.64	15.904
399.00	15.497
399.35	16.545
399.71	15.924
400.07	15.609
400.42	15.658
400.78	16.435
401.14	17.188
401.49	16.543
401.85	16.105
402.21	15.759
402.57	16.315
402.92	16.076
403.28	15.984
403.63	15.752
403.99	16.093
404.35	16.259
404.70	16.317
405.06	16.141
405.42	16.393
405.77	15.921
406.13	16.370
406.49	15.484
406.84	15.623
407.20	15.819
407.55	16.535
407.91	16.216
408.27	16.549
408.62	16.230
408.98	15.786
409.34	14.839
409.69	15.142
410.05	15.182
410.40	16.357
410.76	15.480
411.11	16.540
411.47	15.909
411.83	16.637
412.18	16.145
412.54	15.649
412.89	16.007
413.25	15.745
413.60	15.910
413.96	15.559
414.31	15.637
414.67	16.041
415.03	16.246
415.38	16.204
415.74	15.944
416.09	16.780
416.45	15.780
416.80	15.667
417.16	16.092
417.51	15.753
417.87	16.677
418.22	15.868
418.58	15.551
418.93	16.938
419.29	16.215
419.64	16.267
420.00	16.202
420.35	15.890
420.71	15.279
421.06	16.446
421.42	16.342
421.77	16.317
422.12	16.332
422.48	15.463
422.83	17.087
423.19	15.119
423.54	16.814
423.90	15.627
424.25	16.373
424.61	15.729
424.96	16.529
425.31	16.773
425.67	15.459
426.02	15.385
426.38	16.648
426.73	16.016
427.09	17.301
427.44	16.111
427.79	15.865
428.15	15.925
428.50	16.573
428.85	15.672
429.21	16.968
429.56	15.597
429.92	15.971
430.27	16.482
430.62	15.779
430.98	16.035
431.33	15.787
431.68	15.805
432.04	16.607
432.39	16.390
432.74	16.039
433.10	16.279
433.45	15.608
433.80	16.094
434.16	16.787
434.51	16.855
434.86	16.830
435.22	17.216
435.57	16.627
435.92	16.694
436.28	16.382
436.63	16.985
436.98	16.371
437.34	17.531
437.69	16.070
438.04	17.557
438.39	17.002
438.75	16.547
439.10	17.125
439.45	17.216
439.81	16.102
440.16	16.247
440.51	16.499
440.86	16.732
441.22	17.042
441.57	17.296
441.92	16.683
442.27	16.818
442.63	16.443
442.98	16.542
443.33	17.622
443.68	17.294
444.03	17.451
444.39	16.875
444.74	17.356
445.09	16.726
445.44	17.123
445.79	16.954
446.15	16.650
446.50	16.848
446.85	17.412
447.20	16.925
447.55	16.998
447.91	16.859
448.26	17.230
448.61	17.216
448.96	17.543
449.31	16.755
449.66	16.231
450.02	16.983
450.37	16.835
450.72	16.954
451.07	16.913
451.42	17.389
451.77	16.620
452.12	17.551
452.47	16.993
452.83	16.723
453.18	16.054
453.53	16.944
453.88	16.731
454.23	17.853
454.58	16.425
454.93	16.141
455.28	16.918
455.63	16.828
455.98	16.816
456.34	16.902
456.69	17.284
457.04	17.317
457.39	16.796
457.74	17.506
458.09	16.035
458.44	16.864
458.79	16.452
459.14	16.728
459.49	17.261
459.84	16.999
460.19	16.047
460.54	17.944
460.89	16.570
461.24	16.034
461.59	16.934
461.94	16.429
462.29	16.685
462.64	15.812
462.99	17.012
463.34	16.288
463.69	16.413
464.04	16.620
464.39	16.536
464.74	16.192
465.09	16.263
465.44	16.094
465.79	16.764
466.14	15.529
466.49	16.474
466.84	16.749
467.19	15.896
467.54	15.981
467.89	15.977
468.24	16.343
468.59	15.171
468.94	16.200
469.29	15.837
469.64	15.957
469.99	17.081
470.34	16.708
470.68	16.473
471.03	16.306
471.38	16.089
471.73	16.255
472.08	15.863
472.43	16.436
472.78	16.310
473.13	15.676
473.48	16.375
473.83	16.773
474.17	15.768
474.52	16.356
474.87	15.836
475.22	16.169
475.57	16.355
475.92	15.829
476.27	16.400
476.61	15.421
476.96	15.381
477.31	16.832
477.66	16.212
478.01	15.862
478.36	15.105
478.70	16.059
479.05	16.360
479.40	16.288
479.75	16.475
480.10	15.443
480.45	16.044
480.79	16.054
481.14	15.165
481.49	15.675
481.84	15.753
482.19	16.086
482.53	15.654
482.88	15.640
483.23	16.318
483.58	15.371
483.92	14.672
484.27	15.072
484.62	15.388
484.97	15.474
485.31	15.347
485.66	14.691
486.01	13.795
486.36	14.526
486.70	14.788
487.05	15.531
487.40	15.161
487.75	14.962
488.09	14.849
488.44	15.506
488.79	15.616
489.13	15.062
489.48	15.107
489.83	14.809
490.17	15.148
490.52	14.819
490.87	15.144
491.22	15.078
491.56	15.657
491.91	15.220
492.26	15.448
492.60	15.216
492.95	15.050
493.30	15.016
493.64	15.418
493.99	14.693
494.34	14.242
494.68	14.818
495.03	15.110
495.37	14.825
495.72	15.238
496.07	14.417
496.41	14.329
496.76	15.013
497.11	14.904
497.45	14.502
497.80	14.616
498.14	14.830
498.49	14.568
498.84	14.717
499.18	14.755
499.53	14.574
499.87	14.418
500.22	13.936
500.56	14.260
500.91	14.920
501.26	14.864
501.60	14.450
501.95	13.851
502.29	14.348
502.64	15.216
502.98	14.884
503.33	13.650
503.67	13.737
504.02	14.011
504.36	14.433
504.71	14.653
505.06	13.915
505.40	13.985
505.75	14.162
506.09	14.641
506.44	14.253
506.78	13.991
507.13	14.338
507.47	14.306
507.82	13.684
508.16	13.432
508.51	13.315
508.85	13.793
509.19	14.259
509.54	14.409
509.88	13.113
510.23	13.745
510.57	14.645
510.92	13.788
511.26	13.420
511.61	13.472
511.95	13.812
512.30	14.328
512.64	13.393
512.98	14.157
513.33	13.609
513.67	13.412
514.02	14.308
514.36	14.578
514.70	13.385
515.05	13.921
515.39	14.016
515.74	13.521
516.08	12.995
516.42	13.972
516.77	13.460
517.11	13.306
517.46	13.150
517.80	14.217
518.14	14.091
518.49	13.666
518.83	13.411
519.17	13.032
519.52	12.998
519.86	13.728
520.20	13.472
520.55	13.253
520.89	13.626
521.23	13.624
521.58	13.842
521.92	13.598
522.26	13.459
522.61	13.600
522.95	13.264
523.29	13.563
523.64	13.453
523.98	13.862
524.32	13.754
524.66	13.546
525.01	13.194
525.35	13.153
525.69	13.283
526.04	12.285
526.38	13.333
526.72	12.860
527.06	13.842
527.41	13.120
527.75	13.242
528.09	12.515
528.43	12.137
528.78	12.428
529.12	12.271
529.46	12.479
529.80	12.243
530.15	13.159
530.49	11.032
530.83	13.164
531.17	12.724
531.51	12.575
531.86	12.560
532.20	13.171
532.54	12.867
532.88	12.788
533.22	12.846
533.57	13.272
533.91	12.514
534.25	12.493
534.59	11.092
534.93	12.224
535.27	11.718
535.62	13.246
535.96	12.493
536.30	12.338
536.64	12.973
536.98	12.239
537.32	13.704
537.66	12.289
538.01	12.205
538.35	11.815
538.69	10.817
539.03	12.201
539.37	12.544
539.71	12.132
540.05	12.290
540.39	11.369
540.73	11.840
541.07	12.446
541.42	11.636
541.76	11.922
542.10	11.641
542.44	11.328
542.78	12.774
543.12	11.323
543.46	12.332
543.80	11.391
544.14	11.730
544.48	11.998
544.82	12.089
545.16	11.509
545.50	11.744
545.84	11.635
546.18	13.333
546.52	11.401
546.86	11.572
547.20	11.514
547.54	11.548
547.88	11.332
548.22	11.170
548.56	11.293
548.90	11.284
549.24	11.976
549.58	10.789
549.92	11.735
550.26	11.974
550.60	11.615
550.94	12.290
551.28	11.947
551.62	11.051
551.96	11.197
552.30	12.301
552.64	11.512
552.98	11.167
553.32	12.026
553.66	11.383
554.00	12.043
554.34	11.454
554.68	10.846
555.02	10.972
555.36	11.506
555.69	11.083
556.03	10.845
556.37	11.202
556.71	11.541
557.05	11.374
557.39	10.750
557.73	11.427
558.07	11.391
558.41	11.296
558.75	10.818
559.08	11.482
559.42	10.974
559.76	10.991
560.10	10.985
560.44	11.412
560.78	11.625
561.12	10.099
561.45	10.645
561.79	11.233
562.13	10.844
562.47	10.173
562.81	10.253
563.15	10.669
563.48	10.441
563.82	10.097
564.16	10.600
564.50	10.191
564.84	10.560
565.17	10.588
565.51	9.666
565.85	9.976
566.19	10.196
566.52	9.889
566.86	11.036
567.20	10.114
567.54	9.772
567.88	10.143
568.21	10.524
568.55	10.408
568.89	9.986
569.23	10.266
569.56	9.769
569.90	9.836
570.24	9.545
570.57	9.365
570.91	9.369
571.25	9.517
571.59	9.574
571.92	9.781
572.26	9.582
572.60	9.227
572.93	9.769
573.27	9.328
573.61	9.688
573.95	9.468
574.28	9.203
574.62	9.231
574.96	9.219
575.29	8.901
575.63	9.379
575.97	9.317
576.30	9.154
576.64	9.520
576.98	9.339
577.31	9.461
577.65	9.286
577.98	8.998
578.32	8.991
578.66	9.159
578.99	9.318
579.33	9.293
579.67	9.044
580.00	9.216
580.34	9.293
580.67	8.892
581.01	9.238
581.35	9.040
581.68	8.678
582.02	8.811
582.35	8.961
582.69	9.323
583.02	8.765
583.36	9.057
583.70	9.202
584.03	9.095
584.37	9.282
584.70	9.169
585.04	8.719
585.37	8.904
585.71	8.846
586.04	8.763
586.38	8.960
586.72	8.799
587.05	8.903
587.39	8.726
587.72	9.234
588.06	8.970
588.39	8.862
588.73	9.153
589.06	8.691
589.40	9.096
589.73	8.997
590.07	9.118
590.40	9.060
590.73	9.084
591.07	8.824
591.40	9.059
591.74	9.062
592.07	10.150
592.41	8.517
592.74	9.407
593.08	8.885
593.41	9.449
593.75	8.822
594.08	9.149
594.41	8.814
594.75	9.034
595.08	8.345
595.42	8.474
595.75	9.170
596.09	9.014
596.42	8.850
596.75	9.031
597.09	9.455
597.42	9.297
597.75	8.389
598.09	9.444
598.42	8.846
598.76	8.636
599.09	8.900
599.42	8.683
599.76	8.650
600.09	8.709
600.42	8.942
600.76	9.016
601.09	8.662
601.42	8.514
601.76	8.655
602.09	8.685
602.42	8.688
602.76	8.893
603.09	9.178
603.42	8.743
603.76	8.739
604.09	8.765
604.42	9.138
604.76	8.904
605.09	9.134
605.42	8.732
605.75	8.923
606.09	8.772
606.42	9.048
606.75	8.246
607.09	8.295
607.42	9.210
607.75	8.519
608.08	8.603
608.42	8.827
608.75	8.955
609.08	8.404
609.41	8.734
609.75	8.795
610.08	8.927
610.41	8.624
610.74	8.529
611.07	8.037
611.41	9.148
611.74	9.099
612.07	8.789
612.40	8.270
612.73	8.606
613.07	8.900
613.40	9.143
613.73	8.570
614.06	9.764
614.39	8.552
614.72	8.928
615.06	8.855
615.39	8.023
615.72	7.915
616.05	8.694
616.38	8.678
616.71	9.091
617.05	7.827
617.38	9.524
617.71	8.909
618.04	8.958
618.37	10.000
618.70	9.559
619.03	8.542
619.36	9.494
619.69	8.456
620.03	8.977
620.36	9.018
620.69	9.007
621.02	9.843
621.35	9.724
621.68	9.400
622.01	9.181
622.34	8.856
622.67	9.553
623.00	7.895
623.33	8.759
623.66	8.755
623.99	8.427
624.32	9.097
624.65	8.172
624.99	9.233
625.32	9.732
625.65	8.766
625.98	9.153
626.31	8.788
626.64	10.110
626.97	8.477
627.30	7.973
627.63	8.327
627.96	9.985
628.29	9.339
628.62	8.396
628.95	8.501
629.28	8.666
629.61	8.923
629.94	8.703
630.26	8.814
630.59	8.981
630.92	9.091
631.25	7.961
631.58	9.040
631.91	8.060
632.24	8.934
632.57	10.247
632.90	8.425
633.23	8.673
633.56	9.184
633.89	8.368
634.22	9.044
634.55	8.664
634.88	9.199
635.20	9.903
635.53	8.814
635.86	10.184
636.19	10.604
636.52	9.494
636.85	8.478
637.18	9.771
637.51	8.172
637.83	10.299
638.16	8.756
638.49	9.038
638.82	10.147
639.15	8.591
639.48	9.815
639.81	10.508
640.13	10.012
640.46	6.788
640.79	8.333
641.12	9.193
641.45	9.410
641.77	10.783
