SpectraSuite Data File
++++++++++++++++++++++++++++++++++++
Date: Thu May 14 16:09:14 PDT 2015
User: schluterlab
Dark Spectrum Present: Yes
Reference Spectrum Present: Yes
Number of Sampled Component Spectra: 1
Spectrometers: USB2E3373
Integration Time (usec): 3000 (USB2E3373)
Spectra Averaged: 3 (USB2E3373)
Boxcar Smoothing: 0 (USB2E3373)
Correct for Electrical Dark: No (USB2E3373)
Strobe/Lamp Enabled: No (USB2E3373)
Correct for Detector Non-linearity: No (USB2E3373)
Correct for Stray Light: No (USB2E3373)
Number of Pixels in Processed Spectrum: 2048
>>>>>Begin Processed Spectral Data<<<<<
178.53	0.000
178.91	200.000
179.29	-1600.000
179.67	-800.000
180.04	207.143
180.42	130.000
180.80	220.000
181.18	-900.000
181.56	-800.000
181.94	400.000
182.31	-300.000
182.69	100.000
183.07	-600.000
183.45	300.000
183.83	-283.333
184.20	-366.667
184.58	1600.000
184.96	-550.000
185.34	-222.222
185.72	0.000
186.09	55.556
186.47	400.000
186.85	540.000
187.23	-233.333
187.61	-2000.000
187.98	300.000
188.36	425.000
188.74	-275.000
189.12	-233.333
189.49	-31.250
189.87	-175.000
190.25	-200.000
190.63	-200.000
191.00	-277.778
191.38	0.000
191.76	-500.000
192.14	-333.333
192.51	650.000
192.89	-133.333
193.27	0.000
193.65	-114.286
194.02	-2200.000
194.40	-228.571
194.78	300.000
195.15	0.000
195.53	-90.909
195.91	0.000
196.29	-350.000
196.66	-115.385
197.04	-1800.000
197.42	-157.143
197.79	-700.000
198.17	-137.500
198.55	-214.286
198.92	-88.889
199.30	-125.000
199.68	-18.182
200.05	-85.714
200.43	-950.000
200.81	242.857
201.18	0.000
201.56	211.111
201.94	0.000
202.31	366.667
202.69	-233.333
203.07	1200.000
203.44	-100.000
203.82	-175.000
204.19	-33.333
204.57	-216.667
204.95	-150.000
205.32	-1400.000
205.70	400.000
206.08	-200.000
206.45	-133.333
206.83	520.000
207.20	-66.667
207.58	-260.000
207.96	-300.000
208.33	-66.667
208.71	108.333
209.08	-150.000
209.46	0.000
209.84	333.333
210.21	400.000
210.59	700.000
210.96	600.000
211.34	-175.000
211.71	-175.000
212.09	-700.000
212.46	0.000
212.84	1000.000
213.22	-380.000
213.59	-100.000
213.97	-70.000
214.34	-400.000
214.72	350.000
215.09	-200.000
215.47	0.000
215.84	328.571
216.22	950.000
216.59	-80.000
216.97	-180.000
217.34	-375.000
217.72	-87.500
218.09	-225.000
218.47	-300.000
218.84	0.000
219.22	180.000
219.59	-58.824
219.97	-25.000
220.34	750.000
220.72	-144.444
221.09	23.077
221.47	-466.667
221.84	-90.000
222.22	-257.143
222.59	0.000
222.97	-112.500
223.34	-280.000
223.72	-800.000
224.09	-50.000
224.46	-400.000
224.84	-60.000
225.21	-185.714
225.59	-400.000
225.96	-250.000
226.34	-15.385
226.71	366.667
227.08	-650.000
227.46	-80.000
227.83	-150.000
228.21	-52.632
228.58	175.000
228.95	800.000
229.33	-83.333
229.70	-50.000
230.08	26.316
230.45	140.000
230.82	-366.667
231.20	-71.429
231.57	-33.333
231.95	-45.455
232.32	-63.636
232.69	20.000
233.07	-175.000
233.44	-47.059
233.81	-80.000
234.19	-5.556
234.56	4.545
234.93	10.345
235.31	5.263
235.68	-105.556
236.05	-100.000
236.43	15.385
236.80	20.000
237.17	-14.815
237.55	-27.273
237.92	-110.000
238.29	-6.452
238.67	-13.636
239.04	-5.556
239.41	-26.190
239.79	-4.348
240.16	5.556
240.53	-10.870
240.91	-13.725
241.28	1.639
241.65	34.328
242.02	14.865
242.40	6.154
242.77	22.667
243.14	13.415
243.51	6.579
243.89	15.385
244.26	19.802
244.63	18.627
245.00	18.692
245.38	12.281
245.75	1.770
246.12	14.286
246.49	5.426
246.87	26.429
247.24	17.219
247.61	17.763
247.98	12.752
248.36	14.198
248.73	19.018
249.10	13.661
249.47	20.398
249.84	23.560
250.22	21.762
250.59	21.667
250.96	23.182
251.33	16.327
251.70	20.940
252.08	20.833
252.45	20.492
252.82	17.769
253.19	21.875
253.56	20.532
253.94	19.231
254.31	20.833
254.68	23.077
255.05	23.453
255.42	15.646
255.79	18.770
256.16	21.854
256.54	17.550
256.91	24.590
257.28	21.311
257.65	17.834
258.02	18.289
258.39	20.228
258.76	25.382
259.14	22.414
259.51	19.885
259.88	24.079
260.25	21.944
260.62	22.740
260.99	21.585
261.36	22.520
261.73	23.607
262.10	21.429
262.47	22.520
262.85	23.737
263.22	19.740
263.59	17.368
263.96	21.739
264.33	20.460
264.70	20.741
265.07	21.002
265.44	26.304
265.81	20.833
266.18	25.397
266.55	24.107
266.92	21.640
267.29	21.882
267.66	22.395
268.03	22.271
268.40	21.503
268.77	18.451
269.14	21.366
269.51	24.342
269.88	22.951
270.25	22.133
270.62	23.840
270.99	22.424
271.36	21.584
271.73	21.807
272.10	20.842
272.47	23.447
272.84	20.884
273.21	23.046
273.58	21.169
273.95	20.192
274.32	19.392
274.69	21.470
275.06	24.176
275.43	21.442
275.80	20.988
276.17	20.185
276.54	18.657
276.91	22.361
277.28	19.711
277.65	23.339
278.02	21.875
278.39	19.928
278.76	20.738
279.13	21.454
279.50	20.790
279.87	20.572
280.23	19.190
280.60	22.203
280.97	21.875
281.34	18.846
281.71	23.012
282.08	21.761
282.45	19.313
282.82	18.995
283.19	17.771
283.56	20.492
283.92	22.523
284.29	22.749
284.66	22.332
285.03	20.513
285.40	20.711
285.77	19.195
286.14	21.221
286.51	22.374
286.87	20.221
287.24	20.181
287.61	21.525
287.98	19.637
288.35	20.710
288.72	19.083
289.08	20.498
289.45	18.639
289.82	19.127
290.19	19.828
290.56	19.577
290.93	18.973
291.29	19.559
291.66	19.421
292.03	17.639
292.40	20.136
292.77	18.329
293.13	19.350
293.50	18.134
293.87	16.644
294.24	20.400
294.60	19.469
294.97	18.658
295.34	18.950
295.71	17.781
296.08	18.217
296.44	17.770
296.81	18.149
297.18	17.310
297.55	17.099
297.91	19.454
298.28	17.180
298.65	17.004
299.02	17.237
299.38	17.735
299.75	17.757
300.12	17.361
300.48	17.051
300.85	15.973
301.22	16.331
301.59	15.868
301.95	17.627
302.32	16.556
302.69	17.196
303.05	17.628
303.42	16.851
303.79	14.896
304.15	16.404
304.52	16.490
304.89	17.277
305.25	16.874
305.62	15.883
305.99	16.804
306.35	16.230
306.72	18.407
307.09	16.650
307.45	17.288
307.82	17.457
308.19	17.053
308.55	17.454
308.92	17.137
309.29	16.954
309.65	18.129
310.02	18.317
310.38	16.142
310.75	18.738
311.12	19.463
311.48	16.325
311.85	17.094
312.22	17.552
312.58	18.028
312.95	17.591
313.31	18.428
313.68	20.604
314.05	20.235
314.41	21.038
314.78	20.073
315.14	19.510
315.51	20.499
315.87	21.152
316.24	21.187
316.61	21.758
316.97	20.000
317.34	20.988
317.70	22.096
318.07	21.605
318.43	23.214
318.80	22.659
319.16	21.974
319.53	22.365
319.89	21.998
320.26	23.132
320.62	22.429
320.99	23.638
321.35	24.584
321.72	26.140
322.08	24.436
322.45	25.565
322.81	26.083
323.18	24.071
323.54	26.552
323.91	25.801
324.27	25.731
324.64	27.288
325.00	27.114
325.37	28.337
325.73	28.760
326.10	28.062
326.46	29.642
326.83	29.464
327.19	30.079
327.56	29.802
327.92	28.954
328.29	29.032
328.65	29.146
329.01	31.387
329.38	31.424
329.74	31.507
330.11	32.192
330.47	31.592
330.84	29.974
331.20	31.583
331.56	31.542
331.93	32.134
332.29	32.627
332.66	33.056
333.02	32.747
333.38	31.963
333.75	31.313
334.11	32.694
334.48	31.601
334.84	34.410
335.20	32.242
335.57	32.631
335.93	32.727
336.29	31.864
336.66	31.623
337.02	32.441
337.38	32.823
337.75	32.893
338.11	34.651
338.47	35.236
338.84	34.095
339.20	32.098
339.56	33.361
339.93	34.236
340.29	32.528
340.65	32.603
341.02	33.041
341.38	33.872
341.74	33.091
342.11	34.996
342.47	32.010
342.83	33.172
343.20	33.442
343.56	33.841
343.92	33.387
344.28	33.281
344.65	34.729
345.01	33.853
345.37	33.126
345.73	32.736
346.10	34.165
346.46	33.386
346.82	33.184
347.19	34.301
347.55	34.067
347.91	34.027
348.27	32.625
348.63	33.435
349.00	34.004
349.36	34.870
349.72	34.003
350.08	34.175
350.45	33.460
350.81	33.635
351.17	34.135
351.53	34.723
351.89	34.776
352.26	34.254
352.62	33.806
352.98	35.038
353.34	32.636
353.70	34.592
354.07	34.426
354.43	34.548
354.79	34.331
355.15	34.290
355.51	34.722
355.87	33.957
356.24	34.829
356.60	32.964
356.96	34.692
357.32	32.862
357.68	34.041
358.04	34.955
358.40	34.403
358.77	34.503
359.13	33.900
359.49	33.532
359.85	35.678
360.21	34.935
360.57	34.602
360.93	33.639
361.29	35.368
361.66	35.409
362.02	35.421
362.38	34.996
362.74	34.288
363.10	36.245
363.46	34.626
363.82	34.730
364.18	36.172
364.54	34.924
364.90	35.184
365.26	35.172
365.62	35.333
365.98	35.466
366.35	35.638
366.71	35.714
367.07	35.656
367.43	35.325
367.79	37.027
368.15	36.187
368.51	35.318
368.87	35.859
369.23	36.267
369.59	36.202
369.95	35.632
370.31	36.124
370.67	36.314
371.03	35.942
371.39	34.923
371.75	35.351
372.11	34.350
372.47	36.967
372.83	36.387
373.19	35.290
373.55	36.314
373.91	34.492
374.27	35.964
374.63	35.792
374.99	36.737
375.35	36.753
375.71	36.323
376.07	36.604
376.42	36.209
376.78	35.488
377.14	35.933
377.50	36.496
377.86	36.700
378.22	36.228
378.58	36.445
378.94	36.150
379.30	35.970
379.66	36.919
380.02	36.353
380.38	36.924
380.74	36.958
381.09	37.224
381.45	36.193
381.81	37.061
382.17	36.936
382.53	35.965
382.89	36.625
383.25	37.339
383.61	36.516
383.97	35.925
384.32	37.380
384.68	35.905
385.04	35.628
385.40	37.124
385.76	37.339
386.12	35.727
386.48	37.000
386.83	37.128
387.19	35.921
387.55	36.209
387.91	36.530
388.27	36.143
388.62	36.999
388.98	36.041
389.34	36.830
389.70	36.374
390.06	36.175
390.42	36.566
390.77	37.447
391.13	35.270
391.49	36.836
391.85	36.182
392.20	36.773
392.56	37.626
392.92	36.532
393.28	36.263
393.64	35.698
393.99	36.839
394.35	35.981
394.71	36.347
395.07	36.527
395.42	35.123
395.78	36.624
396.14	36.661
396.50	35.570
396.85	36.196
397.21	36.036
397.57	35.336
397.92	36.312
398.28	36.013
398.64	34.954
399.00	34.764
399.35	35.707
399.71	35.598
400.07	36.384
400.42	35.914
400.78	35.938
401.14	35.060
401.49	35.930
401.85	35.465
402.21	35.110
402.57	36.561
402.92	35.284
403.28	35.890
403.63	34.129
403.99	35.689
404.35	35.304
404.70	35.184
405.06	34.185
405.42	34.953
405.77	35.005
406.13	35.170
406.49	34.234
406.84	35.125
407.20	34.153
407.55	35.009
407.91	34.004
408.27	34.393
408.62	34.322
408.98	34.359
409.34	33.666
409.69	34.178
410.05	34.642
410.40	34.339
410.76	34.941
411.11	34.366
411.47	34.767
411.83	34.215
412.18	35.482
412.54	34.440
412.89	33.993
413.25	33.126
413.60	33.946
413.96	33.333
414.31	34.958
414.67	33.870
415.03	34.277
415.38	34.363
415.74	34.209
416.09	34.053
416.45	33.312
416.80	32.742
417.16	33.269
417.51	33.188
417.87	33.354
418.22	33.293
418.58	32.404
418.93	33.120
419.29	33.354
419.64	33.193
420.00	33.056
420.35	33.240
420.71	32.567
421.06	32.605
421.42	33.888
421.77	33.441
422.12	32.558
422.48	32.924
422.83	33.790
423.19	33.793
423.54	34.015
423.90	33.020
424.25	33.280
424.61	33.008
424.96	33.608
425.31	35.138
425.67	33.441
426.02	33.979
426.38	33.639
426.73	32.980
427.09	34.775
427.44	32.769
427.79	33.389
428.15	33.790
428.50	33.596
428.85	33.582
429.21	34.255
429.56	33.366
429.92	33.563
430.27	33.880
430.62	34.148
430.98	32.514
431.33	33.236
431.68	31.801
432.04	33.773
432.39	33.637
432.74	33.619
433.10	33.369
433.45	32.107
433.80	32.725
434.16	34.091
434.51	33.350
434.86	34.202
435.22	34.006
435.57	34.080
435.92	34.057
436.28	34.414
436.63	34.134
436.98	33.280
437.34	33.258
437.69	32.856
438.04	33.845
438.39	33.946
438.75	33.149
439.10	33.827
439.45	33.650
439.81	34.407
440.16	33.673
440.51	32.887
440.86	33.741
441.22	33.387
441.57	33.438
441.92	33.220
442.27	33.283
442.63	33.681
442.98	33.298
443.33	32.614
443.68	33.598
444.03	34.572
444.39	34.027
444.74	33.895
445.09	33.198
445.44	33.667
445.79	34.052
446.15	33.556
446.50	32.661
446.85	34.095
447.20	34.429
447.55	34.100
447.91	33.560
448.26	33.457
448.61	33.900
448.96	34.120
449.31	33.457
449.66	33.170
450.02	33.755
450.37	32.818
450.72	32.777
451.07	33.030
451.42	33.160
451.77	32.629
452.12	33.860
452.47	33.452
452.83	34.122
453.18	33.041
453.53	33.027
453.88	33.241
454.23	33.107
454.58	33.836
454.93	33.434
455.28	34.497
455.63	32.405
455.98	33.855
456.34	32.332
456.69	33.157
457.04	33.333
457.39	31.984
457.74	33.277
458.09	32.290
458.44	33.351
458.79	31.769
459.14	32.931
459.49	32.258
459.84	32.581
460.19	31.316
460.54	32.879
460.89	33.827
461.24	32.069
461.59	32.429
461.94	31.831
462.29	32.699
462.64	32.649
462.99	32.643
463.34	33.160
463.69	31.477
464.04	31.907
464.39	31.951
464.74	32.212
465.09	30.738
465.44	31.867
465.79	32.047
466.14	31.423
466.49	30.895
466.84	30.744
467.19	31.445
467.54	31.257
467.89	30.575
468.24	32.133
468.59	30.863
468.94	31.002
469.29	30.534
469.64	30.769
469.99	31.103
470.34	30.941
470.68	31.442
471.03	31.893
471.38	31.982
471.73	30.559
472.08	32.424
472.43	31.306
472.78	31.675
473.13	30.973
473.48	30.997
473.83	32.618
474.17	31.477
474.52	30.908
474.87	31.008
475.22	31.268
475.57	30.478
475.92	30.911
476.27	30.138
476.61	30.218
476.96	30.031
477.31	31.287
477.66	31.165
478.01	30.147
478.36	30.708
478.70	29.655
479.05	30.982
479.40	30.701
479.75	31.028
480.10	30.317
480.45	30.356
480.79	29.841
481.14	30.009
481.49	30.986
481.84	31.201
482.19	30.409
482.53	30.214
482.88	30.394
483.23	30.236
483.58	29.651
483.92	29.699
484.27	29.890
484.62	29.373
484.97	29.588
485.31	29.250
485.66	27.221
486.01	26.593
486.36	27.491
486.70	28.324
487.05	28.407
487.40	27.746
487.75	27.812
488.09	28.036
488.44	28.175
488.79	28.634
489.13	28.168
489.48	28.350
489.83	27.928
490.17	28.352
490.52	29.187
490.87	28.596
491.22	29.593
491.56	28.669
491.91	28.783
492.26	28.905
492.60	28.596
492.95	29.092
493.30	28.418
493.64	29.085
493.99	28.509
494.34	28.179
494.68	27.837
495.03	27.885
495.37	28.717
495.72	28.707
496.07	28.615
496.41	27.885
496.76	28.274
497.11	28.747
497.45	28.226
497.80	27.899
498.14	26.984
498.49	28.447
498.84	29.068
499.18	28.250
499.53	28.161
499.87	27.868
500.22	27.471
500.56	28.115
500.91	28.192
501.26	27.955
501.60	27.707
501.95	28.398
502.29	27.863
502.64	27.722
502.98	27.049
503.33	27.473
503.67	27.693
504.02	27.102
504.36	28.061
504.71	27.699
505.06	27.422
505.40	27.057
505.75	27.823
506.09	27.486
506.44	27.855
506.78	27.385
507.13	27.663
507.47	27.807
507.82	27.131
508.16	26.673
508.51	27.379
508.85	27.444
509.19	27.475
509.54	27.570
509.88	27.052
510.23	27.829
510.57	29.000
510.92	26.899
511.26	26.936
511.61	26.944
511.95	27.233
512.30	27.031
512.64	27.436
512.98	26.513
513.33	27.167
513.67	26.976
514.02	27.440
514.36	27.417
514.70	27.448
515.05	27.007
515.39	27.349
515.74	27.837
516.08	27.364
516.42	28.362
516.77	27.077
517.11	26.663
517.46	27.200
517.80	27.044
518.14	28.237
518.49	27.711
518.83	27.195
519.17	27.141
519.52	27.358
519.86	27.825
520.20	27.689
520.55	27.656
520.89	26.802
521.23	28.643
521.58	27.797
521.92	28.385
522.26	27.549
522.61	28.009
522.95	26.528
523.29	27.586
523.64	26.906
523.98	28.009
524.32	27.966
524.66	26.864
525.01	27.010
525.35	26.594
525.69	27.552
526.04	26.693
526.38	26.724
526.72	26.644
527.06	28.680
527.41	27.638
527.75	26.960
528.09	27.922
528.43	27.235
528.78	26.012
529.12	26.720
529.46	26.251
529.80	26.545
530.15	25.739
530.49	26.750
530.83	26.860
531.17	26.523
531.51	27.256
531.86	27.284
532.20	27.500
532.54	26.092
532.88	26.970
533.22	25.987
533.57	26.947
533.91	26.207
534.25	26.060
534.59	26.379
534.93	25.580
535.27	24.676
535.62	26.322
535.96	26.206
536.30	25.323
536.64	26.186
536.98	27.060
537.32	26.420
537.66	26.762
538.01	25.498
538.35	25.396
538.69	25.361
539.03	25.567
539.37	26.207
539.71	26.006
540.05	27.098
540.39	25.550
540.73	25.926
541.07	25.261
541.42	25.635
541.76	25.504
542.10	25.332
542.44	25.518
542.78	25.243
543.12	24.970
543.46	25.885
543.80	23.921
544.14	25.194
544.48	25.118
544.82	25.972
545.16	25.045
545.50	25.704
545.84	24.985
546.18	26.420
546.52	25.541
546.86	24.843
547.20	25.763
547.54	24.844
547.88	24.895
548.22	24.795
548.56	24.868
548.90	25.194
549.24	24.620
549.58	25.174
549.92	24.936
550.26	25.890
550.60	25.144
550.94	25.032
551.28	24.818
551.62	25.674
551.96	25.113
552.30	25.112
552.64	25.078
552.98	25.452
553.32	25.531
553.66	24.759
554.00	24.842
554.34	25.097
554.68	25.242
555.02	25.099
555.36	26.167
555.69	23.959
556.03	24.653
556.37	25.469
556.71	24.857
557.05	25.112
557.39	25.614
557.73	24.967
558.07	24.503
558.41	25.249
558.75	24.544
559.08	25.191
559.42	25.103
559.76	25.984
560.10	25.251
560.44	25.726
560.78	25.437
561.12	25.062
561.45	24.392
561.79	25.153
562.13	26.186
562.47	24.168
562.81	24.304
563.15	25.000
563.48	24.922
563.82	24.728
564.16	23.501
564.50	24.672
564.84	24.012
565.17	24.176
565.51	23.303
565.85	23.337
566.19	23.560
566.52	24.049
566.86	24.222
567.20	22.838
567.54	23.951
567.88	24.159
568.21	23.370
568.55	22.686
568.89	23.332
569.23	23.067
569.56	22.392
569.90	21.882
570.24	22.226
570.57	21.681
570.91	21.157
571.25	21.232
571.59	21.264
571.92	20.922
572.26	20.937
572.60	20.994
572.93	20.735
573.27	20.849
573.61	20.858
573.95	20.466
574.28	20.696
574.62	20.282
574.96	19.982
575.29	19.806
575.63	19.612
575.97	20.527
576.30	19.763
576.64	20.067
576.98	19.818
577.31	20.215
577.65	19.996
577.98	19.748
578.32	19.654
578.66	19.506
578.99	19.496
579.33	20.053
579.67	19.810
580.00	19.645
580.34	19.721
580.67	19.704
581.01	19.753
581.35	19.755
581.68	19.610
582.02	19.593
582.35	19.369
582.69	19.398
583.02	19.286
583.36	19.696
583.70	19.223
584.03	19.486
584.37	19.279
584.70	19.267
585.04	19.461
585.37	19.730
585.71	19.374
586.04	19.793
586.38	20.125
586.72	19.328
587.05	19.519
587.39	19.721
587.72	19.880
588.06	19.729
588.39	19.915
588.73	19.524
589.06	20.175
589.40	20.037
589.73	20.276
590.07	20.292
590.40	20.757
590.73	20.184
591.07	20.588
591.40	20.334
591.74	20.668
592.07	21.234
592.41	20.741
592.74	20.483
593.08	20.318
593.41	19.977
593.75	20.374
594.08	19.964
594.41	20.288
594.75	19.794
595.08	20.592
595.42	20.325
595.75	20.213
596.09	21.044
596.42	20.208
596.75	20.378
597.09	21.980
597.42	20.143
597.75	20.541
598.09	20.754
598.42	21.311
598.76	19.870
599.09	20.399
599.42	19.812
599.76	20.271
600.09	20.254
600.42	20.287
600.76	20.641
601.09	19.681
601.42	20.185
601.76	20.138
602.09	19.979
602.42	19.557
602.76	19.742
603.09	20.264
603.42	19.942
603.76	19.873
604.09	20.405
604.42	20.477
604.76	19.863
605.09	20.862
605.42	20.973
605.75	20.346
606.09	20.194
606.42	19.883
606.75	19.940
607.09	19.700
607.42	20.193
607.75	20.633
608.08	19.613
608.42	20.516
608.75	21.227
609.08	20.374
609.41	20.997
609.75	20.670
610.08	21.372
610.41	20.221
610.74	20.546
611.07	20.826
611.41	21.031
611.74	21.201
612.07	21.318
612.40	20.817
612.73	20.929
613.07	21.222
613.40	21.511
613.73	20.077
614.06	21.394
614.39	20.603
614.72	20.524
615.06	20.260
615.39	20.831
615.72	20.948
616.05	21.321
616.38	21.342
616.71	21.369
617.05	20.554
617.38	21.776
617.71	21.544
618.04	21.425
618.37	21.585
618.70	22.229
619.03	21.266
619.36	21.147
619.69	21.012
620.03	21.971
620.36	21.656
620.69	22.394
621.02	22.178
621.35	23.730
621.68	23.066
622.01	21.495
622.34	21.409
622.67	23.230
623.00	21.862
623.33	22.163
623.66	22.374
623.99	22.449
624.32	23.392
624.65	21.300
624.99	21.912
625.32	23.187
625.65	23.129
625.98	21.356
626.31	22.466
626.64	23.297
626.97	21.530
627.30	22.551
627.63	22.731
627.96	23.198
628.29	23.346
628.62	22.334
628.95	23.401
629.28	23.619
629.61	22.896
629.94	23.013
630.26	24.068
630.59	24.180
630.92	23.463
631.25	25.403
631.58	24.294
631.91	24.274
632.24	25.072
