SpectraSuite Data File
++++++++++++++++++++++++++++++++++++
Date: Thu May 14 16:11:58 PDT 2015
User: schluterlab
Dark Spectrum Present: Yes
Reference Spectrum Present: Yes
Number of Sampled Component Spectra: 1
Spectrometers: USB2E3373
Integration Time (usec): 3000 (USB2E3373)
Spectra Averaged: 3 (USB2E3373)
Boxcar Smoothing: 0 (USB2E3373)
Correct for Electrical Dark: No (USB2E3373)
Strobe/Lamp Enabled: No (USB2E3373)
Correct for Detector Non-linearity: No (USB2E3373)
Correct for Stray Light: No (USB2E3373)
Number of Pixels in Processed Spectrum: 2048
>>>>>Begin Processed Spectral Data<<<<<
178.53	0.000
178.91	-57.143
179.29	-1200.000
179.67	0.000
180.04	114.286
180.42	10.000
180.80	220.000
181.18	-1000.000
181.56	200.000
181.94	300.000
182.31	-300.000
182.69	166.667
183.07	-250.000
183.45	225.000
183.83	-133.333
184.20	-266.667
184.58	1600.000
184.96	-325.000
185.34	-77.778
185.72	-120.000
186.09	144.444
186.47	100.000
186.85	200.000
187.23	-122.222
187.61	-1500.000
187.98	-0.000
188.36	225.000
188.74	-100.000
189.12	-433.333
189.49	-43.750
189.87	-125.000
190.25	0.000
190.63	-60.000
191.00	-155.556
191.38	0.000
191.76	-400.000
192.14	-200.000
192.51	850.000
192.89	183.333
193.27	0.000
193.65	-142.857
194.02	-1300.000
194.40	28.571
194.78	-0.000
195.15	0.000
195.53	54.545
195.91	0.000
196.29	-275.000
196.66	-15.385
197.04	-1600.000
197.42	-100.000
197.79	-800.000
198.17	-50.000
198.55	-142.857
198.92	0.000
199.30	-100.000
199.68	0.000
200.05	0.000
200.43	300.000
200.81	128.571
201.18	0.000
201.56	77.778
201.94	0.000
202.31	100.000
202.69	-88.889
203.07	600.000
203.44	-22.222
203.82	-350.000
204.19	0.000
204.57	-100.000
204.95	-150.000
205.32	-1000.000
205.70	200.000
206.08	-16.667
206.45	-83.333
206.83	560.000
207.20	0.000
207.58	-360.000
207.96	-166.667
208.33	50.000
208.71	100.000
209.08	116.667
209.46	0.000
209.84	316.667
210.21	-0.000
210.59	600.000
210.96	466.667
211.34	-75.000
211.71	-150.000
212.09	-100.000
212.46	0.000
212.84	900.000
213.22	-140.000
213.59	-200.000
213.97	-50.000
214.34	-233.333
214.72	283.333
215.09	-350.000
215.47	0.000
215.84	-114.286
216.22	550.000
216.59	-100.000
216.97	-160.000
217.34	-125.000
217.72	87.500
218.09	-150.000
218.47	-175.000
218.84	0.000
219.22	260.000
219.59	-47.059
219.97	15.000
220.34	1000.000
220.72	-55.556
221.09	15.385
221.47	-133.333
221.84	20.000
222.22	-85.714
222.59	0.000
222.97	12.500
223.34	-140.000
223.72	-900.000
224.09	-200.000
224.46	-275.000
224.84	-140.000
225.21	-128.571
225.59	-525.000
225.96	-200.000
226.34	-15.385
226.71	300.000
227.08	-400.000
227.46	-26.667
227.83	-225.000
228.21	0.000
228.58	112.500
228.95	850.000
229.33	-8.333
229.70	-30.000
230.08	15.789
230.45	70.000
230.82	-266.667
231.20	-57.143
231.57	-125.000
231.95	-109.091
232.32	-63.636
232.69	-35.000
233.07	-100.000
233.44	-88.235
233.81	-80.000
234.19	5.556
234.56	4.545
234.93	0.000
235.31	-15.789
235.68	-16.667
236.05	-95.000
236.43	23.077
236.80	8.000
237.17	0.000
237.55	-24.242
237.92	-160.000
238.29	29.032
238.67	-6.818
239.04	-5.556
239.41	-21.429
239.79	-17.391
240.16	9.259
240.53	-4.348
240.91	-13.725
241.28	-19.672
241.65	13.433
242.02	6.757
242.40	-13.846
242.77	-9.333
243.14	-14.634
243.51	-10.526
243.89	-15.385
244.26	6.931
244.63	-3.922
245.00	8.411
245.38	6.140
245.75	2.655
246.12	9.524
246.49	-1.550
246.87	3.571
247.24	3.974
247.61	5.263
247.98	0.671
248.36	6.173
248.73	-3.681
249.10	-0.546
249.47	7.463
249.84	6.283
250.22	1.036
250.59	2.222
250.96	7.727
251.33	-3.061
251.70	4.701
252.08	5.833
252.45	5.738
252.82	3.306
253.19	5.078
253.56	6.084
253.94	4.231
254.31	5.303
254.68	11.189
255.05	6.189
255.42	4.422
255.79	2.589
256.16	10.265
256.54	3.642
256.91	4.590
257.28	2.951
257.65	3.185
258.02	3.540
258.39	7.123
258.76	12.232
259.14	6.322
259.51	4.611
259.88	2.833
260.25	4.167
260.62	7.397
260.99	10.656
261.36	8.043
261.73	4.775
262.10	7.692
262.47	4.826
262.85	9.848
263.22	5.455
263.59	2.632
263.96	4.859
264.33	4.859
264.70	7.901
265.07	8.592
265.44	9.297
265.81	3.241
266.18	7.029
266.55	6.473
266.92	5.239
267.29	6.783
267.66	6.208
268.03	4.367
268.40	5.219
268.77	4.784
269.14	5.066
269.51	7.018
269.88	6.762
270.25	9.256
270.62	6.962
270.99	8.889
271.36	6.931
271.73	8.055
272.10	7.014
272.47	6.212
272.84	7.631
273.21	8.417
273.58	7.258
273.95	6.154
274.32	3.992
274.69	5.609
275.06	6.960
275.43	7.209
275.80	8.113
276.17	5.370
276.54	5.224
276.91	5.546
277.28	6.691
277.65	7.002
278.02	6.066
278.39	6.703
278.76	6.151
279.13	6.383
279.50	8.935
279.87	7.156
280.23	6.514
280.60	6.780
280.97	7.566
281.34	7.131
281.71	8.460
282.08	9.302
282.45	5.728
282.82	4.867
283.19	5.816
283.56	5.574
283.92	7.057
284.29	8.215
284.66	6.404
285.03	4.647
285.40	6.801
285.77	5.882
286.14	8.092
286.51	5.784
286.87	5.055
287.24	6.476
287.61	5.381
287.98	6.042
288.35	6.065
288.72	5.769
289.08	7.613
289.45	5.473
289.82	6.476
290.19	4.023
290.56	7.746
290.93	5.991
291.29	7.713
291.66	5.234
292.03	4.478
292.40	6.122
292.77	7.143
293.13	5.548
293.50	4.862
293.87	5.772
294.24	6.667
294.60	6.574
294.97	4.832
295.34	6.146
295.71	4.288
296.08	4.393
296.44	5.270
296.81	5.238
297.18	3.861
297.55	5.542
297.91	4.626
298.28	4.976
298.65	6.421
299.02	5.431
299.38	5.263
299.75	5.491
300.12	5.208
300.48	6.682
300.85	5.962
301.22	7.047
301.59	5.251
301.95	5.876
302.32	7.222
302.69	5.148
303.05	6.094
303.42	6.098
303.79	5.938
304.15	6.309
304.52	5.497
304.89	4.398
305.25	6.004
305.62	5.852
305.99	6.392
306.35	5.343
306.72	7.859
307.09	5.990
307.45	6.211
307.82	6.963
308.19	5.651
308.55	7.715
308.92	6.524
309.29	6.897
309.65	6.140
310.02	6.238
310.38	7.382
310.75	8.058
311.12	7.383
311.48	7.234
311.85	6.743
312.22	8.159
312.58	7.700
312.95	7.361
313.31	8.582
313.68	8.974
314.05	9.033
314.41	9.654
314.78	9.537
315.14	10.254
315.51	10.803
315.87	9.811
316.24	11.416
316.61	11.012
316.97	11.403
317.34	10.317
317.70	12.576
318.07	11.993
318.43	13.776
318.80	14.130
319.16	12.704
319.53	12.596
319.89	13.672
320.26	14.235
320.62	13.298
320.99	15.697
321.35	14.972
321.72	15.535
322.08	14.247
322.45	15.086
322.81	16.245
323.18	16.903
323.54	17.241
323.91	17.349
324.27	17.212
324.64	17.968
325.00	18.325
325.37	17.854
325.73	18.017
326.10	19.140
326.46	18.811
326.83	20.737
327.19	18.898
327.56	20.553
327.92	18.725
328.29	20.242
328.65	19.514
329.01	19.036
329.38	20.809
329.74	20.548
330.11	20.205
330.47	20.977
330.84	20.327
331.20	20.333
331.56	20.711
331.93	21.339
332.29	20.932
332.66	21.013
333.02	20.854
333.38	20.721
333.75	20.707
334.11	22.018
334.48	20.380
334.84	22.345
335.20	21.327
335.57	21.079
335.93	21.983
336.29	19.468
336.66	20.269
337.02	20.318
337.38	20.833
337.75	19.339
338.11	20.606
338.47	20.265
338.84	20.728
339.20	20.388
339.56	19.852
339.93	21.182
340.29	20.129
340.65	21.006
341.02	20.591
341.38	20.857
341.74	20.097
342.11	18.262
342.47	19.380
342.83	20.209
343.20	20.114
343.56	19.006
343.92	20.496
344.28	20.000
344.65	20.543
345.01	19.969
345.37	19.285
345.73	19.174
346.10	19.423
346.46	18.513
346.82	19.551
347.19	19.481
347.55	19.423
347.91	19.094
348.27	19.044
348.63	19.878
349.00	18.643
349.36	19.554
349.72	18.601
350.08	18.722
350.45	19.011
350.81	19.306
351.17	19.248
351.53	17.817
351.89	19.134
352.26	18.134
352.62	18.731
352.98	19.084
353.34	18.223
353.70	19.414
354.07	18.480
354.43	18.451
354.79	16.978
355.15	17.881
355.51	18.348
355.87	16.904
356.24	18.555
356.60	17.886
356.96	17.939
357.32	17.621
357.68	17.716
358.04	17.889
358.40	17.388
358.77	17.617
359.13	17.134
359.49	16.654
359.85	17.912
360.21	18.364
360.57	16.152
360.93	17.489
361.29	17.404
361.66	17.741
362.02	18.789
362.38	17.006
362.74	16.969
363.10	17.469
363.46	17.729
363.82	17.045
364.18	18.086
364.54	17.635
364.90	17.860
365.26	16.897
365.62	17.933
365.98	17.155
366.35	16.711
366.71	16.054
367.07	16.576
367.43	17.597
367.79	17.054
368.15	16.656
368.51	16.915
368.87	16.917
369.23	16.800
369.59	17.145
369.95	17.512
370.31	17.353
370.67	16.231
371.03	16.343
371.39	16.185
371.75	16.231
372.11	16.870
372.47	16.520
372.83	16.885
373.19	16.411
373.55	16.396
373.91	15.815
374.27	16.818
374.63	15.765
374.99	15.650
375.35	16.753
375.71	15.613
376.07	16.139
376.42	15.743
376.78	16.781
377.14	16.407
377.50	16.319
377.86	16.441
378.22	15.988
378.58	16.706
378.94	15.845
379.30	16.403
379.66	17.166
380.02	15.522
380.38	16.763
380.74	16.507
381.09	15.912
381.45	16.534
381.81	16.335
382.17	15.321
382.53	15.965
382.89	15.914
383.25	15.768
383.61	14.873
383.97	15.018
384.32	15.849
384.68	15.371
385.04	15.905
385.40	16.087
385.76	15.475
386.12	15.859
386.48	15.588
386.83	15.912
387.19	16.744
387.55	15.258
387.91	15.468
388.27	16.166
388.62	15.407
388.98	14.721
389.34	15.910
389.70	15.979
390.06	15.394
390.42	15.843
390.77	15.834
391.13	15.317
391.49	16.606
391.85	14.788
392.20	16.192
392.56	15.653
392.92	15.594
393.28	15.257
393.64	14.302
393.99	16.618
394.35	15.537
394.71	15.090
395.07	14.790
395.42	14.335
395.78	15.174
396.14	15.270
396.50	14.846
396.85	15.265
397.21	15.148
397.57	14.605
397.92	15.464
398.28	14.775
398.64	15.103
399.00	14.293
399.35	14.712
399.71	13.967
400.07	15.104
400.42	15.716
400.78	15.104
401.14	14.798
401.49	14.952
401.85	14.942
402.21	15.006
402.57	15.200
402.92	14.894
403.28	14.403
403.63	13.425
403.99	14.311
404.35	14.724
404.70	14.674
405.06	14.022
405.42	14.403
405.77	14.995
406.13	15.127
406.49	14.020
406.84	14.903
407.20	13.918
407.55	14.234
407.91	13.953
408.27	14.782
408.62	14.776
408.98	14.568
409.34	14.076
409.69	13.412
410.05	14.654
410.40	14.965
410.76	15.087
411.11	15.020
411.47	14.251
411.83	14.815
412.18	14.578
412.54	14.345
412.89	15.076
413.25	14.278
413.60	13.785
413.96	14.569
414.31	14.221
414.67	14.252
415.03	14.092
415.38	15.385
415.74	14.722
416.09	14.991
416.45	14.590
416.80	13.892
417.16	14.496
417.51	14.944
417.87	14.592
418.22	14.311
418.58	14.436
418.93	14.668
419.29	14.858
419.64	14.826
420.00	13.887
420.35	14.318
420.71	13.957
421.06	13.571
421.42	14.679
421.77	13.732
422.12	14.323
422.48	14.439
422.83	14.020
423.19	14.271
423.54	14.215
423.90	13.915
424.25	14.453
424.61	13.835
424.96	13.839
425.31	14.756
425.67	14.224
426.02	15.053
426.38	14.237
426.73	14.509
427.09	15.110
427.44	14.364
427.79	13.875
428.15	13.984
428.50	13.596
428.85	13.720
429.21	14.681
429.56	13.524
429.92	14.103
430.27	14.169
430.62	14.802
430.98	14.068
431.33	13.636
431.68	14.128
432.04	14.017
432.39	14.355
432.74	13.470
433.10	14.657
433.45	13.545
433.80	14.646
434.16	14.773
434.51	15.005
434.86	14.658
435.22	14.665
435.57	14.741
435.92	13.856
436.28	14.164
436.63	14.364
436.98	13.956
437.34	14.487
437.69	13.869
438.04	14.172
438.39	13.900
438.75	14.278
439.10	15.381
439.45	14.533
439.81	13.842
440.16	14.209
440.51	14.939
440.86	13.897
441.22	13.719
441.57	14.727
441.92	13.434
442.27	13.889
442.63	14.059
442.98	14.835
443.33	14.256
443.68	14.866
444.03	15.005
444.39	14.193
444.74	14.906
445.09	14.597
445.44	14.542
445.79	13.985
446.15	14.337
446.50	14.005
446.85	14.494
447.20	14.507
447.55	14.278
447.91	13.822
448.26	14.165
448.61	14.240
448.96	15.236
449.31	14.369
449.66	13.235
450.02	14.979
450.37	15.184
450.72	14.263
451.07	13.781
451.42	13.865
451.77	13.341
452.12	14.052
452.47	14.141
452.83	14.865
453.18	14.011
453.53	14.187
453.88	14.688
454.23	13.955
454.58	14.452
454.93	13.714
455.28	13.245
455.63	14.269
455.98	14.413
456.34	13.781
456.69	14.168
457.04	14.007
457.39	13.858
457.74	14.094
458.09	13.619
458.44	14.709
458.79	13.306
459.14	13.844
459.49	14.148
459.84	14.166
460.19	13.048
460.54	13.969
460.89	13.764
461.24	13.333
461.59	14.278
461.94	13.234
462.29	14.110
462.64	13.881
462.99	13.497
463.34	13.563
463.69	14.068
464.04	14.286
464.39	14.013
464.74	13.569
465.09	14.014
465.44	13.251
465.79	14.172
466.14	13.080
466.49	13.632
466.84	13.333
467.19	14.104
467.54	12.867
467.89	13.333
468.24	14.017
468.59	12.855
468.94	12.704
469.29	13.077
469.64	13.223
469.99	13.448
470.34	13.366
470.68	14.012
471.03	13.752
471.38	13.146
471.73	12.744
472.08	13.388
472.43	14.028
472.78	14.358
473.13	12.769
473.48	13.474
473.83	13.523
474.17	13.365
474.52	13.349
474.87	13.178
475.22	13.014
475.57	13.759
475.92	13.191
476.27	13.259
476.61	12.721
476.96	13.191
477.31	13.465
477.66	13.903
478.01	12.964
478.36	13.011
478.70	13.399
479.05	13.190
479.40	13.179
479.75	13.112
480.10	13.122
480.45	12.534
480.79	13.424
481.14	13.235
481.49	12.676
481.84	13.359
482.19	13.720
482.53	13.380
482.88	13.203
483.23	12.761
483.58	12.620
483.92	12.589
484.27	13.040
484.62	12.995
484.97	13.297
485.31	12.179
485.66	12.503
486.01	11.782
486.36	12.215
486.70	12.829
487.05	12.460
487.40	12.468
487.75	12.672
488.09	12.595
488.44	12.762
488.79	12.782
489.13	12.744
489.48	12.233
489.83	12.354
490.17	12.596
490.52	12.562
490.87	12.817
491.22	12.565
491.56	12.969
491.91	12.909
492.26	12.678
492.60	12.505
492.95	12.988
493.30	12.909
493.64	11.870
493.99	12.500
494.34	12.021
494.68	11.906
495.03	12.775
495.37	13.005
495.72	12.517
496.07	12.226
496.41	11.669
496.76	12.636
497.11	12.144
497.45	12.041
497.80	12.217
498.14	11.474
498.49	12.086
498.84	12.431
499.18	12.281
499.53	12.556
499.87	12.484
500.22	12.289
500.56	12.641
500.91	12.220
501.26	11.955
501.60	11.357
501.95	12.549
502.29	12.242
502.64	11.937
502.98	11.907
503.33	12.138
503.67	11.688
504.02	11.602
504.36	12.109
504.71	11.667
505.06	11.915
505.40	11.974
505.75	12.204
506.09	11.971
506.44	11.792
506.78	12.248
507.13	12.310
507.47	12.222
507.82	11.884
508.16	11.855
508.51	11.580
508.85	11.715
509.19	11.795
509.54	12.056
509.88	12.190
510.23	11.802
510.57	12.470
510.92	11.756
511.26	11.207
511.61	10.864
511.95	11.664
512.30	12.408
512.64	11.394
512.98	11.556
513.33	11.694
513.67	11.882
514.02	12.008
514.36	11.560
514.70	11.823
515.05	11.783
515.39	11.811
515.74	11.612
516.08	11.992
516.42	12.350
516.77	11.619
517.11	11.294
517.46	11.612
517.80	11.758
518.14	12.568
518.49	11.985
518.83	11.655
519.17	10.824
519.52	11.897
519.86	11.721
520.20	11.821
520.55	11.172
520.89	11.205
521.23	12.116
521.58	11.017
521.92	11.615
522.26	11.455
522.61	10.475
522.95	11.649
523.29	11.149
523.64	11.099
523.98	11.865
524.32	11.748
524.66	11.383
525.01	11.382
525.35	10.741
525.69	11.369
526.04	11.366
526.38	10.460
526.72	11.361
527.06	11.144
527.41	10.904
527.75	11.105
528.09	10.980
528.43	11.249
528.78	11.272
529.12	10.780
529.46	11.017
529.80	11.156
530.15	10.435
530.49	10.202
530.83	10.980
531.17	10.155
531.51	11.011
531.86	11.659
532.20	11.341
532.54	11.490
532.88	11.818
533.22	11.432
533.57	11.079
533.91	11.167
534.25	10.967
534.59	11.092
534.93	10.243
535.27	10.592
535.62	10.915
535.96	10.866
536.30	10.223
536.64	11.411
536.98	11.070
537.32	11.790
537.66	10.543
538.01	10.755
538.35	10.171
538.69	9.796
539.03	11.711
539.37	11.366
539.71	10.631
540.05	10.911
540.39	9.963
540.73	9.957
541.07	11.220
541.42	9.333
541.76	10.024
542.10	10.314
542.44	10.110
542.78	9.793
543.12	10.369
543.46	11.172
543.80	10.432
544.14	10.413
544.48	10.579
544.82	10.712
545.16	10.376
545.50	9.766
545.84	10.104
546.18	11.728
546.52	9.936
546.86	10.440
547.20	9.796
547.54	10.175
547.88	10.247
548.22	10.526
548.56	10.474
548.90	10.925
549.24	10.030
549.58	10.347
549.92	9.821
550.26	10.809
550.60	9.892
550.94	10.737
551.28	10.033
551.62	10.243
551.96	10.227
552.30	11.345
552.64	9.894
552.98	10.605
553.32	10.289
553.66	10.225
554.00	10.719
554.34	9.653
554.68	10.006
555.02	9.987
555.36	11.374
555.69	8.905
556.03	9.395
556.37	10.263
556.71	9.956
557.05	10.607
557.39	9.423
557.73	10.634
558.07	9.868
558.41	10.698
558.75	9.466
559.08	11.065
559.42	9.328
559.76	10.176
560.10	9.511
560.44	9.763
560.78	9.688
561.12	9.729
561.45	10.219
561.79	10.501
562.13	9.612
562.47	9.618
562.81	10.063
563.15	10.417
563.48	10.006
563.82	10.218
564.16	9.570
564.50	9.714
564.84	9.735
565.17	9.706
565.51	8.861
565.85	9.561
566.19	8.698
566.52	9.070
566.86	10.187
567.20	8.755
567.54	9.772
567.88	9.480
568.21	9.091
568.55	9.784
568.89	9.623
569.23	9.463
569.56	9.222
569.90	9.800
570.24	9.005
570.57	9.044
570.91	8.757
571.25	9.025
571.59	9.212
571.92	8.689
572.26	8.947
572.60	8.927
572.93	9.129
573.27	9.216
573.61	9.105
573.95	9.056
574.28	8.760
574.62	8.845
574.96	8.491
575.29	8.636
575.63	8.616
575.97	8.695
576.30	8.956
576.64	8.614
576.98	8.952
577.31	9.155
577.65	8.811
577.98	8.678
578.32	8.476
578.66	8.745
578.99	8.622
579.33	8.737
579.67	8.522
580.00	8.429
580.34	8.726
580.67	8.628
581.01	8.568
581.35	8.377
581.68	8.784
582.02	8.811
582.35	8.533
582.69	8.638
583.02	8.671
583.36	8.729
583.70	8.657
584.03	8.639
584.37	8.294
584.70	8.386
585.04	8.417
585.37	8.595
585.71	8.630
586.04	8.410
586.38	8.496
586.72	8.574
587.05	8.596
587.39	8.427
587.72	8.230
588.06	8.777
588.39	8.663
588.73	8.677
589.06	8.804
589.40	8.175
589.73	8.676
590.07	8.786
590.40	9.297
590.73	8.448
591.07	8.861
591.40	8.865
591.74	8.466
592.07	9.054
592.41	8.596
592.74	8.200
593.08	8.885
593.41	8.953
593.75	8.420
594.08	8.876
594.41	8.590
594.75	8.602
595.08	7.974
595.42	8.247
595.75	8.880
596.09	9.251
596.42	8.420
596.75	8.838
597.09	8.444
597.42	9.098
597.75	9.212
598.09	8.532
598.42	8.967
598.76	7.795
599.09	9.042
599.42	8.951
599.76	8.386
600.09	8.675
600.42	8.408
600.76	8.520
601.09	8.463
601.42	8.136
601.76	8.310
602.09	8.327
602.42	8.070
602.76	8.487
603.09	8.333
603.42	8.345
603.76	8.175
604.09	8.872
604.42	8.587
604.76	8.447
605.09	8.536
605.42	8.892
605.75	8.346
606.09	7.951
606.42	7.807
606.75	7.909
607.09	7.949
607.42	8.170
607.75	8.597
608.08	8.524
608.42	8.585
608.75	8.458
609.08	8.744
609.41	7.719
609.75	8.393
610.08	7.432
610.41	8.879
610.74	8.319
611.07	8.348
611.41	8.789
611.74	8.499
612.07	8.228
612.40	8.365
612.73	8.606
613.07	8.802
613.40	8.710
613.73	9.196
614.06	8.587
614.39	8.941
614.72	7.860
615.06	7.940
615.39	7.540
615.72	9.005
616.05	8.062
616.38	8.325
616.71	8.359
617.05	8.147
617.38	8.989
617.71	8.369
618.04	8.851
618.37	8.907
618.70	9.219
619.03	7.766
619.36	8.138
619.69	8.264
620.03	8.349
620.36	9.080
620.69	9.315
621.02	8.005
621.35	8.200
621.68	8.894
622.01	9.395
622.34	8.647
622.67	8.660
623.00	7.220
623.33	8.560
623.66	9.144
623.99	8.361
624.32	9.227
624.65	9.266
624.99	8.713
625.32	9.014
625.65	9.171
625.98	8.746
626.31	8.221
626.64	9.084
626.97	8.852
627.30	7.821
627.63	7.877
627.96	9.309
628.29	9.183
628.62	8.564
628.95	9.378
629.28	7.392
629.61	8.502
629.94	8.368
630.26	7.542
630.59	8.722
630.92	8.052
631.25	9.123
631.58	8.945
631.91	8.716
632.24	8.357
632.57	8.634
632.90	8.927
633.23	9.286
633.56	8.571
633.89	9.091
634.22	9.356
634.55	9.603
634.88	8.333
635.20	10.226
635.53	9.266
635.86	8.342
636.19	10.180
636.52	9.705
636.85	9.091
637.18	9.148
637.51	8.065
637.83	9.745
638.16	8.410
638.49	7.746
638.82	8.681
639.15	9.507
639.48	8.545
639.81	10.277
640.13	8.363
640.46	6.061
640.79	7.966
641.12	9.441
641.45	9.034
641.77	10.141
642.10	8.530
642.43	9.973
