SpectraSuite Data File
++++++++++++++++++++++++++++++++++++
Date: Thu May 14 16:21:30 PDT 2015
User: schluterlab
Dark Spectrum Present: Yes
Reference Spectrum Present: Yes
Number of Sampled Component Spectra: 1
Spectrometers: USB2E3373
Integration Time (usec): 3000 (USB2E3373)
Spectra Averaged: 3 (USB2E3373)
Boxcar Smoothing: 0 (USB2E3373)
Correct for Electrical Dark: No (USB2E3373)
Strobe/Lamp Enabled: No (USB2E3373)
Correct for Detector Non-linearity: No (USB2E3373)
Correct for Stray Light: No (USB2E3373)
Number of Pixels in Processed Spectrum: 2048
>>>>>Begin Processed Spectral Data<<<<<
178.53	0.000
178.91	128.571
179.29	-700.000
179.67	-1000.000
180.04	128.571
180.42	60.000
180.80	60.000
181.18	-500.000
181.56	800.000
181.94	175.000
182.31	-175.000
182.69	333.333
183.07	-100.000
183.45	400.000
183.83	-100.000
184.20	-366.667
184.58	200.000
184.96	50.000
185.34	-77.778
185.72	-80.000
186.09	211.111
186.47	550.000
186.85	280.000
187.23	-144.444
187.61	-1000.000
187.98	-40.000
188.36	100.000
188.74	25.000
189.12	-166.667
189.49	31.250
189.87	0.000
190.25	-122.222
190.63	40.000
191.00	-55.556
191.38	0.000
191.76	-150.000
192.14	-100.000
192.51	400.000
192.89	-50.000
193.27	0.000
193.65	-14.286
194.02	-1300.000
194.40	42.857
194.78	71.429
195.15	0.000
195.53	0.000
195.91	0.000
196.29	-125.000
196.66	-15.385
197.04	-800.000
197.42	-85.714
197.79	-300.000
198.17	25.000
198.55	-71.429
198.92	-33.333
199.30	-25.000
199.68	-18.182
200.05	-57.143
200.43	-550.000
200.81	185.714
201.18	0.000
201.56	155.556
201.94	0.000
202.31	400.000
202.69	-233.333
203.07	1100.000
203.44	-33.333
203.82	-225.000
204.19	-16.667
204.57	-66.667
204.95	-75.000
205.32	100.000
205.70	75.000
206.08	-216.667
206.45	-100.000
206.83	440.000
207.20	-100.000
207.58	-240.000
207.96	-100.000
208.33	16.667
208.71	91.667
209.08	-33.333
209.46	0.000
209.84	200.000
210.21	300.000
210.59	250.000
210.96	533.333
211.34	-100.000
211.71	-162.500
212.09	-800.000
212.46	0.000
212.84	1000.000
213.22	-240.000
213.59	0.000
213.97	-30.000
214.34	-166.667
214.72	200.000
215.09	-425.000
215.47	0.000
215.84	-85.714
216.22	1000.000
216.59	20.000
216.97	0.000
217.34	-175.000
217.72	-50.000
218.09	-175.000
218.47	-125.000
218.84	0.000
219.22	180.000
219.59	-11.765
219.97	30.000
220.34	600.000
220.72	-33.333
221.09	7.692
221.47	-200.000
221.84	-100.000
222.22	-200.000
222.59	0.000
222.97	-12.500
223.34	-240.000
223.72	-1300.000
224.09	-100.000
224.46	-200.000
224.84	-20.000
225.21	-171.429
225.59	-50.000
225.96	-250.000
226.34	-19.231
226.71	316.667
227.08	-50.000
227.46	-53.333
227.83	-450.000
228.21	10.526
228.58	150.000
228.95	-0.000
229.33	-25.000
229.70	-50.000
230.08	73.684
230.45	10.000
230.82	0.000
231.20	28.571
231.57	50.000
231.95	-72.727
232.32	72.727
232.69	10.000
233.07	-275.000
233.44	-70.588
233.81	-70.000
234.19	38.889
234.56	13.636
234.93	48.276
235.31	-42.105
235.68	-22.222
236.05	-55.000
236.43	3.846
236.80	12.000
237.17	0.000
237.55	-21.212
237.92	10.000
238.29	6.452
238.67	-22.727
239.04	-27.778
239.41	-4.762
239.79	-19.565
240.16	5.556
240.53	8.696
240.91	-19.608
241.28	3.279
241.65	1.493
242.02	13.514
242.40	-9.231
242.77	2.667
243.14	-7.317
243.51	-9.211
243.89	-8.974
244.26	0.990
244.63	11.765
245.00	0.935
245.38	-0.877
245.75	-9.735
246.12	0.794
246.49	-0.775
246.87	12.857
247.24	7.947
247.61	3.289
247.98	4.027
248.36	0.617
248.73	-3.067
249.10	-3.825
249.47	11.940
249.84	13.613
250.22	10.881
250.59	6.667
250.96	5.455
251.33	3.571
251.70	5.556
252.08	4.167
252.45	8.197
252.82	6.612
253.19	4.687
253.56	9.506
253.94	1.923
254.31	9.091
254.68	9.790
255.05	9.446
255.42	7.143
255.79	3.883
256.16	4.636
256.54	5.629
256.91	7.869
257.28	4.262
257.65	5.096
258.02	6.490
258.39	5.983
258.76	9.786
259.14	9.483
259.51	8.069
259.88	7.365
260.25	6.944
260.62	8.493
260.99	8.743
261.36	7.775
261.73	7.958
262.10	9.341
262.47	6.702
262.85	8.838
263.22	4.935
263.59	5.526
263.96	5.627
264.33	6.138
264.70	5.432
265.07	7.160
265.44	9.297
265.81	7.639
266.18	5.442
266.55	7.366
266.92	6.834
267.29	9.847
267.66	6.874
268.03	7.424
268.40	8.351
268.77	5.239
269.14	5.947
269.51	7.675
269.88	9.221
270.25	7.646
270.62	8.861
270.99	9.697
271.36	7.921
271.73	7.859
272.10	8.818
272.47	10.020
272.84	7.028
273.21	8.617
273.58	6.653
273.95	6.923
274.32	6.654
274.69	4.255
275.06	7.143
275.43	6.470
275.80	8.289
276.17	6.111
276.54	7.649
276.91	7.871
277.28	6.691
277.65	7.181
278.02	7.353
278.39	6.703
278.76	6.503
279.13	6.028
279.50	7.732
279.87	8.229
280.23	7.042
280.60	7.458
280.97	8.882
281.34	4.924
281.71	7.783
282.08	6.645
282.45	5.728
282.82	7.692
283.19	5.008
283.56	6.393
283.92	10.210
284.29	7.741
284.66	8.210
285.03	5.449
285.40	6.801
285.77	6.656
286.14	7.634
286.51	7.610
286.87	7.741
287.24	8.133
287.61	7.324
287.98	7.553
288.35	6.509
288.72	6.213
289.08	8.053
289.45	5.769
289.82	5.723
290.19	5.891
290.56	8.310
290.93	7.703
291.29	6.887
291.66	6.887
292.03	6.513
292.40	7.891
292.77	6.604
293.13	7.713
293.50	5.913
293.87	6.577
294.24	7.333
294.60	7.332
294.97	5.772
295.34	7.554
295.71	6.305
296.08	6.331
296.44	6.863
296.81	6.334
297.18	6.102
297.55	5.071
297.91	5.931
298.28	6.280
298.65	7.015
299.02	5.549
299.38	6.979
299.75	6.308
300.12	6.829
300.48	7.028
300.85	6.749
301.22	6.264
301.59	5.708
301.95	6.102
302.32	6.778
302.69	5.696
303.05	6.529
303.42	6.652
303.79	6.667
304.15	6.414
304.52	5.920
304.89	6.597
305.25	6.108
305.62	6.479
305.99	7.320
306.35	6.452
306.72	6.722
307.09	7.005
307.45	6.729
307.82	6.761
308.19	6.761
308.55	7.522
308.92	6.913
309.29	9.291
309.65	7.310
310.02	7.327
310.38	6.791
310.75	8.544
311.12	8.341
311.48	8.504
311.85	8.737
312.22	7.875
312.58	8.826
312.95	7.935
313.31	9.575
313.68	9.524
314.05	10.208
314.41	10.474
314.78	10.263
315.14	10.708
315.51	10.157
315.87	10.351
316.24	11.781
316.61	12.611
316.97	11.403
317.34	11.287
317.70	12.314
318.07	12.522
318.43	13.350
318.80	14.548
319.16	12.618
319.53	13.025
319.89	12.708
320.26	15.391
320.62	13.830
320.99	14.958
321.35	15.619
321.72	17.116
322.08	15.059
322.45	17.073
322.81	17.509
323.18	17.522
323.54	18.448
323.91	20.463
324.27	19.880
324.64	21.914
325.00	20.398
325.37	22.523
325.73	22.562
326.10	24.006
326.46	23.941
326.83	24.099
327.19	24.724
327.56	24.901
327.92	25.570
328.29	26.048
328.65	26.466
329.01	27.665
329.38	27.970
329.74	28.596
330.11	27.911
330.47	28.728
330.84	28.768
331.20	30.083
331.56	28.683
331.93	29.540
332.29	29.492
332.66	30.482
333.02	29.062
333.38	29.950
333.75	29.966
334.11	31.276
334.48	31.518
334.84	30.331
335.20	31.066
335.57	31.366
335.93	30.579
336.29	30.200
336.66	30.614
337.02	31.940
337.38	32.228
337.75	31.736
338.11	31.539
338.47	30.438
338.84	31.641
339.20	30.666
339.56	30.066
339.93	30.706
340.29	30.998
340.65	31.792
341.02	31.844
341.38	32.821
341.74	31.961
342.11	31.939
342.47	31.136
342.83	32.931
343.20	33.034
343.56	32.398
343.92	32.986
344.28	31.719
344.65	32.636
345.01	31.825
345.37	32.737
345.73	31.255
346.10	33.151
346.46	31.487
346.82	33.483
347.19	32.086
347.55	32.018
347.91	32.021
348.27	33.156
348.63	31.683
349.00	32.066
349.36	31.822
349.72	31.622
350.08	32.541
350.45	31.255
350.81	31.825
351.17	32.030
351.53	33.586
351.89	32.878
352.26	32.015
352.62	33.060
352.98	31.985
353.34	31.068
353.70	33.436
354.07	32.936
354.43	32.726
354.79	32.984
355.15	31.567
355.51	33.406
355.87	32.012
356.24	33.232
356.60	32.077
356.96	32.839
357.32	31.970
357.68	31.406
358.04	32.560
358.40	32.687
358.77	33.772
359.13	32.349
359.49	31.747
359.85	32.922
360.21	32.855
360.57	33.022
360.93	32.299
361.29	32.702
361.66	33.454
362.02	33.681
362.38	33.942
362.74	33.101
363.10	34.319
363.46	33.310
363.82	34.375
364.18	33.286
364.54	34.025
364.90	33.311
365.26	34.276
365.62	35.200
365.98	33.833
366.35	33.289
366.71	34.286
367.07	32.747
367.43	32.567
367.79	33.510
368.15	35.452
368.51	33.424
368.87	33.181
369.23	34.000
369.59	34.836
369.95	33.874
370.31	34.301
370.67	34.113
371.03	33.380
371.39	32.102
371.75	33.425
372.11	34.892
372.47	33.040
372.83	34.097
373.19	33.756
373.55	33.198
373.91	33.742
374.27	34.929
374.63	34.777
374.99	34.019
375.35	34.740
375.71	34.645
376.07	33.570
376.42	34.131
376.78	33.934
377.14	33.624
377.50	34.598
377.86	34.667
378.22	35.090
378.58	33.769
378.94	33.803
379.30	34.036
379.66	35.215
380.02	34.622
380.38	34.274
380.74	34.197
381.09	34.727
381.45	33.750
381.81	33.665
382.17	33.670
382.53	34.152
382.89	34.199
383.25	34.291
383.61	34.375
383.97	33.687
384.32	35.347
384.68	34.455
385.04	35.396
385.40	35.180
385.76	34.174
386.12	33.393
386.48	36.000
386.83	35.042
387.19	33.662
387.55	34.800
387.91	34.132
388.27	34.642
388.62	33.963
388.98	33.446
389.34	34.944
389.70	34.573
390.06	34.754
390.42	33.675
390.77	33.715
391.13	33.979
391.49	34.360
391.85	33.697
392.20	33.808
392.56	34.613
392.92	34.242
393.28	34.605
393.64	33.520
393.99	34.980
394.35	33.703
394.71	34.192
395.07	34.072
395.42	33.695
395.78	34.247
396.14	34.997
396.50	34.561
396.85	34.109
397.21	33.905
397.57	34.393
397.92	33.677
398.28	33.188
398.64	33.295
399.00	33.298
399.35	33.613
399.71	33.859
400.07	34.138
400.42	34.517
400.78	33.970
401.14	33.523
401.49	33.997
401.85	34.419
402.21	34.647
402.57	34.918
402.92	33.038
403.28	32.787
403.63	32.995
403.99	33.907
404.35	33.428
404.70	33.258
405.06	33.587
405.42	32.904
405.77	33.969
406.13	33.333
406.49	33.953
406.84	33.850
407.20	33.426
407.55	32.405
407.91	33.564
408.27	32.273
408.62	33.508
408.98	32.966
409.34	31.613
409.69	33.807
410.05	34.115
410.40	34.339
410.76	33.371
411.11	33.197
411.47	33.108
411.83	33.216
412.18	32.952
412.54	32.365
412.89	33.411
413.25	32.957
413.60	32.855
413.96	33.159
414.31	32.521
414.67	33.095
415.03	32.923
415.38	33.354
415.74	32.682
416.09	33.683
416.45	31.997
416.80	32.375
417.16	33.333
417.51	32.752
417.87	33.292
418.22	32.874
418.58	32.466
418.93	33.586
419.29	32.861
419.64	32.533
420.00	32.997
420.35	33.801
420.71	31.993
421.06	32.317
421.42	33.257
421.77	31.987
422.12	32.822
422.48	32.104
422.83	33.187
423.19	32.414
423.54	33.352
423.90	31.640
424.25	33.547
424.61	33.639
424.96	32.949
425.31	33.227
425.67	32.689
426.02	33.038
426.38	33.352
426.73	34.040
427.09	34.660
427.44	31.786
427.79	32.670
428.15	33.219
428.50	32.809
428.85	33.123
429.21	33.457
429.56	32.577
429.92	33.219
430.27	32.819
430.62	32.438
430.98	32.956
431.33	32.551
431.68	32.711
432.04	33.469
432.39	33.155
432.74	33.219
433.10	33.207
433.45	32.330
433.80	33.369
434.16	32.800
434.51	33.864
434.86	33.605
435.22	33.156
435.57	33.726
435.92	33.278
436.28	33.390
436.63	34.080
436.98	33.280
437.34	33.258
437.69	32.251
438.04	33.369
438.39	33.314
438.75	33.536
439.10	33.457
439.45	32.700
439.81	33.503
440.16	32.922
440.51	34.058
440.86	32.462
441.22	33.548
441.57	34.329
441.92	33.851
442.27	32.828
442.63	33.532
442.98	33.458
443.33	33.456
443.68	34.589
444.03	34.760
444.39	34.027
444.74	33.946
445.09	33.502
445.44	33.298
445.79	33.812
446.15	34.635
446.50	33.437
446.85	34.339
447.20	33.801
447.55	33.421
447.91	33.403
448.26	33.457
448.61	34.006
448.96	34.335
449.31	33.404
449.66	32.680
450.02	33.492
450.37	33.617
450.72	33.531
451.07	33.770
451.42	33.102
451.77	32.963
452.12	34.142
452.47	32.799
452.83	33.727
453.18	33.217
453.53	34.061
453.88	32.634
454.23	33.107
454.58	33.314
454.93	32.585
455.28	33.353
455.63	33.485
455.98	32.849
456.34	33.333
456.69	33.510
457.04	33.747
457.39	33.537
457.74	33.389
458.09	33.169
458.44	32.866
458.79	31.924
459.14	33.246
459.49	33.673
459.84	33.158
460.19	32.537
460.54	33.674
460.89	33.245
461.24	33.276
461.59	33.204
461.94	31.774
462.29	33.147
462.64	32.891
462.99	32.831
463.34	32.901
463.69	32.708
464.04	33.852
464.39	33.352
464.74	32.440
465.09	31.546
465.44	33.369
465.79	32.628
466.14	31.214
466.49	32.263
466.84	32.672
467.19	33.988
467.54	31.962
467.89	32.011
468.24	32.687
468.59	32.137
468.94	31.527
469.29	31.374
469.64	32.804
469.99	32.505
470.34	32.673
470.68	32.331
471.03	32.613
471.38	32.897
471.73	32.510
472.08	33.503
472.43	33.534
472.78	32.620
473.13	32.933
473.48	32.205
473.83	32.618
474.17	31.653
474.52	32.712
474.87	32.337
475.22	32.845
475.57	32.139
475.92	31.160
476.27	31.789
476.61	31.568
476.96	31.126
477.31	33.020
477.66	32.791
478.01	31.978
478.36	31.904
478.70	32.266
479.05	33.333
479.40	31.935
479.75	31.796
480.10	32.165
480.45	31.723
480.79	31.791
481.14	31.112
481.49	31.940
481.84	32.332
482.19	32.430
482.53	31.701
482.88	31.812
483.23	31.836
483.58	31.616
483.92	31.206
484.27	31.372
484.62	31.601
484.97	31.610
485.31	30.553
485.66	29.490
486.01	28.680
486.36	29.175
486.70	30.812
487.05	30.824
487.40	30.996
487.75	31.094
488.09	31.023
488.44	31.042
488.79	31.366
489.13	31.028
489.48	30.524
489.83	31.308
490.17	30.863
490.52	29.680
490.87	31.261
491.22	30.763
491.56	31.570
491.91	30.571
492.26	30.679
492.60	31.657
492.95	31.505
493.30	31.152
493.64	31.318
493.99	30.833
494.34	30.183
494.68	30.535
495.03	30.264
495.37	31.070
495.72	30.794
496.07	30.631
496.41	30.888
496.76	30.484
497.11	30.658
497.45	30.211
497.80	30.697
498.14	30.567
498.49	30.515
498.84	30.941
499.18	30.274
499.53	30.359
499.87	30.374
500.22	30.766
500.56	30.094
500.91	29.931
501.26	31.182
501.60	29.651
501.95	30.091
502.29	30.847
502.64	30.214
502.98	29.292
503.33	29.460
503.67	29.917
504.02	29.203
504.36	30.161
504.71	30.409
505.06	28.695
505.40	29.616
505.75	29.463
506.09	29.190
506.44	29.480
506.78	30.092
507.13	29.184
507.47	30.033
507.82	30.066
508.16	29.254
508.51	29.255
508.85	29.948
509.19	30.128
509.54	30.403
509.88	29.917
510.23	29.237
510.57	30.063
510.92	29.076
511.26	29.678
511.61	28.489
511.95	29.380
512.30	29.591
512.64	28.386
512.98	29.315
513.33	29.587
513.67	29.526
514.02	29.382
514.36	30.077
514.70	29.115
515.05	30.813
515.39	28.924
515.74	29.745
516.08	28.896
516.42	30.141
516.77	29.495
517.11	29.448
517.46	29.480
517.80	30.358
518.14	29.434
518.49	29.989
518.83	29.164
519.17	28.810
519.52	28.774
519.86	29.409
520.20	28.914
520.55	29.737
520.89	29.392
521.23	29.927
521.58	29.774
521.92	28.839
522.26	29.152
522.61	29.282
522.95	29.758
523.29	29.655
523.64	28.924
523.98	30.006
524.32	29.513
524.66	29.197
525.01	28.539
525.35	28.949
525.69	29.002
526.04	29.162
526.38	28.851
526.72	28.085
527.06	29.795
527.41	28.338
527.75	29.751
528.09	28.689
528.43	28.597
528.78	27.688
529.12	28.670
529.46	27.656
529.80	28.318
530.15	28.754
530.49	28.114
530.83	28.394
531.17	28.734
531.51	28.339
531.86	28.005
532.20	28.841
532.54	27.887
532.88	28.667
533.22	28.167
533.57	26.890
533.91	27.722
534.25	27.643
534.59	28.218
534.93	27.165
535.27	27.944
535.62	27.800
535.96	28.298
536.30	27.556
536.64	27.928
536.98	27.183
537.32	27.963
537.66	27.636
538.01	26.888
538.35	27.467
538.69	27.404
539.03	28.020
539.37	27.503
539.71	27.568
540.05	27.398
540.39	27.262
540.73	26.108
541.07	26.242
541.42	26.048
541.76	26.631
542.10	26.176
542.44	26.675
542.78	26.946
543.12	27.652
543.46	26.496
543.80	26.259
544.14	26.571
544.48	26.950
544.82	27.349
545.16	26.834
545.50	27.142
545.84	26.148
546.18	27.593
546.52	26.752
546.86	26.478
547.20	27.163
547.54	26.404
547.88	26.160
548.22	25.789
548.56	26.390
548.90	26.687
549.24	26.444
549.58	26.057
549.92	25.510
550.26	26.537
550.60	26.548
550.94	26.973
551.28	26.271
551.62	27.493
551.96	25.243
552.30	27.151
552.64	26.509
552.98	25.702
553.32	26.367
553.66	25.723
554.00	26.734
554.34	25.354
554.68	25.307
555.02	26.150
555.36	26.233
555.69	26.457
556.03	26.419
556.37	26.909
556.71	26.633
557.05	26.390
557.39	26.078
557.73	25.826
558.07	24.371
558.41	26.645
558.75	26.166
559.08	25.818
559.42	25.995
559.76	25.984
560.10	25.720
560.44	26.253
560.78	26.500
561.12	25.431
561.45	25.426
561.79	24.176
562.13	24.954
562.47	24.846
562.81	24.367
563.15	25.505
563.48	25.917
563.82	24.486
564.16	25.379
564.50	25.149
564.84	23.953
565.17	25.059
565.51	24.741
565.85	25.653
566.19	24.654
566.52	24.517
566.86	24.109
567.20	23.654
567.54	23.792
567.88	24.108
568.21	24.209
568.55	24.748
568.89	23.513
569.23	24.039
569.56	23.525
569.90	23.699
570.24	23.069
570.57	23.156
570.91	22.413
571.25	22.071
571.59	22.655
571.92	22.655
572.26	22.552
572.60	22.823
572.93	22.405
573.27	22.815
573.61	22.525
573.95	22.020
574.28	22.051
574.62	21.601
574.96	21.438
575.29	21.348
575.63	21.783
575.97	22.539
576.30	21.638
576.64	21.379
576.98	21.367
577.31	21.397
577.65	22.080
577.98	21.461
578.32	21.272
578.66	21.202
578.99	21.094
579.33	21.587
579.67	21.034
580.00	21.825
580.34	21.619
580.67	21.271
581.01	21.073
581.35	21.294
581.68	21.065
582.02	20.847
582.35	21.506
582.69	21.108
583.02	21.398
583.36	21.524
583.70	21.609
584.03	21.766
584.37	21.526
584.70	20.954
585.04	20.925
585.37	21.012
585.71	20.798
586.04	20.960
586.38	21.007
586.72	20.657
587.05	20.824
587.39	21.466
587.72	21.148
588.06	20.938
588.39	21.260
588.73	21.455
589.06	21.304
589.40	21.481
589.73	21.305
590.07	21.817
590.40	21.738
590.73	22.163
591.07	21.519
591.40	21.928
591.74	21.661
592.07	21.843
592.41	21.175
592.74	20.909
593.08	21.083
593.41	21.289
593.75	21.121
594.08	21.145
594.41	21.154
594.75	20.824
595.08	21.602
595.42	20.974
595.75	21.440
596.09	21.078
596.42	21.319
596.75	21.459
597.09	21.939
597.42	21.295
597.75	20.776
598.09	21.230
598.42	21.793
598.76	20.520
599.09	20.968
599.42	20.282
599.76	20.601
600.09	21.321
600.42	20.220
600.76	20.178
601.09	20.345
601.42	20.838
601.76	20.759
602.09	20.515
602.42	20.320
602.76	20.406
603.09	20.962
603.42	20.448
603.76	20.366
604.09	20.972
604.42	20.514
604.76	20.358
605.09	20.742
605.42	20.534
605.75	20.346
606.09	20.082
606.42	20.503
606.75	19.940
607.09	19.662
607.42	20.308
607.75	20.399
608.08	19.968
608.42	20.193
608.75	20.439
609.08	19.822
609.41	20.379
609.75	20.179
610.08	20.580
610.41	20.136
610.74	20.378
611.07	20.648
611.41	21.300
611.74	21.339
612.07	21.225
612.40	20.770
612.73	20.049
613.07	20.244
613.40	21.030
613.73	20.847
614.06	20.854
614.39	20.408
614.72	20.233
615.06	20.212
615.39	20.203
615.72	20.664
616.05	20.593
616.38	21.090
616.71	21.108
617.05	19.915
617.38	21.027
617.71	20.734
618.04	20.561
618.37	21.311
618.70	20.079
619.03	20.848
619.36	21.578
619.69	20.307
620.03	21.532
620.36	21.595
620.69	20.913
621.02	21.457
621.35	21.771
621.68	21.837
622.01	21.922
622.34	20.502
622.67	20.275
623.00	20.175
623.33	21.433
623.66	21.077
623.99	20.474
624.32	21.767
624.65	20.077
624.99	20.546
625.32	22.012
625.65	22.252
625.98	20.949
626.31	20.482
626.64	22.564
626.97	20.930
627.30	20.577
627.63	22.131
627.96	21.847
628.29	21.634
628.62	21.327
628.95	21.735
629.28	20.221
629.61	21.633
629.94	21.339
630.26	21.356
630.59	20.466
630.92	21.126
631.25	22.272
631.58	21.092
631.91	22.212
632.24	22.094
632.57	21.632
632.90	21.264
633.23	22.143
633.56	21.837
633.89	20.764
634.22	21.622
634.55	22.129
634.88	21.320
635.20	21.636
635.53	22.712
635.86	22.102
636.19	21.315
636.52	21.308
636.85	20.327
637.18	21.414
