SpectraSuite Data File
++++++++++++++++++++++++++++++++++++
Date: Thu May 14 16:10:02 PDT 2015
User: schluterlab
Dark Spectrum Present: Yes
Reference Spectrum Present: Yes
Number of Sampled Component Spectra: 1
Spectrometers: USB2E3373
Integration Time (usec): 3000 (USB2E3373)
Spectra Averaged: 3 (USB2E3373)
Boxcar Smoothing: 0 (USB2E3373)
Correct for Electrical Dark: No (USB2E3373)
Strobe/Lamp Enabled: No (USB2E3373)
Correct for Detector Non-linearity: No (USB2E3373)
Correct for Stray Light: No (USB2E3373)
Number of Pixels in Processed Spectrum: 2048
>>>>>Begin Processed Spectral Data<<<<<
178.53	0.000
178.91	42.857
179.29	-1300.000
179.67	-1700.000
180.04	207.143
180.42	160.000
180.80	180.000
181.18	-600.000
181.56	-100.000
181.94	275.000
182.31	-200.000
182.69	533.333
183.07	-550.000
183.45	125.000
183.83	-83.333
184.20	-333.333
184.58	1100.000
184.96	-200.000
185.34	-100.000
185.72	-80.000
186.09	155.556
186.47	750.000
186.85	260.000
187.23	-166.667
187.61	-1400.000
187.98	280.000
188.36	325.000
188.74	-400.000
189.12	-433.333
189.49	-56.250
189.87	-162.500
190.25	11.111
190.63	-180.000
191.00	-166.667
191.38	0.000
191.76	-450.000
192.14	-183.333
192.51	700.000
192.89	-50.000
193.27	0.000
193.65	-71.429
194.02	-2400.000
194.40	-142.857
194.78	242.857
195.15	0.000
195.53	-27.273
195.91	0.000
196.29	-175.000
196.66	0.000
197.04	-1700.000
197.42	-257.143
197.79	-1000.000
198.17	-150.000
198.55	-185.714
198.92	-122.222
199.30	-100.000
199.68	9.091
200.05	-71.429
200.43	-200.000
200.81	242.857
201.18	0.000
201.56	266.667
201.94	0.000
202.31	566.667
202.69	-100.000
203.07	200.000
203.44	-88.889
203.82	-500.000
204.19	-33.333
204.57	-133.333
204.95	-137.500
205.32	-2100.000
205.70	175.000
206.08	-283.333
206.45	-200.000
206.83	380.000
207.20	-116.667
207.58	-340.000
207.96	-116.667
208.33	-50.000
208.71	141.667
209.08	-33.333
209.46	0.000
209.84	316.667
210.21	650.000
210.59	700.000
210.96	633.333
211.34	-25.000
211.71	-75.000
212.09	-1100.000
212.46	0.000
212.84	1200.000
213.22	-380.000
213.59	-275.000
213.97	20.000
214.34	-400.000
214.72	283.333
215.09	-275.000
215.47	0.000
215.84	71.429
216.22	900.000
216.59	-260.000
216.97	-220.000
217.34	-250.000
217.72	-112.500
218.09	-525.000
218.47	-525.000
218.84	0.000
219.22	120.000
219.59	-35.294
219.97	-10.000
220.34	500.000
220.72	-188.889
221.09	-53.846
221.47	-500.000
221.84	-140.000
222.22	-242.857
222.59	0.000
222.97	-62.500
223.34	-200.000
223.72	-900.000
224.09	-225.000
224.46	-350.000
224.84	-40.000
225.21	-228.571
225.59	-500.000
225.96	-350.000
226.34	-3.846
226.71	300.000
227.08	-400.000
227.46	-80.000
227.83	-425.000
228.21	-73.684
228.58	75.000
228.95	1000.000
229.33	-16.667
229.70	-80.000
230.08	-15.789
230.45	140.000
230.82	-200.000
231.20	-35.714
231.57	-50.000
231.95	-127.273
232.32	-54.545
232.69	-50.000
233.07	-200.000
233.44	0.000
233.81	-80.000
234.19	5.556
234.56	-13.636
234.93	41.379
235.31	-15.789
235.68	-44.444
236.05	-65.000
236.43	50.000
236.80	20.000
237.17	18.519
237.55	3.030
237.92	-80.000
238.29	9.677
238.67	4.545
239.04	38.889
239.41	7.143
239.79	17.391
240.16	14.815
240.53	21.739
240.91	23.529
241.28	40.984
241.65	41.791
242.02	35.135
242.40	27.692
242.77	40.000
243.14	34.146
243.51	27.632
243.89	32.051
244.26	44.554
244.63	41.176
245.00	42.991
245.38	37.719
245.75	28.319
246.12	38.095
246.49	34.109
246.87	42.143
247.24	35.099
247.61	40.789
247.98	44.966
248.36	41.975
248.73	35.583
249.10	36.066
249.47	40.299
249.84	46.073
250.22	36.269
250.59	40.000
250.96	42.273
251.33	46.939
251.70	45.726
252.08	40.833
252.45	40.984
252.82	40.083
253.19	37.500
253.56	41.065
253.94	41.538
254.31	43.561
254.68	48.252
255.05	42.997
255.42	41.156
255.79	44.337
256.16	46.026
256.54	39.735
256.91	45.902
257.28	39.344
257.65	42.675
258.02	42.478
258.39	44.729
258.76	47.706
259.14	45.690
259.51	46.110
259.88	45.892
260.25	46.111
260.62	43.014
260.99	47.268
261.36	42.627
261.73	44.828
262.10	48.626
262.47	46.113
262.85	46.717
263.22	42.597
263.59	42.105
263.96	44.501
264.33	42.455
264.70	44.198
265.07	46.062
265.44	46.712
265.81	43.750
266.18	47.619
266.55	46.429
266.92	40.774
267.29	43.982
267.66	46.120
268.03	47.162
268.40	43.633
268.77	44.875
269.14	42.291
269.51	44.956
269.88	43.238
270.25	40.040
270.62	46.624
270.99	45.253
271.36	44.752
271.73	44.401
272.10	46.894
272.47	46.693
272.84	44.378
273.21	42.886
273.58	43.347
273.95	41.538
274.32	40.684
274.69	40.619
275.06	43.773
275.43	42.329
275.80	40.212
276.17	41.852
276.54	41.978
276.91	42.039
277.28	40.325
277.65	42.190
278.02	40.809
278.39	42.935
278.76	40.773
279.13	44.504
279.50	42.955
279.87	43.649
280.23	39.613
280.60	42.881
280.97	43.092
281.34	43.294
281.71	40.948
282.08	42.193
282.45	38.625
282.82	39.717
283.19	42.973
283.56	41.639
283.92	41.592
284.29	41.074
284.66	41.544
285.03	38.141
285.40	40.958
285.77	42.260
286.14	39.695
286.51	41.248
286.87	40.126
287.24	40.813
287.61	39.611
287.98	39.275
288.35	38.314
288.72	39.941
289.08	40.117
289.45	38.609
289.82	37.349
290.19	39.224
290.56	38.169
290.93	39.943
291.29	35.950
291.66	36.364
292.03	35.821
292.40	37.959
292.77	36.792
293.13	34.641
293.50	35.217
293.87	35.705
294.24	35.867
294.60	33.755
294.97	34.497
295.34	34.187
295.71	33.039
296.08	31.912
296.44	31.985
296.81	32.156
297.18	32.503
297.55	33.491
297.91	32.384
298.28	30.569
298.65	31.272
299.02	31.641
299.38	31.236
299.75	29.673
300.12	32.060
300.48	32.949
300.85	31.609
301.22	31.432
301.59	30.708
301.95	31.864
302.32	30.778
302.69	31.435
303.05	30.903
303.42	30.931
303.79	29.792
304.15	29.338
304.52	29.387
304.89	30.995
305.25	28.882
305.62	30.094
305.99	30.515
306.35	30.141
306.72	31.541
307.09	30.355
307.45	30.435
307.82	29.062
308.19	27.447
308.55	29.990
308.92	27.653
309.29	28.352
309.65	28.947
310.02	29.010
310.38	28.248
310.75	28.058
311.12	28.955
311.48	28.935
311.85	29.915
312.22	29.222
312.58	27.324
312.95	28.776
313.31	27.010
313.68	29.670
314.05	29.359
314.41	29.235
314.78	27.975
315.14	28.221
315.51	28.901
315.87	28.083
316.24	28.037
316.61	29.218
316.97	27.149
317.34	27.690
317.70	29.345
318.07	29.012
318.43	28.146
318.80	28.846
319.16	28.069
319.53	26.907
319.89	27.344
320.26	27.936
320.62	28.546
320.99	27.608
321.35	27.542
321.72	29.581
322.08	27.773
322.45	27.733
322.81	28.520
323.18	27.345
323.54	27.069
323.91	27.847
324.27	28.657
324.64	28.631
325.00	29.270
325.37	28.419
325.73	29.174
326.10	28.143
326.46	28.583
326.83	30.665
327.19	27.008
327.56	27.905
327.92	27.695
328.29	27.661
328.65	26.968
329.01	28.511
329.38	28.559
329.74	29.110
330.11	29.195
330.47	29.570
330.84	27.390
331.20	27.750
331.56	27.816
331.93	28.033
332.29	28.051
332.66	27.492
333.02	26.047
333.38	27.517
333.75	27.020
334.11	27.606
334.48	27.640
334.84	28.122
335.20	28.128
335.57	28.499
335.93	26.694
336.29	27.205
336.66	27.082
337.02	27.007
337.38	26.956
337.75	27.355
338.11	26.409
338.47	28.205
338.84	27.750
339.20	25.948
339.56	26.936
339.93	27.176
340.29	27.053
340.65	26.602
341.02	28.651
341.38	26.758
341.74	26.392
342.11	27.836
342.47	26.052
342.83	27.617
343.20	26.574
343.56	26.544
343.92	27.782
344.28	26.719
344.65	26.124
345.01	26.833
345.37	25.583
345.73	25.799
346.10	26.599
346.46	25.791
346.82	26.067
347.19	26.432
347.55	26.328
347.91	26.300
348.27	25.948
348.63	25.971
349.00	25.876
349.36	25.725
349.72	25.595
350.08	26.895
350.45	26.464
350.81	26.395
351.17	25.940
351.53	25.929
351.89	24.905
352.26	26.791
352.62	25.149
352.98	26.489
353.34	24.944
353.70	25.116
354.07	24.963
354.43	24.070
354.79	25.056
355.15	24.283
355.51	26.389
355.87	25.654
356.24	25.627
356.60	24.760
356.96	24.759
357.32	23.792
357.68	24.158
358.04	24.925
358.40	25.149
358.77	25.219
359.13	24.077
359.49	24.907
359.85	24.873
360.21	24.605
360.57	24.408
360.93	24.824
361.29	25.123
361.66	24.330
362.02	24.704
362.38	24.245
362.74	24.721
363.10	24.484
363.46	25.277
363.82	24.006
364.18	23.505
364.54	24.550
364.90	24.348
365.26	23.172
365.62	24.667
365.98	23.826
366.35	24.497
366.71	24.558
367.07	23.342
367.43	24.622
367.79	24.088
368.15	25.485
368.51	25.034
368.87	23.318
369.23	24.600
369.59	23.702
369.95	23.935
370.31	24.375
370.67	23.590
371.03	24.307
371.39	23.640
371.75	24.209
372.11	23.645
372.47	23.494
372.83	23.560
373.19	23.082
373.55	23.442
373.91	23.245
374.27	23.933
374.63	23.748
374.99	23.541
375.35	23.896
375.71	23.871
376.07	24.209
376.42	24.307
376.78	23.617
377.14	24.017
377.50	22.960
377.86	23.768
378.22	23.952
378.58	22.889
378.94	23.415
379.30	23.257
379.66	23.339
380.02	23.197
380.38	23.041
380.74	23.380
381.09	23.171
381.45	23.580
381.81	24.063
382.17	22.565
382.53	23.041
382.89	22.573
383.25	23.681
383.61	22.569
383.97	23.145
384.32	23.266
384.68	22.738
385.04	24.349
385.40	23.217
385.76	23.857
386.12	23.399
386.48	23.647
386.83	24.136
387.19	22.769
387.55	22.300
387.91	23.002
388.27	23.499
388.62	23.139
388.98	23.068
389.34	23.748
389.70	23.591
390.06	22.321
390.42	22.530
390.77	23.721
391.13	22.594
391.49	23.249
391.85	22.545
392.20	22.598
392.56	23.863
392.92	22.465
393.28	23.273
393.64	22.123
393.99	22.777
394.35	22.722
394.71	23.653
395.07	21.916
395.42	22.730
395.78	24.193
396.14	22.460
396.50	22.981
396.85	21.646
397.21	23.254
397.57	22.320
397.92	23.081
398.28	22.542
398.64	21.968
399.00	22.304
399.35	22.932
399.71	22.772
400.07	22.852
400.42	22.410
400.78	22.222
401.14	21.571
401.49	22.456
401.85	22.674
402.21	22.364
402.57	23.239
402.92	23.168
403.28	22.600
403.63	22.375
403.99	21.793
404.35	22.797
404.70	23.059
405.06	21.902
405.42	23.009
405.77	23.173
406.13	21.772
406.49	22.072
406.84	22.881
407.20	21.744
407.55	22.108
407.91	21.747
408.27	22.261
408.62	22.280
408.98	22.577
409.34	21.877
409.69	22.002
410.05	22.860
410.40	22.390
410.76	22.154
411.11	22.209
411.47	23.096
411.83	22.928
412.18	24.036
412.54	23.118
412.89	22.701
413.25	21.783
413.60	22.401
413.96	22.028
414.31	22.210
414.67	22.898
415.03	21.908
415.38	21.816
415.74	22.419
416.09	22.147
416.45	21.853
416.80	22.399
417.16	22.286
417.51	21.606
417.87	22.379
418.22	22.814
418.58	21.561
418.93	22.526
419.29	22.626
419.64	21.849
420.00	22.077
420.35	22.347
420.71	22.056
421.06	22.082
421.42	21.445
421.77	22.348
422.12	22.093
422.48	21.761
422.83	22.673
423.19	22.228
423.54	23.119
423.90	22.363
424.25	22.133
424.61	21.929
424.96	22.295
425.31	23.620
425.67	22.222
426.02	21.915
426.38	22.560
426.73	21.763
427.09	22.837
427.44	22.228
427.79	22.112
428.15	21.575
428.50	22.697
428.85	21.871
429.21	22.287
429.56	21.718
429.92	21.474
430.27	22.747
430.62	21.739
430.98	22.184
431.33	22.483
431.68	22.126
432.04	21.838
432.39	22.121
432.74	22.146
433.10	22.012
433.45	21.182
433.80	21.942
434.16	22.676
434.51	21.634
434.86	22.584
435.22	21.998
435.57	22.642
435.92	21.925
436.28	21.729
436.63	22.064
436.98	21.793
437.34	21.702
437.69	22.345
438.04	21.840
438.39	22.516
438.75	21.583
439.10	22.357
439.45	21.353
439.81	21.412
440.16	21.662
440.51	22.352
440.86	21.290
441.22	21.865
441.57	21.803
441.92	22.260
442.27	21.818
442.63	21.560
442.98	21.772
443.33	22.409
443.68	22.299
444.03	22.437
444.39	22.238
444.74	22.256
445.09	22.352
445.44	22.972
445.79	22.318
446.15	22.765
446.50	21.964
446.85	22.228
447.20	21.905
447.55	22.490
447.91	21.414
448.26	22.516
448.61	22.051
448.96	22.747
449.31	22.641
449.66	21.460
450.02	23.365
450.37	23.015
450.72	21.529
451.07	21.925
451.42	22.646
451.77	22.068
452.12	22.630
452.47	21.747
452.83	22.410
453.18	21.716
453.53	21.424
453.88	21.756
454.23	22.486
454.58	22.925
454.93	22.087
455.28	22.276
455.63	22.399
455.98	22.514
456.34	22.968
456.69	22.928
457.04	21.986
457.39	22.616
457.74	23.043
458.09	21.691
458.44	21.983
458.79	21.558
459.14	21.500
459.49	22.298
459.84	21.511
460.19	21.266
460.54	22.714
460.89	22.605
461.24	21.034
461.59	22.634
461.94	21.962
462.29	22.284
462.64	22.511
462.99	22.976
463.34	21.804
463.69	22.392
464.04	22.290
464.39	21.917
464.74	21.494
465.09	22.261
465.44	20.923
465.79	22.581
466.14	21.782
466.49	21.789
466.84	22.314
467.19	22.428
467.54	21.563
467.89	21.897
468.24	21.662
468.59	21.482
468.94	21.329
469.29	21.716
469.64	21.297
469.99	21.797
470.34	21.720
470.68	20.848
471.03	22.331
471.38	21.452
471.73	21.847
472.08	22.208
472.43	22.035
472.78	21.537
473.13	21.745
473.48	21.450
473.83	22.635
474.17	20.868
474.52	21.227
474.87	21.872
475.22	21.465
475.57	21.028
475.92	22.300
476.27	21.246
476.61	21.391
476.96	20.699
477.31	21.238
477.66	22.928
478.01	21.759
478.36	21.635
478.70	22.414
479.05	21.984
479.40	21.767
479.75	22.382
480.10	22.122
480.45	22.470
480.79	21.814
481.14	21.875
481.49	21.218
481.84	22.063
482.19	21.247
482.53	22.344
482.88	22.641
483.23	22.232
483.58	21.703
483.92	21.454
484.27	21.507
484.62	21.452
484.97	22.123
485.31	21.823
485.66	21.145
486.01	21.570
486.36	22.272
486.70	22.768
487.05	23.494
487.40	23.404
487.75	23.053
488.09	22.654
488.44	22.626
488.79	22.226
489.13	22.629
489.48	20.932
489.83	21.771
490.17	21.628
490.52	21.429
490.87	21.574
491.22	20.927
491.56	22.142
491.91	21.980
492.26	21.809
492.60	20.551
492.95	21.369
493.30	21.739
493.64	21.551
493.99	21.009
494.34	21.254
494.68	21.113
495.03	21.674
495.37	21.926
495.72	21.361
496.07	21.209
496.41	20.935
496.76	21.935
497.11	21.826
497.45	21.795
497.80	21.679
498.14	21.270
498.49	21.461
498.84	21.618
499.18	21.188
499.53	21.928
499.87	21.978
500.22	20.837
500.56	21.368
500.91	21.419
501.26	21.955
501.60	20.769
501.95	22.362
502.29	21.281
502.64	21.469
502.98	20.708
503.33	21.037
503.67	20.933
504.02	21.366
504.36	21.448
504.71	20.763
505.06	21.237
505.40	20.887
505.75	21.084
506.09	21.087
506.44	20.752
506.78	21.514
507.13	21.623
507.47	21.222
507.82	21.070
508.16	20.793
508.51	21.519
508.85	21.351
509.19	20.891
509.54	21.758
509.88	20.981
510.23	21.127
510.57	22.378
510.92	20.803
511.26	21.164
511.61	20.715
511.95	21.376
512.30	20.876
512.64	19.940
512.98	21.111
513.33	21.169
513.67	21.316
514.02	20.337
514.36	21.074
514.70	21.823
515.05	21.429
515.39	21.312
515.74	21.103
516.08	20.708
516.42	21.402
516.77	21.293
517.11	20.732
517.46	20.997
517.80	21.219
518.14	21.328
518.49	20.336
518.83	21.181
519.17	19.817
519.52	20.807
519.86	21.489
520.20	21.140
520.55	21.139
520.89	21.115
521.23	20.771
521.58	20.565
521.92	20.793
522.26	20.561
522.61	21.644
522.95	20.300
523.29	20.402
523.64	20.572
523.98	21.107
524.32	21.777
524.66	20.945
525.01	21.065
525.35	20.333
525.69	19.664
526.04	19.862
526.38	20.747
526.72	21.223
527.06	20.587
527.41	21.166
527.75	21.081
528.09	21.133
528.43	20.604
528.78	20.289
529.12	21.273
529.46	20.630
529.80	20.881
530.15	20.232
530.49	19.929
530.83	20.779
531.17	20.550
531.51	21.360
531.86	20.853
532.20	20.671
532.54	20.946
532.88	20.364
533.22	20.860
533.57	20.023
533.91	21.212
534.25	22.046
534.59	20.575
534.93	20.939
535.27	21.014
535.62	21.660
535.96	22.255
536.30	21.915
536.64	21.381
536.98	21.341
537.32	21.852
537.66	21.585
538.01	20.242
538.35	20.585
538.69	21.034
539.03	21.153
539.37	21.084
539.71	20.601
540.05	21.043
540.39	21.333
540.73	21.129
541.07	21.398
541.42	20.496
541.76	20.403
542.10	20.808
542.44	19.854
542.78	20.560
543.12	20.799
543.46	21.123
543.80	20.863
544.14	20.706
544.48	21.690
544.82	21.604
545.16	21.407
545.50	20.851
545.84	21.800
546.18	21.790
546.52	21.210
546.86	20.818
547.20	21.183
547.54	20.412
547.88	20.434
548.22	20.994
548.56	21.767
548.90	21.313
549.24	20.973
549.58	21.199
549.92	20.408
550.26	22.395
550.60	20.357
550.94	21.022
551.28	20.396
551.62	20.755
551.96	20.453
552.30	21.224
552.64	21.282
552.98	20.337
553.32	21.158
553.66	21.543
554.00	21.942
554.34	21.622
554.68	21.240
555.02	20.696
555.36	21.631
555.69	20.628
556.03	21.059
556.37	20.463
556.71	20.609
557.05	20.703
557.39	20.770
557.73	20.806
558.07	21.391
558.41	21.130
558.75	20.149
559.08	20.390
559.42	20.782
559.76	21.303
560.10	20.898
560.44	21.306
560.78	21.563
561.12	21.367
561.45	21.472
561.79	21.673
562.13	21.811
562.47	21.640
562.81	20.316
563.15	21.465
563.48	21.131
563.82	20.073
564.16	20.170
564.50	20.858
564.84	21.239
565.17	20.647
565.51	21.174
565.85	21.021
566.19	19.873
566.52	21.240
566.86	21.449
567.20	20.446
567.54	21.136
567.88	21.509
568.21	22.233
568.55	21.679
568.89	22.379
569.23	22.053
569.56	21.844
569.90	22.131
570.24	22.226
570.57	21.392
570.91	22.382
571.25	22.852
571.59	22.544
571.92	22.308
572.26	22.155
572.60	22.304
572.93	22.683
573.27	22.282
573.61	23.107
573.95	22.675
574.28	22.565
574.62	22.624
574.96	22.364
575.29	22.053
575.63	22.615
575.97	22.204
576.30	22.058
576.64	22.310
576.98	22.255
577.31	22.733
577.65	22.905
577.98	22.816
578.32	22.541
578.66	22.710
578.99	22.363
579.33	22.254
579.67	22.439
580.00	21.938
580.34	23.233
580.67	22.529
581.01	22.436
581.35	22.190
581.68	22.343
582.02	22.801
582.35	22.920
582.69	23.076
583.02	23.042
583.36	22.982
583.70	22.858
584.03	22.318
584.37	22.784
584.70	22.469
585.04	22.344
585.37	22.536
585.71	22.244
586.04	22.083
586.38	22.238
586.72	21.860
587.05	22.307
587.39	22.189
587.72	22.225
588.06	22.897
588.39	22.828
588.73	22.381
589.06	23.109
589.40	22.219
589.73	22.590
590.07	22.182
590.40	21.974
590.73	22.199
591.07	22.487
591.40	21.423
591.74	22.297
592.07	22.249
592.41	22.082
592.74	21.903
593.08	22.930
593.41	22.514
593.75	22.443
594.08	22.357
594.41	22.564
594.75	21.355
595.08	22.073
595.42	22.890
595.75	21.828
596.09	22.060
596.42	22.143
596.75	22.231
597.09	22.990
597.42	21.494
597.75	21.717
598.09	22.063
598.42	22.115
598.76	21.475
599.09	21.823
599.42	21.857
599.76	22.153
600.09	21.588
600.42	22.189
600.76	22.358
601.09	22.005
601.42	21.662
601.76	21.690
602.09	22.194
602.42	21.701
602.76	22.399
603.09	22.100
603.42	21.749
603.76	22.269
604.09	22.463
604.42	21.982
604.76	21.651
605.09	22.457
605.42	21.411
605.75	21.538
606.09	21.874
606.42	21.379
606.75	21.439
607.09	20.661
607.42	21.464
607.75	21.844
608.08	21.586
608.42	21.282
608.75	21.766
609.08	21.010
609.41	21.306
609.75	20.759
610.08	21.812
610.41	21.283
610.74	21.303
611.07	21.137
611.41	21.839
611.74	21.293
612.07	21.412
612.40	20.722
612.73	21.369
613.07	21.516
613.40	21.126
613.73	21.233
614.06	21.737
614.39	21.137
614.72	21.058
615.06	21.752
615.39	20.976
615.72	21.137
616.05	20.738
616.38	21.241
616.71	21.160
617.05	20.447
617.38	21.669
617.71	21.274
618.04	20.993
618.37	21.475
618.70	21.776
619.03	20.550
619.36	20.777
619.69	21.525
620.03	20.590
620.36	20.061
620.69	20.666
621.02	21.129
621.35	20.755
621.68	20.174
622.01	20.712
622.34	20.363
622.67	20.137
623.00	20.108
623.33	20.969
623.66	21.855
623.99	20.474
624.32	21.572
624.65	20.463
624.99	21.586
625.32	20.967
625.65	21.915
625.98	20.746
626.31	20.128
626.64	20.000
626.97	19.880
627.30	19.514
627.63	19.355
627.96	20.120
628.29	20.000
628.62	19.983
628.95	20.070
629.28	20.051
629.61	20.286
629.94	19.414
630.26	19.661
630.59	20.035
630.92	19.654
631.25	19.589
631.58	19.774
631.91	18.650
632.24	20.077
