SpectraSuite Data File
++++++++++++++++++++++++++++++++++++
Date: Thu May 14 16:18:53 PDT 2015
User: schluterlab
Dark Spectrum Present: Yes
Reference Spectrum Present: Yes
Number of Sampled Component Spectra: 1
Spectrometers: USB2E3373
Integration Time (usec): 3000 (USB2E3373)
Spectra Averaged: 3 (USB2E3373)
Boxcar Smoothing: 0 (USB2E3373)
Correct for Electrical Dark: No (USB2E3373)
Strobe/Lamp Enabled: No (USB2E3373)
Correct for Detector Non-linearity: No (USB2E3373)
Correct for Stray Light: No (USB2E3373)
Number of Pixels in Processed Spectrum: 2048
>>>>>Begin Processed Spectral Data<<<<<
178.53	0.000
178.91	57.143
179.29	-1100.000
179.67	-200.000
180.04	128.571
180.42	-30.000
180.80	220.000
181.18	-700.000
181.56	-300.000
181.94	275.000
182.31	-175.000
182.69	200.000
183.07	300.000
183.45	375.000
183.83	-166.667
184.20	-166.667
184.58	-500.000
184.96	-225.000
185.34	-22.222
185.72	140.000
186.09	88.889
186.47	550.000
186.85	240.000
187.23	-33.333
187.61	-1000.000
187.98	220.000
188.36	325.000
188.74	-400.000
189.12	-366.667
189.49	-75.000
189.87	-150.000
190.25	-11.111
190.63	-160.000
191.00	-155.556
191.38	0.000
191.76	-350.000
192.14	-100.000
192.51	650.000
192.89	50.000
193.27	0.000
193.65	-128.571
194.02	-1700.000
194.40	-142.857
194.78	114.286
195.15	0.000
195.53	-27.273
195.91	0.000
196.29	0.000
196.66	-7.692
197.04	-1300.000
197.42	-171.429
197.79	-450.000
198.17	-87.500
198.55	-42.857
198.92	11.111
199.30	-137.500
199.68	18.182
200.05	7.143
200.43	-600.000
200.81	57.143
201.18	0.000
201.56	188.889
201.94	0.000
202.31	266.667
202.69	-111.111
203.07	-200.000
203.44	-66.667
203.82	-300.000
204.19	-66.667
204.57	-116.667
204.95	-62.500
205.32	-1200.000
205.70	50.000
206.08	-16.667
206.45	-16.667
206.83	280.000
207.20	-133.333
207.58	-340.000
207.96	-33.333
208.33	116.667
208.71	141.667
209.08	66.667
209.46	0.000
209.84	83.333
210.21	350.000
210.59	400.000
210.96	166.667
211.34	50.000
211.71	0.000
212.09	-1200.000
212.46	0.000
212.84	150.000
213.22	-320.000
213.59	25.000
213.97	20.000
214.34	-166.667
214.72	100.000
215.09	-75.000
215.47	0.000
215.84	228.571
216.22	650.000
216.59	-260.000
216.97	-80.000
217.34	-125.000
217.72	-112.500
218.09	-175.000
218.47	-100.000
218.84	0.000
219.22	100.000
219.59	47.059
219.97	-20.000
220.34	600.000
220.72	55.556
221.09	61.538
221.47	-166.667
221.84	-50.000
222.22	-157.143
222.59	0.000
222.97	75.000
223.34	-160.000
223.72	-1100.000
224.09	-300.000
224.46	-150.000
224.84	-60.000
225.21	-200.000
225.59	-200.000
225.96	-125.000
226.34	3.846
226.71	150.000
227.08	-100.000
227.46	33.333
227.83	-375.000
228.21	-47.368
228.58	37.500
228.95	800.000
229.33	75.000
229.70	-100.000
230.08	5.263
230.45	90.000
230.82	-266.667
231.20	-50.000
231.57	-25.000
231.95	-36.364
232.32	-72.727
232.69	-10.000
233.07	75.000
233.44	17.647
233.81	-110.000
234.19	-5.556
234.56	22.727
234.93	31.034
235.31	-21.053
235.68	-27.778
236.05	-75.000
236.43	34.615
236.80	-12.000
237.17	-11.111
237.55	-6.061
237.92	-60.000
238.29	-3.226
238.67	-25.000
239.04	0.000
239.41	-19.048
239.79	4.348
240.16	-12.963
240.53	-28.261
240.91	-5.882
241.28	-3.279
241.65	13.433
242.02	13.514
242.40	-12.308
242.77	-9.333
243.14	-6.098
243.51	-25.000
243.89	-15.385
244.26	0.990
244.63	5.882
245.00	0.935
245.38	-4.386
245.75	-5.310
246.12	4.762
246.49	-3.101
246.87	4.286
247.24	2.649
247.61	2.632
247.98	-4.698
248.36	-6.173
248.73	-8.589
249.10	3.825
249.47	8.955
249.84	4.188
250.22	-1.554
250.59	-0.556
250.96	1.818
251.33	-6.122
251.70	1.282
252.08	0.000
252.45	0.820
252.82	-1.240
253.19	-4.297
253.56	-0.380
253.94	-1.154
254.31	1.894
254.68	3.497
255.05	1.629
255.42	-3.401
255.79	0.324
256.16	-0.331
256.54	-2.649
256.91	1.311
257.28	0.000
257.65	-2.548
258.02	-2.360
258.39	2.279
258.76	5.199
259.14	2.586
259.51	1.441
259.88	0.567
260.25	-2.222
260.62	0.822
260.99	4.098
261.36	1.609
261.73	0.000
262.10	-1.923
262.47	-0.804
262.85	3.788
263.22	-1.039
263.59	-2.895
263.96	1.790
264.33	1.023
264.70	2.469
265.07	2.864
265.44	4.082
265.81	1.157
266.18	0.454
266.55	1.339
266.92	-0.228
267.29	2.845
267.66	-0.665
268.03	1.092
268.40	0.209
268.77	-0.911
269.14	-0.661
269.51	-1.754
269.88	2.664
270.25	1.408
270.62	1.055
270.99	3.232
271.36	2.970
271.73	1.375
272.10	1.002
272.47	1.202
272.84	1.004
273.21	1.002
273.58	4.637
273.95	0.000
274.32	0.380
274.69	0.193
275.06	3.846
275.43	-1.664
275.80	1.411
276.17	-0.185
276.54	-0.560
276.91	-0.716
277.28	1.627
277.65	1.257
278.02	1.654
278.39	1.630
278.76	1.582
279.13	0.532
279.50	2.234
279.87	1.073
280.23	-0.880
280.60	1.356
280.97	0.658
281.34	0.000
281.71	2.876
282.08	0.831
282.45	0.655
282.82	0.942
283.19	-0.323
283.56	1.311
283.92	2.252
284.29	2.528
284.66	0.985
285.03	0.160
285.40	2.782
285.77	0.929
286.14	1.069
286.51	0.609
286.87	-0.158
287.24	2.560
287.61	0.897
287.98	0.604
288.35	1.775
288.72	1.923
289.08	0.732
289.45	0.148
289.82	-0.301
290.19	1.149
290.56	2.958
290.93	1.569
291.29	1.791
291.66	0.689
292.03	0.814
292.40	3.265
292.77	0.674
293.13	1.759
293.50	2.102
293.87	0.805
294.24	2.800
294.60	1.643
294.97	-0.403
295.34	1.665
295.71	0.757
296.08	1.292
296.44	1.471
296.81	1.096
297.18	1.245
297.55	0.118
297.91	0.474
298.28	0.000
298.65	1.546
299.02	0.945
299.38	1.487
299.75	0.584
300.12	1.042
300.48	0.691
300.85	1.012
301.22	0.895
301.59	0.913
301.95	2.034
302.32	2.667
302.69	1.533
303.05	1.632
303.42	1.885
303.79	1.458
304.15	1.577
304.52	2.114
304.89	1.990
305.25	1.346
305.62	0.940
305.99	2.268
306.35	2.016
306.72	1.655
307.09	0.812
307.45	1.967
307.82	1.816
308.19	1.917
308.55	1.736
308.92	1.461
309.29	2.203
309.65	1.267
310.02	1.782
310.38	1.181
310.75	1.456
311.12	2.013
311.48	0.684
311.85	1.425
312.22	2.372
312.58	2.066
312.95	2.390
313.31	2.891
313.68	2.747
314.05	4.065
314.41	3.370
314.78	2.725
315.14	2.541
315.51	3.047
315.87	3.240
316.24	4.201
316.61	3.819
316.97	2.443
317.34	2.734
317.70	3.231
318.07	3.704
318.43	4.507
318.80	5.268
319.16	3.348
319.53	4.113
319.89	3.418
320.26	5.071
320.62	3.901
320.99	5.725
321.35	5.083
321.72	4.930
322.08	4.689
322.45	6.143
322.81	5.866
323.18	6.106
323.54	5.862
323.91	6.228
324.27	6.540
324.64	7.053
325.00	6.219
325.37	5.979
325.73	7.603
326.10	7.380
326.46	7.410
326.83	7.446
327.19	7.087
327.56	7.826
327.92	7.160
328.29	7.258
328.65	7.956
329.01	7.276
329.38	8.340
329.74	9.075
330.11	9.760
330.47	8.340
330.84	8.183
331.20	9.500
331.56	7.972
331.93	9.707
332.29	8.983
332.66	9.551
333.02	8.710
333.38	8.641
333.75	7.492
334.11	8.757
334.48	9.901
334.84	8.751
335.20	8.900
335.57	9.106
335.93	9.504
336.29	8.569
336.66	8.579
337.02	9.699
337.38	9.779
337.75	8.182
338.11	9.756
338.47	9.843
338.84	9.052
339.20	8.677
339.56	9.720
339.93	9.360
340.29	10.789
340.65	9.246
341.02	10.615
341.38	10.428
341.74	9.524
342.11	10.056
342.47	9.214
342.83	10.225
343.20	9.648
343.56	10.425
343.92	9.928
344.28	10.312
344.65	10.775
345.01	10.608
345.37	9.565
345.73	9.119
346.10	10.920
346.46	9.256
346.82	10.037
347.19	10.084
347.55	10.243
347.91	9.955
348.27	10.470
348.63	10.510
349.00	9.993
349.36	10.335
349.72	10.417
350.08	10.253
350.45	10.190
350.81	9.351
351.17	11.278
351.53	10.766
351.89	10.402
352.26	10.746
352.62	10.448
352.98	10.000
353.34	9.709
353.70	9.861
354.07	9.985
354.43	9.795
354.79	10.621
355.15	10.302
355.51	10.746
355.87	9.798
356.24	11.711
356.60	10.865
356.96	10.600
357.32	10.260
357.68	9.956
358.04	10.254
358.40	9.552
358.77	10.819
359.13	9.675
359.49	8.922
359.85	10.877
360.21	10.832
360.57	10.050
360.93	11.001
361.29	11.018
361.66	10.210
362.02	10.717
362.38	11.455
362.74	10.265
363.10	11.210
363.46	11.565
363.82	10.937
364.18	9.852
364.54	10.788
364.90	11.839
365.26	10.759
365.62	12.200
365.98	10.211
366.35	11.007
366.71	11.361
367.07	11.502
367.43	12.147
367.79	11.148
368.15	11.706
368.51	11.164
368.87	11.561
369.23	11.800
369.59	11.749
369.95	10.683
370.31	11.411
370.67	11.004
371.03	11.150
371.39	11.014
371.75	12.242
372.11	11.382
372.47	12.525
372.83	12.304
373.19	12.208
373.55	11.924
373.91	11.588
374.27	11.643
374.63	11.502
374.99	12.599
375.35	11.688
375.71	12.129
376.07	11.556
376.42	12.406
376.78	11.871
377.14	11.666
377.50	12.271
377.86	11.761
378.22	12.216
378.58	12.307
378.94	12.324
379.30	12.654
379.66	12.111
380.02	11.887
380.38	12.961
380.74	12.676
381.09	12.427
381.45	12.670
381.81	13.700
382.17	11.876
382.53	12.807
382.89	13.600
383.25	12.837
383.61	11.979
383.97	12.956
384.32	13.517
384.68	11.659
385.04	13.302
385.40	13.023
385.76	12.896
386.12	11.909
386.48	13.529
386.83	14.243
387.19	12.630
387.55	13.028
387.91	13.071
388.27	13.568
388.62	12.600
388.98	12.916
389.34	13.082
389.70	13.655
390.06	12.848
390.42	13.012
390.77	13.546
391.13	13.028
391.49	14.010
391.85	12.303
392.20	14.353
392.56	13.467
392.92	14.286
393.28	13.488
393.64	13.017
393.99	13.422
394.35	13.843
394.71	14.012
395.07	12.874
395.42	14.106
395.78	14.869
396.14	14.201
396.50	13.599
396.85	12.821
397.21	13.609
397.57	14.193
397.92	13.517
398.28	13.851
398.64	13.330
399.00	13.874
399.35	13.770
399.71	13.641
400.07	14.093
400.42	13.970
400.78	14.525
401.14	13.660
401.49	13.928
401.85	13.721
402.21	13.963
402.57	14.613
402.92	13.889
403.28	13.583
403.63	13.544
403.99	13.955
404.35	14.383
404.70	13.484
405.06	13.859
405.42	14.110
405.77	13.850
406.13	14.155
406.49	14.189
406.84	14.404
407.20	13.695
407.55	13.144
407.91	14.268
408.27	14.841
408.62	14.834
408.98	14.045
409.34	12.903
409.69	14.339
410.05	15.416
410.40	14.559
410.76	14.246
411.11	14.553
411.47	14.619
411.83	13.521
412.18	13.855
412.54	14.641
412.89	14.435
413.25	14.673
413.60	14.417
413.96	14.394
414.31	14.164
414.67	14.669
415.03	13.785
415.38	14.880
415.74	14.050
416.09	14.991
416.45	14.778
416.80	13.586
417.16	14.240
417.51	15.006
417.87	14.286
418.22	14.311
418.58	14.064
418.93	15.308
419.29	14.488
419.64	14.226
420.00	14.125
420.35	14.374
420.71	14.589
421.06	14.779
421.42	14.679
421.77	14.486
422.12	13.584
422.48	13.876
422.83	15.060
423.19	14.483
423.54	14.159
423.90	13.197
424.25	14.240
424.61	14.925
424.96	14.552
425.31	15.074
425.67	13.849
426.02	14.388
426.38	14.581
426.73	13.672
427.09	16.205
427.44	13.271
427.79	14.428
428.15	13.927
428.50	14.438
428.85	14.581
429.21	15.160
429.56	14.758
429.92	14.300
430.27	13.735
430.62	14.704
430.98	14.215
431.33	13.978
431.68	13.697
432.04	14.271
432.39	14.087
432.74	14.555
433.10	14.602
433.45	14.381
433.80	14.324
434.16	14.566
434.51	14.286
434.86	14.387
435.22	15.037
435.57	14.446
435.92	14.302
436.28	13.652
436.63	14.746
436.98	14.224
437.34	14.318
437.69	13.979
438.04	14.701
438.39	14.589
438.75	13.448
439.10	15.116
439.45	13.583
439.81	14.689
440.16	13.887
440.51	14.103
440.86	13.785
441.22	14.202
441.57	14.046
441.92	14.743
442.27	14.444
442.63	14.009
442.98	14.301
443.33	13.835
443.68	14.767
444.03	14.722
444.39	14.748
444.74	14.191
445.09	14.090
445.44	14.331
445.79	15.086
446.15	14.491
446.50	13.540
446.85	14.543
447.20	14.797
447.55	14.487
447.91	13.770
448.26	13.953
448.61	14.293
448.96	15.129
449.31	14.316
449.66	13.453
450.02	14.241
450.37	14.385
450.72	13.940
451.07	14.237
451.42	14.616
451.77	14.397
452.12	14.108
452.47	14.320
452.83	14.077
453.18	13.835
453.53	13.843
453.88	14.136
454.23	13.616
454.58	13.987
454.93	13.592
455.28	14.449
455.63	13.815
455.98	13.464
456.34	13.428
456.69	14.051
457.04	13.712
457.39	14.191
457.74	14.150
458.09	13.234
458.44	13.739
458.79	13.770
459.14	13.634
459.49	13.922
459.84	13.694
460.19	13.048
460.54	14.367
460.89	14.293
461.24	12.644
461.59	14.056
461.94	12.835
462.29	13.494
462.64	13.458
462.99	13.057
463.34	13.887
463.69	14.068
464.04	13.341
464.39	13.789
464.74	13.740
465.09	12.514
465.44	12.876
465.79	13.168
466.14	13.132
466.49	13.211
466.84	13.333
467.19	12.832
467.54	12.691
467.89	12.644
468.24	12.909
468.59	11.812
468.94	12.121
469.29	12.717
469.64	12.715
469.99	12.683
470.34	12.191
470.68	13.260
471.03	12.770
471.38	12.230
471.73	12.224
472.08	13.261
472.43	13.245
472.78	12.846
473.13	12.769
473.48	12.326
473.83	12.710
474.17	11.958
474.52	13.169
474.87	12.403
475.22	12.958
475.57	12.825
475.92	12.295
476.27	12.620
476.61	12.098
476.96	12.200
477.31	12.673
477.66	12.487
478.01	12.252
478.36	12.512
478.70	11.921
479.05	12.423
479.40	12.142
479.75	12.728
480.10	12.364
480.45	12.899
480.79	12.744
481.14	12.224
481.49	11.858
481.84	12.663
482.19	12.258
482.53	12.418
482.88	11.963
483.23	12.228
483.58	12.227
483.92	11.525
484.27	12.320
484.62	11.345
484.97	11.586
485.31	11.475
485.66	11.315
486.01	11.136
486.36	11.296
486.70	12.026
487.05	12.084
487.40	12.143
487.75	12.519
488.09	11.581
488.44	11.868
488.79	12.040
489.13	11.694
489.48	10.718
489.83	11.268
490.17	11.098
490.52	11.453
490.87	11.506
491.22	11.135
491.56	11.049
491.91	11.339
492.26	11.380
492.60	11.106
492.95	11.057
493.30	10.982
493.64	11.082
493.99	10.965
494.34	10.017
494.68	11.092
495.03	11.366
495.37	10.608
495.72	10.839
496.07	11.043
496.41	10.982
496.76	11.134
497.11	10.616
497.45	10.703
497.80	10.662
498.14	10.476
498.49	10.983
498.84	10.969
499.18	10.436
499.53	11.256
499.87	11.253
500.22	10.419
500.56	10.391
500.91	10.435
501.26	10.500
501.60	10.163
501.95	10.378
502.29	9.961
502.64	10.494
502.98	10.267
503.33	9.892
503.67	10.205
504.02	10.201
504.36	10.322
504.71	10.198
505.06	10.141
505.40	10.375
505.75	10.337
506.09	10.405
506.44	9.981
506.78	10.459
507.13	10.558
507.47	10.422
507.82	9.943
508.16	9.560
508.51	10.127
508.85	9.778
509.19	9.664
509.54	10.567
509.88	10.345
510.23	9.908
510.57	10.440
510.92	10.208
511.26	9.428
511.61	9.223
511.95	10.493
512.30	10.241
512.64	10.195
512.98	9.755
513.33	9.728
513.67	9.740
514.02	9.964
514.36	9.361
514.70	10.000
515.05	10.323
515.39	10.079
515.74	10.764
516.08	9.562
516.42	10.413
516.77	10.515
517.11	9.541
517.46	10.339
517.80	10.689
518.14	9.902
518.49	9.328
518.83	9.899
519.17	9.155
519.52	9.748
519.86	9.768
520.20	9.585
520.55	9.639
520.89	9.122
521.23	8.878
521.58	9.209
521.92	10.085
522.26	8.305
522.61	9.606
522.95	9.227
523.29	9.655
523.64	10.370
523.98	9.698
524.32	10.544
524.66	9.505
525.01	9.456
525.35	9.707
525.69	9.397
526.04	9.874
526.38	9.713
526.72	9.862
527.06	9.326
527.41	9.913
527.75	10.036
528.09	9.740
528.43	9.532
528.78	8.844
529.12	9.461
529.46	8.713
529.80	9.439
530.15	9.797
530.49	8.185
530.83	9.209
531.17	9.200
531.51	9.326
531.86	9.796
532.20	9.878
532.54	9.216
532.88	9.394
533.22	9.841
533.57	10.156
533.91	8.979
534.25	9.327
534.59	9.080
534.93	9.225
535.27	9.070
535.62	9.949
535.96	9.704
536.30	8.989
536.64	9.790
536.98	8.856
537.32	9.630
537.66	9.108
538.01	8.338
538.35	9.379
538.69	9.135
539.03	8.522
539.37	9.423
539.71	9.129
540.05	9.293
540.39	8.619
540.73	8.622
541.07	7.971
541.42	9.155
541.76	7.829
542.10	8.926
542.44	8.343
542.78	9.063
543.12	8.582
543.46	8.852
543.80	8.693
544.14	8.438
544.48	9.634
544.82	8.618
545.16	8.408
545.50	8.987
545.84	8.879
546.18	9.877
546.52	7.707
546.86	8.742
547.20	8.715
547.54	8.052
547.88	8.077
548.22	7.778
548.56	8.426
548.90	8.179
549.24	8.754
549.58	7.950
549.92	8.099
550.26	8.803
550.60	8.041
550.94	8.538
551.28	8.053
551.62	9.030
551.96	9.126
552.30	8.668
552.64	8.276
552.98	8.110
553.32	8.875
553.66	7.588
554.00	7.818
554.34	8.301
554.68	8.263
555.02	8.147
555.36	8.416
555.69	7.303
556.03	6.936
556.37	8.073
556.71	8.244
557.05	7.859
557.39	7.631
557.73	8.190
558.07	7.682
558.41	8.040
558.75	7.167
559.08	7.933
559.42	8.093
559.76	8.277
560.10	7.636
560.44	8.047
560.78	8.563
561.12	8.005
561.45	7.908
561.79	8.059
562.13	8.380
562.47	7.583
562.81	7.911
563.15	8.081
563.48	7.707
563.82	7.739
564.16	6.965
564.50	7.807
564.84	7.434
565.17	7.647
565.51	7.595
565.85	7.660
566.19	6.912
566.52	7.665
566.86	7.923
567.20	6.906
567.54	7.116
567.88	7.747
568.21	8.004
568.55	7.578
568.89	7.989
569.23	8.154
569.56	7.816
569.90	7.520
570.24	7.926
570.57	7.024
570.91	7.134
571.25	7.579
571.59	7.626
571.92	7.356
572.26	7.623
572.60	7.480
572.93	7.487
573.27	7.277
573.61	7.623
573.95	7.890
574.28	7.498
574.62	6.958
574.96	7.036
575.29	7.403
575.63	7.230
575.97	7.353
576.30	7.451
576.64	7.325
576.98	7.403
577.31	7.271
577.65	7.491
577.98	7.248
578.32	7.152
578.66	7.256
578.99	7.311
579.33	7.314
579.67	6.800
580.00	6.900
580.34	7.264
580.67	6.995
581.01	6.988
581.35	7.013
581.68	7.010
582.02	7.117
582.35	7.185
582.69	7.236
583.02	7.326
583.36	7.106
583.70	7.294
584.03	7.463
584.37	7.356
584.70	7.066
585.04	7.115
585.37	6.849
585.71	7.163
586.04	7.089
586.38	7.149
586.72	6.718
587.05	6.882
587.39	6.806
587.72	6.914
588.06	6.963
588.39	7.170
588.73	6.720
589.06	6.941
589.40	7.314
589.73	7.359
590.07	7.129
590.40	7.133
590.73	6.575
591.07	7.260
591.40	7.037
591.74	6.598
592.07	7.065
592.41	6.782
592.74	6.638
593.08	7.102
593.41	6.941
593.75	7.040
594.08	6.634
594.41	6.667
594.75	6.941
595.08	6.494
595.42	6.981
595.75	6.845
596.09	6.913
596.42	6.808
596.75	7.294
597.09	7.111
597.42	7.231
597.75	6.742
598.09	7.460
598.42	7.157
598.76	6.381
599.09	7.049
599.42	6.336
599.76	6.900
600.09	6.840
600.42	7.007
600.76	6.638
601.09	6.638
601.42	6.591
601.76	6.310
602.09	6.648
602.42	6.216
602.76	6.421
603.09	7.085
603.42	6.936
603.76	5.990
604.09	7.204
604.42	7.119
604.76	6.545
605.09	7.020
605.42	6.738
605.75	6.269
606.09	6.831
606.42	6.530
606.75	6.259
607.09	6.413
607.42	6.782
607.75	6.487
608.08	6.590
608.42	6.933
608.75	6.675
609.08	6.409
609.41	7.058
609.75	6.875
610.08	6.420
610.41	6.669
610.74	6.933
611.07	6.528
611.41	6.726
611.74	6.697
612.07	7.293
612.40	7.224
612.73	6.308
613.07	6.601
613.40	6.882
613.73	6.500
614.06	6.232
614.39	6.122
614.72	6.453
615.06	6.882
615.39	6.138
615.72	6.114
616.05	7.091
616.38	6.761
616.71	7.001
617.05	6.177
617.38	6.635
617.71	7.235
618.04	6.368
618.37	6.721
618.70	6.505
619.03	6.452
619.36	6.165
619.69	7.047
620.03	6.403
620.36	6.748
620.69	6.169
621.02	6.627
621.35	6.386
621.68	6.725
622.01	6.833
622.34	6.067
622.67	6.117
623.00	5.061
623.33	6.503
623.66	6.485
623.99	5.727
624.32	7.407
624.65	6.178
624.99	6.502
625.32	6.924
625.65	6.878
625.98	6.237
626.31	6.662
626.64	6.960
626.97	6.077
627.30	5.315
627.63	6.077
627.96	6.757
628.29	7.315
628.62	6.129
628.95	5.697
629.28	5.013
629.61	5.976
629.94	4.854
630.26	6.695
630.59	6.563
630.92	5.022
631.25	6.351
631.58	6.121
631.91	6.092
632.24	6.340
632.57	5.882
632.90	5.316
633.23	6.531
633.56	5.612
633.89	4.959
634.22	5.925
634.55	5.324
634.88	5.628
635.20	6.459
635.53	6.102
635.86	5.634
636.19	8.059
636.52	5.802
636.85	6.027
637.18	5.613
637.51	6.667
637.83	6.091
638.16	6.336
638.49	4.930
638.82	5.862
639.15	5.269
639.48	6.005
639.81	6.467
640.13	6.714
640.46	5.818
640.79	4.779
641.12	6.211
641.45	5.897
641.77	7.317
642.10	6.037
642.43	6.250
642.76	5.962
643.09	5.479
643.41	5.882
643.74	5.793
644.07	6.345
644.40	5.092
644.73	7.257
645.05	5.140
645.38	6.475
645.71	3.812
646.04	6.313
646.36	5.839
646.69	5.675
647.02	5.963
