SpectraSuite Data File
++++++++++++++++++++++++++++++++++++
Date: Thu May 14 16:21:32 PDT 2015
User: schluterlab
Dark Spectrum Present: Yes
Reference Spectrum Present: Yes
Number of Sampled Component Spectra: 1
Spectrometers: USB2E3373
Integration Time (usec): 3000 (USB2E3373)
Spectra Averaged: 3 (USB2E3373)
Boxcar Smoothing: 0 (USB2E3373)
Correct for Electrical Dark: No (USB2E3373)
Strobe/Lamp Enabled: No (USB2E3373)
Correct for Detector Non-linearity: No (USB2E3373)
Correct for Stray Light: No (USB2E3373)
Number of Pixels in Processed Spectrum: 2048
>>>>>Begin Processed Spectral Data<<<<<
178.53	0.000
178.91	100.000
179.29	-2200.000
179.67	-1300.000
180.04	178.571
180.42	60.000
180.80	240.000
181.18	200.000
181.56	100.000
181.94	125.000
182.31	-75.000
182.69	133.333
183.07	-500.000
183.45	150.000
183.83	-166.667
184.20	-466.667
184.58	300.000
184.96	-325.000
185.34	-44.444
185.72	0.000
186.09	144.444
186.47	600.000
186.85	380.000
187.23	-122.222
187.61	-1600.000
187.98	20.000
188.36	150.000
188.74	-200.000
189.12	-300.000
189.49	0.000
189.87	-200.000
190.25	0.000
190.63	20.000
191.00	-144.444
191.38	0.000
191.76	-225.000
192.14	-33.333
192.51	550.000
192.89	66.667
193.27	0.000
193.65	-14.286
194.02	-1800.000
194.40	85.714
194.78	300.000
195.15	0.000
195.53	9.091
195.91	0.000
196.29	-75.000
196.66	-53.846
197.04	-600.000
197.42	-85.714
197.79	-400.000
198.17	12.500
198.55	-28.571
198.92	0.000
199.30	-100.000
199.68	-18.182
200.05	21.429
200.43	-750.000
200.81	214.286
201.18	0.000
201.56	277.778
201.94	0.000
202.31	200.000
202.69	-200.000
203.07	700.000
203.44	11.111
203.82	-150.000
204.19	33.333
204.57	-66.667
204.95	-62.500
205.32	-800.000
205.70	50.000
206.08	-150.000
206.45	-216.667
206.83	240.000
207.20	66.667
207.58	-120.000
207.96	-83.333
208.33	150.000
208.71	116.667
209.08	-83.333
209.46	0.000
209.84	200.000
210.21	200.000
210.59	50.000
210.96	366.667
211.34	0.000
211.71	0.000
212.09	-900.000
212.46	0.000
212.84	750.000
213.22	-60.000
213.59	25.000
213.97	-20.000
214.34	-233.333
214.72	66.667
215.09	-150.000
215.47	0.000
215.84	157.143
216.22	500.000
216.59	0.000
216.97	40.000
217.34	-150.000
217.72	-50.000
218.09	-225.000
218.47	-225.000
218.84	0.000
219.22	80.000
219.59	-5.882
219.97	55.000
220.34	450.000
220.72	-77.778
221.09	-15.385
221.47	-133.333
221.84	-30.000
222.22	-171.429
222.59	0.000
222.97	25.000
223.34	-200.000
223.72	-100.000
224.09	-200.000
224.46	-250.000
224.84	-60.000
225.21	-100.000
225.59	-175.000
225.96	-250.000
226.34	7.692
226.71	233.333
227.08	-400.000
227.46	0.000
227.83	-25.000
228.21	0.000
228.58	125.000
228.95	-50.000
229.33	-58.333
229.70	-100.000
230.08	5.263
230.45	170.000
230.82	-266.667
231.20	-28.571
231.57	-33.333
231.95	-136.364
232.32	36.364
232.69	-15.000
233.07	-25.000
233.44	-17.647
233.81	-70.000
234.19	-16.667
234.56	36.364
234.93	13.793
235.31	-15.789
235.68	-50.000
236.05	-65.000
236.43	-3.846
236.80	56.000
237.17	0.000
237.55	9.091
237.92	-150.000
238.29	-12.903
238.67	0.000
239.04	-11.111
239.41	-9.524
239.79	-6.522
240.16	-14.815
240.53	-32.609
240.91	-23.529
241.28	-11.475
241.65	-5.970
242.02	14.865
242.40	-15.385
242.77	-2.667
243.14	-8.537
243.51	-13.158
243.89	-17.949
244.26	1.980
244.63	-3.922
245.00	0.000
245.38	-5.263
245.75	-10.619
246.12	5.556
246.49	-4.651
246.87	-4.286
247.24	1.987
247.61	0.000
247.98	-5.369
248.36	-3.704
248.73	-4.294
249.10	-4.918
249.47	0.995
249.84	1.571
250.22	-2.591
250.59	0.556
250.96	0.455
251.33	-4.592
251.70	0.427
252.08	0.833
252.45	4.918
252.82	-3.306
253.19	0.781
253.56	1.141
253.94	-4.615
254.31	0.000
254.68	-0.350
255.05	2.932
255.42	2.041
255.79	-1.618
256.16	-1.987
256.54	-1.987
256.91	-1.311
257.28	-1.967
257.65	-2.229
258.02	-2.360
258.39	0.000
258.76	0.917
259.14	-1.724
259.51	0.288
259.88	-1.133
260.25	0.556
260.62	1.096
260.99	2.459
261.36	1.340
261.73	-1.592
262.10	-1.099
262.47	-1.609
262.85	2.525
263.22	-2.338
263.59	-0.526
263.96	-0.767
264.33	-4.092
264.70	-0.247
265.07	2.387
265.44	2.494
265.81	-0.694
266.18	2.948
266.55	0.893
266.92	-0.456
267.29	2.407
267.66	-0.665
268.03	0.437
268.40	-0.209
268.77	-2.733
269.14	-0.661
269.51	0.219
269.88	2.049
270.25	-0.604
270.62	-0.422
270.99	1.212
271.36	0.792
271.73	1.572
272.10	1.002
272.47	1.403
272.84	0.201
273.21	0.000
273.58	0.605
273.95	-0.192
274.32	0.000
274.69	0.000
275.06	0.733
275.43	-0.370
275.80	0.705
276.17	-1.481
276.54	-1.306
276.91	-0.537
277.28	0.181
277.65	1.616
278.02	0.184
278.39	-0.725
278.76	0.879
279.13	-0.355
279.50	1.203
279.87	1.073
280.23	-1.232
280.60	2.542
280.97	2.303
281.34	-1.019
281.71	0.846
282.08	-0.498
282.45	0.000
282.82	1.413
283.19	-1.777
283.56	-0.164
283.92	2.853
284.29	1.422
284.66	1.149
285.03	-0.962
285.40	1.546
285.77	0.000
286.14	2.137
286.51	1.218
286.87	1.106
287.24	1.205
287.61	0.000
287.98	-1.057
288.35	0.000
288.72	-1.036
289.08	2.782
289.45	1.183
289.82	0.452
290.19	0.718
290.56	2.254
290.93	1.141
291.29	1.102
291.66	0.275
292.03	0.407
292.40	2.721
292.77	0.270
293.13	1.759
293.50	0.788
293.87	1.208
294.24	3.333
294.60	2.276
294.97	-1.074
295.34	1.665
295.71	1.261
296.08	0.904
296.44	1.838
296.81	1.096
297.18	1.121
297.55	0.708
297.91	1.068
298.28	0.711
298.65	2.140
299.02	1.417
299.38	1.945
299.75	1.636
300.12	0.579
300.48	1.843
300.85	2.362
301.22	1.902
301.59	1.256
301.95	1.130
302.32	3.111
302.69	1.752
303.05	2.503
303.42	2.993
303.79	2.604
304.15	2.839
304.52	1.797
304.89	2.304
305.25	2.070
305.62	2.194
305.99	2.371
306.35	0.706
306.72	2.482
307.09	2.437
307.45	3.623
307.82	2.725
308.19	2.624
308.55	3.857
308.92	2.240
309.29	3.927
309.65	1.754
310.02	2.673
310.38	2.559
310.75	3.010
311.12	4.123
311.48	2.933
311.85	3.419
312.22	4.269
312.58	4.789
312.95	3.537
313.31	4.336
313.68	5.037
314.05	6.143
314.41	6.102
314.78	4.723
315.14	5.082
315.51	6.556
315.87	6.751
316.24	6.849
316.61	7.726
316.97	5.701
317.34	6.966
317.70	7.860
318.07	7.672
318.43	8.588
318.80	9.615
319.16	8.412
319.53	8.055
319.89	7.975
320.26	9.342
320.62	9.663
320.99	10.434
321.35	10.259
321.72	11.628
322.08	10.370
322.45	11.743
322.81	12.094
323.18	11.947
323.54	12.241
323.91	12.722
324.27	12.737
324.64	14.274
325.00	13.599
325.37	15.152
325.73	15.372
326.10	16.302
326.46	17.264
326.83	16.653
327.19	17.008
327.56	16.285
327.92	18.096
328.29	17.742
328.65	17.085
329.01	17.597
329.38	17.860
329.74	19.521
330.11	19.949
330.47	19.882
330.84	18.949
331.20	20.500
331.56	19.497
331.93	19.749
332.29	21.356
332.66	20.349
333.02	20.017
333.38	19.883
333.75	19.276
334.11	19.349
334.48	21.782
334.84	21.410
335.20	20.067
335.57	20.826
335.93	22.066
336.29	19.800
336.66	19.680
337.02	21.321
337.38	20.493
337.75	21.653
338.11	21.278
338.47	21.257
338.84	20.812
339.20	19.966
339.56	21.087
339.93	20.854
340.29	21.659
340.65	21.817
341.02	22.346
341.38	21.908
341.74	20.904
342.11	21.319
342.47	20.334
342.83	21.820
343.20	21.177
343.56	21.251
343.92	21.137
344.28	21.406
344.65	21.318
345.01	21.763
345.37	20.918
345.73	20.577
346.10	21.061
346.46	21.203
346.82	21.498
347.19	21.467
347.55	22.003
347.91	20.654
348.27	22.458
348.63	20.792
349.00	21.402
349.36	21.338
349.72	21.131
350.08	22.065
350.45	22.357
350.81	21.644
351.17	20.376
351.53	21.304
351.89	21.640
352.26	20.896
352.62	22.015
352.98	21.527
353.34	20.314
353.70	21.803
354.07	21.311
354.43	20.881
354.79	21.391
355.15	21.339
355.51	22.515
355.87	20.942
356.24	22.662
356.60	20.916
356.96	20.979
357.32	21.115
357.68	22.182
358.04	21.632
358.40	21.940
358.77	20.833
359.13	22.083
359.49	21.338
359.85	21.682
360.21	21.879
360.57	21.034
360.93	21.791
361.29	22.175
361.66	22.013
362.02	22.408
362.38	22.207
362.74	21.508
363.10	22.902
363.46	22.091
363.82	21.733
364.18	21.886
364.54	23.098
364.90	22.140
365.26	22.000
365.62	22.867
365.98	22.328
366.35	21.745
366.71	21.429
367.07	22.936
367.43	21.799
367.79	22.561
368.15	22.876
368.51	22.057
368.87	22.926
369.23	22.067
369.59	22.951
369.95	23.056
370.31	23.228
370.67	21.596
371.03	22.922
371.39	21.424
371.75	22.627
372.11	22.019
372.47	23.020
372.83	21.990
373.19	22.215
373.55	22.222
373.91	21.950
374.27	23.157
374.63	23.072
374.99	22.480
375.35	22.597
375.71	22.452
376.07	22.402
376.42	22.481
376.78	23.369
377.14	22.645
377.50	22.391
377.86	23.399
378.22	23.114
378.58	23.187
378.94	23.298
379.30	23.199
379.66	23.516
380.02	23.024
380.38	24.078
380.74	22.986
381.09	22.822
381.45	23.580
381.81	24.415
382.17	23.990
382.53	23.158
382.89	23.307
383.25	23.505
383.61	23.206
383.97	23.204
384.32	23.266
384.68	22.912
385.04	23.540
385.40	24.337
385.76	23.798
386.12	23.579
386.48	23.647
386.83	23.659
387.19	23.754
387.55	22.477
387.91	22.717
388.27	23.788
388.62	23.024
388.98	23.125
389.34	24.691
389.70	23.068
390.06	23.387
390.42	22.349
390.77	24.383
391.13	23.768
391.49	22.464
391.85	22.303
392.20	23.310
392.56	23.922
392.92	23.282
393.28	23.770
393.64	22.682
393.99	23.707
394.35	24.357
394.71	24.431
395.07	22.216
395.42	22.844
395.78	23.888
396.14	22.698
396.50	23.040
396.85	22.779
397.21	22.367
397.57	22.733
397.92	22.050
398.28	22.379
398.64	23.112
399.00	22.356
399.35	22.827
399.71	22.717
400.07	23.189
400.42	23.108
400.78	23.553
401.14	22.482
401.49	23.422
401.85	22.384
402.21	22.306
402.57	23.474
402.92	23.227
403.28	22.365
403.63	21.539
403.99	22.447
404.35	22.854
404.70	21.870
405.06	22.935
405.42	22.190
405.77	22.792
406.13	22.366
406.49	23.029
406.84	22.050
407.20	22.918
407.55	22.108
407.91	23.130
408.27	22.261
408.62	21.990
408.98	21.997
409.34	22.757
409.69	22.559
410.05	22.157
410.40	22.274
410.76	21.929
411.11	22.092
411.47	22.973
411.83	22.163
412.18	21.867
412.54	22.703
412.89	22.817
413.25	22.686
413.60	21.137
413.96	22.902
414.31	21.926
414.67	21.944
415.03	21.785
415.38	22.573
415.74	21.075
416.09	22.023
416.45	21.540
416.80	22.032
417.16	21.775
417.51	22.540
417.87	22.747
418.22	22.156
418.58	21.314
418.93	23.458
419.29	22.380
419.64	22.089
420.00	21.602
420.35	22.010
420.71	22.975
421.06	21.564
421.42	22.936
421.77	21.271
422.12	22.833
422.48	22.427
422.83	22.508
423.19	22.281
423.54	22.345
423.90	21.480
424.25	22.773
424.61	21.986
424.96	21.801
425.31	23.355
425.67	22.491
426.02	22.136
426.38	22.101
426.73	22.321
427.09	23.183
427.44	22.884
427.79	22.996
428.15	23.059
428.50	22.191
428.85	22.675
429.21	23.404
429.56	22.655
429.92	22.359
430.27	22.651
430.62	23.302
430.98	22.282
431.33	22.972
431.68	22.318
432.04	23.261
432.39	23.139
432.74	23.174
433.10	23.256
433.45	23.077
433.80	23.230
434.16	23.967
434.51	24.203
434.86	22.856
435.22	23.539
435.57	24.292
435.92	23.817
436.28	23.777
436.63	23.976
436.98	23.618
437.34	24.464
437.69	24.601
438.04	23.797
438.39	24.411
438.75	24.737
439.10	24.260
439.45	24.203
439.81	24.124
440.16	23.539
440.51	24.526
440.86	24.958
441.22	25.027
441.57	24.633
441.92	25.461
442.27	25.556
442.63	25.484
442.98	25.560
443.33	24.882
443.68	25.273
444.03	25.588
444.39	25.428
444.74	25.319
445.09	24.785
445.44	25.184
445.79	25.766
446.15	26.670
446.50	25.323
446.85	25.924
447.20	25.387
447.55	25.262
447.91	25.969
448.26	25.476
448.61	25.080
448.96	26.985
449.31	25.716
449.66	24.946
450.02	25.738
450.37	25.892
450.72	25.511
451.07	26.765
451.42	25.592
451.77	25.625
452.12	25.903
452.47	26.203
452.83	26.464
453.18	26.095
453.53	25.962
453.88	25.897
454.23	25.876
454.58	26.059
454.93	24.636
455.28	26.851
455.63	26.322
455.98	26.872
456.34	25.972
456.69	26.102
457.04	26.596
457.39	25.998
457.74	26.678
458.09	25.755
458.44	26.616
458.79	25.580
459.14	25.800
459.49	26.542
459.84	25.656
460.19	25.430
460.54	26.746
460.89	26.416
461.24	25.460
461.59	26.508
461.94	24.701
462.29	25.588
462.64	25.468
462.99	25.926
463.34	25.633
463.69	25.615
464.04	26.737
464.39	25.729
464.74	25.941
465.09	26.471
465.44	26.073
465.79	25.965
466.14	25.482
466.49	26.368
466.84	25.785
467.19	26.185
467.54	26.263
467.89	25.690
468.24	25.263
468.59	25.304
468.94	24.709
469.29	24.895
469.64	25.238
469.99	26.259
470.34	25.248
470.68	27.068
471.03	25.868
471.38	26.357
471.73	25.358
472.08	26.269
472.43	25.226
472.78	26.008
473.13	26.296
473.48	25.982
473.83	26.001
474.17	25.733
474.52	26.158
474.87	25.471
475.22	25.972
475.57	24.299
475.92	25.087
476.27	26.411
476.61	24.870
476.96	25.287
477.31	25.644
477.66	26.810
478.01	25.318
478.36	24.626
478.70	25.369
479.05	26.227
479.40	25.469
479.75	25.168
480.10	25.486
480.45	25.205
480.79	24.989
481.14	25.000
481.49	25.488
481.84	24.456
482.19	24.946
482.53	25.404
482.88	25.698
483.23	25.167
483.58	25.109
483.92	24.734
484.27	24.598
484.62	24.670
484.97	25.117
485.31	23.970
485.66	23.683
486.01	24.229
486.36	24.797
486.70	25.434
487.05	25.258
487.40	24.518
487.75	24.097
488.09	23.781
488.44	23.859
488.79	24.115
489.13	24.077
489.48	23.728
489.83	23.742
490.17	24.058
490.52	24.179
490.87	24.196
491.22	24.133
491.56	24.445
491.91	24.597
492.26	24.535
492.60	24.486
492.95	24.309
493.30	23.846
493.64	24.661
493.99	24.386
494.34	24.347
494.68	23.897
495.03	24.053
495.37	24.412
495.72	23.356
496.07	24.671
496.41	23.509
496.76	24.604
497.11	24.544
497.45	24.169
497.80	23.190
498.14	23.764
498.49	23.989
498.84	23.949
499.18	23.392
499.53	23.229
499.87	23.385
500.22	22.974
500.56	23.977
500.91	23.661
501.26	23.818
501.60	23.023
501.95	23.665
502.29	23.695
502.64	23.787
502.98	23.382
503.33	23.456
503.67	22.983
504.02	23.336
504.36	24.129
504.71	23.702
505.06	23.465
505.40	23.172
505.75	23.087
506.09	23.527
506.44	23.213
506.78	23.211
507.13	23.836
507.47	23.828
507.82	22.917
508.16	22.514
508.51	23.066
508.85	22.485
509.19	23.685
509.54	22.815
509.88	23.167
510.23	22.681
510.57	24.360
510.92	22.738
511.26	21.597
511.61	22.598
511.95	22.304
512.30	23.092
512.64	22.039
512.98	22.061
513.33	22.681
513.67	22.234
514.02	22.637
514.36	22.609
514.70	22.240
515.05	22.576
515.39	22.992
515.74	22.587
516.08	22.927
516.42	23.339
516.77	22.397
517.11	22.176
517.46	23.489
517.80	22.715
518.14	22.633
518.49	22.289
518.83	21.660
519.17	21.540
519.52	22.537
519.86	22.228
520.20	21.991
520.55	22.125
520.89	21.791
521.23	21.496
521.58	21.695
521.92	22.323
522.26	21.478
522.61	21.528
522.95	20.934
523.29	22.011
523.64	21.581
523.98	22.191
524.32	21.948
524.66	21.742
525.01	20.725
525.35	20.678
525.69	21.404
526.04	20.666
526.38	21.667
526.72	21.165
527.06	21.114
527.41	20.641
527.75	21.378
528.09	20.779
528.43	20.485
528.78	20.751
529.12	21.044
529.46	20.911
529.80	20.881
530.15	20.870
530.49	20.107
530.83	21.015
531.17	19.952
531.51	21.119
531.86	20.673
532.20	20.671
532.54	19.928
532.88	20.364
533.22	20.978
533.57	20.600
533.91	20.034
534.25	20.972
534.59	20.747
534.93	19.355
535.27	19.493
535.62	20.011
535.96	20.569
536.30	20.447
536.64	19.520
536.98	21.095
537.32	19.877
537.66	20.337
538.01	19.758
538.35	20.463
538.69	18.990
539.03	20.049
539.37	19.965
539.71	19.820
540.05	20.264
540.39	19.010
540.73	19.126
541.07	18.639
541.42	19.138
541.76	18.683
542.10	19.059
542.44	18.149
542.78	19.100
543.12	19.190
543.46	18.987
543.80	18.765
544.14	19.090
544.48	18.735
544.82	19.569
545.16	18.843
545.50	18.993
545.84	18.861
546.18	19.383
546.52	18.790
546.86	19.119
547.20	19.084
547.54	18.227
547.88	18.324
548.22	18.947
548.56	18.724
548.90	18.328
549.24	18.602
549.58	18.423
549.92	19.133
550.26	19.547
550.60	18.634
550.94	19.664
551.28	17.360
551.62	19.272
551.96	18.706
552.30	19.630
552.64	18.544
552.98	18.590
553.32	18.328
553.66	17.685
554.00	17.970
554.34	17.954
554.68	18.722
555.02	19.054
555.36	18.343
555.69	17.873
556.03	17.970
556.37	18.461
556.71	18.009
557.05	18.211
557.39	17.518
557.73	17.635
558.07	17.152
558.41	18.870
558.75	17.512
559.08	18.093
559.42	17.558
559.76	18.046
560.10	17.482
560.44	18.008
560.78	18.625
561.12	16.441
561.45	18.309
561.79	17.766
562.13	16.821
562.47	17.694
562.81	17.342
563.15	18.056
563.48	18.334
563.82	17.956
564.16	16.778
564.50	16.567
564.84	17.640
565.17	17.824
565.51	16.398
565.85	17.399
566.19	17.396
566.52	17.086
566.86	16.978
567.20	16.531
567.54	17.366
567.88	16.667
568.21	16.403
568.55	16.787
568.89	17.204
569.23	17.237
569.56	16.022
569.90	16.892
570.24	16.830
570.57	16.389
570.91	15.922
571.25	16.633
571.59	16.309
571.92	16.578
572.26	16.305
572.60	16.107
572.93	16.616
573.27	15.369
573.61	15.776
573.95	16.169
574.28	16.048
574.62	15.553
574.96	15.637
575.29	15.752
575.63	15.893
575.97	15.593
576.30	15.741
576.64	15.295
576.98	15.467
577.31	15.769
577.65	15.972
577.98	15.907
578.32	15.389
578.66	15.530
578.99	15.503
579.33	15.540
579.67	15.005
580.00	15.352
580.34	15.118
580.67	14.960
581.01	14.950
581.35	15.098
581.68	15.723
582.02	15.179
582.35	15.932
582.69	15.618
583.02	15.306
583.36	15.075
583.70	15.224
584.03	14.687
584.37	14.786
584.70	15.183
585.04	14.857
585.37	15.223
585.71	15.189
586.04	14.795
586.38	15.367
586.72	14.841
587.05	14.786
587.39	15.084
587.72	14.928
588.06	15.135
588.39	15.086
588.73	15.238
589.06	15.265
589.40	15.274
589.73	15.135
590.07	15.020
590.40	15.416
590.73	15.129
591.07	15.376
591.40	14.114
591.74	15.302
592.07	15.104
592.41	14.590
592.74	15.477
593.08	14.904
593.41	14.931
593.75	14.799
594.08	15.117
594.41	14.808
594.75	14.447
595.08	14.569
595.42	14.708
595.75	14.982
596.09	14.842
596.42	14.475
596.75	14.743
597.09	14.626
597.42	13.707
597.75	14.387
598.09	14.444
598.42	15.038
598.76	14.215
599.09	14.311
599.42	14.080
599.76	14.757
600.09	14.681
600.42	14.481
600.76	14.201
601.09	13.674
601.42	14.246
601.76	13.655
602.09	14.189
602.42	14.322
602.76	13.985
603.09	13.803
603.42	14.812
603.76	13.883
604.09	14.478
604.42	14.312
604.76	14.498
605.09	14.081
605.42	14.394
605.75	14.269
606.09	13.811
606.42	14.301
606.75	13.868
607.09	13.863
607.42	13.757
607.75	13.951
608.08	14.365
608.42	13.180
608.75	14.303
609.08	13.879
609.41	14.160
609.75	13.170
610.08	14.072
610.41	13.679
610.74	14.328
611.07	13.854
611.41	14.126
611.74	13.718
612.07	14.446
612.40	13.831
612.73	14.132
613.07	13.741
613.40	14.052
613.73	12.711
614.06	13.739
614.39	13.751
614.72	12.906
615.06	13.282
615.39	13.340
615.72	13.839
616.05	13.696
616.38	12.866
616.71	13.427
617.05	12.993
617.38	13.590
617.71	12.905
618.04	13.330
618.37	13.989
618.70	13.971
619.03	12.903
619.36	12.700
619.69	13.517
620.03	12.932
620.36	12.761
620.69	12.647
621.02	13.714
621.35	13.135
621.68	13.449
622.01	12.527
622.34	12.971
622.67	13.265
623.00	12.348
623.33	12.741
623.66	13.294
623.99	12.837
624.32	13.450
624.65	13.063
624.99	12.809
625.32	13.521
625.65	13.891
625.98	12.678
626.31	13.253
626.64	12.527
626.97	13.428
627.30	12.149
627.63	12.603
627.96	14.114
628.29	13.152
628.62	12.762
628.95	12.358
629.28	11.725
629.61	11.616
629.94	12.218
630.26	12.034
630.59	12.694
630.92	12.121
631.25	13.327
631.58	12.618
631.91	11.621
632.24	12.680
632.57	13.093
632.90	12.839
633.23	13.571
633.56	13.061
633.89	12.707
634.22	13.514
634.55	12.526
634.88	12.013
635.20	13.025
635.53	12.429
635.86	12.893
636.19	12.725
636.52	13.819
636.85	13.381
