SpectraSuite Data File
++++++++++++++++++++++++++++++++++++
Date: Thu May 14 16:24:41 PDT 2015
User: schluterlab
Dark Spectrum Present: Yes
Reference Spectrum Present: Yes
Number of Sampled Component Spectra: 1
Spectrometers: USB2E3373
Integration Time (usec): 3000 (USB2E3373)
Spectra Averaged: 3 (USB2E3373)
Boxcar Smoothing: 0 (USB2E3373)
Correct for Electrical Dark: No (USB2E3373)
Strobe/Lamp Enabled: No (USB2E3373)
Correct for Detector Non-linearity: No (USB2E3373)
Correct for Stray Light: No (USB2E3373)
Number of Pixels in Processed Spectrum: 2048
>>>>>Begin Processed Spectral Data<<<<<
178.53	0.000
178.91	42.857
179.29	-2000.000
179.67	-1000.000
180.04	100.000
180.42	90.000
180.80	180.000
181.18	-800.000
181.56	1000.000
181.94	125.000
182.31	-125.000
182.69	33.333
183.07	-550.000
183.45	200.000
183.83	-66.667
184.20	-100.000
184.58	-300.000
184.96	-75.000
185.34	-88.889
185.72	60.000
186.09	200.000
186.47	750.000
186.85	20.000
187.23	-100.000
187.61	-700.000
187.98	60.000
188.36	-0.000
188.74	-25.000
189.12	0.000
189.49	56.250
189.87	25.000
190.25	77.778
190.63	200.000
191.00	-11.111
191.38	0.000
191.76	-250.000
192.14	-33.333
192.51	250.000
192.89	33.333
193.27	0.000
193.65	85.714
194.02	-1000.000
194.40	14.286
194.78	-28.571
195.15	0.000
195.53	63.636
195.91	0.000
196.29	25.000
196.66	0.000
197.04	-500.000
197.42	-28.571
197.79	-350.000
198.17	-37.500
198.55	0.000
198.92	33.333
199.30	-100.000
199.68	27.273
200.05	14.286
200.43	-750.000
200.81	157.143
201.18	0.000
201.56	166.667
201.94	0.000
202.31	233.333
202.69	-55.556
203.07	-0.000
203.44	77.778
203.82	175.000
204.19	-8.333
204.57	-116.667
204.95	-100.000
205.32	-800.000
205.70	175.000
206.08	-116.667
206.45	66.667
206.83	360.000
207.20	-50.000
207.58	-320.000
207.96	-116.667
208.33	116.667
208.71	25.000
209.08	100.000
209.46	0.000
209.84	50.000
210.21	-300.000
210.59	-400.000
210.96	533.333
211.34	-25.000
211.71	0.000
212.09	-500.000
212.46	0.000
212.84	850.000
213.22	-160.000
213.59	50.000
213.97	30.000
214.34	33.333
214.72	133.333
215.09	-200.000
215.47	0.000
215.84	42.857
216.22	850.000
216.59	-240.000
216.97	-200.000
217.34	25.000
217.72	62.500
218.09	-100.000
218.47	-150.000
218.84	0.000
219.22	180.000
219.59	35.294
219.97	0.000
220.34	550.000
220.72	-22.222
221.09	-7.692
221.47	-133.333
221.84	-70.000
222.22	-214.286
222.59	0.000
222.97	-12.500
223.34	-120.000
223.72	-100.000
224.09	0.000
224.46	-150.000
224.84	160.000
225.21	-14.286
225.59	-175.000
225.96	-50.000
226.34	34.615
226.71	166.667
227.08	-600.000
227.46	53.333
227.83	-75.000
228.21	0.000
228.58	12.500
228.95	-300.000
229.33	-75.000
229.70	-70.000
230.08	68.421
230.45	130.000
230.82	0.000
231.20	-28.571
231.57	50.000
231.95	-72.727
232.32	9.091
232.69	55.000
233.07	-150.000
233.44	-23.529
233.81	-30.000
234.19	38.889
234.56	27.273
234.93	13.793
235.31	15.789
235.68	-11.111
236.05	-10.000
236.43	19.231
236.80	28.000
237.17	18.519
237.55	15.152
237.92	20.000
238.29	6.452
238.67	6.818
239.04	41.667
239.41	30.952
239.79	13.043
240.16	16.667
240.53	10.870
240.91	0.000
241.28	27.869
241.65	34.328
242.02	24.324
242.40	16.923
242.77	24.000
243.14	17.073
243.51	7.895
243.89	30.769
244.26	30.693
244.63	28.431
245.00	26.168
245.38	27.193
245.75	22.124
246.12	36.508
246.49	28.682
246.87	27.143
247.24	35.099
247.61	26.316
247.98	26.846
248.36	24.691
248.73	30.061
249.10	28.415
249.47	33.333
249.84	32.461
250.22	25.907
250.59	30.556
250.96	30.000
251.33	27.551
251.70	30.769
252.08	32.083
252.45	27.049
252.82	26.860
253.19	27.734
253.56	31.939
253.94	27.308
254.31	25.758
254.68	33.566
255.05	28.339
255.42	27.891
255.79	32.686
256.16	26.490
256.54	27.483
256.91	31.803
257.28	28.525
257.65	23.885
258.02	26.549
258.39	29.345
258.76	32.722
259.14	28.736
259.51	33.429
259.88	30.028
260.25	28.333
260.62	30.685
260.99	33.060
261.36	30.831
261.73	26.525
262.10	28.297
262.47	30.831
262.85	35.101
263.22	26.234
263.59	29.211
263.96	34.015
264.33	30.179
264.70	29.630
265.07	30.788
265.44	29.252
265.81	28.241
266.18	30.612
266.55	29.241
266.92	28.474
267.29	30.635
267.66	29.933
268.03	29.694
268.40	29.854
268.77	26.651
269.14	25.110
269.51	31.360
269.88	29.098
270.25	29.577
270.62	31.013
270.99	29.293
271.36	28.911
271.73	28.487
272.10	29.459
272.47	28.056
272.84	25.904
273.21	27.856
273.58	28.427
273.95	27.500
274.32	26.046
274.69	25.145
275.06	29.304
275.43	26.802
275.80	26.631
276.17	27.963
276.54	25.560
276.91	26.834
277.28	26.040
277.65	28.725
278.02	28.676
278.39	26.087
278.76	27.944
279.13	28.014
279.50	26.976
279.87	28.086
280.23	25.000
280.60	28.136
280.97	27.796
281.34	25.806
281.71	27.919
282.08	26.080
282.45	25.205
282.82	26.845
283.19	25.687
283.56	26.721
283.92	26.727
284.29	27.646
284.66	27.750
285.03	24.199
285.40	25.966
285.77	26.006
286.14	25.954
286.51	26.180
286.87	25.434
287.24	26.355
287.61	26.457
287.98	26.586
288.35	25.296
288.72	27.071
289.08	26.794
289.45	24.112
289.82	24.247
290.19	26.293
290.56	26.197
290.93	24.536
291.29	24.793
291.66	23.829
292.03	24.830
292.40	25.442
292.77	24.394
293.13	25.981
293.50	22.865
293.87	24.161
294.24	26.000
294.60	24.779
294.97	23.624
295.34	24.200
295.71	23.455
296.08	23.256
296.44	23.407
296.81	23.386
297.18	22.790
297.55	21.934
297.91	22.539
298.28	21.919
298.65	22.235
299.02	23.731
299.38	23.570
299.75	22.196
300.12	24.074
300.48	22.005
300.85	23.397
301.22	22.595
301.59	21.689
301.95	21.582
302.32	23.222
302.69	22.782
303.05	22.524
303.42	22.949
303.79	21.771
304.15	21.872
304.52	21.564
304.89	22.408
305.25	21.325
305.62	22.048
305.99	23.093
306.35	21.472
306.72	22.751
307.09	21.320
307.45	22.671
307.82	22.200
308.19	22.704
308.55	23.433
308.92	22.590
309.29	23.276
309.65	22.027
310.02	22.970
310.38	21.260
310.75	23.883
311.12	22.435
311.48	21.994
311.85	22.507
312.22	21.537
312.58	22.254
312.95	21.415
313.31	22.855
313.68	22.711
314.05	23.758
314.41	23.588
314.78	23.887
315.14	22.505
315.51	23.546
315.87	22.682
316.24	24.110
316.61	23.890
316.97	23.801
317.34	21.869
317.70	24.192
318.07	23.104
318.43	22.704
318.80	23.495
319.16	23.090
319.53	22.108
319.89	22.086
320.26	22.776
320.62	23.138
320.99	23.084
321.35	22.643
321.72	23.907
322.08	24.707
322.45	23.848
322.81	23.466
323.18	24.867
323.54	22.759
323.91	23.932
324.27	23.580
324.64	23.929
325.00	24.046
325.37	24.488
325.73	23.884
326.10	25.385
326.46	24.267
326.83	24.820
327.19	25.433
327.56	24.190
327.92	24.626
328.29	24.677
328.65	24.707
329.01	25.635
329.38	24.431
329.74	26.199
330.11	25.000
330.47	25.358
330.84	24.548
331.20	26.083
331.56	26.083
331.93	24.686
332.29	26.610
332.66	25.415
333.02	25.293
333.38	25.168
333.75	25.421
334.11	24.354
334.48	24.917
334.84	26.083
335.20	25.273
335.57	26.138
335.93	25.372
336.29	25.874
336.66	25.484
337.02	25.334
337.38	25.000
337.75	24.463
338.11	25.736
338.47	24.731
338.84	25.127
339.20	23.926
339.56	24.712
339.93	25.287
340.29	25.684
340.65	25.142
341.02	24.900
341.38	26.112
341.74	24.617
342.11	25.020
342.47	23.511
342.83	26.329
343.20	24.857
343.56	25.742
343.92	25.460
344.28	25.703
344.65	26.202
345.01	25.351
345.37	24.806
345.73	24.786
346.10	26.365
346.46	24.684
346.82	25.843
347.19	25.516
347.55	25.114
347.91	25.557
348.27	25.341
348.63	25.666
349.00	24.981
349.36	26.245
349.72	25.372
350.08	26.523
350.45	25.779
350.81	24.962
351.17	25.714
351.53	26.156
351.89	25.816
352.26	25.970
352.62	25.597
352.98	26.794
353.34	26.139
353.70	26.117
354.07	26.528
354.43	26.803
354.79	26.402
355.15	26.049
355.51	26.389
355.87	26.253
356.24	26.768
356.60	25.647
356.96	27.131
357.32	26.320
357.68	27.086
358.04	25.898
358.40	26.567
358.77	26.608
359.13	26.366
359.49	26.840
359.85	27.121
360.21	27.475
360.57	27.279
360.93	27.786
361.29	27.579
361.66	27.371
362.02	28.114
362.38	29.234
362.74	28.003
363.10	29.092
363.46	27.493
363.82	28.125
364.18	28.431
364.54	28.216
364.90	28.963
365.26	28.138
365.62	28.800
365.98	28.659
366.35	29.463
366.71	28.571
367.07	29.432
367.43	28.234
367.79	30.458
368.15	29.164
368.51	29.296
368.87	29.654
369.23	29.533
369.59	30.396
369.95	30.291
370.31	31.533
370.67	30.124
371.03	30.263
371.39	29.886
371.75	31.843
372.11	31.233
372.47	31.618
372.83	30.825
373.19	29.953
373.55	30.691
373.91	31.629
374.27	31.177
374.63	31.867
374.99	31.167
375.35	31.039
375.71	31.871
376.07	32.214
376.42	32.683
376.78	32.753
377.14	32.002
377.50	33.270
377.86	33.682
378.22	33.533
378.58	33.115
378.94	32.570
379.30	33.685
379.66	33.921
380.02	33.872
380.38	34.908
380.74	33.859
381.09	34.727
381.45	34.659
381.81	35.422
382.17	35.036
382.53	35.731
382.89	34.989
383.25	36.460
383.61	35.475
383.97	35.984
384.32	37.201
384.68	34.919
385.04	35.917
385.40	37.419
385.76	37.222
386.12	36.625
386.48	37.824
386.83	37.783
387.19	36.501
387.55	37.383
387.91	38.071
388.27	38.222
388.62	38.373
388.98	37.958
389.34	39.010
389.70	38.698
390.06	38.188
390.42	38.253
390.77	40.217
391.13	38.732
391.49	40.036
391.85	39.273
392.20	39.739
392.56	40.106
392.92	39.531
393.28	39.967
393.64	39.385
393.99	42.127
394.35	40.888
394.71	42.275
395.07	41.617
395.42	41.405
395.78	42.535
396.14	42.127
396.50	41.449
396.85	40.250
397.21	41.302
397.57	41.755
397.92	42.440
398.28	41.608
398.64	41.991
399.00	40.890
399.35	42.042
399.71	42.391
400.07	43.796
400.42	42.549
400.78	43.287
401.14	42.743
401.49	43.206
401.85	43.779
402.21	44.148
402.57	44.601
402.92	43.853
403.28	43.735
403.63	45.167
403.99	44.359
404.35	44.059
404.70	44.136
405.06	44.891
405.42	43.794
405.77	45.038
406.13	44.949
406.49	45.833
406.84	45.263
407.20	45.947
407.55	45.790
407.91	46.574
408.27	45.878
408.62	46.306
408.98	46.837
409.34	45.279
409.69	47.590
410.05	47.069
410.40	47.158
410.76	46.719
411.11	47.925
411.47	46.253
411.83	47.913
412.18	48.795
412.54	47.896
412.89	47.264
413.25	47.573
413.60	47.329
413.96	48.368
414.31	47.819
414.67	47.943
415.03	46.954
415.38	48.928
415.74	48.259
416.09	47.995
416.45	47.965
416.80	49.266
417.16	49.425
417.51	47.945
417.87	48.130
418.22	48.922
418.58	47.770
418.93	49.010
419.29	49.753
419.64	47.599
420.00	47.656
420.35	48.737
420.71	48.478
421.06	47.844
421.42	48.796
421.77	47.173
422.12	48.679
422.48	48.387
422.83	50.000
423.19	48.223
423.54	49.668
423.90	48.592
424.25	49.067
424.61	49.024
424.96	48.215
425.31	48.195
425.67	48.417
426.02	48.700
426.38	47.819
426.73	48.326
427.09	49.942
427.44	47.242
427.79	48.867
428.15	48.345
428.50	49.382
428.85	48.852
429.21	48.617
429.56	48.667
429.92	48.059
430.27	47.711
430.62	48.705
430.98	48.451
431.33	47.801
431.68	47.126
432.04	47.689
432.39	47.831
432.74	47.203
433.10	47.810
433.45	47.603
433.80	48.766
434.16	48.089
434.51	48.715
434.86	49.023
435.22	48.512
435.57	49.116
435.92	48.414
436.28	48.407
436.63	50.082
436.98	47.343
437.34	48.929
437.69	48.266
438.04	48.493
438.39	48.995
438.75	48.478
439.10	48.890
439.45	48.239
439.81	47.853
440.16	48.954
440.51	49.331
440.86	47.248
441.22	47.588
441.57	48.795
441.92	47.333
442.27	48.889
442.63	47.591
442.98	47.652
443.33	47.870
443.68	48.167
444.03	47.977
444.39	48.359
444.74	48.188
445.09	47.998
445.44	49.104
445.79	48.467
446.15	48.201
446.50	47.545
446.85	48.298
447.20	47.776
447.55	48.849
447.91	47.853
448.26	47.569
448.61	48.778
448.96	49.785
449.31	47.773
449.66	47.113
450.02	46.835
450.37	47.416
450.72	48.332
451.07	48.064
451.42	47.140
451.77	47.693
452.12	47.799
452.47	47.415
452.83	48.930
453.18	46.994
453.53	48.076
453.88	47.322
454.23	46.554
454.58	48.288
454.93	46.905
455.28	47.381
455.63	47.527
455.98	47.263
456.34	46.349
456.69	46.678
457.04	47.222
457.39	46.508
457.74	46.868
458.09	45.909
458.44	46.713
458.79	46.622
459.14	46.408
459.49	47.538
459.84	46.852
460.19	45.808
460.54	47.359
460.89	46.903
461.24	45.287
461.59	47.205
461.94	46.035
462.29	46.473
462.64	46.107
462.99	47.018
463.34	47.177
463.69	45.428
464.04	45.636
464.39	46.300
464.74	46.009
465.09	46.367
465.44	46.084
465.79	45.955
466.14	46.222
466.49	46.000
466.84	45.344
467.19	45.896
467.54	46.005
467.89	44.943
468.24	46.205
468.59	45.223
468.94	45.105
469.29	46.731
469.64	45.963
469.99	47.610
470.34	47.030
470.68	46.617
471.03	48.527
471.38	47.024
471.73	46.164
472.08	46.574
472.43	46.839
472.78	45.970
473.13	46.776
473.48	47.190
473.83	46.605
474.17	46.542
474.52	47.084
474.87	45.736
475.22	46.085
475.57	45.846
475.92	45.893
476.27	45.527
476.61	45.639
476.96	46.038
477.31	47.079
477.66	47.324
478.01	46.568
478.36	47.159
478.70	47.241
479.05	46.677
479.40	46.051
479.75	45.965
480.10	46.566
480.45	46.490
480.79	46.122
481.14	45.450
481.49	45.752
481.84	46.127
482.19	46.409
482.53	46.261
482.88	45.148
483.23	46.776
483.58	45.502
483.92	44.371
484.27	45.301
484.62	44.142
484.97	44.246
485.31	44.245
485.66	42.317
486.01	41.182
486.36	42.033
486.70	42.823
487.05	44.374
487.40	44.579
487.75	44.173
488.09	44.181
488.44	43.681
488.79	44.013
489.13	43.845
489.48	43.301
489.83	43.501
490.17	42.527
490.52	43.144
490.87	43.274
491.22	43.588
491.56	43.729
491.91	42.564
492.26	43.531
492.60	43.463
492.95	43.133
493.30	42.716
493.64	43.320
493.99	43.158
494.34	42.726
494.68	42.141
495.03	43.304
495.37	42.521
495.72	42.313
496.07	42.463
496.41	42.128
496.76	42.952
497.11	42.378
497.45	42.339
497.80	42.559
498.14	42.268
498.49	42.371
498.84	42.824
499.18	42.330
499.53	42.870
499.87	42.022
500.22	41.585
500.56	41.655
500.91	42.471
501.26	43.273
501.60	41.847
501.95	43.118
502.29	42.475
502.64	41.627
502.98	42.019
503.33	41.339
503.67	40.994
504.02	41.419
504.36	42.359
504.71	42.536
505.06	41.428
505.40	42.002
505.75	42.441
506.09	42.035
506.44	42.665
506.78	42.569
507.13	42.877
507.47	42.634
507.82	42.756
508.16	42.686
508.51	42.382
508.85	42.513
509.19	43.013
509.54	42.747
509.88	42.448
510.23	43.371
510.57	44.176
510.92	42.380
511.26	41.943
511.61	41.864
511.95	42.753
512.30	43.427
512.64	43.028
512.98	42.821
513.33	43.347
513.67	43.039
514.02	43.689
514.36	43.376
514.70	44.427
515.05	44.369
515.39	43.727
515.74	44.592
516.08	43.582
516.42	44.689
516.77	44.111
517.11	43.424
517.46	44.168
517.80	43.880
518.14	43.852
518.49	43.709
518.83	43.747
519.17	43.457
519.52	43.291
519.86	44.034
520.20	43.876
520.55	44.359
520.89	43.750
521.23	44.277
521.58	44.350
521.92	44.759
522.26	44.559
522.61	44.618
522.95	44.406
523.29	44.828
523.64	44.114
523.98	44.153
524.32	45.845
524.66	45.077
525.01	43.658
525.35	42.906
525.69	43.387
526.04	44.604
526.38	45.057
526.72	44.752
527.06	43.636
527.41	44.490
527.75	44.477
528.09	45.336
528.43	44.701
528.78	43.815
529.12	44.266
529.46	44.126
529.80	43.650
530.15	44.174
530.49	43.476
530.83	44.333
531.17	43.728
531.51	44.164
531.86	44.591
532.20	43.232
532.54	42.190
532.88	43.091
533.22	43.371
533.57	42.816
533.91	42.593
534.25	42.623
534.59	43.448
534.93	42.445
535.27	42.310
535.62	42.524
535.96	43.405
536.30	41.363
536.64	43.123
536.98	42.558
537.32	42.284
537.66	41.672
538.01	41.329
538.35	41.596
538.69	42.849
539.03	41.447
539.37	41.225
539.71	41.922
540.05	42.086
540.39	41.198
540.73	40.437
541.07	41.079
541.42	41.465
541.76	40.688
542.10	42.099
542.44	40.621
542.78	40.754
543.12	39.750
543.46	40.659
543.80	40.767
544.14	40.096
544.48	41.135
544.82	41.053
545.16	39.535
545.50	39.664
545.84	40.478
546.18	40.802
546.52	40.064
546.86	40.566
547.20	40.967
547.54	39.326
547.88	39.060
548.22	39.591
548.56	39.672
548.90	39.701
549.24	38.237
549.58	39.811
549.92	39.860
550.26	40.777
550.60	39.694
550.94	38.939
551.28	39.010
551.62	39.151
551.96	38.706
552.30	40.217
552.64	37.897
552.98	38.677
553.32	39.614
553.66	38.714
554.00	38.588
554.34	38.160
554.68	37.702
555.02	38.962
555.36	38.790
555.69	37.092
556.03	37.642
556.37	38.924
556.71	37.603
557.05	38.083
557.39	38.222
557.73	37.252
558.07	38.940
558.41	38.073
558.75	37.525
559.08	37.230
559.42	37.723
559.76	37.110
560.10	37.575
560.44	37.005
560.78	37.437
561.12	36.392
561.45	37.348
561.79	36.081
562.13	37.092
562.47	35.450
562.81	36.392
563.15	37.626
563.48	37.290
563.82	36.457
564.16	35.191
564.50	35.101
564.84	35.339
565.17	36.588
565.51	35.213
565.85	35.451
566.19	34.908
566.52	35.225
566.86	36.220
567.20	34.149
567.54	35.582
567.88	35.270
568.21	35.474
568.55	34.772
568.89	34.589
569.23	34.052
569.56	33.959
569.90	33.607
570.24	33.794
570.57	33.034
570.91	32.486
571.25	32.514
571.59	32.869
571.92	32.836
572.26	32.875
572.60	32.078
572.93	32.396
573.27	32.650
573.61	32.345
573.95	32.387
574.28	31.698
574.62	31.492
574.96	31.429
575.29	31.174
575.63	31.878
575.97	31.760
576.30	31.384
576.64	31.234
576.98	31.481
577.31	31.472
577.65	31.572
577.98	31.118
578.32	30.906
578.66	30.494
578.99	31.006
579.33	31.014
579.67	31.618
580.00	31.108
580.34	30.934
580.67	30.583
581.01	31.199
581.35	30.197
581.68	30.665
582.02	30.440
582.35	30.566
582.69	30.773
583.02	30.574
583.36	30.848
583.70	30.925
584.03	30.742
584.37	31.128
584.70	30.342
585.04	30.109
585.37	30.093
585.71	29.838
586.04	30.097
586.38	30.037
586.72	29.932
587.05	29.854
587.39	30.616
587.72	30.526
588.06	30.319
588.39	30.471
588.73	29.974
589.06	30.220
589.40	30.639
589.73	30.270
590.07	30.869
590.40	30.730
590.73	31.142
591.07	30.566
591.40	30.599
591.74	30.962
592.07	30.369
592.41	30.008
592.74	29.428
593.08	30.032
593.41	29.688
593.75	29.195
594.08	29.143
594.41	29.776
594.75	29.193
595.08	29.273
595.42	30.227
595.75	29.642
596.09	29.922
596.42	29.810
596.75	29.448
597.09	30.465
597.42	30.552
597.75	29.322
598.09	30.119
598.42	30.398
598.76	29.308
599.09	29.512
599.42	27.958
599.76	28.359
600.09	28.495
600.42	28.595
600.76	27.873
601.09	28.875
601.42	28.802
601.76	28.448
602.09	28.949
602.42	28.717
602.76	28.376
603.09	28.928
603.42	28.829
603.76	28.189
604.09	28.247
604.42	28.954
604.76	28.729
605.09	28.839
605.42	28.708
605.75	28.769
606.09	28.630
606.42	27.982
606.75	28.148
607.09	28.187
607.42	28.863
607.75	28.449
608.08	28.453
608.42	28.456
608.75	28.980
609.08	28.014
609.41	28.496
609.75	28.036
610.08	29.024
610.41	28.929
610.74	27.983
611.07	28.508
611.41	28.610
611.74	28.499
612.07	28.845
612.40	27.852
612.73	28.313
613.07	27.971
613.40	28.200
613.73	28.840
614.06	28.459
614.39	27.017
614.72	27.559
615.06	28.778
615.39	27.888
615.72	27.393
616.05	27.926
616.38	28.305
616.71	28.736
617.05	28.009
617.38	28.785
617.71	28.294
618.04	28.602
618.37	28.743
618.70	28.563
619.03	28.495
619.36	28.545
619.69	28.251
620.03	27.997
620.36	28.037
620.69	28.254
621.02	28.018
621.35	29.463
621.68	29.573
622.01	28.256
622.34	27.336
622.67	28.179
623.00	27.395
623.33	27.804
623.66	28.729
623.99	27.057
624.32	28.655
624.65	27.928
624.99	28.999
625.32	29.197
625.65	28.051
625.98	28.610
626.31	29.199
626.64	28.718
626.97	28.357
627.30	27.639
627.63	28.207
627.96	28.679
628.29	27.704
628.62	27.204
628.95	28.659
629.28	27.782
629.61	28.872
629.94	27.531
630.26	28.644
630.59	29.188
630.92	28.571
631.25	29.249
631.58	29.473
631.91	28.585
632.24	28.915
632.57	28.178
632.90	28.786
633.23	29.082
633.56	27.755
633.89	29.442
634.22	29.626
