SpectraSuite Data File
++++++++++++++++++++++++++++++++++++
Date: Thu May 14 16:23:33 PDT 2015
User: schluterlab
Dark Spectrum Present: Yes
Reference Spectrum Present: Yes
Number of Sampled Component Spectra: 1
Spectrometers: USB2E3373
Integration Time (usec): 3000 (USB2E3373)
Spectra Averaged: 3 (USB2E3373)
Boxcar Smoothing: 0 (USB2E3373)
Correct for Electrical Dark: No (USB2E3373)
Strobe/Lamp Enabled: No (USB2E3373)
Correct for Detector Non-linearity: No (USB2E3373)
Correct for Stray Light: No (USB2E3373)
Number of Pixels in Processed Spectrum: 2048
>>>>>Begin Processed Spectral Data<<<<<
178.53	0.000
178.91	128.571
179.29	-500.000
179.67	-1000.000
180.04	150.000
180.42	30.000
180.80	300.000
181.18	100.000
181.56	600.000
181.94	50.000
182.31	-100.000
182.69	66.667
183.07	-350.000
183.45	275.000
183.83	-50.000
184.20	-166.667
184.58	600.000
184.96	-400.000
185.34	11.111
185.72	0.000
186.09	144.444
186.47	500.000
186.85	300.000
187.23	-88.889
187.61	-1400.000
187.98	120.000
188.36	125.000
188.74	-25.000
189.12	200.000
189.49	18.750
189.87	-125.000
190.25	-33.333
190.63	120.000
191.00	11.111
191.38	0.000
191.76	-75.000
192.14	0.000
192.51	-250.000
192.89	-33.333
193.27	0.000
193.65	0.000
194.02	-700.000
194.40	214.286
194.78	42.857
195.15	0.000
195.53	90.909
195.91	0.000
196.29	75.000
196.66	-53.846
197.04	-1000.000
197.42	-14.286
197.79	0.000
198.17	-125.000
198.55	-42.857
198.92	-55.556
199.30	12.500
199.68	18.182
200.05	14.286
200.43	-350.000
200.81	85.714
201.18	0.000
201.56	77.778
201.94	0.000
202.31	333.333
202.69	-22.222
203.07	200.000
203.44	44.444
203.82	-25.000
204.19	0.000
204.57	50.000
204.95	50.000
205.32	-500.000
205.70	-125.000
206.08	-16.667
206.45	100.000
206.83	420.000
207.20	-33.333
207.58	-240.000
207.96	-150.000
208.33	0.000
208.71	-25.000
209.08	16.667
209.46	0.000
209.84	-0.000
210.21	100.000
210.59	350.000
210.96	400.000
211.34	-100.000
211.71	-50.000
212.09	-600.000
212.46	0.000
212.84	750.000
213.22	-260.000
213.59	-150.000
213.97	50.000
214.34	100.000
214.72	166.667
215.09	25.000
215.47	0.000
215.84	142.857
216.22	450.000
216.59	-60.000
216.97	-40.000
217.34	-50.000
217.72	0.000
218.09	-150.000
218.47	-150.000
218.84	0.000
219.22	60.000
219.59	17.647
219.97	25.000
220.34	300.000
220.72	-33.333
221.09	0.000
221.47	66.667
221.84	-10.000
222.22	-128.571
222.59	0.000
222.97	0.000
223.34	-160.000
223.72	-400.000
224.09	50.000
224.46	-250.000
224.84	60.000
225.21	14.286
225.59	-200.000
225.96	50.000
226.34	0.000
226.71	-16.667
227.08	-250.000
227.46	-13.333
227.83	-75.000
228.21	47.368
228.58	37.500
228.95	600.000
229.33	-25.000
229.70	-90.000
230.08	21.053
230.45	50.000
230.82	-133.333
231.20	-50.000
231.57	108.333
231.95	-18.182
232.32	36.364
232.69	25.000
233.07	50.000
233.44	11.765
233.81	30.000
234.19	-27.778
234.56	4.545
234.93	17.241
235.31	5.263
235.68	22.222
236.05	-45.000
236.43	30.769
236.80	44.000
237.17	3.704
237.55	-9.091
237.92	0.000
238.29	0.000
238.67	13.636
239.04	22.222
239.41	0.000
239.79	0.000
240.16	14.815
240.53	15.217
240.91	17.647
241.28	32.787
241.65	31.343
242.02	21.622
242.40	15.385
242.77	18.667
243.14	15.854
243.51	7.895
243.89	7.692
244.26	26.733
244.63	23.529
245.00	19.626
245.38	18.421
245.75	13.274
246.12	31.746
246.49	26.357
246.87	18.571
247.24	20.530
247.61	15.789
247.98	30.872
248.36	25.309
248.73	19.018
249.10	23.497
249.47	22.388
249.84	31.937
250.22	18.653
250.59	23.889
250.96	23.182
251.33	19.898
251.70	24.786
252.08	20.417
252.45	27.049
252.82	21.901
253.19	21.484
253.56	20.913
253.94	17.692
254.31	26.136
254.68	26.573
255.05	24.756
255.42	23.469
255.79	19.741
256.16	22.517
256.54	24.503
256.91	19.672
257.28	22.295
257.65	22.930
258.02	23.599
258.39	24.786
258.76	27.523
259.14	26.437
259.51	23.343
259.88	24.363
260.25	23.333
260.62	25.205
260.99	25.410
261.36	26.542
261.73	24.668
262.10	22.802
262.47	24.665
262.85	26.263
263.22	21.558
263.59	20.263
263.96	24.297
264.33	23.274
264.70	23.210
265.07	29.117
265.44	24.490
265.81	23.380
266.18	26.757
266.55	25.446
266.92	24.829
267.29	24.726
267.66	24.612
268.03	26.638
268.40	22.129
268.77	24.374
269.14	23.128
269.51	25.219
269.88	25.205
270.25	25.755
270.62	23.418
270.99	24.444
271.36	22.970
271.73	23.183
272.10	25.251
272.47	23.246
272.84	21.687
273.21	22.645
273.58	24.597
273.95	22.308
274.32	22.624
274.69	23.791
275.06	24.725
275.43	21.257
275.80	25.573
276.17	23.333
276.54	22.575
276.91	24.508
277.28	25.497
277.65	24.596
278.02	24.816
278.39	21.377
278.76	21.265
279.13	24.113
279.50	25.258
279.87	25.045
280.23	21.831
280.60	23.390
280.97	23.026
281.34	21.222
281.71	23.519
282.08	23.422
282.45	21.113
282.82	22.292
283.19	19.225
283.56	23.934
283.92	23.423
284.29	22.433
284.66	24.138
285.03	23.397
285.40	22.257
285.77	21.362
286.14	21.374
286.51	20.700
286.87	22.907
287.24	22.892
287.61	22.720
287.98	19.184
288.35	20.710
288.72	20.858
289.08	21.523
289.45	19.527
289.82	20.633
290.19	22.557
290.56	22.113
290.93	20.542
291.29	20.248
291.66	21.212
292.03	18.453
292.40	20.272
292.77	17.790
293.13	20.839
293.50	18.791
293.87	18.792
294.24	20.533
294.60	19.216
294.97	17.584
295.34	19.462
295.71	19.042
296.08	16.925
296.44	19.240
296.81	18.027
297.18	17.435
297.55	17.689
297.91	18.624
298.28	16.232
298.65	18.312
299.02	18.772
299.38	18.421
299.75	17.640
300.12	16.319
300.48	16.705
300.85	18.223
301.22	17.002
301.59	17.009
301.95	16.610
302.32	18.444
302.69	16.320
303.05	18.281
303.42	17.627
303.79	16.875
304.15	16.193
304.52	15.751
304.89	16.335
305.25	16.874
305.62	16.510
305.99	16.495
306.35	17.137
306.72	17.166
307.09	16.244
307.45	16.253
307.82	16.448
308.19	15.742
308.55	17.068
308.92	16.066
309.29	16.858
309.65	16.277
310.02	16.337
310.38	17.421
310.75	16.408
311.12	17.929
311.48	16.911
311.85	16.809
312.22	17.173
312.58	17.653
312.95	16.635
313.31	17.254
313.68	18.040
314.05	18.699
314.41	18.944
314.78	18.165
315.14	18.149
315.51	18.375
315.87	19.622
316.24	19.817
316.61	20.160
316.97	17.919
317.34	19.048
317.70	19.651
318.07	21.164
318.43	21.003
318.80	21.488
319.16	22.060
319.53	20.394
319.89	22.787
320.26	22.954
320.62	21.011
320.99	23.176
321.35	22.921
321.72	25.767
322.08	24.346
322.45	25.384
322.81	26.264
323.18	26.018
323.54	26.121
323.91	27.847
324.27	28.227
324.64	29.051
325.00	28.773
325.37	30.057
325.73	30.579
326.10	32.117
326.46	32.899
326.83	32.666
327.19	33.622
327.56	35.020
327.92	34.225
328.29	35.565
328.65	35.427
329.01	37.310
329.38	38.500
329.74	38.870
330.11	38.613
330.47	38.079
330.84	38.760
331.20	38.083
331.56	39.775
331.93	40.586
332.29	39.661
332.66	41.860
333.02	40.620
333.38	40.604
333.75	42.088
334.11	41.284
334.48	42.244
334.84	43.161
335.20	42.821
335.57	43.255
335.93	42.231
336.29	41.098
336.66	42.052
337.02	42.893
337.38	43.793
337.75	42.397
338.11	43.987
338.47	43.838
338.84	44.078
339.20	43.134
339.56	43.163
339.93	44.828
340.29	42.754
340.65	43.796
341.02	44.613
341.38	45.918
341.74	44.875
342.11	45.294
342.47	44.718
342.83	44.042
343.20	46.198
343.56	44.828
343.92	45.957
344.28	45.391
344.65	45.349
345.01	45.242
345.37	45.101
345.73	44.973
346.10	47.192
346.46	44.937
346.82	46.592
347.19	45.149
347.55	46.055
347.91	45.988
348.27	45.144
348.63	45.621
349.00	45.339
349.36	46.617
349.72	45.461
350.08	46.285
350.45	47.452
350.81	46.682
351.17	46.692
351.53	47.763
351.89	46.469
352.26	47.761
352.62	46.642
352.98	47.252
353.34	46.004
353.70	46.456
354.07	47.466
354.43	47.077
354.79	48.467
355.15	48.786
355.51	47.880
355.87	48.915
356.24	48.517
356.60	49.076
356.96	48.554
357.32	49.294
357.68	48.243
358.04	47.530
358.40	48.657
358.77	48.830
359.13	49.631
359.49	49.591
359.85	48.151
360.21	49.354
360.57	48.169
360.93	48.801
361.29	50.175
361.66	50.253
362.02	50.661
362.38	50.316
362.74	50.838
363.10	50.963
363.46	50.208
363.82	51.491
364.18	52.991
364.54	49.723
364.90	52.107
365.26	51.379
365.62	51.400
365.98	51.872
366.35	50.940
366.71	52.381
367.07	52.300
367.43	51.806
367.79	52.953
368.15	52.843
368.51	53.518
368.87	51.862
369.23	51.533
369.59	53.620
369.95	53.753
370.31	54.423
370.67	53.645
371.03	52.909
371.39	52.921
371.75	54.058
372.11	52.846
372.47	52.742
372.83	54.058
373.19	54.770
373.55	54.133
373.91	55.283
374.27	53.622
374.63	55.480
374.99	54.907
375.35	55.065
375.71	56.258
376.07	55.197
376.42	56.801
376.78	55.749
377.14	55.708
377.50	57.116
377.86	55.850
378.22	57.246
378.58	56.599
378.94	57.160
379.30	55.829
379.66	57.496
380.02	57.473
380.38	57.834
380.74	57.408
381.09	58.595
381.45	58.239
381.81	58.607
382.17	58.373
382.53	58.304
382.89	58.465
383.25	58.499
383.61	58.912
383.97	57.538
384.32	60.167
384.68	60.325
385.04	60.613
385.40	61.167
385.76	60.023
386.12	59.725
386.48	60.176
386.83	61.383
387.19	60.487
387.55	60.974
387.91	61.073
388.27	61.143
388.62	60.882
388.98	59.673
389.34	62.817
389.70	61.941
390.06	61.220
390.42	61.988
390.77	63.335
391.13	60.974
391.49	62.923
391.85	63.576
392.20	62.752
392.56	62.315
392.92	62.595
393.28	64.677
393.64	62.626
393.99	63.568
394.35	64.077
394.71	63.952
395.07	64.012
395.42	62.650
395.78	65.935
396.14	64.706
396.50	63.955
396.85	62.791
397.21	64.793
397.57	64.193
397.92	65.063
398.28	63.878
398.64	63.673
399.00	63.455
399.35	64.817
399.71	64.511
400.07	65.750
400.42	65.134
400.78	65.394
401.14	65.737
401.49	66.231
401.85	67.267
402.21	66.107
402.57	66.432
402.92	67.730
403.28	65.749
403.63	67.482
403.99	66.093
404.35	67.027
404.70	65.722
405.06	65.707
405.42	66.276
405.77	65.921
406.13	66.667
406.49	66.610
406.84	66.150
407.20	66.909
407.55	66.990
407.91	69.139
408.27	67.079
408.62	67.888
408.98	67.150
409.34	67.390
409.69	69.345
410.05	67.937
410.40	69.200
410.76	67.639
411.11	68.907
411.47	68.120
411.83	68.195
412.18	69.880
412.54	68.761
412.89	69.092
413.25	69.300
413.60	69.615
413.96	69.639
414.31	68.782
414.67	68.754
415.03	68.738
415.38	70.492
415.74	69.945
416.09	71.252
416.45	69.693
416.80	69.400
417.16	71.648
417.51	70.299
417.87	71.980
418.22	70.419
418.58	70.322
418.93	71.478
419.29	71.147
419.64	71.729
420.00	71.454
420.35	71.196
420.71	71.338
421.06	71.075
421.42	72.190
421.77	70.275
422.12	70.772
422.48	71.429
422.83	72.070
423.19	72.361
423.54	73.119
423.90	72.833
424.25	73.280
424.61	72.847
424.96	73.202
425.31	72.983
425.67	71.498
426.02	75.374
426.38	73.594
426.73	74.330
427.09	73.645
427.44	73.839
427.79	73.134
428.15	74.658
428.50	72.303
428.85	73.651
429.21	74.894
429.56	73.544
429.92	74.005
430.27	73.880
430.62	73.864
430.98	75.111
431.33	74.731
431.68	74.713
432.04	75.063
432.39	76.701
432.74	75.742
433.10	77.826
433.45	74.805
433.80	74.893
434.16	75.258
434.51	76.670
434.86	78.013
435.22	78.268
435.57	79.186
435.92	77.129
436.28	78.214
436.63	79.028
436.98	75.792
437.34	76.832
437.69	77.270
438.04	76.943
438.39	77.369
438.75	77.919
439.10	78.488
439.45	77.026
439.81	77.062
440.16	77.319
440.51	77.035
440.86	76.543
441.22	78.832
441.57	78.564
441.92	77.352
442.27	79.141
442.63	77.447
442.98	78.922
443.33	78.117
443.68	78.890
444.03	80.151
444.39	79.612
444.74	79.326
445.09	77.902
445.44	79.874
445.79	80.508
446.15	79.291
446.50	78.760
446.85	79.426
447.20	78.578
447.55	79.759
447.91	78.743
448.26	79.493
448.61	79.490
448.96	80.901
449.31	80.435
449.66	79.956
450.02	79.958
450.37	79.275
450.72	80.248
451.07	79.613
451.42	79.029
451.77	80.044
452.12	81.264
452.47	79.739
452.83	82.658
453.18	80.736
453.53	80.126
453.88	79.238
454.23	79.718
454.58	80.731
454.93	80.279
455.28	81.216
455.63	79.989
455.98	81.006
456.34	81.037
456.69	80.423
457.04	82.092
457.39	79.878
457.74	82.271
458.09	79.901
458.44	79.903
458.79	80.196
459.14	80.755
459.49	81.494
459.84	80.325
460.19	79.345
460.54	81.545
460.89	82.160
461.24	79.770
461.59	82.512
461.94	79.635
462.29	81.747
462.64	81.291
462.99	80.854
463.34	83.258
463.69	79.836
464.04	81.990
464.39	80.101
464.74	79.190
465.09	80.738
465.44	80.204
465.79	79.164
466.14	80.615
466.49	81.105
466.84	81.102
467.19	81.387
467.54	79.025
467.89	80.805
468.24	81.496
468.59	81.181
468.94	81.119
469.29	80.144
469.64	81.691
469.99	82.537
470.34	80.446
470.68	83.527
471.03	83.497
471.38	82.930
471.73	82.250
472.08	82.487
472.43	83.022
472.78	81.864
473.13	82.807
473.48	81.813
473.83	82.240
474.17	81.419
474.52	83.644
474.87	82.115
475.22	82.085
475.57	81.516
475.92	81.483
476.27	82.109
476.61	82.191
476.96	82.430
477.31	81.287
477.66	85.205
478.01	82.206
478.36	82.802
478.70	83.399
479.05	83.333
479.40	82.428
479.75	82.037
480.10	82.520
480.45	81.860
480.79	81.270
481.14	80.928
481.49	81.190
481.84	82.332
482.19	82.538
482.53	82.247
482.88	83.518
483.23	82.748
483.58	81.441
483.92	81.294
484.27	82.472
484.62	81.559
484.97	80.715
485.31	80.253
485.66	75.803
486.01	72.447
486.36	74.973
486.70	77.376
487.05	79.972
487.40	81.008
487.75	81.908
488.09	83.009
488.44	81.350
488.79	82.462
489.13	82.476
489.48	81.359
489.83	81.288
490.17	80.964
490.52	79.885
490.87	81.684
491.22	82.279
491.56	81.613
491.91	81.814
492.26	82.735
492.60	82.422
492.95	81.351
493.30	83.326
493.64	82.129
493.99	81.096
494.34	81.620
494.68	80.343
495.03	81.938
495.37	82.246
495.72	81.633
496.07	80.631
496.41	82.068
496.76	81.526
497.11	81.444
497.45	81.614
497.80	82.586
498.14	82.585
498.49	83.134
498.84	81.444
499.18	81.601
499.53	81.570
499.87	82.857
500.22	81.790
500.56	81.601
500.91	82.563
501.26	83.136
501.60	82.192
501.95	81.546
502.29	82.668
502.64	81.111
502.98	79.681
503.33	81.296
503.67	80.637
504.02	81.786
504.36	83.512
504.71	82.774
505.06	81.492
505.40	81.856
505.75	82.559
506.09	83.748
506.44	83.101
506.78	83.349
507.13	81.927
507.47	83.941
507.82	83.523
508.16	83.891
508.51	82.232
508.85	83.514
509.19	83.941
509.54	84.294
509.88	83.633
510.23	84.896
510.57	84.534
510.92	83.841
511.26	82.251
511.61	83.100
511.95	83.602
512.30	84.047
512.64	84.708
512.98	84.092
513.33	84.929
513.67	85.059
514.02	86.050
514.36	86.854
514.70	86.823
515.05	85.558
515.39	85.354
515.74	88.123
516.08	85.473
516.42	88.383
516.77	87.329
517.11	85.095
517.46	87.540
517.80	88.242
518.14	86.997
518.49	87.744
518.83	85.844
519.17	86.645
519.52	85.692
519.86	86.220
520.20	86.368
520.55	85.871
520.89	88.176
521.23	87.940
521.58	88.701
521.92	88.385
522.26	89.748
522.61	89.988
522.95	88.985
523.29	89.943
523.64	87.500
523.98	88.933
524.32	90.602
524.66	89.528
525.01	88.279
525.35	88.225
525.69	88.515
526.04	89.782
526.38	88.908
526.72	87.428
527.06	90.909
527.41	89.854
527.75	89.846
528.09	89.847
528.43	90.349
528.78	88.960
529.12	88.475
529.46	88.252
529.80	89.531
530.15	89.507
530.49	89.502
530.83	89.847
531.17	89.427
531.51	90.975
531.86	90.084
532.20	89.451
532.54	89.707
532.88	90.364
533.22	88.214
533.57	87.882
533.91	86.476
534.25	88.016
534.59	89.770
534.93	88.285
535.27	87.775
535.62	88.573
535.96	88.495
536.30	87.779
536.64	89.309
536.98	89.053
537.32	90.494
537.66	89.894
538.01	87.372
538.35	88.611
538.69	88.882
539.03	87.676
539.37	86.101
539.71	87.988
540.05	87.950
540.39	86.980
540.73	87.007
541.07	88.044
541.42	87.183
541.76	86.892
542.10	87.394
542.44	87.211
542.78	88.321
543.12	86.412
543.46	86.020
543.80	86.571
544.14	87.852
544.48	87.116
544.82	86.475
545.16	86.524
545.50	87.537
545.84	85.732
546.18	87.160
546.52	86.943
546.86	87.925
547.20	87.659
547.54	86.330
547.88	86.679
548.22	86.082
548.56	86.425
548.90	87.224
549.24	85.593
549.58	86.877
549.92	87.181
550.26	86.084
550.60	85.578
550.94	86.417
551.28	85.479
551.62	87.264
551.96	84.660
552.30	85.596
552.64	84.568
552.98	86.837
553.32	86.817
553.66	87.331
554.00	86.318
554.34	86.873
554.68	85.733
555.02	85.545
555.36	86.917
555.69	85.138
556.03	86.507
556.37	85.294
556.71	85.606
557.05	86.262
557.39	86.330
557.73	85.337
558.07	88.013
558.41	87.375
558.75	87.694
559.08	86.848
559.42	87.723
559.76	85.957
560.10	85.466
560.44	85.026
560.78	84.500
561.12	83.005
561.45	82.847
561.79	83.089
562.13	85.089
562.47	83.416
562.81	84.114
563.15	84.848
563.48	83.779
563.82	83.192
564.16	84.494
564.50	82.598
564.84	81.888
565.17	83.000
565.51	81.243
565.85	82.542
566.19	83.180
566.52	83.441
566.86	81.890
567.20	81.240
567.54	80.510
567.88	79.817
568.21	80.040
568.55	80.384
568.89	79.256
569.23	77.017
569.56	75.733
569.90	75.695
570.24	75.683
570.57	74.439
570.91	73.454
571.25	73.272
571.59	73.337
571.92	72.788
572.26	72.605
572.60	72.836
572.93	73.810
573.27	73.504
573.61	72.234
573.95	72.299
574.28	70.614
574.62	71.101
574.96	69.387
575.29	69.575
575.63	70.755
575.97	71.401
576.30	70.146
576.64	70.890
576.98	70.501
577.31	69.952
577.65	70.780
577.98	68.919
578.32	68.983
578.66	68.262
578.99	69.609
579.33	70.187
579.67	70.626
580.00	69.926
580.34	68.608
580.67	69.991
581.01	69.321
581.35	67.777
581.68	67.720
582.02	66.564
582.35	67.971
582.69	68.457
583.02	68.735
583.36	70.446
583.70	70.643
584.03	70.602
584.37	71.291
584.70	70.318
585.04	68.728
585.37	67.698
585.71	68.242
586.04	68.428
586.38	68.593
586.72	69.616
587.05	69.378
587.39	69.160
587.72	69.809
588.06	68.835
588.39	68.982
588.73	69.074
589.06	69.921
589.40	71.235
589.73	70.437
590.07	70.955
590.40	70.352
590.73	70.838
591.07	72.524
591.40	71.306
591.74	71.781
592.07	71.498
592.41	71.017
592.74	68.726
593.08	68.312
593.41	68.475
593.75	67.902
594.08	68.888
594.41	69.423
594.75	68.814
595.08	69.987
595.42	69.643
595.75	69.325
596.09	70.552
596.42	70.190
596.75	70.205
597.09	70.909
597.42	68.931
597.75	68.993
598.09	69.603
598.42	69.763
598.76	68.131
599.09	67.640
599.42	67.047
599.76	66.160
600.09	68.435
600.42	67.000
600.76	67.834
601.09	66.877
601.42	67.594
601.76	68.759
602.09	68.370
602.42	67.285
602.76	68.007
603.09	68.869
603.42	69.075
603.76	67.336
604.09	68.417
604.42	68.404
604.76	67.275
605.09	68.408
605.42	68.421
605.75	67.308
606.09	66.928
606.42	66.253
606.75	65.442
607.09	66.974
607.42	67.052
607.75	67.370
608.08	67.403
608.42	66.425
608.75	68.035
609.08	66.511
609.41	68.108
609.75	68.036
610.08	67.458
610.41	66.737
610.74	65.966
611.07	67.274
611.41	67.399
611.74	68.176
612.07	68.022
612.40	68.203
612.73	68.655
613.07	67.873
613.40	67.998
613.73	67.983
614.06	68.744
614.39	65.889
614.72	67.443
615.06	65.977
615.39	65.877
615.72	67.109
616.05	66.780
616.38	68.264
616.71	68.757
617.05	68.371
617.38	67.737
617.71	68.413
618.04	68.430
618.37	68.251
618.70	69.457
619.03	68.578
619.36	68.372
619.69	69.250
620.03	70.056
620.36	68.466
620.69	68.538
621.02	70.669
621.35	72.569
621.68	71.511
622.01	70.178
622.34	70.084
622.67	69.759
623.00	66.599
623.33	70.471
623.66	67.899
623.99	68.269
624.32	69.591
624.65	67.246
624.99	69.831
625.32	69.366
625.65	69.993
625.98	67.864
626.31	70.943
626.64	70.623
626.97	69.692
627.30	70.463
627.63	69.092
627.96	70.345
628.29	71.362
628.62	72.544
628.95	73.795
629.28	71.028
629.61	70.202
629.94	68.703
630.26	72.627
630.59	71.589
630.92	69.784
631.25	73.435
631.58	74.482
631.91	74.414
632.24	73.775
632.57	71.347
632.90	73.821
633.23	73.265
633.56	74.694
633.89	73.037
634.22	72.453
634.55	74.217
