SpectraSuite Data File
++++++++++++++++++++++++++++++++++++
Date: Thu May 14 16:28:41 PDT 2015
User: schluterlab
Dark Spectrum Present: Yes
Reference Spectrum Present: Yes
Number of Sampled Component Spectra: 1
Spectrometers: USB2E3373
Integration Time (usec): 3000 (USB2E3373)
Spectra Averaged: 3 (USB2E3373)
Boxcar Smoothing: 0 (USB2E3373)
Correct for Electrical Dark: No (USB2E3373)
Strobe/Lamp Enabled: No (USB2E3373)
Correct for Detector Non-linearity: No (USB2E3373)
Correct for Stray Light: No (USB2E3373)
Number of Pixels in Processed Spectrum: 2048
>>>>>Begin Processed Spectral Data<<<<<
178.53	0.000
178.91	28.571
179.29	-800.000
179.67	-600.000
180.04	142.857
180.42	10.000
180.80	140.000
181.18	-300.000
181.56	500.000
181.94	-100.000
182.31	-75.000
182.69	-33.333
183.07	300.000
183.45	200.000
183.83	16.667
184.20	233.333
184.58	300.000
184.96	125.000
185.34	0.000
185.72	160.000
186.09	166.667
186.47	150.000
186.85	140.000
187.23	-88.889
187.61	600.000
187.98	60.000
188.36	250.000
188.74	150.000
189.12	233.333
189.49	0.000
189.87	-100.000
190.25	133.333
190.63	160.000
191.00	-188.889
191.38	0.000
191.76	-200.000
192.14	33.333
192.51	100.000
192.89	66.667
193.27	0.000
193.65	-57.143
194.02	-1200.000
194.40	-28.571
194.78	85.714
195.15	0.000
195.53	81.818
195.91	0.000
196.29	200.000
196.66	-15.385
197.04	-900.000
197.42	-14.286
197.79	-400.000
198.17	37.500
198.55	-14.286
198.92	66.667
199.30	25.000
199.68	72.727
200.05	0.000
200.43	-600.000
200.81	171.429
201.18	0.000
201.56	122.222
201.94	0.000
202.31	-33.333
202.69	-88.889
203.07	-300.000
203.44	-33.333
203.82	-25.000
204.19	66.667
204.57	0.000
204.95	-37.500
205.32	800.000
205.70	100.000
206.08	33.333
206.45	-33.333
206.83	180.000
207.20	66.667
207.58	-60.000
207.96	-133.333
208.33	250.000
208.71	-16.667
209.08	100.000
209.46	0.000
209.84	83.333
210.21	-100.000
210.59	350.000
210.96	100.000
211.34	25.000
211.71	-37.500
212.09	400.000
212.46	0.000
212.84	1000.000
213.22	-80.000
213.59	0.000
213.97	60.000
214.34	133.333
214.72	150.000
215.09	-175.000
215.47	0.000
215.84	85.714
216.22	350.000
216.59	20.000
216.97	160.000
217.34	25.000
217.72	125.000
218.09	-100.000
218.47	-150.000
218.84	0.000
219.22	-20.000
219.59	5.882
219.97	35.000
220.34	300.000
220.72	-77.778
221.09	-7.692
221.47	-333.333
221.84	-80.000
222.22	28.571
222.59	0.000
222.97	-37.500
223.34	-200.000
223.72	-500.000
224.09	25.000
224.46	-75.000
224.84	320.000
225.21	-28.571
225.59	-200.000
225.96	-200.000
226.34	34.615
226.71	216.667
227.08	100.000
227.46	20.000
227.83	-175.000
228.21	63.158
228.58	50.000
228.95	550.000
229.33	33.333
229.70	-30.000
230.08	63.158
230.45	50.000
230.82	0.000
231.20	21.429
231.57	58.333
231.95	9.091
232.32	-18.182
232.69	20.000
233.07	25.000
233.44	0.000
233.81	40.000
234.19	27.778
234.56	0.000
234.93	41.379
235.31	78.947
235.68	-27.778
236.05	-5.000
236.43	57.692
236.80	20.000
237.17	11.111
237.55	27.273
237.92	50.000
238.29	3.226
238.67	36.364
239.04	13.889
239.41	26.190
239.79	15.217
240.16	14.815
240.53	30.435
240.91	-1.961
241.28	11.475
241.65	26.866
242.02	24.324
242.40	4.615
242.77	30.667
243.14	13.415
243.51	9.211
243.89	19.231
244.26	19.802
244.63	27.451
245.00	31.776
245.38	22.807
245.75	7.080
246.12	27.778
246.49	16.279
246.87	24.286
247.24	27.152
247.61	19.079
247.98	22.148
248.36	19.753
248.73	22.086
249.10	18.033
249.47	28.358
249.84	26.178
250.22	25.907
250.59	26.667
250.96	24.091
251.33	21.429
251.70	27.350
252.08	29.167
252.45	21.311
252.82	22.727
253.19	20.313
253.56	22.814
253.94	21.538
254.31	20.076
254.68	24.476
255.05	26.384
255.42	20.408
255.79	22.654
256.16	24.172
256.54	22.848
256.91	27.541
257.28	22.295
257.65	21.656
258.02	21.534
258.39	25.356
258.76	25.076
259.14	27.011
259.51	23.055
259.88	22.946
260.25	22.500
260.62	23.288
260.99	28.142
261.36	26.005
261.73	25.995
262.10	24.725
262.47	24.397
262.85	27.778
263.22	23.117
263.59	18.947
263.96	25.831
264.33	25.831
264.70	23.704
265.07	26.492
265.44	27.664
265.81	23.843
266.18	24.943
266.55	25.670
266.92	24.146
267.29	23.851
267.66	23.503
268.03	25.546
268.40	23.800
268.77	25.057
269.14	22.467
269.51	23.904
269.88	24.590
270.25	23.742
270.62	22.574
270.99	25.657
271.36	23.366
271.73	23.576
272.10	24.048
272.47	23.246
272.84	23.293
273.21	25.050
273.58	22.782
273.95	21.346
274.32	23.194
274.69	23.211
275.06	23.993
275.43	21.072
275.80	23.457
276.17	22.222
276.54	23.321
276.91	23.077
277.28	23.870
277.65	25.494
278.02	27.941
278.39	24.457
278.76	22.847
279.13	24.645
279.50	22.509
279.87	21.825
280.23	20.423
280.60	22.373
280.97	23.849
281.34	22.581
281.71	26.058
282.08	22.757
282.45	21.604
282.82	22.449
283.19	21.809
283.56	22.623
283.92	22.673
284.29	22.275
284.66	24.795
285.03	20.673
285.40	21.793
285.77	23.529
286.14	23.969
286.51	22.679
286.87	24.013
287.24	23.494
287.61	21.375
287.98	20.242
288.35	22.189
288.72	22.337
289.08	21.230
289.45	19.675
289.82	21.235
290.19	21.552
290.56	21.127
290.93	21.255
291.29	20.110
291.66	20.110
292.03	19.674
292.40	20.952
292.77	20.755
293.13	19.892
293.50	16.032
293.87	18.255
294.24	19.200
294.60	18.837
294.97	18.523
295.34	21.767
295.71	18.159
296.08	17.700
296.44	18.260
296.81	18.879
297.18	17.808
297.55	17.689
297.91	18.268
298.28	16.232
298.65	17.598
299.02	18.654
299.38	16.590
299.75	16.238
300.12	15.625
300.48	18.318
300.85	17.098
301.22	17.785
301.59	16.667
301.95	16.384
302.32	17.333
302.69	17.525
303.05	17.193
303.42	17.517
303.79	16.250
304.15	17.981
304.52	17.230
304.89	17.277
305.25	15.942
305.62	17.241
305.99	17.113
306.35	16.935
306.72	16.649
307.09	15.228
307.45	15.631
307.82	16.751
308.19	15.338
308.55	16.876
308.92	16.066
309.29	15.900
309.65	16.374
310.02	15.446
310.38	16.043
310.75	16.602
311.12	16.779
311.48	15.738
311.85	15.575
312.22	15.085
312.58	14.836
312.95	15.966
313.31	16.350
313.68	15.659
314.05	16.350
314.41	15.938
314.78	15.985
315.14	16.334
315.51	16.436
315.87	16.832
316.24	17.534
316.61	16.252
316.97	15.385
317.34	16.578
317.70	16.681
318.07	15.079
318.43	16.497
318.80	17.893
319.16	15.365
319.53	14.567
319.89	14.461
320.26	15.391
320.62	16.135
320.99	15.512
321.35	15.065
321.72	17.302
322.08	15.960
322.45	16.170
322.81	15.433
323.18	15.752
323.54	15.259
323.91	16.548
324.27	16.179
324.64	16.037
325.00	14.925
325.37	15.561
325.73	16.446
326.10	17.356
326.46	17.020
326.83	15.853
327.19	16.614
327.56	15.336
327.92	16.129
328.29	16.048
328.65	14.489
329.01	16.751
329.38	15.670
329.74	15.668
330.11	16.524
330.47	16.512
330.84	15.418
331.20	16.500
331.56	15.251
331.93	16.904
332.29	16.271
332.66	16.030
333.02	15.578
333.38	15.101
333.75	15.404
334.11	16.180
334.48	16.089
334.84	17.332
335.20	15.281
335.57	16.610
335.93	17.025
336.29	14.476
336.66	14.045
337.02	16.472
337.38	15.816
337.75	16.281
338.11	17.241
338.47	15.715
338.84	15.482
339.20	15.080
339.56	15.568
339.93	16.010
340.29	15.700
340.65	14.599
341.02	15.323
341.38	15.845
341.74	15.012
342.11	16.171
342.47	14.456
342.83	16.184
343.20	16.271
343.56	14.916
343.92	15.532
344.28	15.156
344.65	14.729
345.01	15.991
345.37	15.241
345.73	15.121
346.10	15.523
346.46	15.348
346.82	15.655
347.19	16.272
347.55	15.402
347.91	15.305
348.27	14.795
348.63	15.461
349.00	15.213
349.36	15.093
349.72	15.253
350.08	15.527
350.45	14.373
350.81	15.234
351.17	15.038
351.53	14.860
351.89	15.110
352.26	14.776
352.62	15.522
352.98	16.412
353.34	14.638
353.70	14.022
354.07	15.276
354.43	14.882
354.79	14.510
355.15	14.717
355.51	15.424
355.87	14.510
356.24	14.753
356.60	14.486
356.96	14.603
357.32	14.870
357.68	13.982
358.04	13.548
358.40	14.701
358.77	15.205
359.13	14.328
359.49	13.086
359.85	14.286
360.21	15.208
360.57	14.286
360.93	15.162
361.29	15.018
361.66	15.134
362.02	14.475
362.38	13.352
362.74	14.385
363.10	15.268
363.46	14.404
363.82	14.134
364.18	14.989
364.54	14.799
364.90	14.181
365.26	14.621
365.62	15.000
365.98	14.295
366.35	14.497
366.71	14.354
367.07	14.276
367.43	14.314
367.79	15.395
368.15	14.448
368.51	14.208
368.87	13.717
369.23	14.133
369.59	14.617
369.95	14.672
370.31	14.652
370.67	14.030
371.03	13.712
371.39	13.029
371.75	14.512
372.11	13.889
372.47	14.489
372.83	14.398
373.19	14.143
373.55	13.821
373.91	13.633
374.27	14.230
374.63	14.547
374.99	12.997
375.35	14.091
375.71	14.323
376.07	13.170
376.42	13.980
376.78	14.295
377.14	13.537
377.50	13.789
377.86	14.717
378.22	14.431
378.58	13.377
378.94	13.556
379.30	13.415
379.66	13.169
380.02	14.195
380.38	13.710
380.74	14.085
381.09	13.647
381.45	13.693
381.81	14.520
382.17	13.302
382.53	12.865
382.89	13.262
383.25	13.775
383.61	13.021
383.97	13.840
384.32	13.517
384.68	12.529
385.04	14.054
385.40	14.025
385.76	14.537
386.12	13.764
386.48	13.588
386.83	13.409
387.19	13.384
387.55	13.850
387.91	13.870
388.27	14.030
388.62	13.288
388.98	13.818
389.34	14.143
389.70	13.887
390.06	13.262
390.42	13.133
390.77	13.666
391.13	13.850
391.49	13.708
391.85	13.091
392.20	13.167
392.56	14.176
392.92	13.959
393.28	13.765
393.64	13.687
393.99	13.771
394.35	13.668
394.71	13.892
395.07	12.754
395.42	14.106
395.78	13.650
396.14	13.725
396.50	13.658
396.85	13.953
397.21	13.254
397.57	13.604
397.92	12.944
398.28	12.982
398.64	13.844
399.00	12.670
399.35	13.822
399.71	13.478
400.07	13.588
400.42	12.689
400.78	12.963
401.14	13.318
401.49	13.246
401.85	13.256
402.21	13.441
402.57	14.261
402.92	13.475
403.28	13.407
403.63	12.053
403.99	13.895
404.35	13.587
404.70	13.994
405.06	13.207
405.42	13.173
405.77	14.068
406.13	13.560
406.49	13.007
406.84	13.463
407.20	13.136
407.55	12.598
407.91	13.388
408.27	13.192
408.62	13.962
408.98	13.755
409.34	12.493
409.69	14.153
410.05	13.892
410.40	13.631
410.76	12.956
411.11	13.676
411.47	13.698
411.83	13.580
412.18	13.012
412.54	13.989
412.89	12.573
413.25	13.318
413.60	13.153
413.96	13.462
414.31	13.201
414.67	13.536
415.03	13.354
415.38	13.430
415.74	13.439
416.09	13.880
416.45	12.774
416.80	13.831
417.16	13.665
417.51	13.200
417.87	12.998
418.22	13.832
418.58	13.135
418.93	13.795
419.29	12.885
419.64	12.365
420.00	12.700
420.35	12.858
420.71	13.326
421.06	12.478
421.42	13.532
421.77	12.924
422.12	12.949
422.48	12.750
422.83	13.527
423.19	13.050
423.54	12.777
423.90	13.142
424.25	13.440
424.61	13.433
424.96	13.564
425.31	13.907
425.67	12.882
426.02	13.005
426.38	13.261
426.73	13.281
427.09	14.360
427.44	12.616
427.79	12.825
428.15	12.614
428.50	12.584
428.85	13.146
429.21	13.670
429.56	12.685
429.92	13.563
430.27	12.723
430.62	13.532
430.98	12.100
431.33	12.414
431.68	12.596
432.04	13.154
432.39	13.069
432.74	13.470
433.10	13.196
433.45	12.096
433.80	13.358
434.16	13.791
434.51	13.772
434.86	13.681
435.22	13.709
435.57	12.913
435.92	13.801
436.28	13.595
436.63	13.435
436.98	13.741
437.34	13.360
437.69	13.043
438.04	12.745
438.39	12.751
438.75	12.618
439.10	13.161
439.45	12.409
439.81	12.938
440.16	13.244
440.51	13.545
440.86	12.840
441.22	12.808
441.57	13.312
441.92	13.337
442.27	13.434
442.63	13.164
442.98	13.767
443.33	12.835
443.68	13.181
444.03	13.405
444.39	13.361
444.74	13.629
445.09	12.924
445.44	12.908
445.79	13.697
446.15	13.001
446.50	13.178
446.85	13.765
447.20	12.669
447.55	13.075
447.91	12.094
448.26	13.266
448.61	12.646
448.96	13.573
449.31	12.778
449.66	12.908
450.02	13.238
450.37	13.639
450.72	13.079
451.07	13.269
451.42	13.345
451.77	12.785
452.12	12.415
452.47	12.537
452.83	12.669
453.18	12.901
453.53	12.579
453.88	12.645
454.23	12.825
454.58	13.465
454.93	12.803
455.28	12.824
455.63	12.962
455.98	13.184
456.34	12.721
456.69	13.286
457.04	12.884
457.39	13.692
457.74	13.311
458.09	13.125
458.44	14.170
458.79	12.996
459.14	13.214
459.49	13.413
459.84	12.749
460.19	13.159
460.54	13.856
460.89	12.811
461.24	12.644
461.59	13.060
461.94	12.493
462.29	13.326
462.64	12.613
462.99	12.994
463.34	13.368
463.69	13.072
464.04	13.730
464.39	13.509
464.74	12.885
465.09	12.918
465.44	12.339
465.79	13.379
466.14	12.976
466.49	13.211
466.84	12.562
467.19	13.584
467.54	13.043
467.89	13.046
468.24	12.798
468.59	12.044
468.94	12.179
469.29	12.418
469.64	12.206
469.99	12.747
470.34	12.562
470.68	13.055
471.03	13.491
471.38	12.426
471.73	12.744
472.08	12.817
472.43	12.523
472.78	13.161
473.13	13.085
473.48	12.749
473.83	13.117
474.17	13.306
474.52	12.688
474.87	13.621
475.22	12.901
475.57	13.084
475.92	13.091
476.27	12.567
476.61	13.396
476.96	12.774
477.31	13.119
477.66	13.064
478.01	12.557
478.36	12.961
478.70	12.709
479.05	12.730
479.40	13.031
479.75	13.208
480.10	13.216
480.45	13.674
480.79	13.424
481.14	12.638
481.49	13.085
481.84	13.577
482.19	12.516
482.53	13.205
482.88	12.982
483.23	13.250
483.58	12.838
483.92	12.234
484.27	12.447
484.62	12.087
484.97	13.453
485.31	12.355
485.66	12.044
486.01	12.890
486.36	13.302
486.70	13.471
487.05	13.292
487.40	13.165
487.75	13.028
488.09	12.651
488.44	12.392
488.79	12.546
489.13	12.527
489.48	12.350
489.83	11.952
490.17	11.827
490.52	12.767
490.87	12.267
491.22	12.218
491.56	12.628
491.91	12.778
492.26	12.592
492.60	12.637
492.95	12.813
493.30	12.326
493.64	13.009
493.99	12.018
494.34	12.369
494.68	12.034
495.03	13.084
495.37	12.517
495.72	12.517
496.07	12.664
496.41	12.656
496.76	13.178
497.11	12.527
497.45	12.171
497.80	12.750
498.14	12.834
498.49	12.960
498.84	12.477
499.18	12.281
499.53	12.870
499.87	12.703
500.22	12.511
500.56	12.326
500.91	12.815
501.26	12.182
501.60	12.461
501.95	12.809
502.29	12.198
502.64	12.505
502.98	12.726
503.33	12.786
503.67	12.298
504.02	12.259
504.36	12.779
504.71	12.954
505.06	13.142
505.40	12.843
505.75	12.295
506.09	11.971
506.44	12.396
506.78	12.798
507.13	12.033
507.47	12.695
507.82	12.074
508.16	12.237
508.51	12.002
508.85	12.990
509.19	12.459
509.54	12.920
509.88	12.142
510.23	12.967
510.57	13.098
510.92	12.192
511.26	11.785
511.61	11.589
511.95	12.982
512.30	12.605
512.64	12.194
512.98	12.406
513.33	12.550
513.67	13.055
514.02	12.213
514.36	11.969
514.70	12.083
515.05	12.669
515.39	12.231
515.74	13.043
516.08	12.837
516.42	12.507
516.77	12.776
517.11	12.120
517.46	12.619
517.80	12.667
518.14	13.112
518.49	12.581
518.83	11.815
519.17	12.062
519.52	12.159
519.86	12.144
520.20	12.141
520.55	12.212
520.89	11.655
521.23	11.893
521.58	12.260
521.92	12.691
522.26	11.627
522.61	12.326
522.95	12.341
523.29	12.471
523.64	12.220
523.98	12.835
524.32	12.493
524.66	11.725
525.01	12.571
525.35	12.119
525.69	12.123
526.04	11.998
526.38	11.667
526.72	12.514
527.06	11.848
527.41	12.770
527.75	12.055
528.09	11.806
528.43	12.197
528.78	11.850
529.12	12.385
529.46	12.254
529.80	11.785
530.15	12.116
530.49	12.337
530.83	12.338
531.17	11.051
531.51	11.432
531.86	12.620
532.20	12.195
532.54	12.029
532.88	12.364
533.22	11.903
533.57	12.175
533.91	12.626
534.25	12.210
534.59	12.011
534.93	12.394
535.27	12.169
535.62	12.848
535.96	12.667
536.30	12.045
536.64	12.372
536.98	12.423
537.32	12.407
537.66	12.477
538.01	12.810
538.35	12.119
538.69	11.959
539.03	12.569
539.37	12.426
539.71	12.192
540.05	12.470
540.39	12.286
540.73	12.143
541.07	12.876
541.42	12.522
541.76	12.752
542.10	12.425
542.44	11.754
542.78	11.983
543.12	11.621
543.46	12.027
543.80	11.930
544.14	11.849
544.48	12.175
544.82	13.465
545.16	12.224
545.50	11.803
545.84	12.309
546.18	13.395
546.52	12.357
546.86	11.824
547.20	12.087
547.54	12.360
547.88	12.236
548.22	12.690
548.56	12.639
548.90	12.000
549.24	12.401
549.58	12.177
549.92	11.862
550.26	12.427
550.60	12.317
550.94	12.031
551.28	12.607
551.62	12.871
551.96	12.751
552.30	13.321
552.64	12.383
552.98	12.477
553.32	12.862
553.66	12.154
554.00	12.106
554.34	12.033
554.68	12.008
555.02	11.629
555.36	13.083
555.69	11.595
556.03	11.917
556.37	13.016
556.71	12.365
557.05	12.268
557.39	12.210
557.73	12.285
558.07	12.649
558.41	12.425
558.75	11.427
559.08	11.969
559.42	11.591
559.76	11.737
560.10	12.525
560.44	11.675
560.78	12.688
561.12	12.069
561.45	11.800
561.79	12.943
562.13	13.124
562.47	11.961
562.81	12.532
563.15	12.311
563.48	11.995
563.82	12.817
564.16	12.598
564.50	13.230
564.84	12.212
565.17	12.235
565.51	11.853
565.85	12.292
566.19	12.154
566.52	12.873
566.86	12.620
567.20	12.235
567.54	12.321
567.88	13.099
568.21	13.291
568.55	12.662
568.89	12.665
569.23	12.674
569.56	13.091
569.90	12.580
570.24	13.390
570.57	13.214
570.91	12.492
571.25	13.133
571.59	13.248
571.92	12.953
572.26	12.943
572.60	13.459
572.93	13.526
573.27	13.037
573.61	13.182
573.95	12.989
574.28	13.011
574.62	12.824
574.96	12.814
575.29	12.668
575.63	13.075
575.97	13.006
576.30	12.756
576.64	12.622
576.98	12.961
577.31	13.228
577.65	13.269
577.98	13.366
578.32	13.274
578.66	13.061
578.99	13.025
579.33	13.006
579.67	12.738
580.00	12.879
580.34	12.980
580.67	13.019
581.01	13.284
581.35	13.462
581.68	13.221
582.02	13.290
582.35	13.532
582.69	13.206
583.02	13.325
583.36	13.268
583.70	12.543
584.03	12.647
584.37	12.639
584.70	12.714
585.04	12.555
585.37	13.080
585.71	13.182
586.04	13.188
586.38	13.069
586.72	12.685
587.05	13.021
587.39	12.790
587.72	13.038
588.06	13.322
588.39	13.069
588.73	13.201
589.06	13.008
589.40	13.368
589.73	12.982
590.07	12.699
590.40	13.320
590.73	12.690
591.07	12.733
591.40	12.792
591.74	12.758
592.07	12.911
592.41	12.973
592.74	12.744
593.08	13.217
593.41	13.182
593.75	13.103
594.08	13.269
594.41	13.558
594.75	12.720
595.08	12.517
595.42	12.532
595.75	13.529
596.09	13.250
596.42	12.970
596.75	12.736
597.09	13.333
597.42	12.634
597.75	12.936
598.09	12.976
598.42	13.309
598.76	12.686
599.09	13.030
599.42	12.605
599.76	13.041
600.09	13.247
600.42	12.646
600.76	12.285
601.09	12.512
601.42	12.873
601.76	12.897
602.09	12.652
602.42	12.759
602.76	12.620
603.09	12.702
603.42	13.006
603.76	12.579
604.09	13.556
604.42	12.844
604.76	12.633
605.09	13.363
605.42	12.879
605.75	12.423
606.09	12.467
606.42	12.222
606.75	12.631
607.09	12.097
607.42	12.871
607.75	12.270
608.08	12.944
608.42	12.334
608.75	12.935
609.08	12.351
609.41	12.395
609.75	12.054
610.08	12.621
610.41	12.702
610.74	12.731
611.07	12.300
611.41	13.004
611.74	12.841
612.07	12.482
612.40	12.690
612.73	12.665
613.07	12.812
613.40	12.175
613.73	11.988
614.06	12.610
614.39	11.905
614.72	12.373
615.06	11.983
615.39	12.325
615.72	12.749
616.05	13.065
616.38	12.916
616.71	12.539
617.05	12.513
617.38	12.788
617.71	12.527
618.04	11.873
618.37	12.459
618.70	12.048
619.03	11.888
619.36	12.084
619.69	11.467
620.03	12.618
620.36	11.963
620.69	11.474
621.02	12.073
621.35	12.627
621.68	12.509
622.01	11.673
622.34	11.925
622.67	12.096
623.00	11.538
623.33	12.674
623.66	12.387
623.99	12.113
624.32	13.385
624.65	12.484
624.99	12.419
625.32	13.782
625.65	12.542
625.98	11.729
626.31	12.119
626.64	12.308
626.97	10.803
627.30	11.541
627.63	11.928
627.96	12.688
628.29	11.518
628.62	11.839
628.95	12.182
629.28	11.555
629.61	12.458
629.94	11.297
630.26	11.780
630.59	12.263
630.92	11.169
631.25	12.522
631.58	11.488
631.91	11.996
632.24	12.392
632.57	11.575
632.90	10.732
633.23	11.429
633.56	12.143
633.89	10.847
634.22	12.786
634.55	12.944
