SpectraSuite Data File
++++++++++++++++++++++++++++++++++++
Date: Thu May 14 16:33:05 PDT 2015
User: schluterlab
Dark Spectrum Present: Yes
Reference Spectrum Present: Yes
Number of Sampled Component Spectra: 1
Spectrometers: USB2E3373
Integration Time (usec): 3000 (USB2E3373)
Spectra Averaged: 3 (USB2E3373)
Boxcar Smoothing: 0 (USB2E3373)
Correct for Electrical Dark: No (USB2E3373)
Strobe/Lamp Enabled: No (USB2E3373)
Correct for Detector Non-linearity: No (USB2E3373)
Correct for Stray Light: No (USB2E3373)
Number of Pixels in Processed Spectrum: 2048
>>>>>Begin Processed Spectral Data<<<<<
178.53	0.000
178.91	-0.000
179.29	-700.000
179.67	-600.000
180.04	85.714
180.42	10.000
180.80	40.000
181.18	-400.000
181.56	500.000
181.94	50.000
182.31	25.000
182.69	-100.000
183.07	-300.000
183.45	250.000
183.83	50.000
184.20	-33.333
184.58	-300.000
184.96	-100.000
185.34	22.222
185.72	80.000
186.09	88.889
186.47	200.000
186.85	360.000
187.23	-22.222
187.61	-1400.000
187.98	120.000
188.36	25.000
188.74	25.000
189.12	-133.333
189.49	0.000
189.87	-87.500
190.25	-11.111
190.63	-40.000
191.00	-133.333
191.38	0.000
191.76	-175.000
192.14	-133.333
192.51	500.000
192.89	50.000
193.27	0.000
193.65	-85.714
194.02	-600.000
194.40	0.000
194.78	128.571
195.15	0.000
195.53	27.273
195.91	0.000
196.29	-200.000
196.66	15.385
197.04	-700.000
197.42	-100.000
197.79	-300.000
198.17	50.000
198.55	14.286
198.92	22.222
199.30	-87.500
199.68	0.000
200.05	35.714
200.43	-550.000
200.81	271.429
201.18	0.000
201.56	222.222
201.94	0.000
202.31	333.333
202.69	-44.444
203.07	300.000
203.44	0.000
203.82	-50.000
204.19	0.000
204.57	-33.333
204.95	-50.000
205.32	-500.000
205.70	175.000
206.08	-133.333
206.45	66.667
206.83	280.000
207.20	-66.667
207.58	-160.000
207.96	-116.667
208.33	100.000
208.71	75.000
209.08	33.333
209.46	0.000
209.84	250.000
210.21	250.000
210.59	400.000
210.96	100.000
211.34	-75.000
211.71	-62.500
212.09	-1000.000
212.46	0.000
212.84	950.000
213.22	-180.000
213.59	-75.000
213.97	50.000
214.34	-133.333
214.72	133.333
215.09	-50.000
215.47	0.000
215.84	142.857
216.22	500.000
216.59	-140.000
216.97	80.000
217.34	125.000
217.72	25.000
218.09	-325.000
218.47	-200.000
218.84	0.000
219.22	20.000
219.59	-29.412
219.97	25.000
220.34	400.000
220.72	-55.556
221.09	30.769
221.47	100.000
221.84	-60.000
222.22	-100.000
222.59	0.000
222.97	-12.500
223.34	-220.000
223.72	-400.000
224.09	-150.000
224.46	-75.000
224.84	180.000
225.21	-128.571
225.59	-50.000
225.96	-25.000
226.34	38.462
226.71	183.333
227.08	100.000
227.46	26.667
227.83	175.000
228.21	63.158
228.58	25.000
228.95	400.000
229.33	58.333
229.70	-50.000
230.08	15.789
230.45	190.000
230.82	-233.333
231.20	-42.857
231.57	8.333
231.95	0.000
232.32	-45.455
232.69	-25.000
233.07	100.000
233.44	-41.176
233.81	-90.000
234.19	5.556
234.56	50.000
234.93	20.690
235.31	5.263
235.68	-5.556
236.05	-20.000
236.43	26.923
236.80	56.000
237.17	-18.519
237.55	0.000
237.92	-110.000
238.29	-9.677
238.67	-18.182
239.04	2.778
239.41	-21.429
239.79	-13.043
240.16	9.259
240.53	0.000
240.91	-11.765
241.28	0.000
241.65	19.403
242.02	14.865
242.40	-10.769
242.77	1.333
243.14	-10.976
243.51	-23.684
243.89	-6.410
244.26	3.960
244.63	-2.941
245.00	6.542
245.38	1.754
245.75	-14.159
246.12	0.000
246.49	-8.527
246.87	1.429
247.24	6.623
247.61	1.316
247.98	-2.013
248.36	-3.704
248.73	0.613
249.10	-2.732
249.47	5.970
249.84	5.759
250.22	-6.218
250.59	3.889
250.96	6.364
251.33	-7.653
251.70	0.855
252.08	2.083
252.45	0.820
252.82	2.893
253.19	-1.563
253.56	2.281
253.94	-1.923
254.31	3.030
254.68	5.594
255.05	5.537
255.42	1.701
255.79	-1.618
256.16	1.656
256.54	-1.325
256.91	3.279
257.28	-0.656
257.65	-0.955
258.02	-3.245
258.39	4.558
258.76	3.670
259.14	4.310
259.51	0.288
259.88	-1.983
260.25	2.500
260.62	2.740
260.99	1.913
261.36	1.877
261.73	-0.531
262.10	-2.473
262.47	-0.804
262.85	3.788
263.22	-1.299
263.59	-1.053
263.96	2.302
264.33	-0.512
264.70	1.975
265.07	0.716
265.44	4.535
265.81	0.694
266.18	1.814
266.55	1.116
266.92	0.683
267.29	-1.532
267.66	0.000
268.03	1.092
268.40	0.626
268.77	0.000
269.14	0.661
269.51	0.658
269.88	2.254
270.25	1.207
270.62	2.532
270.99	1.414
271.36	2.970
271.73	1.179
272.10	1.202
272.47	0.802
272.84	1.004
273.21	0.200
273.58	1.210
273.95	1.154
274.32	-1.521
274.69	-0.580
275.06	2.564
275.43	-0.370
275.80	2.469
276.17	-0.185
276.54	0.746
276.91	0.716
277.28	1.989
277.65	0.539
278.02	1.471
278.39	1.268
278.76	1.230
279.13	1.064
279.50	1.890
279.87	1.968
280.23	-1.937
280.60	1.864
280.97	0.822
281.34	-1.019
281.71	1.692
282.08	0.997
282.45	1.146
282.82	0.628
283.19	-1.454
283.56	0.328
283.92	2.553
284.29	2.686
284.66	1.642
285.03	-0.641
285.40	2.782
285.77	0.464
286.14	0.611
286.51	0.913
286.87	1.896
287.24	2.410
287.61	0.897
287.98	-0.604
288.35	1.036
288.72	0.148
289.08	2.928
289.45	0.444
289.82	1.506
290.19	1.580
290.56	0.986
290.93	0.000
291.29	1.240
291.66	2.204
292.03	0.814
292.40	2.041
292.77	1.617
293.13	1.218
293.50	-0.526
293.87	0.940
294.24	2.400
294.60	3.287
294.97	-0.403
295.34	2.177
295.71	2.018
296.08	0.258
296.44	2.206
296.81	1.462
297.18	2.366
297.55	1.179
297.91	1.068
298.28	0.237
298.65	1.784
299.02	1.299
299.38	2.403
299.75	1.636
300.12	1.042
300.48	1.267
300.85	2.700
301.22	2.573
301.59	2.511
301.95	1.921
302.32	1.778
302.69	2.081
303.05	2.285
303.42	1.441
303.79	1.979
304.15	1.998
304.52	1.797
304.89	1.466
305.25	1.863
305.62	0.940
305.99	2.474
306.35	2.319
306.72	2.792
307.09	1.827
307.45	2.795
307.82	2.926
308.19	2.725
308.55	2.604
308.92	2.240
309.29	3.640
309.65	2.437
310.02	2.475
310.38	2.953
310.75	3.010
311.12	2.589
311.48	2.835
311.85	2.184
312.22	2.467
312.58	4.319
312.95	1.912
313.31	2.710
313.68	3.205
314.05	4.155
314.41	3.643
314.78	3.724
315.14	3.811
315.51	4.617
315.87	4.140
316.24	4.566
316.61	4.263
316.97	3.710
317.34	2.381
317.70	4.716
318.07	5.026
318.43	5.187
318.80	5.686
319.16	4.034
319.53	3.513
319.89	4.470
320.26	4.270
320.62	5.319
320.99	5.078
321.35	5.268
321.72	5.395
322.08	4.238
322.45	5.420
322.81	5.596
323.18	4.867
323.54	5.086
323.91	5.783
324.27	5.766
324.64	5.793
325.00	4.312
325.37	5.979
325.73	6.446
326.10	5.839
326.46	6.678
326.83	6.565
327.19	5.906
327.56	6.324
327.92	5.744
328.29	6.452
328.65	5.946
329.01	5.922
329.38	5.981
329.74	5.651
330.11	6.678
330.47	5.981
330.84	6.460
331.20	6.083
331.56	6.326
331.93	6.778
332.29	5.508
332.66	5.648
333.02	6.030
333.38	5.453
333.75	6.397
334.11	6.255
334.48	6.106
334.84	6.457
335.20	5.206
335.57	6.071
335.93	6.860
336.29	6.156
336.66	6.308
337.02	6.271
337.38	6.463
337.75	6.116
338.11	6.308
338.47	5.873
338.84	6.176
339.20	4.128
339.56	6.013
339.93	5.829
340.29	6.200
340.65	5.921
341.02	5.666
341.38	6.467
341.74	6.699
342.11	5.792
342.47	5.004
342.83	5.878
343.20	6.623
343.56	5.774
343.92	6.485
344.28	5.937
344.65	7.054
345.01	6.942
345.37	6.065
345.73	4.910
346.10	6.396
346.46	6.646
346.82	6.367
347.19	6.188
347.55	7.056
347.91	5.944
348.27	5.463
348.63	5.407
349.00	5.742
349.36	7.212
349.72	6.771
350.08	6.315
350.45	4.639
350.81	5.656
351.17	6.241
351.53	5.383
351.89	5.619
352.26	5.448
352.62	5.597
352.98	5.038
353.34	5.228
353.70	5.547
354.07	5.812
354.43	5.695
354.79	5.610
355.15	6.255
355.51	6.140
355.87	6.283
356.24	6.160
356.60	5.026
356.96	5.708
357.32	5.799
357.68	5.564
358.04	4.716
358.40	6.343
358.77	6.944
359.13	4.874
359.49	4.238
359.85	5.584
360.21	6.313
360.57	6.174
360.93	6.065
361.29	5.474
361.66	5.720
362.02	6.402
362.38	5.622
362.74	5.307
363.10	6.327
363.46	5.679
363.82	5.895
364.18	5.911
364.54	5.602
364.90	5.418
365.26	5.931
365.62	6.467
365.98	5.174
366.35	6.443
366.71	6.395
367.07	5.683
367.43	6.303
367.79	6.768
368.15	6.823
368.51	6.766
368.87	5.487
369.23	6.067
369.59	5.328
369.95	6.288
370.31	6.280
370.67	7.153
371.03	5.263
371.39	5.910
371.75	5.846
372.11	6.572
372.47	6.770
372.83	6.806
373.19	6.871
373.55	6.640
373.91	6.067
374.27	7.050
374.63	5.886
374.99	6.698
375.35	6.948
375.71	6.903
376.07	6.520
376.42	6.990
376.78	6.650
377.14	6.613
377.50	6.199
377.86	8.005
378.22	7.126
378.58	6.480
378.94	6.690
379.30	6.620
379.66	7.231
380.02	7.155
380.38	7.028
380.74	6.479
381.09	7.666
381.45	7.330
381.81	7.436
382.17	8.254
382.53	7.485
382.89	6.885
383.25	7.268
383.61	6.771
383.97	7.126
384.32	7.835
384.68	6.671
385.04	7.577
385.40	7.837
385.76	7.386
386.12	7.481
386.48	8.176
386.83	7.926
387.19	6.547
387.55	7.512
387.91	7.477
388.27	8.199
388.62	8.018
388.98	8.178
389.34	7.896
389.70	7.321
390.06	7.342
390.42	7.711
390.77	8.128
391.13	7.923
391.49	7.729
391.85	7.515
392.20	8.304
392.56	8.683
392.92	8.615
393.28	8.679
393.64	7.989
393.99	8.542
394.35	8.119
394.71	8.204
395.07	7.066
395.42	7.995
395.78	8.775
396.14	8.913
396.50	8.135
396.85	8.110
397.21	8.284
397.57	7.951
397.92	9.164
398.28	7.605
398.64	7.666
399.00	7.435
399.35	8.482
399.71	7.772
400.07	8.254
400.42	8.265
400.78	8.333
401.14	8.765
401.49	8.186
401.85	8.198
402.21	8.401
402.57	8.862
402.92	9.043
403.28	8.431
403.63	7.816
403.99	8.492
404.35	7.561
404.70	8.385
405.06	8.043
405.42	8.665
405.77	8.070
406.13	8.860
406.49	8.164
406.84	7.812
407.20	8.440
407.55	8.056
407.91	8.925
408.27	7.538
408.62	7.795
408.98	8.764
409.34	8.094
409.69	8.714
410.05	8.792
410.40	8.179
410.76	8.637
411.11	8.065
411.47	8.354
411.83	8.348
412.18	9.036
412.54	8.892
412.89	9.139
413.25	8.521
413.60	7.984
413.96	8.916
414.31	7.705
414.67	8.587
415.03	7.692
415.38	8.197
415.74	8.613
416.09	9.192
416.45	7.952
416.80	8.690
417.16	8.876
417.51	8.593
417.87	9.319
418.22	7.844
418.58	8.240
418.93	9.488
419.29	8.200
419.64	8.343
420.00	8.012
420.35	8.478
420.71	8.156
421.06	8.338
421.42	8.028
421.77	7.593
422.12	9.091
422.48	8.653
422.83	8.872
423.19	8.700
423.54	8.296
423.90	7.896
424.25	8.213
424.61	7.520
424.96	8.292
425.31	9.076
425.67	8.427
426.02	8.246
426.38	7.979
426.73	8.426
427.09	8.189
427.44	8.192
427.79	7.629
428.15	7.934
428.50	7.865
428.85	8.209
429.21	8.723
429.56	7.700
429.92	7.912
430.27	8.289
430.62	7.914
430.98	8.067
431.33	8.602
431.68	7.807
432.04	7.313
432.39	8.249
432.74	8.048
433.10	8.653
433.45	7.692
433.80	8.047
434.16	8.574
434.51	8.787
434.86	7.709
435.22	8.236
435.57	8.844
435.92	8.013
436.28	8.077
436.63	8.465
436.98	7.461
437.34	8.455
437.69	8.751
438.04	8.091
438.39	7.697
438.75	7.692
439.10	8.298
439.45	8.440
439.81	7.684
440.16	7.668
440.51	8.361
440.86	8.004
441.22	7.395
441.57	7.652
441.92	8.147
442.27	8.535
442.63	8.296
442.98	7.844
443.33	8.048
443.68	8.920
444.03	8.514
444.39	8.738
444.74	8.474
445.09	8.414
445.44	8.693
445.79	8.142
446.15	8.222
446.50	8.475
446.85	8.074
447.20	8.317
447.55	8.368
447.91	7.330
448.26	7.664
448.61	7.705
448.96	9.388
449.31	7.688
449.66	7.516
450.02	7.173
450.37	7.991
450.72	7.374
451.07	8.599
451.42	8.088
451.77	8.282
452.12	8.691
452.47	7.130
452.83	7.883
453.18	7.823
453.53	7.237
453.88	7.675
454.23	7.853
454.58	8.067
454.93	7.342
455.28	8.128
455.63	8.130
455.98	8.045
456.34	7.833
456.69	7.878
457.04	7.742
457.39	7.650
457.74	8.445
458.09	7.304
458.44	7.974
458.79	7.427
459.14	7.446
459.49	7.470
459.84	7.765
460.19	7.329
460.54	7.723
460.89	7.305
461.24	7.126
461.59	8.301
461.94	7.074
462.29	7.279
462.64	6.759
462.99	8.537
463.34	7.657
463.69	8.675
464.04	8.394
464.39	7.455
464.74	8.039
465.09	7.382
465.44	7.940
465.79	8.197
466.14	7.921
466.49	7.632
466.84	7.879
467.19	7.803
467.54	6.698
467.89	7.759
468.24	7.922
468.59	7.180
468.94	7.459
469.29	7.379
469.64	8.328
469.99	7.648
470.34	7.859
470.68	7.792
471.03	7.990
471.38	8.306
471.73	6.567
472.08	7.297
472.43	7.646
472.78	7.116
473.13	7.396
473.48	7.372
473.83	7.603
474.17	7.620
474.52	6.855
474.87	7.143
475.22	7.775
475.57	7.529
475.92	7.616
476.27	7.188
476.61	7.580
476.96	6.726
477.31	8.218
477.66	8.185
478.01	7.728
478.36	7.328
478.70	6.946
479.05	8.129
479.40	7.651
479.75	7.781
480.10	7.200
480.45	7.976
480.79	7.392
481.14	7.583
481.49	7.406
481.84	7.267
482.19	7.742
482.53	7.783
482.88	6.956
483.23	7.337
483.58	7.074
483.92	6.738
484.27	7.155
484.62	7.137
484.97	7.465
485.31	7.110
485.66	6.832
486.01	6.888
486.36	7.225
486.70	7.579
487.05	7.666
487.40	7.360
487.75	7.506
488.09	7.241
488.44	6.905
488.79	7.622
489.13	7.603
489.48	6.136
489.83	6.519
490.17	6.318
490.52	6.773
490.87	7.022
491.22	6.846
491.56	7.295
491.91	6.978
492.26	7.096
492.60	6.471
492.95	6.977
493.30	6.410
493.64	6.921
493.99	6.535
494.34	6.533
494.68	6.552
495.03	6.564
495.37	6.525
495.72	6.213
496.07	6.529
496.41	6.821
496.76	6.631
497.11	5.817
497.45	6.560
497.80	6.575
498.14	6.485
498.49	6.756
498.84	6.764
499.18	6.298
499.53	6.726
499.87	6.637
500.22	6.233
500.56	6.118
500.91	6.682
501.26	7.000
501.60	6.275
501.95	6.687
502.29	6.362
502.64	6.865
502.98	6.514
503.33	6.566
503.67	6.193
504.02	5.823
504.36	6.568
504.71	6.431
505.06	6.639
505.40	6.444
505.75	6.284
506.09	6.492
506.44	6.871
506.78	7.064
507.13	6.547
507.47	6.490
507.82	7.102
508.16	6.119
508.51	6.282
508.85	6.708
509.19	5.732
509.54	6.724
509.88	7.042
510.23	6.362
510.57	6.912
510.92	6.628
511.26	6.397
511.61	6.422
511.95	6.735
512.30	7.533
512.64	5.997
512.98	6.753
513.33	6.956
513.67	6.425
514.02	6.694
514.36	6.036
514.70	6.615
515.05	7.143
515.39	6.772
515.74	6.787
516.08	6.656
516.42	7.012
516.77	6.572
517.11	6.086
517.46	6.575
517.80	6.574
518.14	7.182
518.49	6.996
518.83	6.493
519.17	5.924
519.52	7.128
519.86	7.022
520.20	6.976
520.55	6.134
520.89	6.137
521.23	5.974
521.58	5.932
521.92	5.496
522.26	6.415
522.61	6.019
522.95	6.228
523.29	6.724
523.64	6.726
523.98	6.845
524.32	6.533
524.66	6.488
525.01	6.512
525.35	5.514
525.69	6.381
526.04	6.257
526.38	6.322
526.72	6.113
527.06	6.745
527.41	6.181
527.75	6.651
528.09	6.080
528.43	5.861
528.78	5.896
529.12	6.135
529.46	5.902
529.80	6.407
530.15	6.145
530.49	5.457
530.83	5.844
531.17	5.974
531.51	6.318
531.86	6.310
532.20	6.037
532.54	6.403
532.88	6.182
533.22	6.305
533.57	6.809
533.91	6.566
534.25	6.218
534.59	6.207
534.93	5.263
535.27	6.085
535.62	6.993
535.96	5.985
536.30	5.817
536.64	6.787
536.98	6.212
537.32	6.481
537.66	6.675
538.01	5.921
538.35	6.273
538.69	5.529
539.03	6.560
539.37	5.771
539.71	5.946
540.05	6.055
540.39	5.562
540.73	5.586
541.07	5.334
541.42	6.261
541.76	5.160
542.10	5.489
542.44	5.116
542.78	6.083
543.12	6.377
543.46	5.433
543.80	5.336
544.14	5.984
544.48	5.851
544.82	6.284
545.16	5.784
545.50	5.812
545.84	4.776
546.18	5.864
546.52	5.223
546.86	5.094
547.20	5.534
547.54	5.306
547.88	5.606
548.22	5.614
548.56	5.266
548.90	5.075
549.24	6.261
549.58	5.615
549.92	4.974
550.26	5.437
550.60	5.552
550.94	5.757
551.28	5.479
551.62	6.199
551.96	5.113
552.30	5.927
552.64	5.040
552.98	5.240
553.32	5.209
553.66	5.338
554.00	5.864
554.34	5.792
554.68	5.036
555.02	5.256
555.36	6.509
555.69	5.445
556.03	4.981
556.37	5.444
556.71	5.327
557.05	5.559
557.39	4.645
557.73	5.416
558.07	5.364
558.41	5.781
558.75	5.680
559.08	5.010
559.42	5.556
559.76	5.427
560.10	4.956
560.44	4.551
560.78	5.313
561.12	5.172
561.45	4.745
561.79	5.128
562.13	5.299
562.47	4.994
562.81	4.937
563.15	5.177
563.48	4.475
563.82	5.683
564.16	4.785
564.50	4.231
564.84	4.484
565.17	5.353
565.51	4.891
565.85	4.632
566.19	4.666
566.52	5.032
566.86	4.754
567.20	4.405
567.54	4.780
567.88	4.689
568.21	5.138
568.55	5.036
568.89	5.129
569.23	5.027
569.56	4.533
569.90	5.239
570.24	4.823
570.57	4.715
570.91	4.164
571.25	4.802
571.59	4.843
571.92	4.824
572.26	4.791
572.60	4.778
572.93	5.205
573.27	5.030
573.61	4.870
573.95	4.977
574.28	4.789
574.62	4.684
574.96	4.477
575.29	4.494
575.63	4.689
575.97	4.695
576.30	4.910
576.64	4.701
576.98	4.670
577.31	4.818
577.65	4.829
577.98	4.725
578.32	4.523
578.66	4.485
578.99	4.608
579.33	4.602
579.67	4.533
580.00	4.608
580.34	4.908
580.67	4.634
581.01	4.608
581.35	4.500
581.68	4.525
582.02	4.674
582.35	4.735
582.69	4.738
583.02	4.317
583.36	4.518
583.70	4.544
584.03	4.488
584.37	4.394
584.70	4.230
585.04	4.673
585.37	4.507
585.71	4.790
586.04	4.469
586.38	4.619
586.72	4.512
587.05	3.991
587.39	4.114
587.72	4.091
588.06	4.376
588.39	4.381
588.73	4.497
589.06	4.543
589.40	4.149
589.73	4.306
590.07	4.310
590.40	4.327
590.73	4.489
591.07	4.393
591.40	4.082
591.74	4.531
592.07	4.344
592.41	4.140
592.74	4.508
593.08	4.777
593.41	4.374
593.75	4.195
594.08	4.423
594.41	4.872
594.75	4.716
595.08	4.273
595.42	4.545
595.75	4.779
596.09	4.439
596.42	4.443
596.75	5.172
597.09	4.606
597.42	4.529
597.75	4.586
598.09	4.722
598.42	4.463
598.76	4.089
599.09	4.450
599.42	4.224
599.76	4.490
600.09	4.071
600.42	4.605
600.76	4.491
601.09	4.215
601.42	4.257
601.76	4.621
602.09	4.146
602.42	4.253
602.76	4.133
603.09	4.075
603.42	4.046
603.76	3.911
604.09	4.152
604.42	4.183
604.76	4.110
605.09	4.627
605.42	3.907
605.75	3.846
606.09	4.218
606.42	4.232
606.75	3.748
607.09	3.955
607.42	4.470
607.75	3.947
608.08	4.025
608.42	4.232
608.75	4.063
609.08	4.117
609.41	4.279
609.75	3.795
610.08	4.002
610.41	4.333
610.74	4.244
611.07	3.952
611.41	3.767
611.74	4.111
612.07	4.348
612.40	3.327
612.73	3.716
613.07	3.912
613.40	4.139
613.73	3.755
614.06	4.073
614.39	3.547
614.72	3.688
615.06	3.898
615.39	4.398
615.72	4.597
616.05	3.740
616.38	4.036
616.71	4.232
617.05	3.674
617.38	4.976
617.71	4.428
618.04	3.994
618.37	3.825
618.70	3.846
619.03	3.644
619.36	3.637
619.69	3.459
620.03	4.834
620.36	4.417
620.69	4.072
621.02	4.068
621.35	2.975
621.68	4.194
622.01	4.270
622.34	3.208
622.67	3.849
623.00	3.441
623.33	4.180
623.66	4.215
623.99	3.489
624.32	4.613
624.65	4.054
624.99	3.771
625.32	4.246
625.65	3.978
625.98	3.525
626.31	3.685
626.64	3.516
626.97	3.901
627.30	3.797
627.63	3.826
627.96	5.480
628.29	4.591
628.62	4.030
628.95	3.681
629.28	3.653
629.61	4.545
629.94	3.096
630.26	3.983
630.59	3.541
630.92	3.636
631.25	5.188
631.58	4.049
631.91	2.624
632.24	4.131
632.57	4.175
632.90	3.210
633.23	3.061
633.56	3.469
633.89	2.479
634.22	3.222
634.55	4.280
634.88	2.273
635.20	4.952
635.53	3.955
635.86	2.925
636.19	4.984
636.52	3.376
636.85	3.677
637.18	4.574
637.51	3.011
637.83	4.651
638.16	4.493
638.49	4.225
638.82	3.946
639.15	2.749
639.48	3.811
639.81	4.388
640.13	4.122
640.46	2.788
640.79	2.451
641.12	3.727
641.45	2.008
641.77	4.750
642.10	3.675
642.43	4.388
642.76	3.252
643.09	2.740
643.41	3.361
643.74	3.862
644.07	4.414
644.40	2.687
644.73	4.354
645.05	2.349
645.38	2.878
645.71	4.106
646.04	3.587
646.36	2.628
646.69	3.528
647.02	3.823
647.35	5.038
647.67	3.865
648.00	3.025
648.33	4.805
648.66	2.996
648.98	3.129
649.31	3.789
649.64	5.578
649.96	5.438
650.29	2.643
650.62	2.829
650.94	3.453
651.27	1.347
651.60	3.509
651.92	3.343
652.25	4.776
652.58	4.677
652.90	2.180
653.23	3.944
653.56	3.424
653.88	7.444
654.21	4.507
654.54	3.035
654.86	4.816
655.19	2.760
655.52	3.352
655.84	3.976
656.17	4.352
656.49	6.196
656.82	6.830
657.15	5.160
657.47	4.062
657.80	2.926
658.13	2.273
658.45	3.026
658.78	3.712
659.10	3.162
