SpectraSuite Data File
++++++++++++++++++++++++++++++++++++
Date: Thu May 14 16:36:51 PDT 2015
User: schluterlab
Dark Spectrum Present: Yes
Reference Spectrum Present: Yes
Number of Sampled Component Spectra: 1
Spectrometers: USB2E3373
Integration Time (usec): 3000 (USB2E3373)
Spectra Averaged: 3 (USB2E3373)
Boxcar Smoothing: 0 (USB2E3373)
Correct for Electrical Dark: No (USB2E3373)
Strobe/Lamp Enabled: No (USB2E3373)
Correct for Detector Non-linearity: No (USB2E3373)
Correct for Stray Light: No (USB2E3373)
Number of Pixels in Processed Spectrum: 2048
>>>>>Begin Processed Spectral Data<<<<<
178.53	0.000
178.91	114.286
179.29	-800.000
179.67	-1200.000
180.04	164.286
180.42	100.000
180.80	60.000
181.18	-100.000
181.56	300.000
181.94	100.000
182.31	-300.000
182.69	233.333
183.07	-450.000
183.45	100.000
183.83	0.000
184.20	-100.000
184.58	100.000
184.96	0.000
185.34	11.111
185.72	-200.000
186.09	288.889
186.47	-0.000
186.85	220.000
187.23	-111.111
187.61	-400.000
187.98	60.000
188.36	275.000
188.74	75.000
189.12	-533.333
189.49	25.000
189.87	37.500
190.25	44.444
190.63	-100.000
191.00	-100.000
191.38	0.000
191.76	-125.000
192.14	-16.667
192.51	300.000
192.89	83.333
193.27	0.000
193.65	-42.857
194.02	-700.000
194.40	28.571
194.78	142.857
195.15	0.000
195.53	36.364
195.91	0.000
196.29	175.000
196.66	-15.385
197.04	-200.000
197.42	-85.714
197.79	-250.000
198.17	-62.500
198.55	-14.286
198.92	-11.111
199.30	-75.000
199.68	-45.455
200.05	-14.286
200.43	-600.000
200.81	157.143
201.18	0.000
201.56	88.889
201.94	0.000
202.31	200.000
202.69	-44.444
203.07	-500.000
203.44	11.111
203.82	-275.000
204.19	-41.667
204.57	116.667
204.95	-150.000
205.32	-1200.000
205.70	175.000
206.08	-116.667
206.45	-33.333
206.83	280.000
207.20	-133.333
207.58	-20.000
207.96	-200.000
208.33	133.333
208.71	75.000
209.08	-66.667
209.46	0.000
209.84	433.333
210.21	450.000
210.59	200.000
210.96	433.333
211.34	150.000
211.71	-37.500
212.09	-1000.000
212.46	0.000
212.84	700.000
213.22	-160.000
213.59	0.000
213.97	-20.000
214.34	-133.333
214.72	100.000
215.09	-225.000
215.47	0.000
215.84	128.571
216.22	500.000
216.59	-80.000
216.97	-60.000
217.34	-200.000
217.72	75.000
218.09	-200.000
218.47	-275.000
218.84	0.000
219.22	380.000
219.59	17.647
219.97	25.000
220.34	400.000
220.72	-177.778
221.09	7.692
221.47	133.333
221.84	-70.000
222.22	14.286
222.59	0.000
222.97	0.000
223.34	-220.000
223.72	-1200.000
224.09	-25.000
224.46	0.000
224.84	-40.000
225.21	-100.000
225.59	-375.000
225.96	-175.000
226.34	7.692
226.71	150.000
227.08	-250.000
227.46	-6.667
227.83	-125.000
228.21	26.316
228.58	162.500
228.95	300.000
229.33	-16.667
229.70	10.000
230.08	42.105
230.45	70.000
230.82	-100.000
231.20	-35.714
231.57	58.333
231.95	-72.727
232.32	27.273
232.69	75.000
233.07	-225.000
233.44	-23.529
233.81	-70.000
234.19	44.444
234.56	-13.636
234.93	37.931
235.31	52.632
235.68	0.000
236.05	-30.000
236.43	69.231
236.80	56.000
237.17	-25.926
237.55	-6.061
237.92	70.000
238.29	9.677
238.67	15.909
239.04	0.000
239.41	9.524
239.79	19.565
240.16	0.000
240.53	-10.870
240.91	1.961
241.28	11.475
241.65	17.910
242.02	17.568
242.40	1.538
242.77	9.333
243.14	-1.220
243.51	-9.211
243.89	5.128
244.26	17.822
244.63	10.784
245.00	6.542
245.38	0.877
245.75	3.540
246.12	12.698
246.49	1.550
246.87	14.286
247.24	19.205
247.61	5.263
247.98	11.409
248.36	9.877
248.73	9.816
249.10	13.661
249.47	17.413
249.84	18.325
250.22	3.627
250.59	5.556
250.96	14.545
251.33	12.245
251.70	12.821
252.08	12.917
252.45	13.934
252.82	13.223
253.19	8.984
253.56	11.027
253.94	11.538
254.31	14.773
254.68	16.084
255.05	13.355
255.42	13.265
255.79	11.650
256.16	12.914
256.54	12.583
256.91	17.377
257.28	13.443
257.65	9.554
258.02	10.619
258.39	14.245
258.76	15.596
259.14	14.943
259.51	13.256
259.88	12.465
260.25	12.222
260.62	16.164
260.99	13.388
261.36	16.622
261.73	12.997
262.10	9.341
262.47	12.601
262.85	13.889
263.22	10.909
263.59	8.421
263.96	11.509
264.33	13.043
264.70	14.568
265.07	14.797
265.44	16.780
265.81	12.269
266.18	14.512
266.55	13.170
266.92	14.579
267.29	14.442
267.66	13.525
268.03	14.847
268.40	13.570
268.77	11.845
269.14	10.352
269.51	13.158
269.88	15.164
270.25	16.298
270.62	15.401
270.99	14.949
271.36	14.455
271.73	13.949
272.10	15.832
272.47	12.425
272.84	13.655
273.21	12.425
273.58	12.903
273.95	10.000
274.32	11.977
274.69	11.799
275.06	13.370
275.43	11.091
275.80	14.286
276.17	13.519
276.54	10.821
276.91	12.701
277.28	10.669
277.65	13.645
278.02	15.441
278.39	11.232
278.76	14.060
279.13	12.411
279.50	16.151
279.87	12.343
280.23	10.211
280.60	12.373
280.97	14.638
281.34	13.073
281.71	12.690
282.08	11.794
282.45	11.948
282.82	10.675
283.19	10.824
283.56	12.623
283.92	13.514
284.29	15.008
284.66	12.808
285.03	8.974
285.40	13.447
285.77	11.455
286.14	15.420
286.51	12.785
286.87	12.480
287.24	11.596
287.61	11.958
287.98	11.329
288.35	13.018
288.72	13.018
289.08	13.616
289.45	13.462
289.82	11.596
290.19	11.063
290.56	12.535
290.93	11.555
291.29	13.361
291.66	11.157
292.03	10.855
292.40	13.333
292.77	11.321
293.13	11.231
293.50	12.221
293.87	11.678
294.24	12.000
294.60	9.861
294.97	10.738
295.34	11.140
295.71	9.836
296.08	11.886
296.44	11.520
296.81	11.693
297.18	10.461
297.55	9.670
297.91	10.202
298.28	10.190
298.65	10.345
299.02	10.980
299.38	10.412
299.75	10.397
300.12	10.069
300.48	10.023
300.85	11.699
301.22	11.298
301.59	10.845
301.95	10.621
302.32	11.778
302.69	10.953
303.05	10.011
303.42	10.532
303.79	10.104
304.15	9.464
304.52	10.254
304.89	9.843
305.25	9.627
305.62	10.031
305.99	11.031
306.35	10.585
306.72	11.479
307.09	9.442
307.45	10.041
307.82	10.999
308.19	10.394
308.55	11.090
308.92	10.224
309.29	11.494
309.65	10.429
310.02	10.297
310.38	11.811
310.75	10.583
311.12	11.697
311.48	11.339
311.85	11.301
312.22	11.765
312.58	10.704
312.95	10.707
313.31	11.382
313.68	11.813
314.05	12.466
314.41	12.842
314.78	12.171
315.14	13.521
315.51	12.558
315.87	12.871
316.24	13.881
316.61	14.565
316.97	11.674
317.34	13.757
317.70	15.284
318.07	14.991
318.43	14.201
318.80	15.719
319.16	14.764
319.53	14.310
319.89	14.636
320.26	16.370
320.62	14.894
320.99	17.267
321.35	17.006
321.72	16.744
322.08	15.239
322.45	17.073
322.81	17.599
323.18	16.106
323.54	18.190
323.91	17.349
324.27	18.761
324.64	19.479
325.00	17.910
325.37	19.574
325.73	20.248
326.10	20.519
326.46	19.870
326.83	20.496
327.19	19.449
327.56	20.158
327.92	20.220
328.29	20.242
328.65	19.765
329.01	20.728
329.38	21.146
329.74	20.719
330.11	22.517
330.47	21.567
330.84	21.016
331.20	20.250
331.56	21.057
331.93	21.423
332.29	20.932
332.66	20.930
333.02	21.441
333.38	20.554
333.75	22.054
334.11	22.519
334.48	21.700
334.84	23.364
335.20	20.487
335.57	21.248
335.93	20.496
336.29	21.381
336.66	21.615
337.02	21.739
337.38	21.939
337.75	20.992
338.11	21.951
338.47	21.257
338.84	21.320
339.20	19.798
339.56	21.664
339.93	21.675
340.29	20.531
340.65	21.655
341.02	21.069
341.38	22.231
341.74	21.146
342.11	21.963
342.47	21.287
342.83	22.383
343.20	22.976
343.56	22.614
343.92	21.377
344.28	21.250
344.65	21.395
345.01	21.373
345.37	21.151
345.73	21.200
346.10	22.855
346.46	21.994
346.82	21.199
347.19	22.002
347.55	21.472
347.91	22.288
348.27	21.017
348.63	22.391
349.00	21.477
349.36	22.007
349.72	21.801
350.08	21.322
350.45	20.989
350.81	21.342
351.17	22.632
351.53	22.290
351.89	22.096
352.26	22.164
352.62	22.015
352.98	21.527
353.34	22.181
353.70	22.496
354.07	22.206
354.43	22.248
354.79	21.541
355.15	22.001
355.51	22.515
355.87	22.438
356.24	21.673
356.60	21.877
356.96	21.572
357.32	22.007
357.68	21.596
358.04	21.632
358.40	21.493
358.77	22.661
359.13	21.861
359.49	21.859
359.85	22.190
360.21	22.525
360.57	21.680
360.93	22.003
361.29	23.158
361.66	22.085
362.02	23.591
362.38	22.558
362.74	22.696
363.10	22.490
363.46	23.338
363.82	22.798
364.18	22.871
364.54	22.822
364.90	23.545
365.26	23.241
365.62	23.933
365.98	23.349
366.35	23.758
366.71	23.946
367.07	22.463
367.43	23.638
367.79	23.889
368.15	24.883
368.51	25.034
368.87	24.755
369.23	23.867
369.59	24.180
369.95	23.935
370.31	24.375
370.67	24.484
371.03	24.723
371.39	24.043
371.75	24.072
372.11	25.068
372.47	25.525
372.83	25.196
373.19	25.083
373.55	24.729
373.91	24.540
374.27	25.291
374.63	24.831
374.99	25.265
375.35	25.390
375.71	25.355
376.07	25.242
376.42	24.937
376.78	25.730
377.14	24.704
377.50	25.806
377.86	25.862
378.22	25.928
378.58	26.100
378.94	25.587
379.30	26.479
379.66	27.572
380.02	26.428
380.38	27.247
380.74	27.549
381.09	26.481
381.45	26.875
381.81	27.518
382.17	27.435
382.53	27.251
382.89	27.652
383.25	28.136
383.61	27.662
383.97	27.915
384.32	28.230
384.68	27.958
385.04	28.976
385.40	29.228
385.76	28.312
386.12	27.708
386.48	28.882
386.83	29.857
387.19	28.853
387.55	28.638
387.91	28.767
388.27	29.157
388.62	28.923
388.98	28.878
389.34	29.699
389.70	29.576
390.06	29.663
390.42	30.060
390.77	30.885
391.13	29.284
391.49	30.133
391.85	30.242
392.20	30.071
392.56	30.419
392.92	29.826
393.28	30.182
393.64	30.168
393.99	31.028
394.35	31.133
394.71	31.018
395.07	29.461
395.42	30.782
395.78	31.383
396.14	30.957
396.50	30.344
396.85	30.769
397.21	31.065
397.57	31.449
397.92	31.558
398.28	30.907
398.64	32.151
399.00	31.047
399.35	31.204
399.71	31.359
400.07	32.117
400.42	31.141
400.78	32.292
401.14	30.848
401.49	32.689
401.85	32.733
402.21	32.155
402.57	32.394
402.92	32.801
403.28	32.728
403.63	32.220
403.99	32.007
404.35	31.495
404.70	32.521
405.06	32.391
405.42	32.143
405.77	32.279
406.13	32.685
406.49	32.714
406.84	32.355
407.20	33.203
407.55	32.344
407.91	32.181
408.27	32.980
408.62	32.868
408.98	32.908
409.34	32.199
409.69	33.375
410.05	33.236
410.40	33.237
410.76	32.810
411.11	33.606
411.47	32.985
411.83	33.980
412.18	32.590
412.54	33.017
412.89	33.411
413.25	34.368
413.60	33.027
413.96	33.683
414.31	33.654
414.67	32.916
415.03	32.554
415.38	33.922
415.74	33.354
416.09	34.176
416.45	32.937
416.80	32.130
417.16	34.610
417.51	33.873
417.87	33.415
418.22	33.473
418.58	33.333
418.93	34.168
419.29	34.340
419.64	33.373
420.00	33.828
420.35	33.689
420.71	33.199
421.06	32.950
421.42	34.576
421.77	32.956
422.12	32.717
422.48	33.794
422.83	34.118
423.19	33.740
423.54	34.237
423.90	33.628
424.25	34.560
424.61	34.041
424.96	33.882
425.31	33.705
425.67	32.958
426.02	34.809
426.38	32.664
426.73	33.371
427.09	35.121
427.44	33.971
427.79	34.107
428.15	33.904
428.50	33.764
428.85	33.754
429.21	34.415
429.56	33.959
429.92	33.563
430.27	34.892
430.62	34.734
430.98	34.432
431.33	34.409
431.68	33.381
432.04	34.231
432.39	33.798
432.74	33.733
433.10	34.613
433.45	34.169
433.80	34.013
434.16	34.091
434.51	34.018
434.86	35.179
435.22	34.644
435.57	34.139
435.92	35.170
436.28	34.812
436.63	34.844
436.98	34.944
437.34	34.442
437.69	34.452
438.04	34.320
438.39	35.267
438.75	34.532
439.10	34.937
439.45	34.656
439.81	34.294
440.16	34.424
440.51	35.173
440.86	33.963
441.22	34.512
441.57	34.958
441.92	34.675
442.27	35.455
442.63	35.221
442.98	34.578
443.33	34.666
443.68	34.490
444.03	36.500
444.39	35.506
444.74	34.099
445.09	35.073
445.44	35.616
445.79	35.105
446.15	35.663
446.50	34.729
446.85	35.700
447.20	35.397
447.55	35.146
447.91	35.812
448.26	35.148
448.61	34.857
448.96	36.534
449.31	35.419
449.66	35.185
450.02	34.388
450.37	35.535
450.72	35.091
451.07	35.763
451.42	34.662
451.77	34.297
452.12	36.117
452.47	34.581
452.83	35.755
453.18	35.493
453.53	34.808
453.88	35.008
454.23	34.802
454.58	35.577
454.93	35.133
455.28	34.979
455.63	35.418
455.98	35.698
456.34	34.335
456.69	34.979
457.04	35.697
457.39	35.865
457.74	35.011
458.09	33.992
458.44	34.644
458.79	34.657
459.14	34.609
459.49	34.748
459.84	34.627
460.19	35.369
460.54	34.753
460.89	34.939
461.24	34.655
461.59	35.418
461.94	33.885
462.29	34.658
462.64	34.520
462.99	34.903
463.34	35.691
463.69	34.936
464.04	35.186
464.39	34.641
464.74	34.265
465.09	34.833
465.44	34.335
465.79	34.796
466.14	34.653
466.49	33.474
466.84	34.105
467.19	34.393
467.54	32.550
467.89	33.736
468.24	33.241
468.59	32.947
468.94	32.343
469.29	32.933
469.64	33.503
469.99	33.652
470.34	33.725
470.68	33.630
471.03	33.661
471.38	33.878
471.73	33.615
472.08	33.693
472.43	33.113
472.78	33.060
473.13	33.375
473.48	33.414
473.83	33.314
474.17	32.884
474.52	32.471
474.87	33.610
475.22	33.859
475.57	32.710
475.92	32.753
476.27	32.854
476.61	32.295
476.96	32.690
477.31	33.119
477.66	32.424
478.01	31.164
478.36	32.403
478.70	32.956
479.05	33.538
479.40	33.416
479.75	31.556
480.10	33.112
480.45	32.726
480.79	32.698
481.14	32.307
481.49	32.076
481.84	32.289
482.19	32.129
482.53	32.707
482.88	32.654
483.23	31.881
483.58	31.921
483.92	31.250
484.27	31.541
484.62	31.064
484.97	31.726
485.31	31.749
485.66	30.597
486.01	30.970
486.36	32.083
486.70	32.402
487.05	32.904
487.40	31.739
487.75	30.407
488.09	30.206
488.44	29.716
488.79	30.017
489.13	30.594
489.48	29.981
489.83	29.859
490.17	29.931
490.52	29.885
490.87	30.795
491.22	30.503
491.56	30.589
491.91	30.353
492.26	30.247
492.60	30.520
492.95	30.891
493.30	30.300
493.64	30.092
493.99	29.912
494.34	29.530
494.68	29.507
495.03	29.780
495.37	29.871
495.72	30.295
496.07	29.492
496.41	29.429
496.76	29.817
497.11	29.384
497.45	29.003
497.80	29.587
498.14	28.526
498.49	28.585
498.84	29.250
499.18	29.240
499.53	29.417
499.87	28.791
500.22	27.694
500.56	28.565
500.91	28.787
501.26	28.727
501.60	28.193
501.95	28.832
502.29	28.302
502.64	28.771
502.98	28.171
503.33	27.905
503.67	27.693
504.02	28.590
504.36	27.837
504.71	27.239
505.06	27.785
505.40	28.108
505.75	27.231
506.09	27.348
506.44	27.902
506.78	27.844
507.13	27.386
507.47	27.191
507.82	27.557
508.16	27.294
508.51	27.192
508.85	27.964
509.19	27.712
509.54	27.954
509.88	26.081
510.23	27.295
510.57	27.695
510.92	27.383
511.26	26.599
511.61	25.157
511.95	25.769
512.30	26.342
512.64	26.837
512.98	26.563
513.33	27.167
513.67	26.160
514.02	27.031
514.36	26.752
514.70	26.094
515.05	25.965
515.39	25.459
515.74	26.617
516.08	25.990
516.42	26.845
516.77	25.605
517.11	25.632
517.46	25.345
517.80	26.724
518.14	26.551
518.49	24.892
518.83	26.024
519.17	25.363
519.52	25.734
519.86	25.079
520.20	25.027
520.55	25.411
520.89	24.437
521.23	24.958
521.58	24.463
521.92	25.042
522.26	24.399
522.61	24.653
522.95	24.856
523.29	24.770
523.64	24.608
523.98	24.815
524.32	25.330
524.66	25.157
525.01	24.009
525.35	24.124
525.69	23.724
526.04	23.995
526.38	24.253
526.72	24.683
527.06	23.578
527.41	23.382
527.75	24.228
528.09	24.144
528.43	24.393
528.78	22.543
529.12	24.255
529.46	24.845
529.80	23.570
530.15	23.884
530.49	24.081
530.83	23.377
531.17	23.775
531.51	22.984
531.86	23.197
532.20	24.207
532.54	23.160
532.88	23.212
533.22	23.159
533.57	23.139
533.91	23.288
534.25	22.951
534.59	22.931
534.93	22.298
535.27	22.761
535.62	23.138
535.96	23.417
536.30	22.385
536.64	23.003
536.98	23.001
537.32	22.222
537.66	22.021
538.01	21.027
538.35	22.473
538.69	21.695
539.03	23.115
539.37	22.144
539.71	23.303
540.05	22.662
540.39	21.822
540.73	22.040
541.07	21.582
541.42	21.914
541.76	21.056
542.10	20.808
542.44	21.194
542.78	21.594
543.12	21.216
543.46	21.001
543.80	20.324
544.14	21.544
544.48	22.104
544.82	21.185
545.16	21.586
545.50	21.390
545.84	20.882
546.18	21.790
546.52	20.255
546.86	20.692
547.20	21.120
547.54	20.537
547.88	20.796
548.22	20.877
548.56	20.421
548.90	20.418
549.24	20.851
549.58	19.937
549.92	20.089
550.26	20.065
550.60	19.847
550.94	20.828
551.28	19.472
551.62	19.677
551.96	19.482
552.30	20.140
552.64	20.100
552.98	20.399
553.32	20.000
553.66	20.129
554.00	19.798
554.34	20.914
554.68	18.528
555.02	19.317
555.36	20.644
555.69	19.347
556.03	20.366
556.37	19.462
556.71	20.482
557.05	19.489
557.39	19.774
557.73	19.221
558.07	19.470
558.41	19.535
558.75	19.337
559.08	19.346
559.42	18.999
559.76	19.132
560.10	19.491
560.44	19.393
560.78	19.313
561.12	18.966
561.45	19.404
561.79	19.109
562.13	19.778
562.47	17.694
562.81	19.810
563.15	19.508
563.48	19.018
563.82	19.528
564.16	18.776
564.50	18.713
564.84	19.646
565.17	19.824
565.51	18.642
565.85	18.409
566.19	18.030
566.52	18.666
566.86	18.336
567.20	18.869
567.54	18.534
567.88	19.113
568.21	17.737
568.55	18.705
568.89	18.702
569.23	19.561
569.56	18.796
569.90	18.888
570.24	19.022
570.57	18.377
570.91	18.677
571.25	18.021
571.59	18.787
571.92	18.737
572.26	18.793
572.60	18.509
572.93	18.091
573.27	18.123
573.61	18.211
573.95	18.524
574.28	18.220
574.62	18.213
574.96	18.019
575.29	18.000
575.63	17.833
575.97	17.749
576.30	17.691
576.64	17.538
576.98	17.927
577.31	18.222
577.65	18.242
577.98	17.997
578.32	18.073
578.66	17.810
578.99	17.080
579.33	17.363
579.67	16.727
580.00	17.555
580.34	17.561
580.67	17.410
581.01	17.611
581.35	17.319
581.68	17.906
582.02	18.241
582.35	18.053
582.69	17.722
583.02	17.268
583.36	17.314
583.70	17.019
584.03	16.823
584.37	17.082
584.70	16.870
585.04	16.833
585.37	17.388
585.71	17.044
586.04	17.305
586.38	17.084
586.72	17.272
587.05	16.424
587.39	17.103
587.72	17.344
588.06	17.408
588.39	16.779
588.73	16.825
589.06	16.789
589.40	16.349
589.73	16.710
590.07	16.910
590.40	16.633
590.73	17.109
591.07	17.349
591.40	16.563
591.74	16.852
592.07	17.012
592.41	16.167
592.74	16.826
593.08	17.229
593.41	17.935
593.75	16.695
594.08	16.904
594.41	17.276
594.75	16.207
595.08	16.454
595.42	16.688
595.75	16.984
596.09	16.943
596.42	16.302
596.75	16.557
597.09	16.727
597.42	16.369
597.75	15.798
598.09	16.270
598.42	16.405
598.76	15.514
599.09	16.162
599.42	16.393
599.76	16.144
600.09	16.383
600.42	15.782
600.76	15.885
601.09	16.462
601.42	16.100
601.76	16.172
602.09	16.083
602.42	15.522
602.76	15.793
603.09	16.226
603.42	16.871
603.76	15.891
604.09	16.749
604.42	16.000
604.76	16.020
605.09	15.995
605.42	16.308
605.75	16.038
606.09	15.491
606.42	15.213
606.75	15.367
607.09	15.591
607.42	16.262
607.75	15.670
608.08	15.943
608.42	15.558
608.75	15.796
609.08	15.705
609.41	15.659
609.75	15.491
610.08	15.699
610.41	14.996
610.74	15.882
611.07	15.142
611.41	16.054
611.74	16.074
612.07	15.849
612.40	15.447
612.73	15.648
613.07	15.110
613.40	15.111
613.73	15.551
614.06	15.800
614.39	15.695
614.72	15.090
615.06	15.496
615.39	14.983
615.72	15.355
616.05	15.979
616.38	15.943
616.71	15.987
617.05	14.963
617.38	15.249
617.71	15.173
618.04	15.596
618.37	15.574
618.70	15.328
619.03	15.532
619.36	14.797
619.69	15.247
620.03	15.317
620.36	14.908
620.69	14.867
621.02	15.223
621.35	15.022
621.68	15.184
622.01	14.591
622.34	14.714
622.67	15.120
623.00	13.360
623.33	15.528
623.66	15.759
623.99	13.891
624.32	15.530
624.65	14.672
624.99	14.954
625.32	15.349
625.65	15.509
625.98	14.237
626.31	14.529
626.64	15.678
626.97	14.179
627.30	13.819
627.63	14.104
627.96	15.766
628.29	14.475
628.62	15.281
628.95	14.023
629.28	14.868
629.61	15.320
629.94	14.226
630.26	14.322
630.59	14.508
630.92	14.545
631.25	14.490
631.58	13.559
631.91	13.871
632.24	15.274
632.57	13.852
632.90	14.343
633.23	15.612
633.56	14.388
633.89	12.913
634.22	14.761
