SpectraSuite Data File
++++++++++++++++++++++++++++++++++++
Date: Thu May 14 16:38:07 PDT 2015
User: schluterlab
Dark Spectrum Present: Yes
Reference Spectrum Present: Yes
Number of Sampled Component Spectra: 1
Spectrometers: USB2E3373
Integration Time (usec): 3000 (USB2E3373)
Spectra Averaged: 3 (USB2E3373)
Boxcar Smoothing: 0 (USB2E3373)
Correct for Electrical Dark: No (USB2E3373)
Strobe/Lamp Enabled: No (USB2E3373)
Correct for Detector Non-linearity: No (USB2E3373)
Correct for Stray Light: No (USB2E3373)
Number of Pixels in Processed Spectrum: 2048
>>>>>Begin Processed Spectral Data<<<<<
178.53	0.000
178.91	57.143
179.29	-400.000
179.67	-500.000
180.04	192.857
180.42	-20.000
180.80	40.000
181.18	-300.000
181.56	1200.000
181.94	50.000
182.31	100.000
182.69	200.000
183.07	0.000
183.45	275.000
183.83	-83.333
184.20	-233.333
184.58	1200.000
184.96	-200.000
185.34	-22.222
185.72	60.000
186.09	100.000
186.47	550.000
186.85	300.000
187.23	-66.667
187.61	-800.000
187.98	80.000
188.36	225.000
188.74	-100.000
189.12	0.000
189.49	18.750
189.87	-112.500
190.25	-33.333
190.63	-60.000
191.00	-55.556
191.38	0.000
191.76	-250.000
192.14	-33.333
192.51	100.000
192.89	150.000
193.27	0.000
193.65	-42.857
194.02	-700.000
194.40	-100.000
194.78	228.571
195.15	0.000
195.53	27.273
195.91	0.000
196.29	0.000
196.66	-15.385
197.04	-600.000
197.42	14.286
197.79	250.000
198.17	-87.500
198.55	71.429
198.92	-33.333
199.30	-137.500
199.68	-45.455
200.05	21.429
200.43	-150.000
200.81	57.143
201.18	0.000
201.56	177.778
201.94	0.000
202.31	333.333
202.69	-55.556
203.07	300.000
203.44	55.556
203.82	-175.000
204.19	0.000
204.57	-133.333
204.95	37.500
205.32	-100.000
205.70	100.000
206.08	50.000
206.45	-66.667
206.83	300.000
207.20	16.667
207.58	-120.000
207.96	-33.333
208.33	-50.000
208.71	75.000
209.08	83.333
209.46	0.000
209.84	166.667
210.21	100.000
210.59	100.000
210.96	433.333
211.34	200.000
211.71	150.000
212.09	-1100.000
212.46	0.000
212.84	400.000
213.22	-100.000
213.59	-150.000
213.97	40.000
214.34	-133.333
214.72	200.000
215.09	-50.000
215.47	0.000
215.84	28.571
216.22	650.000
216.59	100.000
216.97	-80.000
217.34	-225.000
217.72	87.500
218.09	-325.000
218.47	-150.000
218.84	0.000
219.22	-0.000
219.59	-29.412
219.97	5.000
220.34	500.000
220.72	-88.889
221.09	30.769
221.47	-400.000
221.84	-20.000
222.22	71.429
222.59	0.000
222.97	-50.000
223.34	-160.000
223.72	-200.000
224.09	50.000
224.46	-200.000
224.84	140.000
225.21	-14.286
225.59	-275.000
225.96	-50.000
226.34	-23.077
226.71	116.667
227.08	-150.000
227.46	0.000
227.83	-400.000
228.21	10.526
228.58	112.500
228.95	800.000
229.33	-16.667
229.70	0.000
230.08	10.526
230.45	100.000
230.82	-100.000
231.20	14.286
231.57	-25.000
231.95	-9.091
232.32	109.091
232.69	-5.000
233.07	150.000
233.44	-35.294
233.81	-110.000
234.19	38.889
234.56	50.000
234.93	31.034
235.31	-36.842
235.68	-27.778
236.05	-5.000
236.43	42.308
236.80	20.000
237.17	29.630
237.55	30.303
237.92	-110.000
238.29	-12.903
238.67	4.545
239.04	13.889
239.41	9.524
239.79	19.565
240.16	-3.704
240.53	-8.696
240.91	-15.686
241.28	19.672
241.65	20.896
242.02	17.568
242.40	-4.615
242.77	9.333
243.14	7.317
243.51	-6.579
243.89	-5.128
244.26	16.832
244.63	10.784
245.00	11.215
245.38	4.386
245.75	-5.310
246.12	9.524
246.49	3.876
246.87	7.857
247.24	6.623
247.61	12.500
247.98	4.698
248.36	13.580
248.73	4.294
249.10	8.743
249.47	11.940
249.84	10.471
250.22	12.953
250.59	10.000
250.96	13.182
251.33	5.612
251.70	11.111
252.08	12.917
252.45	11.885
252.82	7.025
253.19	13.281
253.56	11.787
253.94	7.692
254.31	11.364
254.68	13.986
255.05	12.704
255.42	10.544
255.79	13.269
256.16	8.278
256.54	11.258
256.91	12.131
257.28	8.852
257.65	9.236
258.02	8.555
258.39	10.541
258.76	11.621
259.14	13.218
259.51	10.086
259.88	9.348
260.25	11.944
260.62	10.137
260.99	11.475
261.36	16.622
261.73	10.080
262.10	7.967
262.47	10.188
262.85	11.869
263.22	8.312
263.59	6.842
263.96	12.020
264.33	9.463
264.70	10.864
265.07	10.979
265.44	13.832
265.81	11.111
266.18	13.152
266.55	10.491
266.92	11.162
267.29	12.691
267.66	13.082
268.03	10.917
268.40	11.900
268.77	9.112
269.14	9.031
269.51	11.623
269.88	12.705
270.25	12.274
270.62	11.814
270.99	12.323
271.36	11.485
271.73	11.198
272.10	14.830
272.47	12.826
272.84	12.249
273.21	10.421
273.58	13.105
273.95	9.615
274.32	11.027
274.69	11.025
275.06	10.440
275.43	7.763
275.80	12.698
276.17	9.444
276.54	11.194
276.91	12.165
277.28	10.669
277.65	10.413
278.02	12.316
278.39	10.326
278.76	12.654
279.13	10.284
279.50	12.027
279.87	14.490
280.23	7.746
280.60	12.034
280.97	10.691
281.34	9.677
281.71	12.690
282.08	10.963
282.45	10.147
282.82	9.262
283.19	10.824
283.56	9.672
283.92	10.511
284.29	13.744
284.66	12.972
285.03	10.256
285.40	10.665
285.77	10.217
286.14	12.061
286.51	9.589
286.87	11.532
287.24	10.241
287.61	10.613
287.98	9.063
288.35	9.763
288.72	10.355
289.08	11.567
289.45	8.728
289.82	11.295
290.19	10.632
290.56	11.408
290.93	9.558
291.29	10.468
291.66	9.642
292.03	8.820
292.40	11.973
292.77	10.647
293.13	10.149
293.50	8.936
293.87	9.262
294.24	11.067
294.60	10.493
294.97	7.651
295.34	9.987
295.71	9.584
296.08	8.786
296.44	9.191
296.81	9.257
297.18	8.344
297.55	10.377
297.91	8.185
298.28	9.123
298.65	9.869
299.02	8.028
299.38	9.840
299.75	9.463
300.12	8.333
300.48	8.871
300.85	9.224
301.22	8.277
301.59	8.904
301.95	10.169
302.32	10.444
302.69	9.967
303.05	8.814
303.42	9.313
303.79	8.958
304.15	8.517
304.52	9.725
304.89	10.262
305.25	10.870
305.62	9.404
305.99	9.794
306.35	9.677
306.72	9.411
307.09	9.746
307.45	9.627
307.82	10.192
308.19	9.183
308.55	10.993
308.92	10.224
309.29	10.536
309.65	10.136
310.02	10.990
310.38	12.008
310.75	11.359
311.12	11.889
311.48	10.948
311.85	12.821
312.22	12.334
312.58	11.362
312.95	12.428
313.31	13.550
313.68	11.905
314.05	14.363
314.41	14.754
314.78	13.442
315.14	13.793
315.51	14.866
315.87	14.941
316.24	15.068
316.61	17.318
316.97	14.570
317.34	16.755
317.70	15.983
318.07	17.284
318.43	18.197
318.80	18.813
319.16	17.854
319.53	18.509
319.89	20.070
320.26	20.374
320.62	18.706
320.99	20.314
321.35	22.089
321.72	22.698
322.08	22.182
322.45	23.216
322.81	23.285
323.18	24.159
323.54	24.741
323.91	26.690
324.27	26.248
324.64	28.128
325.00	27.363
325.37	29.648
325.73	30.909
326.10	30.089
326.46	31.922
326.83	33.467
327.19	32.992
327.56	34.545
327.92	33.910
328.29	34.274
328.65	34.841
329.01	35.448
329.38	36.310
329.74	37.072
330.11	37.842
330.47	37.658
330.84	37.209
331.20	39.333
331.56	39.775
331.93	39.414
332.29	39.831
332.66	38.953
333.02	39.196
333.38	40.520
333.75	40.909
334.11	40.534
334.48	40.347
334.84	41.291
335.20	40.722
335.57	41.400
335.93	41.074
336.29	40.433
336.66	42.304
337.02	41.722
337.38	42.772
337.75	41.736
338.11	42.136
338.47	42.101
338.84	41.878
339.20	42.628
339.56	41.516
339.93	41.708
340.29	41.465
340.65	41.281
341.02	42.857
341.38	42.199
341.74	41.727
342.11	42.639
342.47	40.111
342.83	43.559
343.20	42.600
343.56	41.219
343.92	42.354
344.28	42.812
344.65	42.868
345.01	43.526
345.37	42.457
345.73	40.140
346.10	43.526
346.46	43.275
346.82	42.022
347.19	43.086
347.55	41.882
347.91	42.793
348.27	42.033
348.63	42.650
349.00	42.431
349.36	42.602
349.72	41.667
350.08	43.685
350.45	44.487
350.81	43.967
351.17	43.233
351.53	43.973
351.89	43.888
352.26	42.836
352.62	43.284
352.98	42.443
353.34	42.046
353.70	43.837
354.07	42.399
354.43	44.115
354.79	42.782
355.15	42.458
355.51	42.836
355.87	43.680
356.24	44.715
356.60	43.163
356.96	44.329
357.32	43.941
357.68	43.851
358.04	43.263
358.40	45.000
358.77	43.421
359.13	44.830
359.49	43.494
359.85	44.162
360.21	44.333
360.57	44.365
360.93	43.865
361.29	45.123
361.66	44.605
362.02	45.442
362.38	44.132
362.74	45.112
363.10	44.773
363.46	46.053
363.82	45.384
364.18	46.235
364.54	45.090
364.90	44.281
365.26	45.310
365.62	45.467
365.98	45.813
366.35	44.564
366.71	45.850
367.07	45.602
367.43	44.780
367.79	45.720
368.15	47.023
368.51	46.008
368.87	45.460
369.23	44.867
369.59	46.448
369.95	44.963
370.31	46.725
370.67	46.768
371.03	45.291
371.39	45.332
371.75	48.006
372.11	46.341
372.47	45.091
372.83	46.597
373.19	46.097
373.55	45.935
373.91	45.876
374.27	46.831
374.63	47.361
374.99	46.286
375.35	47.662
375.71	48.065
376.07	45.320
376.42	47.418
376.78	46.116
377.14	47.037
377.50	48.450
377.86	47.291
378.22	48.263
378.58	48.276
378.94	48.005
379.30	47.335
379.66	47.619
380.02	47.432
380.38	48.502
380.74	47.944
381.09	48.258
381.45	48.523
381.81	49.415
382.17	48.456
382.53	47.836
382.89	48.307
383.25	50.528
383.61	48.380
383.97	49.234
384.32	49.940
384.68	48.376
385.04	49.451
385.40	49.558
385.76	50.176
386.12	49.192
386.48	49.235
386.83	49.762
387.19	51.506
387.55	49.589
387.91	49.715
388.27	49.538
388.62	49.828
388.98	49.182
389.34	50.029
389.70	50.901
390.06	49.378
390.42	50.663
390.77	50.151
391.13	49.941
391.49	49.819
391.85	49.697
392.20	49.822
392.56	50.620
392.92	48.964
393.28	49.475
393.64	50.391
393.99	51.249
394.35	51.402
394.71	50.419
395.07	50.479
395.42	49.686
395.78	51.066
396.14	50.921
396.50	50.713
396.85	50.805
397.21	51.006
397.57	51.178
397.92	51.661
398.28	50.516
398.64	50.686
399.00	50.681
399.35	50.681
399.71	50.109
400.07	51.600
400.42	52.561
400.78	52.199
401.14	50.484
401.49	51.734
401.85	51.512
402.21	51.506
402.57	52.347
402.92	51.064
403.28	50.878
403.63	51.313
403.99	51.069
404.35	51.222
404.70	51.275
405.06	50.652
405.42	51.288
405.77	52.399
406.13	51.864
406.49	51.914
406.84	51.579
407.20	51.984
407.55	52.756
407.91	51.917
408.27	52.061
408.62	51.832
408.98	52.176
409.34	52.610
409.69	52.225
410.05	51.817
410.40	52.494
410.76	51.598
411.11	52.835
411.47	50.737
411.83	52.792
412.18	52.651
412.54	52.282
412.89	51.630
413.25	52.314
413.60	51.809
413.96	51.632
414.31	52.011
414.67	51.580
415.03	52.062
415.38	53.342
415.74	52.291
416.09	52.622
416.45	51.221
416.80	52.448
417.16	53.512
417.51	51.308
417.87	50.766
418.22	52.455
418.58	52.912
418.93	53.725
419.29	53.391
419.64	52.341
420.00	52.997
420.35	51.769
420.71	52.211
421.06	52.904
421.42	53.326
421.77	52.019
422.12	51.586
422.48	52.227
422.83	53.395
423.19	52.626
423.54	53.982
423.90	52.789
424.25	52.853
424.61	51.780
424.96	53.048
425.31	53.344
425.67	52.389
426.02	53.459
426.38	53.042
426.73	52.958
427.09	52.826
427.44	51.993
427.79	53.566
428.15	52.169
428.50	52.753
428.85	52.526
429.21	53.723
429.56	53.899
429.92	52.776
430.27	53.349
430.62	53.395
430.98	53.271
431.33	52.590
431.68	52.299
432.04	53.479
432.39	53.133
432.74	52.911
433.10	54.570
433.45	52.899
433.80	53.916
434.16	53.564
434.51	55.139
434.86	54.126
435.22	54.942
435.57	54.186
435.92	53.367
436.28	54.664
436.63	56.144
436.98	53.623
437.34	54.228
437.69	54.430
438.04	54.045
438.39	53.647
438.75	54.566
439.10	53.911
439.45	53.829
439.81	53.616
440.16	53.887
440.51	53.010
440.86	54.753
441.22	54.180
441.57	53.669
441.92	53.104
442.27	54.495
442.63	53.949
442.98	54.589
443.33	53.866
443.68	54.955
444.03	54.374
444.39	53.491
444.74	54.364
445.09	54.334
445.44	55.269
445.79	53.400
446.15	55.036
446.50	54.160
446.85	54.815
447.20	53.675
447.55	53.818
447.91	53.665
448.26	55.127
448.61	54.038
448.96	54.936
449.31	54.295
449.66	53.758
450.02	54.800
450.37	55.088
450.72	53.606
451.07	52.733
451.42	54.073
451.77	54.086
452.12	55.530
452.47	53.298
452.83	54.673
453.18	54.641
453.53	54.739
453.88	54.445
454.23	55.311
454.58	54.266
454.93	54.976
455.28	54.907
455.63	54.406
455.98	55.196
456.34	54.711
456.69	56.320
457.04	54.492
457.39	54.767
457.74	53.579
458.09	53.158
458.44	54.256
458.79	53.687
459.14	53.907
459.49	54.782
459.84	53.882
460.19	53.803
460.54	54.231
460.89	54.844
461.24	53.678
461.59	54.178
461.94	53.622
462.29	54.759
462.64	54.013
462.99	56.309
463.34	55.289
463.69	53.107
464.04	55.197
464.39	54.540
464.74	54.162
465.09	54.383
465.44	54.560
465.79	54.469
466.14	53.726
466.49	54.526
466.84	54.876
467.19	53.006
467.54	52.879
467.89	54.540
468.24	53.130
468.59	53.387
468.94	53.846
469.29	53.749
469.64	53.528
469.99	54.876
470.34	54.270
470.68	55.297
471.03	55.730
471.38	54.284
471.73	54.421
472.08	55.520
472.43	54.846
472.78	54.219
473.13	56.195
473.48	54.199
473.83	55.543
474.17	54.396
474.52	55.021
474.87	54.596
475.22	55.944
475.57	53.634
475.92	54.953
476.27	52.982
476.61	52.804
476.96	53.806
477.31	53.861
477.66	54.879
478.01	53.838
478.36	54.487
478.70	53.498
479.05	54.755
479.40	53.751
479.75	55.091
480.10	54.334
480.45	53.646
480.79	54.422
481.14	53.355
481.49	53.703
481.84	53.046
482.19	54.108
482.53	54.394
482.88	54.807
483.23	54.380
483.58	52.489
483.92	53.236
484.27	54.276
484.62	53.259
484.97	52.722
485.31	51.954
485.66	49.014
486.01	48.218
486.36	49.457
486.70	50.915
487.05	52.139
487.40	51.474
487.75	51.552
488.09	51.367
488.44	51.017
488.79	52.040
489.13	51.593
489.48	52.194
489.83	51.952
490.17	52.045
490.52	52.709
490.87	52.284
491.22	53.380
491.56	52.901
491.91	52.290
492.26	53.051
492.60	52.558
492.95	53.313
493.30	53.026
493.64	53.176
493.99	52.807
494.34	52.134
494.68	52.548
495.03	53.128
495.37	52.730
495.72	52.426
496.07	51.402
496.41	51.695
496.76	52.544
497.11	53.079
497.45	53.086
497.80	52.688
498.14	51.701
498.49	51.884
498.84	52.148
499.18	52.452
499.53	53.229
499.87	52.527
500.22	51.825
500.56	51.912
500.91	52.586
501.26	52.136
501.60	52.011
501.95	53.061
502.29	52.128
502.64	51.815
502.98	51.769
503.33	52.138
503.67	51.156
504.02	51.751
504.36	53.128
504.71	53.514
505.06	51.660
505.40	52.514
505.75	52.368
506.09	51.888
506.44	52.182
506.78	52.294
507.13	52.789
507.47	52.297
507.82	51.894
508.16	52.581
508.51	51.992
508.85	53.472
509.19	52.724
509.54	53.458
509.88	52.987
510.23	53.035
510.57	53.697
510.92	52.540
511.26	51.323
511.61	51.907
511.95	53.538
512.30	53.373
512.64	52.124
512.98	53.577
513.33	53.377
513.67	53.238
514.02	52.938
514.36	52.481
514.70	54.375
515.05	52.972
515.39	52.966
515.74	54.719
516.08	53.302
516.42	54.631
516.77	53.733
517.11	52.708
517.46	54.136
517.80	55.478
518.14	54.407
518.49	54.610
518.83	53.592
519.17	54.012
519.52	53.564
519.86	52.746
520.20	53.834
520.55	54.162
520.89	53.773
521.23	54.104
521.58	54.972
521.92	54.674
522.26	54.525
522.61	54.630
522.95	54.325
523.29	54.943
523.64	54.652
523.98	55.106
524.32	55.530
524.66	53.842
525.01	53.398
525.35	52.326
525.69	54.002
526.04	54.191
526.38	55.115
526.72	53.749
527.06	56.422
527.41	54.927
527.75	55.048
528.09	54.191
528.43	53.937
528.78	53.121
529.12	52.982
529.46	52.839
529.80	54.348
530.15	52.754
530.49	52.728
530.83	53.778
531.17	53.345
531.51	54.452
531.86	54.327
532.20	55.366
532.54	53.441
532.88	53.273
533.22	52.504
533.57	52.856
533.91	51.852
534.25	51.781
534.59	53.391
534.93	52.518
535.27	52.000
535.62	52.700
535.96	52.818
536.30	52.761
536.64	52.913
536.98	53.321
537.32	52.469
537.66	52.215
538.01	51.662
538.35	52.010
538.69	50.541
539.03	53.096
539.37	50.118
539.71	52.012
540.05	52.158
540.39	51.528
540.73	51.245
541.07	52.912
541.42	50.916
541.76	51.127
542.10	52.413
542.44	50.305
542.78	51.156
543.12	51.013
543.46	51.282
543.80	50.300
544.14	50.569
544.48	52.069
544.82	51.466
545.16	51.938
545.50	50.150
545.84	50.398
546.18	52.593
546.52	51.465
546.86	51.006
547.20	50.064
547.54	51.061
547.88	49.970
548.22	48.947
548.56	49.971
548.90	50.269
549.24	50.213
549.58	50.032
549.92	50.574
550.26	51.715
550.60	50.415
550.94	49.094
551.28	50.033
551.62	51.752
551.96	49.579
552.30	50.159
552.64	49.533
552.98	50.468
553.32	52.090
553.66	50.547
554.00	49.622
554.34	50.129
554.68	48.547
555.02	50.329
555.36	49.770
555.69	49.007
556.03	47.793
556.37	50.876
556.71	50.095
557.05	49.457
557.39	50.033
557.73	48.547
558.07	48.874
558.41	49.701
558.75	49.290
559.08	50.731
559.42	49.931
559.76	49.050
560.10	48.895
560.44	48.747
560.78	49.312
561.12	47.906
561.45	48.175
561.79	47.985
562.13	48.367
562.47	47.904
562.81	48.734
563.15	46.907
563.48	47.296
563.82	48.065
564.16	47.547
564.50	46.246
564.84	47.316
565.17	47.529
565.51	46.087
565.85	47.090
566.19	46.832
566.52	45.933
566.86	47.142
567.20	45.242
567.54	46.415
567.88	45.464
568.21	45.998
568.55	45.899
568.89	44.167
569.23	44.656
569.56	44.314
569.90	43.407
570.24	42.698
570.57	42.463
570.91	41.304
571.25	41.279
571.59	41.553
571.92	40.752
572.26	40.868
572.60	40.868
572.93	41.219
573.27	40.714
573.61	40.683
573.95	40.325
574.28	40.294
574.62	39.768
574.96	39.281
575.29	38.951
575.63	39.963
575.97	40.120
576.30	39.057
576.64	39.728
576.98	39.134
577.31	39.860
577.65	39.723
577.98	38.818
578.32	38.353
578.66	38.598
578.99	39.177
579.33	39.173
579.67	38.645
580.00	38.863
580.34	38.591
580.67	38.504
581.01	38.793
581.35	37.736
581.68	38.101
582.02	37.655
582.35	38.376
582.69	38.214
583.02	37.694
583.36	38.386
583.70	38.673
584.03	38.229
584.37	38.336
584.70	37.995
585.04	37.549
585.37	37.605
585.71	37.195
586.04	37.979
586.38	37.604
586.72	37.879
587.05	38.654
587.39	38.245
587.72	37.751
588.06	37.669
588.39	38.536
588.73	37.989
589.06	38.064
589.40	38.384
589.73	38.914
590.07	39.224
590.40	38.404
590.73	39.272
591.07	40.469
591.40	39.697
591.74	39.507
592.07	39.748
592.41	39.432
592.74	38.623
593.08	37.803
593.41	37.620
593.75	37.126
594.08	37.655
594.41	38.077
594.75	38.426
595.08	38.156
595.42	38.766
595.75	38.005
596.09	38.224
596.42	38.588
596.75	38.827
597.09	38.869
597.42	38.419
597.75	37.554
598.09	37.857
598.42	38.762
598.76	37.486
599.09	37.273
599.42	37.177
599.76	36.481
600.09	37.104
600.42	36.703
600.76	37.814
601.09	36.708
601.42	36.766
601.76	37.310
602.09	37.134
602.42	36.823
602.76	36.679
603.09	37.555
603.42	37.825
603.76	36.892
604.09	37.899
604.42	37.358
604.76	37.215
605.09	37.575
605.42	37.400
605.75	36.385
606.09	36.730
606.42	36.447
606.75	36.807
607.09	36.828
607.42	36.185
607.75	37.046
608.08	37.017
608.42	36.074
608.75	36.609
609.08	36.885
609.41	37.362
609.75	37.634
610.08	38.083
610.41	37.171
610.74	36.891
611.07	37.211
611.41	36.861
611.74	38.291
612.07	37.728
612.40	37.262
612.73	38.093
613.07	37.262
613.40	37.151
613.73	36.928
614.06	36.703
614.39	36.783
614.72	36.245
615.06	35.948
615.39	37.071
615.72	36.114
616.05	36.911
616.38	37.033
616.71	37.043
617.05	36.848
617.38	36.597
617.71	38.067
618.04	37.183
618.37	37.760
618.70	37.896
619.03	37.694
619.36	37.300
619.69	38.181
620.03	38.795
620.36	36.871
620.69	38.433
621.02	38.911
621.35	39.985
621.68	38.973
622.01	39.217
622.34	38.354
622.67	38.900
623.00	36.235
623.33	37.558
623.66	38.003
623.99	37.459
624.32	37.947
624.65	38.353
624.99	37.061
625.32	38.929
625.65	39.447
625.98	38.102
626.31	38.838
626.64	39.707
626.97	37.959
627.30	38.952
627.63	39.010
627.96	38.063
628.29	38.366
628.62	39.631
628.95	41.630
629.28	38.912
629.61	39.478
629.94	38.828
630.26	38.644
630.59	39.724
630.92	38.874
631.25	41.234
631.58	41.055
631.91	40.300
632.24	40.826
632.57	41.082
632.90	41.224
633.23	40.102
633.56	40.102
633.89	40.083
634.22	41.892
634.55	41.023
634.88	40.260
635.20	40.904
