SpectraSuite Data File
++++++++++++++++++++++++++++++++++++
Date: Thu May 14 16:34:15 PDT 2015
User: schluterlab
Dark Spectrum Present: Yes
Reference Spectrum Present: Yes
Number of Sampled Component Spectra: 1
Spectrometers: USB2E3373
Integration Time (usec): 3000 (USB2E3373)
Spectra Averaged: 3 (USB2E3373)
Boxcar Smoothing: 0 (USB2E3373)
Correct for Electrical Dark: No (USB2E3373)
Strobe/Lamp Enabled: No (USB2E3373)
Correct for Detector Non-linearity: No (USB2E3373)
Correct for Stray Light: No (USB2E3373)
Number of Pixels in Processed Spectrum: 2048
>>>>>Begin Processed Spectral Data<<<<<
178.53	0.000
178.91	-0.000
179.29	-1000.000
179.67	200.000
180.04	214.286
180.42	90.000
180.80	80.000
181.18	100.000
181.56	-600.000
181.94	200.000
182.31	-75.000
182.69	300.000
183.07	-100.000
183.45	75.000
183.83	-200.000
184.20	-33.333
184.58	-100.000
184.96	-175.000
185.34	0.000
185.72	120.000
186.09	122.222
186.47	450.000
186.85	400.000
187.23	-88.889
187.61	-900.000
187.98	200.000
188.36	175.000
188.74	-175.000
189.12	-133.333
189.49	50.000
189.87	-100.000
190.25	-22.222
190.63	40.000
191.00	-44.444
191.38	0.000
191.76	-75.000
192.14	100.000
192.51	50.000
192.89	83.333
193.27	0.000
193.65	-171.429
194.02	-900.000
194.40	-14.286
194.78	42.857
195.15	0.000
195.53	36.364
195.91	0.000
196.29	300.000
196.66	-7.692
197.04	-500.000
197.42	42.857
197.79	-450.000
198.17	-87.500
198.55	-71.429
198.92	44.444
199.30	12.500
199.68	18.182
200.05	21.429
200.43	-350.000
200.81	71.429
201.18	0.000
201.56	88.889
201.94	0.000
202.31	466.667
202.69	-155.556
203.07	-100.000
203.44	-77.778
203.82	-250.000
204.19	-16.667
204.57	-116.667
204.95	-75.000
205.32	-200.000
205.70	-100.000
206.08	16.667
206.45	-16.667
206.83	260.000
207.20	-150.000
207.58	-40.000
207.96	-33.333
208.33	100.000
208.71	41.667
209.08	-50.000
209.46	0.000
209.84	150.000
210.21	650.000
210.59	550.000
210.96	533.333
211.34	-50.000
211.71	25.000
212.09	-200.000
212.46	0.000
212.84	800.000
213.22	-120.000
213.59	25.000
213.97	10.000
214.34	33.333
214.72	183.333
215.09	-75.000
215.47	0.000
215.84	42.857
216.22	400.000
216.59	40.000
216.97	-80.000
217.34	50.000
217.72	-12.500
218.09	-50.000
218.47	-100.000
218.84	0.000
219.22	20.000
219.59	11.765
219.97	5.000
220.34	250.000
220.72	-44.444
221.09	61.538
221.47	-100.000
221.84	-30.000
222.22	-100.000
222.59	0.000
222.97	12.500
223.34	-260.000
223.72	-1200.000
224.09	-325.000
224.46	50.000
224.84	160.000
225.21	-71.429
225.59	-225.000
225.96	-325.000
226.34	-11.538
226.71	216.667
227.08	350.000
227.46	0.000
227.83	0.000
228.21	5.263
228.58	75.000
228.95	200.000
229.33	-41.667
229.70	-40.000
230.08	31.579
230.45	90.000
230.82	33.333
231.20	0.000
231.57	25.000
231.95	0.000
232.32	90.909
232.69	20.000
233.07	-50.000
233.44	-35.294
233.81	-80.000
234.19	-11.111
234.56	22.727
234.93	44.828
235.31	5.263
235.68	-16.667
236.05	-25.000
236.43	69.231
236.80	76.000
237.17	-3.704
237.55	9.091
237.92	-110.000
238.29	-3.226
238.67	15.909
239.04	19.444
239.41	0.000
239.79	19.565
240.16	22.222
240.53	19.565
240.91	3.922
241.28	19.672
241.65	22.388
242.02	20.270
242.40	4.615
242.77	9.333
243.14	-3.659
243.51	1.316
243.89	7.692
244.26	20.792
244.63	26.471
245.00	13.084
245.38	17.544
245.75	10.619
246.12	23.016
246.49	9.302
246.87	12.857
247.24	18.543
247.61	21.053
247.98	18.121
248.36	14.815
248.73	10.429
249.10	19.672
249.47	19.900
249.84	25.131
250.22	18.135
250.59	17.222
250.96	20.455
251.33	13.776
251.70	20.085
252.08	18.333
252.45	18.852
252.82	14.463
253.19	12.891
253.56	17.490
253.94	12.308
254.31	14.773
254.68	21.678
255.05	17.915
255.42	16.667
255.79	12.621
256.16	18.543
256.54	15.232
256.91	19.344
257.28	17.049
257.65	16.242
258.02	16.814
258.39	14.530
258.76	20.489
259.14	19.828
259.51	17.867
259.88	17.847
260.25	17.222
260.62	16.164
260.99	18.579
261.36	22.252
261.73	16.711
262.10	18.956
262.47	19.035
262.85	18.434
263.22	16.883
263.59	18.158
263.96	16.368
264.33	14.578
264.70	19.012
265.07	21.718
265.44	18.367
265.81	17.361
266.18	18.367
266.55	18.304
266.92	17.768
267.29	20.350
267.66	17.960
268.03	19.214
268.40	20.042
268.77	18.679
269.14	15.859
269.51	20.175
269.88	18.033
270.25	18.310
270.62	18.565
270.99	18.182
271.36	20.594
271.73	18.664
272.10	20.441
272.47	18.036
272.84	18.675
273.21	17.836
273.58	18.145
273.95	17.692
274.32	18.061
274.69	16.634
275.06	19.963
275.43	16.821
275.80	19.224
276.17	17.963
276.54	17.537
276.91	17.889
277.28	17.360
277.65	17.415
278.02	20.221
278.39	16.123
278.76	15.114
279.13	18.262
279.50	18.385
279.87	17.710
280.23	15.493
280.60	20.000
280.97	19.079
281.34	18.846
281.71	19.459
282.08	18.937
282.45	15.876
282.82	17.425
283.19	16.963
283.56	17.869
283.92	18.619
284.29	18.799
284.66	19.540
285.03	15.705
285.40	17.620
285.77	18.421
286.14	18.321
286.51	17.656
286.87	16.904
287.24	18.675
287.61	16.592
287.98	16.918
288.35	19.083
288.72	18.047
289.08	18.594
289.45	17.160
289.82	15.060
290.19	17.098
290.56	17.887
290.93	15.264
291.29	15.840
291.66	14.601
292.03	15.875
292.40	15.646
292.77	14.825
293.13	16.373
293.50	13.535
293.87	13.289
294.24	15.600
294.60	15.803
294.97	12.483
295.34	15.877
295.71	13.745
296.08	14.212
296.44	15.441
296.81	12.667
297.18	14.072
297.55	14.387
297.91	14.709
298.28	13.033
298.65	14.031
299.02	12.987
299.38	14.645
299.75	13.551
300.12	13.657
300.48	13.134
300.85	14.398
301.22	14.318
301.59	12.671
301.95	13.446
302.32	13.222
302.69	14.020
303.05	14.255
303.42	12.971
303.79	14.062
304.15	13.249
304.52	12.368
304.89	12.461
305.25	13.147
305.62	12.226
305.99	12.990
306.35	12.097
306.72	13.444
307.09	12.995
307.45	12.526
307.82	12.412
308.19	13.017
308.55	12.729
308.92	12.853
309.29	13.123
309.65	12.865
310.02	11.386
310.38	12.697
310.75	13.398
311.12	12.943
311.48	13.196
311.85	11.966
312.22	11.480
312.58	13.146
312.95	12.046
313.31	12.647
313.68	13.187
314.05	13.279
314.41	13.115
314.78	11.898
315.14	12.432
315.51	13.019
315.87	12.871
316.24	12.237
316.61	12.522
316.97	11.312
317.34	11.905
317.70	12.838
318.07	11.993
318.43	12.585
318.80	13.462
319.16	12.876
319.53	11.311
319.89	12.270
320.26	12.811
320.62	11.968
320.99	12.004
321.35	12.569
321.72	12.744
322.08	11.271
322.45	11.382
322.81	10.830
323.18	11.593
323.54	12.500
323.91	12.011
324.27	11.274
324.64	11.839
325.00	13.101
325.37	11.630
325.73	12.479
326.10	11.922
326.46	12.541
326.83	13.211
327.19	12.835
327.56	12.411
327.92	11.880
328.29	12.258
328.65	12.228
329.01	10.829
329.38	12.384
329.74	13.099
330.11	12.329
330.47	12.384
330.84	13.437
331.20	13.333
331.56	11.958
331.93	11.715
332.29	12.119
332.66	12.043
333.02	13.317
333.38	11.074
333.75	11.869
334.11	12.761
334.48	13.036
334.84	13.254
335.20	10.579
335.57	12.142
335.93	12.149
336.29	11.398
336.66	11.522
337.02	11.873
337.38	11.820
337.75	11.653
338.11	12.363
338.47	13.151
338.84	11.421
339.20	11.542
339.56	12.850
339.93	12.151
340.29	12.560
340.65	13.058
341.02	11.492
341.38	12.288
341.74	12.026
342.11	11.665
342.47	10.723
342.83	12.319
343.20	12.510
343.56	11.708
343.92	12.410
344.28	11.719
344.65	12.403
345.01	12.168
345.37	12.675
345.73	11.146
346.10	12.637
346.46	10.680
346.82	11.610
347.19	12.223
347.55	12.822
347.91	11.070
348.27	11.533
348.63	12.262
349.00	11.409
349.36	11.970
349.72	11.756
350.08	10.996
350.45	10.418
350.81	11.689
351.17	11.805
351.53	11.676
351.89	11.769
352.26	11.418
352.62	12.015
352.98	10.992
353.34	11.501
353.70	11.402
354.07	11.923
354.43	10.706
354.79	12.191
355.15	11.553
355.51	12.208
355.87	11.444
356.24	11.711
356.60	11.456
356.96	9.859
357.32	11.227
357.68	10.542
358.04	10.554
358.40	10.299
358.77	12.208
359.13	10.857
359.49	10.112
359.85	11.022
360.21	11.693
360.57	11.701
360.93	10.931
361.29	11.368
361.66	11.151
362.02	12.109
362.38	11.033
362.74	11.313
363.10	10.729
363.46	10.873
363.82	10.369
364.18	10.908
364.54	11.895
364.90	11.438
365.26	10.828
365.62	11.933
365.98	11.232
366.35	11.208
366.71	11.565
367.07	10.758
367.43	10.506
367.79	10.949
368.15	11.839
368.51	11.434
368.87	11.365
369.23	11.200
369.59	11.270
369.95	10.886
370.31	12.086
370.67	10.935
371.03	11.496
371.39	10.813
371.75	11.142
372.11	10.908
372.47	11.239
372.83	11.126
373.19	10.740
373.55	10.840
373.91	10.225
374.27	10.737
374.63	9.946
374.99	11.936
375.35	10.325
375.71	11.226
376.07	11.943
376.42	10.453
376.78	11.187
377.14	10.543
377.50	10.183
377.86	10.653
378.22	11.437
378.58	10.523
378.94	10.974
379.30	11.072
379.66	10.935
380.02	10.675
380.38	11.406
380.74	11.268
381.09	10.918
381.45	10.170
381.81	11.007
382.17	11.164
382.53	10.175
382.89	10.948
383.25	11.137
383.61	10.822
383.97	10.954
384.32	10.706
384.68	10.499
385.04	10.295
385.40	10.784
385.76	11.313
386.12	11.370
386.48	11.588
386.83	10.787
387.19	11.066
387.55	10.211
387.91	10.559
388.27	11.374
388.62	10.997
388.98	11.224
389.34	10.548
389.70	10.459
390.06	10.716
390.42	11.145
390.77	11.017
391.13	10.681
391.49	10.326
391.85	10.848
392.20	10.439
392.56	11.459
392.92	11.232
393.28	10.835
393.64	10.279
393.99	11.563
394.35	11.390
394.71	11.497
395.07	10.240
395.42	10.565
395.78	10.238
396.14	11.289
396.50	10.986
396.85	11.032
397.21	10.414
397.57	10.718
397.92	10.596
398.28	10.266
398.64	9.954
399.00	10.576
399.35	11.099
399.71	10.489
400.07	10.893
400.42	10.186
400.78	10.880
401.14	10.586
401.49	10.745
401.85	10.581
402.21	9.907
402.57	10.857
402.92	9.870
403.28	10.070
403.63	9.964
403.99	10.214
404.35	10.574
404.70	10.935
405.06	10.326
405.42	10.831
405.77	11.941
406.13	10.373
406.49	10.529
406.84	10.582
407.20	10.844
407.55	10.297
407.91	10.245
408.27	11.307
408.62	11.227
408.98	10.563
409.34	10.088
409.69	10.816
410.05	10.903
410.40	11.195
410.76	10.993
411.11	10.520
411.47	11.364
411.83	10.641
412.18	11.867
412.54	10.670
412.89	10.827
413.25	10.722
413.60	10.626
413.96	9.907
414.31	10.595
414.67	10.972
415.03	9.908
415.38	11.286
415.74	10.690
416.09	11.043
416.45	10.582
416.80	10.343
417.16	10.153
417.51	10.959
417.87	10.239
418.22	10.359
418.58	10.595
418.93	10.768
419.29	10.543
419.64	10.324
420.00	10.267
420.35	10.837
420.71	10.569
421.06	10.351
421.42	10.436
421.77	10.124
422.12	10.782
422.48	10.906
422.83	10.734
423.19	9.867
423.54	10.675
423.90	10.657
424.25	10.347
424.61	9.300
424.96	10.269
425.31	10.403
425.67	11.111
426.02	10.459
426.38	10.390
426.73	10.212
427.09	11.130
427.44	9.995
427.79	10.779
428.15	9.989
428.50	10.449
428.85	9.874
429.21	11.489
429.56	10.612
429.92	10.319
430.27	10.651
430.62	10.747
430.98	10.133
431.33	10.068
431.68	10.441
432.04	10.208
432.39	10.016
432.74	10.274
433.10	10.817
433.45	10.424
433.80	10.354
434.16	10.434
434.51	10.586
434.86	10.423
435.22	10.414
435.57	10.731
435.92	10.963
436.28	10.410
436.63	10.541
436.98	9.769
437.34	10.485
437.69	10.237
438.04	10.576
438.39	10.167
438.75	10.570
439.10	11.152
439.45	10.620
439.81	10.226
440.16	11.099
440.51	10.758
440.86	10.728
441.22	10.718
441.57	10.377
441.92	10.621
442.27	10.505
442.63	10.482
442.98	10.299
443.33	10.679
443.68	11.001
444.03	10.724
444.39	10.217
444.74	10.362
445.09	10.948
445.44	10.854
445.79	11.446
446.15	11.048
446.50	10.284
446.85	10.652
447.20	11.122
447.55	11.245
447.91	10.524
448.26	10.307
448.61	11.265
448.96	10.891
449.31	10.286
449.66	9.913
450.02	9.968
450.37	10.815
450.72	10.388
451.07	11.446
451.42	10.341
451.77	10.395
452.12	10.327
452.47	9.745
452.83	10.923
453.18	10.099
453.53	10.511
453.88	10.657
454.23	10.791
454.58	11.550
454.93	10.376
455.28	10.596
455.63	10.688
455.98	10.670
456.34	10.895
456.69	10.994
457.04	10.047
457.39	10.421
457.74	11.242
458.09	10.434
458.44	10.237
458.79	11.037
459.14	9.649
459.49	10.413
459.84	11.228
460.19	9.772
460.54	10.846
460.89	10.693
461.24	10.000
461.59	11.068
461.94	10.439
462.29	10.806
462.64	10.622
462.99	10.358
463.34	10.707
463.69	10.785
464.04	10.895
464.39	10.258
464.74	10.718
465.09	10.208
465.44	10.891
465.79	11.264
466.14	10.787
466.49	11.000
466.84	10.248
467.19	10.983
467.54	9.518
467.89	10.172
468.24	11.080
468.59	9.959
468.94	10.198
469.29	10.198
469.64	10.617
469.99	10.516
470.34	10.396
470.68	11.073
471.03	10.806
471.38	10.399
471.73	10.338
472.08	10.025
472.43	11.198
472.78	11.398
473.13	10.809
473.48	11.118
473.83	11.376
474.17	10.844
474.52	11.185
474.87	11.462
475.22	11.437
475.57	11.059
475.92	10.453
476.27	10.117
476.61	10.644
476.96	10.480
477.31	10.842
477.66	10.860
478.01	11.439
478.36	10.867
478.70	10.542
479.05	10.890
479.40	10.908
479.75	11.960
480.10	11.369
480.45	10.848
480.79	10.975
481.14	10.248
481.49	10.223
481.84	11.314
482.19	10.882
482.53	10.844
482.88	10.678
483.23	10.894
483.58	11.135
483.92	10.594
484.27	11.389
484.62	10.891
484.97	11.198
485.31	10.102
485.66	10.100
486.01	10.379
486.36	10.807
486.70	10.758
487.05	10.777
487.40	10.309
487.75	10.712
488.09	10.679
488.44	10.419
488.79	10.219
489.13	11.224
489.48	10.058
489.83	10.946
490.17	10.652
490.52	11.002
490.87	10.745
491.22	10.745
491.56	10.495
491.91	11.077
492.26	11.251
492.60	10.756
492.95	10.399
493.30	10.623
493.64	10.644
493.99	10.351
494.34	10.758
494.68	10.664
495.03	10.881
495.37	11.185
495.72	10.658
496.07	11.043
496.41	10.639
496.76	10.926
497.11	10.488
497.45	10.358
497.80	11.284
498.14	11.066
498.49	10.662
498.84	11.335
499.18	11.291
499.53	10.673
499.87	11.341
500.22	10.240
500.56	10.841
500.91	11.213
501.26	11.136
501.60	11.003
501.95	10.682
502.29	11.452
502.64	11.325
502.98	10.613
503.33	11.102
503.67	11.252
504.02	10.683
504.36	10.858
504.71	11.208
505.06	11.551
505.40	11.106
505.75	11.840
506.09	11.418
506.44	11.235
506.78	11.514
507.13	11.342
507.47	11.606
507.82	10.985
508.16	11.138
508.51	10.642
508.85	10.912
509.19	11.937
509.54	11.047
509.88	11.122
510.23	11.413
510.57	10.778
510.92	11.418
511.26	10.630
511.61	10.623
511.95	11.371
512.30	11.669
512.64	10.595
512.98	11.306
513.33	11.996
513.67	11.372
514.02	11.650
514.36	11.765
514.70	10.938
515.05	11.887
515.39	11.759
515.74	12.248
516.08	11.727
516.42	11.617
516.77	11.777
517.11	11.140
517.46	11.241
517.80	11.705
518.14	12.133
518.49	11.551
518.83	12.081
519.17	11.416
519.52	12.421
519.86	11.510
520.20	12.354
520.55	11.884
520.89	11.768
521.23	11.949
521.58	12.090
521.92	12.295
522.26	11.111
522.61	12.211
522.95	11.822
523.29	11.954
523.64	12.052
523.98	12.436
524.32	12.206
524.66	11.554
525.01	12.231
525.35	12.005
525.69	12.239
526.04	11.711
526.38	12.011
526.72	12.687
527.06	11.848
527.41	12.595
527.75	12.292
528.09	11.688
528.43	11.368
528.78	12.659
529.12	12.041
529.46	11.804
529.80	11.842
530.15	11.130
530.49	12.040
530.83	11.452
531.17	11.470
531.51	12.756
531.86	12.380
532.20	11.890
532.54	11.490
532.88	11.636
533.22	12.669
533.57	11.945
533.91	12.963
534.25	12.549
534.59	11.667
534.93	11.771
535.27	11.718
535.62	12.507
535.96	12.202
536.30	11.457
536.64	12.372
536.98	12.546
537.32	12.654
537.66	12.289
538.01	11.601
538.35	11.510
538.69	11.839
539.03	12.508
539.37	12.073
539.71	12.012
540.05	12.470
540.39	11.858
540.73	12.629
541.07	12.324
541.42	12.463
541.76	11.210
542.10	12.786
542.44	10.901
542.78	12.530
543.12	11.442
543.46	12.088
543.80	11.631
544.14	12.208
544.48	12.293
544.82	12.807
545.16	12.224
545.50	11.384
545.84	11.880
546.18	12.284
546.52	11.911
546.86	12.075
547.20	12.087
547.54	11.486
547.88	11.392
548.22	11.871
548.56	12.580
548.90	11.224
549.24	12.340
549.58	11.987
549.92	11.862
550.26	12.686
550.60	11.870
550.94	12.549
551.28	11.815
551.62	12.264
551.96	11.197
552.30	12.237
552.64	12.570
552.98	11.978
553.32	11.768
553.66	11.704
554.00	13.556
554.34	12.098
554.68	11.685
555.02	12.418
555.36	12.558
555.69	12.172
556.03	11.665
556.37	12.578
556.71	11.668
557.05	12.013
557.39	12.409
557.73	11.493
558.07	11.788
558.41	12.226
558.75	12.035
559.08	11.830
559.42	12.689
559.76	12.551
560.10	11.119
560.44	11.807
560.78	13.063
561.12	12.192
561.45	12.044
561.79	12.698
562.13	11.830
562.47	11.776
562.81	12.405
563.15	11.932
563.48	11.746
563.82	12.273
564.16	11.629
564.50	11.144
564.84	11.740
565.17	12.176
565.51	11.162
565.85	11.876
566.19	11.463
566.52	11.820
566.86	12.111
567.20	11.582
567.54	11.790
567.88	11.978
568.21	11.561
568.55	11.751
568.89	11.847
569.23	11.703
569.56	11.489
569.90	11.689
570.24	10.894
570.57	11.353
570.91	11.421
571.25	11.513
571.59	11.606
571.92	11.247
572.26	11.011
572.60	11.248
572.93	11.634
573.27	11.155
573.61	11.567
573.95	11.580
574.28	11.539
574.62	11.164
574.96	11.138
575.29	10.928
575.63	10.903
575.97	11.186
576.30	11.103
576.64	10.833
576.98	10.843
577.31	11.279
577.65	11.143
577.98	11.333
578.32	11.031
578.66	10.893
578.99	10.895
579.33	10.783
579.67	10.766
580.00	10.901
580.34	11.104
580.67	10.658
581.01	11.077
581.35	10.949
581.68	11.233
582.02	11.059
582.35	11.411
582.69	11.016
583.02	11.194
583.36	11.275
583.70	10.657
584.03	10.679
584.37	10.936
584.70	10.562
585.04	10.509
585.37	10.959
585.71	10.895
586.04	11.008
586.38	10.840
586.72	10.830
587.05	11.154
587.39	10.845
587.72	11.100
588.06	10.735
588.39	11.302
588.73	10.714
589.06	11.174
589.40	10.418
589.73	11.183
590.07	11.306
590.40	11.663
590.73	10.958
591.07	11.355
591.40	11.003
591.74	10.890
592.07	11.328
592.41	10.765
592.74	11.360
593.08	11.178
593.41	11.549
593.75	11.264
594.08	11.330
594.41	11.282
594.75	11.524
595.08	10.633
595.42	11.136
595.75	11.140
596.09	11.318
596.42	11.358
596.75	11.810
597.09	11.394
597.42	10.807
597.75	11.368
598.09	11.230
598.42	11.982
598.76	10.737
599.09	11.499
599.42	11.029
599.76	11.027
600.09	11.745
600.42	11.378
600.76	11.295
601.09	11.318
601.42	11.500
601.76	11.448
602.09	11.258
602.42	10.832
602.76	11.107
603.09	11.527
603.42	11.163
603.76	11.452
604.09	11.852
604.42	11.266
604.76	11.073
605.09	11.408
605.42	11.483
605.75	11.423
606.09	11.124
606.42	10.872
606.75	10.645
607.09	11.022
607.42	11.561
607.75	10.668
608.08	11.208
608.42	12.213
608.75	11.484
609.08	11.333
609.41	11.381
609.75	10.937
610.08	11.346
610.41	11.342
610.74	11.345
611.07	11.456
611.41	11.570
611.74	11.594
612.07	10.986
612.40	11.074
612.73	11.296
613.07	11.002
613.40	11.790
613.73	10.496
614.06	11.138
614.39	11.710
614.72	11.111
615.06	11.020
615.39	10.875
615.72	11.659
616.05	11.559
616.38	11.604
616.71	11.494
617.05	11.928
617.38	11.717
617.71	11.339
618.04	11.333
618.37	11.749
618.70	11.256
619.03	11.410
619.36	11.036
619.69	11.595
620.03	11.551
620.36	11.472
620.69	11.474
621.02	11.745
621.35	12.264
621.68	11.931
622.01	11.886
622.34	10.460
622.67	11.615
623.00	10.594
623.33	12.541
623.66	11.738
623.99	11.126
624.32	12.671
624.65	10.875
624.99	11.704
625.32	12.280
625.65	12.138
625.98	11.254
626.31	11.198
626.64	12.088
626.97	10.728
627.30	11.314
627.63	11.778
627.96	12.462
628.29	11.829
628.62	11.839
628.95	12.270
629.28	11.895
629.61	12.205
629.94	11.464
630.26	11.610
630.59	10.708
630.92	10.130
631.25	12.343
631.58	11.394
631.91	11.996
632.24	12.104
632.57	11.480
632.90	13.039
633.23	12.653
633.56	11.531
633.89	11.570
634.22	12.682
634.55	12.109
634.88	11.039
