SpectraSuite Data File
++++++++++++++++++++++++++++++++++++
Date: Thu May 14 16:36:11 PDT 2015
User: schluterlab
Dark Spectrum Present: Yes
Reference Spectrum Present: Yes
Number of Sampled Component Spectra: 1
Spectrometers: USB2E3373
Integration Time (usec): 3000 (USB2E3373)
Spectra Averaged: 3 (USB2E3373)
Boxcar Smoothing: 0 (USB2E3373)
Correct for Electrical Dark: No (USB2E3373)
Strobe/Lamp Enabled: No (USB2E3373)
Correct for Detector Non-linearity: No (USB2E3373)
Correct for Stray Light: No (USB2E3373)
Number of Pixels in Processed Spectrum: 2048
>>>>>Begin Processed Spectral Data<<<<<
178.53	0.000
178.91	-57.143
179.29	-900.000
179.67	-800.000
180.04	185.714
180.42	50.000
180.80	300.000
181.18	-900.000
181.56	500.000
181.94	25.000
182.31	-150.000
182.69	533.333
183.07	-200.000
183.45	100.000
183.83	-66.667
184.20	-200.000
184.58	-100.000
184.96	-425.000
185.34	-88.889
185.72	0.000
186.09	166.667
186.47	100.000
186.85	160.000
187.23	-155.556
187.61	-1300.000
187.98	140.000
188.36	400.000
188.74	-125.000
189.12	-200.000
189.49	12.500
189.87	0.000
190.25	33.333
190.63	-40.000
191.00	-177.778
191.38	0.000
191.76	-200.000
192.14	-83.333
192.51	400.000
192.89	50.000
193.27	0.000
193.65	85.714
194.02	-1600.000
194.40	-42.857
194.78	71.429
195.15	0.000
195.53	-27.273
195.91	0.000
196.29	-275.000
196.66	15.385
197.04	-500.000
197.42	-100.000
197.79	-600.000
198.17	-25.000
198.55	-57.143
198.92	100.000
199.30	-200.000
199.68	45.455
200.05	50.000
200.43	-600.000
200.81	71.429
201.18	0.000
201.56	155.556
201.94	0.000
202.31	366.667
202.69	-44.444
203.07	900.000
203.44	55.556
203.82	-150.000
204.19	33.333
204.57	-100.000
204.95	25.000
205.32	-1200.000
205.70	-50.000
206.08	-50.000
206.45	-16.667
206.83	160.000
207.20	-200.000
207.58	-240.000
207.96	-100.000
208.33	0.000
208.71	125.000
209.08	-33.333
209.46	0.000
209.84	166.667
210.21	150.000
210.59	350.000
210.96	100.000
211.34	-50.000
211.71	-75.000
212.09	-100.000
212.46	0.000
212.84	1000.000
213.22	-280.000
213.59	-350.000
213.97	20.000
214.34	-66.667
214.72	66.667
215.09	-275.000
215.47	0.000
215.84	114.286
216.22	400.000
216.59	-60.000
216.97	-80.000
217.34	-325.000
217.72	-62.500
218.09	-25.000
218.47	-250.000
218.84	0.000
219.22	80.000
219.59	35.294
219.97	5.000
220.34	500.000
220.72	-44.444
221.09	-23.077
221.47	-166.667
221.84	-50.000
222.22	-57.143
222.59	0.000
222.97	0.000
223.34	-240.000
223.72	-400.000
224.09	25.000
224.46	-200.000
224.84	80.000
225.21	-142.857
225.59	75.000
225.96	-175.000
226.34	26.923
226.71	383.333
227.08	-50.000
227.46	6.667
227.83	-100.000
228.21	-10.526
228.58	50.000
228.95	550.000
229.33	16.667
229.70	50.000
230.08	52.632
230.45	140.000
230.82	-166.667
231.20	-7.143
231.57	50.000
231.95	-81.818
232.32	-45.455
232.69	-30.000
233.07	-300.000
233.44	-5.882
233.81	60.000
234.19	61.111
234.56	-22.727
234.93	20.690
235.31	-15.789
235.68	0.000
236.05	-25.000
236.43	30.769
236.80	28.000
237.17	0.000
237.55	21.212
237.92	-10.000
238.29	25.806
238.67	13.636
239.04	11.111
239.41	7.143
239.79	13.043
240.16	9.259
240.53	-6.522
240.91	15.686
241.28	3.279
241.65	22.388
242.02	13.514
242.40	15.385
242.77	16.000
243.14	12.195
243.51	6.579
243.89	14.103
244.26	22.772
244.63	20.588
245.00	8.411
245.38	18.421
245.75	7.080
246.12	22.222
246.49	16.279
246.87	10.714
247.24	13.245
247.61	17.105
247.98	17.450
248.36	19.136
248.73	17.178
249.10	21.311
249.47	17.910
249.84	23.037
250.22	15.026
250.59	17.222
250.96	20.455
251.33	11.735
251.70	15.812
252.08	20.417
252.45	19.672
252.82	22.314
253.19	16.406
253.56	15.589
253.94	17.308
254.31	18.182
254.68	18.881
255.05	20.195
255.42	16.327
255.79	14.239
256.16	20.530
256.54	16.556
256.91	19.016
257.28	16.393
257.65	18.153
258.02	16.519
258.39	18.234
258.76	22.018
259.14	19.540
259.51	14.409
259.88	16.714
260.25	16.944
260.62	20.548
260.99	22.131
261.36	18.767
261.73	18.833
262.10	18.956
262.47	17.694
262.85	20.960
263.22	16.623
263.59	15.789
263.96	20.972
264.33	16.624
264.70	20.741
265.07	18.854
265.44	22.222
265.81	16.204
266.18	19.728
266.55	20.759
266.92	18.679
267.29	20.788
267.66	17.960
268.03	19.214
268.40	21.086
268.77	19.362
269.14	14.978
269.51	19.956
269.88	19.877
270.25	18.109
270.62	18.776
270.99	20.404
271.36	19.010
271.73	20.432
272.10	21.844
272.47	18.236
272.84	18.876
273.21	19.840
273.58	21.371
273.95	19.231
274.32	19.202
274.69	17.988
275.06	20.513
275.43	17.745
275.80	18.871
276.17	17.778
276.54	20.522
276.91	18.247
277.28	19.349
277.65	17.953
278.02	21.507
278.39	18.659
278.76	18.453
279.13	18.262
279.50	19.759
279.87	19.857
280.23	14.965
280.60	19.492
280.97	18.586
281.34	15.959
281.71	20.643
282.08	16.777
282.45	19.313
282.82	16.484
283.19	17.447
283.56	18.689
283.92	19.069
284.29	19.747
284.66	16.420
285.03	17.788
285.40	15.765
285.77	17.028
286.14	19.389
286.51	18.113
286.87	18.483
287.24	19.578
287.61	18.834
287.98	15.106
288.35	18.343
288.72	17.160
289.08	16.691
289.45	15.680
289.82	15.813
290.19	16.236
290.56	16.901
290.93	16.976
291.29	15.978
291.66	16.116
292.03	14.247
292.40	16.327
292.77	15.229
293.13	16.509
293.50	16.163
293.87	14.899
294.24	18.133
294.60	14.918
294.97	14.497
295.34	16.005
295.71	14.628
296.08	14.470
296.44	13.603
296.81	14.007
297.18	13.948
297.55	15.448
297.91	13.760
298.28	12.678
298.65	14.863
299.02	14.286
299.38	13.616
299.75	13.201
300.12	14.236
300.48	14.286
300.85	14.286
301.22	14.318
301.59	13.699
301.95	13.446
302.32	14.556
302.69	12.377
303.05	14.146
303.42	12.528
303.79	12.812
304.15	14.301
304.52	13.319
304.89	13.717
305.25	14.389
305.62	14.002
305.99	13.918
306.35	12.702
306.72	14.168
307.09	12.893
307.45	13.458
307.82	13.118
308.19	13.421
308.55	13.693
308.92	12.463
309.29	12.835
309.65	12.573
310.02	13.069
310.38	13.287
310.75	12.524
311.12	13.710
311.48	12.708
311.85	12.726
312.22	12.619
312.58	12.864
312.95	13.098
313.31	12.556
313.68	13.828
314.05	14.092
314.41	12.750
314.78	12.352
315.14	14.338
315.51	12.927
315.87	12.331
316.24	12.968
316.61	13.588
316.97	11.946
317.34	12.434
317.70	12.838
318.07	12.257
318.43	13.435
318.80	13.629
319.16	11.845
319.53	11.054
319.89	11.043
320.26	12.544
320.62	11.968
320.99	14.035
321.35	12.754
321.72	14.419
322.08	12.444
322.45	13.189
322.81	12.365
323.18	13.628
323.54	12.328
323.91	12.633
324.27	12.565
324.64	13.770
325.00	11.774
325.37	12.531
325.73	12.893
326.10	13.220
326.46	13.192
326.83	13.211
327.19	12.520
327.56	13.281
327.92	12.589
328.29	11.452
328.65	12.898
329.01	12.944
329.38	12.553
329.74	14.127
330.11	13.613
330.47	12.384
330.84	12.059
331.20	14.417
331.56	12.825
331.93	13.724
332.29	12.034
332.66	12.375
333.02	12.479
333.38	11.913
333.75	13.047
334.11	12.927
334.48	12.211
334.84	12.914
335.20	11.923
335.57	13.659
335.93	12.645
336.29	11.897
336.66	12.279
337.02	12.876
337.38	13.946
337.75	11.818
338.11	12.952
338.47	12.986
338.84	12.267
339.20	12.131
339.56	12.109
339.93	12.233
340.29	13.446
340.65	12.571
341.02	12.051
341.38	13.905
341.74	11.380
342.11	12.309
342.47	11.914
342.83	13.124
343.20	11.693
343.56	12.029
343.92	12.410
344.28	12.578
344.65	13.178
345.01	11.856
345.37	13.375
345.73	12.159
346.10	12.402
346.46	11.551
346.82	12.285
347.19	11.994
347.55	12.064
347.91	11.664
348.27	11.608
348.63	13.633
349.00	11.633
349.36	11.822
349.72	11.830
350.08	11.887
350.45	11.635
350.81	11.840
351.17	11.053
351.53	11.600
351.89	12.756
352.26	11.642
352.62	11.045
352.98	11.985
353.34	12.920
353.70	12.018
354.07	11.550
354.43	11.617
354.79	11.444
355.15	11.185
355.51	11.696
355.87	11.444
356.24	12.395
356.60	11.899
356.96	12.380
357.32	11.004
357.68	11.493
358.04	11.527
358.40	10.672
358.77	11.404
359.13	10.783
359.49	9.814
359.85	10.877
360.21	11.980
360.57	11.055
360.93	10.578
361.29	11.298
361.66	11.224
362.02	12.178
362.38	11.665
362.74	11.243
363.10	12.517
363.46	11.496
363.82	10.653
364.18	11.189
364.54	11.480
364.90	11.037
365.26	11.379
365.62	11.200
365.98	11.368
366.35	11.141
366.71	12.177
367.07	11.367
367.43	11.293
367.79	11.214
368.15	11.973
368.51	11.434
368.87	11.039
369.23	11.600
369.59	11.270
369.95	11.156
370.31	10.533
370.67	10.729
371.03	11.011
371.39	10.141
371.75	10.867
372.11	10.840
372.47	9.953
372.83	11.453
373.19	10.807
373.55	9.756
373.91	10.293
374.27	11.190
374.63	10.893
374.99	10.875
375.35	11.039
375.71	11.032
376.07	11.427
376.42	11.083
376.78	11.560
377.14	10.605
377.50	10.689
377.86	11.576
378.22	11.078
378.58	11.177
378.94	11.326
379.30	10.076
379.66	10.406
380.02	11.368
380.38	11.348
380.74	10.817
381.09	10.685
381.45	10.682
381.81	10.948
382.17	10.808
382.53	10.877
382.89	10.102
383.25	11.430
383.61	10.938
383.97	10.071
384.32	11.423
384.68	9.861
385.04	11.741
385.40	10.784
385.76	11.079
386.12	10.592
386.48	10.765
386.83	11.144
387.19	10.081
387.55	10.153
387.91	10.388
388.27	11.085
388.62	10.939
388.98	11.111
389.34	10.607
389.70	11.098
390.06	10.776
390.42	10.783
390.77	12.041
391.13	10.857
391.49	10.809
391.85	10.061
392.20	10.024
392.56	11.223
392.92	12.159
393.28	10.945
393.64	11.117
393.99	10.866
394.35	10.748
394.71	10.778
395.07	10.419
395.42	10.565
395.78	11.152
396.14	10.576
396.50	10.511
396.85	10.733
397.21	10.178
397.57	10.071
397.92	10.424
398.28	10.483
398.64	10.469
399.00	11.099
399.35	10.576
399.71	9.891
400.07	11.454
400.42	11.059
400.78	11.111
401.14	10.472
401.49	11.143
401.85	10.349
402.21	11.356
402.57	11.150
402.92	10.579
403.28	11.124
403.63	10.143
403.99	10.154
404.35	10.802
404.70	10.822
405.06	10.652
405.42	10.422
405.77	11.232
406.13	11.075
406.49	10.417
406.84	10.693
407.20	10.620
407.55	9.812
407.91	10.811
408.27	10.542
408.62	11.227
408.98	10.679
409.34	10.205
409.69	10.507
410.05	10.903
410.40	11.369
410.76	11.441
411.11	11.046
411.47	11.916
411.83	11.523
412.18	10.542
412.54	10.670
412.89	11.700
413.25	9.594
413.60	10.511
413.96	10.373
414.31	10.482
414.67	11.449
415.03	9.600
415.38	11.286
415.74	10.263
416.09	11.043
416.45	11.271
416.80	10.771
417.16	10.153
417.51	10.772
417.87	10.852
418.22	11.018
418.58	10.843
418.93	11.059
419.29	10.543
419.64	10.384
420.00	10.267
420.35	10.444
420.71	10.281
421.06	10.351
421.42	10.493
421.77	10.178
422.12	10.201
422.48	10.804
422.83	10.843
423.19	10.716
423.54	10.841
423.90	11.264
424.25	10.400
424.61	10.677
424.96	10.599
425.31	11.093
425.67	10.628
426.02	10.072
426.38	10.735
426.73	11.440
427.09	11.822
427.44	11.032
427.79	10.392
428.15	10.217
428.50	10.000
428.85	10.448
429.21	11.330
429.56	10.661
429.92	10.516
430.27	10.940
430.62	10.943
430.98	10.428
431.33	10.655
431.68	10.680
432.04	10.868
432.39	10.873
432.74	11.301
433.10	10.979
433.45	10.089
433.80	10.247
434.16	10.434
434.51	10.740
434.86	10.912
435.22	11.371
435.57	11.380
435.92	11.074
436.28	11.206
436.63	10.377
436.98	10.628
437.34	11.781
437.69	10.622
438.04	10.418
438.39	10.626
438.75	10.736
439.10	10.624
439.45	11.459
439.81	10.508
440.16	9.759
440.51	10.312
440.86	10.673
441.22	10.772
441.57	10.692
441.92	11.057
442.27	11.162
442.63	11.078
442.98	10.886
443.33	11.415
443.68	11.744
444.03	11.148
444.39	11.142
444.74	11.536
445.09	10.644
445.44	10.643
445.79	10.967
446.15	10.791
446.50	10.233
446.85	11.673
447.20	11.315
447.55	11.245
447.91	10.628
448.26	11.152
448.61	11.211
448.96	11.856
449.31	10.392
449.66	11.601
450.02	11.498
450.37	11.028
450.72	10.172
451.07	10.592
451.42	11.612
451.77	10.617
452.12	11.005
452.47	10.873
452.83	11.374
453.18	10.625
453.53	10.798
453.88	9.553
454.23	11.469
454.58	11.143
454.93	10.376
455.28	10.837
455.63	11.597
455.98	11.229
456.34	11.190
456.69	11.464
457.04	11.288
457.39	11.086
457.74	11.913
458.09	10.928
458.44	10.776
458.79	11.707
459.14	11.379
459.49	10.979
459.84	11.070
460.19	10.550
460.54	11.357
460.89	11.276
461.24	10.230
461.59	11.345
461.94	10.610
462.29	11.142
462.64	10.863
462.99	11.425
463.34	10.837
463.69	10.844
464.04	11.062
464.39	10.987
464.74	11.231
465.09	11.649
465.44	10.891
465.79	12.057
466.14	11.256
466.49	11.211
466.84	10.964
467.19	11.156
467.54	9.812
467.89	10.287
468.24	10.970
468.59	10.481
468.94	10.664
469.29	10.858
469.64	10.680
469.99	11.409
470.34	10.891
470.68	10.936
471.03	11.526
471.38	11.184
471.73	11.183
472.08	11.358
472.43	11.379
472.78	11.839
473.13	11.441
473.48	11.722
473.83	11.027
474.17	11.254
474.52	11.545
474.87	11.185
475.22	11.718
475.57	10.384
475.92	11.000
476.27	10.650
476.61	10.852
476.96	9.854
477.31	11.188
477.66	11.280
478.01	11.795
478.36	11.017
478.70	10.542
479.05	11.196
479.40	11.500
479.75	12.008
480.10	10.801
480.45	11.349
480.79	11.156
481.14	10.892
481.49	10.632
481.84	10.487
482.19	10.624
482.53	11.587
482.88	11.032
483.23	10.938
483.58	11.135
483.92	10.683
484.27	11.685
484.62	10.726
484.97	11.081
485.31	10.771
485.66	10.316
486.01	10.212
486.36	10.332
486.70	11.047
487.05	11.767
487.40	11.423
487.75	11.578
488.09	11.609
488.44	11.436
488.79	11.973
489.13	10.970
489.48	10.990
489.83	11.388
490.17	10.652
490.52	10.468
490.87	10.956
491.22	11.438
491.56	11.988
491.91	11.382
492.26	10.775
492.60	11.063
492.95	11.101
493.30	11.475
493.64	10.819
493.99	11.754
494.34	10.497
494.68	10.835
495.03	11.013
495.37	11.274
495.72	10.930
496.07	11.262
496.41	10.982
496.76	11.009
497.11	10.573
497.45	10.962
497.80	11.284
498.14	11.111
498.49	11.213
498.84	11.426
499.18	11.156
499.53	10.673
499.87	11.429
500.22	10.953
500.56	11.111
500.91	10.343
501.26	11.182
501.60	10.782
501.95	11.637
502.29	11.057
502.64	11.718
502.98	11.648
503.33	10.886
503.67	10.554
504.02	10.858
504.36	11.349
504.71	10.841
505.06	11.187
505.40	11.472
505.75	11.248
506.09	11.096
506.44	10.910
506.78	11.743
507.13	11.065
507.47	11.606
507.82	11.032
508.16	10.564
508.51	10.502
508.85	11.148
509.19	10.801
509.54	11.527
509.88	11.025
510.23	11.073
510.57	11.165
510.92	11.466
511.26	10.823
511.61	10.768
511.95	11.371
512.30	11.915
512.64	11.244
512.98	11.356
513.33	11.643
513.67	11.372
514.02	11.497
514.36	11.458
514.70	11.146
515.05	11.366
515.39	11.181
515.74	12.089
516.08	11.094
516.42	11.722
516.77	11.304
517.11	11.191
517.46	11.294
517.80	11.010
518.14	12.187
518.49	11.876
518.83	11.176
519.17	10.770
519.52	11.321
519.86	11.088
520.20	11.608
520.55	11.227
520.89	11.261
521.23	11.279
521.58	11.808
521.92	11.388
522.26	11.397
522.61	11.285
522.95	11.707
523.29	11.092
523.64	10.987
523.98	12.037
524.32	12.378
524.66	11.155
525.01	11.382
525.35	10.971
525.69	11.253
526.04	10.850
526.38	11.552
526.72	11.303
527.06	11.437
527.41	11.778
527.75	10.867
528.09	11.452
528.43	11.249
528.78	10.925
529.12	11.468
529.46	11.523
529.80	11.041
530.15	10.957
530.49	11.388
530.83	11.688
531.17	11.410
531.51	11.191
531.86	11.358
532.20	11.829
532.54	11.131
532.88	11.576
533.22	11.727
533.57	12.060
533.91	11.504
534.25	11.702
534.59	10.460
534.93	11.375
535.27	10.930
535.62	11.995
535.96	11.505
536.30	11.398
536.64	12.673
536.98	11.870
537.32	11.605
537.66	11.790
538.01	11.360
538.35	10.719
538.69	11.238
539.03	11.527
539.37	11.366
539.71	11.411
540.05	11.151
540.39	11.002
540.73	11.415
541.07	11.895
541.42	11.045
541.76	11.091
542.10	11.279
542.44	11.328
542.78	11.253
543.12	11.859
543.46	11.722
543.80	11.811
544.14	10.174
544.48	12.293
544.82	12.089
545.16	11.389
545.50	11.084
545.84	10.961
546.18	12.284
546.52	11.592
546.86	11.132
547.20	11.450
547.54	11.111
547.88	11.392
548.22	11.053
548.56	11.293
548.90	11.701
549.24	12.036
549.58	11.420
549.92	10.523
550.26	11.715
550.60	11.359
550.94	11.578
551.28	11.419
551.62	11.860
551.96	11.197
552.30	11.918
552.64	11.325
552.98	11.790
553.32	11.061
553.66	10.804
554.00	12.295
554.34	11.776
554.68	11.879
555.02	11.301
555.36	12.032
555.69	10.955
556.03	10.971
556.37	11.702
556.71	11.160
557.05	10.990
557.39	11.281
557.73	10.964
558.07	10.861
558.41	12.226
558.75	12.170
559.08	11.761
559.42	12.003
559.76	12.619
560.10	11.788
560.44	11.609
560.78	12.063
561.12	10.961
561.45	10.949
561.79	11.355
562.13	11.091
562.47	11.036
562.81	11.329
563.15	12.058
563.48	12.244
563.82	11.004
564.16	10.660
564.50	11.681
564.84	12.094
565.17	10.471
565.51	10.932
565.85	11.164
566.19	10.599
566.52	11.469
566.86	11.828
567.20	11.039
567.54	11.312
567.88	11.621
568.21	11.413
568.55	11.127
568.89	11.348
569.23	11.069
569.56	11.059
569.90	10.941
570.24	10.995
570.57	11.257
570.91	10.931
571.25	10.905
571.59	11.550
571.92	11.087
572.26	11.143
572.60	11.220
572.93	11.634
573.27	11.127
573.61	11.355
573.95	10.998
574.28	10.862
574.62	10.846
574.96	11.116
575.29	10.685
575.63	10.949
575.97	11.114
576.30	11.276
576.64	11.047
576.98	10.888
577.31	11.257
577.65	10.896
577.98	11.182
578.32	10.737
578.66	10.761
578.99	10.997
579.33	11.138
579.67	10.993
580.00	10.969
580.34	11.235
580.67	11.055
581.01	10.753
581.35	10.734
581.68	10.754
582.02	10.879
582.35	11.164
582.69	11.256
583.02	11.194
583.36	11.419
583.70	11.225
584.03	11.255
584.37	11.281
584.70	11.149
585.04	10.858
585.37	10.981
585.71	10.874
586.04	11.162
586.38	10.980
586.72	10.955
587.05	10.770
587.39	10.920
587.72	11.029
588.06	10.904
588.39	11.202
588.73	10.926
589.06	11.400
589.40	11.248
589.73	10.990
590.07	11.340
590.40	11.258
590.73	11.417
591.07	11.467
591.40	11.625
591.74	11.169
592.07	11.571
592.41	10.883
592.74	11.005
593.08	11.019
593.41	11.228
593.75	10.517
594.08	10.906
594.41	11.635
594.75	10.893
595.08	11.104
595.42	11.396
595.75	11.043
596.09	11.589
596.42	11.215
596.75	11.347
597.09	11.475
597.42	11.522
597.75	10.858
598.09	11.190
598.42	11.379
598.76	11.120
599.09	10.822
599.42	11.264
599.76	10.829
600.09	11.245
600.42	10.811
600.76	11.460
601.09	10.919
601.42	10.882
601.76	11.207
602.09	11.222
602.42	11.051
602.76	10.959
603.09	11.490
603.42	11.272
603.76	11.099
604.09	11.498
604.42	11.229
604.76	10.959
605.09	11.169
605.42	11.244
605.75	11.423
606.09	11.422
606.42	11.164
606.75	10.457
607.09	11.098
607.42	11.098
607.75	11.254
608.08	11.129
608.42	11.407
608.75	10.862
609.08	10.696
609.41	11.292
609.75	10.982
610.08	11.785
610.41	10.663
610.74	10.882
611.07	10.524
611.41	11.883
611.74	11.178
612.07	11.314
612.40	11.122
612.73	11.345
613.07	10.807
613.40	11.501
613.73	10.785
614.06	11.678
614.39	11.467
614.72	10.723
615.06	10.346
615.39	10.826
615.72	10.853
616.05	11.025
616.38	10.747
616.71	11.755
617.05	10.650
617.38	10.915
617.71	11.987
618.04	11.981
618.37	10.984
618.70	11.652
619.03	11.350
619.36	11.776
619.69	12.044
620.03	11.048
620.36	11.411
620.69	10.611
621.02	11.877
621.35	10.958
621.68	11.208
622.01	11.317
622.34	9.972
622.67	12.371
623.00	10.121
623.33	12.011
623.66	10.765
623.99	10.533
624.32	12.541
624.65	10.746
624.99	10.858
625.32	11.626
625.65	11.463
625.98	11.186
626.31	10.843
626.64	11.941
626.97	10.728
627.30	11.693
627.63	11.478
627.96	12.012
628.29	12.374
628.62	10.747
628.95	11.919
629.28	11.385
629.61	11.532
629.94	9.958
630.26	11.695
630.59	11.054
630.92	9.957
631.25	12.254
631.58	11.864
631.91	11.340
632.24	11.143
632.57	10.816
632.90	10.431
633.23	11.633
633.56	11.429
633.89	10.331
634.22	12.474
