SpectraSuite Data File
++++++++++++++++++++++++++++++++++++
Date: Thu May 14 16:32:40 PDT 2015
User: schluterlab
Dark Spectrum Present: Yes
Reference Spectrum Present: Yes
Number of Sampled Component Spectra: 1
Spectrometers: USB2E3373
Integration Time (usec): 3000 (USB2E3373)
Spectra Averaged: 3 (USB2E3373)
Boxcar Smoothing: 0 (USB2E3373)
Correct for Electrical Dark: No (USB2E3373)
Strobe/Lamp Enabled: No (USB2E3373)
Correct for Detector Non-linearity: No (USB2E3373)
Correct for Stray Light: No (USB2E3373)
Number of Pixels in Processed Spectrum: 2048
>>>>>Begin Processed Spectral Data<<<<<
178.53	0.000
178.91	71.429
179.29	-800.000
179.67	-1000.000
180.04	121.429
180.42	30.000
180.80	140.000
181.18	-100.000
181.56	-400.000
181.94	150.000
182.31	25.000
182.69	66.667
183.07	-50.000
183.45	175.000
183.83	-100.000
184.20	-200.000
184.58	-0.000
184.96	-300.000
185.34	-66.667
185.72	40.000
186.09	111.111
186.47	450.000
186.85	380.000
187.23	-44.444
187.61	-600.000
187.98	20.000
188.36	25.000
188.74	-50.000
189.12	100.000
189.49	-6.250
189.87	-125.000
190.25	-22.222
190.63	-160.000
191.00	-133.333
191.38	0.000
191.76	-325.000
192.14	50.000
192.51	250.000
192.89	83.333
193.27	0.000
193.65	14.286
194.02	-600.000
194.40	14.286
194.78	42.857
195.15	0.000
195.53	45.455
195.91	0.000
196.29	50.000
196.66	38.462
197.04	-400.000
197.42	-57.143
197.79	-200.000
198.17	-12.500
198.55	-85.714
198.92	-33.333
199.30	-50.000
199.68	-27.273
200.05	-7.143
200.43	-450.000
200.81	300.000
201.18	0.000
201.56	44.444
201.94	0.000
202.31	366.667
202.69	-77.778
203.07	-200.000
203.44	0.000
203.82	-100.000
204.19	16.667
204.57	16.667
204.95	-25.000
205.32	-700.000
205.70	75.000
206.08	33.333
206.45	50.000
206.83	240.000
207.20	-66.667
207.58	-200.000
207.96	-50.000
208.33	133.333
208.71	91.667
209.08	150.000
209.46	0.000
209.84	100.000
210.21	-100.000
210.59	-400.000
210.96	400.000
211.34	25.000
211.71	37.500
212.09	-1100.000
212.46	0.000
212.84	600.000
213.22	-140.000
213.59	0.000
213.97	20.000
214.34	66.667
214.72	116.667
215.09	-150.000
215.47	0.000
215.84	185.714
216.22	200.000
216.59	200.000
216.97	-20.000
217.34	-25.000
217.72	-12.500
218.09	75.000
218.47	-225.000
218.84	0.000
219.22	120.000
219.59	58.824
219.97	50.000
220.34	250.000
220.72	-22.222
221.09	76.923
221.47	-33.333
221.84	-30.000
222.22	-185.714
222.59	0.000
222.97	137.500
223.34	80.000
223.72	-300.000
224.09	-100.000
224.46	-175.000
224.84	80.000
225.21	-157.143
225.59	-350.000
225.96	0.000
226.34	19.231
226.71	133.333
227.08	-300.000
227.46	33.333
227.83	-25.000
228.21	0.000
228.58	100.000
228.95	800.000
229.33	58.333
229.70	90.000
230.08	100.000
230.45	60.000
230.82	-300.000
231.20	-14.286
231.57	25.000
231.95	-27.273
232.32	18.182
232.69	10.000
233.07	-75.000
233.44	-29.412
233.81	-10.000
234.19	44.444
234.56	9.091
234.93	20.690
235.31	10.526
235.68	16.667
236.05	-60.000
236.43	42.308
236.80	52.000
237.17	0.000
237.55	12.121
237.92	-70.000
238.29	-12.903
238.67	-18.182
239.04	13.889
239.41	0.000
239.79	10.870
240.16	0.000
240.53	10.870
240.91	-1.961
241.28	0.000
241.65	25.373
242.02	27.027
242.40	15.385
242.77	12.000
243.14	1.220
243.51	-3.947
243.89	-10.256
244.26	13.861
244.63	12.745
245.00	14.019
245.38	7.018
245.75	-6.195
246.12	11.905
246.49	6.202
246.87	9.286
247.24	12.583
247.61	17.763
247.98	10.738
248.36	9.877
248.73	8.589
249.10	7.104
249.47	16.915
249.84	15.707
250.22	7.254
250.59	10.000
250.96	11.818
251.33	5.612
251.70	8.547
252.08	11.250
252.45	11.066
252.82	12.397
253.19	9.766
253.56	14.449
253.94	9.615
254.31	10.606
254.68	16.434
255.05	13.681
255.42	13.605
255.79	11.327
256.16	11.589
256.54	10.265
256.91	12.459
257.28	8.197
257.65	10.828
258.02	8.850
258.39	11.681
258.76	13.456
259.14	14.080
259.51	12.968
259.88	10.198
260.25	13.056
260.62	11.781
260.99	13.661
261.36	13.405
261.73	12.202
262.10	9.890
262.47	11.796
262.85	14.141
263.22	10.390
263.59	8.684
263.96	12.276
264.33	11.509
264.70	11.605
265.07	13.365
265.44	14.739
265.81	10.417
266.18	12.245
266.55	11.607
266.92	10.706
267.29	12.691
267.66	11.752
268.03	9.389
268.40	9.395
268.77	7.973
269.14	6.388
269.51	11.404
269.88	15.164
270.25	13.481
270.62	12.447
270.99	13.535
271.36	13.267
271.73	12.181
272.10	13.226
272.47	11.022
272.84	11.847
273.21	10.621
273.58	10.685
273.95	9.808
274.32	9.886
274.69	9.865
275.06	12.821
275.43	9.057
275.80	10.935
276.17	10.926
276.54	9.888
276.91	10.912
277.28	11.573
277.65	11.849
278.02	11.213
278.39	11.413
278.76	10.545
279.13	11.879
279.50	12.199
279.87	12.522
280.23	9.331
280.60	12.203
280.97	10.526
281.34	10.357
281.71	13.198
282.08	10.797
282.45	11.784
282.82	9.890
283.19	9.208
283.56	10.164
283.92	12.763
284.29	13.744
284.66	11.987
285.03	8.333
285.40	10.819
285.77	12.074
286.14	12.366
286.51	10.807
286.87	11.848
287.24	12.349
287.61	10.164
287.98	9.819
288.35	10.503
288.72	12.426
289.08	10.981
289.45	11.686
289.82	9.789
290.19	10.632
290.56	10.704
290.93	11.698
291.29	10.055
291.66	9.504
292.03	9.905
292.40	11.837
292.77	8.625
293.13	11.367
293.50	9.855
293.87	10.201
294.24	10.667
294.60	10.493
294.97	9.396
295.34	10.115
295.71	9.458
296.08	9.173
296.44	9.559
296.81	9.866
297.18	9.465
297.55	9.198
297.91	8.541
298.28	8.294
298.65	10.702
299.02	8.973
299.38	10.984
299.75	9.813
300.12	9.722
300.48	9.101
300.85	10.124
301.22	10.515
301.59	10.274
301.95	8.927
302.32	10.222
302.69	9.967
303.05	9.684
303.42	9.867
303.79	9.375
304.15	8.623
304.52	10.042
304.89	9.948
305.25	9.420
305.62	10.031
305.99	9.588
306.35	9.173
306.72	10.238
307.09	8.528
307.45	9.110
307.82	8.174
308.19	7.871
308.55	10.125
308.92	8.277
309.29	9.195
309.65	8.187
310.02	9.010
310.38	9.547
310.75	7.282
311.12	9.779
311.48	8.309
311.85	8.547
312.22	8.634
312.58	8.920
312.95	10.038
313.31	9.124
313.68	8.150
314.05	10.117
314.41	8.561
314.78	8.356
315.14	8.076
315.51	9.234
315.87	10.171
316.24	9.772
316.61	9.858
316.97	8.145
317.34	8.466
317.70	9.432
318.07	8.289
318.43	9.184
318.80	10.870
319.16	9.700
319.53	8.398
319.89	7.975
320.26	9.164
320.62	8.333
320.99	8.587
321.35	8.503
321.72	9.116
322.08	8.386
322.45	9.304
322.81	9.747
323.18	8.938
323.54	8.621
323.91	8.630
324.27	9.208
324.64	9.320
325.00	8.209
325.37	10.074
325.73	9.917
326.10	9.570
326.46	9.609
326.83	9.848
327.19	9.134
327.56	9.328
327.92	9.441
328.29	9.355
328.65	9.213
329.01	8.714
329.38	8.930
329.74	10.274
330.11	10.017
330.47	9.183
330.84	9.905
331.20	10.250
331.56	9.532
331.93	10.879
332.29	10.254
332.66	10.133
333.02	10.218
333.38	9.648
333.75	9.848
334.11	9.675
334.48	9.323
334.84	10.280
335.20	8.900
335.57	10.708
335.93	9.835
336.29	10.399
336.66	9.251
337.02	9.532
337.38	10.204
337.75	9.587
338.11	10.429
338.47	9.926
338.84	9.222
339.20	9.099
339.56	8.731
339.93	9.195
340.29	9.501
340.65	9.732
341.02	10.136
341.38	10.105
341.74	8.959
342.11	9.574
342.47	8.975
342.83	8.615
343.20	10.303
343.56	9.222
343.92	10.408
344.28	9.531
344.65	10.620
345.01	9.516
345.37	9.953
345.73	9.119
346.10	9.360
346.46	9.098
346.82	9.738
347.19	9.855
347.55	9.788
347.91	9.064
348.27	9.863
348.63	10.358
349.00	8.874
349.36	10.558
349.72	9.226
350.08	9.733
350.45	8.517
350.81	9.578
351.17	9.173
351.53	9.401
351.89	9.947
352.26	8.881
352.62	9.403
352.98	8.550
353.34	8.290
353.70	8.398
354.07	9.240
354.43	8.580
354.79	8.975
355.15	9.934
355.51	9.868
355.87	9.200
356.24	7.452
356.60	8.943
356.96	8.525
357.32	9.368
357.68	8.565
358.04	9.132
358.40	8.358
358.77	9.430
359.13	8.863
359.49	7.732
359.85	9.500
360.21	8.537
360.57	8.327
360.93	9.027
361.29	9.684
361.66	8.907
362.02	9.673
362.38	8.995
362.74	9.358
363.10	9.216
363.46	8.172
363.82	9.091
364.18	8.445
364.54	8.299
364.90	9.766
365.26	8.276
365.62	8.867
365.98	7.897
366.35	8.792
366.71	8.776
367.07	8.931
367.43	9.127
367.79	8.825
368.15	9.231
368.51	9.202
368.87	9.471
369.23	8.267
369.59	8.948
369.95	8.925
370.31	8.778
370.67	9.285
371.03	8.864
371.39	8.395
371.75	8.941
372.11	8.266
372.47	8.531
372.83	9.424
373.19	9.406
373.55	8.469
373.91	8.180
374.27	8.926
374.63	9.472
374.99	9.218
375.35	8.636
375.71	8.387
376.07	8.974
376.42	8.564
376.78	9.074
377.14	8.921
377.50	7.906
377.86	8.990
378.22	8.563
378.58	8.502
378.94	8.920
379.30	9.373
379.66	8.466
380.02	9.117
380.38	8.929
380.74	8.789
381.09	8.188
381.45	8.750
381.81	10.539
382.17	9.501
382.53	8.304
382.89	10.158
383.25	8.148
383.61	7.465
383.97	8.657
384.32	8.911
384.68	8.121
385.04	8.676
385.40	8.898
385.76	8.968
386.12	8.737
386.48	9.176
386.83	8.343
387.19	8.749
387.55	8.509
387.91	8.276
388.27	9.238
388.62	8.935
388.98	8.686
389.34	8.603
389.70	7.728
390.06	8.940
390.42	8.976
390.77	8.669
391.13	8.451
391.49	8.635
391.85	7.939
392.20	8.600
392.56	8.506
392.92	9.106
393.28	8.734
393.64	8.380
393.99	9.529
394.35	8.703
394.71	9.042
395.07	8.982
395.42	8.966
395.78	8.653
396.14	8.497
396.50	8.135
396.85	8.885
397.21	9.231
397.57	8.657
397.92	8.820
398.28	8.365
398.64	8.238
399.00	7.592
399.35	8.743
399.71	8.424
400.07	8.871
400.42	7.800
400.78	7.639
401.14	9.050
401.49	8.471
401.85	9.070
402.21	9.791
402.57	8.568
402.92	8.333
403.28	7.787
403.63	7.876
403.99	7.720
404.35	8.698
404.70	8.442
405.06	8.696
405.42	8.782
405.77	8.779
406.13	8.482
406.49	8.559
406.84	9.640
407.20	8.720
407.55	8.540
407.91	9.114
408.27	8.952
408.62	8.726
408.98	8.822
409.34	7.038
409.69	8.776
410.05	8.910
410.40	9.107
410.76	8.413
411.11	9.001
411.47	9.152
411.83	9.112
412.18	9.157
412.54	9.366
412.89	9.313
413.25	8.747
413.60	8.558
413.96	8.333
414.31	8.272
414.67	8.229
415.03	9.354
415.38	8.701
415.74	8.430
416.09	8.575
416.45	8.954
416.80	8.568
417.16	8.110
417.51	8.655
417.87	8.522
418.22	8.563
418.58	8.736
418.93	8.964
419.29	7.830
419.64	8.703
420.00	8.487
420.35	8.871
420.71	8.501
421.06	8.396
421.42	8.544
421.77	7.754
422.12	8.562
422.48	8.500
422.83	8.653
423.19	8.170
423.54	8.241
423.90	8.283
424.25	8.320
424.61	7.692
424.96	8.512
425.31	9.342
425.67	8.159
426.02	7.692
426.38	8.439
426.73	8.705
427.09	8.824
427.44	8.465
427.79	8.513
428.15	8.219
428.50	8.371
428.85	8.439
429.21	8.936
429.56	7.947
429.92	7.961
430.27	8.434
430.62	7.914
430.98	7.919
431.33	8.456
431.68	7.759
432.04	8.075
432.39	8.195
432.74	7.820
433.10	8.491
433.45	7.246
433.80	7.886
434.16	8.368
434.51	8.068
434.86	7.980
435.22	8.714
435.57	7.783
435.92	9.182
436.28	7.679
436.63	8.192
436.98	8.105
437.34	8.174
437.69	7.705
438.04	7.879
438.39	7.926
438.75	7.969
439.10	9.461
439.45	7.881
439.81	7.571
440.16	8.097
440.51	8.250
440.86	7.727
441.22	8.199
441.57	7.862
441.92	8.487
442.27	8.535
442.63	8.594
442.98	8.805
443.33	8.995
443.68	8.969
444.03	8.467
444.39	8.460
444.74	8.780
445.09	7.704
445.44	8.272
445.79	8.669
446.15	7.965
446.50	8.165
446.85	8.366
447.20	9.043
447.55	8.316
447.91	7.906
448.26	8.245
448.61	8.608
448.96	8.476
449.31	8.696
449.66	8.007
450.02	8.492
450.37	8.578
450.72	7.427
451.07	8.941
451.42	8.261
451.77	8.894
452.12	8.183
452.47	7.903
452.83	7.827
453.18	8.406
453.53	7.869
453.88	8.338
454.23	8.249
454.58	8.764
454.93	7.524
455.28	8.489
455.63	8.130
455.98	8.827
456.34	8.481
456.69	8.701
457.04	7.624
457.39	8.149
457.74	8.613
458.09	7.249
458.44	9.106
458.79	7.478
459.14	8.285
459.49	8.206
459.84	8.395
460.19	8.107
460.54	9.540
460.89	8.576
461.24	8.161
461.59	8.246
461.94	7.701
462.29	8.679
462.64	8.268
462.99	8.788
463.34	8.371
463.69	8.558
464.04	8.394
464.39	8.464
464.74	8.210
465.09	8.593
465.44	8.906
465.79	8.038
466.14	8.181
466.49	8.211
466.84	8.154
467.19	8.728
467.54	7.579
467.89	8.046
468.24	8.643
468.59	8.570
468.94	7.867
469.29	8.398
469.64	8.010
469.99	8.158
470.34	8.106
470.68	9.023
471.03	7.728
471.38	8.568
471.73	8.127
472.08	8.122
472.43	8.128
472.78	8.879
473.13	8.723
473.48	8.459
473.83	8.706
474.17	8.499
474.52	8.900
474.87	8.472
475.22	8.845
475.57	8.100
475.92	8.512
476.27	8.466
476.61	7.684
476.96	7.873
477.31	8.168
477.66	8.132
478.01	7.829
478.36	7.926
478.70	7.980
479.05	8.742
479.40	8.638
479.75	9.126
480.10	9.143
480.45	9.070
480.79	8.526
481.14	8.364
481.49	7.724
481.84	8.877
482.19	8.258
482.53	8.789
482.88	8.684
483.23	8.715
483.58	8.603
483.92	7.846
484.27	8.594
484.62	8.086
484.97	8.631
485.31	8.131
485.66	8.183
486.01	8.440
486.36	8.403
486.70	8.638
487.05	8.756
487.40	8.637
487.75	8.193
488.09	7.833
488.44	7.984
488.79	7.656
489.13	8.038
489.48	7.806
489.83	8.249
490.17	8.505
490.52	8.662
490.87	8.418
491.22	8.016
491.56	8.746
491.91	8.853
492.26	8.222
492.60	8.089
492.95	8.249
493.30	8.203
493.64	8.235
493.99	8.246
494.34	8.624
494.68	7.880
495.03	8.282
495.37	8.344
495.72	8.118
496.07	8.282
496.41	7.894
496.76	8.132
497.11	8.450
497.45	8.200
497.80	8.485
498.14	8.073
498.49	8.226
498.84	7.587
499.18	8.412
499.53	8.296
499.87	8.088
500.22	8.059
500.56	7.872
500.91	8.101
501.26	8.409
501.60	8.308
501.95	8.163
502.29	8.776
502.64	8.483
502.98	8.714
503.33	8.078
503.67	7.850
504.02	8.231
504.36	8.937
504.71	8.314
505.06	8.095
505.40	8.547
505.75	8.470
506.09	8.379
506.44	8.217
506.78	8.440
507.13	8.575
507.47	8.811
507.82	8.428
508.16	8.078
508.51	8.204
508.85	8.125
509.19	8.432
509.54	9.318
509.88	8.791
510.23	8.305
510.57	9.135
510.92	8.563
511.26	8.658
511.61	8.160
511.95	8.638
512.30	8.666
512.64	8.296
512.98	8.304
513.33	8.518
513.67	8.516
514.02	9.198
514.36	8.593
514.70	7.708
515.05	8.551
515.39	8.871
515.74	9.173
516.08	8.611
516.42	9.524
516.77	8.149
517.11	8.097
517.46	8.908
517.80	8.819
518.14	9.195
518.49	8.785
518.83	8.888
519.17	8.778
519.52	8.648
519.86	9.715
520.20	9.159
520.55	8.762
520.89	8.953
521.23	9.045
521.58	8.870
521.92	8.329
522.26	8.419
522.61	9.144
522.95	8.420
523.29	8.333
523.64	7.904
523.98	8.956
524.32	9.398
524.66	9.334
525.01	8.381
525.35	8.329
525.69	8.643
526.04	8.553
526.38	9.138
526.72	9.054
527.06	8.504
527.41	8.746
527.75	9.086
528.09	8.737
528.43	8.763
528.78	8.324
529.12	8.200
529.46	8.038
529.80	8.638
530.15	9.101
530.49	7.770
530.83	9.445
531.17	8.303
531.51	8.303
531.86	9.615
532.20	9.085
532.54	8.618
532.88	8.667
533.22	8.839
533.57	8.194
533.91	9.764
534.25	8.762
534.59	8.103
534.93	8.206
535.27	8.451
535.62	9.323
535.96	9.064
536.30	8.167
536.64	8.589
536.98	9.041
537.32	9.136
537.66	9.607
538.01	8.338
538.35	7.795
538.69	9.014
539.03	9.810
539.37	9.364
539.71	8.829
540.05	9.113
540.39	7.824
540.73	8.500
541.07	9.319
541.42	8.978
541.76	9.134
542.10	8.504
542.44	8.039
542.78	8.820
543.12	8.522
543.46	8.486
543.80	8.873
544.14	8.318
544.48	9.279
544.82	8.318
545.16	8.825
545.50	9.047
545.84	8.757
546.18	9.321
546.52	8.790
546.86	7.987
547.20	8.969
547.54	7.678
547.88	8.680
548.22	8.655
548.56	8.484
548.90	8.179
549.24	8.146
549.58	8.391
549.92	7.972
550.26	9.126
550.60	7.977
550.94	8.797
551.28	8.977
551.62	8.693
551.96	8.673
552.30	9.114
552.64	9.708
552.98	8.235
553.32	8.746
553.66	8.039
554.00	8.008
554.34	8.945
554.68	8.974
555.02	8.213
555.36	8.350
555.69	7.880
556.03	8.701
556.37	8.824
556.71	8.307
557.05	9.393
557.39	8.096
557.73	9.247
558.07	8.212
558.41	9.037
558.75	8.587
559.08	9.255
559.42	9.122
559.76	8.752
560.10	8.707
560.44	8.113
560.78	9.812
561.12	8.128
561.45	9.185
561.79	8.669
562.13	9.242
562.47	8.631
562.81	8.671
563.15	9.154
563.48	9.260
563.82	9.129
564.16	8.359
564.50	8.522
564.84	8.496
565.17	9.412
565.51	8.516
565.85	8.195
566.19	8.122
566.52	8.543
566.86	8.715
567.20	8.265
567.54	8.710
567.88	8.563
568.21	8.251
568.55	8.729
568.89	8.670
569.23	9.125
569.56	8.753
569.90	8.589
570.24	8.432
570.57	8.627
570.91	8.267
571.25	8.823
571.59	8.294
571.92	8.555
572.26	8.258
572.60	8.108
572.93	8.350
573.27	8.598
573.61	8.444
573.95	8.619
574.28	8.666
574.62	8.345
574.96	7.984
575.29	8.614
575.63	8.224
575.97	8.335
576.30	8.290
576.64	7.922
576.98	8.405
577.31	8.739
577.65	8.584
577.98	8.547
578.32	8.200
578.66	8.047
578.99	8.478
579.33	7.892
579.67	8.182
580.00	7.912
580.34	8.442
580.67	8.076
581.01	8.048
581.35	8.669
581.68	8.500
582.02	8.241
582.35	8.665
582.69	8.177
583.02	8.148
583.36	8.297
583.70	7.885
584.03	7.559
584.37	8.121
584.70	7.897
585.04	8.207
585.37	8.330
585.71	8.414
586.04	8.014
586.38	8.194
586.72	7.496
587.05	7.854
587.39	8.202
587.72	8.278
588.06	8.003
588.39	8.788
588.73	8.095
589.06	7.929
589.40	8.144
589.73	8.355
590.07	8.024
590.40	8.249
590.73	8.165
591.07	8.675
591.40	7.970
591.74	7.989
592.07	8.607
592.41	8.754
592.74	8.520
593.08	8.662
593.41	8.195
593.75	8.477
594.08	8.240
594.41	8.045
594.75	8.004
595.08	7.436
595.42	8.604
595.75	8.686
596.09	8.472
596.42	7.739
596.75	8.105
597.09	8.566
597.42	8.145
597.75	8.232
598.09	8.849
598.42	8.363
598.76	7.948
599.09	8.615
599.42	8.347
599.76	8.452
600.09	8.308
600.42	8.108
600.76	7.992
601.09	8.231
601.42	8.170
601.76	7.897
602.09	7.756
602.42	7.961
602.76	8.266
603.09	8.003
603.42	8.418
603.76	7.822
604.09	8.730
604.42	8.587
604.76	7.839
605.09	8.456
605.42	8.453
605.75	7.808
606.09	7.727
606.42	7.953
606.75	7.796
607.09	8.257
607.42	8.555
607.75	8.597
608.08	7.972
608.42	8.343
608.75	8.250
609.08	8.192
609.41	7.896
609.75	7.679
610.08	8.443
610.41	8.369
610.74	8.319
611.07	7.948
611.41	8.296
611.74	8.637
612.07	8.649
612.40	8.317
612.73	8.117
613.07	8.068
613.40	8.662
613.73	8.329
614.06	8.685
614.39	7.872
614.72	8.006
615.06	7.988
615.39	8.410
615.72	8.626
616.05	8.256
616.38	8.426
616.71	8.882
617.05	7.721
617.38	8.454
617.71	8.477
618.04	8.473
618.37	8.361
618.70	8.710
619.03	7.766
619.36	8.076
619.69	8.456
620.03	8.412
620.36	8.282
620.69	8.020
621.02	8.661
621.35	9.144
621.68	8.171
622.01	8.683
622.34	7.671
622.67	8.454
623.00	7.895
623.33	8.361
623.66	8.690
623.99	8.097
624.32	8.772
624.65	7.336
624.99	9.038
625.32	8.687
625.65	8.564
625.98	8.610
626.31	8.505
626.64	8.205
626.97	8.027
627.30	7.289
627.63	7.652
627.96	9.835
628.29	7.938
628.62	8.312
628.95	7.800
629.28	7.647
629.61	8.670
629.94	7.866
630.26	7.627
630.59	8.463
630.92	8.485
631.25	9.392
631.58	8.945
631.91	8.154
632.24	9.126
632.57	8.159
632.90	7.523
633.23	8.469
633.56	8.367
633.89	9.194
634.22	9.771
634.55	8.977
634.88	7.576
635.20	9.042
635.53	9.605
635.86	8.776
636.19	10.180
636.52	8.122
636.85	8.887
637.18	9.356
637.51	8.495
637.83	9.635
638.16	9.793
638.49	6.808
638.82	8.681
639.15	6.987
639.48	9.238
639.81	9.469
640.13	9.069
640.46	7.394
640.79	6.740
641.12	8.944
641.45	7.152
641.77	10.526
642.10	8.793
642.43	11.303
642.76	9.621
643.09	8.767
643.41	8.683
643.74	8.690
644.07	10.207
644.40	7.638
644.73	9.434
645.05	8.664
645.38	8.777
645.71	10.264
646.04	10.330
646.36	7.737
646.69	9.356
647.02	10.245
647.35	11.298
647.67	9.340
648.00	9.076
648.33	9.009
648.66	8.274
648.98	8.980
649.31	8.796
649.64	9.695
649.96	8.886
650.29	7.650
650.62	7.921
650.94	9.459
651.27	6.587
651.60	8.626
651.92	7.751
652.25	7.670
652.58	8.803
652.90	6.977
653.23	9.296
653.56	8.559
653.88	11.376
654.21	9.014
654.54	10.260
654.86	9.632
655.19	7.152
655.52	9.816
655.84	8.856
656.17	10.858
656.49	14.787
