SpectraSuite Data File
++++++++++++++++++++++++++++++++++++
Date: Thu May 14 16:38:17 PDT 2015
User: schluterlab
Dark Spectrum Present: Yes
Reference Spectrum Present: Yes
Number of Sampled Component Spectra: 1
Spectrometers: USB2E3373
Integration Time (usec): 3000 (USB2E3373)
Spectra Averaged: 3 (USB2E3373)
Boxcar Smoothing: 0 (USB2E3373)
Correct for Electrical Dark: No (USB2E3373)
Strobe/Lamp Enabled: No (USB2E3373)
Correct for Detector Non-linearity: No (USB2E3373)
Correct for Stray Light: No (USB2E3373)
Number of Pixels in Processed Spectrum: 2048
>>>>>Begin Processed Spectral Data<<<<<
178.53	0.000
178.91	128.571
179.29	-1200.000
179.67	-800.000
180.04	150.000
180.42	40.000
180.80	360.000
181.18	-900.000
181.56	-600.000
181.94	-50.000
182.31	-150.000
182.69	500.000
183.07	-450.000
183.45	375.000
183.83	-133.333
184.20	0.000
184.58	600.000
184.96	-275.000
185.34	33.333
185.72	100.000
186.09	77.778
186.47	150.000
186.85	240.000
187.23	-122.222
187.61	-700.000
187.98	180.000
188.36	350.000
188.74	-50.000
189.12	-66.667
189.49	-12.500
189.87	-50.000
190.25	-44.444
190.63	80.000
191.00	-133.333
191.38	0.000
191.76	-75.000
192.14	-16.667
192.51	150.000
192.89	116.667
193.27	0.000
193.65	-128.571
194.02	-1200.000
194.40	0.000
194.78	114.286
195.15	0.000
195.53	-18.182
195.91	0.000
196.29	0.000
196.66	0.000
197.04	-900.000
197.42	-185.714
197.79	-550.000
198.17	-75.000
198.55	-85.714
198.92	-22.222
199.30	-75.000
199.68	72.727
200.05	14.286
200.43	-600.000
200.81	142.857
201.18	0.000
201.56	155.556
201.94	0.000
202.31	200.000
202.69	-33.333
203.07	1000.000
203.44	33.333
203.82	-275.000
204.19	-58.333
204.57	-100.000
204.95	-100.000
205.32	-700.000
205.70	175.000
206.08	150.000
206.45	-33.333
206.83	160.000
207.20	-116.667
207.58	-260.000
207.96	-133.333
208.33	0.000
208.71	158.333
209.08	200.000
209.46	0.000
209.84	300.000
210.21	300.000
210.59	600.000
210.96	300.000
211.34	50.000
211.71	-62.500
212.09	-600.000
212.46	0.000
212.84	1200.000
213.22	-120.000
213.59	-200.000
213.97	20.000
214.34	33.333
214.72	83.333
215.09	-150.000
215.47	0.000
215.84	100.000
216.22	500.000
216.59	-100.000
216.97	-80.000
217.34	-125.000
217.72	25.000
218.09	-200.000
218.47	-100.000
218.84	0.000
219.22	-0.000
219.59	41.176
219.97	40.000
220.34	600.000
220.72	-11.111
221.09	46.154
221.47	-66.667
221.84	10.000
222.22	-100.000
222.59	0.000
222.97	75.000
223.34	-100.000
223.72	-1600.000
224.09	-325.000
224.46	-100.000
224.84	-20.000
225.21	-142.857
225.59	-275.000
225.96	-300.000
226.34	0.000
226.71	233.333
227.08	-100.000
227.46	0.000
227.83	-200.000
228.21	21.053
228.58	137.500
228.95	650.000
229.33	-16.667
229.70	0.000
230.08	57.895
230.45	40.000
230.82	33.333
231.20	-14.286
231.57	16.667
231.95	-27.273
232.32	9.091
232.69	-35.000
233.07	-250.000
233.44	-11.765
233.81	-50.000
234.19	-16.667
234.56	-9.091
234.93	24.138
235.31	5.263
235.68	33.333
236.05	-70.000
236.43	0.000
236.80	32.000
237.17	-14.815
237.55	-21.212
237.92	-120.000
238.29	19.355
238.67	-2.273
239.04	2.778
239.41	-11.905
239.79	6.522
240.16	7.407
240.53	2.174
240.91	-9.804
241.28	8.197
241.65	17.910
242.02	2.703
242.40	-24.615
242.77	-5.333
243.14	1.220
243.51	-22.368
243.89	-2.564
244.26	-7.921
244.63	4.902
245.00	-2.804
245.38	-1.754
245.75	-13.274
246.12	-0.794
246.49	-3.101
246.87	-2.143
247.24	0.662
247.61	-0.658
247.98	-2.013
248.36	-4.321
248.73	-7.362
249.10	0.000
249.47	3.483
249.84	3.141
250.22	-3.627
250.59	-5.000
250.96	3.636
251.33	-5.102
251.70	4.274
252.08	1.250
252.45	5.328
252.82	-2.066
253.19	-2.344
253.56	0.380
253.94	-0.385
254.31	-3.030
254.68	1.748
255.05	3.257
255.42	-1.701
255.79	-2.913
256.16	0.662
256.54	-4.967
256.91	2.951
257.28	-1.967
257.65	-2.229
258.02	-3.245
258.39	0.570
258.76	2.141
259.14	3.448
259.51	1.153
259.88	0.567
260.25	2.222
260.62	1.096
260.99	1.093
261.36	2.413
261.73	0.796
262.10	-3.846
262.47	-2.949
262.85	3.788
263.22	-0.779
263.59	-1.579
263.96	0.000
264.33	-1.790
264.70	-0.247
265.07	1.671
265.44	5.442
265.81	1.389
266.18	1.587
266.55	2.679
266.92	-1.139
267.29	-0.219
267.66	-0.222
268.03	2.183
268.40	3.132
268.77	-1.367
269.14	-0.220
269.51	1.754
269.88	1.025
270.25	1.006
270.62	0.000
270.99	4.242
271.36	1.980
271.73	0.786
272.10	2.605
272.47	0.601
272.84	1.004
273.21	0.200
273.58	0.202
273.95	-0.577
274.32	0.951
274.69	-0.193
275.06	1.465
275.43	0.185
275.80	0.176
276.17	-0.556
276.54	-1.119
276.91	-1.073
277.28	0.181
277.65	-0.359
278.02	3.309
278.39	0.543
278.76	0.176
279.13	1.418
279.50	3.265
279.87	2.683
280.23	-1.232
280.60	1.017
280.97	1.645
281.34	-0.340
281.71	3.046
282.08	0.498
282.45	0.000
282.82	1.099
283.19	0.162
283.56	-0.492
283.92	2.102
284.29	4.739
284.66	0.821
285.03	-0.481
285.40	0.927
285.77	-2.477
286.14	1.985
286.51	0.304
286.87	0.158
287.24	0.151
287.61	0.747
287.98	1.057
288.35	0.444
288.72	0.592
289.08	1.903
289.45	1.479
289.82	-0.301
290.19	1.724
290.56	0.000
290.93	0.571
291.29	0.964
291.66	0.275
292.03	0.136
292.40	2.993
292.77	-0.135
293.13	1.218
293.50	1.183
293.87	0.940
294.24	1.733
294.60	2.149
294.97	-0.403
295.34	2.305
295.71	-0.378
296.08	0.517
296.44	1.348
296.81	0.609
297.18	0.872
297.55	1.415
297.91	1.068
298.28	1.185
298.65	2.259
299.02	0.472
299.38	1.831
299.75	1.402
300.12	-0.347
300.48	1.498
300.85	1.687
301.22	1.902
301.59	0.799
301.95	1.356
302.32	2.333
302.69	1.533
303.05	2.720
303.42	1.441
303.79	0.625
304.15	1.893
304.52	0.529
304.89	1.361
305.25	2.484
305.62	0.731
305.99	2.474
306.35	2.117
306.72	1.965
307.09	1.624
307.45	1.553
307.82	2.422
308.19	2.422
308.55	2.218
308.92	1.558
309.29	3.448
309.65	1.559
310.02	1.584
310.38	0.787
310.75	1.262
311.12	2.685
311.48	1.564
311.85	2.564
312.22	1.613
312.58	2.629
312.95	1.530
313.31	2.078
313.68	2.930
314.05	3.794
314.41	2.823
314.78	2.361
315.14	2.995
315.51	2.955
315.87	3.150
316.24	3.927
316.61	3.996
316.97	1.991
317.34	3.439
317.70	3.057
318.07	3.880
318.43	3.912
318.80	4.431
319.16	4.034
319.53	2.828
319.89	3.418
320.26	4.181
320.62	3.546
320.99	3.970
321.35	3.235
321.72	5.395
322.08	4.328
322.45	3.794
322.81	5.325
323.18	4.336
323.54	4.224
323.91	5.338
324.27	4.905
324.64	4.786
325.00	4.312
325.37	5.897
325.73	5.620
326.10	6.164
326.46	6.026
326.83	6.485
327.19	6.063
327.56	5.929
327.92	6.137
328.29	6.613
328.65	7.035
329.01	6.514
329.38	7.498
329.74	7.449
330.11	7.534
330.47	7.414
330.84	8.183
331.20	7.750
331.56	6.846
331.93	8.285
332.29	8.220
332.66	6.811
333.02	7.705
333.38	8.054
333.75	8.754
334.11	7.590
334.48	8.416
334.84	9.516
335.20	8.816
335.57	8.094
335.93	8.843
336.29	8.735
336.66	8.579
337.02	8.445
337.38	9.354
337.75	8.264
338.11	8.579
338.47	9.926
338.84	8.206
339.20	7.582
339.56	8.896
339.93	9.195
340.29	9.742
340.65	9.084
341.02	9.737
341.38	8.812
341.74	8.232
342.11	8.447
342.47	7.705
342.83	9.903
343.20	8.585
343.56	8.661
343.92	8.727
344.28	8.594
344.65	9.457
345.01	9.204
345.37	9.876
345.73	7.950
346.10	8.658
346.46	7.911
346.82	9.738
347.19	8.480
347.55	9.256
347.91	8.841
348.27	8.270
348.63	9.901
349.00	8.352
349.36	9.294
349.72	9.003
350.08	9.212
350.45	8.365
350.81	7.843
351.17	8.421
351.53	7.961
351.89	9.339
352.26	7.687
352.62	8.358
352.98	8.702
353.34	8.066
353.70	7.935
354.07	9.762
354.43	8.125
354.79	8.527
355.15	7.800
355.51	8.333
355.87	8.078
356.24	7.909
356.60	8.056
356.96	8.154
357.32	7.658
357.68	8.053
358.04	8.383
358.40	8.134
358.77	8.406
359.13	7.459
359.49	7.509
359.85	8.194
360.21	8.680
360.57	8.327
360.93	7.757
361.29	8.070
361.66	8.110
362.02	8.351
362.38	8.011
362.74	8.101
363.10	8.459
363.46	7.618
363.82	8.452
364.18	8.374
364.54	7.953
364.90	8.763
365.26	7.655
365.62	8.533
365.98	8.101
366.35	7.919
366.71	8.095
367.07	8.593
367.43	8.667
367.79	8.626
368.15	8.094
368.51	8.390
368.87	7.903
369.23	8.333
369.59	7.445
369.95	7.978
370.31	8.170
370.67	7.840
371.03	7.964
371.39	7.522
371.75	8.322
372.11	7.791
372.47	8.057
372.83	8.246
373.19	7.939
373.55	7.791
373.91	7.566
374.27	8.668
374.63	7.984
374.99	7.759
375.35	8.896
375.71	7.806
376.07	8.457
376.42	7.620
376.78	7.955
377.14	7.611
377.50	7.717
377.86	8.744
378.22	7.665
378.58	7.669
378.94	7.512
379.30	7.733
379.66	7.878
380.02	7.155
380.38	8.007
380.74	7.437
381.09	7.724
381.45	7.273
381.81	7.904
382.17	7.660
382.53	7.193
382.89	7.957
383.25	8.324
383.61	6.829
383.97	7.892
384.32	7.835
384.68	7.367
385.04	7.866
385.40	7.955
385.76	8.030
386.12	7.600
386.48	8.118
386.83	8.701
387.19	7.416
387.55	7.336
387.91	7.420
388.27	8.025
388.62	7.732
388.98	7.219
389.34	7.720
389.70	7.496
390.06	6.750
390.42	7.711
390.77	7.766
391.13	7.746
391.49	7.367
391.85	6.788
392.20	7.829
392.56	7.915
392.92	7.470
393.28	7.131
393.64	6.536
393.99	7.438
394.35	7.769
394.71	7.186
395.07	7.186
395.42	6.796
395.78	7.434
396.14	7.903
396.50	7.007
396.85	7.573
397.21	6.450
397.57	6.949
397.92	6.701
398.28	6.898
398.64	6.808
399.00	6.545
399.35	7.225
399.71	6.467
400.07	7.075
400.42	6.810
400.78	5.961
401.14	6.375
401.49	7.561
401.85	6.163
402.21	6.952
402.57	7.101
402.92	6.087
403.28	6.030
403.63	5.967
403.99	6.116
404.35	6.595
404.70	6.742
405.06	6.087
405.42	6.148
405.77	6.761
406.13	6.321
406.49	5.743
406.84	5.928
407.20	5.981
407.55	6.057
407.91	5.468
408.27	6.478
408.62	6.108
408.98	6.036
409.34	4.809
409.69	6.242
410.05	6.448
410.40	6.323
410.76	6.169
411.11	6.312
411.47	6.450
411.83	6.232
412.18	5.964
412.54	6.224
412.89	6.228
413.25	5.756
413.60	5.169
413.96	6.002
414.31	6.119
414.67	6.261
415.03	6.277
415.38	5.359
415.74	6.109
416.09	5.799
416.45	5.322
416.80	6.181
417.16	5.556
417.51	5.666
417.87	5.334
418.22	6.108
418.58	5.390
418.93	6.112
419.29	5.734
419.64	5.882
420.00	5.104
420.35	6.625
420.71	5.342
421.06	5.003
421.42	5.734
421.77	5.385
422.12	6.607
422.48	5.632
422.83	5.915
423.19	5.729
423.54	6.305
423.90	5.798
424.25	5.867
424.61	5.396
424.96	5.711
425.31	7.219
425.67	5.529
426.02	5.700
426.38	6.257
426.73	5.636
427.09	7.093
427.44	6.226
427.79	5.804
428.15	5.822
428.50	5.955
428.85	5.913
429.21	6.383
429.56	5.972
429.92	6.143
430.27	6.458
430.62	6.497
430.98	6.149
431.33	6.012
431.68	6.082
432.04	6.094
432.39	5.838
432.74	5.993
433.10	6.436
433.45	5.686
433.80	5.687
434.16	6.353
434.51	6.064
434.86	6.189
435.22	6.642
435.57	6.191
435.92	6.622
436.28	6.485
436.63	6.281
436.98	5.851
437.34	6.257
437.69	5.614
438.04	6.134
438.39	6.778
438.75	6.419
439.10	6.765
439.45	6.652
439.81	6.384
440.16	6.327
440.51	7.246
440.86	6.837
441.22	6.699
441.57	6.604
441.92	6.790
442.27	7.121
442.63	7.104
442.98	7.044
443.33	6.996
443.68	7.037
444.03	7.949
444.39	7.490
444.74	7.402
445.09	7.400
445.44	7.165
445.79	7.519
446.15	7.040
446.50	7.442
446.85	8.123
447.20	8.124
447.55	7.584
447.91	7.120
448.26	7.717
448.61	7.970
448.96	8.637
449.31	7.688
449.66	6.863
450.02	8.175
450.37	8.418
450.72	7.481
451.07	7.973
451.42	8.088
451.77	7.393
452.12	7.675
452.47	7.903
452.83	8.727
453.18	7.531
453.53	7.467
453.88	8.724
454.23	7.401
454.58	8.241
454.93	7.100
455.28	8.248
455.63	8.016
455.98	8.827
456.34	8.068
456.69	8.113
457.04	7.742
457.39	8.093
457.74	9.172
458.09	8.622
458.44	8.782
458.79	7.839
459.14	8.652
459.49	8.149
459.84	8.290
460.19	8.162
460.54	8.802
460.89	8.417
461.24	7.701
461.59	8.965
461.94	7.587
462.29	9.351
462.64	8.992
462.99	7.784
463.34	8.890
463.69	8.792
464.04	8.949
464.39	8.576
464.74	9.179
465.09	8.247
465.44	8.959
465.79	9.096
466.14	7.973
466.49	8.368
466.84	8.815
467.19	7.630
467.54	7.873
467.89	8.621
468.24	9.141
468.59	8.107
468.94	7.867
469.29	8.638
469.64	7.947
469.99	7.839
470.34	7.983
470.68	8.407
471.03	8.317
471.38	9.026
471.73	7.607
472.08	7.868
472.43	8.609
472.78	8.438
473.13	8.217
473.48	9.063
473.83	8.822
474.17	8.499
474.52	8.419
474.87	8.970
475.22	9.296
475.57	8.411
475.92	9.308
476.27	8.307
476.61	8.567
476.96	7.716
477.31	9.208
477.66	8.814
478.01	8.083
478.36	8.824
478.70	8.079
479.05	8.231
479.40	8.440
479.75	9.510
480.10	8.100
480.45	8.933
480.79	9.070
481.14	8.134
481.49	8.587
481.84	9.138
482.19	8.516
482.53	9.051
482.88	9.039
483.23	8.493
483.58	8.865
483.92	8.067
484.27	8.002
484.62	8.457
484.97	8.904
485.31	8.201
485.66	8.642
486.01	8.218
486.36	8.648
486.70	8.863
487.05	8.994
487.40	9.380
487.75	9.008
488.09	8.988
488.44	8.446
488.79	8.870
489.13	9.015
489.48	8.155
489.83	8.612
490.17	7.938
490.52	8.415
490.87	9.645
491.22	8.666
491.56	8.874
491.91	8.853
492.26	8.784
492.60	8.833
492.95	8.951
493.30	8.920
493.64	8.760
493.99	7.851
494.34	8.754
494.68	8.480
495.03	8.194
495.37	8.700
495.72	8.617
496.07	8.808
496.41	8.880
496.76	8.674
497.11	8.365
497.45	9.107
497.80	9.196
498.14	8.345
498.49	8.502
498.84	7.815
499.18	8.502
499.53	8.834
499.87	9.055
500.22	8.148
500.56	8.682
500.91	8.421
501.26	8.773
501.60	8.308
501.95	8.901
502.29	8.995
502.64	8.439
502.98	9.275
503.33	8.380
503.67	8.722
504.02	8.713
504.36	9.607
504.71	8.636
505.06	8.504
505.40	8.867
505.75	8.607
506.09	8.748
506.44	8.821
506.78	9.495
507.13	9.175
507.47	8.811
507.82	8.759
508.16	8.652
508.51	8.486
508.85	8.266
509.19	9.190
509.54	9.462
509.88	9.082
510.23	9.325
510.57	9.135
510.92	8.999
511.26	8.562
511.61	8.305
511.95	8.443
512.30	9.207
512.64	8.646
512.98	8.754
513.33	9.073
513.67	8.108
514.02	8.022
514.36	8.542
514.70	8.750
515.05	8.603
515.39	8.504
515.74	8.802
516.08	8.294
516.42	8.791
516.77	9.411
517.11	8.613
517.46	8.643
517.80	8.979
518.14	9.249
518.49	8.785
518.83	8.834
519.17	8.508
519.52	9.382
519.86	8.870
520.20	8.733
520.55	9.091
520.89	8.333
521.23	9.269
521.58	8.644
521.92	8.839
522.26	8.648
522.61	8.681
522.95	8.997
523.29	8.793
523.64	8.688
523.98	9.184
524.32	8.768
524.66	8.480
525.01	8.324
525.35	8.501
525.69	8.353
526.04	9.070
526.38	7.701
526.72	8.824
527.06	8.211
527.41	8.980
527.75	8.789
528.09	8.560
528.43	8.703
528.78	8.150
529.12	8.429
529.46	8.263
529.80	8.009
530.15	7.594
530.49	8.363
530.83	8.619
531.17	8.184
531.51	8.363
531.86	8.474
532.20	8.476
532.54	7.720
532.88	8.848
533.22	8.544
533.57	8.713
533.91	8.642
534.25	8.310
534.59	8.563
534.93	8.602
535.27	7.944
535.62	8.584
535.96	7.786
536.30	7.932
536.64	8.889
536.98	8.795
537.32	8.457
537.66	8.172
538.01	8.338
538.35	7.125
538.69	8.233
539.03	8.461
539.37	8.304
539.71	8.769
540.05	8.094
540.39	7.274
540.73	8.500
541.07	8.216
541.42	8.210
541.76	7.948
542.10	7.419
542.44	7.856
542.78	8.455
543.12	8.522
543.46	8.059
543.80	8.393
544.14	8.019
544.48	8.629
544.82	8.378
545.16	8.348
545.50	7.669
545.84	8.328
546.18	8.889
546.52	7.516
546.86	7.358
547.20	8.142
547.54	7.990
547.88	7.896
548.22	8.304
548.56	8.016
548.90	8.358
549.24	8.511
549.58	7.886
549.92	8.546
550.26	8.155
550.60	8.041
550.94	8.279
551.28	8.251
551.62	8.693
551.96	8.285
552.30	9.242
552.64	8.650
552.98	8.172
553.32	9.132
553.66	7.203
554.00	8.134
554.34	8.237
554.68	7.876
555.02	7.819
555.36	8.810
555.69	7.431
556.03	7.692
556.37	8.323
556.71	8.307
557.05	8.051
557.39	8.361
557.73	8.587
558.07	7.616
558.41	8.704
558.75	8.249
559.08	8.907
559.42	7.476
559.76	9.430
560.10	7.167
560.44	8.509
560.78	8.375
561.12	8.128
561.45	8.029
561.79	8.852
562.13	8.071
562.47	8.138
562.81	7.532
563.15	8.081
563.48	8.950
563.82	8.585
564.16	7.147
564.50	7.151
564.84	8.083
565.17	8.000
565.51	7.480
565.85	7.898
566.19	8.007
566.52	8.133
566.86	7.866
567.20	7.885
567.54	7.913
567.88	8.410
568.21	8.498
568.55	7.626
568.89	7.444
569.23	8.112
569.56	7.698
569.90	8.304
570.24	8.465
570.57	7.761
570.91	7.287
571.25	8.042
571.59	7.960
571.92	7.862
572.26	7.861
572.60	7.835
572.93	7.821
573.27	7.811
573.61	8.179
573.95	7.963
574.28	7.732
574.62	7.640
574.96	7.653
575.29	7.821
575.63	7.692
575.97	7.928
576.30	7.747
576.64	7.683
576.98	7.882
577.31	7.534
577.65	7.883
577.98	7.756
578.32	7.391
578.66	7.633
578.99	7.864
579.33	7.737
579.67	7.638
580.00	7.800
580.34	7.766
580.67	7.613
581.01	7.399
581.35	7.734
581.68	7.933
582.02	7.899
582.35	8.040
582.69	8.262
583.02	7.886
583.36	8.051
583.70	8.112
584.03	7.847
584.37	8.023
584.70	7.897
585.04	8.254
585.37	7.998
585.71	7.961
586.04	8.014
586.38	7.939
586.72	7.596
587.05	7.496
587.39	8.227
587.72	8.158
588.06	8.245
588.39	7.966
588.73	7.910
589.06	7.901
589.40	8.021
589.73	8.066
590.07	8.090
590.40	8.418
590.73	8.095
591.07	8.526
591.40	7.815
591.74	8.188
592.07	8.648
592.41	8.044
592.74	8.342
593.08	8.471
593.41	8.399
593.75	8.075
594.08	8.301
594.41	8.045
594.75	7.904
595.08	8.479
595.42	8.117
595.75	7.911
596.09	8.539
596.42	8.563
596.75	8.530
597.09	8.566
597.42	8.423
597.75	8.232
598.09	8.175
598.42	9.168
598.76	7.604
599.09	8.508
599.42	8.113
599.76	8.320
600.09	8.609
600.42	8.842
600.76	8.719
601.09	7.833
601.42	8.479
601.76	8.069
602.09	8.256
602.42	8.397
602.76	8.376
603.09	8.333
603.42	7.767
603.76	8.562
604.09	8.907
604.42	8.294
604.76	7.915
605.09	8.815
605.42	8.333
605.75	8.423
606.09	7.913
606.42	8.428
606.75	7.834
607.09	7.949
607.42	8.632
607.75	8.636
608.08	9.037
608.42	8.585
608.75	8.748
609.08	8.489
609.41	8.028
609.75	7.813
610.08	8.883
610.41	8.114
610.74	8.487
611.07	8.481
611.41	8.520
611.74	8.730
612.07	8.509
612.40	8.080
612.73	9.095
613.07	8.313
613.40	8.277
613.73	8.474
614.06	8.587
614.39	8.358
614.72	8.103
615.06	8.566
615.39	8.265
615.72	8.483
616.05	7.819
616.38	8.678
616.71	8.777
617.05	8.040
617.38	8.507
617.71	8.315
618.04	8.311
618.37	8.415
618.70	8.654
619.03	8.244
619.36	7.830
619.69	8.392
620.03	7.910
620.36	9.141
620.69	7.650
621.02	9.318
621.35	8.491
621.68	8.388
622.01	8.256
622.34	7.462
622.67	8.179
623.00	6.815
623.33	8.759
623.66	7.912
623.99	7.900
624.32	9.032
624.65	7.722
624.99	8.062
625.32	8.687
625.65	8.699
625.98	8.000
626.31	8.505
626.64	8.059
626.97	8.552
627.30	7.669
627.63	7.502
627.96	9.309
628.29	8.405
628.62	8.816
628.95	7.975
629.28	8.496
629.61	8.081
629.94	7.782
630.26	9.153
630.59	8.290
630.92	8.225
631.25	9.392
631.58	7.439
631.91	7.591
632.24	7.781
632.57	8.349
632.90	7.924
633.23	7.857
633.56	8.163
633.89	7.335
634.22	7.796
634.55	7.933
634.88	7.035
635.20	9.903
635.53	6.893
635.86	8.776
636.19	8.271
636.52	8.333
636.85	8.376
637.18	7.588
637.51	7.419
637.83	9.302
638.16	9.101
638.49	7.981
638.82	7.779
639.15	5.613
639.48	8.314
639.81	10.046
640.13	8.834
640.46	6.667
640.79	8.824
641.12	8.447
641.45	6.650
641.77	10.141
642.10	7.612
642.43	9.707
642.76	7.859
643.09	7.808
643.41	6.723
643.74	8.138
644.07	8.828
644.40	6.506
644.73	9.724
645.05	10.279
645.38	8.058
645.71	9.091
646.04	10.043
646.36	9.343
646.69	7.055
647.02	8.869
647.35	8.550
647.67	8.535
648.00	7.803
648.33	7.508
648.66	7.133
648.98	8.571
649.31	8.254
649.64	8.499
649.96	10.080
650.29	6.537
650.62	8.204
650.94	8.408
651.27	6.138
651.60	8.333
651.92	6.687
652.25	9.551
652.58	8.253
652.90	6.831
653.23	9.437
653.56	8.274
653.88	8.848
654.21	8.592
654.54	6.069
654.86	8.074
655.19	6.650
655.52	8.699
655.84	7.690
656.17	9.458
656.49	13.250
656.82	14.652
657.15	11.280
657.47	8.286
657.80	6.361
658.13	4.911
