SpectraSuite Data File
++++++++++++++++++++++++++++++++++++
Date: Thu May 14 16:32:50 PDT 2015
User: schluterlab
Dark Spectrum Present: Yes
Reference Spectrum Present: Yes
Number of Sampled Component Spectra: 1
Spectrometers: USB2E3373
Integration Time (usec): 3000 (USB2E3373)
Spectra Averaged: 3 (USB2E3373)
Boxcar Smoothing: 0 (USB2E3373)
Correct for Electrical Dark: No (USB2E3373)
Strobe/Lamp Enabled: No (USB2E3373)
Correct for Detector Non-linearity: No (USB2E3373)
Correct for Stray Light: No (USB2E3373)
Number of Pixels in Processed Spectrum: 2048
>>>>>Begin Processed Spectral Data<<<<<
178.53	0.000
178.91	14.286
179.29	-1100.000
179.67	-200.000
180.04	157.143
180.42	40.000
180.80	40.000
181.18	0.000
181.56	100.000
181.94	-0.000
182.31	0.000
182.69	400.000
183.07	-150.000
183.45	125.000
183.83	0.000
184.20	100.000
184.58	300.000
184.96	-125.000
185.34	-55.556
185.72	140.000
186.09	111.111
186.47	200.000
186.85	220.000
187.23	-55.556
187.61	-500.000
187.98	-40.000
188.36	150.000
188.74	-125.000
189.12	100.000
189.49	-18.750
189.87	-125.000
190.25	-66.667
190.63	160.000
191.00	-44.444
191.38	0.000
191.76	-325.000
192.14	-100.000
192.51	200.000
192.89	66.667
193.27	0.000
193.65	-71.429
194.02	-700.000
194.40	-28.571
194.78	142.857
195.15	0.000
195.53	45.455
195.91	0.000
196.29	50.000
196.66	23.077
197.04	0.000
197.42	14.286
197.79	-250.000
198.17	25.000
198.55	-85.714
198.92	-11.111
199.30	-87.500
199.68	27.273
200.05	-28.571
200.43	-400.000
200.81	114.286
201.18	0.000
201.56	122.222
201.94	0.000
202.31	200.000
202.69	-111.111
203.07	-200.000
203.44	0.000
203.82	-25.000
204.19	8.333
204.57	50.000
204.95	-62.500
205.32	-600.000
205.70	175.000
206.08	133.333
206.45	0.000
206.83	220.000
207.20	16.667
207.58	-140.000
207.96	-83.333
208.33	200.000
208.71	141.667
209.08	216.667
209.46	0.000
209.84	216.667
210.21	-100.000
210.59	200.000
210.96	533.333
211.34	350.000
211.71	112.500
212.09	-300.000
212.46	0.000
212.84	450.000
213.22	-160.000
213.59	125.000
213.97	0.000
214.34	-266.667
214.72	-0.000
215.09	-150.000
215.47	0.000
215.84	14.286
216.22	-0.000
216.59	-100.000
216.97	20.000
217.34	-125.000
217.72	0.000
218.09	-175.000
218.47	-225.000
218.84	0.000
219.22	-20.000
219.59	23.529
219.97	10.000
220.34	550.000
220.72	-55.556
221.09	15.385
221.47	-233.333
221.84	-20.000
222.22	-57.143
222.59	0.000
222.97	-12.500
223.34	-100.000
223.72	500.000
224.09	-150.000
224.46	25.000
224.84	240.000
225.21	-85.714
225.59	-200.000
225.96	-275.000
226.34	15.385
226.71	133.333
227.08	150.000
227.46	6.667
227.83	-200.000
228.21	26.316
228.58	25.000
228.95	450.000
229.33	66.667
229.70	120.000
230.08	47.368
230.45	110.000
230.82	-133.333
231.20	50.000
231.57	50.000
231.95	27.273
232.32	-27.273
232.69	20.000
233.07	225.000
233.44	-35.294
233.81	10.000
234.19	55.556
234.56	27.273
234.93	37.931
235.31	10.526
235.68	11.111
236.05	-50.000
236.43	15.385
236.80	76.000
237.17	7.407
237.55	12.121
237.92	-50.000
238.29	6.452
238.67	0.000
239.04	-5.556
239.41	7.143
239.79	15.217
240.16	-18.519
240.53	-2.174
240.91	-11.765
241.28	-1.639
241.65	2.985
242.02	8.108
242.40	-7.692
242.77	-6.667
243.14	1.220
243.51	-3.947
243.89	5.128
244.26	12.871
244.63	4.902
245.00	0.000
245.38	3.509
245.75	-2.655
246.12	11.905
246.49	-8.527
246.87	6.429
247.24	4.636
247.61	5.263
247.98	-1.342
248.36	-0.617
248.73	-9.202
249.10	4.372
249.47	9.950
249.84	8.377
250.22	2.591
250.59	5.556
250.96	13.636
251.33	-1.531
251.70	5.128
252.08	9.167
252.45	8.197
252.82	4.545
253.19	4.687
253.56	3.422
253.94	1.923
254.31	2.273
254.68	11.189
255.05	4.235
255.42	4.422
255.79	3.560
256.16	4.305
256.54	2.980
256.91	4.590
257.28	4.262
257.65	1.911
258.02	3.835
258.39	3.989
258.76	9.480
259.14	6.897
259.51	5.187
259.88	1.983
260.25	4.722
260.62	4.658
260.99	4.645
261.36	6.702
261.73	3.979
262.10	0.549
262.47	4.021
262.85	7.071
263.22	3.636
263.59	1.579
263.96	5.115
264.33	3.069
264.70	6.173
265.07	8.353
265.44	7.937
265.81	4.630
266.18	5.442
266.55	4.464
266.92	2.733
267.29	7.877
267.66	2.661
268.03	7.205
268.40	4.175
268.77	2.961
269.14	3.084
269.51	3.947
269.88	6.352
270.25	6.640
270.62	5.696
270.99	6.263
271.36	6.931
271.73	4.912
272.10	6.012
272.47	4.810
272.84	5.622
273.21	5.411
273.58	5.847
273.95	4.423
274.32	4.183
274.69	4.642
275.06	5.311
275.43	4.067
275.80	6.349
276.17	5.741
276.54	5.597
276.91	4.114
277.28	5.063
277.65	6.284
278.02	5.882
278.39	5.435
278.76	4.394
279.13	4.787
279.50	6.701
279.87	5.903
280.23	1.937
280.60	5.932
280.97	5.428
281.34	4.584
281.71	7.107
282.08	6.312
282.45	4.746
282.82	5.024
283.19	3.554
283.56	6.230
283.92	7.658
284.29	7.583
284.66	5.747
285.03	3.365
285.40	6.646
285.77	4.025
286.14	5.649
286.51	5.327
286.87	6.319
287.24	6.476
287.61	4.783
287.98	6.647
288.35	6.657
288.72	5.917
289.08	6.735
289.45	6.065
289.82	3.765
290.19	5.603
290.56	7.606
290.93	4.993
291.29	4.132
291.66	6.061
292.03	4.885
292.40	6.667
292.77	6.334
293.13	5.548
293.50	4.862
293.87	5.638
294.24	7.600
294.60	5.563
294.97	5.772
295.34	7.426
295.71	5.927
296.08	5.685
296.44	5.882
296.81	5.359
297.18	4.732
297.55	5.896
297.91	6.287
298.28	4.976
298.65	7.491
299.02	6.375
299.38	6.865
299.75	5.257
300.12	5.787
300.48	6.912
300.85	7.537
301.22	7.271
301.59	6.735
301.95	7.458
302.32	6.889
302.69	7.667
303.05	8.052
303.42	6.541
303.79	6.250
304.15	6.099
304.52	5.708
304.89	6.806
305.25	6.522
305.62	7.001
305.99	8.041
306.35	6.149
306.72	7.239
307.09	7.107
307.45	7.660
307.82	7.366
308.19	7.064
308.55	7.907
308.92	7.303
309.29	7.854
309.65	7.700
310.02	7.129
310.38	7.087
310.75	7.864
311.12	8.437
311.48	7.820
311.85	8.357
312.22	7.590
312.58	8.451
312.95	6.501
313.31	8.672
313.68	7.875
314.05	9.033
314.41	8.470
314.78	8.810
315.14	8.621
315.51	8.495
315.87	9.361
316.24	8.311
316.61	9.236
316.97	7.783
317.34	8.730
317.70	9.432
318.07	8.730
318.43	8.673
318.80	10.117
319.16	9.185
319.53	7.626
319.89	8.940
320.26	10.498
320.62	9.929
320.99	10.157
321.35	9.427
321.72	11.628
322.08	9.558
322.45	11.201
322.81	11.282
323.18	10.442
323.54	11.293
323.91	11.744
324.27	10.327
324.64	12.678
325.00	11.028
325.37	11.712
325.73	12.810
326.10	12.895
326.46	12.785
326.83	13.371
327.19	12.283
327.56	12.885
327.92	12.825
328.29	12.742
328.65	13.149
329.01	12.690
329.38	14.743
329.74	14.212
330.11	13.613
330.47	13.142
330.84	14.298
331.20	14.083
331.56	12.825
331.93	14.644
332.29	14.237
332.66	14.618
333.02	12.814
333.38	14.262
333.75	14.057
334.11	14.595
334.48	13.449
334.84	14.868
335.20	13.350
335.57	14.503
335.93	14.215
336.29	13.228
336.66	13.541
337.02	13.712
337.38	13.435
337.75	12.975
338.11	13.541
338.47	13.482
338.84	12.775
339.20	13.227
339.56	14.003
339.93	13.300
340.29	13.688
340.65	12.976
341.02	13.807
341.38	14.390
341.74	13.882
342.11	13.837
342.47	13.423
342.83	13.205
343.20	14.064
343.56	13.633
343.92	13.531
344.28	14.375
344.65	14.031
345.01	13.729
345.37	13.142
345.73	12.549
346.10	13.963
346.46	13.133
346.82	13.333
347.19	14.133
347.55	13.885
347.91	13.373
348.27	14.036
348.63	14.014
349.00	12.826
349.36	14.275
349.72	13.170
350.08	13.819
350.45	12.548
350.81	13.198
351.17	13.459
351.53	13.268
351.89	14.655
352.26	13.060
352.62	13.657
352.98	13.435
353.34	13.069
353.70	13.482
354.07	14.083
354.43	13.364
354.79	12.939
355.15	13.613
355.51	13.962
355.87	12.416
356.24	13.384
356.60	13.230
356.96	13.047
357.32	13.829
357.68	14.129
358.04	13.174
358.40	12.761
358.77	13.596
359.13	13.220
359.49	12.639
359.85	13.343
360.21	13.773
360.57	12.635
360.93	13.399
361.29	13.825
361.66	14.120
362.02	14.614
362.38	13.352
362.74	13.617
363.10	13.686
363.46	13.435
363.82	12.003
364.18	13.512
364.54	13.140
364.90	13.712
365.26	12.828
365.62	14.400
365.98	14.295
366.35	12.819
366.71	13.537
367.07	13.870
367.43	13.198
367.79	14.997
368.15	14.448
368.51	14.817
368.87	13.390
369.23	13.467
369.59	14.344
369.95	13.861
370.31	14.045
370.67	13.480
371.03	13.643
371.39	13.835
371.75	14.168
372.11	14.024
372.47	14.286
372.83	14.529
373.19	14.610
373.55	14.295
373.91	13.838
374.27	13.842
374.63	14.411
374.99	14.854
375.35	14.805
375.71	13.871
376.07	14.074
376.42	14.484
376.78	14.854
377.14	14.785
377.50	14.168
377.86	15.640
378.22	14.731
378.58	14.388
378.94	14.730
379.30	14.060
379.66	14.932
380.02	15.407
380.38	14.286
380.74	15.324
381.09	13.937
381.45	14.886
381.81	15.281
382.17	14.964
382.53	15.029
382.89	15.463
383.25	14.713
383.61	14.468
383.97	14.900
384.32	15.610
384.68	13.805
385.04	15.616
385.40	15.439
385.76	15.651
386.12	15.739
386.48	15.176
386.83	14.541
387.19	15.353
387.55	14.495
387.91	15.126
388.27	15.473
388.62	15.349
388.98	14.777
389.34	16.087
389.70	15.398
390.06	15.631
390.42	15.301
390.77	15.653
391.13	15.023
391.49	15.036
391.85	14.848
392.20	15.125
392.56	16.243
392.92	15.812
393.28	15.533
393.64	14.972
393.99	16.328
394.35	15.596
394.71	15.689
395.07	15.329
395.42	15.306
395.78	16.271
396.14	15.389
396.50	15.677
396.85	15.683
397.21	15.325
397.57	15.371
397.92	15.178
398.28	14.992
398.64	15.332
399.00	15.131
399.35	15.497
399.71	14.783
400.07	15.609
400.42	15.134
400.78	14.641
401.14	16.164
401.49	15.577
401.85	16.105
402.21	16.338
402.57	16.080
402.92	15.189
403.28	15.925
403.63	15.036
403.99	15.143
404.35	15.691
404.70	15.297
405.06	15.109
405.42	15.398
405.77	16.412
406.13	15.343
406.49	16.047
406.84	15.402
407.20	15.763
407.55	15.324
407.91	14.833
408.27	16.313
408.62	16.289
408.98	15.438
409.34	15.132
409.69	15.451
410.05	15.182
410.40	15.603
410.76	14.975
411.11	15.488
411.47	15.848
411.83	15.168
412.18	16.265
412.54	15.590
412.89	15.250
413.25	16.535
413.60	15.221
413.96	14.977
414.31	15.581
414.67	16.339
415.03	16.369
415.38	16.709
415.74	15.944
416.09	16.471
416.45	16.093
416.80	14.749
417.16	15.326
417.51	15.940
417.87	15.389
418.22	17.006
418.58	15.428
418.93	17.171
419.29	16.153
419.64	16.086
420.00	14.481
420.35	16.283
420.71	15.681
421.06	15.699
421.42	15.883
421.77	15.563
422.12	16.068
422.48	15.668
422.83	16.375
423.19	15.703
423.54	15.487
423.90	16.234
424.25	16.053
424.61	15.844
424.96	15.321
425.31	16.083
425.67	15.513
426.02	15.274
426.38	15.614
426.73	15.123
427.09	16.667
427.44	15.620
427.79	16.086
428.15	14.840
428.50	15.618
428.85	14.983
429.21	16.649
429.56	15.202
429.92	15.774
430.27	14.699
430.62	16.072
430.98	15.642
431.33	15.836
431.68	15.709
432.04	16.201
432.39	15.694
432.74	15.354
433.10	15.738
433.45	16.221
433.80	15.987
434.16	16.116
434.51	16.650
434.86	15.689
435.22	16.153
435.57	15.861
435.92	16.027
436.28	16.155
436.63	15.674
436.98	16.586
437.34	15.445
437.69	16.070
438.04	16.129
438.39	15.853
438.75	15.274
439.10	16.068
439.45	15.316
439.81	15.141
440.16	16.139
440.51	16.499
440.86	15.509
441.22	15.220
441.57	16.457
441.92	15.470
442.27	15.909
442.63	16.145
442.98	16.329
443.33	15.939
443.68	16.898
444.03	16.040
444.39	16.227
444.74	15.926
445.09	15.966
445.44	15.701
445.79	15.948
446.15	16.290
446.50	15.194
446.85	15.905
447.20	16.103
447.55	16.318
447.91	16.230
448.26	16.543
448.61	16.259
448.96	15.987
449.31	16.225
449.66	15.305
450.02	16.086
450.37	16.303
450.72	15.447
451.07	16.287
451.42	14.731
451.77	15.898
452.12	16.366
452.47	16.280
452.83	16.047
453.18	15.995
453.53	16.198
453.88	17.118
454.23	16.384
454.58	16.019
454.93	16.080
455.28	16.436
455.63	15.975
455.98	15.642
456.34	16.137
456.69	15.873
457.04	15.898
457.39	16.408
457.74	16.275
458.09	14.992
458.44	16.218
458.79	15.884
459.14	15.627
459.49	15.450
459.84	16.055
460.19	15.713
460.54	16.014
460.89	15.723
461.24	15.402
461.59	16.989
461.94	15.516
462.29	16.069
462.64	15.510
462.99	16.510
463.34	16.483
463.69	16.413
464.04	16.064
464.39	16.592
464.74	16.249
465.09	16.263
465.44	15.880
465.79	16.341
466.14	15.998
466.49	15.684
466.84	16.088
467.19	15.896
467.54	15.100
467.89	15.575
468.24	15.512
468.59	14.765
468.94	15.618
469.29	14.697
469.64	15.766
469.99	15.870
470.34	16.151
470.68	16.678
471.03	16.372
471.38	16.547
471.73	15.735
472.08	16.497
472.43	15.713
472.78	16.247
473.13	15.866
473.48	16.193
473.83	16.425
474.17	15.299
474.52	15.574
474.87	16.279
475.22	16.451
475.57	16.251
475.92	16.277
476.27	15.548
476.61	15.940
476.96	15.693
477.31	16.386
477.66	16.055
478.01	15.963
478.36	16.152
478.70	16.108
479.05	16.002
479.40	16.436
479.75	16.763
480.10	15.632
480.45	16.089
480.79	16.236
481.14	16.085
481.49	15.357
481.84	16.144
482.19	15.957
482.53	15.916
482.88	16.438
483.23	15.963
483.58	16.114
483.92	16.179
484.27	15.538
484.62	15.759
484.97	15.980
485.31	15.136
485.66	14.745
486.01	14.238
486.36	14.144
486.70	15.045
487.05	15.967
487.40	16.090
487.75	16.310
488.09	16.624
488.44	15.845
488.79	16.324
489.13	16.329
489.48	15.379
489.83	15.614
490.17	15.350
490.52	15.928
490.87	15.905
491.22	15.425
491.56	16.340
491.91	16.005
492.26	15.837
492.60	16.135
492.95	15.928
493.30	15.733
493.64	15.681
493.99	15.570
494.34	15.854
494.68	15.675
495.03	15.551
495.37	15.091
495.72	16.599
496.07	16.696
496.41	15.616
496.76	16.138
497.11	15.414
497.45	15.451
497.80	16.259
498.14	15.420
498.49	16.039
498.84	16.042
499.18	15.250
499.53	15.830
499.87	15.033
500.22	14.515
500.56	15.924
500.91	15.149
501.26	16.136
501.60	14.980
501.95	16.109
502.29	15.358
502.64	16.353
502.98	15.574
503.33	15.421
503.67	15.133
504.02	15.499
504.36	15.773
504.71	15.985
505.06	16.644
505.40	16.682
505.75	16.075
506.09	16.160
506.44	15.877
506.78	16.284
507.13	16.644
507.47	16.106
507.82	16.098
508.16	15.822
508.51	15.846
508.85	15.966
509.19	16.390
509.54	15.562
509.88	16.367
510.23	16.416
510.57	17.061
510.92	16.449
511.26	15.921
511.61	15.500
511.95	16.398
512.30	16.839
512.64	15.842
512.98	17.109
513.33	16.583
513.67	16.777
514.02	16.914
514.36	16.931
514.70	16.458
515.05	17.310
515.39	16.798
515.74	17.444
516.08	16.957
516.42	17.111
516.77	17.035
517.11	16.658
517.46	16.967
517.80	17.050
518.14	17.628
518.49	17.245
518.83	17.563
519.17	16.586
519.52	17.400
519.86	16.737
520.20	17.039
520.55	16.977
520.89	16.667
521.23	16.750
521.58	17.062
521.92	17.054
522.26	17.812
522.61	17.419
522.95	18.051
523.29	17.241
523.64	17.489
523.98	17.741
524.32	17.937
524.66	17.245
525.01	17.157
525.35	17.691
525.69	17.169
526.04	17.049
526.38	17.414
526.72	17.589
527.06	18.299
527.41	17.784
527.75	19.002
528.09	17.532
528.43	17.052
528.78	16.879
529.12	16.686
529.46	17.257
529.80	17.677
530.15	17.681
530.49	17.319
530.83	18.005
531.17	18.160
531.51	17.268
531.86	17.668
532.20	18.659
532.54	16.816
532.88	17.939
533.22	17.148
533.57	18.003
533.91	18.013
534.25	17.467
534.59	16.609
534.93	17.035
535.27	17.183
535.62	16.885
535.96	17.141
536.30	17.333
536.64	18.018
536.98	16.913
537.32	17.099
537.66	17.779
538.01	17.704
538.35	17.296
538.69	16.046
539.03	17.351
539.37	17.197
539.71	16.997
540.05	17.266
540.39	17.421
540.73	16.818
541.07	17.781
541.42	16.893
541.76	16.904
542.10	16.586
542.44	16.322
542.78	17.032
543.12	17.044
543.46	17.338
543.80	16.007
544.14	17.594
544.48	16.726
544.82	16.876
545.16	17.591
545.50	16.836
545.84	16.534
546.18	18.580
546.52	17.261
546.86	16.855
547.20	17.239
547.54	17.665
547.88	16.817
548.22	16.316
548.56	16.150
548.90	16.896
549.24	16.717
549.58	17.161
549.92	16.582
550.26	17.217
550.60	16.911
550.94	17.270
551.28	16.304
551.62	17.318
551.96	16.764
552.30	17.463
552.64	16.117
552.98	16.781
553.32	17.106
553.66	17.299
554.00	16.330
554.34	16.924
554.68	16.720
555.02	16.229
555.36	17.423
555.69	15.567
556.03	16.456
556.37	16.521
556.71	16.741
557.05	16.294
557.39	16.257
557.73	17.107
558.07	16.093
558.41	16.346
558.75	16.024
559.08	15.936
559.42	15.981
559.76	16.486
560.10	16.946
560.44	16.359
560.78	16.500
561.12	15.948
561.45	16.727
561.79	16.361
562.13	15.712
562.47	15.043
562.81	16.646
563.15	16.288
563.48	16.656
563.82	15.961
564.16	15.142
564.50	16.389
564.84	15.575
565.17	15.588
565.51	15.478
565.85	15.914
566.19	15.668
566.52	15.799
566.86	16.355
567.20	15.063
567.54	14.976
567.88	16.208
568.21	15.958
568.55	15.156
568.89	15.388
569.23	15.294
569.56	14.615
569.90	14.433
570.24	14.435
570.57	13.951
570.91	13.442
571.25	13.480
571.59	13.777
571.92	13.646
572.26	14.082
572.60	13.650
572.93	14.333
573.27	14.414
573.61	14.082
573.95	14.178
574.28	13.758
574.62	13.574
574.96	13.344
575.29	13.770
575.63	13.306
575.97	13.940
576.30	13.669
576.64	13.529
576.98	13.645
577.31	13.491
577.65	13.042
577.98	12.989
578.32	13.017
578.66	13.004
578.99	13.127
579.33	13.651
579.67	13.554
580.00	13.396
580.34	13.853
580.67	13.217
581.01	13.457
581.35	13.209
581.68	12.955
582.02	12.997
582.35	13.137
582.69	13.274
583.02	13.642
583.36	13.473
583.70	13.383
584.03	13.343
584.37	13.972
584.70	13.399
585.04	13.276
585.37	13.080
585.71	13.096
586.04	13.210
586.38	13.440
586.72	12.986
587.05	13.533
587.39	13.313
587.72	13.086
588.06	13.395
588.39	12.920
588.73	13.466
589.06	13.403
589.40	13.337
589.73	13.882
590.07	13.893
590.40	13.692
590.73	13.362
591.07	13.924
591.40	13.258
591.74	13.712
592.07	14.535
592.41	13.525
592.74	13.241
593.08	13.758
593.41	13.211
593.75	12.989
594.08	13.087
594.41	13.301
594.75	12.919
595.08	13.291
595.42	13.214
595.75	13.303
596.09	13.453
596.42	13.508
596.75	14.203
597.09	13.616
597.42	13.349
597.75	13.485
598.09	13.413
598.42	13.912
598.76	12.839
599.09	12.994
599.42	12.672
599.76	12.710
600.09	12.913
600.42	13.280
600.76	12.847
601.09	12.546
601.42	13.285
601.76	13.207
602.09	12.866
602.42	12.795
602.76	13.284
603.09	13.142
603.42	12.789
603.76	12.861
604.09	12.811
604.42	13.358
604.76	12.785
605.09	13.004
605.42	13.357
605.75	12.423
606.09	12.803
606.42	12.295
606.75	12.294
607.09	12.404
607.42	12.871
607.75	12.818
608.08	13.141
608.42	13.100
608.75	12.852
609.08	12.267
609.41	12.616
609.75	12.991
610.08	13.500
610.41	12.277
610.74	13.025
611.07	13.188
611.41	13.094
611.74	13.764
612.07	13.230
612.40	12.500
612.73	12.958
613.07	13.350
613.40	13.138
613.73	13.288
614.06	13.494
614.39	12.925
614.72	13.197
615.06	12.945
615.39	12.663
615.72	13.033
616.05	12.967
616.38	13.068
616.71	13.480
617.05	12.620
617.38	13.216
617.71	13.661
618.04	13.654
618.37	14.044
618.70	13.575
619.03	13.023
619.36	13.872
619.69	13.965
620.03	13.559
620.36	13.988
620.69	12.832
621.02	13.911
621.35	14.151
621.68	14.751
622.01	14.591
622.34	13.529
622.67	13.746
623.00	13.158
623.33	14.333
623.66	14.332
623.99	13.035
624.32	13.580
624.65	13.256
624.99	13.264
625.32	13.978
625.65	14.228
625.98	13.898
626.31	14.316
626.64	13.553
626.97	14.104
627.30	12.984
627.63	13.578
627.96	14.715
628.29	13.852
628.62	13.854
628.95	13.760
629.28	14.104
629.61	14.899
629.94	13.473
630.26	13.136
630.59	13.472
630.92	14.026
631.25	15.116
631.58	14.878
631.91	14.527
632.24	12.776
632.57	14.231
632.90	14.042
633.23	15.612
633.56	14.694
633.89	14.050
634.22	15.073
634.55	14.823
634.88	15.584
635.20	14.316
635.53	14.463
635.86	16.685
636.19	15.376
636.52	13.397
636.85	13.381
637.18	13.617
637.51	14.946
637.83	15.947
638.16	15.899
638.49	13.498
