SpectraSuite Data File
++++++++++++++++++++++++++++++++++++
Date: Thu May 14 16:37:58 PDT 2015
User: schluterlab
Dark Spectrum Present: Yes
Reference Spectrum Present: Yes
Number of Sampled Component Spectra: 1
Spectrometers: USB2E3373
Integration Time (usec): 3000 (USB2E3373)
Spectra Averaged: 3 (USB2E3373)
Boxcar Smoothing: 0 (USB2E3373)
Correct for Electrical Dark: No (USB2E3373)
Strobe/Lamp Enabled: No (USB2E3373)
Correct for Detector Non-linearity: No (USB2E3373)
Correct for Stray Light: No (USB2E3373)
Number of Pixels in Processed Spectrum: 2048
>>>>>Begin Processed Spectral Data<<<<<
178.53	0.000
178.91	100.000
179.29	-800.000
179.67	200.000
180.04	85.714
180.42	60.000
180.80	240.000
181.18	-1000.000
181.56	100.000
181.94	75.000
182.31	0.000
182.69	233.333
183.07	0.000
183.45	400.000
183.83	-33.333
184.20	-33.333
184.58	800.000
184.96	-250.000
185.34	-55.556
185.72	20.000
186.09	177.778
186.47	350.000
186.85	240.000
187.23	-88.889
187.61	-100.000
187.98	-120.000
188.36	125.000
188.74	50.000
189.12	166.667
189.49	25.000
189.87	-25.000
190.25	33.333
190.63	-60.000
191.00	-144.444
191.38	0.000
191.76	-475.000
192.14	-83.333
192.51	-100.000
192.89	166.667
193.27	0.000
193.65	-100.000
194.02	-1300.000
194.40	0.000
194.78	14.286
195.15	0.000
195.53	18.182
195.91	0.000
196.29	-150.000
196.66	-30.769
197.04	-800.000
197.42	-128.571
197.79	-400.000
198.17	-62.500
198.55	-28.571
198.92	0.000
199.30	-75.000
199.68	36.364
200.05	78.571
200.43	-250.000
200.81	157.143
201.18	0.000
201.56	133.333
201.94	0.000
202.31	366.667
202.69	-100.000
203.07	200.000
203.44	-44.444
203.82	-225.000
204.19	-50.000
204.57	16.667
204.95	12.500
205.32	-200.000
205.70	100.000
206.08	83.333
206.45	-50.000
206.83	260.000
207.20	16.667
207.58	-240.000
207.96	-166.667
208.33	150.000
208.71	58.333
209.08	16.667
209.46	0.000
209.84	166.667
210.21	200.000
210.59	350.000
210.96	266.667
211.34	-50.000
211.71	-112.500
212.09	100.000
212.46	0.000
212.84	950.000
213.22	-300.000
213.59	-200.000
213.97	50.000
214.34	-300.000
214.72	66.667
215.09	-125.000
215.47	0.000
215.84	57.143
216.22	350.000
216.59	-100.000
216.97	-80.000
217.34	-25.000
217.72	-62.500
218.09	-100.000
218.47	-150.000
218.84	0.000
219.22	80.000
219.59	29.412
219.97	5.000
220.34	-100.000
220.72	0.000
221.09	61.538
221.47	133.333
221.84	10.000
222.22	-71.429
222.59	0.000
222.97	37.500
223.34	-360.000
223.72	-200.000
224.09	-150.000
224.46	-325.000
224.84	-120.000
225.21	-42.857
225.59	-150.000
225.96	-225.000
226.34	7.692
226.71	266.667
227.08	-150.000
227.46	6.667
227.83	50.000
228.21	-15.789
228.58	75.000
228.95	200.000
229.33	66.667
229.70	0.000
230.08	26.316
230.45	120.000
230.82	133.333
231.20	-50.000
231.57	0.000
231.95	-118.182
232.32	36.364
232.69	30.000
233.07	-25.000
233.44	-17.647
233.81	30.000
234.19	0.000
234.56	-63.636
234.93	31.034
235.31	68.421
235.68	5.556
236.05	-45.000
236.43	57.692
236.80	40.000
237.17	22.222
237.55	3.030
237.92	-150.000
238.29	22.581
238.67	11.364
239.04	-8.333
239.41	9.524
239.79	0.000
240.16	9.259
240.53	2.174
240.91	-15.686
241.28	4.918
241.65	17.910
242.02	24.324
242.40	-3.077
242.77	0.000
243.14	7.317
243.51	-11.842
243.89	-10.256
244.26	5.941
244.63	13.725
245.00	10.280
245.38	4.386
245.75	-3.540
246.12	8.730
246.49	8.527
246.87	10.000
247.24	9.934
247.61	11.842
247.98	8.054
248.36	7.407
248.73	3.681
249.10	9.836
249.47	16.418
249.84	11.518
250.22	11.399
250.59	11.667
250.96	10.000
251.33	4.082
251.70	12.393
252.08	11.250
252.45	10.656
252.82	8.678
253.19	8.984
253.56	12.928
253.94	6.154
254.31	9.091
254.68	13.986
255.05	16.287
255.42	12.925
255.79	8.414
256.16	11.258
256.54	8.940
256.91	10.492
257.28	9.508
257.65	5.732
258.02	8.850
258.39	8.547
258.76	14.679
259.14	16.379
259.51	8.934
259.88	10.198
260.25	11.667
260.62	12.329
260.99	15.574
261.36	15.013
261.73	14.854
262.10	11.813
262.47	13.941
262.85	14.899
263.22	10.390
263.59	10.789
263.96	13.043
264.33	12.020
264.70	12.346
265.07	11.456
265.44	16.553
265.81	13.194
266.18	14.059
266.55	10.045
266.92	11.162
267.29	10.722
267.66	9.313
268.03	12.664
268.40	11.482
268.77	10.023
269.14	10.352
269.51	12.500
269.88	12.705
270.25	12.877
270.62	12.025
270.99	12.525
271.36	12.871
271.73	11.002
272.10	13.026
272.47	12.625
272.84	11.647
273.21	10.621
273.58	11.694
273.95	10.962
274.32	11.977
274.69	10.445
275.06	11.905
275.43	11.645
275.80	12.698
276.17	10.741
276.54	10.261
276.91	11.091
277.28	11.573
277.65	12.388
278.02	11.765
278.39	12.681
278.76	10.545
279.13	13.830
279.50	12.715
279.87	11.091
280.23	10.739
280.60	12.542
280.97	11.678
281.34	10.187
281.71	12.521
282.08	12.126
282.45	11.129
282.82	9.576
283.19	8.562
283.56	9.836
283.92	12.312
284.29	14.376
284.66	13.465
285.03	9.455
285.40	12.519
285.77	11.610
286.14	11.908
286.51	10.959
286.87	11.216
287.24	11.446
287.61	10.912
287.98	9.819
288.35	11.243
288.72	11.982
289.08	12.006
289.45	10.947
289.82	10.843
290.19	10.201
290.56	10.563
290.93	9.130
291.29	11.570
291.66	9.917
292.03	9.634
292.40	9.524
292.77	10.108
293.13	9.472
293.50	9.593
293.87	10.067
294.24	11.467
294.60	10.999
294.97	8.456
295.34	10.499
295.71	9.836
296.08	8.269
296.44	8.088
296.81	9.866
297.18	10.710
297.55	9.198
297.91	9.846
298.28	9.005
298.65	9.750
299.02	8.619
299.38	9.840
299.75	9.112
300.12	8.565
300.48	8.295
300.85	9.336
301.22	9.396
301.59	8.676
301.95	8.475
302.32	9.778
302.69	7.558
303.05	8.923
303.42	8.315
303.79	8.542
304.15	8.938
304.52	8.351
304.89	9.529
305.25	9.006
305.62	8.359
305.99	9.588
306.35	8.367
306.72	9.824
307.09	8.426
307.45	7.971
307.82	8.779
308.19	7.871
308.55	8.197
308.92	9.056
309.29	8.716
309.65	7.407
310.02	7.723
310.38	8.465
310.75	9.806
311.12	8.245
311.48	7.234
311.85	8.072
312.22	8.918
312.58	8.357
312.95	8.222
313.31	8.672
313.68	8.791
314.05	9.304
314.41	8.925
314.78	8.629
315.14	9.165
315.51	8.403
315.87	9.811
316.24	10.046
316.61	8.348
316.97	7.964
317.34	7.319
317.70	7.773
318.07	8.201
318.43	8.588
318.80	9.281
319.16	7.983
319.53	8.141
319.89	8.589
320.26	8.808
320.62	8.422
320.99	8.957
321.35	8.503
321.72	9.302
322.08	8.386
322.45	8.311
322.81	8.032
323.18	8.319
323.54	8.276
323.91	8.719
324.27	8.950
324.64	9.236
325.00	8.043
325.37	7.781
325.73	8.760
326.10	8.354
326.46	8.795
326.83	8.647
327.19	8.661
327.56	8.933
327.92	8.025
328.29	8.145
328.65	6.868
329.01	8.460
329.38	8.762
329.74	9.161
330.11	8.904
330.47	9.099
330.84	8.699
331.20	8.583
331.56	9.359
331.93	8.870
332.29	8.983
332.66	8.389
333.02	8.040
333.38	8.221
333.75	8.670
334.11	8.590
334.48	8.333
334.84	8.666
335.20	8.060
335.57	8.685
335.93	8.760
336.29	7.654
336.66	7.990
337.02	9.950
337.38	8.759
337.75	8.347
338.11	7.990
338.47	8.685
338.84	8.629
339.20	7.666
339.56	8.814
339.93	8.374
340.29	8.132
340.65	8.191
341.02	9.577
341.38	9.378
341.74	8.152
342.11	7.965
342.47	7.466
342.83	7.890
343.20	8.095
343.56	8.661
343.92	8.167
344.28	7.578
344.65	9.225
345.01	8.268
345.37	9.331
345.73	7.327
346.10	8.346
346.46	7.595
346.82	9.139
347.19	8.785
347.55	8.574
347.91	7.875
348.27	7.739
348.63	8.149
349.00	7.457
349.36	9.442
349.72	7.589
350.08	8.692
350.45	7.529
350.81	8.069
351.17	9.098
351.53	8.112
351.89	7.973
352.26	7.612
352.62	8.209
352.98	7.557
353.34	7.767
353.70	8.398
354.07	8.793
354.43	7.973
354.79	8.153
355.15	7.653
355.51	8.553
355.87	8.676
356.24	7.224
356.60	8.130
356.96	8.302
357.32	7.807
357.68	7.613
358.04	8.159
358.40	7.761
358.77	7.822
359.13	7.312
359.49	6.171
359.85	7.397
360.21	7.389
360.57	7.107
360.93	6.629
361.29	8.281
361.66	7.241
362.02	7.864
362.38	7.309
362.74	7.751
363.10	8.322
363.46	7.479
363.82	6.889
364.18	7.178
364.54	6.985
364.90	7.559
365.26	6.690
365.62	8.200
365.98	7.488
366.35	7.651
366.71	7.891
367.07	7.104
367.43	7.945
367.79	7.565
368.15	7.692
368.51	7.442
368.87	7.838
369.23	7.200
369.59	6.967
369.95	7.302
370.31	7.765
370.67	7.565
371.03	6.787
371.39	7.320
371.75	7.909
372.11	6.640
372.47	7.786
372.83	8.442
373.19	7.738
373.55	7.995
373.91	7.021
374.27	6.727
374.63	7.104
374.99	6.565
375.35	7.208
375.71	7.484
376.07	8.005
376.42	7.116
376.78	8.266
377.14	7.735
377.50	7.021
377.86	8.374
378.22	7.784
378.58	7.491
378.94	7.277
379.30	6.737
379.66	6.996
380.02	7.155
380.38	7.661
380.74	7.718
381.09	7.085
381.45	7.841
381.81	7.436
382.17	7.660
382.53	6.901
382.89	7.957
383.25	7.151
383.61	6.887
383.97	6.537
384.32	7.057
384.68	6.729
385.04	7.230
385.40	7.543
385.76	8.089
386.12	7.181
386.48	7.353
386.83	7.032
387.19	6.547
387.55	6.690
387.91	7.249
388.27	7.159
388.62	7.503
388.98	6.261
389.34	7.248
389.70	7.147
390.06	7.756
390.42	7.349
390.77	6.683
391.13	7.394
391.49	7.609
391.85	6.485
392.20	6.999
392.56	7.561
392.92	7.688
393.28	7.242
393.64	6.872
393.99	8.135
394.35	7.535
394.71	7.485
395.07	7.186
395.42	7.139
395.78	7.678
396.14	6.536
396.50	6.770
396.85	6.738
397.21	6.864
397.57	6.890
397.92	7.331
398.28	6.138
398.64	6.636
399.00	7.016
399.35	6.230
399.71	7.283
400.07	6.738
400.42	7.334
400.78	6.597
401.14	6.773
401.49	7.391
401.85	7.035
402.21	7.995
402.57	7.570
402.92	7.388
403.28	7.084
403.63	6.921
403.99	7.423
404.35	6.879
404.70	7.592
405.06	6.739
405.42	7.143
405.77	7.361
406.13	7.726
406.49	6.700
406.84	6.925
407.20	6.931
407.55	6.723
407.91	7.731
408.27	6.949
408.62	7.155
408.98	7.313
409.34	5.806
409.69	6.489
410.05	7.386
410.40	6.961
410.76	6.786
411.11	6.955
411.47	7.740
411.83	7.584
412.18	6.988
412.54	6.935
412.89	7.858
413.25	7.280
413.60	6.950
413.96	7.284
414.31	7.195
414.67	7.454
415.03	6.154
415.38	6.557
415.74	7.147
416.09	7.156
416.45	6.700
416.80	6.977
417.16	6.513
417.51	7.098
417.87	6.254
418.22	7.784
418.58	7.187
418.93	7.683
419.29	7.028
419.64	6.483
420.00	6.647
420.35	7.075
420.71	7.007
421.06	6.728
421.42	7.741
421.77	7.001
422.12	7.452
422.48	7.015
422.83	7.010
423.19	7.162
423.54	7.301
423.90	7.399
424.25	8.160
424.61	6.028
424.96	7.359
425.31	7.749
425.67	7.032
426.02	7.416
426.38	6.487
426.73	6.808
427.09	7.958
427.44	6.663
427.79	7.186
428.15	6.792
428.50	6.685
428.85	7.061
429.21	7.340
429.56	6.910
429.92	7.273
430.27	7.181
430.62	7.084
430.98	6.985
431.33	7.380
431.68	7.232
432.04	7.009
432.39	6.695
432.74	6.735
433.10	6.490
433.45	7.191
433.80	7.082
434.16	6.870
434.51	6.578
434.86	7.112
435.22	7.598
435.57	7.488
435.92	7.012
436.28	6.997
436.63	7.100
436.98	7.354
437.34	7.666
437.69	6.990
438.04	7.298
438.39	7.410
438.75	6.364
439.10	8.087
439.45	7.993
439.81	6.328
440.16	7.453
440.51	7.525
440.86	6.782
441.22	7.449
441.57	7.652
441.92	6.693
442.27	7.525
442.63	7.203
442.98	7.204
443.33	7.312
443.68	7.185
444.03	7.573
444.39	7.120
444.74	8.218
445.09	7.400
445.44	7.218
445.79	7.998
446.15	7.503
446.50	7.752
446.85	7.685
447.20	7.737
447.55	7.113
447.91	7.225
448.26	6.660
448.61	7.439
448.96	7.886
449.31	7.317
449.66	7.244
450.02	7.806
450.37	7.032
450.72	7.374
451.07	6.834
451.42	6.875
451.77	7.393
452.12	7.506
452.47	6.714
452.83	7.770
453.18	6.830
453.53	6.663
453.88	7.454
454.23	7.514
454.58	7.313
454.93	6.614
455.28	7.164
455.63	7.277
455.98	7.598
456.34	7.185
456.69	7.231
457.04	7.801
457.39	7.483
457.74	8.166
458.09	7.249
458.44	7.328
458.79	6.808
459.14	7.079
459.49	7.583
459.84	7.135
460.19	7.052
460.54	7.382
460.89	7.305
461.24	7.299
461.59	7.139
461.94	7.188
462.29	7.671
462.64	7.483
462.99	7.219
463.34	7.917
463.69	7.562
464.04	7.838
464.39	7.455
464.74	7.754
465.09	7.093
465.44	7.940
465.79	7.351
466.14	6.983
466.49	7.737
466.84	7.163
467.19	7.225
467.54	6.933
467.89	7.299
468.24	7.701
468.59	6.717
468.94	7.226
469.29	7.019
469.64	6.675
469.99	7.521
470.34	7.735
470.68	7.861
471.03	7.466
471.38	7.325
471.73	6.762
472.08	6.980
472.43	8.188
472.78	7.494
473.13	7.016
473.48	7.251
473.83	8.241
474.17	7.913
474.52	6.975
474.87	7.530
475.22	8.225
475.57	7.217
475.92	7.068
476.27	6.922
476.61	7.477
476.96	6.778
477.31	7.723
477.66	8.132
478.01	7.422
478.36	7.577
478.70	7.537
479.05	7.362
479.40	7.947
479.75	8.165
480.10	7.437
480.45	7.384
480.79	7.619
481.14	7.123
481.49	7.542
481.84	7.311
482.19	7.613
482.53	7.346
482.88	7.754
483.23	6.803
483.58	7.249
483.92	6.915
484.27	7.197
484.62	7.715
484.97	7.582
485.31	7.427
485.66	6.940
486.01	7.202
486.36	7.393
486.70	7.563
487.05	7.587
487.40	7.616
487.75	7.913
488.09	7.241
488.44	7.367
488.79	7.723
489.13	7.639
489.48	7.029
489.83	7.364
490.17	6.845
490.52	8.005
490.87	7.530
491.22	7.886
491.56	7.679
491.91	7.763
492.26	7.226
492.60	8.002
492.95	6.670
493.30	7.396
493.64	7.665
493.99	7.544
494.34	7.230
494.68	7.623
495.03	7.753
495.37	7.812
495.72	7.075
496.07	8.370
496.41	7.722
496.76	7.840
497.11	7.686
497.45	7.380
497.80	7.419
498.14	7.528
498.49	7.675
498.84	7.633
499.18	7.467
499.53	8.386
499.87	7.736
500.22	6.456
500.56	7.557
500.91	7.780
501.26	7.727
501.60	7.380
501.95	7.903
502.29	8.074
502.64	7.390
502.98	7.981
503.33	7.171
503.67	7.196
504.02	7.005
504.36	7.596
504.71	7.671
505.06	8.095
505.40	7.313
505.75	7.468
506.09	7.459
506.44	8.032
506.78	7.385
507.13	7.699
507.47	7.769
507.82	7.812
508.16	7.648
508.51	6.939
508.85	7.936
509.19	7.627
509.54	8.069
509.88	7.674
510.23	8.451
510.57	9.038
510.92	7.837
511.26	7.600
511.61	7.774
511.95	7.711
512.30	7.976
512.64	7.696
512.98	7.654
513.33	8.065
513.67	8.261
514.02	7.920
514.36	7.724
514.70	7.604
515.05	8.029
515.39	8.189
515.74	8.378
516.08	8.452
516.42	8.425
516.77	8.044
517.11	8.303
517.46	8.271
517.80	7.910
518.14	8.651
518.49	8.080
518.83	8.409
519.17	7.970
519.52	8.333
519.86	8.237
520.20	8.892
520.55	8.379
520.89	8.390
521.23	7.761
521.58	7.514
521.92	7.762
522.26	7.961
522.61	7.697
522.95	7.497
523.29	7.644
523.64	8.800
523.98	8.899
524.32	8.768
524.66	8.139
525.01	7.871
525.35	7.582
525.69	7.831
526.04	7.979
526.38	8.793
526.72	8.651
527.06	7.566
527.41	8.338
527.75	8.135
528.09	8.678
528.43	8.171
528.78	7.630
529.12	7.167
529.46	7.813
529.80	7.780
530.15	8.174
530.49	7.651
530.83	8.146
531.17	7.766
531.51	8.183
531.86	8.534
532.20	8.476
532.54	8.318
532.88	7.758
533.22	8.309
533.57	8.482
533.91	8.418
534.25	8.027
534.59	7.529
534.93	7.980
535.27	8.732
535.62	9.039
535.96	7.554
536.30	7.756
536.64	9.189
536.98	8.795
537.32	7.840
537.66	8.110
538.01	7.855
538.35	8.222
538.69	7.993
539.03	8.522
539.37	8.598
539.71	8.168
540.05	8.453
540.39	8.130
540.73	8.804
541.07	7.971
541.42	8.387
541.76	8.600
542.10	8.022
542.44	7.186
542.78	8.455
543.12	8.224
543.46	8.120
543.80	8.573
544.14	8.737
544.48	8.215
544.82	8.378
545.16	8.468
545.50	7.729
545.84	8.022
546.18	9.321
546.52	8.089
546.86	8.050
547.20	8.079
547.54	7.740
547.88	8.258
548.22	7.895
548.56	8.133
548.90	8.418
549.24	8.511
549.58	8.454
549.92	8.482
550.26	8.608
550.60	8.870
550.94	8.668
551.28	8.383
551.62	8.962
551.96	8.414
552.30	9.242
552.64	8.650
552.98	8.297
553.32	7.717
553.66	7.653
554.00	8.449
554.34	8.559
554.68	7.682
555.02	8.476
555.36	8.481
555.69	7.431
556.03	8.071
556.37	9.199
556.71	8.180
557.05	8.115
557.39	7.830
557.73	7.728
558.07	8.278
558.41	8.571
558.75	8.654
559.08	7.168
559.42	8.368
559.76	9.091
560.10	9.042
560.44	7.982
560.78	8.625
561.12	8.313
561.45	8.637
561.79	8.303
562.13	7.887
562.47	8.015
562.81	8.354
563.15	8.586
563.48	7.769
563.82	8.162
564.16	7.511
564.50	7.688
564.84	8.437
565.17	8.765
565.51	8.400
565.85	7.957
566.19	8.122
566.52	7.958
566.86	8.149
567.20	7.885
567.54	7.594
567.88	7.849
568.21	8.300
568.55	8.153
568.89	8.715
569.23	8.703
569.56	8.128
569.90	8.054
570.24	7.960
570.57	7.858
570.91	7.808
571.25	7.926
571.59	8.155
571.92	7.569
572.26	7.941
572.60	7.972
572.93	8.210
573.27	8.008
573.61	8.205
573.95	8.060
574.28	8.036
574.62	7.549
574.96	7.631
575.29	8.019
575.63	7.877
575.97	8.000
576.30	7.821
576.64	7.826
576.98	7.677
577.31	7.643
577.65	8.007
577.98	7.888
578.32	7.869
578.66	7.671
578.99	7.680
579.33	7.848
579.67	7.774
580.00	7.710
580.34	7.897
580.67	7.811
581.01	7.810
581.35	7.871
581.68	8.163
582.02	7.915
582.35	8.172
582.69	7.834
583.02	7.868
583.36	8.174
583.70	7.885
584.03	7.751
584.37	8.171
584.70	7.653
585.04	7.742
585.37	7.998
585.71	7.940
586.04	7.926
586.38	8.194
586.72	7.872
587.05	7.419
587.39	7.504
587.72	7.871
588.06	8.100
588.39	8.041
588.73	7.751
589.06	8.014
589.40	7.867
589.73	8.130
590.07	8.156
590.40	8.553
590.73	7.671
591.07	8.228
591.40	7.776
591.74	8.148
592.07	8.810
592.41	8.360
592.74	8.058
593.08	8.153
593.41	8.282
593.75	7.500
594.08	8.119
594.41	8.045
594.75	8.004
595.08	7.806
595.42	8.279
595.75	8.105
596.09	8.506
596.42	8.205
596.75	8.105
597.09	8.121
597.42	8.264
597.75	8.114
598.09	8.214
598.42	8.444
598.76	7.833
599.09	8.081
599.42	7.677
599.76	7.758
600.09	7.941
600.42	8.442
600.76	8.025
601.09	7.733
601.42	7.930
601.76	7.793
602.09	8.041
602.42	7.634
602.76	7.860
603.09	7.856
603.42	7.912
603.76	7.435
604.09	8.588
604.42	8.037
604.76	8.219
605.09	8.815
605.42	7.895
605.75	8.154
606.09	7.913
606.42	7.917
606.75	7.571
607.09	7.373
607.42	7.938
607.75	8.089
608.08	7.695
608.42	8.142
608.75	8.582
609.08	8.022
609.41	7.808
609.75	7.455
610.08	8.487
610.41	7.689
610.74	8.067
611.07	7.815
611.41	8.296
611.74	8.037
612.07	8.649
612.40	7.652
612.73	8.068
613.07	7.922
613.40	8.999
613.73	8.089
614.06	7.949
614.39	8.309
614.72	8.540
615.06	8.277
615.39	7.637
615.72	8.246
616.05	7.819
616.38	8.224
616.71	8.307
617.05	7.614
617.38	8.561
617.71	8.423
618.04	8.095
618.37	8.798
618.70	8.371
619.03	7.885
619.36	8.138
619.69	8.328
620.03	7.910
620.36	7.791
620.69	8.205
621.02	8.858
621.35	7.983
621.68	8.894
622.01	8.043
622.34	8.229
622.67	7.491
623.00	6.815
623.33	7.963
623.66	8.690
623.99	8.097
624.32	9.227
624.65	7.207
624.99	8.127
625.32	8.622
625.65	8.361
625.98	8.203
626.31	7.371
626.64	8.425
626.97	8.027
627.30	7.821
627.63	8.327
627.96	9.760
628.29	8.327
628.62	7.641
628.95	8.238
629.28	8.326
629.61	8.165
629.94	8.033
630.26	7.627
630.59	8.117
630.92	8.052
631.25	7.692
631.58	8.757
631.91	8.154
632.24	8.069
632.57	8.254
632.90	7.723
633.23	6.837
633.56	7.755
633.89	7.955
634.22	8.004
634.55	8.142
634.88	7.468
635.20	9.257
635.53	8.588
635.86	8.884
636.19	9.438
636.52	8.122
636.85	7.967
637.18	7.692
637.51	8.495
637.83	8.195
638.16	8.180
638.49	6.925
638.82	7.103
639.15	7.216
639.48	8.314
639.81	9.353
640.13	8.834
640.46	6.424
640.79	6.618
641.12	8.075
641.45	7.026
641.77	10.655
642.10	7.349
642.43	8.112
642.76	9.350
643.09	9.452
643.41	7.423
643.74	7.034
644.07	9.241
644.40	8.345
644.73	7.257
645.05	7.342
645.38	7.914
645.71	9.384
646.04	10.043
646.36	8.029
646.69	8.589
647.02	8.563
647.35	9.618
647.67	8.052
648.00	7.803
648.33	7.057
648.66	8.702
648.98	9.116
649.31	8.525
649.64	7.703
649.96	7.825
650.29	6.676
650.62	8.769
650.94	8.108
651.27	6.886
651.60	6.725
651.92	6.231
652.25	9.696
652.58	10.041
652.90	5.814
653.23	8.310
653.56	9.272
653.88	11.236
654.21	9.577
654.54	7.659
654.86	8.640
655.19	7.905
655.52	7.342
655.84	7.887
656.17	9.348
656.49	13.131
656.82	14.601
657.15	11.263
657.47	8.693
