SpectraSuite Data File
++++++++++++++++++++++++++++++++++++
Date: Thu May 14 16:27:32 PDT 2015
User: schluterlab
Dark Spectrum Present: Yes
Reference Spectrum Present: Yes
Number of Sampled Component Spectra: 1
Spectrometers: USB2E3373
Integration Time (usec): 3000 (USB2E3373)
Spectra Averaged: 3 (USB2E3373)
Boxcar Smoothing: 0 (USB2E3373)
Correct for Electrical Dark: No (USB2E3373)
Strobe/Lamp Enabled: No (USB2E3373)
Correct for Detector Non-linearity: No (USB2E3373)
Correct for Stray Light: No (USB2E3373)
Number of Pixels in Processed Spectrum: 2048
>>>>>Begin Processed Spectral Data<<<<<
178.53	0.000
178.91	100.000
179.29	-1900.000
179.67	-800.000
180.04	142.857
180.42	-10.000
180.80	140.000
181.18	-200.000
181.56	500.000
181.94	175.000
182.31	-100.000
182.69	-333.333
183.07	250.000
183.45	300.000
183.83	83.333
184.20	0.000
184.58	1000.000
184.96	-250.000
185.34	0.000
185.72	60.000
186.09	177.778
186.47	400.000
186.85	200.000
187.23	-77.778
187.61	-500.000
187.98	120.000
188.36	-0.000
188.74	-50.000
189.12	0.000
189.49	-6.250
189.87	-100.000
190.25	122.222
190.63	-360.000
191.00	-77.778
191.38	0.000
191.76	-275.000
192.14	-100.000
192.51	-50.000
192.89	133.333
193.27	0.000
193.65	-42.857
194.02	-600.000
194.40	42.857
194.78	-71.429
195.15	0.000
195.53	0.000
195.91	0.000
196.29	75.000
196.66	15.385
197.04	-1600.000
197.42	14.286
197.79	-300.000
198.17	50.000
198.55	-28.571
198.92	-22.222
199.30	-87.500
199.68	-27.273
200.05	-14.286
200.43	-300.000
200.81	85.714
201.18	0.000
201.56	177.778
201.94	0.000
202.31	433.333
202.69	-55.556
203.07	-400.000
203.44	55.556
203.82	-125.000
204.19	33.333
204.57	-166.667
204.95	12.500
205.32	-1100.000
205.70	100.000
206.08	-66.667
206.45	116.667
206.83	240.000
207.20	-16.667
207.58	-200.000
207.96	-116.667
208.33	66.667
208.71	50.000
209.08	33.333
209.46	0.000
209.84	183.333
210.21	-0.000
210.59	350.000
210.96	133.333
211.34	-125.000
211.71	-25.000
212.09	-1000.000
212.46	0.000
212.84	700.000
213.22	-220.000
213.59	75.000
213.97	0.000
214.34	-100.000
214.72	100.000
215.09	-125.000
215.47	0.000
215.84	-28.571
216.22	750.000
216.59	340.000
216.97	120.000
217.34	25.000
217.72	0.000
218.09	100.000
218.47	-75.000
218.84	0.000
219.22	20.000
219.59	-11.765
219.97	5.000
220.34	450.000
220.72	11.111
221.09	-38.462
221.47	-166.667
221.84	10.000
222.22	-71.429
222.59	0.000
222.97	12.500
223.34	-220.000
223.72	-600.000
224.09	-25.000
224.46	75.000
224.84	40.000
225.21	-57.143
225.59	-250.000
225.96	-125.000
226.34	26.923
226.71	66.667
227.08	-150.000
227.46	-6.667
227.83	-200.000
228.21	5.263
228.58	137.500
228.95	100.000
229.33	16.667
229.70	0.000
230.08	105.263
230.45	70.000
230.82	66.667
231.20	21.429
231.57	16.667
231.95	-9.091
232.32	0.000
232.69	-5.000
233.07	-250.000
233.44	-17.647
233.81	60.000
234.19	22.222
234.56	-50.000
234.93	24.138
235.31	-10.526
235.68	-16.667
236.05	-55.000
236.43	50.000
236.80	24.000
237.17	18.519
237.55	6.061
237.92	-130.000
238.29	-19.355
238.67	0.000
239.04	-13.889
239.41	21.429
239.79	-10.870
240.16	-1.852
240.53	13.043
240.91	-19.608
241.28	1.639
241.65	11.940
242.02	5.405
242.40	-12.308
242.77	-4.000
243.14	-6.098
243.51	-23.684
243.89	-10.256
244.26	-6.931
244.63	1.961
245.00	2.804
245.38	-5.263
245.75	-22.124
246.12	3.968
246.49	-4.651
246.87	-2.143
247.24	2.649
247.61	1.316
247.98	-6.040
248.36	-1.235
248.73	-7.362
249.10	-3.825
249.47	-0.995
249.84	3.141
250.22	0.000
250.59	0.000
250.96	1.818
251.33	-7.143
251.70	-2.137
252.08	1.667
252.45	0.410
252.82	-2.479
253.19	-3.516
253.56	3.042
253.94	-4.231
254.31	-2.273
254.68	2.098
255.05	1.629
255.42	-2.381
255.79	-1.618
256.16	1.987
256.54	-1.656
256.91	0.656
257.28	0.000
257.65	-5.096
258.02	-2.950
258.39	0.000
258.76	2.446
259.14	0.862
259.51	0.288
259.88	-1.416
260.25	-1.111
260.62	0.274
260.99	3.005
261.36	2.413
261.73	-0.796
262.10	-1.923
262.47	-2.949
262.85	2.778
263.22	0.000
263.59	-2.368
263.96	-1.023
264.33	-3.069
264.70	-1.235
265.07	1.909
265.44	2.041
265.81	-1.389
266.18	1.587
266.55	-1.563
266.92	-2.733
267.29	-1.094
267.66	0.665
268.03	-0.873
268.40	-1.670
268.77	-1.367
269.14	-1.982
269.51	-0.439
269.88	-0.410
270.25	0.000
270.62	-1.055
270.99	3.030
271.36	0.000
271.73	0.196
272.10	-0.200
272.47	-0.401
272.84	-0.602
273.21	1.002
273.58	-0.202
273.95	-0.769
274.32	-3.612
274.69	-0.967
275.06	1.282
275.43	-0.185
275.80	0.705
276.17	-1.111
276.54	-2.052
276.91	-0.179
277.28	0.542
277.65	0.718
278.02	1.103
278.39	-0.725
278.76	-0.703
279.13	-0.709
279.50	2.234
279.87	0.716
280.23	-3.169
280.60	1.017
280.97	0.987
281.34	-2.377
281.71	0.846
282.08	0.332
282.45	-1.473
282.82	-1.099
283.19	-1.454
283.56	-0.820
283.92	0.150
284.29	1.264
284.66	0.164
285.03	-1.923
285.40	1.082
285.77	-0.310
286.14	0.916
286.51	1.370
286.87	-1.264
287.24	-0.452
287.61	0.747
287.98	-0.604
288.35	0.444
288.72	-0.740
289.08	1.903
289.45	-1.183
289.82	-0.301
290.19	-1.149
290.56	0.845
290.93	-0.713
291.29	-0.275
291.66	0.000
292.03	-0.543
292.40	1.633
292.77	-0.674
293.13	0.000
293.50	-0.394
293.87	-1.342
294.24	0.267
294.60	0.885
294.97	-1.074
295.34	1.536
295.71	0.000
296.08	0.000
296.44	0.980
296.81	0.244
297.18	-0.623
297.55	0.236
297.91	-0.237
298.28	-0.948
298.65	0.357
299.02	0.354
299.38	0.915
299.75	1.051
300.12	-0.810
300.48	-0.806
300.85	0.112
301.22	1.678
301.59	-0.457
301.95	0.339
302.32	0.667
302.69	0.219
303.05	0.109
303.42	0.776
303.79	0.312
304.15	0.526
304.52	-0.317
304.89	0.419
305.25	1.035
305.62	0.000
305.99	0.412
306.35	0.302
306.72	-0.414
307.09	0.508
307.45	-0.311
307.82	0.404
308.19	-0.605
308.55	0.579
308.92	-0.682
309.29	0.000
309.65	0.000
310.02	0.198
310.38	-0.197
310.75	0.097
311.12	-0.288
311.48	-0.782
311.85	-0.380
312.22	1.613
312.58	-0.563
312.95	-0.478
313.31	0.723
313.68	1.190
314.05	1.084
314.41	1.275
314.78	0.817
315.14	1.089
315.51	0.739
315.87	1.620
316.24	1.187
316.61	1.510
316.97	0.905
317.34	1.411
317.70	2.096
318.07	1.587
318.43	2.296
318.80	4.097
319.16	1.373
319.53	1.114
319.89	0.789
320.26	3.203
320.62	1.684
320.99	3.232
321.35	2.680
321.72	3.163
322.08	2.615
322.45	3.252
322.81	3.339
323.18	2.566
323.54	2.931
323.91	4.448
324.27	3.701
324.64	4.198
325.00	4.146
325.37	4.259
325.73	4.380
326.10	4.704
326.46	4.805
326.83	5.124
327.19	5.118
327.56	4.901
327.92	4.878
328.29	4.355
328.65	4.858
329.01	5.668
329.38	5.223
329.74	6.507
330.11	6.507
330.47	4.802
330.84	5.512
331.20	7.000
331.56	5.633
331.93	6.109
332.29	5.847
332.66	5.814
333.02	5.946
333.38	5.453
333.75	5.808
334.11	5.338
334.48	6.106
334.84	6.542
335.20	5.709
335.57	6.661
335.93	7.107
336.29	5.574
336.66	5.383
337.02	6.522
337.38	7.143
337.75	5.455
338.11	6.224
338.47	6.369
338.84	6.091
339.20	5.729
339.56	5.601
339.93	5.829
340.29	6.522
340.65	5.921
341.02	6.943
341.38	6.225
341.74	5.165
342.11	6.516
342.47	5.878
342.83	6.280
343.20	6.378
343.56	5.533
343.92	6.325
344.28	6.641
344.65	6.744
345.01	6.006
345.37	6.221
345.73	5.066
346.10	6.474
346.46	5.934
346.82	7.116
347.19	5.959
347.55	6.829
347.91	5.944
348.27	4.780
348.63	5.788
349.00	6.115
349.36	6.989
349.72	6.696
350.08	5.944
350.45	3.726
350.81	6.109
351.17	5.865
351.53	6.065
351.89	6.150
352.26	5.299
352.62	5.821
352.98	5.420
353.34	5.302
353.70	5.701
354.07	6.334
354.43	4.784
354.79	5.385
355.15	5.666
355.51	6.213
355.87	4.862
356.24	5.247
356.60	4.508
356.96	5.263
357.32	4.981
357.68	5.490
358.04	5.165
358.40	4.701
358.77	5.702
359.13	4.357
359.49	4.015
359.85	5.221
360.21	4.663
360.57	5.240
360.93	4.513
361.29	5.474
361.66	4.852
362.02	5.915
362.38	5.411
362.74	4.679
363.10	6.121
363.46	4.709
363.82	4.901
364.18	5.348
364.54	4.841
364.90	4.883
365.26	4.690
365.62	5.333
365.98	5.378
366.35	4.899
366.71	4.966
367.07	5.548
367.43	5.121
367.79	5.176
368.15	5.217
368.51	5.345
368.87	4.899
369.23	5.133
369.59	4.098
369.95	4.260
370.31	4.997
370.67	4.470
371.03	4.571
371.39	3.962
371.75	4.814
372.11	5.691
372.47	4.875
372.83	5.236
373.19	5.003
373.55	4.404
373.91	4.158
374.27	5.239
374.63	4.465
374.99	4.178
375.35	4.416
375.71	4.968
376.07	4.648
376.42	4.849
376.78	4.910
377.14	4.492
377.50	4.428
377.86	5.727
378.22	4.611
378.58	5.470
378.94	4.401
379.30	4.511
379.66	4.644
380.02	3.866
380.38	5.415
380.74	3.887
381.09	3.717
381.45	3.920
381.81	4.450
382.17	5.404
382.53	4.269
382.89	4.797
383.25	4.045
383.61	3.414
383.97	4.299
384.32	4.545
384.68	4.292
385.04	4.627
385.40	4.655
385.76	4.338
386.12	4.847
386.48	4.471
386.83	4.708
387.19	4.229
387.55	3.404
387.91	4.566
388.27	5.023
388.62	4.582
388.98	4.230
389.34	4.066
389.70	3.835
390.06	3.967
390.42	3.795
390.77	4.937
391.13	3.697
391.49	4.348
391.85	3.939
392.20	4.330
392.56	4.725
392.92	4.907
393.28	4.478
393.64	3.687
393.99	4.009
394.35	4.790
394.71	4.731
395.07	2.814
395.42	4.283
395.78	4.083
396.14	4.694
396.50	3.266
396.85	4.472
397.21	3.728
397.57	4.181
397.92	4.124
398.28	3.259
398.64	3.776
399.00	3.927
399.35	3.717
399.71	3.967
400.07	3.706
400.42	3.725
400.78	3.299
401.14	3.529
401.49	3.809
401.85	4.128
402.21	3.998
402.57	4.460
402.92	3.723
403.28	3.747
403.63	2.685
403.99	3.741
404.35	3.013
404.70	3.683
405.06	3.967
405.42	4.040
405.77	3.599
406.13	4.160
406.49	3.773
406.84	4.155
407.20	3.689
407.55	3.210
407.91	4.148
408.27	3.416
408.62	3.083
408.98	3.192
409.34	3.050
409.69	3.585
410.05	3.986
410.40	3.596
410.76	3.589
411.11	3.682
411.47	2.580
411.83	2.998
412.18	3.313
412.54	3.320
412.89	3.318
413.25	3.273
413.60	2.700
413.96	3.555
414.31	3.966
414.67	3.816
415.03	3.631
415.38	3.342
415.74	3.482
416.09	3.516
416.45	3.694
416.80	3.427
417.16	3.001
417.51	4.047
417.87	3.372
418.22	3.234
418.58	3.284
418.93	3.900
419.29	2.959
419.64	2.521
420.00	2.671
420.35	3.537
420.71	3.848
421.06	3.163
421.42	3.039
421.77	3.123
422.12	3.911
422.48	3.328
422.83	3.395
423.19	3.289
423.54	3.429
423.90	3.920
424.25	3.360
424.61	2.870
424.96	3.624
425.31	3.715
425.67	2.523
426.02	2.822
426.38	3.444
426.73	3.013
427.09	3.864
427.44	2.567
427.79	3.096
428.15	2.568
428.50	2.809
428.85	3.789
429.21	3.723
429.56	2.863
429.92	3.342
430.27	4.145
430.62	2.833
430.98	3.050
431.33	2.884
431.68	3.161
432.04	3.454
432.39	3.321
432.74	2.854
433.10	3.137
433.45	2.731
433.80	2.843
434.16	2.893
434.51	2.878
434.86	3.149
435.22	2.869
435.57	3.066
435.92	2.449
436.28	3.470
436.63	2.676
436.98	3.596
437.34	3.213
437.69	2.917
438.04	2.856
438.39	3.044
438.75	2.490
439.10	3.911
439.45	3.410
439.81	2.994
440.16	2.842
440.51	3.846
440.86	2.779
441.22	3.108
441.57	3.092
441.92	2.813
442.27	2.828
442.63	3.130
442.98	3.735
443.33	3.156
443.68	3.518
444.03	3.575
444.39	3.883
444.74	3.420
445.09	3.599
445.44	3.477
445.79	3.640
446.15	3.494
446.50	2.791
446.85	3.794
447.20	3.433
447.55	3.243
447.91	2.880
448.26	3.224
448.61	3.029
448.96	3.970
449.31	3.393
449.66	3.431
450.02	3.797
450.37	3.410
450.72	3.014
451.07	3.417
451.42	3.466
451.77	2.890
452.12	3.668
452.47	3.624
452.83	3.097
453.18	3.561
453.53	2.987
453.88	3.976
454.23	3.446
454.58	3.714
454.93	2.913
455.28	3.793
455.63	3.127
455.98	4.078
456.34	3.592
456.69	3.233
457.04	2.896
457.39	3.659
457.74	3.971
458.09	3.844
458.44	3.987
458.79	3.146
459.14	4.195
459.49	3.622
459.84	3.200
460.19	2.721
460.54	4.032
460.89	3.388
461.24	3.506
461.59	3.818
461.94	3.137
462.29	3.247
462.64	2.535
462.99	3.578
463.34	3.180
463.69	4.220
464.04	3.502
464.39	3.924
464.74	3.307
465.09	2.999
465.44	3.112
465.79	3.860
466.14	3.231
466.49	3.526
466.84	2.755
467.19	3.757
467.54	2.938
467.89	3.793
468.24	4.100
468.59	2.953
468.94	3.263
469.29	3.059
469.64	3.942
469.99	2.868
470.34	3.527
470.68	3.623
471.03	3.471
471.38	4.251
471.73	3.056
472.08	3.617
472.43	3.131
472.78	3.967
473.13	2.592
473.48	4.048
473.83	3.540
474.17	3.634
474.52	2.946
474.87	3.433
475.22	3.155
475.57	3.842
475.92	3.733
476.27	3.568
476.61	3.271
476.96	2.607
477.31	3.465
477.66	4.250
478.01	3.355
478.36	3.739
478.70	3.645
479.05	3.681
479.40	3.110
479.75	3.842
480.10	3.505
480.45	3.601
480.79	3.492
481.14	3.125
481.49	3.090
481.84	3.481
482.19	3.183
482.53	4.110
482.88	3.589
483.23	2.757
483.58	3.231
483.92	3.324
484.27	3.302
484.62	3.342
484.97	3.421
485.31	3.238
485.66	3.025
486.01	3.269
486.36	3.444
486.70	3.500
487.05	3.348
487.40	3.320
487.75	3.791
488.09	3.240
488.44	3.206
488.79	3.879
489.13	3.331
489.48	3.029
489.83	3.300
490.17	3.240
490.52	3.654
490.87	2.961
491.22	2.946
491.56	3.456
491.91	3.227
492.26	3.635
492.60	3.148
492.95	3.905
493.30	2.913
493.64	3.285
493.99	3.289
494.34	2.962
494.68	3.041
495.03	3.392
495.37	3.418
495.72	3.492
496.07	3.681
496.41	2.746
496.76	3.211
497.11	3.015
497.45	2.978
497.80	3.687
498.14	3.220
498.49	2.482
498.84	3.199
499.18	3.284
499.53	3.498
499.87	2.989
500.22	2.404
500.56	3.239
500.91	3.387
501.26	3.273
501.60	2.696
501.95	3.300
502.29	2.896
502.64	3.717
502.98	3.581
503.33	2.721
503.67	2.660
504.02	2.890
504.36	3.396
504.71	2.526
505.06	3.229
505.40	3.428
505.75	3.233
506.09	3.637
506.44	3.528
506.78	3.303
507.13	3.043
507.47	3.363
507.82	3.409
508.16	2.916
508.51	2.719
508.85	2.692
509.19	2.890
509.54	3.506
509.88	3.303
510.23	3.011
510.57	3.335
510.92	2.854
511.26	3.078
511.61	2.752
511.95	2.733
512.30	3.594
512.64	2.699
512.98	3.052
513.33	2.974
513.67	3.009
514.02	3.270
514.36	3.274
514.70	2.917
515.05	2.711
515.39	3.307
515.74	3.075
516.08	2.853
516.42	3.715
516.77	3.049
517.11	2.785
517.46	2.863
517.80	2.993
518.14	3.536
518.49	2.874
518.83	2.927
519.17	2.316
519.52	3.616
519.86	2.693
520.20	3.408
520.55	3.012
520.89	2.872
521.23	3.350
521.58	3.051
521.92	3.003
522.26	2.978
522.61	3.183
522.95	2.999
523.29	2.701
523.64	3.027
523.98	3.195
524.32	3.725
524.66	2.447
525.01	2.605
525.35	2.527
525.69	3.190
526.04	3.042
526.38	2.989
526.72	2.941
527.06	2.581
527.41	2.624
527.75	3.444
528.09	2.893
528.43	2.960
528.78	2.543
529.12	2.523
529.46	1.911
529.80	2.574
530.15	2.783
530.49	2.195
530.83	2.597
531.17	2.569
531.51	3.369
531.86	2.644
532.20	3.354
532.54	3.710
532.88	3.030
533.22	2.829
533.57	3.058
533.91	3.311
534.25	2.883
534.59	2.989
534.93	2.434
535.27	2.873
535.62	2.672
535.96	2.789
536.30	2.468
536.64	3.243
536.98	3.813
537.32	3.025
537.66	3.369
538.01	3.263
538.35	2.558
538.69	2.584
539.03	3.127
539.37	3.239
539.71	2.763
540.05	2.998
540.39	2.139
540.73	2.793
541.07	2.330
541.42	2.540
541.76	2.610
542.10	2.714
542.44	2.619
542.78	2.920
543.12	3.218
543.46	2.808
543.80	2.278
544.14	3.291
544.48	2.600
544.82	3.351
545.16	2.862
545.50	3.056
545.84	2.633
546.18	3.704
546.52	2.357
546.86	3.648
547.20	3.499
547.54	2.934
547.88	2.893
548.22	2.573
548.56	2.282
548.90	3.224
549.24	2.736
549.58	3.028
549.92	2.296
550.26	3.625
550.60	3.382
550.94	2.523
551.28	2.640
551.62	3.032
551.96	3.107
552.30	3.824
552.64	3.049
552.98	2.620
553.32	2.894
553.66	2.444
554.00	2.837
554.34	2.960
554.68	3.034
555.02	2.168
555.36	2.761
555.69	2.755
556.03	2.270
556.37	3.317
556.71	2.727
557.05	3.450
557.39	2.920
557.73	2.642
558.07	1.523
558.41	3.322
558.75	3.043
559.08	3.062
559.42	2.812
559.76	3.121
560.10	3.282
560.44	3.496
560.78	3.125
561.12	3.079
561.45	2.920
561.79	2.686
562.13	2.957
562.47	2.343
562.81	2.848
563.15	3.093
563.48	2.486
563.82	2.358
564.16	2.302
564.50	2.503
564.84	2.832
565.17	3.000
565.51	2.762
565.85	2.969
566.19	3.111
566.52	2.633
566.86	2.037
567.20	2.610
567.54	2.230
567.88	2.701
568.21	3.014
568.55	2.878
568.89	2.542
569.23	3.211
569.56	2.540
569.90	2.780
570.24	2.766
570.57	2.277
570.91	2.480
571.25	2.748
571.59	2.895
571.92	2.878
572.26	2.567
572.60	2.539
572.93	3.451
573.27	2.669
573.61	2.806
573.95	3.035
574.28	2.920
574.62	2.456
574.96	2.911
575.29	2.512
575.63	2.610
575.97	2.563
576.30	2.591
576.64	2.887
576.98	2.825
577.31	2.869
577.65	2.889
577.98	2.956
578.32	2.629
578.66	2.884
578.99	2.601
579.33	2.401
579.67	2.493
580.00	2.720
580.34	2.836
580.67	2.626
581.01	2.704
581.35	2.727
581.68	2.964
582.02	2.769
582.35	2.861
582.69	2.737
583.02	2.635
583.36	2.670
583.70	2.499
584.03	2.352
584.37	2.543
584.70	2.592
585.04	2.255
585.37	2.475
585.71	2.654
586.04	2.598
586.38	2.902
586.72	2.181
587.05	2.200
587.39	2.568
587.72	2.297
588.06	2.805
588.39	3.012
588.73	2.804
589.06	2.624
589.40	2.612
589.73	2.731
590.07	2.686
590.40	2.705
590.73	2.828
591.07	2.829
591.40	2.527
591.74	2.544
592.07	3.207
592.41	2.484
592.74	2.662
593.08	2.866
593.41	3.004
593.75	2.270
594.08	2.636
594.41	2.628
594.75	2.424
595.08	2.288
595.42	2.468
595.75	2.583
596.09	2.575
596.42	2.365
596.75	2.663
597.09	2.990
597.42	2.622
597.75	2.783
598.09	3.095
598.42	2.694
598.76	2.560
599.09	3.204
599.42	2.984
599.76	2.674
600.09	2.936
600.42	3.303
600.76	2.708
601.09	2.622
601.42	2.506
601.76	2.621
602.09	2.609
602.42	2.472
602.76	2.399
603.09	2.203
603.42	2.962
603.76	2.326
604.09	3.336
604.42	3.009
604.76	2.816
605.09	2.593
605.42	2.352
605.75	2.346
606.09	2.501
606.42	2.481
606.75	2.136
607.09	2.035
607.42	2.775
607.75	2.540
608.08	2.684
608.42	2.620
608.75	2.529
609.08	2.334
609.41	2.603
609.75	2.411
610.08	2.814
610.41	2.676
610.74	2.815
611.07	2.975
611.41	2.915
611.74	2.910
612.07	2.805
612.40	2.186
612.73	2.396
613.07	2.543
613.40	2.791
613.73	2.118
614.06	2.453
614.39	2.478
614.72	2.232
615.06	2.936
615.39	2.610
615.72	2.370
616.05	2.428
616.38	2.674
616.71	2.874
617.05	2.556
617.38	3.050
617.71	2.808
618.04	2.698
618.37	3.005
618.70	3.337
619.03	2.748
619.36	2.404
619.69	2.434
620.03	1.820
620.36	2.209
620.69	2.097
621.02	2.493
621.35	1.959
621.68	3.181
622.01	2.135
622.34	2.371
622.67	2.474
623.00	1.552
623.33	2.057
623.66	3.048
623.99	1.843
624.32	2.989
624.65	2.252
624.99	2.926
625.32	3.135
625.65	2.495
625.98	1.831
626.31	3.118
626.64	2.637
626.97	2.401
627.30	1.746
627.63	2.626
627.96	3.529
628.29	2.802
628.62	2.015
628.95	2.366
629.28	2.379
629.61	2.189
629.94	2.176
630.26	2.119
630.59	3.195
630.92	2.165
631.25	2.862
631.58	2.166
631.91	1.593
632.24	2.113
632.57	3.416
632.90	2.407
633.23	3.061
633.56	2.755
633.89	1.756
634.22	3.222
634.55	1.983
634.88	1.515
635.20	2.583
635.53	2.712
635.86	3.142
636.19	3.924
636.52	2.321
636.85	2.962
637.18	1.663
637.51	1.398
637.83	2.326
638.16	1.959
638.49	2.934
638.82	1.691
639.15	1.718
639.48	3.233
639.81	2.656
640.13	3.534
640.46	1.818
640.79	3.309
641.12	3.106
641.45	1.631
641.77	4.236
642.10	1.181
642.43	4.255
642.76	2.033
643.09	2.466
643.41	1.821
643.74	1.793
644.07	3.586
644.40	1.980
644.73	2.903
645.05	1.615
645.38	2.734
645.71	3.079
646.04	4.017
646.36	1.460
646.69	2.761
647.02	4.587
647.35	3.053
647.67	3.543
648.00	2.389
648.33	2.553
648.66	2.425
648.98	2.177
649.31	2.165
649.64	2.390
649.96	2.918
650.29	1.530
650.62	2.829
650.94	1.802
651.27	-0.749
651.60	2.485
651.92	1.064
652.25	2.026
652.58	2.889
652.90	1.017
653.23	3.380
653.56	2.140
653.88	2.247
654.21	3.380
654.54	2.023
654.86	2.125
655.19	1.882
655.52	1.995
655.84	2.695
656.17	3.011
656.49	4.202
656.82	4.870
657.15	3.675
657.47	2.841
657.80	1.985
