SpectraSuite Data File
++++++++++++++++++++++++++++++++++++
Date: Thu May 14 16:27:39 PDT 2015
User: schluterlab
Dark Spectrum Present: Yes
Reference Spectrum Present: Yes
Number of Sampled Component Spectra: 1
Spectrometers: USB2E3373
Integration Time (usec): 3000 (USB2E3373)
Spectra Averaged: 3 (USB2E3373)
Boxcar Smoothing: 0 (USB2E3373)
Correct for Electrical Dark: No (USB2E3373)
Strobe/Lamp Enabled: No (USB2E3373)
Correct for Detector Non-linearity: No (USB2E3373)
Correct for Stray Light: No (USB2E3373)
Number of Pixels in Processed Spectrum: 2048
>>>>>Begin Processed Spectral Data<<<<<
178.53	0.000
178.91	-57.143
179.29	-1200.000
179.67	-300.000
180.04	107.143
180.42	-60.000
180.80	-20.000
181.18	-900.000
181.56	400.000
181.94	-75.000
182.31	25.000
182.69	66.667
183.07	50.000
183.45	75.000
183.83	50.000
184.20	-200.000
184.58	-0.000
184.96	-300.000
185.34	-77.778
185.72	0.000
186.09	233.333
186.47	600.000
186.85	200.000
187.23	-22.222
187.61	-1000.000
187.98	40.000
188.36	125.000
188.74	-100.000
189.12	66.667
189.49	31.250
189.87	-175.000
190.25	-22.222
190.63	60.000
191.00	11.111
191.38	0.000
191.76	-175.000
192.14	16.667
192.51	-400.000
192.89	16.667
193.27	0.000
193.65	-57.143
194.02	-600.000
194.40	-128.571
194.78	28.571
195.15	0.000
195.53	72.727
195.91	0.000
196.29	200.000
196.66	61.538
197.04	-1700.000
197.42	42.857
197.79	-50.000
198.17	-25.000
198.55	-28.571
198.92	88.889
199.30	12.500
199.68	0.000
200.05	28.571
200.43	-400.000
200.81	200.000
201.18	0.000
201.56	66.667
201.94	0.000
202.31	366.667
202.69	-77.778
203.07	100.000
203.44	-22.222
203.82	100.000
204.19	0.000
204.57	16.667
204.95	-87.500
205.32	-1200.000
205.70	-25.000
206.08	-50.000
206.45	50.000
206.83	220.000
207.20	-16.667
207.58	-140.000
207.96	-83.333
208.33	200.000
208.71	50.000
209.08	50.000
209.46	0.000
209.84	66.667
210.21	-50.000
210.59	350.000
210.96	-33.333
211.34	250.000
211.71	-100.000
212.09	-600.000
212.46	0.000
212.84	800.000
213.22	-60.000
213.59	-125.000
213.97	-20.000
214.34	66.667
214.72	-16.667
215.09	-100.000
215.47	0.000
215.84	57.143
216.22	450.000
216.59	0.000
216.97	-40.000
217.34	125.000
217.72	-12.500
218.09	25.000
218.47	-150.000
218.84	0.000
219.22	20.000
219.59	41.176
219.97	10.000
220.34	-250.000
220.72	-88.889
221.09	15.385
221.47	-200.000
221.84	90.000
222.22	85.714
222.59	0.000
222.97	50.000
223.34	40.000
223.72	-400.000
224.09	-125.000
224.46	0.000
224.84	180.000
225.21	42.857
225.59	-175.000
225.96	-100.000
226.34	46.154
226.71	200.000
227.08	350.000
227.46	6.667
227.83	125.000
228.21	36.842
228.58	137.500
228.95	-150.000
229.33	-8.333
229.70	120.000
230.08	63.158
230.45	-40.000
230.82	100.000
231.20	-50.000
231.57	33.333
231.95	-27.273
232.32	81.818
232.69	55.000
233.07	-25.000
233.44	29.412
233.81	-50.000
234.19	-22.222
234.56	-4.545
234.93	31.034
235.31	36.842
235.68	27.778
236.05	-10.000
236.43	26.923
236.80	52.000
237.17	29.630
237.55	0.000
237.92	-50.000
238.29	-19.355
238.67	0.000
239.04	0.000
239.41	16.667
239.79	-10.870
240.16	7.407
240.53	-8.696
240.91	-9.804
241.28	19.672
241.65	29.851
242.02	17.568
242.40	6.154
242.77	9.333
243.14	17.073
243.51	7.895
243.89	6.410
244.26	10.891
244.63	17.647
245.00	23.364
245.38	8.772
245.75	0.885
246.12	8.730
246.49	8.527
246.87	15.000
247.24	16.556
247.61	18.421
247.98	4.698
248.36	9.259
248.73	6.748
249.10	10.929
249.47	14.925
249.84	17.801
250.22	7.254
250.59	7.778
250.96	9.545
251.33	8.673
251.70	15.385
252.08	11.667
252.45	13.115
252.82	10.744
253.19	7.422
253.56	13.308
253.94	4.231
254.31	7.197
254.68	12.587
255.05	14.984
255.42	11.905
255.79	9.709
256.16	7.947
256.54	4.636
256.91	11.475
257.28	12.459
257.65	8.599
258.02	8.555
258.39	11.111
258.76	11.315
259.14	13.793
259.51	10.375
259.88	7.932
260.25	10.833
260.62	10.685
260.99	12.022
261.36	12.869
261.73	10.610
262.10	8.516
262.47	12.332
262.85	12.879
263.22	9.091
263.59	7.632
263.96	9.719
264.33	7.417
264.70	13.086
265.07	14.320
265.44	15.420
265.81	10.648
266.18	12.472
266.55	12.723
266.92	10.478
267.29	11.379
267.66	12.417
268.03	11.572
268.40	10.438
268.77	8.428
269.14	6.828
269.51	12.719
269.88	11.270
270.25	10.463
270.62	12.447
270.99	11.313
271.36	12.673
271.73	10.806
272.10	12.224
272.47	11.623
272.84	11.245
273.21	9.820
273.58	10.484
273.95	11.154
274.32	11.027
274.69	10.251
275.06	11.538
275.43	10.166
275.80	10.758
276.17	10.185
276.54	11.754
276.91	10.018
277.28	10.488
277.65	11.131
278.02	11.765
278.39	11.051
278.76	10.018
279.13	10.461
279.50	11.856
279.87	12.343
280.23	7.923
280.60	10.169
280.97	10.197
281.34	10.187
281.71	12.014
282.08	10.465
282.45	9.820
282.82	10.361
283.19	8.239
283.56	9.180
283.92	13.213
284.29	11.848
284.66	10.673
285.03	8.333
285.40	11.747
285.77	9.907
286.14	11.145
286.51	9.741
286.87	8.215
287.24	9.789
287.61	8.072
287.98	9.366
288.35	9.615
288.72	9.763
289.08	10.102
289.45	9.024
289.82	8.283
290.19	11.638
290.56	9.718
290.93	10.128
291.29	10.606
291.66	9.366
292.03	9.905
292.40	10.476
292.77	7.682
293.13	10.014
293.50	7.227
293.87	9.262
294.24	10.533
294.60	11.125
294.97	7.919
295.34	11.268
295.71	9.079
296.08	7.623
296.44	7.108
296.81	9.135
297.18	8.344
297.55	8.962
297.91	7.948
298.28	7.346
298.65	9.037
299.02	8.383
299.38	8.467
299.75	8.178
300.12	7.292
300.48	8.065
300.85	9.111
301.22	9.060
301.59	6.849
301.95	7.797
302.32	8.111
302.69	7.229
303.05	8.379
303.42	7.650
303.79	6.979
304.15	7.045
304.52	6.977
304.89	8.482
305.25	8.178
305.62	7.106
305.99	8.763
306.35	7.661
306.72	8.273
307.09	8.122
307.45	7.660
307.82	7.265
308.19	8.073
308.55	8.293
308.92	8.374
309.29	8.046
309.65	8.187
310.02	8.218
310.38	7.677
310.75	7.864
311.12	7.191
311.48	7.038
311.85	9.022
312.22	7.306
312.58	8.075
312.95	7.170
313.31	8.582
313.68	10.073
314.05	9.033
314.41	9.927
314.78	9.628
315.14	8.348
315.51	8.864
315.87	9.541
316.24	9.954
316.61	11.190
316.97	9.231
317.34	10.229
317.70	10.917
318.07	10.317
318.43	11.650
318.80	11.706
319.16	11.245
319.53	10.368
319.89	10.868
320.26	11.833
320.62	11.879
320.99	13.019
321.35	13.956
321.72	14.512
322.08	13.796
322.45	15.086
322.81	15.523
323.18	13.982
323.54	15.086
323.91	16.726
324.27	16.093
324.64	16.121
325.00	16.667
325.37	17.609
325.73	17.851
326.10	19.140
326.46	18.567
326.83	19.856
327.19	19.685
327.56	19.842
327.92	19.355
328.29	20.403
328.65	20.519
329.01	21.658
329.38	21.820
329.74	22.175
330.11	23.031
330.47	21.567
330.84	21.447
331.20	22.583
331.56	23.484
331.93	22.929
332.29	22.542
332.66	23.588
333.02	21.692
333.38	22.399
333.75	22.727
334.11	23.186
334.48	23.927
334.84	23.874
335.20	22.250
335.57	24.368
335.93	24.380
336.29	23.295
336.66	24.390
337.02	24.582
337.38	24.490
337.75	23.471
338.11	24.643
338.47	24.731
338.84	24.281
339.20	23.589
339.56	24.135
339.93	24.795
340.29	24.477
340.65	24.493
341.02	25.698
341.38	25.303
341.74	25.182
342.11	25.101
342.47	24.464
342.83	24.799
343.20	25.838
343.56	25.501
343.92	24.740
344.28	25.234
344.65	26.434
345.01	25.351
345.37	24.572
345.73	24.162
346.10	25.117
346.46	26.266
346.82	25.468
347.19	26.509
347.55	26.404
347.91	26.003
348.27	25.569
348.63	26.123
349.00	26.174
349.36	26.617
349.72	25.670
350.08	27.043
350.45	25.247
350.81	26.094
351.17	25.940
351.53	26.535
351.89	25.209
352.26	26.119
352.62	26.791
352.98	26.260
353.34	26.736
353.70	26.810
354.07	26.751
354.43	27.563
354.79	27.001
355.15	26.784
355.51	27.412
355.87	26.028
356.24	28.365
356.60	26.016
356.96	26.612
357.32	26.468
357.68	27.965
358.04	27.470
358.40	27.313
358.77	27.412
359.13	27.105
359.49	27.584
359.85	27.121
360.21	26.973
360.57	27.279
360.93	28.138
361.29	28.211
361.66	28.240
362.02	29.784
362.38	27.829
362.74	28.841
363.10	28.680
363.46	28.947
363.82	29.048
364.18	29.064
364.54	28.631
364.90	28.227
365.26	28.552
365.62	29.133
365.98	27.978
366.35	28.926
366.71	29.320
367.07	29.026
367.43	29.678
367.79	30.192
368.15	29.967
368.51	29.973
368.87	30.111
369.23	30.267
369.59	30.669
369.95	29.074
370.31	29.980
370.67	30.124
371.03	30.609
371.39	30.557
371.75	31.637
372.11	30.691
372.47	31.009
372.83	30.039
373.19	31.354
373.55	31.572
373.91	30.334
374.27	31.371
374.63	31.597
374.99	32.692
375.35	31.558
375.71	32.323
376.07	31.440
376.42	32.053
376.78	31.075
377.14	32.314
377.50	32.132
377.86	32.635
378.22	32.395
378.58	33.234
378.94	32.394
379.30	32.455
379.66	33.745
380.02	33.179
380.38	33.583
380.74	32.451
381.09	33.449
381.45	32.330
381.81	34.309
382.17	33.551
382.53	32.807
382.89	33.070
383.25	35.346
383.61	32.697
383.97	33.922
384.32	34.450
384.68	34.107
385.04	34.413
385.40	35.062
385.76	35.698
386.12	34.949
386.48	35.412
386.83	34.625
387.19	34.473
387.55	34.390
387.91	35.559
388.27	34.700
388.62	34.593
388.98	34.631
389.34	35.415
389.70	34.805
390.06	35.702
390.42	34.639
390.77	36.544
391.13	35.211
391.49	36.715
391.85	35.515
392.20	34.579
392.56	35.854
392.92	36.150
393.28	36.816
393.64	35.140
393.99	36.432
394.35	36.273
394.71	35.928
395.07	35.868
395.42	35.180
395.78	36.746
396.14	37.374
396.50	36.342
396.85	35.540
397.21	37.041
397.57	35.571
397.92	37.457
398.28	36.067
398.64	36.499
399.00	35.026
399.35	36.021
399.71	36.033
400.07	36.103
400.42	37.485
400.78	36.748
401.14	36.995
401.49	36.441
401.85	37.035
402.21	37.543
402.57	37.500
402.92	38.061
403.28	35.890
403.63	36.396
403.99	36.283
404.35	36.043
404.70	36.544
405.06	37.065
405.42	38.115
405.77	37.459
406.13	36.845
406.49	36.937
406.84	36.953
407.20	37.172
407.55	36.584
407.91	36.958
408.27	36.160
408.62	36.358
408.98	36.796
409.34	36.833
409.69	37.145
410.05	37.397
410.40	37.645
410.76	37.128
411.11	36.704
411.47	37.531
411.83	37.566
412.18	38.373
412.54	37.226
412.89	36.962
413.25	38.036
413.60	37.105
413.96	36.480
414.31	36.714
414.67	37.984
415.03	36.246
415.38	37.011
415.74	36.652
416.09	36.891
416.45	36.882
416.80	37.393
417.16	37.037
417.51	37.484
417.87	36.910
418.22	37.485
418.58	37.361
418.93	36.845
419.29	37.053
419.64	37.095
420.00	37.151
420.35	37.002
420.71	37.163
421.06	36.573
421.42	37.385
421.77	36.995
422.12	36.892
422.48	37.122
422.83	37.733
423.19	36.552
423.54	38.385
423.90	36.886
424.25	37.547
424.61	36.797
424.96	37.452
425.31	37.473
425.67	36.286
426.02	36.746
426.38	36.739
426.73	37.165
427.09	37.255
427.44	36.100
427.79	36.816
428.15	36.758
428.50	37.303
428.85	37.371
429.21	37.660
429.56	37.019
429.92	36.511
430.27	37.205
430.62	37.958
430.98	36.990
431.33	36.413
431.68	35.824
432.04	36.872
432.39	36.743
432.74	35.902
433.10	38.129
433.45	35.730
433.80	36.427
434.16	36.570
434.51	37.205
434.86	37.296
435.22	36.876
435.57	36.792
435.92	37.396
436.28	37.201
436.63	36.920
436.98	37.198
437.34	36.866
437.69	36.764
438.04	37.388
438.39	37.507
438.75	36.801
439.10	37.051
439.45	37.842
439.81	36.836
440.16	37.051
440.51	36.566
440.86	36.576
441.22	36.924
441.57	37.998
441.92	36.372
442.27	37.475
442.63	37.009
442.98	37.086
443.33	36.612
443.68	37.463
444.03	38.053
444.39	37.124
444.74	36.907
445.09	36.543
445.44	37.513
445.79	37.404
446.15	36.896
446.50	36.382
446.85	37.160
447.20	36.799
447.55	36.192
447.91	36.178
448.26	36.469
448.61	36.451
448.96	37.017
449.31	35.578
449.66	35.893
450.02	37.184
450.37	37.027
450.72	37.191
451.07	35.592
451.42	37.088
451.77	36.354
452.12	36.343
452.47	36.482
452.83	36.543
453.18	36.311
453.53	36.014
453.88	34.787
454.23	35.706
454.58	36.506
454.93	35.498
455.28	35.942
455.63	36.612
455.98	36.760
456.34	35.984
456.69	36.214
457.04	36.170
457.39	35.089
457.74	36.689
458.09	35.585
458.44	35.722
458.79	35.843
459.14	36.025
459.49	35.257
459.84	35.782
460.19	34.925
460.54	35.207
460.89	34.886
461.24	35.345
461.59	35.252
461.94	34.455
462.29	34.714
462.64	34.641
462.99	34.024
463.34	35.886
463.69	34.877
464.04	35.464
464.39	34.305
464.74	34.436
465.09	34.660
465.44	34.388
465.79	34.109
466.14	33.246
466.49	34.579
466.84	35.152
467.19	34.566
467.54	33.431
467.89	33.563
468.24	34.238
468.59	33.642
468.94	33.100
469.29	33.413
469.64	33.821
469.99	34.289
470.34	32.673
470.68	33.219
471.03	33.595
471.38	33.290
471.73	33.095
472.08	34.327
472.43	33.173
472.78	32.557
473.13	32.933
473.48	32.749
473.83	32.966
474.17	32.591
474.52	32.411
474.87	32.890
475.22	33.408
475.57	31.776
475.92	32.404
476.27	31.896
476.61	32.139
476.96	32.273
477.31	31.980
477.66	32.581
478.01	30.910
478.36	31.406
478.70	31.675
479.05	32.209
479.40	31.688
479.75	32.469
480.10	31.217
480.45	31.951
480.79	31.156
481.14	31.112
481.49	31.168
481.84	31.636
482.19	31.183
482.53	31.745
482.88	31.103
483.23	31.747
483.58	31.092
483.92	29.699
484.27	30.186
484.62	30.198
484.97	30.871
485.31	30.130
485.66	29.193
486.01	29.067
486.36	29.940
486.70	31.246
487.05	30.725
487.40	30.323
487.75	30.331
488.09	30.290
488.44	29.223
488.79	29.545
489.13	29.870
489.48	28.583
489.83	28.491
490.17	29.000
490.52	28.079
490.87	29.442
491.22	29.853
491.56	29.437
491.91	29.394
492.26	29.078
492.60	28.640
492.95	29.487
493.30	28.866
493.64	28.559
493.99	28.114
494.34	28.005
494.68	28.180
495.03	28.502
495.37	28.362
495.72	28.345
496.07	28.221
496.41	27.585
496.76	27.898
497.11	28.195
497.45	28.442
497.80	28.254
498.14	28.299
498.49	27.849
498.84	26.737
499.18	27.845
499.53	27.265
499.87	27.604
500.22	27.115
500.56	27.215
500.91	26.865
501.26	27.045
501.60	26.513
501.95	27.442
502.29	26.810
502.64	27.853
502.98	26.747
503.33	26.566
503.67	26.777
504.02	26.489
504.36	27.256
504.71	26.367
505.06	26.285
505.40	26.737
505.75	26.412
506.09	26.980
506.44	26.602
506.78	25.872
507.13	25.588
507.47	25.628
507.82	26.042
508.16	25.717
508.51	25.457
508.85	25.697
509.19	25.912
509.54	26.273
509.88	25.789
510.23	26.081
510.57	26.196
510.92	25.351
511.26	24.772
511.61	24.288
511.95	25.232
512.30	24.963
512.64	24.138
512.98	25.413
513.33	25.151
513.67	25.548
514.02	24.936
514.36	25.627
514.70	24.948
515.05	25.078
515.39	24.409
515.74	24.496
516.08	24.617
516.42	25.118
516.77	24.553
517.11	23.930
517.46	24.814
517.80	24.319
518.14	24.483
518.49	23.048
518.83	24.002
519.17	23.371
519.52	23.270
519.86	23.759
520.20	24.175
520.55	23.549
520.89	22.691
521.23	23.227
521.58	22.768
521.92	22.946
522.26	23.368
522.61	23.553
522.95	22.953
523.29	23.218
523.64	22.758
523.98	23.217
524.32	24.011
524.66	23.392
525.01	23.273
525.35	22.516
525.69	22.448
526.04	22.675
526.38	23.908
526.72	22.088
527.06	22.757
527.41	22.566
527.75	22.922
528.09	22.550
528.43	22.262
528.78	22.659
529.12	22.305
529.46	22.147
529.80	22.426
530.15	21.971
530.49	22.479
530.83	21.429
531.17	22.401
531.51	21.661
531.86	22.115
532.20	23.476
532.54	21.125
532.88	22.303
533.22	21.567
533.57	21.754
533.91	22.110
534.25	21.651
534.59	21.782
534.93	21.166
535.27	20.620
535.62	21.433
535.96	21.034
536.30	21.504
536.64	22.282
536.98	22.017
537.32	21.605
537.66	20.774
538.01	20.846
538.35	20.828
538.69	20.553
539.03	21.704
539.37	21.790
539.71	20.721
540.05	20.683
540.39	20.844
540.73	20.644
541.07	20.846
541.42	20.732
541.76	20.819
542.10	20.567
542.44	19.976
542.78	20.499
543.12	20.024
543.46	20.818
543.80	19.664
544.14	20.586
544.48	19.799
544.82	19.868
545.16	20.572
545.50	19.473
545.84	20.208
546.18	20.741
546.52	20.446
546.86	20.943
547.20	19.911
547.54	20.037
547.88	19.590
548.22	19.591
548.56	19.485
548.90	18.985
549.24	20.365
549.58	20.000
549.92	19.452
550.26	19.223
550.60	19.719
550.94	19.534
551.28	19.736
551.62	18.598
551.96	19.482
552.30	19.822
552.64	19.913
552.98	19.152
553.32	19.228
553.66	19.936
554.00	19.483
554.34	18.597
554.68	19.174
555.02	18.988
555.36	19.395
555.69	18.642
556.03	19.357
556.37	19.962
556.71	18.009
557.05	18.786
557.39	18.845
557.73	19.551
558.07	18.742
558.41	18.870
558.75	18.256
559.08	18.928
559.42	18.861
559.76	18.725
560.10	18.620
560.44	18.602
560.78	18.938
561.12	18.534
561.45	18.856
561.79	18.071
562.13	18.731
562.47	17.818
562.81	18.608
563.15	18.182
563.48	18.086
563.82	18.319
564.16	17.868
564.50	18.653
564.84	17.758
565.17	17.353
565.51	17.261
565.85	18.824
566.19	17.800
566.52	17.671
566.86	17.600
567.20	17.455
567.54	17.738
567.88	18.196
568.21	16.947
568.55	17.458
568.89	17.476
569.23	17.533
569.56	16.960
569.90	16.892
570.24	17.302
570.57	16.966
570.91	16.840
571.25	16.864
571.59	16.755
571.92	16.684
572.26	16.702
572.60	16.680
572.93	16.282
573.27	17.027
573.61	16.464
573.95	16.485
574.28	16.375
574.62	16.803
574.96	15.946
575.29	15.929
575.63	16.355
575.97	16.814
576.30	16.482
576.64	16.702
576.98	16.560
577.31	16.513
577.65	16.447
577.98	16.472
578.32	15.867
578.66	16.265
578.99	15.974
579.33	16.563
579.67	15.956
580.00	15.756
580.34	16.143
580.67	16.196
581.01	16.140
581.35	15.878
581.68	15.901
582.02	15.945
582.35	16.014
582.69	16.114
583.02	15.941
583.36	16.040
583.70	16.065
584.03	15.767
584.37	15.848
584.70	15.697
585.04	15.299
585.37	15.643
585.71	15.793
586.04	15.742
586.38	15.529
586.72	15.342
587.05	15.400
587.39	15.807
587.72	15.718
588.06	15.546
588.39	15.584
588.73	15.370
589.06	15.322
589.40	15.642
589.73	15.649
590.07	15.816
590.40	16.396
590.73	15.447
591.07	15.748
591.40	15.241
591.74	15.461
592.07	15.104
592.41	15.615
592.74	15.193
593.08	15.892
593.41	15.661
593.75	14.914
594.08	14.905
594.41	15.577
594.75	15.377
595.08	14.872
595.42	15.390
595.75	15.725
596.09	15.351
596.42	15.335
596.75	15.515
597.09	16.000
597.42	14.859
597.75	15.014
598.09	15.476
598.42	15.038
598.76	14.635
599.09	14.382
599.42	14.616
599.76	14.625
600.09	15.382
600.42	14.882
600.76	14.630
601.09	14.471
601.42	14.555
601.76	15.207
602.09	15.011
602.42	14.467
602.76	14.797
603.09	14.684
603.42	14.776
603.76	14.376
604.09	15.082
604.42	15.046
604.76	14.954
605.09	14.639
605.42	14.952
605.75	14.808
606.09	14.222
606.42	14.484
606.75	14.543
607.09	13.902
607.42	14.605
607.75	14.459
608.08	14.444
608.42	14.672
608.75	14.760
609.08	14.261
609.41	14.204
609.75	14.732
610.08	14.424
610.41	14.061
610.74	14.580
611.07	14.742
611.41	15.202
611.74	14.503
612.07	14.540
612.40	14.496
612.73	14.523
613.07	14.621
613.40	14.389
613.73	14.636
614.06	14.671
614.39	14.043
614.72	13.974
615.06	13.956
615.39	14.210
615.72	14.408
616.05	14.667
616.38	14.682
616.71	14.943
617.05	14.217
617.38	14.339
617.71	14.525
618.04	14.679
618.37	13.934
618.70	15.271
619.03	13.978
619.36	13.933
619.69	13.389
620.03	13.873
620.36	14.049
620.69	14.559
621.02	14.567
621.35	14.514
621.68	15.257
622.01	13.523
622.34	14.086
622.67	15.052
623.00	12.281
623.33	15.196
623.66	14.786
623.99	13.167
624.32	14.360
624.65	14.093
624.99	14.499
625.32	13.978
625.65	13.958
625.98	14.102
626.31	14.316
626.64	13.993
626.97	14.179
627.30	13.819
627.63	13.578
627.96	14.790
628.29	14.008
628.62	13.602
628.95	14.198
629.28	13.339
629.61	14.478
629.94	13.473
630.26	13.220
630.59	14.421
630.92	12.814
631.25	14.132
631.58	15.160
631.91	13.402
632.24	14.121
632.57	13.757
632.90	14.142
633.23	14.694
633.56	14.082
633.89	14.256
634.22	15.385
634.55	14.614
634.88	13.095
635.20	14.747
635.53	13.107
635.86	13.651
636.19	15.483
636.52	14.135
636.85	15.117
