SpectraSuite Data File
++++++++++++++++++++++++++++++++++++
Date: Thu May 14 16:24:43 PDT 2015
User: schluterlab
Dark Spectrum Present: Yes
Reference Spectrum Present: Yes
Number of Sampled Component Spectra: 1
Spectrometers: USB2E3373
Integration Time (usec): 3000 (USB2E3373)
Spectra Averaged: 3 (USB2E3373)
Boxcar Smoothing: 0 (USB2E3373)
Correct for Electrical Dark: No (USB2E3373)
Strobe/Lamp Enabled: No (USB2E3373)
Correct for Detector Non-linearity: No (USB2E3373)
Correct for Stray Light: No (USB2E3373)
Number of Pixels in Processed Spectrum: 2048
>>>>>Begin Processed Spectral Data<<<<<
178.53	0.000
178.91	-14.286
179.29	-1400.000
179.67	600.000
180.04	100.000
180.42	40.000
180.80	140.000
181.18	0.000
181.56	-100.000
181.94	175.000
182.31	-125.000
182.69	-33.333
183.07	50.000
183.45	-50.000
183.83	83.333
184.20	-33.333
184.58	100.000
184.96	-25.000
185.34	11.111
185.72	-60.000
186.09	133.333
186.47	500.000
186.85	340.000
187.23	-122.222
187.61	-400.000
187.98	80.000
188.36	125.000
188.74	-100.000
189.12	-133.333
189.49	37.500
189.87	-75.000
190.25	0.000
190.63	-100.000
191.00	-122.222
191.38	0.000
191.76	-275.000
192.14	0.000
192.51	300.000
192.89	116.667
193.27	0.000
193.65	-14.286
194.02	-700.000
194.40	-14.286
194.78	85.714
195.15	0.000
195.53	72.727
195.91	0.000
196.29	-100.000
196.66	-46.154
197.04	-600.000
197.42	-157.143
197.79	-250.000
198.17	-62.500
198.55	-71.429
198.92	100.000
199.30	-150.000
199.68	18.182
200.05	57.143
200.43	-250.000
200.81	100.000
201.18	0.000
201.56	88.889
201.94	0.000
202.31	300.000
202.69	-100.000
203.07	-400.000
203.44	55.556
203.82	-375.000
204.19	-25.000
204.57	-16.667
204.95	-25.000
205.32	-500.000
205.70	-0.000
206.08	-50.000
206.45	66.667
206.83	300.000
207.20	116.667
207.58	-120.000
207.96	0.000
208.33	116.667
208.71	41.667
209.08	16.667
209.46	0.000
209.84	233.333
210.21	400.000
210.59	200.000
210.96	166.667
211.34	50.000
211.71	12.500
212.09	-800.000
212.46	0.000
212.84	850.000
213.22	-240.000
213.59	-150.000
213.97	80.000
214.34	-200.000
214.72	183.333
215.09	-125.000
215.47	0.000
215.84	85.714
216.22	550.000
216.59	-200.000
216.97	0.000
217.34	25.000
217.72	87.500
218.09	-125.000
218.47	-75.000
218.84	0.000
219.22	60.000
219.59	0.000
219.97	15.000
220.34	300.000
220.72	-11.111
221.09	46.154
221.47	-400.000
221.84	-50.000
222.22	-114.286
222.59	0.000
222.97	37.500
223.34	-200.000
223.72	200.000
224.09	75.000
224.46	-25.000
224.84	20.000
225.21	71.429
225.59	-150.000
225.96	-150.000
226.34	-7.692
226.71	100.000
227.08	0.000
227.46	-33.333
227.83	-200.000
228.21	42.105
228.58	87.500
228.95	450.000
229.33	25.000
229.70	-10.000
230.08	52.632
230.45	10.000
230.82	-66.667
231.20	14.286
231.57	0.000
231.95	-45.455
232.32	-9.091
232.69	0.000
233.07	-100.000
233.44	-41.176
233.81	-30.000
234.19	94.444
234.56	31.818
234.93	20.690
235.31	21.053
235.68	16.667
236.05	-45.000
236.43	46.154
236.80	76.000
237.17	70.370
237.55	-3.030
237.92	0.000
238.29	29.032
238.67	40.909
239.04	41.667
239.41	38.095
239.79	26.087
240.16	42.593
240.53	30.435
240.91	29.412
241.28	32.787
241.65	32.836
242.02	36.486
242.40	38.462
242.77	32.000
243.14	28.049
243.51	46.053
243.89	41.026
244.26	52.475
244.63	54.902
245.00	42.991
245.38	50.877
245.75	33.628
246.12	48.413
246.49	41.085
246.87	39.286
247.24	46.358
247.61	42.105
247.98	45.638
248.36	38.272
248.73	33.129
249.10	39.891
249.47	40.796
249.84	45.550
250.22	47.150
250.59	47.222
250.96	39.545
251.33	38.776
251.70	45.726
252.08	40.833
252.45	42.213
252.82	45.041
253.19	41.797
253.56	42.966
253.94	41.923
254.31	43.182
254.68	45.455
255.05	43.974
255.42	42.517
255.79	42.395
256.16	42.715
256.54	44.371
256.91	44.918
257.28	46.230
257.65	40.764
258.02	39.823
258.39	41.311
258.76	46.789
259.14	43.391
259.51	43.228
259.88	45.609
260.25	43.611
260.62	43.014
260.99	43.989
261.36	44.772
261.73	42.175
262.10	46.703
262.47	45.845
262.85	46.970
263.22	42.078
263.59	43.947
263.96	41.432
264.33	42.967
264.70	44.691
265.07	45.823
265.44	45.125
265.81	43.287
266.18	43.991
266.55	41.964
266.92	41.458
267.29	43.326
267.66	43.459
268.03	43.886
268.40	43.215
268.77	40.547
269.14	42.731
269.51	40.132
269.88	41.393
270.25	42.052
270.62	43.460
270.99	47.677
271.36	40.594
271.73	41.257
272.10	42.886
272.47	43.487
272.84	41.767
273.21	41.483
273.58	44.153
273.95	42.885
274.32	39.354
274.69	38.298
275.06	42.857
275.43	40.111
275.80	38.095
276.17	40.556
276.54	37.500
276.91	39.535
277.28	40.145
277.65	40.395
278.02	40.809
278.39	39.312
278.76	40.598
279.13	42.199
279.50	40.550
279.87	38.998
280.23	35.387
280.60	39.661
280.97	39.474
281.34	38.710
281.71	39.425
282.08	38.704
282.45	37.643
282.82	37.677
283.19	38.126
283.56	39.180
283.92	40.090
284.29	41.232
284.66	39.080
285.03	37.340
285.40	38.794
285.77	39.319
286.14	38.015
286.51	39.269
286.87	38.073
287.24	38.102
287.61	39.163
287.98	36.556
288.35	37.426
288.72	37.426
289.08	35.432
289.45	36.686
289.82	36.898
290.19	34.195
290.56	38.592
290.93	34.379
291.29	35.537
291.66	36.226
292.03	35.278
292.40	35.918
292.77	35.175
293.13	35.589
293.50	35.085
293.87	33.423
294.24	36.400
294.60	32.870
294.97	33.020
295.34	33.931
295.71	32.282
296.08	31.525
296.44	32.843
296.81	31.547
297.18	33.001
297.55	32.193
297.91	31.910
298.28	31.043
298.65	30.797
299.02	31.287
299.38	32.265
299.75	31.893
300.12	32.060
300.48	31.106
300.85	31.384
301.22	30.761
301.59	30.594
301.95	28.927
302.32	30.667
302.69	28.697
303.05	30.033
303.42	29.823
303.79	31.042
304.15	31.230
304.52	29.387
304.89	29.843
305.25	29.193
305.62	28.945
305.99	29.485
306.35	28.528
306.72	30.920
307.09	28.325
307.45	29.296
307.82	29.162
308.19	29.970
308.55	29.990
308.92	29.698
309.29	29.215
309.65	30.507
310.02	28.416
310.38	28.248
310.75	29.903
311.12	30.968
311.48	29.423
311.85	30.769
312.22	28.653
312.58	28.357
312.95	28.489
313.31	29.178
313.68	29.121
314.05	29.359
314.41	29.964
314.78	28.701
315.14	29.946
315.51	29.178
315.87	28.803
316.24	30.137
316.61	29.929
316.97	28.688
317.34	27.249
317.70	29.520
318.07	29.894
318.43	29.337
318.80	30.017
319.16	28.755
319.53	26.564
319.89	28.221
320.26	27.936
320.62	27.748
320.99	28.994
321.35	27.449
321.72	28.093
322.08	29.035
322.45	28.275
322.81	28.791
323.18	29.292
323.54	29.052
323.91	28.826
324.27	27.625
324.64	28.883
325.00	27.612
325.37	29.402
325.73	28.760
326.10	29.116
326.46	29.560
326.83	29.384
327.19	28.189
327.56	28.538
327.92	29.032
328.29	28.065
328.65	27.638
329.01	28.426
329.38	28.812
329.74	29.623
330.11	29.623
330.47	28.138
330.84	28.941
331.20	27.167
331.56	27.470
331.93	29.289
332.29	28.814
332.66	28.571
333.02	27.973
333.38	27.936
333.75	29.461
334.11	28.857
334.48	27.805
334.84	28.717
335.20	28.547
335.57	27.909
335.93	27.934
336.29	26.622
336.66	26.493
337.02	28.679
337.38	28.316
337.75	27.851
338.11	28.175
338.47	28.205
338.84	26.904
339.20	27.043
339.56	27.595
339.93	27.833
340.29	28.341
340.65	28.305
341.02	27.294
341.38	28.052
341.74	27.199
342.11	27.997
342.47	27.006
342.83	27.778
343.20	27.473
343.56	27.907
343.92	27.862
344.28	26.641
344.65	27.287
345.01	26.677
345.37	27.138
345.73	27.046
346.10	27.769
346.46	27.215
346.82	27.566
347.19	27.349
347.55	27.390
347.91	27.712
348.27	27.997
348.63	27.951
349.00	26.100
349.36	27.584
349.72	26.935
350.08	29.049
350.45	27.757
350.81	27.225
351.17	26.391
351.53	26.839
351.89	26.879
352.26	25.896
352.62	26.567
352.98	27.176
353.34	26.438
353.70	27.812
354.07	26.230
354.43	28.170
354.79	27.225
355.15	27.447
355.51	27.997
355.87	27.300
356.24	27.072
356.60	26.386
356.96	27.428
357.32	26.543
357.68	25.988
358.04	26.722
358.40	26.343
358.77	27.266
359.13	25.775
359.49	25.799
359.85	26.106
360.21	26.829
360.57	26.705
360.93	26.516
361.29	27.509
361.66	27.444
362.02	27.766
362.38	27.829
362.74	26.397
363.10	26.823
363.46	27.562
363.82	26.278
364.18	27.586
364.54	27.248
364.90	27.692
365.26	27.034
365.62	27.067
365.98	27.502
366.35	26.779
366.71	26.939
367.07	27.334
367.43	27.183
367.79	27.671
368.15	28.495
368.51	27.876
368.87	27.760
369.23	28.133
369.59	26.503
369.95	28.127
370.31	27.211
370.67	26.204
371.03	28.324
371.39	27.132
371.75	27.923
372.11	27.710
372.47	27.014
372.83	28.730
373.19	27.352
373.55	27.168
373.91	27.607
374.27	27.943
374.63	28.417
374.99	29.443
375.35	28.182
375.71	28.258
376.07	28.212
376.42	28.338
376.78	27.968
377.14	27.698
377.50	28.906
377.86	28.879
378.22	29.042
378.58	29.370
378.94	28.110
379.30	28.881
379.66	28.748
380.02	29.025
380.38	29.263
380.74	29.465
381.09	28.978
381.45	28.580
381.81	29.801
382.17	29.335
382.53	30.058
382.89	29.628
383.25	30.012
383.61	29.630
383.97	29.800
384.32	31.041
384.68	29.234
385.04	29.960
385.40	30.524
385.76	30.950
386.12	30.162
386.48	29.882
386.83	31.347
387.19	30.765
387.55	30.106
387.91	29.452
388.27	32.102
388.62	30.470
388.98	30.288
389.34	31.232
389.70	31.203
390.06	30.551
390.42	29.759
390.77	31.969
391.13	31.338
391.49	30.797
391.85	31.455
392.20	31.198
392.56	31.246
392.92	30.916
393.28	31.730
393.64	31.173
393.99	31.610
394.35	31.484
394.71	30.898
395.07	30.659
395.42	31.639
395.78	31.749
396.14	31.729
396.50	31.473
396.85	30.888
397.21	31.538
397.57	31.743
397.92	31.615
398.28	31.287
398.64	30.950
399.00	31.204
399.35	31.780
399.71	31.957
400.07	32.398
400.42	32.247
400.78	32.755
401.14	32.669
401.49	32.689
401.85	32.035
402.21	32.793
402.57	33.568
402.92	32.388
403.28	31.499
403.63	32.518
403.99	32.245
404.35	32.803
404.70	32.351
405.06	32.391
405.42	33.372
405.77	33.261
406.13	32.901
406.49	33.333
406.84	32.355
407.20	33.538
407.55	33.313
407.91	32.810
408.27	33.451
408.62	32.577
408.98	32.618
409.34	32.375
409.69	34.302
410.05	33.822
410.40	35.035
410.76	33.371
411.11	33.665
411.47	33.600
411.83	34.333
412.18	34.337
412.54	33.017
412.89	33.877
413.25	33.465
413.60	33.142
413.96	33.508
414.31	33.031
414.67	33.870
415.03	33.292
415.38	34.741
415.74	32.682
416.09	34.115
416.45	33.626
416.80	33.231
417.16	33.525
417.51	34.184
417.87	33.906
418.22	33.413
418.58	33.209
418.93	34.633
419.29	34.957
419.64	33.794
420.00	33.472
420.35	33.352
420.71	33.659
421.06	33.698
421.42	34.346
421.77	33.495
422.12	33.034
422.48	33.231
422.83	33.680
423.19	34.058
423.54	34.347
423.90	33.076
424.25	33.867
424.61	33.295
424.96	34.267
425.31	33.864
425.67	33.494
426.02	34.200
426.38	32.836
426.73	33.371
427.09	35.582
427.44	33.424
427.79	33.610
428.15	33.048
428.50	32.978
428.85	32.549
429.21	33.191
429.56	32.873
429.92	32.678
430.27	33.253
430.62	33.024
430.98	32.956
431.33	33.138
431.68	31.466
432.04	33.875
432.39	32.512
432.74	33.619
433.10	33.261
433.45	32.720
433.80	32.457
434.16	32.438
434.51	33.196
434.86	34.528
435.22	34.219
435.57	33.314
435.92	33.612
436.28	33.390
436.63	33.261
436.98	32.582
437.34	32.976
437.69	33.572
438.04	32.575
438.39	33.429
438.75	32.042
439.10	34.091
439.45	32.700
439.81	32.147
440.16	32.547
440.51	33.835
440.86	33.463
441.22	32.958
441.57	32.809
441.92	32.832
442.27	33.182
442.63	33.333
442.98	34.045
443.33	32.457
443.68	33.647
444.03	34.055
444.39	33.611
444.74	32.874
445.09	34.009
445.44	33.246
445.79	32.663
446.15	33.505
446.50	32.661
446.85	34.144
447.20	33.075
447.55	33.787
447.91	33.717
448.26	32.928
448.61	32.625
448.96	33.155
449.31	33.033
449.66	32.625
450.02	33.333
450.37	33.671
450.72	33.154
451.07	33.144
451.42	33.044
451.77	33.296
452.12	32.731
452.47	32.442
452.83	32.883
453.18	31.699
453.53	32.797
453.88	32.192
454.23	33.277
454.58	33.082
454.93	33.010
455.28	33.594
455.63	32.746
455.98	33.743
456.34	33.157
456.69	32.922
457.04	33.156
457.39	32.483
457.74	32.103
458.09	32.565
458.44	32.705
458.79	31.511
459.14	32.145
459.49	31.692
459.84	32.267
460.19	32.260
460.54	32.936
460.89	32.504
461.24	32.011
461.59	32.042
461.94	31.831
462.29	32.587
462.64	31.986
462.99	33.082
463.34	32.706
463.69	32.005
464.04	32.685
464.39	32.399
464.74	32.098
465.09	31.719
465.44	32.028
465.79	31.994
466.14	31.944
466.49	32.053
466.84	31.846
467.19	32.081
467.54	32.902
467.89	32.069
468.24	32.355
468.59	32.252
468.94	31.585
469.29	31.674
469.64	31.405
469.99	32.186
470.34	32.240
470.68	32.194
471.03	32.547
471.38	33.355
471.73	32.835
472.08	32.868
472.43	32.210
472.78	32.997
473.13	32.996
473.48	31.239
473.83	32.966
474.17	31.419
474.52	32.291
474.87	32.669
475.22	33.296
475.57	31.672
475.92	31.956
476.27	31.896
476.61	32.243
476.96	32.273
477.31	32.376
477.66	33.158
478.01	32.028
478.36	31.705
478.70	33.251
479.05	32.771
479.40	32.675
479.75	32.853
480.10	32.449
480.45	32.179
480.79	31.882
481.14	32.307
481.49	33.303
481.84	32.115
482.19	32.258
482.53	32.051
482.88	32.875
483.23	32.148
483.58	32.402
483.92	32.181
484.27	32.642
484.62	31.477
484.97	32.582
485.31	31.468
485.66	30.435
486.01	28.975
486.36	30.277
486.70	31.615
487.05	32.488
487.40	32.668
487.75	33.232
488.09	34.010
488.44	33.539
488.79	32.648
489.13	32.766
489.48	31.456
489.83	31.429
490.17	30.741
490.52	30.911
490.87	32.572
491.22	31.499
491.56	31.399
491.91	30.964
492.26	31.718
492.60	30.695
492.95	31.593
493.30	30.524
493.64	31.494
493.99	31.316
494.34	30.009
494.68	30.578
495.03	31.057
495.37	31.292
495.72	30.975
496.07	30.850
496.41	30.030
496.76	31.193
497.11	30.488
497.45	30.945
497.80	30.964
498.14	30.748
498.49	31.664
498.84	31.444
499.18	31.129
499.53	31.300
499.87	30.989
500.22	30.365
500.56	30.454
500.91	30.847
501.26	31.591
501.60	30.490
501.95	31.481
502.29	31.198
502.64	31.570
502.98	30.630
503.33	30.410
503.67	30.789
504.02	30.254
504.36	30.920
504.71	31.006
505.06	31.287
505.40	30.850
505.75	31.421
506.09	31.215
506.44	31.708
506.78	31.697
507.13	31.166
507.47	31.975
507.82	31.629
508.16	32.314
508.51	30.614
508.85	31.696
509.19	31.833
509.54	32.709
509.88	31.229
510.23	32.006
510.57	33.204
510.92	32.898
511.26	31.361
511.61	31.048
511.95	31.186
512.30	33.235
512.64	31.184
512.98	31.816
513.33	33.065
513.67	32.432
514.02	33.163
514.36	33.248
514.70	32.969
515.05	32.690
515.39	33.123
515.74	33.828
516.08	34.284
516.42	34.380
516.77	32.965
517.11	33.265
517.46	32.768
517.80	33.351
518.14	33.351
518.49	33.623
518.83	34.007
519.17	32.472
519.52	34.591
519.86	33.738
520.20	33.919
520.55	33.078
520.89	34.741
521.23	34.506
521.58	35.424
521.92	33.541
522.26	34.364
522.61	34.838
522.95	33.795
523.29	33.678
523.64	34.305
523.98	35.140
524.32	35.587
524.66	34.604
525.01	33.409
525.35	35.497
525.69	34.165
526.04	33.754
526.38	35.632
526.72	36.159
527.06	35.249
527.41	34.810
527.75	34.442
528.09	35.478
528.43	35.050
528.78	34.162
529.12	34.920
529.46	34.570
529.80	35.812
530.15	34.783
530.49	34.401
530.83	35.419
531.17	34.886
531.51	35.680
531.86	34.675
532.20	36.463
532.54	33.992
532.88	34.848
533.22	34.473
533.57	33.872
533.91	34.848
534.25	34.539
534.59	35.460
534.93	34.126
535.27	34.028
535.62	35.134
535.96	35.851
536.30	34.783
536.64	34.535
536.98	35.178
537.32	34.877
537.66	34.934
538.01	34.864
538.35	34.775
538.69	34.375
539.03	34.641
539.37	34.158
539.71	34.114
540.05	35.492
540.39	34.780
540.73	34.912
541.07	34.641
541.42	33.786
541.76	33.393
542.10	33.715
542.44	33.557
542.78	34.428
543.12	34.446
543.46	34.432
543.80	33.933
544.14	33.932
544.48	35.165
544.82	34.650
545.16	34.347
545.50	34.632
545.84	33.068
546.18	34.691
546.52	33.694
546.86	34.340
547.20	34.860
547.54	33.770
547.88	34.117
548.22	33.743
548.56	33.119
548.90	34.149
549.24	33.191
549.58	33.502
549.92	33.865
550.26	33.916
550.60	33.631
550.94	34.541
551.28	33.267
551.62	33.827
551.96	32.427
552.30	32.823
552.64	33.541
552.98	33.624
553.32	34.212
553.66	33.183
554.00	32.598
554.34	33.398
554.68	32.795
555.02	32.983
555.36	33.136
555.69	32.607
556.03	32.913
556.37	32.979
556.71	32.530
557.05	34.249
557.39	34.174
557.73	32.959
558.07	32.649
558.41	33.023
558.75	32.319
559.08	33.264
559.42	32.579
559.76	31.682
560.10	32.083
560.44	31.464
560.78	32.500
561.12	33.313
561.45	32.786
561.79	32.845
562.13	32.779
562.47	31.073
562.81	31.709
563.15	32.955
563.48	32.691
563.82	31.439
564.16	31.435
564.50	32.241
564.84	31.504
565.17	32.059
565.51	31.646
565.85	32.423
566.19	31.624
566.52	31.480
566.86	31.013
567.20	31.321
567.54	31.917
567.88	31.855
568.21	32.164
568.55	30.600
568.89	31.639
569.23	31.221
569.56	30.754
569.90	30.898
570.24	30.860
570.57	30.404
570.91	30.649
571.25	30.113
571.59	30.420
571.92	31.050
572.26	30.916
572.60	30.658
572.93	30.587
573.27	30.627
573.61	30.228
573.95	30.590
574.28	30.273
574.62	30.241
574.96	30.040
575.29	29.588
575.63	30.007
575.97	30.323
576.30	29.706
576.64	30.184
576.98	29.795
577.31	30.158
577.65	30.107
577.98	29.989
578.32	29.454
578.66	29.457
578.99	29.941
579.33	30.258
579.67	30.122
580.00	30.411
580.34	29.865
580.67	30.163
581.01	30.160
581.35	29.651
581.68	29.068
582.02	29.186
582.35	29.546
582.69	30.021
583.02	30.237
583.36	30.520
583.70	31.084
584.03	30.454
584.37	30.659
584.70	29.535
585.04	29.505
585.37	29.319
585.71	29.536
586.04	29.128
586.38	29.643
586.72	28.654
587.05	28.959
587.39	29.195
587.72	29.426
588.06	29.328
588.39	29.300
588.73	29.021
589.06	29.966
589.40	29.564
589.73	29.820
590.07	28.879
590.40	29.446
590.73	29.622
591.07	29.821
591.40	28.733
591.74	29.571
592.07	29.923
592.41	28.667
592.74	29.002
593.08	28.471
593.41	28.288
593.75	27.931
594.08	28.870
594.41	28.846
594.75	28.595
595.08	28.903
595.42	28.247
595.75	28.867
596.09	29.787
596.42	29.416
596.75	29.178
597.09	29.737
597.42	28.844
597.75	28.499
598.09	28.849
598.42	28.790
598.76	28.277
599.09	28.658
599.42	27.523
599.76	28.293
600.09	28.095
600.42	28.428
600.76	27.609
601.09	27.946
601.42	28.081
601.76	28.414
602.09	27.806
602.42	27.045
602.76	28.192
603.09	28.524
603.42	28.143
603.76	27.343
604.09	28.318
604.42	28.881
604.76	27.245
605.09	28.799
605.42	28.309
605.75	27.577
606.09	26.913
606.42	27.982
606.75	27.549
607.09	27.343
607.42	27.129
607.75	28.331
608.08	28.374
608.42	28.053
608.75	28.441
609.08	26.868
609.41	28.319
609.75	27.589
610.08	27.704
610.41	27.825
610.74	27.017
611.07	27.753
611.41	27.758
611.74	27.760
612.07	27.770
612.40	27.471
612.73	28.215
613.07	27.384
613.40	27.526
613.73	27.684
614.06	27.772
614.39	27.648
614.72	27.074
615.06	26.805
615.39	26.825
615.72	27.393
616.05	26.663
616.38	27.094
616.71	27.377
617.05	27.423
617.38	27.448
617.71	28.078
618.04	27.631
618.37	27.432
618.70	27.885
619.03	27.121
619.36	27.250
619.69	26.393
620.03	26.679
620.36	26.626
620.69	26.712
621.02	27.625
621.35	27.866
621.68	27.477
622.01	27.046
622.34	26.430
622.67	26.942
623.00	25.641
623.33	27.339
623.66	26.913
623.99	26.070
624.32	26.901
624.65	25.354
624.99	27.113
625.32	27.368
625.65	26.770
625.98	27.254
626.31	27.002
626.64	26.154
626.97	26.557
627.30	25.816
627.63	26.032
627.96	28.529
628.29	27.237
628.62	25.945
628.95	28.221
629.28	25.913
629.61	26.852
629.94	26.444
630.26	26.271
630.59	25.475
630.92	26.667
631.25	27.460
631.58	26.836
631.91	25.492
632.24	26.225
632.57	26.755
632.90	26.179
633.23	26.735
633.56	25.612
633.89	25.207
634.22	26.715
