SpectraSuite Data File
++++++++++++++++++++++++++++++++++++
Date: Thu May 14 16:36:46 PDT 2015
User: schluterlab
Dark Spectrum Present: Yes
Reference Spectrum Present: Yes
Number of Sampled Component Spectra: 1
Spectrometers: USB2E3373
Integration Time (usec): 3000 (USB2E3373)
Spectra Averaged: 3 (USB2E3373)
Boxcar Smoothing: 0 (USB2E3373)
Correct for Electrical Dark: No (USB2E3373)
Strobe/Lamp Enabled: No (USB2E3373)
Correct for Detector Non-linearity: No (USB2E3373)
Correct for Stray Light: No (USB2E3373)
Number of Pixels in Processed Spectrum: 2048
>>>>>Begin Processed Spectral Data<<<<<
178.53	0.000
178.91	28.571
179.29	-1400.000
179.67	-700.000
180.04	150.000
180.42	70.000
180.80	40.000
181.18	-900.000
181.56	200.000
181.94	-25.000
182.31	25.000
182.69	133.333
183.07	-250.000
183.45	200.000
183.83	50.000
184.20	-233.333
184.58	500.000
184.96	-275.000
185.34	-88.889
185.72	20.000
186.09	111.111
186.47	600.000
186.85	240.000
187.23	-66.667
187.61	-1700.000
187.98	-60.000
188.36	25.000
188.74	-200.000
189.12	-266.667
189.49	6.250
189.87	-125.000
190.25	33.333
190.63	-80.000
191.00	-11.111
191.38	0.000
191.76	-150.000
192.14	-66.667
192.51	400.000
192.89	50.000
193.27	0.000
193.65	-100.000
194.02	-900.000
194.40	-57.143
194.78	85.714
195.15	0.000
195.53	27.273
195.91	0.000
196.29	0.000
196.66	0.000
197.04	-500.000
197.42	-114.286
197.79	-500.000
198.17	-25.000
198.55	-71.429
198.92	-22.222
199.30	-87.500
199.68	27.273
200.05	-28.571
200.43	-200.000
200.81	142.857
201.18	0.000
201.56	155.556
201.94	0.000
202.31	133.333
202.69	-111.111
203.07	300.000
203.44	-44.444
203.82	-50.000
204.19	8.333
204.57	-100.000
204.95	-62.500
205.32	-1500.000
205.70	100.000
206.08	-133.333
206.45	33.333
206.83	240.000
207.20	-66.667
207.58	-160.000
207.96	50.000
208.33	183.333
208.71	41.667
209.08	116.667
209.46	0.000
209.84	150.000
210.21	150.000
210.59	-100.000
210.96	166.667
211.34	50.000
211.71	-62.500
212.09	100.000
212.46	0.000
212.84	850.000
213.22	-280.000
213.59	0.000
213.97	40.000
214.34	-100.000
214.72	100.000
215.09	-25.000
215.47	0.000
215.84	-42.857
216.22	400.000
216.59	100.000
216.97	-60.000
217.34	50.000
217.72	-137.500
218.09	-250.000
218.47	-150.000
218.84	0.000
219.22	220.000
219.59	-29.412
219.97	-25.000
220.34	400.000
220.72	-22.222
221.09	100.000
221.47	0.000
221.84	-40.000
222.22	28.571
222.59	0.000
222.97	-50.000
223.34	-460.000
223.72	-1400.000
224.09	-75.000
224.46	-50.000
224.84	20.000
225.21	-71.429
225.59	-125.000
225.96	-225.000
226.34	26.923
226.71	100.000
227.08	-150.000
227.46	-20.000
227.83	-125.000
228.21	5.263
228.58	75.000
228.95	250.000
229.33	-16.667
229.70	-90.000
230.08	15.789
230.45	80.000
230.82	0.000
231.20	50.000
231.57	-8.333
231.95	-63.636
232.32	0.000
232.69	-35.000
233.07	-75.000
233.44	-5.882
233.81	-50.000
234.19	33.333
234.56	36.364
234.93	17.241
235.31	0.000
235.68	38.889
236.05	0.000
236.43	30.769
236.80	8.000
237.17	11.111
237.55	9.091
237.92	-180.000
238.29	-25.806
238.67	-4.545
239.04	-13.889
239.41	-9.524
239.79	15.217
240.16	14.815
240.53	-2.174
240.91	-25.490
241.28	1.639
241.65	14.925
242.02	13.514
242.40	-4.615
242.77	9.333
243.14	-4.878
243.51	-6.579
243.89	1.282
244.26	5.941
244.63	5.882
245.00	0.935
245.38	8.772
245.75	1.770
246.12	6.349
246.49	4.651
246.87	12.857
247.24	4.636
247.61	3.947
247.98	4.698
248.36	5.556
248.73	3.067
249.10	7.650
249.47	14.428
249.84	10.471
250.22	9.845
250.59	8.889
250.96	12.273
251.33	5.102
251.70	12.393
252.08	8.750
252.45	12.295
252.82	7.851
253.19	5.469
253.56	9.506
253.94	4.231
254.31	5.682
254.68	15.035
255.05	14.658
255.42	7.143
255.79	4.531
256.16	6.291
256.54	5.960
256.91	11.475
257.28	9.180
257.65	5.732
258.02	8.850
258.39	11.396
258.76	12.844
259.14	8.908
259.51	7.493
259.88	5.949
260.25	8.889
260.62	9.315
260.99	10.383
261.36	8.579
261.73	9.284
262.10	9.341
262.47	9.383
262.85	12.879
263.22	9.610
263.59	6.316
263.96	10.230
264.33	7.673
264.70	9.877
265.07	10.979
265.44	10.658
265.81	8.102
266.18	10.204
266.55	8.929
266.92	7.062
267.29	10.941
267.66	9.756
268.03	9.825
268.40	10.438
268.77	8.656
269.14	6.388
269.51	10.746
269.88	12.705
270.25	8.451
270.62	8.650
270.99	12.727
271.36	11.683
271.73	9.823
272.10	11.022
272.47	11.423
272.84	7.430
273.21	10.220
273.58	9.476
273.95	8.846
274.32	7.605
274.69	8.317
275.06	10.256
275.43	8.503
275.80	9.171
276.17	7.778
276.54	7.463
276.91	10.018
277.28	9.765
277.65	10.054
278.02	9.007
278.39	7.065
278.76	8.787
279.13	8.333
279.50	10.309
279.87	10.376
280.23	7.218
280.60	8.644
280.97	10.197
281.34	8.829
281.71	11.844
282.08	7.309
282.45	7.856
282.82	10.518
283.19	6.300
283.56	8.033
283.92	12.162
284.29	12.638
284.66	9.195
285.03	7.532
285.40	10.046
285.77	9.288
286.14	10.229
286.51	9.132
286.87	9.005
287.24	10.843
287.61	8.221
287.98	8.459
288.35	8.876
288.72	9.615
289.08	9.663
289.45	10.059
289.82	9.036
290.19	9.770
290.56	8.732
290.93	7.989
291.29	7.025
291.66	9.780
292.03	8.412
292.40	9.116
292.77	7.412
293.13	9.066
293.50	6.965
293.87	7.114
294.24	7.467
294.60	8.723
294.97	8.054
295.34	9.347
295.71	6.557
296.08	6.460
296.44	7.598
296.81	7.186
297.18	7.597
297.55	7.901
297.91	8.422
298.28	6.991
298.65	7.848
299.02	6.612
299.38	6.865
299.75	7.944
300.12	7.986
300.48	6.452
300.85	7.874
301.22	7.271
301.59	7.306
301.95	6.780
302.32	8.444
302.69	7.667
303.05	7.835
303.42	8.093
303.79	7.812
304.15	7.886
304.52	6.765
304.89	7.120
305.25	6.625
305.62	7.210
305.99	7.113
306.35	7.560
306.72	6.722
307.09	6.396
307.45	7.660
307.82	7.568
308.19	6.963
308.55	8.100
308.92	7.790
309.29	7.088
309.65	7.115
310.02	6.634
310.38	7.480
310.75	7.476
311.12	7.287
311.48	7.234
311.85	7.692
312.22	7.590
312.58	7.512
312.95	7.170
313.31	8.672
313.68	8.242
314.05	9.124
314.41	9.107
314.78	8.901
315.14	8.530
315.51	9.234
315.87	8.371
316.24	10.046
316.61	10.124
316.97	9.140
317.34	9.436
317.70	11.004
318.07	8.642
318.43	10.969
318.80	11.455
319.16	10.472
319.53	9.512
319.89	10.517
320.26	12.811
320.62	11.259
320.99	12.650
321.35	12.015
321.72	12.465
322.08	13.075
322.45	14.544
322.81	13.267
323.18	12.301
323.54	13.534
323.91	14.413
324.27	13.855
324.64	16.037
325.00	15.755
325.37	16.380
325.73	16.529
326.10	16.058
326.46	18.811
326.83	18.175
327.19	17.953
327.56	18.577
327.92	18.096
328.29	19.194
328.65	19.849
329.01	18.105
329.38	19.798
329.74	19.435
330.11	20.462
330.47	21.230
330.84	22.308
331.20	22.000
331.56	22.704
331.93	21.841
332.29	21.949
332.66	23.007
333.02	22.613
333.38	22.903
333.75	22.727
334.11	22.852
334.48	23.102
334.84	23.025
335.20	22.250
335.57	23.356
335.93	23.719
336.29	21.298
336.66	24.138
337.02	23.913
337.38	23.639
337.75	23.058
338.11	22.876
338.47	23.821
338.84	23.435
339.20	22.746
339.56	23.147
339.93	23.071
340.29	22.303
340.65	23.520
341.02	23.943
341.38	24.171
341.74	22.276
342.11	23.411
342.47	22.240
342.83	23.349
343.20	24.448
343.56	23.015
343.92	24.339
344.28	23.984
344.65	24.031
345.01	23.479
345.37	24.806
345.73	22.837
346.10	23.869
346.46	23.576
346.82	24.120
347.19	24.523
347.55	23.824
347.91	23.328
348.27	23.900
348.63	23.839
349.00	23.341
349.36	23.866
349.72	24.330
350.08	24.368
350.45	23.574
350.81	24.057
351.17	24.060
351.53	23.199
351.89	24.450
352.26	22.910
352.62	23.134
352.98	23.435
353.34	23.226
353.70	23.883
354.07	23.994
354.43	24.222
354.79	24.383
355.15	24.283
355.51	24.269
355.87	24.533
356.24	25.095
356.60	23.873
356.96	24.537
357.32	23.643
357.68	23.792
358.04	23.353
358.40	24.254
358.77	24.123
359.13	23.929
359.49	22.156
359.85	23.568
360.21	23.960
360.57	23.905
360.93	25.388
361.29	24.351
361.66	23.027
362.02	26.026
362.38	25.088
362.74	24.511
363.10	24.897
363.46	23.338
363.82	24.929
364.18	25.616
364.54	24.481
364.90	25.217
365.26	23.793
365.62	24.600
365.98	25.187
366.35	25.101
366.71	24.898
367.07	24.696
367.43	24.951
367.79	24.220
368.15	25.485
368.51	24.493
368.87	25.539
369.23	25.200
369.59	25.683
369.95	24.138
370.31	25.051
370.67	24.691
371.03	24.446
371.39	24.513
371.75	26.341
372.11	24.864
372.47	25.796
372.83	25.524
373.19	24.950
373.55	25.068
373.91	25.017
374.27	24.838
374.63	25.440
374.99	24.735
375.35	25.390
375.71	25.548
376.07	25.759
376.42	26.196
376.78	25.668
377.14	25.140
377.50	26.312
377.86	25.677
378.22	26.287
378.58	26.397
378.94	25.352
379.30	26.421
379.66	26.573
380.02	26.428
380.38	26.382
380.74	26.141
381.09	25.958
381.45	26.136
381.81	25.527
382.17	26.128
382.53	25.906
382.89	25.564
383.25	25.967
383.61	26.273
383.97	26.384
384.32	26.555
384.68	25.522
385.04	27.241
385.40	26.989
385.76	27.257
386.12	26.511
386.48	27.176
386.83	27.294
387.19	25.782
387.55	26.702
387.91	25.799
388.27	26.674
388.62	26.690
388.98	26.509
389.34	27.519
389.70	27.019
390.06	27.590
390.42	26.747
390.77	27.273
391.13	25.998
391.49	26.570
391.85	27.576
392.20	26.097
392.56	28.175
392.92	27.426
393.28	27.584
393.64	26.816
393.99	27.542
394.35	27.570
394.71	27.665
395.07	27.066
395.42	26.156
395.78	28.215
396.14	27.510
396.50	26.841
396.85	27.132
397.21	26.746
397.57	27.621
397.92	27.033
398.28	26.942
398.64	26.487
399.00	26.859
399.35	27.016
399.71	26.685
400.07	27.906
400.42	27.183
400.78	27.141
401.14	27.205
401.49	27.175
401.85	27.500
402.21	27.404
402.57	28.932
402.92	27.660
403.28	26.581
403.63	26.432
403.99	27.672
404.35	25.867
404.70	27.195
405.06	26.848
405.42	27.400
405.77	26.990
406.13	27.661
406.49	27.477
406.84	27.535
407.20	27.222
407.55	26.469
407.91	27.278
408.27	27.150
408.62	27.981
408.98	26.930
409.34	26.569
409.69	26.947
410.05	26.846
410.40	27.726
410.76	28.603
411.11	28.229
411.47	28.256
411.83	27.454
412.18	27.771
412.54	27.504
412.89	28.231
413.25	28.499
413.60	27.685
413.96	27.506
414.31	26.969
414.67	27.668
415.03	27.200
415.38	27.932
415.74	27.245
416.09	28.748
416.45	27.239
416.80	26.438
417.16	28.097
417.51	27.895
417.87	27.836
418.22	28.563
418.58	27.633
418.93	27.066
419.29	27.004
419.64	27.971
420.00	27.893
420.35	28.074
420.71	27.685
421.06	27.200
421.42	27.867
421.77	27.625
422.12	26.956
422.48	27.291
422.83	27.218
423.19	27.639
423.54	27.434
423.90	28.051
424.25	27.467
424.61	27.268
424.96	27.732
425.31	27.919
425.67	27.805
426.02	28.002
426.38	28.703
426.73	27.623
427.09	28.028
427.44	27.198
427.79	28.137
428.15	27.226
428.50	28.202
428.85	27.612
429.21	28.670
429.56	27.887
429.92	27.764
430.27	28.771
430.62	28.774
430.98	28.529
431.33	28.250
431.68	27.490
432.04	28.238
432.39	28.334
432.74	28.311
433.10	28.772
433.45	28.317
433.80	27.951
434.16	27.789
434.51	29.239
434.86	29.805
435.22	28.693
435.57	30.071
435.92	29.048
436.28	29.465
436.63	29.001
436.98	29.576
437.34	28.410
437.69	28.729
438.04	28.874
438.39	29.466
438.75	28.334
439.10	28.594
439.45	28.563
439.81	28.757
440.16	28.901
440.51	29.543
440.86	29.183
441.22	28.778
441.57	28.931
441.92	29.340
442.27	29.293
442.63	29.210
442.98	29.509
443.33	30.037
443.68	30.228
444.03	29.351
444.39	30.236
444.74	29.709
445.09	29.143
445.44	30.084
445.79	30.172
446.15	29.599
446.50	29.457
446.85	29.961
447.20	29.836
447.55	30.649
447.91	29.895
448.26	29.810
448.61	30.181
448.96	30.311
449.31	30.382
449.66	29.357
450.02	30.222
450.37	30.741
450.72	29.763
451.07	30.638
451.42	30.676
451.77	29.238
452.12	30.192
452.47	30.065
452.83	30.405
453.18	30.239
453.53	30.385
453.88	30.536
454.23	29.944
454.58	29.832
454.93	30.218
455.28	31.066
455.63	30.586
455.98	29.777
456.34	29.976
456.69	30.159
457.04	30.969
457.39	30.377
457.74	29.978
458.09	29.764
458.44	30.280
458.79	29.397
459.14	30.624
459.49	30.277
459.84	29.853
460.19	29.150
460.54	31.232
460.89	29.751
461.24	30.345
461.59	30.880
461.94	30.576
462.29	31.299
462.64	29.813
462.99	30.069
463.34	30.629
463.69	31.067
464.04	31.128
464.39	29.933
464.74	29.932
465.09	30.738
465.44	29.721
465.79	29.614
466.14	29.338
466.49	29.947
466.84	30.248
467.19	29.769
467.54	29.730
467.89	30.575
468.24	30.693
468.59	29.415
468.94	29.312
469.29	29.994
469.64	30.960
469.99	30.083
470.34	31.064
470.68	31.237
471.03	31.434
471.38	31.589
471.73	30.624
472.08	31.536
472.43	29.741
472.78	30.416
473.13	30.657
473.48	30.393
473.83	31.341
474.17	30.832
474.52	31.389
474.87	30.952
475.22	30.648
475.57	29.803
475.92	30.911
476.27	29.766
476.61	30.530
476.96	29.771
477.31	30.248
477.66	30.797
478.01	30.554
478.36	29.960
478.70	30.049
479.05	31.135
479.40	30.553
479.75	29.971
480.10	30.317
480.45	29.581
480.79	29.796
481.14	30.377
481.49	30.123
481.84	30.244
482.19	30.022
482.53	30.826
482.88	30.704
483.23	30.502
483.58	30.349
483.92	29.876
484.27	29.721
484.62	30.281
484.97	30.482
485.31	29.567
485.66	27.977
486.01	27.535
486.36	27.109
486.70	28.838
487.05	29.437
487.40	29.394
487.75	29.491
488.09	29.558
488.44	29.747
488.79	29.882
489.13	30.340
489.48	29.243
489.83	30.262
490.17	29.607
490.52	29.803
490.87	30.838
491.22	29.723
491.56	30.375
491.91	31.182
492.26	30.290
492.60	30.477
492.95	30.013
493.30	30.569
493.64	30.267
493.99	30.439
494.34	29.617
494.68	29.936
495.03	29.604
495.37	30.981
495.72	29.751
496.07	30.105
496.41	29.730
496.76	30.067
497.11	30.064
497.45	29.435
497.80	30.209
498.14	30.612
498.49	30.193
498.84	29.890
499.18	30.589
499.53	29.910
499.87	29.934
500.22	29.207
500.56	28.565
500.91	29.748
501.26	30.500
501.60	29.032
501.95	29.614
502.29	29.882
502.64	29.646
502.98	29.724
503.33	29.071
503.67	29.394
504.02	29.072
504.36	30.340
504.71	29.582
505.06	29.150
505.40	29.479
505.75	29.781
506.09	29.696
506.44	29.666
506.78	30.367
507.13	29.645
507.47	29.417
507.82	30.161
508.16	29.685
508.51	29.161
508.85	29.759
509.19	29.559
509.54	30.500
509.88	30.063
510.23	28.898
510.57	30.691
510.92	29.947
511.26	30.159
511.61	29.551
511.95	29.331
512.30	29.788
512.64	29.035
512.98	30.115
513.33	30.040
513.67	29.220
514.02	30.148
514.36	30.384
514.70	30.052
515.05	30.240
515.39	29.659
515.74	30.647
516.08	30.798
516.42	30.508
516.77	29.232
517.11	30.067
517.46	30.064
517.80	30.305
518.14	30.794
518.49	30.531
518.83	29.058
519.17	30.048
519.52	28.931
519.86	29.461
520.20	30.671
520.55	29.682
520.89	29.786
521.23	30.877
521.58	30.791
521.92	30.312
522.26	29.782
522.61	31.366
522.95	30.104
523.29	30.345
523.64	29.933
523.98	31.147
524.32	31.117
524.66	29.880
525.01	30.011
525.35	29.696
525.69	29.524
526.04	28.703
526.38	29.655
526.72	30.161
527.06	30.616
527.41	30.087
527.75	29.869
528.09	30.401
528.43	30.136
528.78	29.480
529.12	29.128
529.46	29.511
529.80	28.890
530.15	29.043
530.49	28.826
530.83	29.988
531.17	29.749
531.51	29.723
531.86	28.966
532.20	29.329
532.54	29.025
532.88	29.879
533.22	29.346
533.57	29.025
533.91	28.900
534.25	28.999
534.59	28.678
534.93	28.523
535.27	28.507
535.62	29.903
535.96	28.704
536.30	28.378
536.64	29.009
536.98	29.951
537.32	28.642
537.66	29.507
538.01	28.036
538.35	29.415
538.69	28.425
539.03	29.001
539.37	29.152
539.71	28.168
540.05	28.417
540.39	28.606
540.73	28.294
541.07	29.736
541.42	28.293
541.76	28.055
542.10	27.805
542.44	27.467
542.78	28.528
543.12	28.367
543.46	27.839
543.80	27.278
544.14	28.247
544.48	27.660
544.82	29.324
545.16	28.026
545.50	28.999
545.84	28.904
546.18	28.827
546.52	28.089
546.86	28.742
547.20	27.799
547.54	27.466
547.88	27.486
548.22	27.310
548.56	26.975
548.90	26.627
549.24	27.964
549.58	28.328
549.92	27.679
550.26	28.479
550.60	28.271
550.94	28.461
551.28	27.591
551.62	29.111
551.96	28.414
552.30	28.936
552.64	27.816
552.98	28.135
553.32	28.424
553.66	27.910
554.00	27.806
554.34	27.671
554.68	26.469
555.02	27.924
555.36	28.665
555.69	26.906
556.03	27.238
556.37	27.409
556.71	28.091
557.05	27.987
557.39	27.605
557.73	27.807
558.07	28.079
558.41	28.704
558.75	27.248
559.08	28.323
559.42	26.612
559.76	28.223
560.10	27.194
560.44	26.319
560.78	27.125
561.12	26.539
561.45	26.946
561.79	26.679
562.13	27.295
562.47	26.634
562.81	27.152
563.15	26.641
563.48	27.346
563.82	27.025
564.16	26.105
564.50	26.698
564.84	25.959
565.17	27.000
565.51	26.237
565.85	25.950
566.19	25.058
566.52	26.565
566.86	26.203
567.20	25.829
567.54	26.075
567.88	26.402
568.21	26.038
568.55	24.844
568.89	25.556
569.23	25.306
569.56	24.306
569.90	24.412
570.24	23.980
570.57	23.701
570.91	23.484
571.25	23.315
571.59	23.323
571.92	23.294
572.26	22.393
572.60	22.741
572.93	23.351
573.27	22.647
573.61	22.896
573.95	22.214
574.28	22.168
574.62	22.624
574.96	21.173
575.29	21.701
575.63	21.806
575.97	21.653
576.30	22.403
576.64	21.856
576.98	21.822
577.31	22.076
577.65	21.771
577.98	21.423
578.32	21.162
578.66	21.221
578.99	21.647
579.33	21.854
579.67	21.872
580.00	21.758
580.34	21.575
580.67	21.447
581.01	21.657
581.35	21.099
581.68	20.923
582.02	21.042
582.35	21.358
582.69	21.331
583.02	21.342
583.36	21.873
583.70	22.063
584.03	21.430
584.37	21.674
584.70	21.443
585.04	21.018
585.37	20.968
585.71	21.122
586.04	21.158
586.38	21.286
586.72	21.108
587.05	21.105
587.39	21.591
587.72	21.411
588.06	21.035
588.39	21.832
588.73	21.243
589.06	21.953
589.40	22.372
589.73	21.722
590.07	22.414
590.40	22.110
590.73	22.517
591.07	22.077
591.40	22.706
591.74	21.741
592.07	22.696
592.41	22.516
592.74	21.832
593.08	21.465
593.41	22.193
593.75	21.149
594.08	21.812
594.41	22.404
594.75	21.189
595.08	21.534
595.42	21.656
595.75	21.602
596.09	21.823
596.42	21.283
596.75	22.192
597.09	22.141
597.42	21.812
597.75	21.482
598.09	22.063
598.42	22.437
598.76	21.628
599.09	21.324
599.42	20.851
599.76	20.403
600.09	21.488
600.42	21.355
600.76	20.839
601.09	21.042
601.42	21.009
601.76	21.621
602.09	21.623
602.42	21.047
602.76	21.255
603.09	21.072
603.42	21.460
603.76	20.719
604.09	22.108
604.42	21.174
604.76	20.852
605.09	21.819
605.42	21.970
605.75	21.346
606.09	20.866
606.42	20.649
606.75	21.064
607.09	21.083
607.42	21.040
607.75	21.376
608.08	20.639
608.42	20.556
608.75	21.310
609.08	20.671
609.41	21.350
609.75	21.920
610.08	21.064
610.41	21.198
610.74	21.176
611.07	21.670
611.41	21.300
611.74	21.755
612.07	21.973
612.40	21.768
612.73	21.418
613.07	21.369
613.40	22.329
613.73	20.992
614.06	21.933
614.39	22.303
614.72	21.689
615.06	21.463
615.39	21.170
615.72	21.469
616.05	21.175
616.38	21.998
616.71	21.630
617.05	20.820
617.38	21.937
617.71	22.408
618.04	21.641
618.37	22.404
618.70	22.794
619.03	22.162
619.36	22.503
619.69	23.254
620.03	22.724
620.36	21.227
620.69	21.653
621.02	23.097
621.35	23.803
621.68	22.198
622.01	22.206
622.34	22.385
622.67	22.749
623.00	21.660
623.33	22.960
623.66	22.698
623.99	22.054
624.32	23.132
624.65	22.072
624.99	22.627
625.32	23.449
625.65	22.724
625.98	22.034
626.31	21.403
626.64	22.271
626.97	21.605
627.30	22.779
627.63	22.506
627.96	23.649
628.29	23.035
628.62	22.754
628.95	24.365
629.28	22.600
629.61	23.653
629.94	23.347
630.26	22.797
630.59	21.848
630.92	22.424
631.25	23.882
631.58	24.670
631.91	24.461
632.24	24.688
632.57	24.288
632.90	24.373
633.23	24.592
633.56	24.796
633.89	24.277
634.22	24.532
634.55	24.008
634.88	26.190
635.20	25.727
635.53	24.181
635.86	24.269
636.19	25.663
636.52	24.367
636.85	23.698
637.18	24.844
637.51	24.301
