SpectraSuite Data File
++++++++++++++++++++++++++++++++++++
Date: Thu May 14 16:34:33 PDT 2015
User: schluterlab
Dark Spectrum Present: Yes
Reference Spectrum Present: Yes
Number of Sampled Component Spectra: 1
Spectrometers: USB2E3373
Integration Time (usec): 3000 (USB2E3373)
Spectra Averaged: 3 (USB2E3373)
Boxcar Smoothing: 0 (USB2E3373)
Correct for Electrical Dark: No (USB2E3373)
Strobe/Lamp Enabled: No (USB2E3373)
Correct for Detector Non-linearity: No (USB2E3373)
Correct for Stray Light: No (USB2E3373)
Number of Pixels in Processed Spectrum: 2048
>>>>>Begin Processed Spectral Data<<<<<
178.53	0.000
178.91	-0.000
179.29	-700.000
179.67	-400.000
180.04	142.857
180.42	40.000
180.80	280.000
181.18	-1400.000
181.56	-400.000
181.94	50.000
182.31	250.000
182.69	-166.667
183.07	-300.000
183.45	100.000
183.83	-100.000
184.20	-166.667
184.58	500.000
184.96	-200.000
185.34	-11.111
185.72	-80.000
186.09	122.222
186.47	250.000
186.85	240.000
187.23	-33.333
187.61	-1200.000
187.98	160.000
188.36	-0.000
188.74	-275.000
189.12	-233.333
189.49	43.750
189.87	-87.500
190.25	33.333
190.63	40.000
191.00	-111.111
191.38	0.000
191.76	-125.000
192.14	-50.000
192.51	600.000
192.89	33.333
193.27	0.000
193.65	42.857
194.02	-1100.000
194.40	-57.143
194.78	114.286
195.15	0.000
195.53	45.455
195.91	0.000
196.29	-25.000
196.66	-7.692
197.04	-1300.000
197.42	-28.571
197.79	-350.000
198.17	-100.000
198.55	-85.714
198.92	77.778
199.30	-100.000
199.68	72.727
200.05	85.714
200.43	-250.000
200.81	85.714
201.18	0.000
201.56	133.333
201.94	0.000
202.31	33.333
202.69	-88.889
203.07	800.000
203.44	-44.444
203.82	-200.000
204.19	-8.333
204.57	-100.000
204.95	-112.500
205.32	-100.000
205.70	25.000
206.08	-16.667
206.45	166.667
206.83	380.000
207.20	33.333
207.58	40.000
207.96	-100.000
208.33	83.333
208.71	33.333
209.08	-33.333
209.46	0.000
209.84	233.333
210.21	400.000
210.59	200.000
210.96	300.000
211.34	-25.000
211.71	-75.000
212.09	-600.000
212.46	0.000
212.84	350.000
213.22	-140.000
213.59	-100.000
213.97	-30.000
214.34	-233.333
214.72	183.333
215.09	-275.000
215.47	0.000
215.84	42.857
216.22	400.000
216.59	-60.000
216.97	-40.000
217.34	125.000
217.72	0.000
218.09	-350.000
218.47	-25.000
218.84	0.000
219.22	60.000
219.59	-17.647
219.97	10.000
220.34	600.000
220.72	-66.667
221.09	-53.846
221.47	-366.667
221.84	10.000
222.22	-57.143
222.59	0.000
222.97	0.000
223.34	-160.000
223.72	-100.000
224.09	-175.000
224.46	-25.000
224.84	40.000
225.21	-114.286
225.59	-450.000
225.96	0.000
226.34	-3.846
226.71	300.000
227.08	-350.000
227.46	-46.667
227.83	-50.000
228.21	26.316
228.58	150.000
228.95	500.000
229.33	58.333
229.70	-40.000
230.08	5.263
230.45	100.000
230.82	100.000
231.20	7.143
231.57	16.667
231.95	-54.545
232.32	0.000
232.69	25.000
233.07	-50.000
233.44	-64.706
233.81	-30.000
234.19	0.000
234.56	-27.273
234.93	10.345
235.31	26.316
235.68	-11.111
236.05	-20.000
236.43	76.923
236.80	68.000
237.17	3.704
237.55	0.000
237.92	-30.000
238.29	-16.129
238.67	6.818
239.04	33.333
239.41	-7.143
239.79	-10.870
240.16	-5.556
240.53	-17.391
240.91	-7.843
241.28	0.000
241.65	13.433
242.02	13.514
242.40	-6.154
242.77	12.000
243.14	-4.878
243.51	-3.947
243.89	-1.282
244.26	9.901
244.63	9.804
245.00	14.953
245.38	14.912
245.75	-3.540
246.12	1.587
246.49	-5.426
246.87	5.714
247.24	7.947
247.61	8.553
247.98	-2.685
248.36	4.938
248.73	1.227
249.10	7.650
249.47	13.930
249.84	9.948
250.22	8.808
250.59	7.778
250.96	11.364
251.33	3.571
251.70	11.538
252.08	9.167
252.45	9.836
252.82	9.504
253.19	7.031
253.56	8.365
253.94	8.077
254.31	6.439
254.68	8.741
255.05	11.401
255.42	3.401
255.79	7.443
256.16	11.258
256.54	8.278
256.91	10.164
257.28	9.180
257.65	3.503
258.02	7.375
258.39	8.547
258.76	14.067
259.14	6.609
259.51	10.663
259.88	6.799
260.25	10.000
260.62	10.137
260.99	10.656
261.36	9.651
261.73	6.366
262.10	6.044
262.47	10.456
262.85	13.889
263.22	6.494
263.59	7.368
263.96	9.719
264.33	7.673
264.70	6.914
265.07	11.695
265.44	13.379
265.81	12.500
266.18	6.803
266.55	9.598
266.92	7.517
267.29	9.847
267.66	10.200
268.03	8.515
268.40	9.395
268.77	5.923
269.14	6.828
269.51	6.798
269.88	10.861
270.25	10.262
270.62	12.447
270.99	9.899
271.36	13.465
271.73	8.448
272.10	10.020
272.47	9.820
272.84	10.643
273.21	8.216
273.58	9.879
273.95	8.462
274.32	7.795
274.69	11.799
275.06	10.806
275.43	9.612
275.80	11.111
276.17	8.148
276.54	9.701
276.91	7.871
277.28	9.042
277.65	11.311
278.02	10.662
278.39	9.601
278.76	9.315
279.13	8.333
279.50	11.684
279.87	8.587
280.23	7.042
280.60	9.661
280.97	9.539
281.34	8.829
281.71	12.352
282.08	9.302
282.45	8.347
282.82	8.320
283.19	8.078
283.56	9.016
283.92	10.060
284.29	10.427
284.66	9.031
285.03	6.090
285.40	10.510
285.77	8.824
286.14	9.008
286.51	9.741
286.87	8.847
287.24	9.036
287.61	8.670
287.98	8.459
288.35	7.544
288.72	8.136
289.08	8.638
289.45	7.249
289.82	8.434
290.19	8.621
290.56	8.169
290.93	8.274
291.29	8.264
291.66	8.815
292.03	7.191
292.40	9.660
292.77	7.817
293.13	7.578
293.50	6.045
293.87	7.114
294.24	8.400
294.60	8.217
294.97	6.577
295.34	8.835
295.71	7.818
296.08	7.494
296.44	7.108
296.81	7.430
297.18	6.849
297.55	6.368
297.91	5.931
298.28	6.635
298.65	7.967
299.02	7.202
299.38	6.636
299.75	6.659
300.12	6.713
300.48	7.258
300.85	6.974
301.22	7.271
301.59	5.594
301.95	8.814
302.32	8.000
302.69	7.119
303.05	7.291
303.42	7.095
303.79	6.979
304.15	7.045
304.52	6.237
304.89	7.749
305.25	6.418
305.62	6.897
305.99	8.351
306.35	5.645
306.72	7.756
307.09	6.396
307.45	8.075
307.82	7.265
308.19	6.155
308.55	8.197
308.92	6.913
309.29	6.801
309.65	5.556
310.02	5.743
310.38	6.791
310.75	6.699
311.12	6.807
311.48	7.038
311.85	7.787
312.22	6.831
312.58	6.573
312.95	6.883
313.31	9.485
313.68	8.242
314.05	8.401
314.41	8.834
314.78	7.629
315.14	7.985
315.51	7.849
315.87	8.821
316.24	8.219
316.61	8.881
316.97	7.059
317.34	8.554
317.70	8.734
318.07	7.937
318.43	9.354
318.80	9.030
319.16	8.412
319.53	8.398
319.89	8.589
320.26	9.431
320.62	8.156
320.99	9.695
321.35	9.242
321.72	10.884
322.08	10.821
322.45	10.298
322.81	10.650
323.18	10.265
323.54	9.224
323.91	10.409
324.27	11.876
324.64	10.663
325.00	10.365
325.37	10.975
325.73	12.149
326.10	12.976
326.46	12.215
326.83	12.890
327.19	12.677
327.56	13.123
327.92	12.667
328.29	11.855
328.65	12.647
329.01	12.860
329.38	13.058
329.74	12.414
330.11	13.870
330.47	12.974
330.84	13.264
331.20	14.833
331.56	13.258
331.93	14.561
332.29	13.475
332.66	13.953
333.02	14.070
333.38	13.339
333.75	13.721
334.11	14.679
334.48	14.191
334.84	15.208
335.20	13.602
335.57	15.093
335.93	13.636
336.29	13.394
336.66	14.298
337.02	13.462
337.38	14.456
337.75	13.967
338.11	13.709
338.47	14.723
338.84	12.690
339.20	13.479
339.56	13.839
339.93	13.711
340.29	13.527
340.65	13.706
341.02	15.084
341.38	14.551
341.74	12.994
342.11	14.240
342.47	12.867
342.83	14.815
343.20	14.391
343.56	13.873
343.92	13.611
344.28	13.906
344.65	14.341
345.01	14.353
345.37	14.075
345.73	12.860
346.10	14.275
346.46	13.449
346.82	13.708
347.19	14.133
347.55	14.340
347.91	13.447
348.27	14.416
348.63	13.404
349.00	14.467
349.36	14.870
349.72	14.360
350.08	13.670
350.45	13.384
350.81	13.952
351.17	13.308
351.53	13.950
351.89	14.503
352.26	13.881
352.62	14.104
352.98	12.443
353.34	13.368
353.70	13.482
354.07	13.636
354.43	14.199
354.79	14.361
355.15	14.202
355.51	14.547
355.87	14.136
356.24	14.144
356.60	14.412
356.96	14.974
357.32	13.755
357.68	13.982
358.04	14.596
358.40	13.507
358.77	14.108
359.13	14.180
359.49	13.532
359.85	13.706
360.21	14.204
360.57	14.932
360.93	13.540
361.29	13.965
361.66	14.265
362.02	14.753
362.38	14.266
362.74	14.036
363.10	14.580
363.46	15.097
363.82	13.778
364.18	14.778
364.54	14.730
364.90	14.247
365.26	15.586
365.62	15.333
365.98	15.317
366.35	14.899
366.71	15.102
367.07	14.817
367.43	14.773
367.79	14.731
368.15	15.786
368.51	14.953
368.87	15.676
369.23	15.000
369.59	14.413
369.95	14.807
370.31	15.800
370.67	15.199
371.03	15.443
371.39	14.708
371.75	14.924
372.11	15.312
372.47	15.301
372.83	15.249
373.19	15.344
373.55	15.041
373.91	14.383
374.27	15.459
374.63	15.291
374.99	14.456
375.35	15.195
375.71	15.548
376.07	14.913
376.42	15.554
376.78	15.475
377.14	15.845
377.50	14.991
377.86	15.640
378.22	15.629
378.58	15.696
378.94	16.080
379.30	15.641
379.66	15.932
380.02	15.407
380.38	15.726
380.74	15.831
381.09	16.725
381.45	16.250
381.81	16.452
382.17	15.736
382.53	16.140
382.89	15.463
383.25	16.178
383.61	14.988
383.97	16.490
384.32	15.730
384.68	15.835
385.04	16.599
385.40	16.323
385.76	16.530
386.12	16.637
386.48	16.118
386.83	16.329
387.19	15.238
387.55	16.138
387.91	15.868
388.27	15.300
388.62	16.552
388.98	15.623
389.34	16.735
389.70	15.630
390.06	15.690
390.42	16.084
390.77	16.255
391.13	16.373
391.49	16.969
391.85	15.636
392.20	16.074
392.56	16.361
392.92	16.903
393.28	16.031
393.64	15.866
393.99	16.037
394.35	16.647
394.71	16.467
395.07	15.389
395.42	16.219
395.78	17.367
396.14	16.518
396.50	15.677
396.85	16.219
397.21	16.154
397.57	16.019
397.92	16.380
398.28	15.100
398.64	16.304
399.00	15.864
399.35	16.545
399.71	15.652
400.07	16.171
400.42	16.182
400.78	15.451
401.14	15.595
401.49	15.748
401.85	16.337
402.21	15.759
402.57	16.725
402.92	15.957
403.28	16.511
403.63	15.990
403.99	15.380
404.35	15.975
404.70	15.921
405.06	15.489
405.42	15.867
405.77	16.576
406.13	15.721
406.49	15.878
406.84	15.402
407.20	15.595
407.55	14.355
407.91	16.153
408.27	15.371
408.62	15.474
408.98	16.541
409.34	15.249
409.69	16.007
410.05	15.885
410.40	16.067
410.76	15.199
411.11	15.079
411.47	15.479
411.83	15.755
412.18	16.325
412.54	15.531
412.89	16.240
413.25	15.971
413.60	15.393
413.96	15.559
414.31	15.411
414.67	15.921
415.03	15.385
415.38	16.961
415.74	15.272
416.09	15.238
416.45	15.529
416.80	15.728
417.16	15.326
417.51	15.255
417.87	15.757
418.22	15.269
418.58	15.118
418.93	16.531
419.29	16.030
419.64	14.706
420.00	15.134
420.35	15.553
420.71	15.623
421.06	14.836
421.42	15.195
421.77	14.970
422.12	15.328
422.48	14.644
422.83	15.444
423.19	14.907
423.54	15.487
423.90	14.081
424.25	15.893
424.61	14.581
424.96	15.980
425.31	15.393
425.67	15.298
426.02	14.555
426.38	15.270
426.73	15.290
427.09	16.148
427.44	14.528
427.79	15.257
428.15	14.954
428.50	14.888
428.85	14.409
429.21	15.851
429.56	14.413
429.92	15.676
430.27	14.988
430.62	14.704
430.98	14.461
431.33	15.103
431.68	14.464
432.04	15.236
432.39	14.890
432.74	14.840
433.10	15.197
433.45	14.548
433.80	13.895
434.16	15.238
434.51	15.930
434.86	15.364
435.22	15.515
435.57	14.858
435.92	15.415
436.28	14.960
436.63	15.128
436.98	14.922
437.34	15.163
437.69	14.474
438.04	14.490
438.39	15.566
438.75	14.721
439.10	15.275
439.45	15.036
439.81	15.254
440.16	14.906
440.51	15.775
440.86	14.953
441.22	14.952
441.57	15.252
441.92	14.161
442.27	14.798
442.63	15.797
442.98	15.315
443.33	15.413
443.68	15.907
444.03	15.663
444.39	15.950
444.74	16.029
445.09	15.611
445.44	15.543
445.79	15.421
446.15	15.468
446.50	16.176
446.85	15.418
447.20	15.232
447.55	15.324
447.91	15.183
448.26	15.222
448.61	14.984
448.96	15.397
449.31	15.005
449.66	15.142
450.02	14.821
450.37	15.397
450.72	15.124
451.07	14.977
451.42	15.425
451.77	15.731
452.12	15.293
452.47	15.033
452.83	15.484
453.18	15.061
453.53	15.049
453.88	14.964
454.23	14.972
454.58	14.568
454.93	15.413
455.28	14.991
455.63	14.611
455.98	15.084
456.34	15.724
456.69	15.403
457.04	15.189
457.39	15.133
457.74	15.604
458.09	15.431
458.44	15.571
458.79	14.131
459.14	15.469
459.49	14.375
459.84	15.058
460.19	14.436
460.54	15.843
460.89	15.193
461.24	14.943
461.59	15.661
461.94	14.204
462.29	15.118
462.64	14.906
462.99	15.129
463.34	15.185
463.69	16.178
464.04	16.176
464.39	15.359
464.74	15.393
465.09	14.821
465.44	14.700
465.79	15.071
466.14	14.382
466.49	14.842
466.84	15.096
467.19	15.665
467.54	15.100
467.89	15.345
468.24	14.737
468.59	14.765
468.94	14.918
469.29	14.817
469.64	15.003
469.99	14.468
470.34	15.842
470.68	16.063
471.03	15.521
471.38	15.631
471.73	14.889
472.08	16.117
472.43	15.352
472.78	15.113
473.13	15.613
473.48	15.891
473.83	15.844
474.17	16.002
474.52	16.055
474.87	15.559
475.22	15.662
475.57	15.005
475.92	15.729
476.27	15.282
476.61	15.109
476.96	15.328
477.31	15.743
477.66	16.579
478.01	15.455
478.36	15.404
478.70	15.468
479.05	15.235
479.40	15.745
479.75	16.234
480.10	15.964
480.45	15.770
480.79	15.782
481.14	15.579
481.49	15.720
481.84	15.666
482.19	15.828
482.53	16.135
482.88	15.950
483.23	16.096
483.58	15.022
483.92	15.514
484.27	15.199
484.62	15.553
484.97	15.902
485.31	15.065
485.66	14.637
486.01	13.887
486.36	14.082
486.70	14.949
487.05	15.234
487.40	15.858
487.75	15.827
488.09	16.145
488.44	15.629
488.79	16.492
489.13	15.387
489.48	15.184
489.83	14.889
490.17	14.905
490.52	15.517
490.87	15.609
491.22	15.641
491.56	15.017
491.91	15.395
492.26	16.313
492.60	15.479
492.95	15.226
493.30	14.792
493.64	15.287
493.99	15.351
494.34	14.765
494.68	15.375
495.03	15.374
495.37	15.490
495.72	15.964
496.07	15.600
496.41	15.058
496.76	15.721
497.11	15.414
497.45	15.710
497.80	16.037
498.14	15.692
498.49	15.119
498.84	15.814
499.18	16.014
499.53	15.830
499.87	16.484
500.22	14.737
500.56	16.014
500.91	16.018
501.26	15.864
501.60	14.980
501.95	15.762
502.29	15.709
502.64	16.222
502.98	15.746
503.33	15.119
503.67	14.915
504.02	15.499
504.36	16.443
504.71	15.250
505.06	15.780
505.40	16.225
505.75	15.938
506.09	16.022
506.44	16.574
506.78	16.330
507.13	16.505
507.47	16.390
507.82	16.477
508.16	16.922
508.51	15.518
508.85	16.580
509.19	16.580
509.54	16.523
509.88	16.756
510.23	16.901
510.57	18.028
510.92	17.320
511.26	16.979
511.61	16.321
511.95	16.545
512.30	17.184
512.64	16.392
512.98	16.008
513.33	17.641
513.67	17.440
514.02	17.527
514.36	17.749
514.70	18.333
515.05	18.144
515.39	18.320
515.74	19.141
516.08	18.067
516.42	19.152
516.77	17.981
517.11	17.586
517.46	18.717
517.80	19.027
518.14	19.042
518.49	18.438
518.83	18.361
519.17	17.986
519.52	18.973
519.86	19.641
520.20	20.075
520.55	19.551
520.89	19.876
521.23	18.984
521.58	19.492
521.92	18.754
522.26	19.359
522.61	19.676
522.95	18.916
523.29	19.885
523.64	18.946
523.98	20.764
524.32	21.547
524.66	20.091
525.01	19.026
525.35	20.103
525.69	19.954
526.04	19.460
526.38	20.402
526.72	20.531
527.06	20.352
527.41	20.350
527.75	20.606
528.09	20.307
528.43	20.071
528.78	19.711
529.12	19.323
529.46	20.180
529.80	21.510
530.15	20.348
530.49	19.692
530.83	21.429
531.17	20.848
531.51	20.277
531.86	21.154
532.20	21.524
532.54	19.928
532.88	20.606
533.22	20.566
533.57	21.177
533.91	20.314
534.25	20.237
534.59	21.667
534.93	19.921
535.27	20.451
535.62	21.546
535.96	21.383
536.30	20.035
536.64	21.441
536.98	22.017
537.32	21.728
537.66	20.649
538.01	20.363
538.35	20.463
538.69	20.313
539.03	22.256
539.37	20.730
539.71	21.081
540.05	20.983
540.39	20.660
540.73	20.826
541.07	21.275
541.42	20.614
541.76	21.056
542.10	21.049
542.44	19.732
542.78	22.202
543.12	20.918
543.46	20.940
543.80	20.683
544.14	20.467
544.48	20.922
544.82	20.826
545.16	21.109
545.50	20.551
545.84	20.698
546.18	21.235
546.52	21.975
546.86	20.126
547.20	21.565
547.54	21.348
547.88	20.253
548.22	20.819
548.56	21.065
548.90	20.060
549.24	20.912
549.58	20.063
549.92	20.344
550.26	20.712
550.60	21.634
550.94	21.734
551.28	21.518
551.62	21.429
551.96	20.971
552.30	20.969
552.64	20.411
552.98	21.023
553.32	21.350
553.66	21.415
554.00	20.555
554.34	20.914
554.68	21.110
555.02	21.091
555.36	21.631
555.69	20.179
556.03	20.492
556.37	20.588
556.71	20.609
557.05	21.150
557.39	19.841
557.73	20.476
558.07	21.258
558.41	20.000
558.75	20.554
559.08	20.946
559.42	21.468
559.76	20.556
560.10	21.165
560.44	20.580
560.78	21.062
561.12	20.012
561.45	20.681
561.79	20.574
562.13	21.319
562.47	20.715
562.81	20.190
563.15	20.139
563.48	20.634
563.82	20.254
564.16	20.170
564.50	19.964
564.84	19.882
565.17	19.941
565.51	20.196
565.85	19.952
566.19	20.046
566.52	20.070
566.86	20.430
567.20	19.086
567.54	18.534
567.88	19.266
568.21	19.121
568.55	18.369
568.89	19.292
569.23	18.716
569.56	18.132
569.90	18.247
570.24	18.212
570.57	17.864
570.91	17.453
571.25	17.819
571.59	17.701
571.92	17.751
572.26	17.708
572.60	17.417
572.93	18.202
573.27	16.971
573.61	17.575
573.95	17.213
574.28	16.865
574.62	17.190
574.96	16.762
575.29	17.405
575.63	16.701
575.97	17.222
576.30	17.641
576.64	17.132
576.98	17.289
577.31	16.557
577.65	16.591
577.98	16.529
578.32	16.032
578.66	16.453
578.99	16.424
579.33	16.785
579.67	16.863
580.00	16.790
580.34	17.147
580.67	16.593
581.01	16.681
581.35	16.754
581.68	16.273
582.02	16.596
582.35	16.458
582.69	16.524
583.02	16.838
583.36	16.636
583.70	17.178
584.03	16.991
584.37	17.329
584.70	16.846
585.04	16.764
585.37	16.593
585.71	16.397
586.04	16.402
586.38	17.108
586.72	16.245
587.05	16.142
587.39	16.804
587.72	16.794
588.06	16.804
588.39	16.654
588.73	16.402
589.06	16.817
589.40	17.455
589.73	17.192
590.07	17.275
590.40	17.512
590.73	17.215
591.07	17.722
591.40	17.379
591.74	17.329
592.07	17.337
592.41	16.956
592.74	16.862
593.08	16.783
593.41	17.060
593.75	15.833
594.08	17.086
594.41	17.083
594.75	16.606
595.08	16.622
595.42	16.916
595.75	16.984
596.09	16.842
596.42	17.306
596.75	17.136
597.09	17.980
597.42	16.845
597.75	16.895
598.09	17.183
598.42	17.250
598.76	16.049
599.09	16.768
599.42	16.192
599.76	16.375
600.09	16.783
600.42	16.049
600.76	16.149
601.09	15.964
601.42	16.787
601.76	16.241
602.09	16.226
602.42	16.539
602.76	16.531
603.09	16.740
603.42	16.510
603.76	16.209
604.09	16.430
604.42	16.661
604.76	16.629
605.09	16.953
605.42	16.746
605.75	16.462
606.09	16.051
606.42	16.089
606.75	15.667
607.09	15.937
607.42	16.917
607.75	16.374
608.08	16.772
608.42	16.324
608.75	16.874
609.08	16.002
609.41	16.630
609.75	16.339
610.08	16.755
610.41	15.888
610.74	16.639
611.07	17.140
611.41	16.547
611.74	17.136
612.07	16.597
612.40	16.302
612.73	17.017
613.07	17.164
613.40	17.324
613.73	16.610
614.06	17.272
614.39	16.861
614.72	16.497
615.06	16.651
615.39	16.336
615.72	16.540
616.05	16.901
616.38	16.246
616.71	16.719
617.05	16.028
617.38	17.764
617.71	16.307
618.04	17.485
618.37	16.995
618.70	16.742
619.03	16.786
619.36	17.139
619.69	16.848
620.03	17.577
620.36	16.994
620.69	16.595
621.02	17.585
621.35	17.489
621.68	17.932
622.01	17.438
622.34	17.294
622.67	17.457
623.00	16.869
623.33	17.452
623.66	17.056
623.99	16.327
624.32	18.064
624.65	16.731
624.99	16.515
625.32	17.505
625.65	17.465
625.98	16.881
626.31	17.931
626.64	17.729
626.97	17.779
627.30	17.312
627.63	18.005
627.96	17.568
628.29	17.665
628.62	16.625
628.95	18.843
629.28	16.653
629.61	17.761
629.94	17.238
630.26	17.373
630.59	17.876
630.92	16.970
631.25	18.426
631.58	17.608
631.91	17.245
632.24	17.195
632.57	17.932
632.90	18.455
633.23	17.857
633.56	17.653
633.89	16.322
634.22	19.127
634.55	18.580
634.88	19.264
635.20	19.268
635.53	19.774
635.86	18.852
636.19	19.406
636.52	18.143
636.85	18.080
637.18	18.399
637.51	18.710
