SpectraSuite Data File
++++++++++++++++++++++++++++++++++++
Date: Thu May 14 16:29:03 PDT 2015
User: schluterlab
Dark Spectrum Present: Yes
Reference Spectrum Present: Yes
Number of Sampled Component Spectra: 1
Spectrometers: USB2E3373
Integration Time (usec): 3000 (USB2E3373)
Spectra Averaged: 3 (USB2E3373)
Boxcar Smoothing: 0 (USB2E3373)
Correct for Electrical Dark: No (USB2E3373)
Strobe/Lamp Enabled: No (USB2E3373)
Correct for Detector Non-linearity: No (USB2E3373)
Correct for Stray Light: No (USB2E3373)
Number of Pixels in Processed Spectrum: 2048
>>>>>Begin Processed Spectral Data<<<<<
178.53	0.000
178.91	42.857
179.29	-1000.000
179.67	-600.000
180.04	150.000
180.42	30.000
180.80	160.000
181.18	400.000
181.56	700.000
181.94	-50.000
182.31	50.000
182.69	166.667
183.07	250.000
183.45	-25.000
183.83	200.000
184.20	166.667
184.58	-0.000
184.96	-175.000
185.34	11.111
185.72	80.000
186.09	177.778
186.47	150.000
186.85	200.000
187.23	-55.556
187.61	200.000
187.98	-40.000
188.36	175.000
188.74	-25.000
189.12	33.333
189.49	6.250
189.87	-50.000
190.25	88.889
190.63	-60.000
191.00	-22.222
191.38	0.000
191.76	-50.000
192.14	33.333
192.51	-100.000
192.89	50.000
193.27	0.000
193.65	128.571
194.02	-800.000
194.40	57.143
194.78	-85.714
195.15	0.000
195.53	18.182
195.91	0.000
196.29	-25.000
196.66	23.077
197.04	-700.000
197.42	-14.286
197.79	-600.000
198.17	-37.500
198.55	-157.143
198.92	55.556
199.30	-50.000
199.68	-9.091
200.05	-14.286
200.43	-250.000
200.81	142.857
201.18	0.000
201.56	133.333
201.94	0.000
202.31	100.000
202.69	-22.222
203.07	-500.000
203.44	-11.111
203.82	-100.000
204.19	8.333
204.57	50.000
204.95	-12.500
205.32	-600.000
205.70	-0.000
206.08	0.000
206.45	16.667
206.83	240.000
207.20	150.000
207.58	-220.000
207.96	-50.000
208.33	-50.000
208.71	33.333
209.08	100.000
209.46	0.000
209.84	50.000
210.21	-0.000
210.59	-350.000
210.96	-66.667
211.34	100.000
211.71	-25.000
212.09	-500.000
212.46	0.000
212.84	500.000
213.22	-140.000
213.59	-75.000
213.97	30.000
214.34	-66.667
214.72	166.667
215.09	-175.000
215.47	0.000
215.84	71.429
216.22	550.000
216.59	200.000
216.97	-200.000
217.34	-200.000
217.72	37.500
218.09	-125.000
218.47	-175.000
218.84	0.000
219.22	100.000
219.59	35.294
219.97	50.000
220.34	250.000
220.72	-22.222
221.09	0.000
221.47	33.333
221.84	-30.000
222.22	-85.714
222.59	0.000
222.97	25.000
223.34	-240.000
223.72	-400.000
224.09	0.000
224.46	-150.000
224.84	0.000
225.21	-157.143
225.59	-50.000
225.96	-25.000
226.34	7.692
226.71	250.000
227.08	-500.000
227.46	73.333
227.83	-200.000
228.21	47.368
228.58	62.500
228.95	250.000
229.33	75.000
229.70	40.000
230.08	0.000
230.45	30.000
230.82	66.667
231.20	-28.571
231.57	41.667
231.95	-63.636
232.32	-27.273
232.69	25.000
233.07	-225.000
233.44	17.647
233.81	20.000
234.19	33.333
234.56	31.818
234.93	24.138
235.31	-42.105
235.68	-11.111
236.05	-10.000
236.43	38.462
236.80	52.000
237.17	0.000
237.55	-15.152
237.92	-120.000
238.29	6.452
238.67	9.091
239.04	27.778
239.41	-4.762
239.79	-10.870
240.16	1.852
240.53	19.565
240.91	0.000
241.28	13.115
241.65	5.970
242.02	12.162
242.40	1.538
242.77	-8.000
243.14	-9.756
243.51	-14.474
243.89	-7.692
244.26	9.901
244.63	7.843
245.00	7.477
245.38	-1.754
245.75	-12.389
246.12	6.349
246.49	0.000
246.87	1.429
247.24	6.623
247.61	5.263
247.98	2.013
248.36	6.173
248.73	-2.454
249.10	1.093
249.47	2.488
249.84	2.618
250.22	-0.518
250.59	-2.778
250.96	5.455
251.33	0.510
251.70	0.855
252.08	3.750
252.45	4.508
252.82	2.479
253.19	3.125
253.56	4.563
253.94	2.692
254.31	6.818
254.68	5.594
255.05	2.280
255.42	4.422
255.79	2.265
256.16	2.318
256.54	-4.305
256.91	1.639
257.28	1.967
257.65	0.318
258.02	1.475
258.39	3.989
258.76	6.422
259.14	5.460
259.51	0.288
259.88	0.567
260.25	6.667
260.62	3.562
260.99	5.738
261.36	5.362
261.73	1.326
262.10	1.648
262.47	5.094
262.85	5.808
263.22	0.779
263.59	-1.579
263.96	3.069
264.33	1.279
264.70	0.247
265.07	4.296
265.44	5.669
265.81	3.472
266.18	2.041
266.55	2.232
266.92	0.911
267.29	4.158
267.66	1.996
268.03	2.620
268.40	2.714
268.77	0.911
269.14	0.441
269.51	3.070
269.88	5.738
270.25	3.622
270.62	4.219
270.99	4.646
271.36	5.347
271.73	5.108
272.10	3.607
272.47	2.605
272.84	2.811
273.21	3.407
273.58	3.427
273.95	2.500
274.32	2.281
274.69	1.741
275.06	4.945
275.43	1.848
275.80	3.175
276.17	-0.185
276.54	2.052
276.91	1.789
277.28	3.074
277.65	3.950
278.02	3.309
278.39	2.355
278.76	2.460
279.13	3.546
279.50	3.780
279.87	2.683
280.23	-0.528
280.60	2.034
280.97	2.303
281.34	2.547
281.71	4.399
282.08	2.658
282.45	1.800
282.82	2.512
283.19	1.131
283.56	0.164
283.92	4.354
284.29	5.687
284.66	4.926
285.03	1.763
285.40	3.864
285.77	1.084
286.14	3.206
286.51	2.283
286.87	2.370
287.24	3.464
287.61	2.093
287.98	2.115
288.35	1.479
288.72	2.663
289.08	3.367
289.45	3.107
289.82	2.259
290.19	2.586
290.56	2.817
290.93	3.281
291.29	2.893
291.66	2.342
292.03	2.307
292.40	4.218
292.77	2.022
293.13	3.654
293.50	0.788
293.87	2.282
294.24	2.667
294.60	3.793
294.97	1.879
295.34	3.713
295.71	2.522
296.08	1.163
296.44	2.451
296.81	2.314
297.18	2.242
297.55	2.358
297.91	2.135
298.28	2.370
298.65	1.427
299.02	2.007
299.38	2.746
299.75	2.570
300.12	1.273
300.48	2.304
300.85	2.812
301.22	4.027
301.59	1.941
301.95	3.164
302.32	3.333
302.69	2.629
303.05	2.829
303.42	1.663
303.79	2.812
304.15	3.155
304.52	1.691
304.89	2.618
305.25	2.692
305.62	2.090
305.99	2.887
306.35	3.427
306.72	3.619
307.09	3.046
307.45	2.795
307.82	3.835
308.19	2.220
308.55	4.147
308.92	2.629
309.29	3.161
309.65	3.411
310.02	3.366
310.38	3.150
310.75	2.524
311.12	3.931
311.48	3.324
311.85	3.324
312.22	3.510
312.58	3.099
312.95	3.728
313.31	4.065
313.68	5.220
314.05	3.523
314.41	5.556
314.78	4.632
315.14	5.626
315.51	5.540
315.87	5.491
316.24	5.479
316.61	5.595
316.97	4.615
317.34	4.938
317.70	6.812
318.07	5.732
318.43	6.973
318.80	8.110
319.16	6.695
319.53	5.570
319.89	6.924
320.26	8.363
320.62	7.181
320.99	8.680
321.35	7.856
321.72	9.581
322.08	8.386
322.45	8.672
322.81	9.477
323.18	8.673
323.54	9.828
323.91	8.719
324.27	9.811
324.64	10.747
325.00	10.033
325.37	10.483
325.73	11.074
326.10	11.760
326.46	11.482
326.83	12.170
327.19	11.024
327.56	12.095
327.92	11.723
328.29	11.048
328.65	12.228
329.01	11.421
329.38	13.732
329.74	12.842
330.11	12.928
330.47	13.227
330.84	12.834
331.20	13.250
331.56	12.045
331.93	13.975
332.29	13.644
332.66	14.203
333.02	12.563
333.38	13.423
333.75	13.300
334.11	13.428
334.48	13.036
334.84	14.274
335.20	14.694
335.57	14.081
335.93	14.215
336.29	13.145
336.66	13.541
337.02	14.465
337.38	14.201
337.75	13.802
338.11	13.625
338.47	12.986
338.84	13.706
339.20	12.721
339.56	13.756
339.93	13.957
340.29	14.573
340.65	14.355
341.02	14.844
341.38	15.360
341.74	13.398
342.11	14.079
342.47	13.741
342.83	13.929
343.20	14.473
343.56	14.354
343.92	13.851
344.28	14.453
344.65	15.116
345.01	14.041
345.37	14.463
345.73	13.484
346.10	14.665
346.46	14.557
346.82	15.506
347.19	15.355
347.55	15.706
347.91	15.825
348.27	14.568
348.63	15.842
349.00	15.213
349.36	15.019
349.72	14.807
350.08	15.379
350.45	15.361
350.81	15.460
351.17	14.812
351.53	15.390
351.89	17.160
352.26	15.448
352.62	15.075
352.98	13.588
353.34	15.011
353.70	15.716
354.07	15.648
354.43	16.097
354.79	16.006
355.15	14.717
355.51	16.447
355.87	15.782
356.24	15.665
356.60	15.965
356.96	15.715
357.32	15.316
357.68	15.007
358.04	15.943
358.40	16.343
358.77	16.155
359.13	16.322
359.49	15.093
359.85	17.766
360.21	16.643
360.57	17.444
360.93	17.137
361.29	17.825
361.66	17.379
362.02	17.884
362.38	17.639
362.74	17.318
363.10	16.713
363.46	17.521
363.82	17.472
364.18	17.523
364.54	17.220
364.90	18.060
365.26	17.379
365.62	17.933
365.98	17.563
366.35	16.980
366.71	18.571
367.07	18.539
367.43	18.253
367.79	18.978
368.15	18.729
368.51	18.742
368.87	18.419
369.23	19.067
369.59	19.126
369.95	18.526
370.31	19.986
370.67	19.395
371.03	19.114
371.39	19.275
371.75	20.220
372.11	19.580
372.47	19.431
372.83	20.092
373.19	19.480
373.55	19.444
373.91	18.814
374.27	20.052
374.63	20.027
374.99	19.894
375.35	20.130
375.71	20.129
376.07	20.465
376.42	20.907
376.78	20.012
377.14	20.774
377.50	19.924
377.86	21.429
378.22	21.856
378.58	20.571
378.94	20.833
379.30	20.504
379.66	22.163
380.02	21.293
380.38	22.293
380.74	21.521
381.09	21.545
381.45	21.534
381.81	22.365
382.17	21.615
382.53	21.871
382.89	22.460
383.25	21.923
383.61	21.933
383.97	21.437
384.32	23.086
384.68	21.868
385.04	22.094
385.40	22.805
385.76	23.447
386.12	22.741
386.48	23.235
386.83	23.182
387.19	22.711
387.55	23.239
387.91	22.089
388.27	22.921
388.62	23.139
388.98	22.448
389.34	22.510
389.70	23.591
390.06	23.031
390.42	23.554
390.77	23.781
391.13	22.711
391.49	23.792
391.85	23.697
392.20	23.903
392.56	23.449
392.92	24.100
393.28	24.433
393.64	23.184
393.99	24.811
394.35	24.708
394.71	23.952
395.07	23.832
395.42	24.158
395.78	24.802
396.14	24.361
396.50	23.812
396.85	24.448
397.21	23.432
397.57	24.499
397.92	23.540
398.28	24.009
398.64	23.227
399.00	23.822
399.35	24.293
399.71	23.641
400.07	25.211
400.42	24.913
400.78	24.132
401.14	23.961
401.49	24.616
401.85	24.477
402.21	25.319
402.57	24.941
402.92	24.704
403.28	24.824
403.63	23.449
403.99	24.466
404.35	24.218
404.70	24.929
405.06	23.750
405.42	24.356
405.77	24.809
406.13	24.635
406.49	24.944
406.84	25.042
407.20	24.986
407.55	24.349
407.91	25.079
408.27	24.676
408.62	24.375
408.98	25.189
409.34	23.226
409.69	24.722
410.05	24.736
410.40	25.638
410.76	24.565
411.11	24.898
411.47	24.570
411.83	25.397
412.18	24.880
412.54	24.718
412.89	25.146
413.25	24.774
413.60	24.124
413.96	24.301
414.31	24.759
414.67	25.045
415.03	24.923
415.38	25.095
415.74	24.679
416.09	23.627
416.45	24.233
416.80	23.868
417.16	24.840
417.51	23.973
417.87	24.709
418.22	25.269
418.58	24.907
418.93	25.378
419.29	24.908
419.64	25.210
420.00	24.510
420.35	24.144
420.71	24.526
421.06	23.922
421.42	25.000
421.77	23.586
422.12	24.366
422.48	25.397
422.83	24.480
423.19	24.721
423.54	24.558
423.90	24.903
424.25	24.373
424.61	24.168
424.96	25.645
425.31	24.416
425.67	23.725
426.02	24.073
426.38	23.995
426.73	23.437
427.09	24.798
427.44	23.921
427.79	24.268
428.15	23.973
428.50	23.876
428.85	23.479
429.21	24.734
429.56	23.544
429.92	24.472
430.27	24.241
430.62	25.061
430.98	24.594
431.33	23.705
431.68	23.515
432.04	24.530
432.39	24.478
432.74	24.486
433.10	24.608
433.45	23.523
433.80	24.624
434.16	24.329
434.51	24.923
434.86	24.973
435.22	25.399
435.57	24.764
435.92	24.430
436.28	24.061
436.63	24.686
436.98	23.457
437.34	24.014
437.69	22.840
438.04	23.903
438.39	24.469
438.75	23.409
439.10	24.630
439.45	25.042
439.81	23.898
440.16	23.968
440.51	24.749
440.86	23.457
441.22	23.526
441.57	25.262
441.92	24.879
442.27	24.242
442.63	24.590
442.98	24.226
443.33	23.882
443.68	24.628
444.03	24.318
444.39	24.179
444.74	24.553
445.09	24.126
445.44	24.816
445.79	24.138
446.15	24.152
446.50	24.599
446.85	24.611
447.20	24.033
447.55	25.523
447.91	23.351
448.26	23.890
448.61	24.548
448.96	24.249
449.31	23.754
449.66	23.911
450.02	24.736
450.37	24.347
450.72	23.520
451.07	24.715
451.42	24.610
451.77	23.402
452.12	24.718
452.47	23.827
452.83	24.550
453.18	23.818
453.53	24.009
453.88	23.633
454.23	24.181
454.58	24.202
454.93	24.090
455.28	23.600
455.63	23.991
455.98	23.743
456.34	24.499
456.69	24.339
457.04	24.468
457.39	23.836
457.74	24.441
458.09	22.735
458.44	23.707
458.79	23.775
459.14	23.125
459.49	23.769
459.84	24.764
460.19	23.931
460.54	23.566
460.89	23.769
461.24	23.046
461.59	22.690
461.94	22.419
462.29	23.404
462.64	23.899
462.99	22.787
463.34	23.556
463.69	23.095
464.04	23.457
464.39	23.599
464.74	22.577
465.09	23.183
465.44	23.605
465.79	22.475
466.14	22.043
466.49	22.737
466.84	23.306
467.19	23.179
467.54	21.387
467.89	21.609
468.24	22.881
468.59	21.309
468.94	20.921
469.29	21.296
469.64	21.488
469.99	22.371
470.34	21.597
470.68	21.668
471.03	22.593
471.38	21.583
471.73	21.456
472.08	21.954
472.43	21.915
472.78	21.788
473.13	21.365
473.48	22.236
473.83	21.358
474.17	20.926
474.52	21.227
474.87	21.207
475.22	21.634
475.57	22.118
475.92	21.055
476.27	20.820
476.61	20.820
476.96	20.282
477.31	21.139
477.66	20.776
478.01	20.742
478.36	20.837
478.70	20.443
479.05	20.859
479.40	20.780
479.75	20.413
480.10	21.175
480.45	20.328
480.79	20.408
481.14	20.956
481.49	19.900
481.84	20.801
482.19	20.043
482.53	20.420
482.88	20.160
483.23	19.742
483.58	20.306
483.92	19.016
484.27	20.195
484.62	19.761
484.97	19.907
485.31	19.183
485.66	19.012
486.01	19.206
486.36	19.363
486.70	20.151
487.05	19.632
487.40	19.898
487.75	19.466
488.09	19.498
488.44	18.681
488.79	18.954
489.13	19.225
489.48	18.563
489.83	18.551
490.17	18.307
490.52	18.637
490.87	18.782
491.22	18.068
491.56	19.155
491.91	19.145
492.26	18.650
492.60	18.015
492.95	18.736
493.30	18.108
493.64	17.740
493.99	17.982
494.34	17.291
494.68	17.173
495.03	17.093
495.37	18.109
495.72	18.231
496.07	17.485
496.41	17.675
496.76	17.848
497.11	17.537
497.45	17.264
497.80	17.281
498.14	17.460
498.49	16.590
498.84	16.728
499.18	16.959
499.53	17.534
499.87	17.143
500.22	16.251
500.56	16.869
500.91	17.437
501.26	17.136
501.60	16.615
501.95	16.891
502.29	16.849
502.64	16.572
502.98	15.746
503.33	16.631
503.67	16.311
504.02	16.243
504.36	16.577
504.71	15.572
505.06	16.644
505.40	16.499
505.75	16.029
506.09	16.713
506.44	16.342
506.78	16.697
507.13	16.413
507.47	15.348
507.82	15.625
508.16	15.344
508.51	15.284
508.85	14.880
509.19	15.822
509.54	15.706
509.88	15.444
510.23	15.687
510.57	16.240
510.92	16.207
511.26	15.103
511.61	14.582
511.95	15.666
512.30	16.297
512.64	15.042
512.98	15.158
513.33	15.020
513.67	14.788
514.02	15.227
514.36	14.834
514.70	15.052
515.05	15.433
515.39	15.118
515.74	15.429
516.08	15.108
516.42	15.646
516.77	14.721
517.11	14.544
517.46	14.952
517.80	14.591
518.14	15.343
518.49	14.751
518.83	14.795
519.17	13.463
519.52	14.780
519.86	14.150
520.20	15.016
520.55	13.417
520.89	13.795
521.23	13.735
521.58	13.955
521.92	13.654
522.26	14.204
522.61	14.236
522.95	13.495
523.29	12.989
523.64	13.845
523.98	13.976
524.32	14.040
524.66	14.286
525.01	13.703
525.35	13.785
525.69	13.515
526.04	13.146
526.38	13.391
526.72	13.610
527.06	13.372
527.41	13.061
527.75	13.539
528.09	12.397
528.43	13.381
528.78	13.237
529.12	12.500
529.46	12.985
529.80	12.872
530.15	12.638
530.49	12.871
530.83	13.105
531.17	13.501
531.51	12.214
531.86	12.260
532.20	12.561
532.54	13.106
532.88	12.727
533.22	12.669
533.57	12.637
533.91	13.187
534.25	12.493
534.59	12.701
534.93	12.564
535.27	12.620
535.62	13.246
535.96	13.481
536.30	12.280
536.64	11.832
536.98	12.546
537.32	12.469
537.66	12.539
538.01	12.628
538.35	12.119
538.69	12.019
539.03	12.937
539.37	13.015
539.71	12.973
540.05	11.451
540.39	12.164
540.73	11.961
541.07	11.465
541.42	12.050
541.76	11.269
542.10	12.364
542.44	11.267
542.78	12.287
543.12	12.277
543.46	11.783
543.80	11.271
544.14	12.148
544.48	12.530
544.82	11.550
545.16	11.389
545.50	11.684
545.84	11.513
546.18	11.667
546.52	11.529
546.86	11.887
547.20	11.260
547.54	11.486
547.88	11.332
548.22	10.936
548.56	11.703
548.90	11.761
549.24	12.097
549.58	11.735
549.92	11.288
550.26	12.233
550.60	11.359
550.94	11.837
551.28	10.693
551.62	11.456
551.96	11.392
552.30	12.747
552.64	10.454
552.98	10.418
553.32	11.704
553.66	11.318
554.00	11.160
554.34	11.068
554.68	10.394
555.02	11.432
555.36	11.045
555.69	9.865
556.03	10.656
556.37	11.890
556.71	11.224
557.05	11.118
557.39	10.617
557.73	11.559
558.07	10.530
558.41	11.229
558.75	10.953
559.08	10.995
559.42	10.700
559.76	10.583
560.10	11.453
560.44	10.554
560.78	11.312
561.12	10.037
561.45	10.827
561.79	10.073
562.13	11.460
562.47	10.111
562.81	10.316
563.15	10.985
563.48	10.628
563.82	10.580
564.16	10.297
564.50	9.952
564.84	10.501
565.17	10.353
565.51	10.702
565.85	10.273
566.19	9.620
566.52	9.596
566.86	11.036
567.20	9.407
567.54	10.090
567.88	11.366
568.21	10.524
568.55	9.784
568.89	9.941
569.23	10.604
569.56	9.965
569.90	10.727
570.24	10.152
570.57	9.589
570.91	9.706
571.25	9.777
571.59	10.326
571.92	10.261
572.26	9.979
572.60	9.773
572.93	9.769
573.27	9.919
573.61	10.138
573.95	10.075
574.28	10.161
574.62	9.618
574.96	9.616
575.29	9.584
575.63	9.402
575.97	10.156
576.30	10.042
576.64	9.664
576.98	9.499
577.31	9.658
577.65	9.657
577.98	9.789
578.32	9.744
578.66	9.631
578.99	9.728
579.33	9.715
579.67	9.791
580.00	9.755
580.34	9.795
580.67	9.554
581.01	9.109
581.35	9.156
581.68	9.512
582.02	9.658
582.35	9.487
582.69	9.836
583.02	9.475
583.36	9.489
583.70	9.407
584.03	8.855
584.37	9.529
584.70	9.389
585.04	9.254
585.37	9.280
585.71	9.493
586.04	9.247
586.38	9.494
586.72	9.000
587.05	9.082
587.39	9.100
587.72	9.234
588.06	9.405
588.39	9.161
588.73	9.153
589.06	9.142
589.40	9.250
589.73	9.030
590.07	9.582
590.40	9.263
590.73	9.084
591.07	9.270
591.40	9.331
591.74	9.102
592.07	9.704
592.41	8.517
592.74	9.372
593.08	9.236
593.41	9.186
593.75	8.879
594.08	9.452
594.41	9.167
594.75	9.034
595.08	9.085
595.42	8.994
595.75	9.138
596.09	9.149
596.42	9.029
596.75	9.263
597.09	8.808
597.42	8.621
597.75	9.173
598.09	8.690
598.42	9.771
598.76	8.789
599.09	8.829
599.42	8.850
599.76	8.419
600.09	9.009
600.42	8.509
600.76	8.620
601.09	8.497
601.42	8.479
601.76	8.345
602.09	8.470
602.42	8.179
602.76	9.151
603.09	8.590
603.42	8.996
603.76	8.492
604.09	9.226
604.42	9.028
604.76	8.790
605.09	8.696
605.42	9.290
605.75	8.885
606.09	7.988
606.42	8.355
606.75	7.946
607.09	8.372
607.42	8.632
607.75	8.832
608.08	8.682
608.42	8.182
608.75	8.706
609.08	8.107
609.41	8.161
609.75	8.304
610.08	8.707
610.41	8.624
610.74	8.613
611.07	8.570
611.41	8.879
611.74	8.776
612.07	8.462
612.40	7.985
612.73	8.313
613.07	8.166
613.40	8.422
613.73	8.714
614.06	8.685
614.39	8.163
614.72	8.054
615.06	8.566
615.39	8.748
615.72	8.483
616.05	7.965
616.38	8.729
616.71	8.203
617.05	7.668
617.38	8.775
617.71	8.585
618.04	8.689
618.37	8.798
618.70	8.824
619.03	8.423
619.36	8.446
619.69	8.136
620.03	8.286
620.36	7.485
620.69	7.958
621.02	8.858
621.35	8.055
621.68	9.328
622.01	8.185
622.34	6.695
622.67	8.110
623.00	6.883
623.33	8.494
623.66	8.690
623.99	7.439
624.32	8.382
624.65	7.851
624.99	8.192
625.32	7.903
625.65	8.699
625.98	7.390
626.31	8.221
626.64	7.766
626.97	8.402
627.30	7.213
627.63	8.027
627.96	8.634
628.29	8.249
628.62	7.053
628.95	8.063
629.28	7.732
629.61	8.754
629.94	7.364
630.26	7.458
630.59	7.427
630.92	6.667
631.25	7.692
631.58	8.663
631.91	8.341
632.24	8.453
632.57	8.065
632.90	7.823
633.23	8.367
633.56	8.061
633.89	8.471
634.22	8.732
634.55	7.829
634.88	7.576
635.20	9.365
635.53	8.023
635.86	8.126
636.19	9.438
636.52	7.489
636.85	8.274
637.18	7.692
637.51	7.419
637.83	8.306
638.16	9.332
638.49	7.981
638.82	6.990
639.15	6.644
639.48	8.199
639.81	9.815
640.13	8.009
640.46	6.909
640.79	6.985
641.12	8.447
641.45	7.528
641.77	9.243
642.10	7.349
642.43	8.245
642.76	9.079
643.09	6.164
643.41	7.283
643.74	6.621
