SpectraSuite Data File
++++++++++++++++++++++++++++++++++++
Date: Thu May 14 16:32:48 PDT 2015
User: schluterlab
Dark Spectrum Present: Yes
Reference Spectrum Present: Yes
Number of Sampled Component Spectra: 1
Spectrometers: USB2E3373
Integration Time (usec): 3000 (USB2E3373)
Spectra Averaged: 3 (USB2E3373)
Boxcar Smoothing: 0 (USB2E3373)
Correct for Electrical Dark: No (USB2E3373)
Strobe/Lamp Enabled: No (USB2E3373)
Correct for Detector Non-linearity: No (USB2E3373)
Correct for Stray Light: No (USB2E3373)
Number of Pixels in Processed Spectrum: 2048
>>>>>Begin Processed Spectral Data<<<<<
178.53	0.000
178.91	57.143
179.29	-900.000
179.67	-200.000
180.04	85.714
180.42	10.000
180.80	260.000
181.18	-500.000
181.56	800.000
181.94	375.000
182.31	75.000
182.69	33.333
183.07	50.000
183.45	125.000
183.83	-33.333
184.20	-266.667
184.58	400.000
184.96	-75.000
185.34	44.444
185.72	-60.000
186.09	200.000
186.47	350.000
186.85	260.000
187.23	-111.111
187.61	400.000
187.98	220.000
188.36	175.000
188.74	-50.000
189.12	-333.333
189.49	18.750
189.87	12.500
190.25	55.556
190.63	-40.000
191.00	-133.333
191.38	0.000
191.76	-250.000
192.14	-16.667
192.51	-350.000
192.89	116.667
193.27	0.000
193.65	57.143
194.02	-1500.000
194.40	-28.571
194.78	57.143
195.15	0.000
195.53	72.727
195.91	0.000
196.29	-125.000
196.66	-76.923
197.04	-600.000
197.42	-157.143
197.79	-400.000
198.17	-25.000
198.55	-142.857
198.92	100.000
199.30	-62.500
199.68	0.000
200.05	7.143
200.43	-50.000
200.81	171.429
201.18	0.000
201.56	166.667
201.94	0.000
202.31	200.000
202.69	-111.111
203.07	-300.000
203.44	-111.111
203.82	-200.000
204.19	83.333
204.57	-150.000
204.95	-62.500
205.32	-1100.000
205.70	200.000
206.08	-50.000
206.45	50.000
206.83	200.000
207.20	-33.333
207.58	-220.000
207.96	-16.667
208.33	116.667
208.71	58.333
209.08	133.333
209.46	0.000
209.84	83.333
210.21	50.000
210.59	250.000
210.96	66.667
211.34	100.000
211.71	-25.000
212.09	-200.000
212.46	0.000
212.84	150.000
213.22	-180.000
213.59	0.000
213.97	-70.000
214.34	-66.667
214.72	83.333
215.09	-100.000
215.47	0.000
215.84	-0.000
216.22	350.000
216.59	-40.000
216.97	-260.000
217.34	0.000
217.72	-50.000
218.09	-25.000
218.47	-200.000
218.84	0.000
219.22	-140.000
219.59	5.882
219.97	-5.000
220.34	550.000
220.72	-55.556
221.09	7.692
221.47	66.667
221.84	-60.000
222.22	-185.714
222.59	0.000
222.97	87.500
223.34	-20.000
223.72	0.000
224.09	0.000
224.46	-50.000
224.84	-40.000
225.21	-85.714
225.59	-425.000
225.96	-250.000
226.34	61.538
226.71	133.333
227.08	-350.000
227.46	0.000
227.83	-25.000
228.21	26.316
228.58	87.500
228.95	250.000
229.33	75.000
229.70	-70.000
230.08	42.105
230.45	100.000
230.82	0.000
231.20	57.143
231.57	50.000
231.95	-18.182
232.32	-45.455
232.69	15.000
233.07	25.000
233.44	-29.412
233.81	-60.000
234.19	0.000
234.56	-9.091
234.93	27.586
235.31	-31.579
235.68	-44.444
236.05	-55.000
236.43	-7.692
236.80	32.000
237.17	0.000
237.55	3.030
237.92	-60.000
238.29	-35.484
238.67	-2.273
239.04	-8.333
239.41	-9.524
239.79	-13.043
240.16	3.704
240.53	-4.348
240.91	1.961
241.28	1.639
241.65	25.373
242.02	10.811
242.40	1.538
242.77	4.000
243.14	-1.220
243.51	-14.474
243.89	-12.821
244.26	8.911
244.63	7.843
245.00	0.935
245.38	7.895
245.75	-0.885
246.12	11.905
246.49	-2.326
246.87	6.429
247.24	5.298
247.61	4.605
247.98	0.671
248.36	-1.235
248.73	-4.908
249.10	0.000
249.47	3.483
249.84	8.901
250.22	0.000
250.59	5.000
250.96	5.909
251.33	3.571
251.70	2.137
252.08	4.167
252.45	5.738
252.82	1.653
253.19	0.781
253.56	4.183
253.94	1.923
254.31	3.788
254.68	6.993
255.05	6.515
255.42	7.143
255.79	3.236
256.16	3.642
256.54	1.656
256.91	2.295
257.28	2.623
257.65	0.318
258.02	-0.295
258.39	2.279
258.76	7.339
259.14	9.195
259.51	4.035
259.88	0.850
260.25	4.167
260.62	7.397
260.99	4.918
261.36	5.362
261.73	3.714
262.10	3.297
262.47	1.340
262.85	6.313
263.22	2.078
263.59	-2.105
263.96	5.627
264.33	1.023
264.70	6.420
265.07	5.967
265.44	7.029
265.81	4.167
266.18	1.361
266.55	3.571
266.92	3.872
267.29	2.626
267.66	3.326
268.03	4.803
268.40	5.428
268.77	2.733
269.14	1.542
269.51	2.412
269.88	6.352
270.25	5.231
270.62	4.430
270.99	7.879
271.36	4.356
271.73	3.536
272.10	4.409
272.47	3.808
272.84	5.020
273.21	4.409
273.58	5.444
273.95	3.269
274.32	4.183
274.69	4.255
275.06	4.579
275.43	4.251
275.80	4.409
276.17	4.074
276.54	5.224
276.91	3.399
277.28	4.521
277.65	6.463
278.02	4.596
278.39	5.616
278.76	5.448
279.13	2.660
279.50	5.842
279.87	5.367
280.23	2.113
280.60	4.237
280.97	4.934
281.34	2.547
281.71	6.768
282.08	5.814
282.45	3.273
282.82	4.239
283.19	3.554
283.56	3.934
283.92	5.706
284.29	6.003
284.66	5.090
285.03	2.244
285.40	4.791
285.77	4.180
286.14	6.412
286.51	4.262
286.87	4.423
287.24	4.217
287.61	5.381
287.98	3.927
288.35	3.550
288.72	4.734
289.08	5.124
289.45	3.846
289.82	4.970
290.19	4.167
290.56	6.338
290.93	3.994
291.29	4.270
291.66	4.270
292.03	4.749
292.40	5.578
292.77	4.717
293.13	5.548
293.50	3.285
293.87	4.027
294.24	7.067
294.60	6.700
294.97	4.027
295.34	6.274
295.71	6.936
296.08	4.134
296.44	4.902
296.81	4.994
297.18	5.853
297.55	5.660
297.91	5.219
298.28	4.384
298.65	5.589
299.02	5.313
299.38	5.835
299.75	6.075
300.12	4.514
300.48	5.415
300.85	5.962
301.22	5.817
301.59	5.479
301.95	5.424
302.32	6.778
302.69	5.586
303.05	4.353
303.42	5.987
303.79	5.938
304.15	5.468
304.52	5.497
304.89	7.435
305.25	6.522
305.62	6.165
305.99	6.495
306.35	5.242
306.72	7.342
307.09	4.975
307.45	8.075
307.82	5.550
308.19	5.449
308.55	6.750
308.92	5.745
309.29	7.088
309.65	6.433
310.02	5.545
310.38	6.004
310.75	7.282
311.12	7.862
311.48	6.061
311.85	6.838
312.22	5.503
312.58	6.667
312.95	6.023
313.31	6.865
313.68	7.051
314.05	7.407
314.41	6.375
314.78	5.450
315.14	6.987
315.51	7.756
315.87	7.111
316.24	7.671
316.61	7.460
316.97	7.421
317.34	6.966
317.70	6.638
318.07	7.319
318.43	8.163
318.80	8.528
319.16	7.725
319.53	6.084
319.89	6.310
320.26	6.940
320.62	7.181
320.99	8.033
321.35	7.579
321.72	7.814
322.08	7.665
322.45	7.588
322.81	8.303
323.18	7.788
323.54	7.845
323.91	9.075
324.27	8.692
324.64	8.816
325.00	8.541
325.37	9.173
325.73	10.000
326.10	9.165
326.46	9.772
326.83	10.729
327.19	9.843
327.56	10.040
327.92	9.205
328.29	8.790
328.65	9.464
329.01	8.291
329.38	10.362
329.74	11.130
330.11	10.531
330.47	10.615
330.84	10.680
331.20	10.667
331.56	10.919
331.93	10.628
332.29	11.102
332.66	10.382
333.02	9.966
333.38	9.648
333.75	9.848
334.11	10.175
334.48	11.304
334.84	11.640
335.20	10.243
335.57	11.804
335.93	10.992
336.29	10.233
336.66	10.008
337.02	10.284
337.38	10.884
337.75	10.661
338.11	10.934
338.47	10.918
338.84	9.645
339.20	9.014
339.56	10.297
339.93	10.673
340.29	9.823
340.65	10.787
341.02	11.253
341.38	11.479
341.74	10.977
342.11	10.861
342.47	10.326
342.83	10.225
343.20	11.202
343.56	11.307
343.92	10.328
344.28	10.156
344.65	11.395
345.01	10.920
345.37	10.964
345.73	9.353
346.10	10.686
346.46	9.494
346.82	10.262
347.19	10.542
347.55	10.850
347.91	9.138
348.27	10.243
348.63	11.196
349.00	10.067
349.36	10.186
349.72	10.640
350.08	11.218
350.45	9.962
350.81	9.578
351.17	10.226
351.53	10.842
351.89	11.390
352.26	9.925
352.62	10.373
352.98	10.000
353.34	8.663
353.70	10.324
354.07	10.730
354.43	9.719
354.79	11.070
355.15	10.007
355.51	10.599
355.87	9.798
356.24	11.407
356.60	10.347
356.96	10.230
357.32	10.409
357.68	9.004
358.04	10.180
358.40	10.448
358.77	11.111
359.13	10.118
359.49	8.996
359.85	10.007
360.21	9.756
360.57	9.476
360.93	10.649
361.29	10.035
361.66	9.776
362.02	10.856
362.38	9.838
362.74	9.427
363.10	10.523
363.46	10.388
363.82	9.659
364.18	10.486
364.54	9.889
364.90	10.903
365.26	9.379
365.62	9.800
365.98	10.756
366.35	10.268
366.71	10.952
367.07	10.487
367.43	10.703
367.79	11.082
368.15	10.903
368.51	10.284
368.87	11.430
369.23	10.267
369.59	10.724
369.95	10.953
370.31	10.668
370.67	10.316
371.03	11.080
371.39	10.007
371.75	10.867
372.11	11.585
372.47	11.645
372.83	11.322
373.19	10.874
373.55	10.772
373.91	10.566
374.27	10.737
374.63	11.164
374.99	11.207
375.35	10.909
375.71	10.323
376.07	10.910
376.42	11.272
376.78	11.063
377.14	10.730
377.50	10.500
377.86	12.069
378.22	11.497
378.58	10.939
378.94	10.974
379.30	11.775
379.66	11.758
380.02	11.079
380.38	11.233
380.74	11.606
381.09	10.743
381.45	11.705
381.81	11.827
382.17	11.283
382.53	11.111
382.89	11.117
383.25	10.785
383.61	10.648
383.97	10.483
384.32	11.124
384.68	9.745
385.04	10.989
385.40	12.080
385.76	12.075
386.12	11.370
386.48	12.176
386.83	11.919
387.19	11.414
387.55	10.798
387.91	11.929
388.27	10.912
388.62	11.856
388.98	11.337
389.34	11.432
389.70	10.924
390.06	12.197
390.42	11.506
390.77	12.462
391.13	11.033
391.49	11.534
391.85	10.667
392.20	11.566
392.56	11.459
392.92	12.105
393.28	11.553
393.64	10.503
393.99	11.912
394.35	11.974
394.71	12.216
395.07	10.719
395.42	12.393
395.78	11.944
396.14	12.002
396.50	12.055
396.85	11.807
397.21	11.538
397.57	12.014
397.92	11.512
398.28	11.190
398.64	11.442
399.00	11.518
399.35	11.885
399.71	11.685
400.07	11.510
400.42	11.525
400.78	11.343
401.14	12.351
401.49	10.972
401.85	11.860
402.21	12.109
402.57	12.852
402.92	12.175
403.28	11.300
403.63	10.859
403.99	11.876
404.35	12.337
404.70	12.465
405.06	11.793
405.42	12.119
405.77	11.832
406.13	11.399
406.49	11.993
406.84	12.798
407.20	11.683
407.55	10.902
407.91	11.942
408.27	11.837
408.62	12.158
408.98	11.782
409.34	11.026
409.69	11.557
410.05	12.427
410.40	12.471
410.76	11.666
411.11	12.157
411.47	12.224
411.83	13.228
412.18	12.048
412.54	12.033
412.89	11.525
413.25	12.020
413.60	11.832
413.96	12.821
414.31	12.011
414.67	12.105
415.03	12.369
415.38	11.349
415.74	11.973
416.09	12.276
416.45	12.085
416.80	11.934
417.16	11.941
417.51	11.519
417.87	11.404
418.22	11.557
418.58	12.454
418.93	12.980
419.29	12.084
419.64	11.044
420.00	11.869
420.35	12.746
420.71	11.890
421.06	12.133
421.42	12.328
421.77	11.847
422.12	12.474
422.48	12.135
422.83	12.048
423.19	12.891
423.54	12.113
423.90	12.866
424.25	11.680
424.61	11.481
424.96	11.971
425.31	12.951
425.67	11.863
426.02	12.950
426.38	11.653
426.73	12.612
427.09	12.687
427.44	12.179
427.79	11.774
428.15	11.815
428.50	11.854
428.85	12.113
429.21	12.074
429.56	12.636
429.92	11.990
430.27	12.386
430.62	12.018
430.98	12.051
431.33	11.828
431.68	12.069
432.04	12.951
432.39	12.159
432.74	12.557
433.10	12.818
433.45	12.821
433.80	12.715
434.16	11.983
434.51	12.847
434.86	12.269
435.22	12.380
435.57	12.913
435.92	13.356
436.28	12.230
436.63	13.381
436.98	12.077
437.34	12.514
437.69	12.053
438.04	12.692
438.39	12.407
438.75	11.732
439.10	13.266
439.45	12.689
439.81	12.655
440.16	12.815
440.51	12.765
440.86	12.618
441.22	12.379
441.57	13.260
441.92	12.658
442.27	12.576
442.63	12.866
442.98	12.593
443.33	12.467
443.68	13.627
444.03	13.735
444.39	12.760
444.74	13.629
445.09	13.533
445.44	13.224
445.79	13.075
446.15	13.104
446.50	12.248
446.85	12.986
447.20	13.056
447.55	13.075
447.91	13.194
448.26	12.949
448.61	12.859
448.96	13.412
449.31	13.256
449.66	12.309
450.02	13.819
450.37	13.745
450.72	13.025
451.07	12.585
451.42	13.287
451.77	13.230
452.12	13.657
452.47	12.715
452.83	13.795
453.18	13.252
453.53	13.038
453.88	13.363
454.23	12.994
454.58	13.523
454.93	12.803
455.28	13.426
455.63	12.507
455.98	13.631
456.34	12.603
456.69	13.815
457.04	13.416
457.39	13.636
457.74	13.255
458.09	13.180
458.44	13.200
458.79	12.790
459.14	13.057
459.49	13.526
459.84	12.749
460.19	12.993
460.54	13.345
460.89	13.552
461.24	12.471
461.59	13.614
461.94	13.120
462.29	13.326
462.64	13.277
462.99	13.057
463.34	13.952
463.69	12.544
464.04	14.119
464.39	12.892
464.74	13.569
465.09	12.803
465.44	12.929
465.79	13.696
466.14	12.715
466.49	12.947
466.84	13.719
467.19	13.642
467.54	13.278
467.89	13.506
468.24	13.075
468.59	12.160
468.94	13.228
469.29	12.717
469.64	13.032
469.99	13.830
470.34	13.119
470.68	13.534
471.03	13.360
471.38	13.800
471.73	13.784
472.08	13.261
472.43	13.727
472.78	13.350
473.13	13.021
473.48	13.716
473.83	13.465
474.17	13.951
474.52	13.169
474.87	14.009
475.22	14.648
475.57	13.396
475.92	13.788
476.27	14.271
476.61	14.019
476.96	13.608
477.31	13.812
477.66	13.536
478.01	13.726
478.36	13.609
478.70	13.300
479.05	14.519
479.40	14.018
479.75	14.505
480.10	13.501
480.45	13.582
480.79	14.376
481.14	14.062
481.49	13.358
481.84	14.491
482.19	14.065
482.53	14.036
482.88	13.912
483.23	13.828
483.58	14.017
483.92	14.140
484.27	13.929
484.62	13.779
484.97	13.608
485.31	13.305
485.66	12.827
486.01	12.170
486.36	12.246
486.70	13.022
487.05	13.649
487.40	13.745
487.75	13.486
488.09	13.384
488.44	13.533
488.79	13.794
489.13	14.265
489.48	13.748
489.83	13.400
490.17	13.528
490.52	14.368
490.87	14.340
491.22	13.388
491.56	13.737
491.91	14.522
492.26	14.323
492.60	13.905
492.95	14.305
493.30	13.805
493.64	13.666
493.99	14.342
494.34	13.458
494.68	13.619
495.03	13.789
495.37	13.804
495.72	13.469
496.07	13.497
496.41	13.556
496.76	14.304
497.11	14.268
497.45	13.768
497.80	14.216
498.14	14.014
498.49	13.419
498.84	13.985
499.18	13.855
499.53	14.170
499.87	14.198
500.22	13.669
500.56	13.630
500.91	13.913
501.26	14.591
501.60	13.787
501.95	14.199
502.29	13.997
502.64	13.774
502.98	14.495
503.33	13.909
503.67	14.086
504.02	13.748
504.36	14.343
504.71	13.643
505.06	14.143
505.40	14.031
505.75	14.344
506.09	14.503
506.44	14.903
506.78	15.138
507.13	14.661
507.47	14.495
507.82	14.915
508.16	14.484
508.51	14.721
508.85	15.163
509.19	14.353
509.54	14.890
509.88	14.230
510.23	15.542
510.57	15.321
510.92	14.949
511.26	14.574
511.61	15.065
511.95	14.739
512.30	15.165
512.64	14.043
512.98	15.908
513.33	15.726
513.67	15.604
514.02	16.096
514.36	16.010
514.70	15.781
515.05	16.111
515.39	14.803
515.74	16.172
516.08	15.425
516.42	16.222
516.77	14.879
517.11	15.059
517.46	15.376
517.80	16.301
518.14	16.322
518.49	16.757
518.83	15.700
519.17	14.917
519.52	15.776
519.86	15.787
520.20	15.761
520.55	15.608
520.89	15.709
521.23	15.410
521.58	16.497
521.92	15.864
522.26	15.693
522.61	16.030
522.95	15.629
523.29	15.402
523.64	15.975
523.98	16.714
524.32	16.734
524.66	15.993
525.01	15.968
525.35	16.255
525.69	16.357
526.04	15.212
526.38	15.920
526.72	17.128
527.06	16.305
527.41	16.268
527.75	17.458
528.09	16.175
528.43	16.104
528.78	15.607
529.12	15.711
529.46	15.964
529.80	16.590
530.15	16.000
530.49	16.251
530.83	16.942
531.17	16.487
531.51	16.245
531.86	16.286
532.20	16.524
532.54	15.919
532.88	15.636
533.22	16.205
533.57	15.465
533.91	16.779
534.25	15.602
534.59	16.839
534.93	15.563
535.27	15.324
535.62	16.657
535.96	16.212
536.30	15.570
536.64	16.156
536.98	16.544
537.32	16.481
537.66	16.469
538.01	15.770
538.35	15.408
538.69	15.865
539.03	16.064
539.37	15.665
539.71	16.096
540.05	15.887
540.39	15.465
540.73	15.543
541.07	15.328
541.42	16.007
541.76	14.769
542.10	15.440
542.44	14.860
542.78	16.119
543.12	16.210
543.46	16.056
543.80	15.408
544.14	14.243
544.48	15.544
544.82	15.560
545.16	15.504
545.50	15.398
545.84	15.493
546.18	16.481
546.52	15.860
546.86	14.717
547.20	14.758
547.54	14.732
547.88	15.130
548.22	14.386
548.56	15.097
548.90	15.284
549.24	14.468
549.58	15.773
549.92	15.179
550.26	16.311
550.60	15.507
550.94	15.847
551.28	15.116
551.62	16.577
551.96	15.793
552.30	14.786
552.64	16.117
552.98	15.721
553.32	15.241
553.66	15.241
554.00	15.511
554.34	15.637
554.68	14.848
555.02	14.060
555.36	15.976
555.69	14.670
556.03	14.565
556.37	15.269
556.71	14.711
557.05	15.144
557.39	14.930
557.73	14.597
558.07	14.834
558.41	15.282
558.75	15.281
559.08	15.031
559.42	14.609
559.76	14.925
560.10	14.267
560.44	14.578
560.78	14.938
561.12	14.224
561.45	14.416
561.79	14.225
562.13	14.418
562.47	13.564
562.81	14.873
563.15	15.215
563.48	15.662
563.82	14.510
564.16	13.325
564.50	14.243
564.84	13.923
565.17	14.235
565.51	13.349
565.85	14.371
566.19	13.652
566.52	14.219
566.86	13.413
567.20	13.268
567.54	13.436
567.88	14.985
568.21	13.587
568.55	13.189
568.89	13.345
569.23	13.223
569.56	12.466
569.90	12.758
570.24	12.040
570.57	12.316
570.91	11.696
571.25	11.918
571.59	12.190
571.92	11.994
572.26	11.673
572.60	11.930
572.93	12.274
573.27	12.138
573.61	12.070
573.95	11.556
574.28	12.077
574.62	11.460
574.96	11.138
575.29	11.192
575.63	11.388
575.97	12.168
576.30	11.695
576.64	11.477
576.98	11.686
577.31	11.564
577.65	11.618
577.98	11.201
578.32	10.811
578.66	11.119
578.99	11.223
579.33	11.205
579.67	11.287
580.00	11.059
580.34	11.431
580.67	10.989
581.01	11.229
581.35	11.124
581.68	10.736
582.02	10.814
582.35	10.720
582.69	10.828
583.02	11.063
583.36	11.070
583.70	11.247
584.03	11.207
584.37	11.454
584.70	10.880
585.04	10.951
585.37	11.003
585.71	10.529
586.04	10.920
586.38	11.026
586.72	10.805
587.05	10.975
587.39	11.045
587.72	11.148
588.06	11.170
588.39	11.202
588.73	10.847
589.06	11.258
589.40	11.248
589.73	11.568
590.07	11.439
590.40	11.832
590.73	11.559
591.07	11.914
591.40	11.314
591.74	11.248
592.07	11.774
592.41	10.804
592.74	10.898
593.08	11.529
593.41	11.315
593.75	10.862
594.08	10.694
594.41	10.865
594.75	11.126
595.08	10.801
595.42	11.071
595.75	10.946
596.09	11.081
596.42	11.860
596.75	11.656
597.09	11.434
597.42	11.244
597.75	11.368
598.09	11.587
598.42	11.299
598.76	11.196
599.09	10.822
599.42	10.660
599.76	10.399
600.09	10.944
600.42	10.811
600.76	10.865
601.09	10.289
601.42	10.745
601.76	10.897
602.09	10.829
602.42	10.651
602.76	10.959
603.09	10.536
603.42	10.983
603.76	10.571
604.09	11.568
604.42	10.972
604.76	11.111
605.09	10.610
605.42	11.164
605.75	10.962
606.09	10.489
606.42	10.069
606.75	10.420
607.09	10.100
607.42	11.098
607.75	10.317
608.08	11.168
608.42	10.399
608.75	11.277
609.08	9.975
609.41	10.719
609.75	10.670
610.08	11.170
610.41	10.748
610.74	10.630
611.07	10.524
611.41	10.897
611.74	10.808
612.07	10.425
612.40	10.314
612.73	10.709
613.07	10.758
613.40	10.828
613.73	10.400
614.06	10.746
614.39	11.079
614.72	10.917
615.06	10.250
615.39	10.150
615.72	10.806
616.05	10.442
616.38	10.747
616.71	11.494
617.05	11.289
617.38	11.075
617.71	11.339
618.04	10.847
618.37	10.929
618.70	11.256
619.03	10.275
619.36	11.529
619.69	10.762
620.03	11.551
620.36	10.982
620.69	10.981
621.02	10.827
621.35	11.030
621.68	11.497
622.01	11.032
622.34	10.112
622.67	11.753
623.00	9.447
623.33	11.214
623.66	10.960
623.99	10.533
624.32	12.216
624.65	10.360
624.99	10.858
625.32	11.169
625.65	11.598
625.98	11.119
626.31	11.056
626.64	11.868
626.97	11.253
627.30	9.567
627.63	11.253
627.96	11.637
628.29	10.584
628.62	11.755
628.95	12.270
629.28	11.555
629.61	12.037
629.94	10.628
630.26	11.525
630.59	11.399
630.92	10.303
631.25	11.628
631.58	12.241
631.91	11.715
632.24	11.816
632.57	10.531
632.90	11.033
633.23	10.612
633.56	12.143
633.89	11.777
634.22	11.642
634.55	11.900
634.88	12.013
635.20	12.917
635.53	13.220
635.86	12.351
636.19	13.892
636.52	12.025
636.85	12.155
637.18	11.642
637.51	11.828
637.83	12.735
638.16	12.558
638.49	11.268
638.82	11.725
639.15	12.142
639.48	13.164
639.81	12.009
