SpectraSuite Data File
++++++++++++++++++++++++++++++++++++
Date: Thu May 14 16:27:42 PDT 2015
User: schluterlab
Dark Spectrum Present: Yes
Reference Spectrum Present: Yes
Number of Sampled Component Spectra: 1
Spectrometers: USB2E3373
Integration Time (usec): 3000 (USB2E3373)
Spectra Averaged: 3 (USB2E3373)
Boxcar Smoothing: 0 (USB2E3373)
Correct for Electrical Dark: No (USB2E3373)
Strobe/Lamp Enabled: No (USB2E3373)
Correct for Detector Non-linearity: No (USB2E3373)
Correct for Stray Light: No (USB2E3373)
Number of Pixels in Processed Spectrum: 2048
>>>>>Begin Processed Spectral Data<<<<<
178.53	0.000
178.91	128.571
179.29	-700.000
179.67	-500.000
180.04	150.000
180.42	20.000
180.80	300.000
181.18	-700.000
181.56	600.000
181.94	200.000
182.31	-75.000
182.69	233.333
183.07	0.000
183.45	200.000
183.83	-116.667
184.20	266.667
184.58	-200.000
184.96	75.000
185.34	-66.667
185.72	220.000
186.09	88.889
186.47	-0.000
186.85	40.000
187.23	-44.444
187.61	0.000
187.98	-0.000
188.36	25.000
188.74	-300.000
189.12	-66.667
189.49	43.750
189.87	-62.500
190.25	0.000
190.63	40.000
191.00	-66.667
191.38	0.000
191.76	-225.000
192.14	-116.667
192.51	-200.000
192.89	0.000
193.27	0.000
193.65	57.143
194.02	-1400.000
194.40	-114.286
194.78	-0.000
195.15	0.000
195.53	54.545
195.91	0.000
196.29	-50.000
196.66	-61.538
197.04	-1200.000
197.42	-28.571
197.79	100.000
198.17	12.500
198.55	100.000
198.92	33.333
199.30	-75.000
199.68	45.455
200.05	35.714
200.43	-400.000
200.81	228.571
201.18	0.000
201.56	111.111
201.94	0.000
202.31	266.667
202.69	-11.111
203.07	500.000
203.44	0.000
203.82	-100.000
204.19	0.000
204.57	-33.333
204.95	0.000
205.32	-100.000
205.70	-50.000
206.08	-83.333
206.45	-33.333
206.83	140.000
207.20	-100.000
207.58	-280.000
207.96	-166.667
208.33	100.000
208.71	100.000
209.08	33.333
209.46	0.000
209.84	133.333
210.21	150.000
210.59	150.000
210.96	266.667
211.34	25.000
211.71	-50.000
212.09	-700.000
212.46	0.000
212.84	800.000
213.22	-160.000
213.59	75.000
213.97	70.000
214.34	-66.667
214.72	116.667
215.09	50.000
215.47	0.000
215.84	57.143
216.22	200.000
216.59	100.000
216.97	20.000
217.34	-100.000
217.72	12.500
218.09	-200.000
218.47	-200.000
218.84	0.000
219.22	60.000
219.59	-23.529
219.97	0.000
220.34	550.000
220.72	-11.111
221.09	30.769
221.47	-200.000
221.84	30.000
222.22	28.571
222.59	0.000
222.97	100.000
223.34	-180.000
223.72	-300.000
224.09	-200.000
224.46	-125.000
224.84	240.000
225.21	-85.714
225.59	-75.000
225.96	-25.000
226.34	30.769
226.71	116.667
227.08	-250.000
227.46	33.333
227.83	-175.000
228.21	0.000
228.58	187.500
228.95	-50.000
229.33	108.333
229.70	-10.000
230.08	57.895
230.45	40.000
230.82	-66.667
231.20	21.429
231.57	16.667
231.95	-36.364
232.32	9.091
232.69	45.000
233.07	-125.000
233.44	0.000
233.81	-70.000
234.19	38.889
234.56	36.364
234.93	10.345
235.31	15.789
235.68	38.889
236.05	-30.000
236.43	46.154
236.80	8.000
237.17	37.037
237.55	-12.121
237.92	-60.000
238.29	9.677
238.67	2.273
239.04	11.111
239.41	-16.667
239.79	-2.174
240.16	5.556
240.53	-2.174
240.91	-21.569
241.28	3.279
241.65	10.448
242.02	9.459
242.40	-13.846
242.77	-8.000
243.14	-2.439
243.51	-6.579
243.89	-2.564
244.26	10.891
244.63	10.784
245.00	0.935
245.38	-6.140
245.75	-4.425
246.12	1.587
246.49	-3.101
246.87	-2.857
247.24	10.596
247.61	-0.658
247.98	4.027
248.36	0.000
248.73	-5.521
249.10	-4.918
249.47	7.463
249.84	8.377
250.22	-5.181
250.59	0.556
250.96	-1.364
251.33	-2.041
251.70	-0.427
252.08	2.083
252.45	2.869
252.82	-0.826
253.19	-1.172
253.56	-0.760
253.94	-0.769
254.31	-1.136
254.68	2.098
255.05	2.932
255.42	2.381
255.79	-1.294
256.16	-1.656
256.54	-3.642
256.91	0.328
257.28	-0.656
257.65	-2.548
258.02	-1.180
258.39	2.279
258.76	1.223
259.14	3.161
259.51	2.017
259.88	-2.833
260.25	1.111
260.62	0.000
260.99	4.098
261.36	3.217
261.73	0.265
262.10	-2.198
262.47	0.804
262.85	0.758
263.22	-1.558
263.59	-0.263
263.96	-0.767
264.33	-2.046
264.70	-0.247
265.07	1.193
265.44	2.268
265.81	-0.694
266.18	2.041
266.55	2.009
266.92	0.456
267.29	1.969
267.66	-0.443
268.03	-1.092
268.40	1.461
268.77	-1.822
269.14	-3.965
269.51	0.000
269.88	1.434
270.25	1.006
270.62	1.055
270.99	3.434
271.36	3.762
271.73	0.982
272.10	2.204
272.47	-0.802
272.84	1.406
273.21	0.200
273.58	-0.202
273.95	0.192
274.32	-0.760
274.69	0.774
275.06	1.832
275.43	0.000
275.80	2.469
276.17	1.481
276.54	1.306
276.91	-1.252
277.28	0.542
277.65	-1.795
278.02	2.022
278.39	-0.181
278.76	-0.527
279.13	0.355
279.50	2.234
279.87	1.789
280.23	-2.641
280.60	1.356
280.97	1.974
281.34	-1.358
281.71	3.046
282.08	2.159
282.45	-0.818
282.82	-0.628
283.19	-0.969
283.56	-0.164
283.92	1.952
284.29	0.948
284.66	2.135
285.03	-0.641
285.40	1.236
285.77	1.393
286.14	1.832
286.51	1.065
286.87	1.580
287.24	1.054
287.61	-0.598
287.98	-1.057
288.35	0.444
288.72	0.148
289.08	0.000
289.45	0.740
289.82	-0.904
290.19	1.006
290.56	3.239
290.93	0.999
291.29	-0.826
291.66	0.964
292.03	0.543
292.40	1.905
292.77	-0.539
293.13	0.271
293.50	0.263
293.87	0.403
294.24	1.200
294.60	2.149
294.97	-0.805
295.34	1.921
295.71	0.252
296.08	1.292
296.44	1.348
296.81	1.218
297.18	0.374
297.55	-0.472
297.91	0.830
298.28	0.592
298.65	0.476
299.02	-0.236
299.38	1.602
299.75	0.584
300.12	0.231
300.48	0.576
300.85	0.225
301.22	0.224
301.59	0.571
301.95	0.791
302.32	1.444
302.69	1.533
303.05	0.762
303.42	0.998
303.79	0.208
304.15	1.367
304.52	0.317
304.89	0.628
305.25	0.932
305.62	1.463
305.99	0.928
306.35	0.504
306.72	1.034
307.09	0.000
307.45	0.207
307.82	0.908
308.19	0.404
308.55	1.929
308.92	0.974
309.29	1.341
309.65	-0.195
310.02	0.495
310.38	1.280
310.75	0.485
311.12	0.959
311.48	0.587
311.85	1.235
312.22	0.474
312.58	0.751
312.95	0.860
313.31	1.897
313.68	2.015
314.05	1.445
314.41	1.184
314.78	1.726
315.14	2.269
315.51	2.585
315.87	3.240
316.24	2.740
316.61	3.286
316.97	1.991
317.34	2.557
317.70	3.493
318.07	2.646
318.43	3.316
318.80	4.431
319.16	3.433
319.53	2.142
319.89	3.593
320.26	4.804
320.62	4.965
320.99	4.709
321.35	4.067
321.72	6.140
322.08	4.148
322.45	3.794
322.81	5.415
323.18	5.221
323.54	6.638
323.91	7.028
324.27	6.196
324.64	6.465
325.00	6.965
325.37	7.453
325.73	8.017
326.10	7.867
326.46	8.713
326.83	8.247
327.19	8.661
327.56	8.300
327.92	8.261
328.29	8.145
328.65	8.040
329.01	9.137
329.38	8.509
329.74	9.503
330.11	9.932
330.47	9.604
330.84	9.475
331.20	10.500
331.56	8.839
331.93	10.795
332.29	10.254
332.66	9.884
333.02	10.218
333.38	9.648
333.75	10.859
334.11	10.425
334.48	10.479
334.84	11.045
335.20	10.327
335.57	11.298
335.93	10.826
336.29	10.483
336.66	10.597
337.02	12.124
337.38	10.714
337.75	10.826
338.11	10.597
338.47	10.835
338.84	10.998
339.20	10.110
339.56	10.791
339.93	11.084
340.29	11.514
340.65	11.273
341.02	11.492
341.38	11.722
341.74	10.734
342.11	12.148
342.47	9.214
342.83	11.594
343.20	11.365
343.56	11.067
343.92	11.289
344.28	10.156
344.65	12.093
345.01	12.637
345.37	11.664
345.73	10.210
346.10	12.402
346.46	10.997
346.82	11.386
347.19	12.070
347.55	11.988
347.91	11.293
348.27	12.291
348.63	12.567
349.00	11.409
349.36	11.599
349.72	11.756
350.08	11.590
350.45	11.027
350.81	11.388
351.17	11.203
351.53	11.221
351.89	12.680
352.26	11.642
352.62	11.716
352.98	11.756
353.34	11.650
353.70	11.864
354.07	11.848
354.43	11.693
354.79	11.668
355.15	11.553
355.51	13.450
355.87	11.818
356.24	12.015
356.60	11.678
356.96	11.861
357.32	11.747
357.68	11.933
358.04	11.826
358.40	11.940
358.77	12.061
359.13	11.521
359.49	11.599
359.85	12.038
360.21	12.410
360.57	12.204
360.93	12.764
361.29	12.421
361.66	12.310
362.02	12.804
362.38	12.509
362.74	12.011
363.10	12.586
363.46	13.366
363.82	11.932
364.18	12.597
364.54	13.140
364.90	12.642
365.26	12.345
365.62	13.000
365.98	13.070
366.35	13.557
366.71	12.721
367.07	14.005
367.43	13.723
367.79	13.470
368.15	13.980
368.51	13.802
368.87	13.521
369.23	14.067
369.59	12.158
369.95	13.387
370.31	14.382
370.67	13.411
371.03	13.643
371.39	13.365
371.75	13.618
372.11	14.160
372.47	13.202
372.83	13.351
373.19	13.809
373.55	13.957
373.91	13.020
374.27	14.748
374.63	13.938
374.99	14.390
375.35	15.130
375.71	15.097
376.07	14.526
376.42	14.924
376.78	16.035
377.14	14.036
377.50	13.915
377.86	14.963
378.22	14.731
378.58	14.269
378.94	14.965
379.30	14.528
379.66	15.050
380.02	14.887
380.38	15.035
380.74	14.648
381.09	15.447
381.45	15.284
381.81	14.754
382.17	14.905
382.53	14.912
382.89	15.124
383.25	15.592
383.61	14.931
383.97	15.135
384.32	15.371
384.68	15.661
385.04	16.252
385.40	15.262
385.76	16.061
386.12	15.021
386.48	15.765
386.83	16.091
387.19	15.701
387.55	15.610
387.91	16.553
388.27	15.704
388.62	16.094
388.98	15.680
389.34	16.441
389.70	16.270
390.06	15.927
390.42	15.964
390.77	16.255
391.13	16.549
391.49	17.150
391.85	16.242
392.20	16.607
392.56	16.952
392.92	17.012
393.28	16.197
393.64	15.531
393.99	16.793
394.35	16.939
394.71	17.006
395.07	16.527
395.42	16.676
395.78	16.941
396.14	17.350
396.50	16.924
396.85	17.114
397.21	16.568
397.57	16.726
397.92	17.755
398.28	16.947
398.64	16.648
399.00	16.911
399.35	16.230
399.71	17.174
400.07	17.181
400.42	16.705
400.78	17.072
401.14	17.188
401.49	16.998
401.85	17.500
402.21	17.555
402.57	16.960
402.92	17.730
403.28	16.511
403.63	17.064
403.99	16.627
404.35	17.567
404.70	17.734
405.06	16.250
405.42	16.979
405.77	17.285
406.13	17.180
406.49	16.948
406.84	17.119
407.20	17.440
407.55	16.717
407.91	17.222
408.27	17.314
408.62	16.638
408.98	16.715
409.34	17.009
409.69	17.738
410.05	17.116
410.40	17.575
410.76	17.443
411.11	16.832
411.47	17.690
411.83	17.989
412.18	17.289
412.54	17.842
412.89	17.113
413.25	18.002
413.60	17.059
413.96	17.949
414.31	17.224
414.67	17.770
415.03	17.415
415.38	17.528
415.74	17.104
416.09	17.088
416.45	17.032
416.80	17.564
417.16	17.369
417.51	17.870
417.87	17.535
418.22	16.766
418.58	17.658
418.93	17.229
419.29	17.324
419.64	16.987
420.00	17.864
420.35	17.125
420.71	17.634
421.06	17.309
421.42	17.718
421.77	16.101
422.12	17.918
422.48	16.795
422.83	18.072
423.19	17.825
423.54	17.588
423.90	17.394
424.25	17.760
424.61	17.107
424.96	17.573
425.31	18.312
425.67	17.069
426.02	17.045
426.38	17.049
426.73	16.741
427.09	17.878
427.44	16.821
427.79	16.805
428.15	16.895
428.50	17.584
428.85	16.820
429.21	18.191
429.56	17.226
429.92	17.002
430.27	16.867
430.62	16.903
430.98	16.724
431.33	17.009
431.68	16.858
432.04	17.471
432.39	16.872
432.74	17.237
433.10	17.469
433.45	16.611
433.80	17.597
434.16	17.045
434.51	17.420
434.86	16.775
435.22	17.694
435.57	18.101
435.92	17.028
436.28	17.406
436.63	17.149
436.98	17.123
437.34	17.700
437.69	16.786
438.04	16.816
438.39	17.461
438.75	17.875
439.10	17.653
439.45	16.881
439.81	16.780
440.16	17.105
440.51	17.113
440.86	16.954
441.22	17.631
441.57	16.981
441.92	17.265
442.27	17.576
442.63	17.039
442.98	17.609
443.33	17.201
443.68	17.740
444.03	17.215
444.39	16.967
444.74	17.713
445.09	16.878
445.44	17.597
445.79	17.529
446.15	17.369
446.50	16.641
446.85	16.780
447.20	17.263
447.55	16.684
447.91	16.963
448.26	17.072
448.61	17.109
448.96	17.221
449.31	16.225
449.66	16.776
450.02	16.772
450.37	17.262
450.72	16.362
451.07	15.888
451.42	16.696
451.77	16.954
452.12	17.381
452.47	17.766
452.83	17.061
453.18	16.521
453.53	16.255
453.88	16.510
454.23	16.667
454.58	16.425
454.93	15.716
455.28	17.399
455.63	17.112
455.98	16.816
456.34	16.726
456.69	16.461
457.04	16.076
457.39	17.129
457.74	16.890
458.09	16.529
458.44	16.272
458.79	16.658
459.14	16.571
459.49	16.865
459.84	16.527
460.19	16.768
460.54	16.865
460.89	16.252
461.24	15.805
461.59	16.657
461.94	15.516
462.29	16.181
462.64	15.570
462.99	16.698
463.34	16.742
463.69	16.530
464.04	16.398
464.39	16.592
464.74	16.249
465.09	16.551
465.44	15.826
465.79	16.816
466.14	16.467
466.49	16.211
466.84	15.868
467.19	16.069
467.54	15.805
467.89	16.092
468.24	16.953
468.59	14.592
468.94	15.035
469.29	14.697
469.64	14.876
469.99	15.041
470.34	15.285
470.68	15.311
471.03	16.372
471.38	15.762
471.73	15.735
472.08	14.721
472.43	15.172
472.78	15.554
473.13	14.602
473.48	15.408
473.83	15.612
474.17	15.064
474.52	14.372
474.87	15.006
475.22	14.310
475.57	14.901
475.92	14.933
476.27	14.909
476.61	14.746
476.96	14.703
477.31	14.455
477.66	14.848
478.01	14.438
478.36	14.855
478.70	14.828
479.05	14.724
479.40	14.758
479.75	14.793
480.10	15.017
480.45	14.448
480.79	14.195
481.14	14.246
481.49	14.448
481.84	15.318
482.19	14.710
482.53	14.604
482.88	13.514
483.23	13.917
483.58	13.537
483.92	13.032
484.27	13.844
484.62	13.531
484.97	13.997
485.31	13.516
485.66	13.395
486.01	13.241
486.36	13.883
486.70	13.953
487.05	14.065
487.40	13.931
487.75	13.639
488.09	13.440
488.44	13.471
488.79	13.592
489.13	13.469
489.48	12.971
489.83	12.837
490.17	12.758
490.52	13.424
490.87	13.579
491.22	12.478
491.56	12.884
491.91	12.778
492.26	12.938
492.60	13.205
492.95	13.032
493.30	12.819
493.64	12.396
493.99	12.632
494.34	12.369
494.68	12.034
495.03	12.819
495.37	12.739
495.72	11.882
496.07	12.051
496.41	12.269
496.76	12.552
497.11	12.229
497.45	12.171
497.80	11.950
498.14	11.338
498.49	12.500
498.84	12.112
499.18	11.831
499.53	12.108
499.87	12.747
500.22	11.398
500.56	11.831
500.91	11.533
501.26	11.773
501.60	11.268
501.95	12.332
502.29	12.067
502.64	11.412
502.98	11.605
503.33	11.231
503.67	11.252
504.02	11.340
504.36	11.841
504.71	11.024
505.06	11.096
505.40	11.060
505.75	11.612
506.09	10.681
506.44	10.956
506.78	11.606
507.13	10.973
507.47	11.037
507.82	11.316
508.16	11.520
508.51	10.455
508.85	10.581
509.19	10.469
509.54	11.671
509.88	10.636
510.23	11.365
510.57	11.020
510.92	11.176
511.26	11.159
511.61	10.623
511.95	10.835
512.30	10.684
512.64	9.845
512.98	10.055
513.33	10.585
513.67	10.760
514.02	10.015
514.36	10.435
514.70	9.635
515.05	10.323
515.39	10.499
515.74	10.339
516.08	10.301
516.42	10.727
516.77	10.252
517.11	9.954
517.46	9.968
517.80	10.529
518.14	10.664
518.49	9.761
518.83	10.697
519.17	9.962
519.52	10.115
519.86	9.768
520.20	9.904
520.55	9.803
520.89	9.797
521.23	10.441
521.58	9.718
521.92	9.178
522.26	9.393
522.61	10.069
522.95	9.689
523.29	9.770
523.64	9.585
523.98	10.211
524.32	10.372
524.66	8.822
525.01	9.456
525.35	9.535
525.69	9.629
526.04	9.759
526.38	9.713
526.72	9.573
527.06	8.622
527.41	8.863
527.75	10.154
528.09	9.268
528.43	9.355
528.78	8.555
529.12	9.060
529.46	9.781
529.80	10.126
530.15	8.522
530.49	8.956
530.83	9.327
531.17	8.901
531.51	8.123
531.86	9.315
532.20	9.756
532.54	8.677
532.88	8.606
533.22	8.780
533.57	9.175
533.91	9.091
534.25	8.932
534.59	8.736
534.93	8.263
535.27	8.845
535.62	9.153
535.96	8.832
536.30	8.696
536.64	7.688
536.98	9.164
537.32	8.765
537.66	9.669
538.01	9.184
538.35	7.978
538.69	7.933
539.03	8.155
539.37	8.716
539.71	9.069
540.05	8.933
540.39	7.763
540.73	8.075
541.07	8.522
541.42	9.155
541.76	8.897
542.10	7.780
542.44	7.247
542.78	8.151
543.12	8.164
543.46	8.547
543.80	7.794
544.14	7.481
544.48	8.452
544.82	9.216
545.16	8.408
545.50	7.490
545.84	8.634
546.18	7.963
546.52	8.344
546.86	8.176
547.20	7.952
547.54	8.115
547.88	7.836
548.22	7.544
548.56	7.899
548.90	7.701
549.24	8.207
549.58	8.517
549.92	7.143
550.26	7.314
550.60	8.105
550.94	7.697
551.28	7.525
551.62	7.547
551.96	8.544
552.30	7.521
552.64	7.218
552.98	8.422
553.32	7.974
553.66	7.460
554.00	7.440
554.34	6.564
554.68	8.393
555.02	7.030
555.36	7.758
555.69	6.855
556.03	7.945
556.37	8.010
556.71	8.180
557.05	7.412
557.39	8.029
557.73	7.728
558.07	7.152
558.41	7.508
558.75	7.911
559.08	7.098
559.42	7.613
559.76	8.073
560.10	7.837
560.44	7.124
560.78	7.688
561.12	7.081
561.45	7.847
561.79	6.899
562.13	7.086
562.47	6.967
562.81	6.962
563.15	7.828
563.48	7.147
563.82	6.953
564.16	6.481
564.50	7.032
564.84	7.670
565.17	7.353
565.51	6.674
565.85	7.363
566.19	7.143
566.52	6.261
566.86	7.357
567.20	6.852
567.54	6.798
567.88	7.034
568.21	6.917
568.55	6.379
568.89	6.900
569.23	6.844
569.56	6.800
569.90	6.522
570.24	6.813
570.57	6.863
570.91	6.277
571.25	6.769
571.59	7.153
571.92	6.503
572.26	6.670
572.60	6.607
572.93	6.680
573.27	6.912
573.61	7.094
573.95	7.016
574.28	6.634
574.62	6.480
574.96	6.352
575.29	6.565
575.63	6.491
575.97	6.515
576.30	6.292
576.64	6.562
576.98	6.219
577.31	6.767
577.65	6.665
577.98	6.702
578.32	6.509
578.66	6.446
578.99	6.328
579.33	6.358
579.67	6.482
580.00	6.294
580.34	6.588
580.67	6.487
581.01	6.361
581.35	6.273
581.68	6.673
582.02	6.678
582.35	6.544
582.69	6.363
583.02	6.541
583.36	6.511
583.70	6.226
584.03	6.000
584.37	5.850
584.70	6.235
585.04	6.045
585.37	6.209
585.71	6.796
586.04	6.253
586.38	6.151
586.72	5.666
587.05	5.679
587.39	6.283
587.72	5.885
588.06	6.117
588.39	6.298
588.73	6.111
589.06	6.208
589.40	5.778
589.73	6.105
590.07	6.034
590.40	5.984
590.73	6.363
591.07	5.733
591.40	5.599
591.74	6.041
592.07	6.212
592.41	5.836
592.74	5.928
593.08	6.465
593.41	6.008
593.75	5.747
594.08	5.968
594.41	6.026
594.75	5.812
595.08	5.821
595.42	5.747
595.75	6.038
596.09	6.472
596.42	6.306
596.75	6.252
597.09	6.263
597.42	5.483
597.75	5.880
598.09	5.833
598.42	5.629
598.76	5.770
599.09	6.052
599.42	5.699
599.76	5.744
600.09	6.340
600.42	5.739
600.76	6.044
601.09	5.709
601.42	5.733
601.76	5.897
602.09	5.647
602.42	5.380
602.76	5.867
603.09	5.984
603.42	5.347
603.76	5.638
604.09	5.962
604.42	5.505
604.76	5.556
605.09	5.784
605.42	5.343
605.75	5.731
606.09	5.823
606.42	5.655
606.75	5.360
607.09	5.108
607.42	6.012
607.75	5.471
608.08	5.801
608.42	5.723
608.75	5.638
609.08	5.221
609.41	5.779
609.75	5.312
610.08	5.717
610.41	5.777
610.74	4.958
611.07	5.773
611.41	5.874
611.74	5.727
612.07	5.657
612.40	5.466
612.73	5.086
613.07	5.134
613.40	5.775
613.73	5.778
614.06	6.232
614.39	5.102
614.72	5.871
615.06	5.149
615.39	5.365
615.72	5.403
616.05	5.537
616.38	6.054
616.71	6.113
617.05	5.218
617.38	6.635
617.71	5.832
618.04	4.911
618.37	5.519
618.70	6.278
619.03	4.898
619.36	4.932
619.69	5.381
620.03	5.775
620.36	5.828
620.69	5.367
621.02	5.381
621.35	5.515
621.68	6.001
622.01	5.338
622.34	4.603
622.67	5.704
623.00	4.116
623.33	4.977
623.66	5.837
623.99	5.003
624.32	6.238
624.65	4.376
624.99	5.787
625.32	5.683
625.65	4.990
625.98	4.746
626.31	5.457
626.64	5.128
626.97	5.176
627.30	4.480
627.63	4.726
627.96	5.856
628.29	5.914
628.62	3.694
628.95	4.557
629.28	4.758
629.61	4.630
629.94	4.937
630.26	5.169
630.59	4.922
630.92	4.589
631.25	5.993
631.58	4.802
631.91	4.124
632.24	3.842
632.57	4.649
632.90	5.216
633.23	6.020
633.56	5.612
633.89	4.752
634.22	5.613
634.55	5.324
634.88	4.221
635.20	6.997
635.53	4.746
635.86	5.742
636.19	5.938
636.52	5.802
636.85	4.801
637.18	5.717
637.51	4.839
637.83	6.977
638.16	4.493
638.49	4.108
638.82	5.073
639.15	4.926
639.48	6.005
639.81	4.388
640.13	4.711
640.46	3.515
640.79	4.412
641.12	4.596
641.45	4.266
641.77	6.033
642.10	4.331
642.43	6.250
642.76	4.336
643.09	4.658
643.41	4.062
643.74	5.379
644.07	5.931
644.40	4.102
644.73	4.790
645.05	4.258
645.38	6.187
645.71	4.839
646.04	5.739
646.36	4.234
