SpectraSuite Data File
++++++++++++++++++++++++++++++++++++
Date: Thu May 14 16:34:48 PDT 2015
User: schluterlab
Dark Spectrum Present: Yes
Reference Spectrum Present: Yes
Number of Sampled Component Spectra: 1
Spectrometers: USB2E3373
Integration Time (usec): 3000 (USB2E3373)
Spectra Averaged: 3 (USB2E3373)
Boxcar Smoothing: 0 (USB2E3373)
Correct for Electrical Dark: No (USB2E3373)
Strobe/Lamp Enabled: No (USB2E3373)
Correct for Detector Non-linearity: No (USB2E3373)
Correct for Stray Light: No (USB2E3373)
Number of Pixels in Processed Spectrum: 2048
>>>>>Begin Processed Spectral Data<<<<<
178.53	0.000
178.91	57.143
179.29	-1400.000
179.67	-1000.000
180.04	178.571
180.42	70.000
180.80	40.000
181.18	100.000
181.56	300.000
181.94	100.000
182.31	-75.000
182.69	166.667
183.07	50.000
183.45	150.000
183.83	83.333
184.20	-66.667
184.58	600.000
184.96	-275.000
185.34	-33.333
185.72	40.000
186.09	77.778
186.47	450.000
186.85	180.000
187.23	-88.889
187.61	-400.000
187.98	60.000
188.36	100.000
188.74	-175.000
189.12	-200.000
189.49	-25.000
189.87	0.000
190.25	-66.667
190.63	60.000
191.00	-111.111
191.38	0.000
191.76	-250.000
192.14	-33.333
192.51	150.000
192.89	150.000
193.27	0.000
193.65	128.571
194.02	-800.000
194.40	100.000
194.78	128.571
195.15	0.000
195.53	-72.727
195.91	0.000
196.29	-50.000
196.66	-7.692
197.04	-600.000
197.42	-228.571
197.79	-250.000
198.17	-25.000
198.55	42.857
198.92	111.111
199.30	-112.500
199.68	-63.636
200.05	-14.286
200.43	-650.000
200.81	142.857
201.18	0.000
201.56	111.111
201.94	0.000
202.31	400.000
202.69	-88.889
203.07	200.000
203.44	-11.111
203.82	-175.000
204.19	-66.667
204.57	-50.000
204.95	-50.000
205.32	-1200.000
205.70	175.000
206.08	-50.000
206.45	-133.333
206.83	340.000
207.20	50.000
207.58	-160.000
207.96	-266.667
208.33	16.667
208.71	41.667
209.08	83.333
209.46	0.000
209.84	183.333
210.21	350.000
210.59	-0.000
210.96	500.000
211.34	75.000
211.71	-62.500
212.09	-1200.000
212.46	0.000
212.84	1200.000
213.22	-140.000
213.59	50.000
213.97	20.000
214.34	-66.667
214.72	183.333
215.09	-425.000
215.47	0.000
215.84	185.714
216.22	600.000
216.59	0.000
216.97	-20.000
217.34	-250.000
217.72	-187.500
218.09	-75.000
218.47	-325.000
218.84	0.000
219.22	-20.000
219.59	0.000
219.97	-25.000
220.34	400.000
220.72	-100.000
221.09	23.077
221.47	0.000
221.84	-70.000
222.22	-114.286
222.59	0.000
222.97	-12.500
223.34	-140.000
223.72	-500.000
224.09	-275.000
224.46	-275.000
224.84	100.000
225.21	-42.857
225.59	-375.000
225.96	-150.000
226.34	19.231
226.71	166.667
227.08	0.000
227.46	20.000
227.83	25.000
228.21	0.000
228.58	25.000
228.95	650.000
229.33	25.000
229.70	-10.000
230.08	89.474
230.45	190.000
230.82	-33.333
231.20	50.000
231.57	83.333
231.95	-36.364
232.32	0.000
232.69	15.000
233.07	-25.000
233.44	-17.647
233.81	-10.000
234.19	44.444
234.56	-22.727
234.93	34.483
235.31	-36.842
235.68	11.111
236.05	-70.000
236.43	15.385
236.80	28.000
237.17	-22.222
237.55	6.061
237.92	-90.000
238.29	-9.677
238.67	-18.182
239.04	-19.444
239.41	-16.667
239.79	10.870
240.16	1.852
240.53	-23.913
240.91	-29.412
241.28	-8.197
241.65	10.448
242.02	10.811
242.40	-13.846
242.77	1.333
243.14	-6.098
243.51	-9.211
243.89	-20.513
244.26	2.970
244.63	9.804
245.00	9.346
245.38	3.509
245.75	-11.504
246.12	3.968
246.49	-3.101
246.87	-2.143
247.24	9.934
247.61	5.921
247.98	4.027
248.36	3.704
248.73	0.000
249.10	2.732
249.47	7.960
249.84	8.901
250.22	3.627
250.59	2.222
250.96	6.364
251.33	5.102
251.70	5.983
252.08	6.667
252.45	6.557
252.82	2.066
253.19	2.344
253.56	6.084
253.94	1.923
254.31	1.515
254.68	7.692
255.05	8.469
255.42	3.401
255.79	1.294
256.16	4.967
256.54	0.662
256.91	7.213
257.28	1.967
257.65	0.318
258.02	2.065
258.39	4.843
258.76	8.257
259.14	6.609
259.51	4.323
259.88	3.399
260.25	3.611
260.62	3.288
260.99	6.284
261.36	7.775
261.73	2.653
262.10	3.846
262.47	4.021
262.85	6.313
263.22	3.117
263.59	-0.526
263.96	3.836
264.33	1.790
264.70	4.198
265.07	5.251
265.44	8.163
265.81	3.935
266.18	4.308
266.55	5.134
266.92	1.595
267.29	7.877
267.66	4.435
268.03	3.493
268.40	5.428
268.77	2.506
269.14	2.423
269.51	3.728
269.88	7.377
270.25	4.829
270.62	6.962
270.99	7.475
271.36	4.752
271.73	2.947
272.10	4.208
272.47	3.808
272.84	3.815
273.21	4.008
273.58	3.226
273.95	2.115
274.32	4.373
274.69	2.901
275.06	5.678
275.43	3.697
275.80	4.586
276.17	3.519
276.54	5.037
276.91	1.968
277.28	3.255
277.65	2.693
278.02	4.596
278.39	3.442
278.76	5.097
279.13	3.191
279.50	4.124
279.87	5.725
280.23	1.585
280.60	5.254
280.97	5.099
281.34	2.716
281.71	4.907
282.08	4.485
282.45	3.110
282.82	4.553
283.19	1.939
283.56	2.951
283.92	5.405
284.29	5.371
284.66	5.255
285.03	3.045
285.40	6.955
285.77	4.799
286.14	5.802
286.51	3.349
286.87	4.739
287.24	4.217
287.61	4.783
287.98	3.927
288.35	4.438
288.72	5.178
289.08	5.710
289.45	3.846
289.82	5.572
290.19	5.316
290.56	4.366
290.93	5.706
291.29	5.510
291.66	4.821
292.03	4.749
292.40	5.442
292.77	4.043
293.13	6.631
293.50	5.256
293.87	5.235
294.24	7.200
294.60	6.068
294.97	5.503
295.34	6.146
295.71	4.288
296.08	5.556
296.44	6.005
296.81	6.821
297.18	5.479
297.55	5.778
297.91	5.219
298.28	4.147
298.65	6.897
299.02	5.077
299.38	5.721
299.75	7.009
300.12	5.324
300.48	5.760
300.85	5.849
301.22	5.593
301.59	6.279
301.95	4.746
302.32	5.889
302.69	6.572
303.05	5.985
303.42	7.317
303.79	5.938
304.15	5.994
304.52	6.554
304.89	6.597
305.25	5.797
305.62	6.688
305.99	5.979
306.35	5.645
306.72	6.412
307.09	5.584
307.45	6.625
307.82	6.963
308.19	7.568
308.55	7.907
308.92	5.745
309.29	7.375
309.65	6.920
310.02	7.030
310.38	7.579
310.75	7.379
311.12	7.574
311.48	7.527
311.85	8.452
312.22	7.211
312.58	7.981
312.95	7.839
313.31	8.220
313.68	8.059
314.05	8.762
314.41	8.197
314.78	8.629
315.14	8.530
315.51	8.864
315.87	8.641
316.24	8.676
316.61	9.680
316.97	7.783
317.34	7.584
317.70	10.131
318.07	7.407
318.43	9.014
318.80	10.201
319.16	8.498
319.53	9.854
319.89	8.677
320.26	8.986
320.62	9.486
320.99	9.049
321.35	8.780
321.72	10.233
322.08	9.378
322.45	8.220
322.81	8.664
323.18	9.912
323.54	10.000
323.91	10.676
324.27	10.069
324.64	11.419
325.00	10.033
325.37	11.384
325.73	11.157
326.10	9.327
326.46	11.401
326.83	11.449
327.19	11.102
327.56	11.383
327.92	11.094
328.29	10.806
328.65	9.631
329.01	10.914
329.38	10.699
329.74	10.959
330.11	11.216
330.47	11.289
330.84	9.647
331.20	11.000
331.56	11.265
331.93	11.632
332.29	10.932
332.66	11.379
333.02	10.637
333.38	9.983
333.75	10.101
334.11	9.842
334.48	11.551
334.84	11.130
335.20	10.160
335.57	10.287
335.93	10.909
336.29	10.815
336.66	10.849
337.02	10.368
337.38	10.629
337.75	10.413
338.11	10.681
338.47	11.332
338.84	10.491
339.20	9.688
339.56	10.873
339.93	10.755
340.29	9.501
340.65	10.219
341.02	11.173
341.38	10.994
341.74	9.201
342.11	10.780
342.47	10.008
342.83	10.225
343.20	10.221
343.56	11.307
343.92	10.248
344.28	10.625
344.65	10.310
345.01	10.296
345.37	11.042
345.73	9.509
346.10	9.984
346.46	10.285
346.82	10.712
347.19	11.077
347.55	10.319
347.91	9.138
348.27	10.319
348.63	10.358
349.00	9.545
349.36	9.442
349.72	11.235
350.08	9.881
350.45	9.734
350.81	10.030
351.17	9.699
351.53	10.235
351.89	10.099
352.26	9.776
352.62	9.254
352.98	10.763
353.34	9.410
353.70	10.015
354.07	10.432
354.43	9.719
354.79	10.471
355.15	9.713
355.51	10.088
355.87	9.798
356.24	10.266
356.60	9.165
356.96	9.563
357.32	9.665
357.68	8.858
358.04	9.955
358.40	9.925
358.77	9.795
359.13	10.192
359.49	10.037
359.85	9.645
360.21	10.043
360.57	9.548
360.93	10.226
361.29	9.614
361.66	10.210
362.02	10.856
362.38	9.557
362.74	10.265
363.10	11.142
363.46	9.557
363.82	10.937
364.18	9.641
364.54	9.751
364.90	10.301
365.26	9.103
365.62	10.800
365.98	9.803
366.35	10.537
366.71	10.204
367.07	10.081
367.43	10.243
367.79	10.617
368.15	10.569
368.51	10.825
368.87	10.189
369.23	10.133
369.59	9.836
369.95	10.480
370.31	10.939
370.67	10.179
371.03	10.873
371.39	10.208
371.75	10.041
372.11	10.840
372.47	9.885
372.83	11.191
373.19	10.874
373.55	11.043
373.91	10.770
374.27	11.255
374.63	10.690
374.99	10.676
375.35	10.909
375.71	10.258
376.07	10.846
376.42	11.146
376.78	10.814
377.14	10.418
377.50	10.816
377.86	11.392
378.22	11.437
378.58	11.415
378.94	11.150
379.30	11.013
379.66	10.641
380.02	12.002
380.38	11.463
380.74	11.042
381.09	10.453
381.45	11.477
381.81	11.827
382.17	11.461
382.53	11.579
382.89	12.077
383.25	11.547
383.61	10.532
383.97	11.425
384.32	11.842
384.68	11.485
385.04	12.030
385.40	11.668
385.76	11.958
386.12	10.952
386.48	12.294
386.83	10.906
387.19	11.240
387.55	11.620
387.91	11.587
388.27	11.374
388.62	12.257
388.98	11.337
389.34	11.727
389.70	12.609
390.06	12.611
390.42	11.627
390.77	12.402
391.13	11.854
391.49	12.198
391.85	11.818
392.20	12.040
392.56	12.936
392.92	12.595
393.28	12.106
393.64	12.123
393.99	11.912
394.35	12.383
394.71	12.216
395.07	11.976
395.42	12.050
395.78	13.102
396.14	12.181
396.50	12.589
396.85	12.224
397.21	12.308
397.57	12.250
397.92	12.142
398.28	11.407
398.64	12.243
399.00	12.199
399.35	12.565
399.71	11.902
400.07	12.409
400.42	11.991
400.78	11.863
401.14	12.692
401.49	11.825
401.85	12.209
402.21	12.804
402.57	12.617
402.92	12.589
403.28	12.471
403.63	11.814
403.99	12.352
404.35	12.791
404.70	12.408
405.06	11.848
405.42	13.173
405.77	13.195
406.13	11.831
406.49	12.444
406.84	12.576
407.20	11.794
407.55	11.750
407.91	12.948
408.27	12.839
408.62	12.100
408.98	12.826
409.34	11.496
409.69	12.855
410.05	12.720
410.40	13.051
410.76	11.834
411.11	12.449
411.47	13.145
411.83	12.640
412.18	12.892
412.54	11.915
412.89	13.038
413.25	13.093
413.60	12.464
413.96	12.005
414.31	12.521
414.67	12.522
415.03	12.492
415.38	12.106
415.74	13.073
416.09	12.770
416.45	13.087
416.80	12.913
417.16	12.197
417.51	13.325
417.87	13.427
418.22	12.994
418.58	11.710
418.93	13.097
419.29	12.577
419.64	11.765
420.00	13.353
420.35	12.521
420.71	13.038
421.06	11.961
421.42	12.500
421.77	11.578
422.12	12.791
422.48	12.084
422.83	13.636
423.19	12.149
423.54	12.334
423.90	12.258
424.25	12.960
424.61	12.342
424.96	12.521
425.31	12.739
425.67	12.131
426.02	12.839
426.38	12.514
426.73	11.886
427.09	13.379
427.44	11.906
427.79	12.548
428.15	11.416
428.50	11.910
428.85	12.457
429.21	12.872
429.56	12.192
429.92	11.646
430.27	12.386
430.62	13.043
430.98	12.346
431.33	11.437
431.68	11.686
432.04	12.443
432.39	12.105
432.74	11.986
433.10	12.006
433.45	11.483
433.80	12.017
434.16	12.345
434.51	12.898
434.86	12.215
435.22	12.434
435.57	12.972
435.92	11.964
436.28	12.002
436.63	12.889
436.98	12.882
437.34	11.274
437.69	11.833
438.04	12.163
438.39	12.349
438.75	11.843
439.10	12.896
439.45	12.465
439.81	12.316
440.16	12.440
440.51	12.598
440.86	12.229
441.22	12.111
441.57	12.998
441.92	11.542
442.27	12.475
442.63	12.469
442.98	12.327
443.33	12.046
443.68	12.884
444.03	12.324
444.39	12.714
444.74	12.711
445.09	12.772
445.44	12.171
445.79	12.213
446.15	12.436
446.50	12.248
446.85	12.646
447.20	12.573
447.55	12.343
447.91	12.147
448.26	12.104
448.61	11.902
448.96	12.715
449.31	12.195
449.66	12.309
450.02	11.867
450.37	11.987
450.72	11.464
451.07	12.130
451.42	11.554
451.77	11.895
452.12	12.867
452.47	11.586
452.83	12.894
453.18	12.434
453.53	11.488
453.88	12.093
454.23	12.316
454.58	12.246
454.93	11.711
455.28	13.004
455.63	12.109
455.98	11.955
456.34	11.837
456.69	11.052
457.04	12.234
457.39	12.583
457.74	12.584
458.09	11.093
458.44	11.530
458.79	11.501
459.14	11.956
459.49	12.054
459.84	12.225
460.19	11.105
460.54	12.152
460.89	11.646
461.24	11.552
461.59	11.345
461.94	11.580
462.29	11.366
462.64	11.829
462.99	11.551
463.34	11.616
463.69	11.254
464.04	13.118
464.39	11.939
464.74	12.087
465.09	11.938
465.44	11.695
465.79	12.004
466.14	11.516
466.49	12.526
466.84	11.405
467.19	11.850
467.54	11.105
467.89	12.241
468.24	11.634
468.59	11.581
468.94	11.305
469.29	11.278
469.64	11.825
469.99	11.600
470.34	11.262
470.68	11.141
471.03	11.919
471.38	11.053
471.73	10.923
472.08	11.865
472.43	11.258
472.78	11.524
473.13	11.441
473.48	11.541
473.83	11.956
474.17	12.016
474.52	11.245
474.87	11.960
475.22	12.113
475.57	11.319
475.92	12.096
476.27	11.874
476.61	11.890
476.96	11.366
477.31	11.634
477.66	11.595
478.01	11.642
478.36	10.967
478.70	10.788
479.05	11.963
479.40	11.402
479.75	11.960
480.10	11.227
480.45	11.896
480.79	12.245
481.14	11.489
481.49	11.358
481.84	12.097
482.19	11.312
482.53	11.456
482.88	11.786
483.23	11.561
483.58	11.092
483.92	11.170
484.27	11.431
484.62	11.262
484.97	11.392
485.31	11.052
485.66	10.640
486.01	11.099
486.36	11.189
486.70	11.705
487.05	11.886
487.40	11.748
487.75	11.679
488.09	11.468
488.44	11.190
488.79	11.804
489.13	10.862
489.48	10.641
489.83	11.308
490.17	10.814
490.52	11.330
490.87	10.745
491.22	11.049
491.56	11.561
491.91	11.252
492.26	11.380
492.60	11.237
492.95	10.663
493.30	10.444
493.64	10.951
493.99	11.053
494.34	11.063
494.68	10.749
495.03	11.454
495.37	11.096
495.72	10.612
496.07	11.394
496.41	10.725
496.76	11.426
497.11	10.658
497.45	10.962
497.80	11.328
498.14	10.385
498.49	10.892
498.84	11.060
499.18	10.841
499.53	11.211
499.87	10.725
500.22	10.463
500.56	10.796
500.91	10.984
501.26	10.773
501.60	10.782
501.95	10.899
502.29	10.926
502.64	10.931
502.98	11.044
503.33	10.626
503.67	10.205
504.02	10.552
504.36	10.456
504.71	10.749
505.06	10.459
505.40	10.283
505.75	10.565
506.09	10.912
506.44	10.585
506.78	10.917
507.13	11.203
507.47	11.322
507.82	11.222
508.16	10.373
508.51	10.595
508.85	11.101
509.19	11.464
509.54	11.191
509.88	10.636
510.23	10.976
510.57	11.068
510.92	10.934
511.26	11.063
511.61	10.092
511.95	10.542
512.30	11.669
512.64	9.845
512.98	11.106
513.33	10.786
513.67	10.964
514.02	10.935
514.36	11.253
514.70	10.208
515.05	10.688
515.39	11.024
515.74	11.506
516.08	11.252
516.42	11.460
516.77	11.304
517.11	11.501
517.46	11.771
517.80	11.705
518.14	11.371
518.49	11.443
518.83	11.336
519.17	10.985
519.52	11.268
519.86	11.246
520.20	11.448
520.55	11.281
520.89	11.149
521.23	11.279
521.58	11.243
521.92	11.388
522.26	10.481
522.61	10.880
522.95	10.957
523.29	10.460
523.64	10.314
523.98	11.181
524.32	11.347
524.66	11.725
525.01	11.268
525.35	11.028
525.69	11.021
526.04	10.735
526.38	10.920
526.72	10.611
527.06	10.792
527.41	11.953
527.75	10.689
528.09	11.157
528.43	11.782
528.78	10.751
529.12	10.722
529.46	10.174
529.80	11.670
530.15	11.246
530.49	9.964
530.83	11.275
531.17	10.335
531.51	10.770
531.86	11.358
532.20	10.915
532.54	10.592
532.88	10.970
533.22	10.607
533.57	11.656
533.91	10.887
534.25	10.797
534.59	10.977
534.93	10.526
535.27	10.085
535.62	11.200
535.96	11.098
536.30	10.165
536.64	11.111
536.98	11.009
537.32	10.988
537.66	10.044
538.01	10.453
538.35	10.231
538.69	10.096
539.03	10.055
539.37	10.777
539.71	10.751
540.05	10.971
540.39	10.758
540.73	9.897
541.07	10.914
541.42	10.691
541.76	11.447
542.10	10.314
542.44	9.379
542.78	10.462
543.12	11.025
543.46	9.890
543.80	10.492
544.14	9.755
544.48	10.757
544.82	10.772
545.16	11.091
545.50	10.246
545.84	9.982
546.18	10.679
546.52	11.019
546.86	10.692
547.20	10.496
547.54	10.050
547.88	10.006
548.22	10.702
548.56	10.064
548.90	10.269
549.24	10.821
549.58	9.590
549.92	9.503
550.26	10.421
550.60	10.019
550.94	10.673
551.28	9.835
551.62	10.512
551.96	10.097
552.30	10.453
552.64	10.579
552.98	10.667
553.32	10.354
553.66	9.904
554.00	10.782
554.34	9.974
554.68	10.458
555.02	9.921
555.36	10.585
555.69	10.186
556.03	9.899
556.37	10.263
556.71	9.956
557.05	10.160
557.39	9.821
557.73	9.643
558.07	9.536
558.41	9.103
558.75	9.195
559.08	9.534
559.42	8.779
559.76	10.583
560.10	10.382
560.44	9.828
560.78	9.438
561.12	9.483
561.45	10.036
561.79	9.463
562.13	9.797
562.47	9.063
562.81	8.481
563.15	9.533
563.48	10.006
563.82	9.855
564.16	8.964
564.50	9.416
564.84	9.440
565.17	10.176
565.51	9.494
565.85	9.561
566.19	9.332
566.52	9.245
566.86	9.564
567.20	9.679
567.54	9.665
567.88	9.174
568.21	10.128
568.55	9.161
568.89	9.442
569.23	9.548
569.56	8.988
569.90	9.408
570.24	9.713
570.57	9.044
570.91	9.155
571.25	9.372
571.59	9.435
571.92	9.088
572.26	9.370
572.60	9.419
572.93	9.491
573.27	9.357
573.61	9.132
573.95	9.323
574.28	9.180
574.62	8.959
574.96	9.109
575.29	9.033
575.63	9.425
575.97	9.269
576.30	9.030
576.64	9.162
576.98	8.975
577.31	9.242
577.65	9.038
577.98	9.187
578.32	9.009
578.66	8.933
578.99	9.134
579.33	8.982
579.67	9.089
580.00	9.216
580.34	9.293
580.67	8.672
581.01	8.762
581.35	8.884
581.68	9.139
582.02	8.925
582.35	9.092
582.69	9.117
583.02	9.045
583.36	9.160
583.70	8.816
584.03	8.663
584.37	8.615
584.70	8.533
585.04	8.765
585.37	8.926
585.71	8.414
586.04	8.542
586.38	8.705
586.72	8.523
587.05	8.493
587.39	8.651
587.72	8.947
588.06	8.873
588.39	8.887
588.73	8.624
589.06	8.267
589.40	8.605
589.73	8.323
590.07	9.085
590.40	9.060
590.73	8.590
591.07	8.712
591.40	8.126
591.74	8.625
592.07	9.257
592.41	8.517
592.74	8.839
593.08	9.076
593.41	9.303
593.75	8.448
594.08	8.452
594.41	8.846
594.75	8.070
595.08	8.109
595.42	8.214
595.75	8.847
596.09	9.048
596.42	8.241
596.75	8.259
597.09	9.253
597.42	7.906
597.75	8.663
598.09	8.770
598.42	8.967
598.76	8.445
599.09	8.259
599.42	8.012
599.76	8.155
600.09	8.342
600.42	8.742
600.76	8.520
601.09	7.766
601.42	8.617
601.76	8.310
602.09	8.506
602.42	8.252
602.76	8.303
603.09	8.333
603.42	8.562
603.76	7.858
604.09	8.694
604.42	8.550
604.76	8.105
605.09	8.137
605.42	8.054
605.75	8.000
606.09	8.137
606.42	8.099
606.75	7.796
607.09	7.949
607.42	8.208
607.75	8.558
608.08	8.406
608.42	8.464
608.75	8.458
609.08	7.852
609.41	7.808
609.75	8.036
610.08	8.267
610.41	8.199
610.74	7.521
611.07	7.904
611.41	8.789
611.74	8.268
612.07	8.789
612.40	7.510
612.73	7.775
613.07	8.215
613.40	8.614
613.73	7.944
614.06	7.753
614.39	7.580
614.72	8.345
615.06	8.181
615.39	7.202
615.72	7.725
616.05	8.256
616.38	7.921
616.71	8.307
617.05	7.774
617.38	8.882
617.71	7.883
618.04	7.987
618.37	7.760
618.70	8.145
619.03	7.168
619.36	7.398
619.69	8.008
620.03	8.035
620.36	7.669
620.69	7.650
621.02	8.202
621.35	8.200
621.68	8.098
622.01	7.687
622.34	8.996
622.67	7.629
623.00	5.601
623.33	7.299
623.66	7.912
623.99	7.637
624.32	9.227
624.65	6.821
624.99	7.737
625.32	8.752
625.65	8.092
625.98	7.458
626.31	7.654
626.64	8.278
626.97	8.027
627.30	7.593
627.63	7.202
627.96	8.408
628.29	8.327
628.62	7.473
628.95	7.011
629.28	7.392
629.61	7.660
629.94	6.778
630.26	7.627
630.59	7.427
630.92	7.359
631.25	7.156
631.58	7.815
631.91	6.935
632.24	7.493
632.57	7.306
632.90	7.523
633.23	8.061
633.56	7.551
633.89	5.888
634.22	6.341
634.55	7.307
634.88	6.602
635.20	8.611
635.53	7.006
635.86	7.801
636.19	9.438
636.52	7.911
636.85	7.048
637.18	6.965
637.51	7.527
637.83	8.416
638.16	6.106
638.49	7.042
638.82	6.990
639.15	6.758
639.48	8.199
639.81	7.044
640.13	8.952
640.46	5.939
640.79	6.250
641.12	7.329
641.45	7.152
641.77	8.216
642.10	6.168
642.43	8.378
642.76	7.724
643.09	7.123
643.41	6.162
643.74	8.552
644.07	7.448
644.40	5.092
644.73	6.676
645.05	6.021
