SpectraSuite Data File
++++++++++++++++++++++++++++++++++++
Date: Thu May 14 16:29:08 PDT 2015
User: schluterlab
Dark Spectrum Present: Yes
Reference Spectrum Present: Yes
Number of Sampled Component Spectra: 1
Spectrometers: USB2E3373
Integration Time (usec): 3000 (USB2E3373)
Spectra Averaged: 3 (USB2E3373)
Boxcar Smoothing: 0 (USB2E3373)
Correct for Electrical Dark: No (USB2E3373)
Strobe/Lamp Enabled: No (USB2E3373)
Correct for Detector Non-linearity: No (USB2E3373)
Correct for Stray Light: No (USB2E3373)
Number of Pixels in Processed Spectrum: 2048
>>>>>Begin Processed Spectral Data<<<<<
178.53	0.000
178.91	171.429
179.29	-400.000
179.67	-700.000
180.04	121.429
180.42	-0.000
180.80	40.000
181.18	300.000
181.56	1100.000
181.94	75.000
182.31	-25.000
182.69	33.333
183.07	100.000
183.45	175.000
183.83	33.333
184.20	66.667
184.58	-200.000
184.96	-50.000
185.34	-11.111
185.72	140.000
186.09	77.778
186.47	350.000
186.85	60.000
187.23	-22.222
187.61	-800.000
187.98	100.000
188.36	400.000
188.74	-175.000
189.12	-66.667
189.49	-43.750
189.87	-87.500
190.25	88.889
190.63	100.000
191.00	22.222
191.38	0.000
191.76	-125.000
192.14	-133.333
192.51	350.000
192.89	66.667
193.27	0.000
193.65	-42.857
194.02	-1400.000
194.40	-85.714
194.78	142.857
195.15	0.000
195.53	36.364
195.91	0.000
196.29	100.000
196.66	-46.154
197.04	-200.000
197.42	71.429
197.79	-300.000
198.17	75.000
198.55	-100.000
198.92	66.667
199.30	25.000
199.68	-9.091
200.05	7.143
200.43	-100.000
200.81	85.714
201.18	0.000
201.56	33.333
201.94	0.000
202.31	166.667
202.69	-11.111
203.07	-800.000
203.44	-11.111
203.82	75.000
204.19	8.333
204.57	50.000
204.95	87.500
205.32	300.000
205.70	-75.000
206.08	33.333
206.45	16.667
206.83	180.000
207.20	-116.667
207.58	-260.000
207.96	0.000
208.33	150.000
208.71	33.333
209.08	133.333
209.46	0.000
209.84	183.333
210.21	-300.000
210.59	350.000
210.96	33.333
211.34	-150.000
211.71	-87.500
212.09	-900.000
212.46	0.000
212.84	300.000
213.22	-20.000
213.59	-100.000
213.97	50.000
214.34	400.000
214.72	66.667
215.09	-50.000
215.47	0.000
215.84	-0.000
216.22	-100.000
216.59	120.000
216.97	-20.000
217.34	-25.000
217.72	37.500
218.09	-100.000
218.47	-75.000
218.84	0.000
219.22	20.000
219.59	11.765
219.97	45.000
220.34	-50.000
220.72	11.111
221.09	100.000
221.47	200.000
221.84	-20.000
222.22	-100.000
222.59	0.000
222.97	87.500
223.34	-120.000
223.72	-500.000
224.09	75.000
224.46	-50.000
224.84	120.000
225.21	85.714
225.59	-100.000
225.96	-25.000
226.34	11.538
226.71	266.667
227.08	-350.000
227.46	0.000
227.83	-50.000
228.21	47.368
228.58	-37.500
228.95	250.000
229.33	8.333
229.70	20.000
230.08	94.737
230.45	-0.000
230.82	-366.667
231.20	50.000
231.57	25.000
231.95	-27.273
232.32	-9.091
232.69	10.000
233.07	250.000
233.44	52.941
233.81	-100.000
234.19	66.667
234.56	50.000
234.93	24.138
235.31	21.053
235.68	55.556
236.05	35.000
236.43	53.846
236.80	64.000
237.17	55.556
237.55	36.364
237.92	10.000
238.29	32.258
238.67	38.636
239.04	52.778
239.41	40.476
239.79	60.870
240.16	35.185
240.53	30.435
240.91	43.137
241.28	27.869
241.65	44.776
242.02	33.784
242.40	40.000
242.77	54.667
243.14	31.707
243.51	31.579
243.89	48.718
244.26	47.525
244.63	51.961
245.00	51.402
245.38	34.211
245.75	26.549
246.12	45.238
246.49	37.984
246.87	50.000
247.24	45.033
247.61	46.711
247.98	37.584
248.36	41.358
248.73	42.945
249.10	44.262
249.47	47.264
249.84	49.215
250.22	39.378
250.59	45.000
250.96	40.909
251.33	42.347
251.70	40.171
252.08	40.417
252.45	46.721
252.82	44.215
253.19	42.969
253.56	38.403
253.94	41.923
254.31	45.833
254.68	44.056
255.05	40.717
255.42	39.796
255.79	42.718
256.16	43.377
256.54	42.053
256.91	43.279
257.28	43.279
257.65	40.446
258.02	40.413
258.39	39.886
258.76	44.954
259.14	43.103
259.51	40.346
259.88	41.643
260.25	44.167
260.62	41.918
260.99	45.355
261.36	45.576
261.73	41.645
262.10	40.110
262.47	42.091
262.85	48.485
263.22	43.117
263.59	42.105
263.96	41.176
264.33	41.432
264.70	41.235
265.07	46.778
265.44	44.671
265.81	41.204
266.18	43.311
266.55	42.857
266.92	44.191
267.29	43.982
267.66	42.794
268.03	42.140
268.40	42.589
268.77	42.597
269.14	41.189
269.51	43.421
269.88	43.033
270.25	42.455
270.62	42.827
270.99	42.424
271.36	43.762
271.73	40.864
272.10	43.086
272.47	42.285
272.84	43.173
273.21	42.485
273.58	42.742
273.95	37.692
274.32	38.593
274.69	40.232
275.06	42.674
275.43	39.002
275.80	39.506
276.17	40.556
276.54	40.299
276.91	38.283
277.28	40.868
277.65	42.011
278.02	40.257
278.39	40.580
278.76	41.301
279.13	40.426
279.50	42.268
279.87	41.503
280.23	37.500
280.60	41.186
280.97	39.474
281.34	40.407
281.71	41.624
282.08	39.867
282.45	39.116
282.82	37.520
283.19	37.803
283.56	40.820
283.92	40.390
284.29	41.232
284.66	38.916
285.03	36.058
285.40	37.403
285.77	39.319
286.14	40.153
286.51	38.204
286.87	40.126
287.24	38.855
287.61	35.874
287.98	39.275
288.35	36.982
288.72	37.722
289.08	38.067
289.45	36.391
289.82	36.898
290.19	36.782
290.56	34.648
290.93	35.093
291.29	37.190
291.66	33.747
292.03	33.786
292.40	37.143
292.77	33.693
293.13	34.506
293.50	32.852
293.87	35.705
294.24	32.133
294.60	32.996
294.97	29.530
295.34	34.699
295.71	30.265
296.08	31.137
296.44	31.373
296.81	31.425
297.18	31.258
297.55	31.368
297.91	30.368
298.28	31.280
298.65	29.251
299.02	29.516
299.38	30.892
299.75	30.023
300.12	29.051
300.48	31.106
300.85	32.171
301.22	30.089
301.59	29.224
301.95	30.282
302.32	30.111
302.69	30.778
303.05	30.033
303.42	29.712
303.79	30.625
304.15	28.917
304.52	29.598
304.89	29.948
305.25	30.538
305.62	27.900
305.99	30.619
306.35	29.234
306.72	29.266
307.09	28.325
307.45	30.745
307.82	28.658
308.19	29.062
308.55	28.062
308.92	29.893
309.29	29.119
309.65	29.825
310.02	29.109
310.38	29.429
310.75	28.738
311.12	30.393
311.48	29.912
311.85	29.630
312.22	30.266
312.58	30.516
312.95	31.740
313.31	30.533
313.68	31.502
314.05	31.798
314.41	31.512
314.78	30.427
315.14	32.759
315.51	34.441
315.87	33.213
316.24	32.694
316.61	33.659
316.97	33.394
317.34	34.127
317.70	34.672
318.07	34.480
318.43	35.459
318.80	35.702
319.16	34.764
319.53	34.362
319.89	33.655
320.26	37.011
320.62	35.195
320.99	36.657
321.35	36.784
321.72	38.698
322.08	37.692
322.45	39.115
322.81	38.448
323.18	37.611
323.54	39.397
323.91	41.281
324.27	40.361
324.64	41.982
325.00	39.303
325.37	41.851
325.73	41.736
326.10	40.714
326.46	43.811
326.83	42.834
327.19	43.150
327.56	43.636
327.92	42.408
328.29	43.629
328.65	44.221
329.01	43.909
329.38	43.892
329.74	45.120
330.11	44.264
330.47	43.471
330.84	45.047
331.20	44.833
331.56	45.407
331.93	45.690
332.29	45.169
332.66	45.100
333.02	44.389
333.38	44.463
333.75	45.202
334.11	43.786
334.48	45.710
334.84	45.200
335.20	43.829
335.57	45.531
335.93	45.537
336.29	43.760
336.66	45.837
337.02	43.645
337.38	46.003
337.75	44.463
338.11	46.341
338.47	44.417
338.84	44.839
339.20	44.566
339.56	42.916
339.93	44.417
340.29	44.928
340.65	44.444
341.02	45.730
341.38	45.594
341.74	45.117
342.11	44.972
342.47	42.097
342.83	45.733
343.20	44.890
343.56	46.111
343.92	44.756
344.28	45.234
344.65	45.426
345.01	45.632
345.37	45.179
345.73	44.115
346.10	44.618
346.46	46.519
346.82	44.719
347.19	43.850
347.55	44.537
347.91	45.542
348.27	45.144
348.63	46.382
349.00	44.072
349.36	44.907
349.72	44.717
350.08	45.319
350.45	46.008
350.81	45.023
351.17	45.263
351.53	45.489
351.89	44.267
352.26	44.403
352.62	45.746
352.98	45.267
353.34	44.511
353.70	45.609
354.07	43.666
354.43	46.090
354.79	44.054
355.15	44.297
355.51	44.518
355.87	45.699
356.24	46.236
356.60	44.346
356.96	45.441
357.32	45.428
357.68	45.681
358.04	44.835
358.40	45.597
358.77	45.395
359.13	45.569
359.49	44.535
359.85	46.701
360.21	46.126
360.57	44.795
360.93	44.922
361.29	45.965
361.66	47.285
362.02	46.138
362.38	45.959
362.74	45.251
363.10	45.873
363.46	46.053
363.82	46.946
364.18	47.220
364.54	46.196
364.90	47.023
365.26	47.172
365.62	46.200
365.98	47.175
366.35	46.510
366.71	46.327
367.07	47.361
367.43	47.603
367.79	47.180
368.15	47.826
368.51	47.361
368.87	46.506
369.23	46.400
369.59	49.590
369.95	47.059
370.31	48.346
370.67	47.387
371.03	47.853
371.39	47.079
371.75	48.212
372.11	48.780
372.47	48.003
372.83	46.924
373.19	46.898
373.55	48.306
373.91	48.125
374.27	48.512
374.63	48.714
374.99	48.342
375.35	50.519
375.71	48.839
376.07	48.483
376.42	48.489
376.78	49.099
377.14	48.284
377.50	49.779
377.86	48.645
378.22	50.060
378.58	50.238
378.94	49.354
379.30	48.916
379.66	48.736
380.02	49.221
380.38	49.770
380.74	48.507
381.09	50.407
381.45	49.545
381.81	51.171
382.17	49.050
382.53	50.643
382.89	49.210
383.25	50.234
383.61	50.174
383.97	49.764
384.32	51.077
384.68	49.188
385.04	50.549
385.40	50.265
385.76	51.055
386.12	50.987
386.48	50.529
386.83	49.523
387.19	51.159
387.55	50.235
387.91	50.000
388.27	50.982
388.62	51.260
388.98	50.197
389.34	50.972
389.70	51.017
390.06	50.681
390.42	50.904
390.77	51.475
391.13	50.176
391.49	51.630
391.85	50.545
392.20	51.542
392.56	50.561
392.92	50.709
393.28	51.907
393.64	50.223
393.99	52.121
394.35	51.986
394.71	51.916
395.07	50.778
395.42	50.828
395.78	53.687
396.14	51.990
396.50	50.416
396.85	50.865
397.21	51.893
397.57	50.236
397.92	52.234
398.28	51.439
398.64	50.686
399.00	50.995
399.35	50.838
399.71	51.250
400.07	51.207
400.42	52.154
400.78	51.042
401.14	51.451
401.49	51.165
401.85	52.267
402.21	52.028
402.57	52.406
402.92	52.009
403.28	51.522
403.63	51.551
403.99	51.069
404.35	50.540
404.70	51.785
405.06	50.054
405.42	50.937
405.77	51.854
406.13	51.756
406.49	51.914
406.84	51.136
407.20	50.307
407.55	50.878
407.91	50.974
408.27	50.353
408.62	50.669
408.98	51.654
409.34	50.968
409.69	50.989
410.05	52.110
410.40	51.740
410.76	50.813
411.11	51.841
411.47	52.088
411.83	52.263
412.18	51.084
412.54	50.741
412.89	51.688
413.25	52.483
413.60	51.177
413.96	51.573
414.31	50.992
414.67	50.686
415.03	50.831
415.38	51.828
415.74	51.374
416.09	50.586
416.45	50.720
416.80	50.245
417.16	51.596
417.51	51.494
417.87	50.215
418.22	50.898
418.58	51.735
418.93	50.640
419.29	52.651
419.64	51.381
420.00	51.098
420.35	50.926
420.71	50.603
421.06	50.834
421.42	52.351
421.77	50.296
422.12	51.110
422.48	51.818
422.83	51.588
423.19	51.830
423.54	51.881
423.90	50.856
424.25	51.520
424.61	51.033
424.96	50.686
425.31	51.539
425.67	50.027
426.02	51.411
426.38	51.780
426.73	50.781
427.09	51.961
427.44	50.792
427.79	50.636
428.15	50.856
428.50	49.944
428.85	50.230
429.21	51.862
429.56	51.135
429.92	52.138
430.27	51.470
430.62	51.343
430.98	51.599
431.33	51.026
431.68	50.096
432.04	51.193
432.39	51.366
432.74	50.342
433.10	51.758
433.45	51.059
433.80	50.429
434.16	51.653
434.51	53.289
434.86	52.552
435.22	51.860
435.57	53.066
435.92	51.530
436.28	51.877
436.63	51.939
436.98	51.369
437.34	52.762
437.69	52.284
438.04	50.820
438.39	52.499
438.75	51.245
439.10	51.797
439.45	52.543
439.81	52.034
440.16	50.831
440.51	52.676
440.86	51.251
441.22	51.340
441.57	52.778
441.92	51.358
442.27	53.030
442.63	51.316
442.98	52.508
443.33	52.499
443.68	52.775
444.03	52.775
444.39	52.104
444.74	51.608
445.09	51.546
445.44	52.634
445.79	52.011
446.15	52.724
446.50	51.214
446.85	52.286
447.20	52.273
447.55	52.354
447.91	52.094
448.26	53.383
448.61	51.860
448.96	53.594
449.31	51.538
449.66	51.634
450.02	51.371
450.37	52.104
450.72	53.122
451.07	51.936
451.42	51.646
451.77	51.362
452.12	52.427
452.47	51.872
452.83	52.703
453.18	51.430
453.53	51.235
453.88	51.077
454.23	51.469
454.58	51.538
454.93	51.153
455.28	50.692
455.63	51.279
455.98	52.179
456.34	52.945
456.69	51.382
457.04	52.660
457.39	51.275
457.74	52.069
458.09	49.863
458.44	51.994
458.79	50.387
459.14	50.970
459.49	53.028
459.84	51.836
460.19	51.305
460.54	52.697
460.89	52.038
461.24	52.644
461.59	51.245
461.94	50.200
462.29	50.504
462.64	51.418
462.99	50.282
463.34	51.590
463.69	49.883
464.04	51.140
464.39	50.953
464.74	50.114
465.09	51.788
465.44	50.322
465.79	49.180
466.14	50.234
466.49	49.632
466.84	51.350
467.19	50.289
467.54	48.884
467.89	48.908
468.24	49.086
468.59	48.755
468.94	49.942
469.29	48.050
469.64	48.570
469.99	47.419
470.34	48.329
470.68	49.761
471.03	49.509
471.38	49.575
471.73	49.350
472.08	49.746
472.43	48.706
472.78	48.992
473.13	49.431
473.48	47.855
473.83	49.623
474.17	48.066
474.52	50.331
474.87	48.616
475.22	49.183
475.57	48.858
475.92	48.731
476.27	48.403
476.61	47.664
476.96	47.185
477.31	48.762
477.66	48.846
478.01	48.043
478.36	48.006
478.70	48.030
479.05	48.108
479.40	49.408
479.75	47.310
480.10	48.792
480.45	47.630
480.79	47.664
481.14	47.197
481.49	47.706
481.84	47.694
482.19	47.656
482.53	48.972
482.88	48.117
483.23	47.799
483.58	46.681
483.92	46.587
484.27	47.079
484.62	47.401
484.97	46.812
485.31	46.498
485.66	45.099
486.01	46.500
486.36	47.712
486.70	48.346
487.05	48.415
487.40	47.179
487.75	46.514
488.09	46.464
488.44	44.821
488.79	45.767
489.13	45.728
489.48	45.165
489.83	45.030
490.17	44.998
490.52	44.910
490.87	45.897
491.22	45.277
491.56	44.966
491.91	44.570
492.26	45.478
492.60	44.556
492.95	44.274
493.30	45.361
493.64	44.766
493.99	44.386
494.34	44.338
494.68	43.983
495.03	45.110
495.37	44.696
495.72	44.263
496.07	44.479
496.41	43.501
496.76	43.995
497.11	45.393
497.45	44.325
497.80	44.514
498.14	44.127
498.49	43.796
498.84	43.601
499.18	44.085
499.53	43.632
499.87	43.648
500.22	43.232
500.56	43.005
500.91	44.073
501.26	43.636
501.60	43.084
501.95	44.507
502.29	43.045
502.64	43.376
502.98	42.666
503.33	42.419
503.67	42.695
504.02	42.820
504.36	42.940
504.71	44.006
505.06	43.247
505.40	42.367
505.75	42.668
506.09	42.772
506.44	42.665
506.78	42.615
507.13	42.324
507.47	42.965
507.82	41.714
508.16	42.017
508.51	41.163
508.85	41.852
509.19	41.829
509.54	42.843
509.88	41.816
510.23	42.399
510.57	42.146
510.92	42.332
511.26	40.596
511.61	40.126
511.95	41.093
512.30	40.916
512.64	39.830
512.98	40.020
513.33	41.784
513.67	40.031
514.02	40.623
514.36	40.921
514.70	40.938
515.05	40.824
515.39	40.735
515.74	41.198
516.08	40.042
516.42	40.031
516.77	41.062
517.11	39.866
517.46	39.502
517.80	41.796
518.14	41.186
518.49	40.401
518.83	39.596
519.17	38.665
519.52	39.256
519.86	39.071
520.20	39.723
520.55	38.226
520.89	38.964
521.23	38.638
521.58	40.395
521.92	39.207
522.26	37.629
522.61	39.352
522.95	38.293
523.29	38.563
523.64	38.845
523.98	40.445
524.32	39.656
524.66	39.101
525.01	38.448
525.35	38.656
525.69	38.631
526.04	37.543
526.38	39.080
526.72	38.581
527.06	38.886
527.41	38.309
527.75	39.252
528.09	38.076
528.43	37.655
528.78	37.110
529.12	38.589
529.46	37.662
529.80	37.643
530.15	39.130
530.49	37.960
530.83	38.017
531.17	37.395
531.51	37.846
531.86	38.582
532.20	37.744
532.54	36.864
532.88	37.333
533.22	37.301
533.57	37.334
533.91	38.328
534.25	37.422
534.59	37.989
534.93	38.257
535.27	37.465
535.62	38.204
535.96	38.117
536.30	38.073
536.64	38.078
536.98	37.761
537.32	38.025
537.66	37.305
538.01	37.281
538.35	36.602
538.69	36.418
539.03	37.584
539.37	38.045
539.71	37.117
540.05	37.890
540.39	36.919
540.73	36.916
541.07	36.971
541.42	36.326
541.76	36.299
542.10	37.636
542.44	36.054
542.78	36.861
543.12	36.293
543.46	37.607
543.80	36.091
544.14	36.086
544.48	37.293
544.82	37.163
545.16	36.852
545.50	36.489
545.84	36.191
546.18	37.222
546.52	36.497
546.86	36.541
547.20	36.578
547.54	35.705
547.88	36.709
548.22	35.731
548.56	36.688
548.90	35.642
549.24	36.049
549.58	35.205
549.92	34.311
550.26	35.469
550.60	35.418
550.94	36.546
551.28	35.116
551.62	35.108
551.96	34.563
552.30	36.966
552.64	36.652
552.98	35.621
553.32	36.270
553.66	35.756
554.00	36.381
554.34	35.264
554.68	34.538
555.02	35.217
555.36	36.226
555.69	35.170
556.03	34.805
556.37	36.170
556.71	35.954
557.05	34.313
557.39	35.036
557.73	34.676
558.07	35.828
558.41	36.080
558.75	34.888
559.08	35.421
559.42	35.871
559.76	34.464
560.10	33.958
560.44	34.763
560.78	35.000
561.12	34.236
561.45	35.888
561.79	35.470
562.13	35.490
562.47	33.724
562.81	34.241
563.15	35.038
563.48	34.369
563.82	33.918
564.16	34.464
564.50	34.088
564.84	33.510
565.17	34.706
565.51	33.257
565.85	34.323
566.19	33.813
566.52	34.991
566.86	33.899
567.20	34.203
567.54	35.582
567.88	35.066
568.21	34.783
568.55	35.060
568.89	35.089
569.23	34.939
569.56	35.678
569.90	35.032
570.24	35.649
570.57	34.702
570.91	34.354
571.25	34.423
571.59	35.347
571.92	34.861
572.26	34.701
572.60	35.081
572.93	34.011
573.27	34.926
573.61	34.304
573.95	34.547
574.28	35.319
574.62	35.152
574.96	34.252
575.29	34.193
575.63	33.934
575.97	34.036
576.30	33.925
576.64	34.073
576.98	34.100
577.31	34.625
577.65	35.225
577.98	34.601
578.32	34.308
578.66	35.074
578.99	34.323
579.33	33.926
579.67	34.202
580.00	33.648
580.34	33.595
580.67	33.517
581.01	33.903
581.35	34.307
581.68	35.049
582.02	34.560
582.35	35.153
582.69	34.656
583.02	34.442
583.36	34.196
583.70	33.470
584.03	33.189
584.37	33.473
584.70	33.154
585.04	32.760
585.37	33.407
585.71	33.441
586.04	33.333
586.38	33.798
586.72	32.790
587.05	33.026
587.39	33.283
587.72	33.828
588.06	33.172
588.39	33.881
588.73	33.016
589.06	33.211
589.40	33.190
589.73	33.033
590.07	32.825
590.40	33.536
590.73	32.202
591.07	32.539
591.40	32.426
591.74	32.949
592.07	32.846
592.41	32.650
592.74	32.375
593.08	34.140
593.41	33.596
593.75	33.075
594.08	33.202
594.41	32.917
594.75	32.116
595.08	32.840
595.42	32.825
595.75	32.644
596.09	32.735
596.42	32.103
596.75	31.609
597.09	32.485
597.42	32.062
597.75	32.027
598.09	32.817
598.42	32.449
598.76	31.448
599.09	31.933
599.42	32.149
599.76	31.793
600.09	32.332
600.42	32.466
600.76	31.836
601.09	31.530
601.42	31.823
601.76	32.172
602.09	31.701
602.42	31.116
602.76	32.251
603.09	32.012
603.42	31.864
603.76	31.994
604.09	32.079
604.42	32.037
604.76	31.545
605.09	31.472
605.42	31.340
605.75	31.692
606.09	31.728
606.42	31.339
606.75	30.997
607.09	30.530
607.42	31.484
607.75	32.200
608.08	31.058
608.42	31.479
608.75	30.763
609.08	30.985
609.41	30.348
609.75	30.312
610.08	31.970
610.41	31.308
610.74	30.588
611.07	31.172
611.41	31.031
611.74	31.316
612.07	31.791
612.40	30.418
612.73	30.416
613.07	30.856
613.40	31.039
613.73	30.958
614.06	31.501
614.39	30.709
614.72	30.422
615.06	29.740
615.39	30.933
615.72	30.806
616.05	30.306
616.38	30.827
616.71	30.146
617.05	29.659
617.38	30.177
617.71	30.508
618.04	30.329
618.37	30.383
618.70	30.430
619.03	28.973
619.36	29.655
619.69	29.468
620.03	28.814
620.36	29.571
620.69	29.488
621.02	30.249
621.35	30.697
621.68	30.007
622.01	29.466
622.34	29.079
622.67	29.003
623.00	29.150
623.33	30.922
623.66	30.220
623.99	28.703
624.32	30.539
624.65	29.665
624.99	30.169
625.32	30.438
625.65	27.984
625.98	28.068
626.31	28.561
626.64	28.425
626.97	29.407
627.30	28.398
627.63	28.657
627.96	29.955
628.29	27.782
628.62	27.792
628.95	28.221
629.28	28.632
629.61	29.545
629.94	28.033
630.26	28.136
630.59	27.375
630.92	27.965
631.25	28.891
631.58	28.343
631.91	29.053
632.24	29.203
632.57	28.273
632.90	27.282
633.23	26.939
633.56	27.449
633.89	26.860
634.22	26.611
