SpectraSuite Data File
++++++++++++++++++++++++++++++++++++
Date: Thu May 14 16:24:47 PDT 2015
User: schluterlab
Dark Spectrum Present: Yes
Reference Spectrum Present: Yes
Number of Sampled Component Spectra: 1
Spectrometers: USB2E3373
Integration Time (usec): 3000 (USB2E3373)
Spectra Averaged: 3 (USB2E3373)
Boxcar Smoothing: 0 (USB2E3373)
Correct for Electrical Dark: No (USB2E3373)
Strobe/Lamp Enabled: No (USB2E3373)
Correct for Detector Non-linearity: No (USB2E3373)
Correct for Stray Light: No (USB2E3373)
Number of Pixels in Processed Spectrum: 2048
>>>>>Begin Processed Spectral Data<<<<<
178.53	0.000
178.91	128.571
179.29	-1100.000
179.67	-400.000
180.04	57.143
180.42	60.000
180.80	200.000
181.18	-300.000
181.56	300.000
181.94	100.000
182.31	25.000
182.69	66.667
183.07	350.000
183.45	175.000
183.83	-16.667
184.20	-100.000
184.58	400.000
184.96	-225.000
185.34	55.556
185.72	120.000
186.09	222.222
186.47	600.000
186.85	220.000
187.23	-77.778
187.61	-500.000
187.98	80.000
188.36	100.000
188.74	125.000
189.12	133.333
189.49	-18.750
189.87	-87.500
190.25	33.333
190.63	-20.000
191.00	-33.333
191.38	0.000
191.76	-250.000
192.14	33.333
192.51	50.000
192.89	33.333
193.27	0.000
193.65	14.286
194.02	-1300.000
194.40	-14.286
194.78	128.571
195.15	0.000
195.53	-9.091
195.91	0.000
196.29	-75.000
196.66	-53.846
197.04	-600.000
197.42	100.000
197.79	150.000
198.17	-12.500
198.55	14.286
198.92	-11.111
199.30	-75.000
199.68	36.364
200.05	71.429
200.43	-600.000
200.81	71.429
201.18	0.000
201.56	111.111
201.94	0.000
202.31	300.000
202.69	-166.667
203.07	1400.000
203.44	33.333
203.82	-125.000
204.19	-33.333
204.57	-150.000
204.95	-100.000
205.32	-300.000
205.70	100.000
206.08	-16.667
206.45	0.000
206.83	160.000
207.20	-66.667
207.58	-280.000
207.96	-166.667
208.33	116.667
208.71	100.000
209.08	33.333
209.46	0.000
209.84	133.333
210.21	200.000
210.59	50.000
210.96	366.667
211.34	150.000
211.71	-50.000
212.09	-200.000
212.46	0.000
212.84	800.000
213.22	-40.000
213.59	-50.000
213.97	50.000
214.34	-433.333
214.72	133.333
215.09	-175.000
215.47	0.000
215.84	185.714
216.22	500.000
216.59	-40.000
216.97	20.000
217.34	-125.000
217.72	25.000
218.09	-50.000
218.47	-425.000
218.84	0.000
219.22	-0.000
219.59	0.000
219.97	10.000
220.34	650.000
220.72	-133.333
221.09	7.692
221.47	-100.000
221.84	-70.000
222.22	-157.143
222.59	0.000
222.97	-25.000
223.34	-140.000
223.72	-1100.000
224.09	-25.000
224.46	-250.000
224.84	-80.000
225.21	14.286
225.59	-300.000
225.96	-150.000
226.34	-11.538
226.71	150.000
227.08	-100.000
227.46	26.667
227.83	-175.000
228.21	5.263
228.58	112.500
228.95	750.000
229.33	16.667
229.70	-20.000
230.08	36.842
230.45	60.000
230.82	-200.000
231.20	21.429
231.57	0.000
231.95	-9.091
232.32	-18.182
232.69	-40.000
233.07	-175.000
233.44	-47.059
233.81	-50.000
234.19	27.778
234.56	22.727
234.93	-20.690
235.31	-26.316
235.68	5.556
236.05	-25.000
236.43	38.462
236.80	28.000
237.17	3.704
237.55	3.030
237.92	-120.000
238.29	-12.903
238.67	-6.818
239.04	-5.556
239.41	-14.286
239.79	-13.043
240.16	-12.963
240.53	-28.261
240.91	-9.804
241.28	-3.279
241.65	11.940
242.02	22.973
242.40	-16.923
242.77	-6.667
243.14	-15.854
243.51	-18.421
243.89	-8.974
244.26	-10.891
244.63	-0.980
245.00	-4.673
245.38	-4.386
245.75	-14.159
246.12	-3.968
246.49	-1.550
246.87	1.429
247.24	3.311
247.61	3.289
247.98	0.000
248.36	-4.938
248.73	-7.362
249.10	-3.279
249.47	1.493
249.84	0.524
250.22	-7.254
250.59	0.556
250.96	1.364
251.33	-3.571
251.70	-0.427
252.08	-2.500
252.45	-0.410
252.82	-3.306
253.19	-3.906
253.56	1.901
253.94	0.000
254.31	-3.409
254.68	2.098
255.05	2.932
255.42	0.680
255.79	-3.560
256.16	-0.331
256.54	-3.311
256.91	-2.295
257.28	-1.967
257.65	-7.643
258.02	-3.835
258.39	0.285
258.76	4.281
259.14	-1.149
259.51	0.576
259.88	-0.567
260.25	2.222
260.62	-0.548
260.99	0.820
261.36	0.804
261.73	-1.326
262.10	-2.198
262.47	-0.804
262.85	3.283
263.22	-1.039
263.59	-3.421
263.96	-1.279
264.33	-0.767
264.70	0.988
265.07	1.193
265.44	3.855
265.81	-0.694
266.18	2.268
266.55	1.786
266.92	-1.367
267.29	0.219
267.66	-1.774
268.03	-1.092
268.40	-1.044
268.77	-3.417
269.14	-4.405
269.51	-0.877
269.88	0.000
270.25	1.207
270.62	-0.211
270.99	1.414
271.36	2.574
271.73	-0.786
272.10	1.403
272.47	-1.202
272.84	-0.402
273.21	0.000
273.58	0.403
273.95	-1.154
274.32	-2.281
274.69	-2.128
275.06	0.549
275.43	0.000
275.80	1.587
276.17	-0.370
276.54	0.560
276.91	-1.431
277.28	1.085
277.65	0.359
278.02	-0.184
278.39	-1.087
278.76	-1.406
279.13	-0.532
279.50	0.687
279.87	0.894
280.23	-2.113
280.60	0.000
280.97	-1.480
281.34	-1.019
281.71	1.354
282.08	0.332
282.45	-1.146
282.82	-1.413
283.19	-2.262
283.56	-1.148
283.92	0.000
284.29	2.054
284.66	0.164
285.03	-1.763
285.40	1.236
285.77	-0.619
286.14	0.611
286.51	-0.609
286.87	-0.632
287.24	0.000
287.61	-0.747
287.98	-0.302
288.35	-0.148
288.72	1.036
289.08	0.439
289.45	-1.627
289.82	0.151
290.19	0.144
290.56	0.282
290.93	-0.713
291.29	-0.826
291.66	-0.551
292.03	-1.357
292.40	1.224
292.77	0.674
293.13	1.083
293.50	-0.394
293.87	0.268
294.24	2.267
294.60	1.391
294.97	-1.342
295.34	1.024
295.71	1.009
296.08	1.163
296.44	-0.490
296.81	0.487
297.18	0.872
297.55	-0.472
297.91	0.000
298.28	-0.592
298.65	1.902
299.02	-1.299
299.38	1.373
299.75	0.584
300.12	0.810
300.48	-0.230
300.85	0.225
301.22	0.559
301.59	0.114
301.95	0.678
302.32	0.333
302.69	0.767
303.05	1.415
303.42	-0.222
303.79	0.208
304.15	0.315
304.52	-0.529
304.89	0.838
305.25	0.311
305.62	0.627
305.99	1.237
306.35	0.706
306.72	0.000
307.09	1.117
307.45	0.828
307.82	1.110
308.19	1.413
308.55	1.350
308.92	1.850
309.29	0.670
309.65	0.292
310.02	0.792
310.38	0.689
310.75	1.748
311.12	1.630
311.48	0.684
311.85	1.330
312.22	0.949
312.58	2.535
312.95	1.721
313.31	2.168
313.68	2.106
314.05	2.620
314.41	2.368
314.78	2.180
315.14	2.450
315.51	2.862
315.87	2.700
316.24	3.927
316.61	2.931
316.97	2.081
317.34	2.822
317.70	3.057
318.07	2.028
318.43	3.656
318.80	4.599
319.16	2.918
319.53	2.228
319.89	2.980
320.26	4.448
320.62	2.571
320.99	4.894
321.35	2.311
321.72	4.000
322.08	3.517
322.45	3.975
322.81	4.332
323.18	3.982
323.54	4.483
323.91	4.093
324.27	4.303
324.64	5.709
325.00	3.897
325.37	4.668
325.73	5.207
326.10	4.785
326.46	4.886
326.83	6.085
327.19	5.512
327.56	5.217
327.92	4.170
328.29	4.919
328.65	4.774
329.01	4.822
329.38	5.813
329.74	5.051
330.11	5.565
330.47	5.307
330.84	4.996
331.20	5.167
331.56	4.593
331.93	5.272
332.29	5.593
332.66	4.817
333.02	5.444
333.38	5.034
333.75	5.387
334.11	5.588
334.48	5.941
334.84	5.438
335.20	4.702
335.57	5.059
335.93	5.950
336.29	5.241
336.66	4.794
337.02	5.017
337.38	5.442
337.75	4.463
338.11	4.794
338.47	5.376
338.84	4.315
339.20	3.707
339.56	5.354
339.93	4.844
340.29	5.717
340.65	4.947
341.02	6.065
341.38	5.416
341.74	4.923
342.11	4.988
342.47	4.845
342.83	6.200
343.20	5.151
343.56	4.812
343.92	5.284
344.28	5.625
344.65	5.659
345.01	4.992
345.37	5.443
345.73	4.053
346.10	5.928
346.46	4.430
346.82	5.393
347.19	6.264
347.55	4.628
347.91	4.903
348.27	4.249
348.63	4.950
349.00	4.698
349.36	5.576
349.72	5.283
350.08	5.275
350.45	4.259
350.81	5.204
351.17	4.887
351.53	4.321
351.89	5.998
352.26	4.925
352.62	4.254
352.98	4.809
353.34	4.630
353.70	4.391
354.07	4.694
354.43	4.404
354.79	4.637
355.15	4.783
355.51	5.409
355.87	4.488
356.24	4.487
356.60	3.769
356.96	4.077
357.32	4.535
357.68	3.367
358.04	3.967
358.40	4.403
358.77	4.751
359.13	3.471
359.49	2.751
359.85	3.988
360.21	4.161
360.57	4.092
360.93	4.161
361.29	4.140
361.66	4.055
362.02	5.150
362.38	4.146
362.74	4.749
363.10	4.402
363.46	3.601
363.82	3.338
364.18	3.800
364.54	4.219
364.90	4.548
365.26	3.724
365.62	3.933
365.98	5.310
366.35	4.631
366.71	4.218
367.07	4.263
367.43	3.743
367.79	3.981
368.15	4.682
368.51	4.263
368.87	3.919
369.23	3.667
369.59	3.415
369.95	4.868
370.31	4.254
370.67	3.783
371.03	3.947
371.39	4.231
371.75	3.645
372.11	3.523
372.47	3.859
372.83	4.254
373.19	3.803
373.55	3.794
373.91	2.999
374.27	4.140
374.63	4.601
374.99	3.581
375.35	4.286
375.71	3.871
376.07	3.680
376.42	3.841
376.78	4.413
377.14	3.743
377.50	3.795
377.86	4.372
378.22	3.473
378.58	3.746
378.94	3.991
379.30	2.578
379.66	3.998
380.02	4.039
380.38	3.514
380.74	4.000
381.09	3.484
381.45	4.148
381.81	3.981
382.17	4.157
382.53	3.450
382.89	4.458
383.25	3.751
383.61	2.488
383.97	3.592
384.32	4.486
384.68	3.132
385.04	3.875
385.40	3.712
385.76	3.751
386.12	3.471
386.48	3.588
386.83	3.814
387.19	2.607
387.55	3.228
387.91	2.854
388.27	3.176
388.62	3.379
388.98	3.553
389.34	3.064
389.70	3.544
390.06	3.789
390.42	3.193
390.77	4.154
391.13	2.993
391.49	3.321
391.85	3.091
392.20	2.669
392.56	3.780
392.92	3.599
393.28	3.704
393.64	3.184
393.99	3.951
394.35	3.388
394.71	3.234
395.07	2.275
395.42	2.513
395.78	3.413
396.14	3.149
396.50	2.316
396.85	3.697
397.21	2.840
397.57	2.709
397.92	3.036
398.28	2.716
398.64	3.204
399.00	2.094
399.35	3.089
399.71	2.554
400.07	2.976
400.42	2.503
400.78	2.720
401.14	3.187
401.49	3.411
401.85	2.267
402.21	2.665
402.57	2.641
402.92	2.955
403.28	2.576
403.63	2.267
403.99	2.553
404.35	2.615
404.70	3.059
405.06	2.663
405.42	2.342
405.77	2.890
406.13	2.971
406.49	2.928
406.84	2.825
407.20	2.180
407.55	1.938
407.91	2.451
408.27	2.591
408.62	2.443
408.98	2.670
409.34	1.584
409.69	2.843
410.05	3.576
410.40	3.306
410.76	2.636
411.11	2.338
411.47	2.518
411.83	2.881
412.18	2.711
412.54	3.201
412.89	2.969
413.25	1.862
413.60	2.355
413.96	2.506
414.31	2.493
414.67	3.160
415.03	2.215
415.38	2.585
415.74	1.833
416.09	2.159
416.45	2.567
416.80	2.632
417.16	2.363
417.51	2.740
417.87	2.269
418.22	2.575
418.58	1.859
418.93	3.318
419.29	1.850
419.64	1.321
420.00	2.611
420.35	2.583
420.71	2.700
421.06	2.243
421.42	2.580
421.77	2.208
422.12	2.696
422.48	2.048
422.83	3.286
423.19	2.281
423.54	1.770
423.90	1.822
424.25	2.613
424.61	2.067
424.96	2.471
425.31	2.760
425.67	2.147
426.02	2.601
426.38	2.067
426.73	2.232
427.09	3.114
427.44	2.021
427.79	2.322
428.15	1.712
428.50	2.135
428.85	2.583
429.21	2.872
429.56	1.382
429.92	2.457
430.27	2.169
430.62	2.149
430.98	2.361
431.33	2.248
431.68	1.868
432.04	1.930
432.39	2.142
432.74	2.055
433.10	2.596
433.45	2.174
433.80	2.521
434.16	2.686
434.51	2.004
434.86	2.009
435.22	2.125
435.57	2.182
435.92	2.337
436.28	2.560
436.63	2.403
436.98	2.791
437.34	1.973
437.69	2.256
438.04	2.168
438.39	2.412
438.75	2.048
439.10	2.590
439.45	2.459
439.81	2.542
440.16	2.145
440.51	2.731
440.86	2.223
441.22	2.894
441.57	2.830
441.92	2.764
442.27	2.727
442.63	2.534
442.98	2.295
443.33	2.683
443.68	3.171
444.03	2.916
444.39	2.681
444.74	2.654
445.09	2.179
445.44	2.266
445.79	2.634
446.15	3.700
446.50	2.481
446.85	2.870
447.20	2.950
447.55	3.138
447.91	2.094
448.26	2.220
448.61	2.657
448.96	3.165
449.31	2.386
449.66	2.070
450.02	2.690
450.37	3.037
450.72	2.853
451.07	2.733
451.42	2.831
451.77	2.001
452.12	2.483
452.47	2.377
452.83	2.309
453.18	2.277
453.53	2.240
453.88	3.258
454.23	2.599
454.58	2.786
454.93	1.578
455.28	2.950
455.63	2.217
455.98	3.073
456.34	2.827
456.69	2.646
457.04	2.246
457.39	2.494
457.74	2.349
458.09	2.252
458.44	3.341
458.79	2.579
459.14	2.517
459.49	1.981
459.84	3.148
460.19	2.776
460.54	2.158
460.89	2.647
461.24	2.586
461.59	3.099
461.94	1.825
462.29	3.024
462.64	2.535
462.99	3.076
463.34	2.596
463.69	2.814
464.04	3.391
464.39	2.522
464.74	3.022
465.09	2.595
465.44	2.253
465.79	3.279
466.14	2.345
466.49	2.947
466.84	2.534
467.19	3.064
467.54	2.056
467.89	2.529
468.24	2.715
468.59	1.679
468.94	2.273
469.29	2.280
469.64	1.907
469.99	1.785
470.34	2.228
470.68	2.324
471.03	2.685
471.38	2.878
471.73	2.471
472.08	2.284
472.43	2.288
472.78	2.519
473.13	2.276
473.48	2.598
473.83	2.786
474.17	2.872
474.52	1.263
474.87	3.101
475.22	3.493
475.57	2.960
475.92	1.891
476.27	2.449
476.61	2.856
476.96	1.773
477.31	2.624
477.66	3.043
478.01	2.542
478.36	2.343
478.70	2.808
479.05	2.556
479.40	2.221
479.75	2.882
480.10	2.605
480.45	2.826
480.79	2.585
481.14	2.206
481.49	2.226
481.84	2.350
482.19	2.667
482.53	2.930
482.88	2.481
483.23	2.179
483.58	2.227
483.92	2.571
484.27	2.371
484.62	2.393
484.97	2.488
485.31	1.866
485.66	2.484
486.01	2.512
486.36	2.709
486.70	2.633
487.05	2.793
487.40	2.624
487.75	2.875
488.09	2.818
488.44	2.374
488.79	2.597
489.13	2.715
489.48	1.981
489.83	2.173
490.17	2.228
490.52	2.709
490.87	2.284
491.22	1.993
491.56	2.346
491.91	2.486
492.26	2.380
492.60	2.492
492.95	2.589
493.30	2.062
493.64	2.190
493.99	1.974
494.34	1.916
494.68	2.227
495.03	2.335
495.37	2.441
495.72	2.630
496.07	2.980
496.41	2.059
496.76	2.919
497.11	2.420
497.45	2.244
497.80	3.065
498.14	1.995
498.49	2.436
498.84	2.559
499.18	2.429
499.53	2.735
499.87	2.462
500.22	1.825
500.56	1.709
500.91	2.151
501.26	2.409
501.60	2.033
501.95	2.692
502.29	2.413
502.64	2.624
502.98	2.588
503.33	1.901
503.67	2.093
504.02	2.102
504.36	2.189
504.71	2.159
505.06	2.865
505.40	2.057
505.75	2.277
506.09	2.855
506.44	2.832
506.78	2.523
507.13	2.444
507.47	2.132
507.82	2.699
508.16	2.294
508.51	1.969
508.85	1.842
509.19	1.990
509.54	2.402
509.88	2.477
510.23	2.234
510.57	2.610
510.92	2.371
511.26	2.357
511.61	1.787
511.95	2.538
512.30	2.413
512.64	1.949
512.98	1.901
513.33	2.369
513.67	2.193
514.02	2.044
514.36	2.762
514.70	2.031
515.05	2.294
515.39	2.205
515.74	3.022
516.08	2.272
516.42	2.512
516.77	1.735
517.11	2.011
517.46	2.651
517.80	2.512
518.14	2.067
518.49	2.657
518.83	2.767
519.17	2.046
519.52	3.040
519.86	2.323
520.20	2.503
520.55	2.355
520.89	2.365
521.23	2.178
521.58	2.147
521.92	2.040
522.26	2.520
522.61	2.083
522.95	2.941
523.29	2.011
523.64	2.747
523.98	2.567
524.32	3.266
524.66	1.935
525.01	2.378
525.35	1.493
525.69	2.726
526.04	2.526
526.38	2.356
526.72	2.364
527.06	1.935
527.41	2.274
527.75	2.197
528.09	1.948
528.43	2.013
528.78	1.734
529.12	2.408
529.46	2.417
529.80	2.460
530.15	2.435
530.49	1.601
530.83	2.834
531.17	2.151
531.51	2.708
531.86	2.644
532.20	2.317
532.54	1.915
532.88	1.818
533.22	2.416
533.57	2.481
533.91	2.918
534.25	1.922
534.59	2.356
534.93	2.547
535.27	2.197
535.62	2.956
535.96	2.208
536.30	2.644
536.64	2.583
536.98	2.768
537.32	2.222
537.66	2.558
538.01	1.934
538.35	1.644
538.69	1.803
539.03	1.901
539.37	2.061
539.71	2.282
540.05	2.698
540.39	2.017
540.73	2.307
541.07	1.778
541.42	2.540
541.76	1.898
542.10	2.111
542.44	1.705
542.78	2.737
543.12	2.980
543.46	2.625
543.80	2.098
544.14	2.154
544.48	3.132
544.82	2.693
545.16	1.491
545.50	2.756
545.84	3.307
546.18	3.457
546.52	2.038
546.86	2.453
547.20	2.099
547.54	1.810
547.88	1.688
548.22	1.930
548.56	1.989
548.90	2.209
549.24	2.371
549.58	2.208
549.92	1.531
550.26	2.524
550.60	2.425
550.94	2.393
551.28	2.772
551.62	1.887
551.96	1.877
552.30	2.549
552.64	2.054
552.98	2.682
553.32	1.865
553.66	2.122
554.00	2.774
554.34	1.737
554.68	2.001
555.02	2.431
555.36	2.630
555.69	2.242
556.03	2.144
556.37	2.816
556.71	1.966
557.05	2.236
557.39	1.991
557.73	1.982
558.07	1.788
558.41	2.857
558.75	2.096
559.08	2.227
559.42	2.126
559.76	2.917
560.10	2.545
560.44	2.045
560.78	2.313
561.12	2.401
561.45	2.372
561.79	2.137
562.13	2.649
562.47	1.788
562.81	1.646
563.15	1.894
563.48	2.300
563.82	1.874
564.16	2.059
564.50	1.847
564.84	2.006
565.17	2.647
565.51	2.244
565.85	1.485
566.19	1.498
566.52	2.106
566.86	2.490
567.20	1.849
567.54	1.540
567.88	2.294
568.21	2.619
568.55	2.014
568.89	2.179
569.23	2.239
569.56	1.993
569.90	2.530
570.24	2.428
570.57	1.764
570.91	1.868
571.25	2.227
571.59	2.394
571.92	2.452
572.26	2.250
572.60	2.293
572.93	2.421
573.27	2.079
573.61	2.567
573.95	2.282
574.28	2.219
574.62	2.024
574.96	2.184
575.29	2.071
575.63	2.426
575.97	2.563
576.30	2.467
576.64	2.076
576.98	1.959
577.31	2.431
577.65	2.146
577.98	2.184
578.32	2.225
578.66	2.130
578.99	2.232
579.33	2.223
579.67	2.063
580.00	2.315
580.34	2.356
580.67	2.162
581.01	2.034
581.35	1.968
581.68	2.023
582.02	2.231
582.35	2.253
582.69	2.446
583.02	2.224
583.36	2.198
583.70	1.840
584.03	2.280
584.37	2.172
584.70	2.005
585.04	1.976
585.37	1.944
585.71	2.071
586.04	2.158
586.38	1.950
586.72	1.680
587.05	1.816
587.39	2.194
587.72	1.890
588.06	2.249
588.39	2.365
588.73	2.037
589.06	2.314
589.40	1.936
589.73	2.217
590.07	2.188
590.40	2.299
590.73	2.616
591.07	2.345
591.40	1.905
591.74	2.226
592.07	2.761
592.41	1.932
592.74	2.449
593.08	2.580
593.41	2.421
593.75	2.126
594.08	2.090
594.41	2.212
594.75	1.926
595.08	1.312
595.42	1.948
595.75	1.808
596.09	2.203
596.42	2.472
596.75	2.509
597.09	2.263
597.42	1.986
597.75	2.313
598.09	2.619
598.42	2.372
598.76	1.834
599.09	2.172
599.42	2.313
599.76	1.816
600.09	2.202
600.42	2.169
600.76	2.015
601.09	1.958
601.42	2.472
601.76	1.931
602.09	1.966
602.42	1.672
602.76	2.066
603.09	1.982
603.42	2.023
603.76	1.832
604.09	2.910
604.42	2.202
604.76	1.903
605.09	2.234
605.42	2.033
605.75	1.846
606.09	2.240
606.42	2.007
606.75	1.724
607.09	1.767
607.42	2.274
607.75	2.071
608.08	1.973
608.42	1.935
608.75	2.363
609.08	1.740
609.41	2.250
609.75	1.964
610.08	2.375
610.41	1.869
610.74	1.933
611.07	1.998
611.41	2.646
611.74	2.448
612.07	2.197
612.40	2.044
612.73	2.200
613.07	2.298
613.40	2.262
613.73	2.167
614.06	2.306
614.39	1.701
614.72	2.475
615.06	2.406
615.39	1.740
615.72	2.464
616.05	2.186
616.38	2.472
616.71	2.351
617.05	1.757
617.38	3.050
617.71	1.944
618.04	1.835
618.37	2.568
618.70	2.036
619.03	1.553
619.36	2.219
619.69	1.858
620.03	1.946
620.36	2.393
620.69	1.727
621.02	2.100
621.35	1.814
621.68	2.603
622.01	1.993
622.34	0.697
622.67	2.268
623.00	1.484
623.33	2.455
623.66	2.659
623.99	1.909
624.32	2.859
624.65	1.609
624.99	1.691
625.32	2.547
625.65	1.955
625.98	1.220
626.31	1.488
626.64	2.125
626.97	1.950
627.30	1.215
627.63	1.875
627.96	2.778
628.29	1.634
628.62	1.595
628.95	1.840
629.28	0.595
629.61	1.852
629.94	1.088
630.26	1.949
630.59	0.691
630.92	1.645
631.25	1.073
631.58	2.072
631.91	0.469
632.24	1.633
632.57	2.277
632.90	1.204
633.23	0.816
633.56	2.041
633.89	1.033
634.22	1.663
634.55	1.670
634.88	1.623
635.20	2.368
635.53	2.486
635.86	1.625
636.19	2.863
636.52	2.637
636.85	1.634
637.18	1.455
637.51	1.183
637.83	2.658
638.16	1.267
638.49	0.939
638.82	1.804
639.15	0.573
639.48	1.848
639.81	3.118
640.13	2.356
640.46	0.727
640.79	0.490
641.12	1.739
641.45	1.255
641.77	3.594
642.10	0.656
642.43	2.793
642.76	2.304
643.09	1.370
643.41	0.140
643.74	0.276
644.07	2.069
644.40	1.273
644.73	1.887
645.05	1.175
645.38	1.295
645.71	1.466
646.04	3.013
646.36	0.146
646.69	0.000
647.02	2.141
647.35	2.901
647.67	1.127
648.00	1.911
648.33	2.853
648.66	0.713
648.98	1.224
649.31	0.812
649.64	1.594
649.96	2.520
650.29	0.834
650.62	2.546
650.94	0.300
651.27	0.000
651.60	2.339
651.92	0.456
652.25	2.026
652.58	1.376
652.90	-0.872
653.23	2.113
653.56	1.997
653.88	2.809
654.21	2.958
654.54	1.879
654.86	2.266
655.19	0.502
655.52	2.394
655.84	2.005
656.17	2.358
656.49	3.310
656.82	3.784
657.15	2.928
657.47	2.086
