SpectraSuite Data File
++++++++++++++++++++++++++++++++++++
Date: Thu May 14 16:32:37 PDT 2015
User: schluterlab
Dark Spectrum Present: Yes
Reference Spectrum Present: Yes
Number of Sampled Component Spectra: 1
Spectrometers: USB2E3373
Integration Time (usec): 3000 (USB2E3373)
Spectra Averaged: 3 (USB2E3373)
Boxcar Smoothing: 0 (USB2E3373)
Correct for Electrical Dark: No (USB2E3373)
Strobe/Lamp Enabled: No (USB2E3373)
Correct for Detector Non-linearity: No (USB2E3373)
Correct for Stray Light: No (USB2E3373)
Number of Pixels in Processed Spectrum: 2048
>>>>>Begin Processed Spectral Data<<<<<
178.53	0.000
178.91	100.000
179.29	-900.000
179.67	100.000
180.04	71.429
180.42	-10.000
180.80	240.000
181.18	-400.000
181.56	400.000
181.94	125.000
182.31	25.000
182.69	133.333
183.07	-350.000
183.45	200.000
183.83	116.667
184.20	166.667
184.58	200.000
184.96	-175.000
185.34	77.778
185.72	80.000
186.09	122.222
186.47	100.000
186.85	180.000
187.23	-33.333
187.61	-800.000
187.98	120.000
188.36	200.000
188.74	-125.000
189.12	200.000
189.49	25.000
189.87	0.000
190.25	66.667
190.63	-100.000
191.00	11.111
191.38	0.000
191.76	-350.000
192.14	-133.333
192.51	100.000
192.89	50.000
193.27	0.000
193.65	-28.571
194.02	-500.000
194.40	128.571
194.78	128.571
195.15	0.000
195.53	-9.091
195.91	0.000
196.29	125.000
196.66	-7.692
197.04	-700.000
197.42	-42.857
197.79	-150.000
198.17	-37.500
198.55	-28.571
198.92	11.111
199.30	-75.000
199.68	18.182
200.05	71.429
200.43	-200.000
200.81	100.000
201.18	0.000
201.56	188.889
201.94	0.000
202.31	233.333
202.69	-22.222
203.07	-700.000
203.44	-55.556
203.82	-25.000
204.19	-16.667
204.57	100.000
204.95	-12.500
205.32	500.000
205.70	125.000
206.08	-33.333
206.45	-16.667
206.83	280.000
207.20	50.000
207.58	-160.000
207.96	16.667
208.33	150.000
208.71	-33.333
209.08	166.667
209.46	0.000
209.84	66.667
210.21	-0.000
210.59	50.000
210.96	366.667
211.34	50.000
211.71	0.000
212.09	-100.000
212.46	0.000
212.84	700.000
213.22	-100.000
213.59	75.000
213.97	-30.000
214.34	-366.667
214.72	150.000
215.09	225.000
215.47	0.000
215.84	114.286
216.22	400.000
216.59	20.000
216.97	-60.000
217.34	-225.000
217.72	162.500
218.09	-50.000
218.47	-50.000
218.84	0.000
219.22	-140.000
219.59	-58.824
219.97	35.000
220.34	400.000
220.72	66.667
221.09	115.385
221.47	66.667
221.84	60.000
222.22	-57.143
222.59	0.000
222.97	87.500
223.34	40.000
223.72	-900.000
224.09	125.000
224.46	-150.000
224.84	-120.000
225.21	14.286
225.59	-150.000
225.96	-200.000
226.34	38.462
226.71	183.333
227.08	-350.000
227.46	46.667
227.83	-75.000
228.21	21.053
228.58	-0.000
228.95	450.000
229.33	-16.667
229.70	0.000
230.08	94.737
230.45	40.000
230.82	266.667
231.20	21.429
231.57	25.000
231.95	-81.818
232.32	54.545
232.69	55.000
233.07	-25.000
233.44	-35.294
233.81	-30.000
234.19	44.444
234.56	86.364
234.93	37.931
235.31	5.263
235.68	61.111
236.05	-5.000
236.43	53.846
236.80	52.000
237.17	-3.704
237.55	36.364
237.92	80.000
238.29	35.484
238.67	31.818
239.04	36.111
239.41	21.429
239.79	30.435
240.16	27.778
240.53	6.522
240.91	11.765
241.28	36.066
241.65	43.284
242.02	37.838
242.40	38.462
242.77	32.000
243.14	23.171
243.51	32.895
243.89	14.103
244.26	31.683
244.63	29.412
245.00	35.514
245.38	25.439
245.75	18.584
246.12	34.127
246.49	23.256
246.87	37.857
247.24	37.086
247.61	31.579
247.98	34.899
248.36	33.333
248.73	28.221
249.10	30.055
249.47	36.816
249.84	37.696
250.22	31.606
250.59	36.667
250.96	34.091
251.33	31.633
251.70	30.769
252.08	30.000
252.45	32.787
252.82	32.231
253.19	32.031
253.56	32.319
253.94	28.462
254.31	35.606
254.68	36.364
255.05	30.619
255.42	31.293
255.79	31.392
256.16	32.119
256.54	31.126
256.91	34.098
257.28	35.082
257.65	33.758
258.02	30.973
258.39	34.473
258.76	36.391
259.14	35.632
259.51	30.259
259.88	35.411
260.25	36.389
260.62	36.438
260.99	36.612
261.36	34.853
261.73	34.483
262.10	36.538
262.47	34.584
262.85	35.606
263.22	35.584
263.59	30.000
263.96	32.737
264.33	31.714
264.70	32.346
265.07	35.561
265.44	36.054
265.81	34.954
266.18	34.694
266.55	34.375
266.92	34.396
267.29	38.074
267.66	34.146
268.03	34.716
268.40	34.238
268.77	32.118
269.14	32.379
269.51	32.018
269.88	36.066
270.25	33.602
270.62	36.498
270.99	35.556
271.36	34.059
271.73	33.988
272.10	35.471
272.47	33.267
272.84	33.333
273.21	34.068
273.58	33.266
273.95	32.885
274.32	31.939
274.69	32.882
275.06	32.601
275.43	31.793
275.80	32.981
276.17	31.481
276.54	32.463
276.91	30.590
277.28	33.996
277.65	31.777
278.02	32.353
278.39	32.428
278.76	33.743
279.13	33.865
279.50	33.505
279.87	32.021
280.23	30.106
280.60	31.864
280.97	34.375
281.34	31.070
281.71	32.318
282.08	32.060
282.45	31.588
282.82	31.554
283.19	32.956
283.56	32.295
283.92	33.634
284.29	33.491
284.66	30.870
285.03	31.250
285.40	31.994
285.77	31.115
286.14	30.382
286.51	31.811
286.87	33.649
287.24	32.380
287.61	30.792
287.98	30.967
288.35	28.402
288.72	29.438
289.08	31.040
289.45	28.550
289.82	30.120
290.19	28.592
290.56	29.155
290.93	30.385
291.29	28.237
291.66	28.375
292.03	28.901
292.40	28.571
292.77	28.437
293.13	28.958
293.50	27.070
293.87	29.396
294.24	28.400
294.60	27.813
294.97	27.383
295.34	27.145
295.71	24.968
296.08	27.003
296.44	25.123
296.81	27.040
297.18	26.899
297.55	25.825
297.91	25.267
298.28	24.882
298.65	25.208
299.02	24.203
299.38	25.057
299.75	23.832
300.12	23.843
300.48	25.576
300.85	24.747
301.22	23.602
301.59	24.315
301.95	24.746
302.32	24.889
302.69	25.301
303.05	26.224
303.42	24.390
303.79	23.646
304.15	24.290
304.52	24.207
304.89	24.084
305.25	23.913
305.62	24.347
305.99	24.948
306.35	23.488
306.72	24.612
307.09	23.553
307.45	25.052
307.82	24.016
308.19	23.512
308.55	23.047
308.92	22.980
309.29	23.084
309.65	22.807
310.02	22.673
310.38	22.835
310.75	23.495
311.12	23.778
311.48	23.069
311.85	23.552
312.22	22.960
312.58	23.286
312.95	22.467
313.31	22.584
313.68	22.985
314.05	24.210
314.41	22.495
314.78	22.979
315.14	23.049
315.51	22.530
315.87	22.772
316.24	23.196
316.61	22.202
316.97	22.805
317.34	21.958
317.70	22.707
318.07	22.928
318.43	22.279
318.80	22.074
319.16	22.489
319.53	21.337
319.89	21.122
320.26	23.399
320.62	21.011
320.99	22.345
321.35	22.643
321.72	23.628
322.08	21.641
322.45	22.403
322.81	22.292
323.18	22.212
323.54	23.103
323.91	22.242
324.27	21.515
324.64	22.082
325.00	21.310
325.37	21.458
325.73	21.157
326.10	22.790
326.46	22.476
326.83	22.018
327.19	22.441
327.56	22.372
327.92	21.558
328.29	21.290
328.65	21.441
329.01	20.897
329.38	21.483
329.74	20.976
330.11	22.260
330.47	22.494
330.84	21.619
331.20	22.417
331.56	23.137
331.93	22.092
332.29	21.525
332.66	20.930
333.02	21.441
333.38	21.812
333.75	21.801
334.11	21.601
334.48	21.700
334.84	22.515
335.20	20.571
335.57	21.754
335.93	22.149
336.29	20.133
336.66	19.933
337.02	21.237
337.38	22.024
337.75	20.826
338.11	21.362
338.47	21.671
338.84	21.320
339.20	20.388
339.56	20.346
339.93	19.869
340.29	21.095
340.65	20.438
341.02	20.990
341.38	21.099
341.74	20.581
342.11	20.595
342.47	19.857
342.83	20.129
343.20	20.033
343.56	20.048
343.92	21.777
344.28	20.859
344.65	21.085
345.01	20.047
345.37	20.529
345.73	19.719
346.10	21.295
346.46	21.044
346.82	19.700
347.19	20.321
347.55	21.775
347.91	20.579
348.27	20.106
348.63	20.335
349.00	20.880
349.36	20.892
349.72	20.387
350.08	20.357
350.45	20.684
350.81	20.287
351.17	20.451
351.53	20.243
351.89	20.425
352.26	20.000
352.62	20.075
352.98	20.153
353.34	19.417
353.70	20.416
354.07	19.300
354.43	19.590
354.79	19.671
355.15	19.352
355.51	20.906
355.87	19.671
356.24	20.000
356.60	18.995
356.96	19.644
357.32	20.149
357.68	19.327
358.04	18.563
358.40	19.851
358.77	19.883
359.13	19.424
359.49	18.885
359.85	20.522
360.21	19.871
360.57	18.665
360.93	18.970
361.29	19.018
361.66	19.044
362.02	20.320
362.38	19.606
362.74	19.204
363.10	19.739
363.46	19.668
363.82	19.247
364.18	19.282
364.54	20.055
364.90	19.866
365.26	18.966
365.62	20.067
365.98	19.061
366.35	18.658
366.71	19.116
367.07	19.959
367.43	19.041
367.79	20.040
368.15	20.134
368.51	18.674
368.87	20.052
369.23	18.800
369.59	18.648
369.95	18.729
370.31	20.392
370.67	19.532
371.03	18.144
371.39	17.730
371.75	20.083
372.11	19.241
372.47	18.483
372.83	19.175
373.19	18.679
373.55	18.699
373.91	18.200
374.27	19.082
374.63	18.539
374.99	18.833
375.35	19.351
375.71	18.839
376.07	18.722
376.42	18.325
376.78	19.080
377.14	18.840
377.50	18.153
377.86	19.150
378.22	19.102
378.58	19.441
378.94	18.897
379.30	18.746
379.66	19.106
380.02	18.523
380.38	19.297
380.74	18.817
381.09	18.583
381.45	18.466
381.81	19.614
382.17	19.359
382.53	19.006
382.89	18.510
383.25	19.226
383.61	18.576
383.97	18.316
384.32	18.959
384.68	17.865
385.04	18.623
385.40	19.269
385.76	19.285
386.12	18.731
386.48	19.000
386.83	19.130
387.19	18.308
387.55	19.073
387.91	18.322
388.27	18.707
388.62	18.442
388.98	18.556
389.34	19.210
389.70	18.420
390.06	19.005
390.42	18.373
390.77	18.543
391.13	18.369
391.49	19.324
391.85	18.121
392.20	18.861
392.56	19.019
392.92	18.375
393.28	18.795
393.64	17.933
393.99	19.640
394.35	18.867
394.71	19.042
395.07	18.443
395.42	17.933
395.78	18.769
396.14	18.895
396.50	18.587
396.85	18.724
397.21	18.225
397.57	19.376
397.92	19.473
398.28	17.762
398.64	17.963
399.00	17.958
399.35	18.168
399.71	18.207
400.07	18.641
400.42	18.102
400.78	18.634
401.14	18.384
401.49	18.647
401.85	18.023
402.21	18.076
402.57	19.249
402.92	18.794
403.28	18.443
403.63	17.363
403.99	17.933
404.35	18.590
404.70	17.847
405.06	18.261
405.42	18.384
405.77	18.157
406.13	19.503
406.49	18.018
406.84	18.947
407.20	18.502
407.55	17.929
407.91	17.850
408.27	19.199
408.62	18.208
408.98	18.340
409.34	17.771
409.69	18.727
410.05	18.992
410.40	18.677
410.76	17.835
411.11	19.345
411.47	17.998
411.83	18.519
412.18	18.313
412.54	19.028
412.89	18.393
413.25	18.792
413.60	18.150
413.96	18.473
414.31	18.810
414.67	18.724
415.03	18.523
415.38	17.591
415.74	17.654
416.09	18.816
416.45	17.533
416.80	17.564
417.16	18.710
417.51	18.057
417.87	18.332
418.22	19.102
418.58	17.844
418.93	18.976
419.29	17.879
419.64	17.167
420.00	17.923
420.35	18.248
420.71	18.150
421.06	17.941
421.42	18.177
421.77	17.609
422.12	18.076
422.48	17.972
422.83	18.675
423.19	18.143
423.54	18.971
423.90	18.774
424.25	18.347
424.61	17.738
424.96	18.671
425.31	18.684
425.67	17.284
426.02	18.041
426.38	17.394
426.73	17.522
427.09	19.377
427.44	17.859
427.79	18.519
428.15	17.580
428.50	17.978
428.85	17.738
429.21	17.606
429.56	17.868
429.92	17.445
430.27	18.072
430.62	18.368
430.98	18.151
431.33	18.377
431.68	17.289
432.04	17.623
432.39	18.425
432.74	18.151
433.10	18.442
433.45	17.391
433.80	17.865
434.16	18.182
434.51	17.677
434.86	18.458
435.22	18.119
435.57	18.750
435.92	18.086
436.28	17.577
436.63	17.859
436.98	17.606
437.34	18.264
437.69	17.997
438.04	18.403
438.39	17.806
438.75	17.654
439.10	18.182
439.45	18.167
439.81	17.797
440.16	17.480
440.51	18.339
440.86	17.676
441.22	18.060
441.57	18.134
441.92	17.410
442.27	18.535
442.63	18.430
442.98	18.196
443.33	17.201
443.68	19.078
444.03	18.297
444.39	18.539
444.74	18.479
445.09	18.297
445.44	18.230
445.79	18.247
446.15	18.294
446.50	18.191
446.85	18.677
447.20	18.085
447.55	18.515
447.91	18.063
448.26	18.182
448.61	18.332
448.96	19.313
449.31	18.028
449.66	17.593
450.02	18.302
450.37	18.540
450.72	17.707
451.07	18.565
451.42	17.851
451.77	17.454
452.12	18.623
452.47	18.360
452.83	19.088
453.18	18.797
453.53	18.093
453.88	18.774
454.23	18.531
454.58	18.630
454.93	18.507
455.28	19.145
455.63	18.533
455.98	18.324
456.34	17.962
456.69	19.048
457.04	18.676
457.39	17.849
457.74	18.624
458.09	18.232
458.44	18.481
458.79	17.844
459.14	18.458
459.49	17.997
459.84	18.730
460.19	18.157
460.54	19.194
460.89	18.475
461.24	18.103
461.59	18.926
461.94	17.969
462.29	17.805
462.64	18.950
462.99	18.895
463.34	18.884
463.69	17.995
464.04	18.899
464.39	19.395
464.74	18.073
465.09	17.935
465.44	18.348
465.79	19.196
466.14	17.665
466.49	18.526
466.84	18.567
467.19	17.746
467.54	17.391
467.89	17.989
468.24	18.560
468.59	17.719
468.94	17.249
469.29	17.636
469.64	17.673
469.99	17.718
470.34	18.688
470.68	18.387
471.03	18.533
471.38	18.509
471.73	17.685
472.08	18.528
472.43	18.061
472.78	19.018
473.13	17.193
473.48	18.912
473.83	18.746
474.17	17.409
474.52	18.882
474.87	18.383
475.22	18.930
475.57	17.913
475.92	18.069
476.27	19.755
476.61	18.484
476.96	18.300
477.31	18.218
477.66	19.150
478.01	18.912
478.36	17.697
478.70	18.867
479.05	18.507
479.40	18.460
479.75	18.588
480.10	17.811
480.45	18.232
480.79	18.503
481.14	18.566
481.49	17.856
481.84	18.886
482.19	18.538
482.53	18.802
482.88	18.299
483.23	18.186
483.58	18.297
483.92	18.085
484.27	18.628
484.62	17.863
484.97	18.974
485.31	18.444
485.66	17.715
486.01	17.562
486.36	17.496
486.70	18.481
487.05	18.879
487.40	18.505
487.75	18.626
488.09	18.653
488.44	18.619
488.79	18.314
489.13	19.044
489.48	17.864
489.83	18.189
490.17	18.226
490.52	18.432
490.87	18.486
491.22	18.111
491.56	19.113
491.91	18.622
492.26	18.780
492.60	17.884
492.95	18.824
493.30	18.602
493.64	19.141
493.99	18.246
494.34	18.162
494.68	18.330
495.03	18.238
495.37	18.642
495.72	19.138
496.07	18.624
496.41	18.790
496.76	18.432
497.11	18.981
497.45	18.558
497.80	18.836
498.14	18.594
498.49	18.842
498.84	19.059
499.18	18.668
499.53	19.193
499.87	19.516
500.22	17.809
500.56	18.758
500.91	19.085
501.26	19.045
501.60	17.985
501.95	18.063
502.29	18.692
502.64	18.627
502.98	18.766
503.33	18.229
503.67	17.444
504.02	18.827
504.36	18.945
504.71	19.752
505.06	19.145
505.40	18.693
505.75	18.898
506.09	19.429
506.44	19.220
506.78	19.128
507.13	18.811
507.47	19.422
507.82	19.081
508.16	19.312
508.51	18.706
508.85	19.273
509.19	19.375
509.54	19.597
509.88	19.475
510.23	19.233
510.57	19.575
510.92	19.158
511.26	19.240
511.61	18.590
511.95	19.082
512.30	18.661
512.64	18.741
512.98	19.810
513.33	19.960
513.67	19.225
514.02	19.264
514.36	19.591
514.70	19.427
515.05	19.864
515.39	19.213
515.74	19.989
516.08	19.229
516.42	19.937
516.77	19.611
517.11	19.237
517.46	19.618
517.80	19.989
518.14	20.348
518.49	20.282
518.83	19.425
519.17	19.709
519.52	20.231
519.86	19.747
520.20	19.968
520.55	19.332
520.89	19.820
521.23	20.212
521.58	19.209
521.92	20.510
522.26	19.874
522.61	19.850
522.95	20.358
523.29	19.023
523.64	19.731
523.98	21.278
524.32	20.688
524.66	20.262
525.01	18.969
525.35	19.070
525.69	19.780
526.04	20.379
526.38	19.828
526.72	20.415
527.06	20.117
527.41	20.875
527.75	19.834
528.09	20.897
528.43	18.887
528.78	19.075
529.12	19.954
529.46	20.686
529.80	20.366
530.15	19.188
530.49	20.878
530.83	20.366
531.17	20.490
531.51	19.795
531.86	20.553
532.20	19.939
532.54	19.988
532.88	20.606
533.22	20.448
533.57	20.196
533.91	19.921
534.25	19.729
534.59	19.943
534.93	19.242
535.27	20.113
535.62	20.409
535.96	20.802
536.30	19.859
536.64	20.360
536.98	20.357
537.32	21.235
537.66	20.586
538.01	19.819
538.35	19.854
538.69	20.853
539.03	20.417
539.37	20.436
539.71	20.601
540.05	20.084
540.39	20.477
540.73	19.672
541.07	20.478
541.42	20.083
541.76	19.988
542.10	19.723
542.44	19.976
542.78	20.438
543.12	20.322
543.46	21.123
543.80	19.484
544.14	20.227
544.48	20.272
544.82	20.706
545.16	20.155
545.50	19.772
545.84	19.718
546.18	21.111
546.52	20.637
546.86	19.937
547.20	20.102
547.54	20.287
547.88	19.711
548.22	19.766
548.56	19.719
548.90	19.642
549.24	19.878
549.58	20.757
549.92	19.196
550.26	20.971
550.60	20.102
550.94	20.375
551.28	19.868
551.62	20.350
551.96	20.194
552.30	20.778
552.64	20.722
552.98	20.649
553.32	20.707
553.66	20.450
554.00	20.366
554.34	20.914
554.68	19.690
555.02	20.894
555.36	20.644
555.69	20.179
556.03	20.177
556.37	21.151
556.71	20.038
557.05	20.511
557.39	20.969
557.73	20.343
558.07	20.331
558.41	21.528
558.75	21.433
559.08	20.668
559.42	19.959
559.76	21.167
560.10	21.634
560.44	21.042
560.78	20.312
561.12	20.751
561.45	20.012
561.79	20.818
562.13	20.887
562.47	20.099
562.81	20.380
563.15	20.518
563.48	20.510
563.82	20.133
564.16	20.351
564.50	19.905
564.84	20.000
565.17	20.647
565.51	19.965
565.85	20.131
566.19	19.412
566.52	20.012
566.86	20.430
567.20	19.141
567.54	20.234
567.88	20.387
568.21	19.960
568.55	20.240
568.89	19.882
569.23	20.110
569.56	19.304
569.90	19.565
570.24	19.595
570.57	18.858
570.91	19.902
571.25	19.034
571.59	19.621
571.92	19.110
572.26	18.952
572.60	19.383
572.93	19.649
573.27	19.275
573.61	19.111
573.95	19.155
574.28	19.154
574.62	18.872
574.96	18.593
575.29	18.727
575.63	19.011
575.97	19.114
576.30	18.381
576.64	19.017
576.98	18.724
577.31	18.638
577.65	19.150
577.98	18.656
578.32	18.753
578.66	18.338
578.99	18.104
579.33	19.164
579.67	18.495
580.00	18.746
580.34	18.695
580.67	18.535
581.01	18.650
581.35	18.664
581.68	18.758
582.02	18.290
582.35	18.859
582.69	18.525
583.02	18.669
583.36	19.059
583.70	19.132
584.03	19.078
584.37	19.032
584.70	18.606
585.04	18.624
585.37	18.913
585.71	18.857
586.04	18.472
586.38	18.547
586.72	18.451
587.05	19.084
587.39	18.848
587.72	19.258
588.06	18.883
588.39	18.546
588.73	18.598
589.06	18.962
589.40	19.422
589.73	18.927
590.07	19.231
590.40	19.270
590.73	19.265
591.07	19.583
591.40	18.740
591.74	19.316
592.07	19.732
592.41	19.085
592.74	18.921
593.08	18.758
593.41	18.810
593.75	18.879
594.08	19.055
594.41	18.814
594.75	19.130
595.08	18.674
595.42	18.799
595.75	19.115
596.09	19.620
596.42	19.635
596.75	19.298
597.09	20.444
597.42	19.190
597.75	19.326
598.09	19.841
598.42	19.220
598.76	18.838
599.09	19.295
599.42	19.041
599.76	18.818
600.09	19.186
600.42	19.486
600.76	19.320
601.09	19.250
601.42	18.572
601.76	19.034
602.09	19.049
602.42	19.048
602.76	19.225
603.09	19.457
603.42	19.581
603.76	18.781
604.09	19.482
604.42	19.083
604.76	19.064
605.09	18.987
605.42	19.099
605.75	19.346
606.09	19.112
606.42	18.825
606.75	18.928
607.09	18.971
607.42	19.114
607.75	19.422
608.08	19.219
608.42	19.549
608.75	19.196
609.08	18.846
609.41	19.497
609.75	19.688
610.08	19.921
610.41	19.159
610.74	19.118
611.07	19.671
611.41	20.448
611.74	19.677
612.07	20.056
612.40	19.629
612.73	19.658
613.07	19.120
613.40	19.923
613.73	19.547
614.06	19.725
614.39	19.242
614.72	20.039
615.06	19.249
615.39	19.333
615.72	18.626
616.05	19.767
616.38	20.535
616.71	20.063
617.05	19.329
617.38	20.706
617.71	20.518
618.04	19.806
618.37	20.874
618.70	20.023
619.03	19.474
619.36	20.160
619.69	19.731
620.03	20.653
620.36	20.368
620.69	19.988
621.02	20.210
621.35	21.190
621.68	21.547
622.01	20.712
622.34	20.921
622.67	20.137
623.00	18.893
623.33	20.504
623.66	21.660
623.99	20.211
624.32	20.793
624.65	20.335
624.99	21.131
625.32	21.359
625.65	20.432
625.98	20.203
626.31	20.411
626.64	20.586
626.97	20.705
627.30	20.577
627.63	20.255
627.96	21.922
628.29	20.700
628.62	20.235
628.95	21.472
629.28	20.986
629.61	23.148
629.94	22.092
630.26	20.763
630.59	21.589
630.92	21.905
631.25	22.093
631.58	22.693
631.91	21.275
632.24	21.326
632.57	21.252
632.90	21.866
633.23	20.408
633.56	22.959
633.89	21.591
634.22	23.805
