SpectraSuite Data File
++++++++++++++++++++++++++++++++++++
Date: Thu May 14 16:38:09 PDT 2015
User: schluterlab
Dark Spectrum Present: Yes
Reference Spectrum Present: Yes
Number of Sampled Component Spectra: 1
Spectrometers: USB2E3373
Integration Time (usec): 3000 (USB2E3373)
Spectra Averaged: 3 (USB2E3373)
Boxcar Smoothing: 0 (USB2E3373)
Correct for Electrical Dark: No (USB2E3373)
Strobe/Lamp Enabled: No (USB2E3373)
Correct for Detector Non-linearity: No (USB2E3373)
Correct for Stray Light: No (USB2E3373)
Number of Pixels in Processed Spectrum: 2048
>>>>>Begin Processed Spectral Data<<<<<
178.53	0.000
178.91	71.429
179.29	-1900.000
179.67	-1200.000
180.04	164.286
180.42	40.000
180.80	-0.000
181.18	-100.000
181.56	600.000
181.94	250.000
182.31	175.000
182.69	66.667
183.07	-150.000
183.45	200.000
183.83	-33.333
184.20	-200.000
184.58	800.000
184.96	-100.000
185.34	-33.333
185.72	-120.000
186.09	177.778
186.47	550.000
186.85	180.000
187.23	-100.000
187.61	-200.000
187.98	40.000
188.36	100.000
188.74	-300.000
189.12	-66.667
189.49	6.250
189.87	-50.000
190.25	66.667
190.63	80.000
191.00	-22.222
191.38	0.000
191.76	-200.000
192.14	-50.000
192.51	-150.000
192.89	183.333
193.27	0.000
193.65	-71.429
194.02	-1400.000
194.40	-114.286
194.78	28.571
195.15	0.000
195.53	72.727
195.91	0.000
196.29	125.000
196.66	-61.538
197.04	-800.000
197.42	42.857
197.79	-500.000
198.17	-25.000
198.55	71.429
198.92	100.000
199.30	-25.000
199.68	9.091
200.05	35.714
200.43	-200.000
200.81	85.714
201.18	0.000
201.56	155.556
201.94	0.000
202.31	266.667
202.69	-44.444
203.07	-400.000
203.44	11.111
203.82	-25.000
204.19	16.667
204.57	-66.667
204.95	-100.000
205.32	0.000
205.70	100.000
206.08	250.000
206.45	200.000
206.83	140.000
207.20	100.000
207.58	-120.000
207.96	-116.667
208.33	-33.333
208.71	58.333
209.08	66.667
209.46	0.000
209.84	100.000
210.21	-200.000
210.59	-100.000
210.96	333.333
211.34	75.000
211.71	-25.000
212.09	-600.000
212.46	0.000
212.84	550.000
213.22	-160.000
213.59	25.000
213.97	-60.000
214.34	33.333
214.72	50.000
215.09	100.000
215.47	0.000
215.84	28.571
216.22	250.000
216.59	-20.000
216.97	-240.000
217.34	100.000
217.72	12.500
218.09	-125.000
218.47	-225.000
218.84	0.000
219.22	-80.000
219.59	17.647
219.97	30.000
220.34	200.000
220.72	-33.333
221.09	84.615
221.47	-133.333
221.84	-10.000
222.22	-100.000
222.59	0.000
222.97	12.500
223.34	-140.000
223.72	300.000
224.09	25.000
224.46	-425.000
224.84	-40.000
225.21	-28.571
225.59	-325.000
225.96	-125.000
226.34	23.077
226.71	183.333
227.08	-500.000
227.46	13.333
227.83	-125.000
228.21	15.789
228.58	162.500
228.95	550.000
229.33	116.667
229.70	150.000
230.08	78.947
230.45	-50.000
230.82	66.667
231.20	57.143
231.57	58.333
231.95	-18.182
232.32	45.455
232.69	55.000
233.07	-100.000
233.44	-41.176
233.81	30.000
234.19	72.222
234.56	13.636
234.93	41.379
235.31	31.579
235.68	-5.556
236.05	35.000
236.43	34.615
236.80	76.000
237.17	18.519
237.55	45.455
237.92	30.000
238.29	6.452
238.67	20.455
239.04	30.556
239.41	21.429
239.79	34.783
240.16	20.370
240.53	19.565
240.91	19.608
241.28	26.230
241.65	41.791
242.02	25.676
242.40	27.692
242.77	18.667
243.14	15.854
243.51	18.421
243.89	28.205
244.26	24.752
244.63	32.353
245.00	27.103
245.38	24.561
245.75	23.009
246.12	30.952
246.49	30.233
246.87	27.143
247.24	33.113
247.61	31.579
247.98	28.188
248.36	17.284
248.73	29.448
249.10	30.055
249.47	30.846
249.84	32.461
250.22	29.016
250.59	34.444
250.96	32.727
251.33	28.061
251.70	29.060
252.08	32.500
252.45	31.557
252.82	21.074
253.19	30.078
253.56	30.418
253.94	28.077
254.31	29.167
254.68	30.769
255.05	29.967
255.42	30.612
255.79	29.773
256.16	30.464
256.54	29.139
256.91	28.197
257.28	27.213
257.65	27.389
258.02	26.549
258.39	30.769
258.76	33.945
259.14	31.322
259.51	33.718
259.88	29.745
260.25	29.167
260.62	33.425
260.99	32.787
261.36	32.172
261.73	29.708
262.10	32.692
262.47	34.048
262.85	31.566
263.22	27.792
263.59	26.053
263.96	30.435
264.33	29.412
264.70	30.123
265.07	32.458
265.44	31.973
265.81	28.704
266.18	29.705
266.55	30.134
266.92	27.563
267.29	30.635
267.66	29.712
268.03	30.786
268.40	29.645
268.77	31.207
269.14	29.515
269.51	28.728
269.88	31.352
270.25	29.175
270.62	32.911
270.99	33.131
271.36	31.881
271.73	29.470
272.10	32.064
272.47	29.459
272.84	28.514
273.21	29.860
273.58	32.056
273.95	25.769
274.32	27.947
274.69	26.886
275.06	30.586
275.43	27.172
275.80	30.688
276.17	29.259
276.54	27.799
276.91	27.728
277.28	30.018
277.65	32.316
278.02	30.699
278.39	27.899
278.76	28.295
279.13	28.546
279.50	29.897
279.87	28.801
280.23	25.000
280.60	30.678
280.97	29.441
281.34	29.881
281.71	29.442
282.08	30.066
282.45	27.169
282.82	27.943
283.19	28.918
283.56	26.885
283.92	29.880
284.29	29.858
284.66	28.900
285.03	24.679
285.40	27.512
285.77	30.031
286.14	28.397
286.51	27.549
286.87	26.856
287.24	26.958
287.61	27.952
287.98	26.284
288.35	28.254
288.72	29.142
289.08	26.501
289.45	24.556
289.82	26.355
290.19	26.868
290.56	26.761
290.93	26.534
291.29	24.793
291.66	26.722
292.03	24.559
292.40	25.306
292.77	24.798
293.13	24.763
293.50	24.310
293.87	23.893
294.24	25.200
294.60	25.032
294.97	21.074
295.34	24.456
295.71	24.590
296.08	23.127
296.44	23.407
296.81	24.604
297.18	21.669
297.55	22.406
297.91	23.132
298.28	23.104
298.65	24.138
299.02	22.786
299.38	23.112
299.75	22.780
300.12	23.148
300.48	23.041
300.85	21.822
301.22	23.154
301.59	21.804
301.95	21.356
302.32	22.111
302.69	22.234
303.05	22.198
303.42	21.729
303.79	21.771
304.15	22.397
304.52	21.987
304.89	22.723
305.25	22.671
305.62	21.421
305.99	22.165
306.35	21.673
306.72	22.751
307.09	21.624
307.45	21.739
307.82	21.897
308.19	22.603
308.55	22.565
308.92	23.466
309.29	20.977
309.65	21.442
310.02	21.881
310.38	22.933
310.75	23.107
311.12	23.490
311.48	22.190
311.85	23.742
312.22	22.770
312.58	23.099
312.95	24.379
313.31	24.119
313.68	24.634
314.05	24.300
314.41	25.319
314.78	24.886
315.14	26.770
315.51	27.054
315.87	27.723
316.24	25.479
316.61	27.798
316.97	27.602
317.34	26.896
317.70	29.083
318.07	28.748
318.43	28.827
318.80	30.435
319.16	30.558
319.53	29.734
319.89	29.886
320.26	31.228
320.62	32.181
320.99	33.333
321.35	35.213
321.72	35.349
322.08	35.347
322.45	37.669
322.81	39.260
323.18	39.204
323.54	38.621
323.91	41.370
324.27	40.361
324.64	41.562
325.00	41.874
325.37	43.489
325.73	45.702
326.10	45.985
326.46	46.173
326.83	48.839
327.19	47.717
327.56	49.565
327.92	50.197
328.29	50.081
328.65	50.670
329.01	53.807
329.38	54.676
329.74	55.993
330.11	57.705
330.47	55.939
330.84	56.675
331.20	55.667
331.56	56.932
331.93	58.159
332.29	59.068
332.66	57.973
333.02	56.700
333.38	57.466
333.75	57.828
334.11	58.048
334.48	58.746
334.84	60.408
335.20	58.606
335.57	60.961
335.93	58.760
336.29	58.236
336.66	62.237
337.02	60.201
337.38	61.310
337.75	61.570
338.11	61.817
338.47	61.869
338.84	60.829
339.20	61.078
339.56	59.308
339.93	61.494
340.29	58.937
340.65	59.692
341.02	60.255
341.38	60.954
341.74	60.856
342.11	61.545
342.47	59.809
342.83	61.997
343.20	63.205
343.56	62.550
343.92	61.089
344.28	62.891
344.65	60.698
345.01	60.764
345.37	63.530
345.73	60.951
346.10	61.232
346.46	62.658
346.82	61.199
347.19	61.345
347.55	62.747
347.91	61.664
348.27	61.533
348.63	62.452
349.00	61.223
349.36	61.115
349.72	60.417
350.08	62.704
350.45	63.194
350.81	62.519
351.17	62.857
351.53	62.926
351.89	62.718
352.26	63.731
352.62	62.090
352.98	64.427
353.34	62.435
353.70	64.638
354.07	62.668
354.43	62.642
354.79	64.248
355.15	63.061
355.51	63.889
355.87	63.500
356.24	64.943
356.60	63.562
356.96	64.047
357.32	63.271
357.68	63.690
358.04	63.024
358.40	64.627
358.77	65.132
359.13	65.436
359.49	64.387
359.85	65.120
360.21	64.347
360.57	64.968
360.93	64.739
361.29	65.684
361.66	64.518
362.02	66.319
362.38	66.339
362.74	66.271
363.10	66.850
363.46	66.898
363.82	66.406
364.18	67.769
364.54	66.044
364.90	67.492
365.26	67.586
365.62	66.133
365.98	65.623
366.35	67.517
366.71	67.959
367.07	66.171
367.43	66.054
367.79	67.618
368.15	68.094
368.51	68.065
368.87	66.362
369.23	66.533
369.59	68.648
369.95	68.492
370.31	69.278
370.67	68.088
371.03	68.421
371.39	67.764
371.75	69.532
372.11	68.902
372.47	68.314
372.83	67.670
373.19	67.912
373.55	67.886
373.91	67.962
374.27	69.082
374.63	70.974
374.99	68.369
375.35	69.870
375.71	70.387
376.07	69.787
376.42	69.144
376.78	70.044
377.14	69.183
377.50	72.106
377.86	69.273
378.22	69.880
378.58	69.798
378.94	69.073
379.30	69.010
379.66	70.312
380.02	71.437
380.38	70.334
380.74	70.761
381.09	72.009
381.45	69.659
381.81	70.433
382.17	70.665
382.53	69.474
382.89	71.106
383.25	70.868
383.61	70.544
383.97	70.966
384.32	70.933
384.68	71.172
385.04	71.082
385.40	71.126
385.76	70.985
386.12	69.599
386.48	70.176
386.83	70.739
387.19	70.568
387.55	69.425
387.91	71.918
388.27	70.092
388.62	69.874
388.98	70.107
389.34	71.951
389.70	71.005
390.06	69.923
390.42	71.084
390.77	70.680
391.13	69.836
391.49	72.585
391.85	71.576
392.20	71.056
392.56	70.348
392.92	70.502
393.28	70.813
393.64	68.771
393.99	70.192
394.35	71.320
394.71	70.659
395.07	69.880
395.42	69.732
395.78	72.212
396.14	69.935
396.50	70.309
396.85	69.648
397.21	70.947
397.57	70.082
397.92	70.790
398.28	69.039
398.64	69.508
399.00	68.848
399.35	70.209
399.71	69.022
400.07	69.961
400.42	70.780
400.78	69.850
401.14	69.493
401.49	69.528
401.85	70.174
402.21	70.742
402.57	70.481
402.92	70.567
403.28	67.506
403.63	69.212
403.99	67.933
404.35	68.391
404.70	68.385
405.06	68.370
405.42	67.330
405.77	69.466
406.13	68.179
406.49	67.736
406.84	67.645
407.20	69.424
407.55	68.928
407.91	67.693
408.27	67.962
408.62	68.005
408.98	67.963
409.34	67.742
409.69	69.407
410.05	68.347
410.40	68.735
410.76	68.368
411.11	68.556
411.47	68.366
411.83	68.019
412.18	69.096
412.54	68.287
412.89	68.685
413.25	67.833
413.60	67.547
413.96	68.706
414.31	66.629
414.67	67.442
415.03	66.892
415.38	67.970
415.74	67.929
416.09	68.415
416.45	67.188
416.80	67.931
417.16	69.093
417.51	67.621
417.87	68.118
418.22	67.844
418.58	67.348
418.93	67.928
419.29	68.989
419.64	67.587
420.00	68.487
420.35	67.378
420.71	67.433
421.06	67.510
421.42	68.406
421.77	66.667
422.12	67.019
422.48	67.332
422.83	68.675
423.19	68.700
423.54	68.971
423.90	67.642
424.25	68.373
424.61	68.140
424.96	69.412
425.31	70.011
425.67	68.760
426.02	70.227
426.38	68.542
426.73	67.801
427.09	70.300
427.44	67.613
427.79	69.486
428.15	69.406
428.50	68.989
428.85	69.346
429.21	70.585
429.56	69.003
429.92	68.059
430.27	68.771
430.62	70.200
430.98	68.323
431.33	68.133
431.68	68.199
432.04	69.528
432.39	69.684
432.74	69.463
433.10	70.038
433.45	70.011
433.80	71.245
434.16	69.473
434.51	70.144
434.86	71.118
435.22	70.670
435.57	70.873
435.92	71.341
436.28	70.819
436.63	71.600
436.98	69.243
437.34	71.195
437.69	70.391
438.04	68.905
438.39	69.730
438.75	71.002
439.10	71.829
439.45	71.269
439.81	70.339
440.16	70.295
440.51	70.457
440.86	69.761
441.22	70.740
441.57	70.335
441.92	69.884
442.27	70.960
442.63	70.740
442.98	72.092
443.33	70.068
443.68	70.020
444.03	72.719
444.39	71.937
444.74	72.078
445.09	70.958
445.44	71.338
445.79	71.839
446.15	71.840
446.50	70.388
446.85	71.304
447.20	71.132
447.55	71.444
447.91	70.262
448.26	70.349
448.61	71.679
448.96	72.747
449.31	69.936
449.66	70.479
450.02	70.886
450.37	71.710
450.72	71.098
451.07	70.558
451.42	71.115
451.77	71.206
452.12	72.009
452.47	71.777
452.83	73.423
453.18	70.811
453.53	71.626
453.88	71.507
454.23	71.299
454.58	72.026
454.93	71.541
455.28	72.486
455.63	71.291
455.98	71.173
456.34	71.319
456.69	72.369
457.04	72.577
457.39	72.284
457.74	71.980
458.09	71.389
458.44	70.205
458.79	71.325
459.14	69.376
459.49	71.590
459.84	71.931
460.19	71.016
460.54	72.345
460.89	71.361
461.24	70.977
461.59	72.662
461.94	70.964
462.29	72.732
462.64	71.575
462.99	72.442
463.34	73.783
463.69	70.868
464.04	72.485
464.39	72.309
464.74	69.897
465.09	71.165
465.44	71.298
465.79	70.650
466.14	69.932
466.49	71.263
466.84	71.570
467.19	71.792
467.54	71.269
467.89	71.609
468.24	72.410
468.59	71.453
468.94	71.620
469.29	71.206
469.64	72.664
469.99	72.721
470.34	72.339
470.68	74.436
471.03	73.477
471.38	74.035
471.73	74.512
472.08	75.127
472.43	72.787
472.78	73.615
473.13	73.831
473.48	73.837
473.83	74.173
474.17	72.685
474.52	73.842
474.87	73.367
475.22	72.958
475.57	73.001
475.92	72.524
476.27	72.471
476.61	73.209
476.96	72.993
477.31	74.059
477.66	75.026
478.01	73.971
478.36	73.180
478.70	73.399
479.05	75.409
479.40	74.284
479.75	73.727
480.10	73.330
480.45	73.428
480.79	74.104
481.14	72.381
481.49	72.876
481.84	72.237
482.19	74.065
482.53	74.027
482.88	73.815
483.23	73.544
483.58	73.624
483.92	73.005
484.27	72.947
484.62	70.751
484.97	73.484
485.31	70.820
485.66	66.487
486.01	65.466
486.36	65.957
486.70	68.690
487.05	70.701
487.40	70.583
487.75	70.712
488.09	71.231
488.44	70.684
488.79	71.636
489.13	71.325
489.48	71.806
489.83	71.268
490.17	71.932
490.52	71.716
490.87	73.773
491.22	73.830
491.56	73.208
491.91	73.877
492.26	71.917
492.60	72.934
492.95	73.322
493.30	72.792
493.64	72.974
493.99	73.070
494.34	71.516
494.68	71.949
495.03	72.511
495.37	74.257
495.72	74.014
496.07	72.962
496.41	72.673
496.76	73.061
497.11	73.885
497.45	72.162
497.80	73.167
498.14	72.018
498.49	74.173
498.84	73.126
499.18	73.864
499.53	73.408
499.87	73.407
500.22	72.351
500.56	72.335
500.91	74.233
501.26	74.227
501.60	72.912
501.95	73.296
502.29	74.375
502.64	74.683
502.98	72.692
503.33	73.089
503.67	72.133
504.02	74.168
504.36	75.290
504.71	74.322
505.06	74.125
505.40	74.817
505.75	73.543
506.09	74.079
506.44	75.116
506.78	75.734
507.13	75.657
507.47	75.651
507.82	75.237
508.16	76.434
508.51	74.730
508.85	76.429
509.19	76.599
509.54	76.945
509.88	76.202
510.23	76.299
510.57	77.235
510.92	76.343
511.26	76.527
511.61	76.533
511.95	77.160
512.30	78.336
512.64	77.561
512.98	78.789
513.33	79.536
513.67	78.990
514.02	79.407
514.36	80.716
514.70	80.260
515.05	79.406
515.39	79.895
515.74	80.170
516.08	80.296
516.42	80.272
516.77	81.651
517.11	79.474
517.46	80.064
517.80	82.843
518.14	83.025
518.49	82.484
518.83	80.734
519.17	81.960
519.52	81.027
519.86	81.521
520.20	81.949
520.55	82.530
520.89	83.390
521.23	82.524
521.58	84.294
521.92	83.683
522.26	83.333
522.61	85.880
522.95	84.775
523.29	85.747
523.64	84.249
523.98	85.225
524.32	86.648
524.66	84.690
525.01	84.315
525.35	84.951
525.69	85.615
526.04	83.525
526.38	85.977
526.72	85.121
527.06	87.977
527.41	86.531
527.75	86.758
528.09	88.076
528.43	86.146
528.78	86.647
529.12	85.780
529.46	85.441
529.80	86.613
530.15	85.913
530.49	86.595
530.83	86.482
531.17	88.650
531.51	88.327
531.86	88.882
532.20	88.659
532.54	87.612
532.88	88.788
533.22	85.268
533.57	86.497
533.91	85.971
534.25	86.207
534.59	85.805
534.93	85.173
535.27	85.803
535.62	85.901
535.96	87.798
536.30	86.369
536.64	88.288
536.98	88.684
537.32	86.543
537.66	88.022
538.01	84.955
538.35	87.637
538.69	85.998
539.03	88.167
539.37	84.629
539.71	86.426
540.05	86.691
540.39	86.430
540.73	86.157
541.07	87.799
541.42	86.297
541.76	85.706
542.10	86.369
542.44	86.480
542.78	86.679
543.12	85.459
543.46	85.653
543.80	84.832
544.14	85.937
544.48	87.943
544.82	87.493
545.16	86.404
545.50	85.980
545.84	86.834
546.18	87.654
546.52	85.605
546.86	87.107
547.20	87.087
547.54	85.268
547.88	84.509
548.22	84.912
548.56	85.898
548.90	87.045
549.24	86.261
549.58	86.751
549.92	86.033
550.26	85.955
550.60	86.599
550.94	86.934
551.28	86.997
551.62	88.275
551.96	86.278
552.30	86.297
552.64	84.630
552.98	85.839
553.32	87.846
553.66	86.045
554.00	86.570
554.34	86.358
554.68	83.280
555.02	87.122
555.36	86.654
555.69	83.600
556.03	84.994
556.37	85.357
556.71	84.211
557.05	86.518
557.39	86.463
557.73	85.931
558.07	87.748
558.41	86.910
558.75	85.666
559.08	86.360
559.42	86.283
559.76	85.075
560.10	85.867
560.44	83.773
560.78	86.062
561.12	84.791
561.45	84.915
561.79	84.493
562.13	84.535
562.47	84.155
562.81	84.304
563.15	83.081
563.48	84.152
563.82	83.978
564.16	83.162
564.50	83.194
564.84	81.593
565.17	82.235
565.51	79.862
565.85	83.492
566.19	83.410
566.52	83.265
566.86	80.589
567.20	80.750
567.54	80.616
567.88	80.785
568.21	80.237
568.55	80.240
568.89	78.075
569.23	77.905
569.56	76.202
569.90	75.659
570.24	75.548
570.57	74.086
570.91	73.056
571.25	72.520
571.59	71.945
571.92	71.988
572.26	71.202
572.60	71.772
572.93	71.945
573.27	72.408
573.61	71.758
573.95	71.085
574.28	69.843
574.62	70.214
574.96	68.615
575.29	68.804
575.63	70.085
575.97	69.940
576.30	68.813
576.64	68.957
576.98	67.995
577.31	69.076
577.65	69.563
577.98	67.997
578.32	67.512
578.66	67.452
578.99	67.766
579.33	68.964
579.67	67.792
580.00	67.948
580.34	67.561
580.67	67.807
581.01	68.239
581.35	66.667
581.68	66.034
582.02	66.140
582.35	66.968
582.69	67.636
583.02	66.903
583.36	68.412
583.70	68.371
584.03	68.299
584.37	68.205
584.70	68.215
585.04	67.449
585.37	67.521
585.71	66.537
586.04	66.513
586.38	66.272
586.72	67.661
587.05	68.509
587.39	67.789
587.72	67.847
588.06	67.722
588.39	67.289
588.73	67.275
589.06	69.300
589.40	69.822
589.73	69.248
590.07	69.794
590.40	69.574
590.73	69.388
591.07	70.737
591.40	69.401
591.74	69.555
592.07	69.915
592.41	68.849
592.74	69.258
593.08	67.643
593.41	67.658
593.75	67.586
594.08	68.282
594.41	68.365
594.75	67.818
595.08	67.261
595.42	67.597
595.75	67.323
596.09	68.485
596.42	68.685
596.75	70.012
597.09	70.667
597.42	68.772
597.75	67.699
598.09	67.857
598.42	67.994
598.76	67.520
599.09	66.785
599.42	66.175
599.76	65.599
600.09	66.600
600.42	66.400
600.76	66.480
601.09	65.118
601.42	65.774
601.76	66.379
602.09	66.655
602.42	66.921
602.76	66.125
603.09	67.070
603.42	67.377
603.76	66.173
604.09	66.501
604.42	67.596
604.76	66.324
605.09	67.132
605.42	66.427
605.75	66.500
606.09	66.853
606.42	65.086
606.75	65.705
607.09	65.438
607.42	65.549
607.75	66.002
608.08	66.417
608.42	65.578
608.75	67.206
609.08	66.935
609.41	67.975
609.75	66.741
610.08	67.678
610.41	65.973
610.74	66.639
611.07	67.584
611.41	66.368
611.74	67.667
612.07	67.508
612.40	68.108
612.73	68.802
613.07	68.215
613.40	67.661
613.73	67.694
614.06	68.253
614.39	66.764
614.72	67.783
615.06	67.421
615.39	66.409
615.72	66.777
616.05	66.100
616.38	68.113
616.71	68.077
617.05	67.519
617.38	67.737
617.71	68.359
618.04	68.699
618.37	69.399
618.70	68.722
619.03	70.131
619.36	70.715
619.69	68.738
620.03	69.931
620.36	68.589
620.69	70.204
621.02	70.866
621.35	72.932
621.68	73.030
622.01	70.961
622.34	70.781
622.67	70.309
623.00	69.096
623.33	70.405
623.66	70.363
623.99	68.466
624.32	70.435
624.65	69.241
624.99	71.847
625.32	70.542
625.65	70.196
625.98	69.966
626.31	70.446
626.64	72.454
626.97	71.343
627.30	70.387
627.63	71.118
627.96	73.123
628.29	72.451
628.62	72.712
628.95	75.460
629.28	73.832
629.61	73.653
629.94	73.054
630.26	72.797
630.59	73.057
630.92	73.506
631.25	74.508
631.58	75.518
631.91	75.633
632.24	76.657
632.57	73.814
632.90	74.925
633.23	76.224
633.56	76.122
633.89	75.930
