SpectraSuite Data File
++++++++++++++++++++++++++++++++++++
Date: Thu May 14 16:36:15 PDT 2015
User: schluterlab
Dark Spectrum Present: Yes
Reference Spectrum Present: Yes
Number of Sampled Component Spectra: 1
Spectrometers: USB2E3373
Integration Time (usec): 3000 (USB2E3373)
Spectra Averaged: 3 (USB2E3373)
Boxcar Smoothing: 0 (USB2E3373)
Correct for Electrical Dark: No (USB2E3373)
Strobe/Lamp Enabled: No (USB2E3373)
Correct for Detector Non-linearity: No (USB2E3373)
Correct for Stray Light: No (USB2E3373)
Number of Pixels in Processed Spectrum: 2048
>>>>>Begin Processed Spectral Data<<<<<
178.53	0.000
178.91	42.857
179.29	-1200.000
179.67	-1100.000
180.04	114.286
180.42	10.000
180.80	80.000
181.18	-700.000
181.56	1100.000
181.94	25.000
182.31	125.000
182.69	233.333
183.07	-300.000
183.45	200.000
183.83	-16.667
184.20	-300.000
184.58	400.000
184.96	-125.000
185.34	0.000
185.72	-60.000
186.09	188.889
186.47	450.000
186.85	200.000
187.23	-111.111
187.61	-1300.000
187.98	100.000
188.36	450.000
188.74	-250.000
189.12	-266.667
189.49	-31.250
189.87	-112.500
190.25	33.333
190.63	-140.000
191.00	-177.778
191.38	0.000
191.76	-250.000
192.14	16.667
192.51	250.000
192.89	-66.667
193.27	0.000
193.65	-85.714
194.02	-800.000
194.40	-42.857
194.78	171.429
195.15	0.000
195.53	-81.818
195.91	0.000
196.29	-125.000
196.66	23.077
197.04	-1000.000
197.42	-57.143
197.79	-150.000
198.17	-12.500
198.55	-85.714
198.92	-22.222
199.30	-87.500
199.68	0.000
200.05	14.286
200.43	-700.000
200.81	257.143
201.18	0.000
201.56	200.000
201.94	0.000
202.31	133.333
202.69	-44.444
203.07	-1900.000
203.44	-33.333
203.82	-150.000
204.19	33.333
204.57	-83.333
204.95	-37.500
205.32	-800.000
205.70	-0.000
206.08	-83.333
206.45	-133.333
206.83	220.000
207.20	50.000
207.58	-180.000
207.96	-16.667
208.33	-66.667
208.71	116.667
209.08	16.667
209.46	0.000
209.84	133.333
210.21	-450.000
210.59	100.000
210.96	300.000
211.34	125.000
211.71	-50.000
212.09	-600.000
212.46	0.000
212.84	900.000
213.22	-20.000
213.59	-75.000
213.97	40.000
214.34	-100.000
214.72	100.000
215.09	-175.000
215.47	0.000
215.84	100.000
216.22	350.000
216.59	20.000
216.97	-100.000
217.34	-200.000
217.72	-100.000
218.09	-425.000
218.47	-300.000
218.84	0.000
219.22	180.000
219.59	-5.882
219.97	-25.000
220.34	300.000
220.72	-100.000
221.09	23.077
221.47	266.667
221.84	30.000
222.22	28.571
222.59	0.000
222.97	37.500
223.34	-300.000
223.72	-900.000
224.09	-200.000
224.46	0.000
224.84	80.000
225.21	42.857
225.59	-375.000
225.96	-100.000
226.34	-19.231
226.71	216.667
227.08	-350.000
227.46	-46.667
227.83	-150.000
228.21	-15.789
228.58	-25.000
228.95	500.000
229.33	0.000
229.70	50.000
230.08	63.158
230.45	100.000
230.82	200.000
231.20	21.429
231.57	-33.333
231.95	-90.909
232.32	-36.364
232.69	5.000
233.07	50.000
233.44	0.000
233.81	-30.000
234.19	50.000
234.56	-22.727
234.93	13.793
235.31	15.789
235.68	11.111
236.05	-65.000
236.43	15.385
236.80	48.000
237.17	-25.926
237.55	0.000
237.92	-140.000
238.29	-41.935
238.67	-2.273
239.04	8.333
239.41	-7.143
239.79	6.522
240.16	20.370
240.53	6.522
240.91	-7.843
241.28	-13.115
241.65	11.940
242.02	-5.405
242.40	-9.231
242.77	10.667
243.14	-9.756
243.51	-19.737
243.89	-2.564
244.26	11.881
244.63	-0.980
245.00	0.935
245.38	7.018
245.75	-3.540
246.12	3.968
246.49	1.550
246.87	2.857
247.24	4.636
247.61	6.579
247.98	8.054
248.36	4.938
248.73	0.000
249.10	8.197
249.47	12.438
249.84	10.471
250.22	2.591
250.59	3.889
250.96	8.182
251.33	4.082
251.70	8.974
252.08	7.083
252.45	10.656
252.82	0.826
253.19	5.859
253.56	6.464
253.94	3.846
254.31	3.030
254.68	7.692
255.05	11.401
255.42	4.762
255.79	5.178
256.16	9.934
256.54	5.960
256.91	5.902
257.28	5.574
257.65	6.051
258.02	5.015
258.39	6.268
258.76	9.174
259.14	7.471
259.51	7.493
259.88	5.949
260.25	7.222
260.62	7.671
260.99	8.743
261.36	8.579
261.73	6.897
262.10	9.066
262.47	4.826
262.85	9.596
263.22	4.416
263.59	3.684
263.96	6.138
264.33	6.650
264.70	6.914
265.07	6.921
265.44	9.751
265.81	7.407
266.18	10.204
266.55	6.473
266.92	3.417
267.29	7.440
267.66	6.652
268.03	9.389
268.40	7.724
268.77	5.239
269.14	5.727
269.51	7.675
269.88	6.967
270.25	6.036
270.62	7.173
270.99	8.283
271.36	7.327
271.73	6.287
272.10	7.014
272.47	6.012
272.84	5.823
273.21	8.216
273.58	6.653
273.95	6.923
274.32	4.753
274.69	5.803
275.06	6.410
275.43	4.991
275.80	6.702
276.17	5.185
276.54	6.157
276.91	7.156
277.28	5.967
277.65	7.899
278.02	7.169
278.39	6.341
278.76	6.151
279.13	5.851
279.50	8.935
279.87	7.513
280.23	5.810
280.60	9.661
280.97	5.592
281.34	6.282
281.71	6.091
282.08	5.814
282.45	5.565
282.82	6.907
283.19	5.816
283.56	4.754
283.92	8.258
284.29	7.741
284.66	6.897
285.03	4.808
285.40	7.110
285.77	6.347
286.14	7.939
286.51	5.327
286.87	5.371
287.24	7.229
287.61	8.072
287.98	6.042
288.35	5.917
288.72	6.657
289.08	7.467
289.45	6.213
289.82	4.970
290.19	6.609
290.56	5.775
290.93	6.847
291.29	5.923
291.66	5.510
292.03	5.970
292.40	7.211
292.77	6.065
293.13	6.360
293.50	5.782
293.87	4.564
294.24	6.267
294.60	6.195
294.97	3.490
295.34	6.658
295.71	5.801
296.08	4.651
296.44	5.882
296.81	5.847
297.18	5.479
297.55	4.363
297.91	4.508
298.28	3.910
298.65	6.421
299.02	5.195
299.38	6.293
299.75	4.907
300.12	5.093
300.48	4.724
300.85	5.512
301.22	4.139
301.59	3.995
301.95	5.537
302.32	6.111
302.69	5.038
303.05	5.332
303.42	6.208
303.79	4.167
304.15	5.573
304.52	4.440
304.89	5.026
305.25	5.280
305.62	5.852
305.99	6.082
306.35	4.335
306.72	4.654
307.09	5.787
307.45	5.072
307.82	4.844
308.19	5.651
308.55	5.400
308.92	4.576
309.29	4.598
309.65	3.021
310.02	4.455
310.38	4.232
310.75	4.951
311.12	5.369
311.48	4.106
311.85	3.704
312.22	4.554
312.58	4.977
312.95	4.589
313.31	4.426
313.68	5.495
314.05	5.330
314.41	6.557
314.78	4.632
315.14	5.445
315.51	4.340
315.87	5.131
316.24	5.845
316.61	7.016
316.97	3.529
317.34	4.409
317.70	4.541
318.07	4.409
318.43	5.017
318.80	6.104
319.16	4.893
319.53	4.199
319.89	4.032
320.26	4.804
320.62	4.965
320.99	5.078
321.35	4.529
321.72	5.488
322.08	3.968
322.45	4.697
322.81	4.964
323.18	4.425
323.54	5.517
323.91	5.516
324.27	5.164
324.64	5.374
325.00	5.141
325.37	5.815
325.73	4.876
326.10	5.434
326.46	5.456
326.83	5.925
327.19	5.591
327.56	5.534
327.92	5.429
328.29	5.645
328.65	5.611
329.01	4.907
329.38	4.802
329.74	5.565
330.11	5.736
330.47	5.139
330.84	4.737
331.20	6.167
331.56	4.853
331.93	5.690
332.29	5.254
332.66	6.977
333.02	6.114
333.38	4.279
333.75	4.882
334.11	5.254
334.48	5.858
334.84	5.607
335.20	5.374
335.57	6.914
335.93	5.207
336.29	5.574
336.66	4.626
337.02	5.184
337.38	5.782
337.75	5.372
338.11	5.467
338.47	5.624
338.84	4.653
339.20	4.634
339.56	5.519
339.93	5.583
340.29	6.441
340.65	6.002
341.02	5.906
341.38	5.416
341.74	5.650
342.11	5.953
342.47	5.481
342.83	4.670
343.20	5.151
343.56	4.651
343.92	5.444
344.28	5.625
344.65	4.884
345.01	5.148
345.37	5.599
345.73	4.131
346.10	5.382
346.46	4.747
346.82	5.543
347.19	5.348
347.55	5.842
347.91	5.126
348.27	4.780
348.63	5.864
349.00	5.593
349.36	4.833
349.72	5.208
350.08	5.721
350.45	4.487
350.81	4.977
351.17	4.962
351.53	4.928
351.89	5.543
352.26	4.925
352.62	4.925
352.98	4.122
353.34	5.078
353.70	5.316
354.07	4.769
354.43	4.935
354.79	4.338
355.15	5.151
355.51	5.921
355.87	4.637
356.24	5.323
356.60	4.656
356.96	4.596
357.32	5.056
357.68	4.539
358.04	4.491
358.40	5.000
358.77	5.629
359.13	4.801
359.49	4.089
359.85	4.496
360.21	4.950
360.57	5.025
360.93	4.513
361.29	4.772
361.66	4.490
362.02	4.106
362.38	4.779
362.74	4.679
363.10	5.227
363.46	4.778
363.82	3.906
364.18	4.574
364.54	4.910
364.90	4.080
365.26	3.517
365.62	5.067
365.98	3.948
366.35	4.497
366.71	4.898
367.07	5.074
367.43	4.924
367.79	4.844
368.15	5.686
368.51	5.007
368.87	5.095
369.23	5.067
369.59	4.303
369.95	4.462
370.31	5.267
370.67	4.058
371.03	4.640
371.39	3.291
371.75	4.333
372.11	5.081
372.47	4.401
372.83	5.563
373.19	5.003
373.55	4.268
373.91	4.294
374.27	4.722
374.63	4.736
374.99	3.912
375.35	4.805
375.71	4.903
376.07	4.777
376.42	4.471
376.78	4.848
377.14	4.429
377.50	4.617
377.86	5.357
378.22	4.192
378.58	4.816
378.94	4.343
379.30	3.984
379.66	4.644
380.02	4.270
380.38	5.127
380.74	5.127
381.09	4.472
381.45	4.545
381.81	5.328
382.17	4.632
382.53	4.678
382.89	5.079
383.25	4.689
383.61	4.282
383.97	4.535
384.32	4.844
384.68	4.524
385.04	5.032
385.40	4.596
385.76	4.924
386.12	4.728
386.48	5.059
386.83	4.827
387.19	5.098
387.55	3.991
387.91	4.110
388.27	4.273
388.62	4.926
388.98	4.005
389.34	5.009
389.70	4.358
390.06	4.440
390.42	4.639
390.77	4.877
391.13	4.577
391.49	4.710
391.85	4.485
392.20	5.101
392.56	4.430
392.92	5.507
393.28	4.699
393.64	4.246
393.99	5.346
394.35	4.439
394.71	5.269
395.07	4.491
395.42	4.569
395.78	5.119
396.14	4.813
396.50	4.751
396.85	4.234
397.21	4.320
397.57	4.476
397.92	4.754
398.28	4.345
398.64	4.233
399.00	3.979
399.35	4.660
399.71	4.837
400.07	4.323
400.42	4.191
400.78	4.340
401.14	5.179
401.49	5.060
401.85	4.012
402.21	5.041
402.57	4.871
402.92	4.965
403.28	3.981
403.63	4.356
403.99	3.919
404.35	4.662
404.70	4.929
405.06	4.293
405.42	4.742
405.77	4.962
406.13	4.862
406.49	4.505
406.84	4.543
407.20	5.254
407.55	4.422
407.91	5.091
408.27	4.358
408.62	4.305
408.98	4.411
409.34	3.402
409.69	4.821
410.05	4.982
410.40	4.640
410.76	4.767
411.11	5.026
411.47	5.221
411.83	5.291
412.18	5.120
412.54	5.276
412.89	4.598
413.25	4.966
413.60	5.055
413.96	5.420
414.31	4.929
414.67	4.830
415.03	4.431
415.38	4.729
415.74	4.337
416.09	5.305
416.45	5.197
416.80	4.651
417.16	4.215
417.51	4.857
417.87	4.782
418.22	4.311
418.58	3.594
418.93	5.530
419.29	4.932
419.64	4.802
420.00	4.688
420.35	5.222
420.71	5.284
421.06	4.543
421.42	5.333
421.77	4.523
422.12	5.338
422.48	5.120
422.83	4.984
423.19	4.775
423.54	4.701
423.90	4.804
424.25	5.333
424.61	3.617
424.96	5.162
425.31	5.308
425.67	4.509
426.02	4.317
426.38	5.052
426.73	4.911
427.09	5.940
427.44	4.260
427.79	4.367
428.15	4.452
428.50	4.157
428.85	4.822
429.21	5.266
429.56	4.936
429.92	5.061
430.27	4.964
430.62	4.494
430.98	4.771
431.33	4.594
431.68	4.885
432.04	4.977
432.39	5.785
432.74	4.795
433.10	5.408
433.45	4.459
433.80	4.989
434.16	4.959
434.51	4.676
434.86	4.669
435.22	5.101
435.57	4.776
435.92	5.899
436.28	5.006
436.63	4.970
436.98	4.455
437.34	4.735
437.69	4.898
438.04	5.077
438.39	4.825
438.75	4.649
439.10	5.233
439.45	4.528
439.81	4.576
440.16	4.558
440.51	4.738
440.86	4.558
441.22	5.252
441.57	5.084
441.92	4.995
442.27	5.000
442.63	5.315
442.98	5.390
443.33	5.260
443.68	5.699
444.03	5.456
444.39	5.594
444.74	5.411
445.09	4.815
445.44	5.058
445.79	4.885
446.15	4.933
446.50	5.271
446.85	5.545
447.20	5.271
447.55	5.701
447.91	4.346
448.26	5.233
448.61	5.579
448.96	5.687
449.31	5.037
449.66	5.011
450.02	5.327
450.37	5.914
450.72	4.575
451.07	5.011
451.42	5.026
451.77	5.058
452.12	5.587
452.47	4.872
452.83	5.743
453.18	4.904
453.53	5.227
453.88	5.025
454.23	5.819
454.58	5.281
454.93	5.097
455.28	5.719
455.63	6.083
455.98	5.978
456.34	5.300
456.69	5.232
457.04	5.024
457.39	5.211
457.74	5.928
458.09	5.327
458.44	6.088
458.79	5.209
459.14	5.873
459.49	5.433
459.84	5.404
460.19	4.775
460.54	5.622
460.89	5.664
461.24	4.368
461.59	6.087
461.94	4.564
462.29	5.431
462.64	5.613
462.99	5.650
463.34	4.737
463.69	6.800
464.04	5.781
464.39	4.989
464.74	5.986
465.09	5.306
465.44	4.989
465.79	5.447
466.14	5.576
466.49	5.368
466.84	5.179
467.19	4.971
467.54	4.524
467.89	4.828
468.24	5.928
468.59	4.632
468.94	5.594
469.29	5.579
469.64	5.404
469.99	4.398
470.34	5.136
470.68	4.921
471.03	4.715
471.38	5.625
471.73	5.202
472.08	4.695
472.43	5.479
472.78	5.668
473.13	4.867
473.48	6.042
473.83	5.398
474.17	5.803
474.52	5.111
474.87	5.814
475.22	5.859
475.57	4.829
475.92	5.674
476.27	5.325
476.61	5.607
476.96	4.588
477.31	5.446
477.66	5.929
478.01	5.135
478.36	5.683
478.70	5.813
479.05	5.419
479.40	4.936
479.75	5.620
480.10	5.116
480.45	5.606
480.79	5.714
481.14	5.055
481.49	5.270
481.84	5.744
482.19	4.903
482.53	5.815
482.88	5.272
483.23	5.780
483.58	5.284
483.92	4.876
484.27	5.250
484.62	5.363
484.97	5.677
485.31	5.350
485.66	5.374
486.01	5.171
486.36	5.388
486.70	5.588
487.05	5.567
487.40	5.851
487.75	5.980
488.09	5.804
488.44	5.395
488.79	5.531
489.13	5.612
489.48	4.854
489.83	5.030
490.17	5.265
490.52	5.378
490.87	5.753
491.22	4.983
491.56	5.546
491.91	5.757
492.26	5.366
492.60	5.334
492.95	5.968
493.30	5.379
493.64	5.957
493.99	5.000
494.34	4.922
494.68	5.525
495.03	5.242
495.37	5.504
495.72	4.989
496.07	5.784
496.41	5.105
496.76	5.671
497.11	4.926
497.45	5.654
497.80	5.864
498.14	5.261
498.49	4.871
498.84	4.707
499.18	5.308
499.53	5.964
499.87	5.714
500.22	4.675
500.56	4.948
500.91	5.217
501.26	5.909
501.60	4.728
501.95	5.905
502.29	5.353
502.64	5.553
502.98	5.695
503.33	5.097
503.67	5.233
504.02	5.035
504.36	5.675
504.71	5.374
505.06	5.048
505.40	5.530
505.75	5.373
506.09	5.341
506.44	5.617
506.78	5.734
507.13	5.809
507.47	5.495
507.82	5.398
508.16	5.258
508.51	4.501
508.85	5.338
509.19	5.542
509.54	5.379
509.88	5.245
510.23	6.071
510.57	5.848
510.92	5.757
511.26	5.820
511.61	5.118
511.95	5.466
512.30	5.515
512.64	5.547
512.98	5.203
513.33	5.796
513.67	5.405
514.02	5.365
514.36	5.217
514.70	5.625
515.05	5.370
515.39	5.564
515.74	5.832
516.08	6.181
516.42	6.018
516.77	5.731
517.11	5.621
517.46	5.514
517.80	6.093
518.14	5.713
518.49	5.477
518.83	5.588
519.17	4.954
519.52	5.975
519.86	6.019
520.20	5.485
520.55	5.312
520.89	5.968
521.23	5.528
521.58	5.932
521.92	4.873
522.26	5.155
522.61	5.498
522.95	5.709
523.29	5.115
523.64	5.605
523.98	6.218
524.32	5.788
524.66	5.350
525.01	5.776
525.35	4.940
525.69	5.336
526.04	5.166
526.38	4.540
526.72	5.767
527.06	5.220
527.41	6.064
527.75	6.116
528.09	5.726
528.43	4.796
528.78	4.624
529.12	5.333
529.46	5.677
529.80	6.178
530.15	5.565
530.49	5.635
530.83	5.549
531.17	5.317
531.51	6.378
531.86	5.889
532.20	5.793
532.54	5.446
532.88	5.455
533.22	5.952
533.57	5.713
533.91	6.173
534.25	5.822
534.59	5.402
534.93	5.207
535.27	6.197
535.62	6.140
535.96	6.392
536.30	5.523
536.64	5.886
536.98	5.904
537.32	5.926
537.66	5.802
538.01	6.405
538.35	5.359
538.69	4.748
539.03	5.947
539.37	5.359
539.71	6.186
540.05	5.576
540.39	5.990
540.73	5.647
541.07	5.395
541.42	6.202
541.76	5.694
542.10	6.152
542.44	5.116
542.78	5.596
543.12	5.959
543.46	5.739
543.80	5.516
544.14	5.326
544.48	5.378
544.82	5.506
545.16	5.665
545.50	5.273
545.84	6.307
546.18	7.037
546.52	5.096
546.86	5.786
547.20	5.725
547.54	5.556
547.88	5.365
548.22	5.965
548.56	5.091
548.90	5.851
549.24	5.957
549.58	5.931
549.92	5.931
550.26	5.825
550.60	6.063
550.94	5.692
551.28	6.139
551.62	6.132
551.96	6.408
552.30	5.481
552.64	5.725
552.98	5.864
553.32	5.531
553.66	4.695
554.00	5.738
554.34	6.178
554.68	5.229
555.02	5.388
555.36	5.391
555.69	4.869
556.03	4.981
556.37	5.882
556.71	6.278
557.05	5.367
557.39	5.309
557.73	6.275
558.07	5.364
558.41	5.714
558.75	5.882
559.08	5.706
559.42	5.624
559.76	5.631
560.10	4.756
560.44	5.673
560.78	6.063
561.12	5.788
561.45	6.509
561.79	5.800
562.13	5.669
562.47	5.302
562.81	4.684
563.15	5.240
563.48	5.780
563.82	5.381
564.16	5.148
564.50	5.662
564.84	6.018
565.17	6.176
565.51	5.639
565.85	5.760
566.19	5.184
566.52	5.851
566.86	6.621
567.20	5.492
567.54	5.523
567.88	5.556
568.21	6.176
568.55	5.803
568.89	5.946
569.23	6.253
569.56	5.940
569.90	5.916
570.24	5.700
570.57	5.741
570.91	5.695
571.25	5.872
571.59	5.761
571.92	5.917
572.26	5.717
572.60	5.569
572.93	6.012
573.27	5.985
573.61	5.850
573.95	6.094
574.28	6.073
574.62	5.616
574.96	5.668
575.29	5.706
575.63	6.052
575.97	6.012
576.30	5.675
576.64	5.798
576.98	5.786
577.31	5.782
577.65	5.819
577.98	5.723
578.32	5.608
578.66	5.616
578.99	5.263
579.33	5.714
579.67	5.757
580.00	5.552
580.34	5.694
580.67	5.560
581.01	6.015
581.35	5.572
581.68	5.874
582.02	5.635
582.35	5.870
582.69	5.730
583.02	5.849
583.36	5.997
583.70	5.635
584.03	5.664
584.37	5.826
584.70	5.917
585.04	5.743
585.37	5.767
585.71	5.933
586.04	5.614
586.38	5.478
586.72	5.641
587.05	5.500
587.39	5.659
587.72	5.574
588.06	5.924
588.39	5.601
588.73	5.952
589.06	5.587
589.40	5.778
589.73	5.591
590.07	5.471
590.40	6.457
590.73	5.550
591.07	6.106
591.40	5.171
591.74	5.405
592.07	6.212
592.41	5.363
592.74	5.999
593.08	6.083
593.41	5.978
593.75	5.661
594.08	5.635
594.41	5.737
594.75	5.812
595.08	5.686
595.42	5.552
595.75	5.877
596.09	5.964
596.42	5.769
596.75	5.866
597.09	5.455
597.42	5.522
597.75	5.762
598.09	6.230
598.42	6.474
598.76	5.694
599.09	6.230
599.42	5.699
599.76	6.108
600.09	5.906
600.42	5.739
600.76	5.845
601.09	5.609
601.42	5.836
601.76	6.034
602.09	5.611
602.42	5.634
602.76	6.015
603.09	5.727
603.42	6.142
603.76	5.814
604.09	6.388
604.42	5.725
604.76	5.594
605.09	5.983
605.42	5.542
605.75	5.885
606.09	5.935
606.42	5.947
606.75	5.735
607.09	5.031
607.42	5.857
607.75	5.823
608.08	5.998
608.42	6.006
608.75	5.887
609.08	5.815
609.41	5.779
609.75	5.893
610.08	6.025
610.41	5.140
610.74	5.756
611.07	5.373
611.41	6.054
611.74	6.282
612.07	6.452
612.40	5.418
612.73	5.672
613.07	6.161
613.40	6.015
613.73	6.211
614.06	6.084
614.39	5.977
614.72	6.162
615.06	5.967
615.39	5.655
615.72	5.829
616.05	5.780
616.38	6.004
616.71	5.747
617.05	5.218
617.38	6.260
617.71	5.994
618.04	6.260
618.37	5.956
618.70	5.826
619.03	5.257
619.36	6.473
619.69	5.830
620.03	5.775
620.36	5.031
620.69	4.997
621.02	6.102
621.35	5.951
621.68	7.014
622.01	6.335
622.34	5.091
622.67	6.460
623.00	4.588
623.33	6.105
623.66	5.966
623.99	4.740
624.32	6.238
624.65	5.534
624.99	5.787
625.32	5.944
625.65	5.597
625.98	4.814
626.31	5.670
626.64	6.300
626.97	5.026
627.30	4.708
627.63	5.101
627.96	6.231
628.29	4.903
628.62	4.282
628.95	6.223
629.28	4.418
629.61	5.135
629.94	4.351
630.26	6.102
630.59	5.786
630.92	5.801
631.25	5.725
631.58	5.179
631.91	5.061
632.24	5.764
632.57	5.787
632.90	5.115
633.23	5.000
633.56	5.510
633.89	4.029
634.22	5.509
634.55	6.367
634.88	4.654
635.20	5.274
635.53	5.537
635.86	4.225
636.19	6.681
636.52	5.696
636.85	4.699
637.18	4.678
637.51	5.269
637.83	6.866
638.16	5.991
638.49	5.869
638.82	5.524
639.15	4.467
639.48	5.774
639.81	5.543
640.13	6.007
640.46	3.758
640.79	3.676
641.12	4.596
641.45	6.148
641.77	7.445
642.10	4.856
642.43	6.250
642.76	5.556
643.09	4.658
643.41	3.501
643.74	4.276
644.07	6.207
644.40	4.385
644.73	5.080
645.05	4.846
645.38	5.755
645.71	4.106
646.04	7.030
646.36	4.818
646.69	5.061
647.02	7.034
647.35	5.344
647.67	4.509
648.00	6.051
648.33	5.255
648.66	5.563
648.98	4.898
649.31	5.007
649.64	4.515
649.96	5.836
650.29	3.894
650.62	5.092
650.94	4.805
651.27	4.042
651.60	5.848
651.92	5.471
652.25	5.644
652.58	5.365
652.90	4.360
653.23	5.915
653.56	5.136
653.88	7.444
654.21	4.225
654.54	5.058
654.86	5.241
655.19	6.023
655.52	5.587
655.84	5.767
656.17	6.905
656.49	9.846
656.82	10.758
657.15	8.445
657.47	6.242
657.80	4.741
658.13	3.638
658.45	4.771
658.78	5.548
659.10	5.246
