SpectraSuite Data File
++++++++++++++++++++++++++++++++++++
Date: Thu May 14 16:28:53 PDT 2015
User: schluterlab
Dark Spectrum Present: Yes
Reference Spectrum Present: Yes
Number of Sampled Component Spectra: 1
Spectrometers: USB2E3373
Integration Time (usec): 3000 (USB2E3373)
Spectra Averaged: 3 (USB2E3373)
Boxcar Smoothing: 0 (USB2E3373)
Correct for Electrical Dark: No (USB2E3373)
Strobe/Lamp Enabled: No (USB2E3373)
Correct for Detector Non-linearity: No (USB2E3373)
Correct for Stray Light: No (USB2E3373)
Number of Pixels in Processed Spectrum: 2048
>>>>>Begin Processed Spectral Data<<<<<
178.53	0.000
178.91	71.429
179.29	-1300.000
179.67	200.000
180.04	114.286
180.42	20.000
180.80	80.000
181.18	100.000
181.56	1400.000
181.94	-125.000
182.31	75.000
182.69	333.333
183.07	100.000
183.45	200.000
183.83	16.667
184.20	-33.333
184.58	-500.000
184.96	-100.000
185.34	-22.222
185.72	160.000
186.09	100.000
186.47	300.000
186.85	200.000
187.23	-155.556
187.61	-700.000
187.98	80.000
188.36	25.000
188.74	250.000
189.12	100.000
189.49	6.250
189.87	0.000
190.25	77.778
190.63	120.000
191.00	-111.111
191.38	0.000
191.76	-50.000
192.14	50.000
192.51	-150.000
192.89	316.667
193.27	0.000
193.65	142.857
194.02	-400.000
194.40	-42.857
194.78	28.571
195.15	0.000
195.53	-18.182
195.91	0.000
196.29	-50.000
196.66	0.000
197.04	-600.000
197.42	-200.000
197.79	200.000
198.17	12.500
198.55	-114.286
198.92	122.222
199.30	-50.000
199.68	81.818
200.05	78.571
200.43	200.000
200.81	242.857
201.18	0.000
201.56	100.000
201.94	0.000
202.31	200.000
202.69	-66.667
203.07	200.000
203.44	-22.222
203.82	-75.000
204.19	16.667
204.57	116.667
204.95	87.500
205.32	500.000
205.70	350.000
206.08	-83.333
206.45	16.667
206.83	360.000
207.20	116.667
207.58	-220.000
207.96	-116.667
208.33	116.667
208.71	66.667
209.08	83.333
209.46	0.000
209.84	116.667
210.21	350.000
210.59	50.000
210.96	166.667
211.34	25.000
211.71	12.500
212.09	-200.000
212.46	0.000
212.84	400.000
213.22	-200.000
213.59	50.000
213.97	60.000
214.34	100.000
214.72	183.333
215.09	-125.000
215.47	0.000
215.84	71.429
216.22	50.000
216.59	20.000
216.97	-120.000
217.34	150.000
217.72	100.000
218.09	-50.000
218.47	-25.000
218.84	0.000
219.22	-60.000
219.59	11.765
219.97	45.000
220.34	300.000
220.72	44.444
221.09	76.923
221.47	66.667
221.84	10.000
222.22	-157.143
222.59	0.000
222.97	-50.000
223.34	100.000
223.72	700.000
224.09	-250.000
224.46	-25.000
224.84	200.000
225.21	57.143
225.59	-275.000
225.96	-25.000
226.34	69.231
226.71	216.667
227.08	0.000
227.46	46.667
227.83	0.000
228.21	47.368
228.58	150.000
228.95	150.000
229.33	75.000
229.70	0.000
230.08	121.053
230.45	20.000
230.82	-33.333
231.20	28.571
231.57	75.000
231.95	90.909
232.32	18.182
232.69	20.000
233.07	-100.000
233.44	5.882
233.81	20.000
234.19	27.778
234.56	22.727
234.93	31.034
235.31	-10.526
235.68	33.333
236.05	-10.000
236.43	38.462
236.80	44.000
237.17	37.037
237.55	18.182
237.92	-80.000
238.29	51.613
238.67	36.364
239.04	41.667
239.41	7.143
239.79	8.696
240.16	18.519
240.53	8.696
240.91	0.000
241.28	11.475
241.65	35.821
242.02	33.784
242.40	9.231
242.77	22.667
243.14	7.317
243.51	22.368
243.89	16.667
244.26	23.762
244.63	23.529
245.00	19.626
245.38	18.421
245.75	8.850
246.12	18.254
246.49	20.930
246.87	22.857
247.24	19.205
247.61	16.447
247.98	24.161
248.36	24.691
248.73	15.951
249.10	21.311
249.47	25.373
249.84	30.366
250.22	23.316
250.59	27.778
250.96	23.636
251.33	17.347
251.70	26.923
252.08	21.250
252.45	20.902
252.82	23.554
253.19	21.094
253.56	24.715
253.94	20.769
254.31	26.515
254.68	24.825
255.05	26.059
255.42	20.748
255.79	20.712
256.16	20.199
256.54	17.550
256.91	23.934
257.28	19.672
257.65	18.790
258.02	22.124
258.39	22.507
258.76	24.771
259.14	29.885
259.51	17.579
259.88	19.830
260.25	20.833
260.62	20.822
260.99	24.317
261.36	23.056
261.73	20.424
262.10	21.154
262.47	21.984
262.85	23.990
263.22	20.779
263.59	20.263
263.96	21.739
264.33	20.205
264.70	22.469
265.07	26.730
265.44	23.129
265.81	20.833
266.18	24.490
266.55	21.652
266.92	22.323
267.29	23.195
267.66	20.177
268.03	22.926
268.40	19.624
268.77	20.501
269.14	19.824
269.51	23.026
269.88	23.770
270.25	21.529
270.62	21.941
270.99	21.212
271.36	21.584
271.73	21.218
272.10	22.846
272.47	22.244
272.84	19.679
273.21	21.844
273.58	21.976
273.95	21.538
274.32	19.011
274.69	19.149
275.06	20.696
275.43	21.072
275.80	22.751
276.17	19.259
276.54	20.896
276.91	16.995
277.28	19.892
277.65	20.467
278.02	19.669
278.39	20.471
278.76	19.684
279.13	21.809
279.50	21.306
279.87	20.036
280.23	19.542
280.60	20.847
280.97	22.533
281.34	19.015
281.71	21.489
282.08	18.439
282.45	19.640
282.82	20.565
283.19	20.355
283.56	20.656
283.92	19.670
284.29	20.853
284.66	22.989
285.03	17.788
285.40	18.083
285.77	20.124
286.14	20.153
286.51	18.569
286.87	19.589
287.24	20.482
287.61	18.984
287.98	19.033
288.35	21.006
288.72	19.379
289.08	20.351
289.45	19.083
289.82	17.922
290.19	18.247
290.56	18.592
290.93	17.261
291.29	18.320
291.66	19.008
292.03	17.232
292.40	17.959
292.77	18.598
293.13	18.809
293.50	16.426
293.87	19.060
294.24	20.133
294.60	19.090
294.97	17.450
295.34	19.718
295.71	16.772
296.08	16.408
296.44	17.279
296.81	19.123
297.18	16.936
297.55	18.278
297.91	17.082
298.28	13.981
298.65	17.717
299.02	15.702
299.38	17.391
299.75	17.407
300.12	16.204
300.48	18.088
300.85	17.435
301.22	16.779
301.59	16.781
301.95	17.740
302.32	17.444
302.69	16.539
303.05	17.410
303.42	18.071
303.79	16.562
304.15	17.455
304.52	16.596
304.89	16.545
305.25	18.737
305.62	18.391
305.99	17.010
306.35	16.935
306.72	18.821
307.09	15.939
307.45	19.669
307.82	17.255
308.19	17.053
308.55	18.322
308.92	18.695
309.29	18.487
309.65	17.934
310.02	18.218
310.38	19.685
310.75	18.252
311.12	18.408
311.48	19.453
311.85	18.139
312.22	17.932
312.58	19.906
312.95	20.076
313.31	18.338
313.68	19.505
314.05	20.506
314.41	20.674
314.78	20.799
315.14	20.599
315.51	21.422
315.87	22.142
316.24	21.644
316.61	21.936
316.97	20.633
317.34	20.370
317.70	22.620
318.07	22.663
318.43	22.874
318.80	23.244
319.16	23.348
319.53	23.393
319.89	22.261
320.26	24.110
320.62	24.911
320.99	23.730
321.35	25.416
321.72	25.395
322.08	23.986
322.45	25.384
322.81	25.090
323.18	25.044
323.54	27.500
323.91	27.224
324.27	27.194
324.64	27.624
325.00	27.446
325.37	28.419
325.73	28.843
326.10	28.467
326.46	29.397
326.83	29.303
327.19	29.449
327.56	30.593
327.92	30.291
328.29	30.645
328.65	30.988
329.01	30.964
329.38	31.761
329.74	31.507
330.11	31.592
330.47	32.098
330.84	31.783
331.20	32.583
331.56	32.409
331.93	33.640
332.29	31.949
332.66	32.392
333.02	33.166
333.38	32.550
333.75	32.492
334.11	33.528
334.48	33.416
334.84	34.834
335.20	33.249
335.57	34.148
335.93	32.645
336.29	32.529
336.66	34.315
337.02	32.692
337.38	34.354
337.75	32.975
338.11	33.558
338.47	32.837
338.84	32.234
339.20	32.519
339.56	32.784
339.93	31.938
340.29	32.770
340.65	31.225
341.02	33.839
341.38	34.438
341.74	32.607
342.11	33.146
342.47	32.645
342.83	33.333
343.20	35.650
343.56	33.520
343.92	33.867
344.28	34.219
344.65	32.248
345.01	34.477
345.37	33.204
345.73	33.437
346.10	32.371
346.46	33.623
346.82	34.757
347.19	33.461
347.55	34.522
347.91	33.581
348.27	34.294
348.63	33.740
349.00	34.303
349.36	34.275
349.72	33.408
350.08	33.730
350.45	34.525
350.81	33.635
351.17	34.361
351.53	34.647
351.89	34.700
352.26	34.627
352.62	34.776
352.98	34.122
353.34	33.234
353.70	34.900
354.07	35.171
354.43	35.535
354.79	34.555
355.15	35.173
355.51	35.819
355.87	35.901
356.24	36.046
356.60	33.925
356.96	35.953
357.32	34.870
357.68	34.480
358.04	35.030
358.40	35.746
358.77	33.772
359.13	34.564
359.49	33.011
359.85	34.300
360.21	35.509
360.57	34.530
360.93	35.331
361.29	35.789
361.66	36.061
362.02	36.465
362.38	37.807
362.74	36.522
363.10	36.107
363.46	35.873
363.82	35.085
364.18	36.453
364.54	36.169
364.90	37.458
365.26	36.897
365.62	37.467
365.98	36.896
366.35	36.510
366.71	37.211
367.07	36.468
367.43	37.492
367.79	37.624
368.15	37.391
368.51	36.739
368.87	36.381
369.23	37.467
369.59	38.115
369.95	36.917
370.31	37.947
370.67	37.001
371.03	38.573
371.39	37.945
371.75	39.271
372.11	38.347
372.47	38.795
372.83	39.332
373.19	39.560
373.55	37.805
373.91	39.332
374.27	39.004
374.63	39.851
374.99	39.456
375.35	40.584
375.71	40.194
376.07	39.445
376.42	39.736
376.78	39.714
377.14	41.173
377.50	41.176
377.86	40.887
378.22	41.796
378.58	40.963
378.94	40.434
379.30	40.246
379.66	40.682
380.02	42.239
380.38	42.857
380.74	42.028
381.09	42.915
381.45	42.045
381.81	42.447
382.17	43.409
382.53	42.398
382.89	43.059
383.25	44.431
383.61	44.097
383.97	43.816
384.32	44.797
384.68	43.619
385.04	45.055
385.40	45.138
385.76	44.959
386.12	44.285
386.48	45.765
386.83	45.709
387.19	45.481
387.55	44.894
387.91	45.605
388.27	45.208
388.62	44.330
388.98	45.629
389.34	46.730
389.70	47.356
390.06	46.773
390.42	46.566
390.77	48.224
391.13	45.599
391.49	47.766
391.85	47.091
392.20	47.865
392.56	48.258
392.92	47.819
393.28	48.977
393.64	48.324
393.99	48.809
394.35	48.131
394.71	49.042
395.07	47.665
395.42	49.515
395.78	49.787
396.14	49.257
396.50	49.406
396.85	49.016
397.21	49.349
397.57	51.119
397.92	49.828
398.28	49.593
398.64	50.057
399.00	50.471
399.35	51.047
399.71	50.652
400.07	51.656
400.42	51.630
400.78	52.083
401.14	52.020
401.49	52.985
401.85	52.384
402.21	52.375
402.57	53.169
402.92	52.896
403.28	51.639
403.63	52.804
403.99	53.385
404.35	52.814
404.70	53.881
405.06	53.261
405.42	53.806
405.77	53.926
406.13	54.133
406.49	54.223
406.84	54.515
407.20	54.444
407.55	54.452
407.91	55.311
408.27	54.711
408.62	55.730
408.98	54.788
409.34	55.073
409.69	55.933
410.05	55.510
410.40	57.135
410.76	56.758
411.11	56.926
411.47	56.204
411.83	57.084
412.18	58.795
412.54	57.854
412.89	56.403
413.25	56.321
413.60	56.404
413.96	57.634
414.31	55.921
414.67	56.708
415.03	57.231
415.38	58.008
415.74	56.811
416.09	58.421
416.45	56.544
416.80	57.528
417.16	58.429
417.51	56.476
417.87	58.124
418.22	58.563
418.58	59.046
418.93	58.789
419.29	59.309
419.64	58.643
420.00	57.923
420.35	58.563
420.71	60.310
421.06	58.884
421.42	58.716
421.77	56.974
422.12	57.981
422.48	58.986
422.83	59.584
423.19	59.735
423.54	60.785
423.90	59.746
424.25	58.933
424.61	58.726
424.96	59.363
425.31	60.563
425.67	60.333
426.02	59.989
426.38	59.587
426.73	59.877
427.09	60.900
427.44	59.312
427.79	60.310
428.15	58.447
428.50	59.944
428.85	60.390
429.21	59.840
429.56	60.612
429.92	59.558
430.27	59.325
430.62	60.821
430.98	60.649
431.33	60.020
431.68	59.195
432.04	60.132
432.39	60.793
432.74	60.674
433.10	60.898
433.45	59.588
433.80	60.676
434.16	59.607
434.51	61.408
434.86	62.324
435.22	60.999
435.57	62.028
435.92	60.100
436.28	60.694
436.63	62.534
436.98	60.064
437.34	61.838
437.69	62.741
438.04	59.439
438.39	61.918
438.75	61.151
439.10	61.786
439.45	60.704
439.81	61.186
440.16	60.697
440.51	61.371
440.86	60.923
441.22	59.325
441.57	61.688
441.92	60.281
442.27	61.263
442.63	60.159
442.98	61.153
443.33	61.073
443.68	61.051
444.03	60.960
444.39	61.211
444.74	59.877
445.09	59.453
445.44	61.275
445.79	60.920
446.15	60.277
446.50	61.085
446.85	60.457
447.20	60.977
447.55	60.408
447.91	60.314
448.26	60.518
448.61	60.680
448.96	62.124
449.31	60.604
449.66	60.512
450.02	60.918
450.37	60.362
450.72	60.764
451.07	61.162
451.42	59.734
451.77	59.922
452.12	62.302
452.47	59.834
452.83	61.430
453.18	59.837
453.53	60.942
453.88	59.967
454.23	60.960
454.58	61.521
454.93	60.801
455.28	60.686
455.63	61.399
455.98	61.117
456.34	61.249
456.69	59.788
457.04	61.170
457.39	60.698
457.74	62.248
458.09	60.242
458.44	60.830
458.79	60.444
459.14	60.304
459.49	61.064
459.84	61.123
460.19	58.967
460.54	60.591
460.89	61.567
461.24	60.747
461.59	60.764
461.94	59.726
462.29	60.526
462.64	59.867
462.99	60.766
463.34	60.740
463.69	58.499
464.04	60.200
464.39	59.641
464.74	58.324
465.09	60.496
465.44	59.603
465.79	58.805
466.14	58.781
466.49	59.368
466.84	61.047
467.19	59.538
467.54	59.224
467.89	58.563
468.24	57.673
468.59	57.904
468.94	57.809
469.29	58.428
469.64	59.186
469.99	59.847
470.34	59.530
470.68	60.287
471.03	60.183
471.38	60.235
471.73	58.713
472.08	58.883
472.43	57.857
472.78	59.194
473.13	60.177
473.48	60.242
473.83	59.489
474.17	59.730
474.52	58.870
474.87	59.856
475.22	58.817
475.57	59.138
475.92	57.889
476.27	58.679
476.61	58.723
476.96	58.968
477.31	59.059
477.66	59.759
478.01	58.363
478.36	58.774
478.70	58.719
479.05	59.407
479.40	58.885
479.75	59.126
480.10	58.929
480.45	58.204
480.79	58.730
481.14	57.399
481.49	59.109
481.84	58.399
482.19	58.366
482.53	59.641
482.88	58.440
483.23	58.204
483.58	58.297
483.92	58.555
484.27	57.578
484.62	56.972
484.97	57.659
485.31	57.374
485.66	55.117
486.01	54.386
486.36	55.411
486.70	57.097
487.05	57.706
487.40	57.163
487.75	56.947
488.09	56.410
488.44	55.672
488.79	57.572
489.13	57.024
489.48	56.777
489.83	56.056
490.17	57.432
490.52	57.553
490.87	57.910
491.22	57.192
491.56	57.679
491.91	58.918
492.26	57.205
492.60	57.499
492.95	57.745
493.30	58.225
493.64	57.731
493.99	57.763
494.34	58.057
494.68	57.816
495.03	57.621
495.37	57.701
495.72	57.642
496.07	57.230
496.41	56.971
496.76	57.339
497.11	58.089
497.45	56.927
497.80	57.797
498.14	58.776
498.49	57.812
498.84	57.678
499.18	57.850
499.53	58.475
499.87	56.967
500.22	56.411
500.56	58.480
500.91	57.849
501.26	58.636
501.60	56.606
501.95	57.360
502.29	58.052
502.64	56.712
502.98	56.557
503.33	56.415
503.67	56.825
504.02	56.874
504.36	57.462
504.71	57.694
505.06	56.617
505.40	57.267
505.75	57.149
506.09	57.366
506.44	58.078
506.78	58.165
507.13	56.985
507.47	57.982
507.82	57.292
508.16	57.122
508.51	56.681
508.85	58.101
509.19	57.461
509.54	58.261
509.88	57.261
510.23	58.378
510.57	58.579
510.92	58.297
511.26	57.431
511.61	57.508
511.95	57.003
512.30	57.410
512.64	56.572
512.98	57.629
513.33	58.115
513.67	58.287
514.02	58.610
514.36	59.182
514.70	58.906
515.05	57.664
515.39	57.113
515.74	59.226
516.08	58.162
516.42	58.765
516.77	57.624
517.11	58.484
517.46	58.802
517.80	59.754
518.14	58.977
518.49	58.839
518.83	56.519
519.17	57.781
519.52	57.862
519.86	59.345
520.20	58.147
520.55	58.598
520.89	59.234
521.23	58.459
521.58	58.983
521.92	59.773
522.26	58.362
522.61	59.317
522.95	58.189
523.29	59.540
523.64	58.072
523.98	59.897
524.32	60.573
524.66	60.672
525.01	58.381
525.35	58.587
525.69	59.223
526.04	57.692
526.38	58.621
526.72	59.746
527.06	59.296
527.41	58.367
527.75	59.382
528.09	59.799
528.43	58.555
528.78	57.514
529.12	58.486
529.46	58.066
529.80	58.810
530.15	58.435
530.49	60.202
530.83	59.386
531.17	58.722
531.51	59.567
531.86	59.315
532.20	58.537
532.54	57.151
532.88	58.667
533.22	57.690
533.57	57.588
533.91	57.351
534.25	57.547
534.59	58.103
534.93	57.442
535.27	58.535
535.62	58.329
535.96	58.222
536.30	58.402
536.64	59.880
536.98	58.672
537.32	59.012
537.66	58.952
538.01	58.127
538.35	58.770
538.69	57.692
539.03	58.860
539.37	57.420
539.71	57.357
540.05	57.794
540.39	58.007
540.73	56.891
541.07	58.982
541.42	57.295
541.76	57.117
542.10	56.996
542.44	56.273
542.78	56.569
543.12	56.257
543.46	56.532
543.80	55.755
544.14	58.109
544.48	56.678
544.82	57.211
545.16	57.424
545.50	57.340
545.84	56.399
546.18	57.901
546.52	56.943
546.86	57.610
547.20	58.142
547.54	56.679
547.88	56.480
548.22	56.725
548.56	56.934
548.90	57.433
549.24	56.717
549.58	57.413
549.92	56.760
550.26	57.864
550.60	56.605
550.94	57.633
551.28	55.446
551.62	58.827
551.96	55.728
552.30	56.979
552.64	56.938
552.98	57.143
553.32	57.556
553.66	56.849
554.00	57.692
554.34	55.341
554.68	55.326
555.02	57.753
555.36	57.922
555.69	55.669
556.03	57.251
556.37	56.946
556.71	55.866
557.05	56.102
557.39	57.001
557.73	56.605
558.07	56.954
558.41	57.342
558.75	56.254
559.08	59.221
559.42	55.144
559.76	55.495
560.10	57.334
560.44	56.860
560.78	56.750
561.12	56.527
561.45	56.995
561.79	56.777
562.13	55.761
562.47	54.932
562.81	56.582
563.15	57.449
563.48	56.619
563.82	55.683
564.16	55.239
564.50	55.066
564.84	54.749
565.17	56.353
565.51	55.466
565.85	56.176
566.19	54.263
566.52	54.535
566.86	55.405
567.20	53.507
567.54	55.443
567.88	55.097
568.21	54.644
568.55	54.388
568.89	54.063
569.23	53.021
569.56	52.872
569.90	52.245
570.24	51.737
570.57	52.309
570.91	51.653
571.25	51.519
571.59	51.072
571.92	51.119
572.26	49.815
572.60	50.041
572.93	51.044
573.27	51.222
573.61	51.138
573.95	50.109
574.28	49.965
574.62	49.568
574.96	48.875
575.29	48.733
575.63	49.249
575.97	49.868
576.30	49.346
576.64	49.248
576.98	48.838
577.31	49.759
577.65	49.525
577.98	49.002
578.32	48.465
578.66	48.473
578.99	48.536
579.33	48.599
579.67	49.479
580.00	49.539
580.34	48.277
580.67	48.455
581.01	49.113
581.35	48.217
581.68	48.429
582.02	47.606
582.35	48.339
582.69	49.042
583.02	48.907
583.36	48.799
583.70	49.648
584.03	48.524
584.37	48.902
584.70	48.924
585.04	47.989
585.37	47.791
585.71	48.155
586.04	48.041
586.38	48.213
586.72	48.358
587.05	48.862
587.39	48.292
587.72	48.780
588.06	48.622
588.39	48.992
588.73	48.598
589.06	48.787
589.40	49.969
589.73	49.100
590.07	50.000
590.40	49.662
590.73	49.134
591.07	50.000
591.40	48.950
591.74	49.006
592.07	49.249
592.41	49.448
592.74	48.456
593.08	48.439
593.41	48.323
593.75	48.506
594.08	48.531
594.41	48.558
594.75	48.456
595.08	48.721
595.42	48.604
595.75	47.627
596.09	49.136
596.42	48.907
596.75	48.283
597.09	49.414
597.42	49.027
597.75	48.765
598.09	49.008
598.42	49.296
598.76	48.185
599.09	48.024
599.42	46.899
599.76	47.441
600.09	48.081
600.42	48.248
600.76	48.052
601.09	46.830
601.42	47.374
601.76	47.138
602.09	47.605
602.42	47.110
602.76	47.860
603.09	48.678
603.42	47.868
603.76	47.252
604.09	48.935
604.42	48.220
604.76	46.880
605.09	47.706
605.42	48.923
605.75	47.269
606.09	47.779
606.42	47.063
606.75	46.889
607.09	46.966
607.42	47.514
607.75	47.440
608.08	47.198
608.42	46.634
608.75	47.886
609.08	47.029
609.41	46.846
609.75	47.768
610.08	47.801
610.41	47.494
610.74	47.353
611.07	47.869
611.41	48.072
611.74	47.667
612.07	47.499
612.40	47.719
612.73	47.726
613.07	47.531
613.40	47.449
613.73	46.750
614.06	48.921
614.39	47.133
614.72	45.852
615.06	46.006
615.39	46.496
615.72	47.346
616.05	47.402
616.38	48.285
616.71	47.492
617.05	47.710
617.38	46.870
617.71	47.084
618.04	47.706
618.37	47.978
618.70	48.925
619.03	47.849
619.36	47.349
619.69	47.470
620.03	48.211
620.36	49.018
620.69	49.105
621.02	48.556
621.35	51.234
621.68	50.325
622.01	48.612
622.34	48.187
622.67	48.385
623.00	47.368
623.33	48.905
623.66	48.703
623.99	48.519
624.32	48.798
624.65	48.842
624.99	48.635
625.32	47.681
625.65	49.359
625.98	47.390
626.31	49.043
626.64	48.718
626.97	48.237
627.30	48.671
627.63	47.862
627.96	49.474
628.29	48.949
628.62	48.950
628.95	49.430
629.28	48.513
629.61	50.673
629.94	48.619
630.26	49.746
630.59	50.173
630.92	49.177
631.25	50.805
631.58	51.883
631.91	49.485
632.24	51.873
632.57	49.431
632.90	51.555
633.23	52.143
633.56	49.796
633.89	51.240
634.22	50.728
634.55	50.000
