SpectraSuite Data File
++++++++++++++++++++++++++++++++++++
Date: Thu May 14 16:27:37 PDT 2015
User: schluterlab
Dark Spectrum Present: Yes
Reference Spectrum Present: Yes
Number of Sampled Component Spectra: 1
Spectrometers: USB2E3373
Integration Time (usec): 3000 (USB2E3373)
Spectra Averaged: 3 (USB2E3373)
Boxcar Smoothing: 0 (USB2E3373)
Correct for Electrical Dark: No (USB2E3373)
Strobe/Lamp Enabled: No (USB2E3373)
Correct for Detector Non-linearity: No (USB2E3373)
Correct for Stray Light: No (USB2E3373)
Number of Pixels in Processed Spectrum: 2048
>>>>>Begin Processed Spectral Data<<<<<
178.53	0.000
178.91	42.857
179.29	-500.000
179.67	-300.000
180.04	121.429
180.42	10.000
180.80	160.000
181.18	800.000
181.56	500.000
181.94	250.000
182.31	200.000
182.69	-100.000
183.07	400.000
183.45	200.000
183.83	16.667
184.20	200.000
184.58	-700.000
184.96	-300.000
185.34	33.333
185.72	20.000
186.09	77.778
186.47	300.000
186.85	100.000
187.23	-111.111
187.61	-1600.000
187.98	120.000
188.36	50.000
188.74	-75.000
189.12	300.000
189.49	31.250
189.87	-62.500
190.25	44.444
190.63	160.000
191.00	22.222
191.38	0.000
191.76	-100.000
192.14	-83.333
192.51	150.000
192.89	116.667
193.27	0.000
193.65	42.857
194.02	-1200.000
194.40	-28.571
194.78	-28.571
195.15	0.000
195.53	18.182
195.91	0.000
196.29	-25.000
196.66	-15.385
197.04	-500.000
197.42	0.000
197.79	-350.000
198.17	0.000
198.55	-85.714
198.92	-88.889
199.30	-87.500
199.68	54.545
200.05	28.571
200.43	-250.000
200.81	242.857
201.18	0.000
201.56	211.111
201.94	0.000
202.31	-33.333
202.69	111.111
203.07	-500.000
203.44	0.000
203.82	-200.000
204.19	33.333
204.57	66.667
204.95	-25.000
205.32	0.000
205.70	125.000
206.08	16.667
206.45	33.333
206.83	180.000
207.20	-133.333
207.58	-140.000
207.96	-100.000
208.33	100.000
208.71	-0.000
209.08	50.000
209.46	0.000
209.84	200.000
210.21	50.000
210.59	200.000
210.96	-33.333
211.34	100.000
211.71	-25.000
212.09	-300.000
212.46	0.000
212.84	500.000
213.22	-80.000
213.59	-75.000
213.97	100.000
214.34	-166.667
214.72	-33.333
215.09	-75.000
215.47	0.000
215.84	14.286
216.22	-0.000
216.59	20.000
216.97	-260.000
217.34	0.000
217.72	25.000
218.09	-150.000
218.47	-150.000
218.84	0.000
219.22	100.000
219.59	41.176
219.97	60.000
220.34	-50.000
220.72	-11.111
221.09	61.538
221.47	66.667
221.84	-20.000
222.22	-128.571
222.59	0.000
222.97	-62.500
223.34	-200.000
223.72	600.000
224.09	-100.000
224.46	-50.000
224.84	-60.000
225.21	-100.000
225.59	75.000
225.96	-250.000
226.34	3.846
226.71	233.333
227.08	150.000
227.46	40.000
227.83	-25.000
228.21	31.579
228.58	112.500
228.95	-150.000
229.33	100.000
229.70	120.000
230.08	94.737
230.45	40.000
230.82	66.667
231.20	42.857
231.57	133.333
231.95	0.000
232.32	45.455
232.69	15.000
233.07	-50.000
233.44	0.000
233.81	30.000
234.19	83.333
234.56	45.455
234.93	-3.448
235.31	89.474
235.68	27.778
236.05	-50.000
236.43	-7.692
236.80	68.000
237.17	29.630
237.55	-3.030
237.92	-50.000
238.29	12.903
238.67	-2.273
239.04	30.556
239.41	-9.524
239.79	-15.217
240.16	-1.852
240.53	-8.696
240.91	1.961
241.28	-9.836
241.65	16.418
242.02	0.000
242.40	-18.462
242.77	-2.667
243.14	0.000
243.51	-17.105
243.89	-7.692
244.26	4.950
244.63	2.941
245.00	0.000
245.38	0.877
245.75	-14.159
246.12	8.730
246.49	-1.550
246.87	5.000
247.24	5.298
247.61	7.895
247.98	6.711
248.36	0.000
248.73	-1.227
249.10	6.011
249.47	6.468
249.84	5.759
250.22	-3.109
250.59	1.667
250.96	6.364
251.33	-6.122
251.70	6.410
252.08	2.083
252.45	6.148
252.82	5.785
253.19	2.734
253.56	4.563
253.94	1.154
254.31	1.515
254.68	10.140
255.05	5.863
255.42	4.762
255.79	-0.647
256.16	1.987
256.54	-0.331
256.91	6.230
257.28	3.279
257.65	2.548
258.02	2.065
258.39	2.564
258.76	5.199
259.14	4.310
259.51	3.458
259.88	3.399
260.25	3.333
260.62	5.753
260.99	3.279
261.36	4.290
261.73	2.387
262.10	1.099
262.47	4.021
262.85	7.828
263.22	1.039
263.59	0.263
263.96	2.813
264.33	1.790
264.70	3.951
265.07	4.773
265.44	7.029
265.81	2.315
266.18	3.855
266.55	4.241
266.92	2.278
267.29	5.470
267.66	3.326
268.03	2.838
268.40	4.175
268.77	3.189
269.14	0.881
269.51	4.386
269.88	5.328
270.25	4.427
270.62	3.376
270.99	6.667
271.36	4.752
271.73	2.947
272.10	3.607
272.47	4.008
272.84	4.819
273.21	3.407
273.58	4.234
273.95	1.346
274.32	2.091
274.69	3.095
275.06	5.311
275.43	3.327
275.80	4.409
276.17	2.222
276.54	2.799
276.91	3.757
277.28	5.787
277.65	4.129
278.02	4.596
278.39	3.986
278.76	4.042
279.13	4.610
279.50	5.670
279.87	4.651
280.23	2.641
280.60	5.085
280.97	2.632
281.34	3.056
281.71	5.922
282.08	3.488
282.45	3.437
282.82	3.297
283.19	2.746
283.56	2.459
283.92	5.255
284.29	4.897
284.66	4.762
285.03	1.923
285.40	5.410
285.77	4.799
286.14	5.038
286.51	3.653
286.87	3.318
287.24	3.614
287.61	3.139
287.98	1.662
288.35	3.254
288.72	3.698
289.08	3.514
289.45	1.923
289.82	3.614
290.19	3.161
290.56	3.803
290.93	2.996
291.29	4.270
291.66	3.719
292.03	1.900
292.40	5.306
292.77	3.504
293.13	2.571
293.50	2.102
293.87	3.356
294.24	4.000
294.60	3.666
294.97	2.013
295.34	5.506
295.71	3.279
296.08	2.584
296.44	3.064
296.81	4.750
297.18	2.242
297.55	2.123
297.91	4.033
298.28	2.844
298.65	3.567
299.02	2.715
299.38	4.005
299.75	3.271
300.12	4.051
300.48	3.687
300.85	2.812
301.22	3.691
301.59	1.826
301.95	4.407
302.32	3.667
302.69	4.381
303.05	3.373
303.42	3.437
303.79	3.229
304.15	3.470
304.52	1.691
304.89	3.874
305.25	3.727
305.62	4.493
305.99	3.093
306.35	1.714
306.72	3.206
307.09	3.046
307.45	3.623
307.82	3.229
308.19	3.027
308.55	3.568
308.92	3.700
309.29	4.885
309.65	3.606
310.02	3.465
310.38	4.134
310.75	3.398
311.12	4.314
311.48	4.399
311.85	4.368
312.22	4.269
312.58	4.038
312.95	4.589
313.31	5.059
313.68	5.128
314.05	5.691
314.41	6.102
314.78	4.905
315.14	6.624
315.51	6.371
315.87	6.391
316.24	7.032
316.61	7.815
316.97	6.697
317.34	6.966
317.70	7.686
318.07	8.554
318.43	8.759
318.80	11.037
319.16	9.700
319.53	8.569
319.89	9.553
320.26	10.854
320.62	11.613
320.99	10.896
321.35	11.368
321.72	12.558
322.08	13.075
322.45	14.182
322.81	14.711
323.18	14.956
323.54	16.293
323.91	16.548
324.27	17.212
324.64	18.640
325.00	18.988
325.37	20.066
325.73	20.826
326.10	21.817
326.46	22.231
326.83	23.379
327.19	24.252
327.56	25.534
327.92	25.964
328.29	24.516
328.65	26.884
329.01	27.411
329.38	28.559
329.74	29.195
330.11	29.795
330.47	29.570
330.84	30.405
331.20	31.750
331.56	30.503
331.93	31.046
332.29	32.712
332.66	32.724
333.02	32.412
333.38	32.886
333.75	34.091
334.11	34.445
334.48	34.406
334.84	35.769
335.20	35.181
335.57	34.486
335.93	36.860
336.29	35.524
336.66	34.651
337.02	36.288
337.38	36.820
337.75	35.372
338.11	36.081
338.47	36.890
338.84	36.041
339.20	35.889
339.56	34.679
339.93	35.961
340.29	35.910
340.65	36.902
341.02	37.670
341.38	37.753
341.74	36.723
342.11	37.892
342.47	37.649
342.83	38.486
343.20	39.411
343.56	37.851
343.92	37.710
344.28	37.578
344.65	39.535
345.01	38.066
345.37	38.414
345.73	37.724
346.10	40.016
346.46	38.449
346.82	38.277
347.19	39.496
347.55	40.212
347.91	38.262
348.27	39.226
348.63	39.756
349.00	38.702
349.36	38.959
349.72	39.137
350.08	40.788
350.45	40.076
350.81	38.989
351.17	39.774
351.53	39.955
351.89	40.395
352.26	39.328
352.62	40.000
352.98	39.771
353.34	39.806
353.70	40.062
354.07	40.313
354.43	39.484
354.79	40.314
355.15	40.839
355.51	41.301
355.87	41.062
356.24	42.357
356.60	41.759
356.96	41.512
357.32	41.115
357.68	40.556
358.04	40.344
358.40	42.388
358.77	41.374
359.13	41.581
359.49	41.561
359.85	41.842
360.21	40.674
360.57	42.139
360.93	41.396
361.29	41.895
361.66	42.143
362.02	42.450
362.38	41.602
362.74	42.179
363.10	43.329
363.46	43.975
363.82	43.821
364.18	43.913
364.54	43.983
364.90	44.080
365.26	42.552
365.62	43.400
365.98	43.567
366.35	43.423
366.71	44.286
367.07	43.978
367.43	44.649
367.79	43.663
368.15	44.883
368.51	44.384
368.87	43.174
369.23	44.600
369.59	46.038
369.95	43.543
370.31	44.970
370.67	45.530
371.03	45.014
371.39	44.056
371.75	44.223
372.11	44.038
372.47	44.144
372.83	45.288
373.19	43.763
373.55	44.377
373.91	45.262
374.27	45.731
374.63	45.940
374.99	45.756
375.35	45.130
375.71	44.774
376.07	45.190
376.42	46.096
376.78	46.240
377.14	45.664
377.50	46.932
377.86	45.382
378.22	45.928
378.58	45.482
378.94	46.362
379.30	45.636
379.66	46.502
380.02	46.105
380.38	47.523
380.74	45.577
381.09	47.851
381.45	46.591
381.81	48.712
382.17	47.625
382.53	46.491
382.89	45.824
383.25	48.300
383.61	46.528
383.97	46.466
384.32	47.249
384.68	46.404
385.04	48.352
385.40	48.085
385.76	47.714
386.12	47.636
386.48	48.294
386.83	47.497
387.19	47.740
387.55	46.655
387.91	46.861
388.27	47.517
388.62	46.048
388.98	47.265
389.34	48.321
389.70	47.821
390.06	47.188
390.42	47.229
390.77	48.826
391.13	47.770
391.49	46.860
391.85	47.818
392.20	47.272
392.56	48.553
392.92	47.110
393.28	48.148
393.64	47.095
393.99	48.112
394.35	48.773
394.71	47.305
395.07	48.862
395.42	48.429
395.78	49.482
396.14	48.069
396.50	48.337
396.85	48.002
397.21	48.402
397.57	48.174
397.92	48.110
398.28	46.877
398.64	46.968
399.00	46.911
399.35	47.382
399.71	47.935
400.07	48.905
400.42	48.079
400.78	47.801
401.14	48.093
401.49	47.641
401.85	48.198
402.21	48.552
402.57	49.061
402.92	47.991
403.28	47.600
403.63	47.792
403.99	47.981
404.35	47.925
404.70	48.045
405.06	46.957
405.42	47.365
405.77	47.983
406.13	47.596
406.49	48.255
406.84	47.645
407.20	47.233
407.55	48.395
407.91	47.077
408.27	46.761
408.62	49.215
408.98	47.185
409.34	47.038
409.69	48.949
410.05	47.186
410.40	47.854
410.76	47.392
411.11	48.159
411.47	48.587
411.83	48.089
412.18	47.771
412.54	47.066
412.89	48.021
413.25	46.558
413.60	47.444
413.96	47.669
414.31	46.969
414.67	48.360
415.03	47.508
415.38	49.054
415.74	47.159
416.09	48.180
416.45	47.214
416.80	47.246
417.16	47.957
417.51	47.634
417.87	47.333
418.22	46.467
418.58	47.584
418.93	49.360
419.29	47.596
419.64	47.599
420.00	46.825
420.35	47.894
420.71	47.904
421.06	46.866
421.42	47.764
421.77	46.634
422.12	46.512
422.48	46.902
422.83	48.138
423.19	47.798
423.54	47.954
423.90	47.267
424.25	47.467
424.61	47.819
424.96	47.941
425.31	47.452
425.67	46.484
426.02	48.312
426.38	48.335
426.73	47.266
427.09	46.886
427.44	47.078
427.79	46.821
428.15	46.975
428.50	47.191
428.85	46.958
429.21	48.404
429.56	47.581
429.92	46.290
430.27	47.373
430.62	47.484
430.98	46.532
431.33	46.921
431.68	45.259
432.04	47.943
432.39	47.242
432.74	47.432
433.10	47.485
433.45	46.433
433.80	46.406
434.16	48.089
434.51	47.482
434.86	47.611
435.22	47.715
435.57	49.233
435.92	48.414
436.28	48.009
436.63	48.935
436.98	47.075
437.34	47.914
437.69	48.046
438.04	47.594
438.39	48.995
438.75	47.537
439.10	47.780
439.45	46.898
439.81	47.684
440.16	47.989
440.51	46.823
440.86	47.582
441.22	48.124
441.57	48.113
441.92	47.721
442.27	47.677
442.63	48.038
442.98	47.172
443.33	47.659
443.68	47.374
444.03	47.883
444.39	48.081
444.74	47.728
445.09	46.883
445.44	49.052
445.79	48.611
446.15	47.636
446.50	47.494
446.85	47.228
447.20	47.969
447.55	48.692
447.91	48.063
448.26	48.203
448.61	47.078
448.96	48.659
449.31	47.879
449.66	47.386
450.02	47.785
450.37	47.629
450.72	48.493
451.07	48.975
451.42	47.487
451.77	47.638
452.12	49.153
452.47	47.475
452.83	48.705
453.18	47.519
453.53	46.755
453.88	47.322
454.23	48.023
454.58	48.404
454.93	48.180
455.28	48.886
455.63	47.527
455.98	48.212
456.34	47.527
456.69	47.208
457.04	48.463
457.39	49.058
457.74	48.210
458.09	47.446
458.44	48.222
458.79	46.674
459.14	47.299
459.49	47.878
459.84	47.324
460.19	47.363
460.54	47.871
460.89	47.115
461.24	47.299
461.59	47.980
461.94	45.807
462.29	47.424
462.64	47.375
462.99	47.897
463.34	48.280
463.69	46.424
464.04	47.471
464.39	47.029
464.74	46.636
465.09	48.097
465.44	46.352
465.79	46.219
466.14	45.909
466.49	47.263
466.84	47.713
467.19	46.474
467.54	45.593
467.89	46.437
468.24	47.202
468.59	45.744
468.94	47.145
469.29	46.071
469.64	46.980
469.99	45.953
470.34	46.411
470.68	48.530
471.03	48.592
471.38	48.921
471.73	46.619
472.08	47.462
472.43	46.538
472.78	47.418
473.13	46.839
473.48	47.432
473.83	47.940
474.17	46.249
474.52	45.941
474.87	46.567
475.22	45.690
475.57	46.625
475.92	45.445
476.27	46.060
476.61	46.521
476.96	45.203
477.31	46.287
477.66	47.062
478.01	46.263
478.36	45.663
478.70	44.877
479.05	47.495
479.40	46.989
479.75	45.629
480.10	46.471
480.45	45.533
480.79	45.850
481.14	45.404
481.49	45.616
481.84	45.692
482.19	45.376
482.53	45.693
482.88	46.743
483.23	45.665
483.58	45.109
483.92	45.523
484.27	45.216
484.62	44.101
484.97	45.101
485.31	44.351
485.66	41.912
486.01	41.071
486.36	41.329
486.70	42.020
487.05	43.700
487.40	43.255
487.75	43.461
488.09	43.590
488.44	42.663
488.79	43.474
489.13	44.026
489.48	43.806
489.83	42.978
490.17	43.297
490.52	43.473
490.87	45.474
491.22	44.497
491.56	44.795
491.91	45.137
492.26	44.743
492.60	44.250
492.95	44.405
493.30	44.868
493.64	44.065
493.99	44.035
494.34	44.164
494.68	43.940
495.03	44.361
495.37	44.296
495.72	44.308
496.07	44.698
496.41	43.715
496.76	44.412
497.11	43.779
497.45	43.289
497.80	44.469
498.14	43.311
498.49	44.623
498.84	44.013
499.18	43.680
499.53	43.901
499.87	43.473
500.22	42.876
500.56	42.960
500.91	43.753
501.26	44.318
501.60	42.908
501.95	43.682
502.29	43.440
502.64	43.463
502.98	42.192
503.33	42.505
503.67	43.088
504.02	42.426
504.36	44.281
504.71	42.995
505.06	43.065
505.40	42.550
505.75	42.987
506.09	42.910
506.44	43.222
506.78	43.624
507.13	42.923
507.47	43.771
507.82	43.087
508.16	42.352
508.51	41.538
508.85	42.560
509.19	42.681
509.54	43.468
509.88	42.642
510.23	43.176
510.57	44.369
510.92	42.816
511.26	42.665
511.61	42.250
511.95	42.704
512.30	42.787
512.64	42.379
512.98	43.022
513.33	42.087
513.67	42.376
514.02	43.127
514.36	42.813
514.70	43.021
515.05	42.701
515.39	42.782
515.74	42.842
516.08	43.529
516.42	42.700
516.77	42.902
517.11	41.310
517.46	42.736
517.80	42.117
518.14	43.090
518.49	43.492
518.83	42.629
519.17	41.626
519.52	42.138
519.86	42.080
520.20	42.066
520.55	41.676
520.89	43.018
521.23	42.379
521.58	42.599
521.92	41.926
522.26	41.924
522.61	43.056
522.95	42.099
523.29	43.046
523.64	42.265
523.98	42.955
524.32	43.095
524.66	41.320
525.01	40.827
525.35	41.643
525.69	41.183
526.04	40.815
526.38	40.862
526.72	42.157
527.06	42.639
527.41	41.808
527.75	42.696
528.09	41.558
528.43	41.504
528.78	41.098
529.12	40.195
529.46	40.416
529.80	41.419
530.15	40.696
530.49	40.807
530.83	41.263
531.17	40.681
531.51	40.493
531.86	40.325
532.20	41.159
532.54	40.634
532.88	40.182
533.22	39.717
533.57	39.527
533.91	39.731
534.25	39.570
534.59	40.345
534.93	39.728
535.27	39.155
535.62	38.999
535.96	39.454
536.30	38.484
536.64	40.060
536.98	41.328
537.32	40.000
537.66	39.364
538.01	38.792
538.35	37.759
538.69	39.243
539.03	39.056
539.37	38.634
539.71	39.219
540.05	39.149
540.39	38.875
540.73	39.041
541.07	38.381
541.42	38.334
541.76	37.604
542.10	38.721
542.44	39.220
542.78	38.321
543.12	38.319
543.46	37.790
543.80	37.050
544.14	38.001
544.48	38.298
544.82	37.822
545.16	37.746
545.50	37.148
545.84	37.600
546.18	38.765
546.52	38.471
546.86	37.484
547.20	37.214
547.54	36.829
547.88	36.890
548.22	36.784
548.56	37.098
548.90	37.493
549.24	37.082
549.58	36.719
549.92	36.288
550.26	37.735
550.60	36.694
550.94	38.098
551.28	36.832
551.62	37.736
551.96	37.023
552.30	37.667
552.64	37.150
552.98	36.369
553.32	36.785
553.66	37.299
554.00	36.192
554.34	35.843
554.68	36.540
555.02	36.005
555.36	35.437
555.69	35.939
556.03	35.813
556.37	36.233
556.71	36.081
557.05	36.805
557.39	36.165
557.73	36.063
558.07	36.623
558.41	36.412
558.75	35.429
559.08	35.978
559.42	37.037
559.76	36.228
560.10	35.767
560.44	34.960
560.78	35.062
561.12	34.360
561.45	34.367
561.79	35.043
562.13	34.812
562.47	35.018
562.81	34.430
563.15	35.417
563.48	34.618
563.82	34.643
564.16	34.343
564.50	33.850
564.84	33.392
565.17	33.412
565.51	33.544
565.85	34.857
566.19	33.410
566.52	34.114
566.86	33.729
567.20	32.681
567.54	33.351
567.88	33.792
568.21	33.202
568.55	32.662
568.89	32.047
569.23	31.897
569.56	31.497
569.90	30.791
570.24	30.826
570.57	30.083
570.91	29.761
571.25	28.840
571.59	29.975
571.92	29.158
572.26	29.910
572.60	29.975
572.93	29.251
573.27	29.868
573.61	28.957
573.95	28.939
574.28	28.732
574.62	28.536
574.96	28.430
575.29	28.112
575.63	28.136
575.97	28.263
576.30	28.029
576.64	28.370
576.98	28.269
577.31	28.099
577.65	28.085
577.98	27.880
578.32	27.064
578.66	27.328
578.99	27.729
579.33	28.057
579.67	27.856
580.00	27.377
580.34	27.203
580.67	27.405
581.01	27.045
581.35	26.826
581.68	26.477
582.02	27.003
582.35	27.129
582.69	27.027
583.02	27.116
583.36	27.624
583.70	27.289
584.03	27.286
584.37	27.228
584.70	27.335
585.04	26.738
585.37	26.536
585.71	26.343
586.04	26.860
586.38	27.159
586.72	26.924
587.05	26.452
587.39	26.826
587.72	26.962
588.06	26.934
588.39	27.234
588.73	26.534
589.06	26.721
589.40	27.474
589.73	26.960
590.07	26.956
590.40	27.113
590.73	27.466
591.07	27.997
591.40	27.916
591.74	27.742
592.07	28.624
592.41	27.839
592.74	27.050
593.08	27.516
593.41	26.509
593.75	26.983
594.08	26.992
594.41	27.692
594.75	26.968
595.08	26.952
595.42	26.948
595.75	26.865
596.09	27.618
596.42	26.836
596.75	27.325
597.09	27.273
597.42	26.818
597.75	26.695
598.09	26.984
598.42	27.302
598.76	26.634
599.09	25.917
599.42	25.846
599.76	26.048
600.09	26.159
600.42	26.226
600.76	26.420
601.09	25.855
601.42	25.644
601.76	25.828
602.09	25.733
602.42	25.627
602.76	25.683
603.09	26.505
603.42	25.939
603.76	25.546
604.09	26.295
604.42	26.679
604.76	25.495
605.09	26.406
605.42	26.356
605.75	25.769
606.09	26.017
606.42	25.283
606.75	25.300
607.09	24.731
607.42	25.665
607.75	25.401
608.08	25.257
608.42	25.514
608.75	26.575
609.08	26.019
609.41	25.937
609.75	25.446
610.08	26.121
610.41	25.871
610.74	25.798
611.07	26.199
611.41	27.085
611.74	25.820
612.07	25.760
612.40	25.713
612.73	26.895
613.07	26.210
613.40	25.746
613.73	25.421
614.06	25.662
614.39	25.996
614.72	25.667
615.06	25.746
615.39	24.988
615.72	25.403
616.05	25.304
616.38	25.832
616.71	26.228
617.05	24.760
617.38	26.485
617.71	26.566
618.04	25.634
618.37	25.902
618.70	25.962
619.03	26.225
619.36	26.510
619.69	26.201
620.03	25.173
620.36	25.399
620.69	25.601
621.02	26.444
621.35	27.286
621.68	28.344
622.01	26.762
622.34	25.941
622.67	27.148
623.00	24.831
623.33	27.140
623.66	26.913
623.99	25.543
624.32	26.836
624.65	25.611
624.99	26.073
625.32	26.127
625.65	26.568
625.98	25.288
626.31	26.931
626.64	25.861
626.97	26.482
627.30	26.955
627.63	27.232
627.96	28.078
628.29	26.304
628.62	27.372
628.95	27.169
629.28	26.083
629.61	26.431
629.94	25.607
630.26	26.271
630.59	27.375
630.92	27.446
631.25	27.549
631.58	26.365
631.91	27.179
632.24	28.818
632.57	28.368
632.90	27.382
633.23	28.469
633.56	27.857
633.89	27.479
634.22	28.586
634.55	29.749
634.88	28.139
635.20	30.893
635.53	28.362
635.86	28.927
636.19	28.738
636.52	27.532
636.85	26.864
637.18	26.923
637.51	28.387
637.83	27.021
638.16	28.917
638.49	28.521
