SpectraSuite Data File
++++++++++++++++++++++++++++++++++++
Date: Thu May 14 16:33:00 PDT 2015
User: schluterlab
Dark Spectrum Present: Yes
Reference Spectrum Present: Yes
Number of Sampled Component Spectra: 1
Spectrometers: USB2E3373
Integration Time (usec): 3000 (USB2E3373)
Spectra Averaged: 3 (USB2E3373)
Boxcar Smoothing: 0 (USB2E3373)
Correct for Electrical Dark: No (USB2E3373)
Strobe/Lamp Enabled: No (USB2E3373)
Correct for Detector Non-linearity: No (USB2E3373)
Correct for Stray Light: No (USB2E3373)
Number of Pixels in Processed Spectrum: 2048
>>>>>Begin Processed Spectral Data<<<<<
178.53	0.000
178.91	-42.857
179.29	-1100.000
179.67	-1000.000
180.04	114.286
180.42	20.000
180.80	-0.000
181.18	-500.000
181.56	300.000
181.94	25.000
182.31	100.000
182.69	233.333
183.07	300.000
183.45	50.000
183.83	-66.667
184.20	0.000
184.58	-200.000
184.96	-225.000
185.34	0.000
185.72	120.000
186.09	133.333
186.47	200.000
186.85	260.000
187.23	-111.111
187.61	-1000.000
187.98	80.000
188.36	250.000
188.74	-75.000
189.12	0.000
189.49	75.000
189.87	-125.000
190.25	0.000
190.63	60.000
191.00	-122.222
191.38	0.000
191.76	-250.000
192.14	100.000
192.51	-0.000
192.89	133.333
193.27	0.000
193.65	-85.714
194.02	-1200.000
194.40	-114.286
194.78	157.143
195.15	0.000
195.53	0.000
195.91	0.000
196.29	-25.000
196.66	-23.077
197.04	-800.000
197.42	-157.143
197.79	-50.000
198.17	-50.000
198.55	-157.143
198.92	33.333
199.30	-37.500
199.68	63.636
200.05	-28.571
200.43	-500.000
200.81	14.286
201.18	0.000
201.56	88.889
201.94	0.000
202.31	200.000
202.69	-66.667
203.07	800.000
203.44	-77.778
203.82	-100.000
204.19	-25.000
204.57	-166.667
204.95	-75.000
205.32	-1200.000
205.70	375.000
206.08	0.000
206.45	33.333
206.83	100.000
207.20	150.000
207.58	-180.000
207.96	-150.000
208.33	-66.667
208.71	33.333
209.08	33.333
209.46	0.000
209.84	100.000
210.21	100.000
210.59	700.000
210.96	266.667
211.34	-150.000
211.71	25.000
212.09	-900.000
212.46	0.000
212.84	600.000
213.22	-60.000
213.59	-50.000
213.97	-10.000
214.34	-33.333
214.72	-83.333
215.09	-100.000
215.47	0.000
215.84	-14.286
216.22	500.000
216.59	20.000
216.97	-220.000
217.34	-150.000
217.72	-12.500
218.09	-25.000
218.47	-200.000
218.84	0.000
219.22	200.000
219.59	29.412
219.97	-10.000
220.34	400.000
220.72	22.222
221.09	61.538
221.47	-33.333
221.84	-40.000
222.22	-214.286
222.59	0.000
222.97	62.500
223.34	-220.000
223.72	-600.000
224.09	25.000
224.46	-50.000
224.84	140.000
225.21	28.571
225.59	-225.000
225.96	25.000
226.34	26.923
226.71	183.333
227.08	-150.000
227.46	40.000
227.83	-175.000
228.21	47.368
228.58	50.000
228.95	700.000
229.33	25.000
229.70	-70.000
230.08	42.105
230.45	90.000
230.82	-333.333
231.20	-14.286
231.57	25.000
231.95	-36.364
232.32	63.636
232.69	50.000
233.07	0.000
233.44	0.000
233.81	-80.000
234.19	33.333
234.56	13.636
234.93	48.276
235.31	15.789
235.68	-33.333
236.05	-45.000
236.43	3.846
236.80	48.000
237.17	-29.630
237.55	3.030
237.92	-70.000
238.29	-12.903
238.67	-20.455
239.04	-2.778
239.41	-7.143
239.79	4.348
240.16	-20.370
240.53	6.522
240.91	-21.569
241.28	-11.475
241.65	14.925
242.02	2.703
242.40	-7.692
242.77	2.667
243.14	-10.976
243.51	-21.053
243.89	-11.538
244.26	0.990
244.63	-0.980
245.00	-2.804
245.38	-6.140
245.75	-8.850
246.12	-3.968
246.49	0.000
246.87	-3.571
247.24	1.987
247.61	-3.289
247.98	-3.356
248.36	-6.173
248.73	-9.816
249.10	1.639
249.47	4.975
249.84	5.759
250.22	0.000
250.59	0.000
250.96	0.909
251.33	-3.061
251.70	1.282
252.08	-0.833
252.45	3.279
252.82	-2.893
253.19	0.781
253.56	1.141
253.94	-1.154
254.31	-1.136
254.68	1.399
255.05	3.257
255.42	-0.680
255.79	-3.560
256.16	0.000
256.54	-2.980
256.91	0.328
257.28	-2.623
257.65	0.000
258.02	-4.130
258.39	-1.994
258.76	-0.306
259.14	1.149
259.51	-0.865
259.88	-1.133
260.25	-1.667
260.62	0.000
260.99	1.366
261.36	2.413
261.73	-1.592
262.10	0.000
262.47	-0.804
262.85	0.758
263.22	1.299
263.59	-1.842
263.96	-1.535
264.33	-0.512
264.70	-0.494
265.07	0.477
265.44	2.721
265.81	1.157
266.18	-1.134
266.55	-0.446
266.92	0.683
267.29	0.219
267.66	-0.887
268.03	0.000
268.40	-1.044
268.77	-1.139
269.14	-4.405
269.51	-0.439
269.88	0.000
270.25	-0.604
270.62	0.422
270.99	2.020
271.36	1.584
271.73	0.786
272.10	0.601
272.47	0.000
272.84	0.803
273.21	-1.002
273.58	1.008
273.95	-0.962
274.32	-0.570
274.69	-1.354
275.06	1.648
275.43	1.294
275.80	2.293
276.17	-1.852
276.54	0.373
276.91	0.000
277.28	0.542
277.65	0.359
278.02	1.103
278.39	-0.543
278.76	-1.406
279.13	0.532
279.50	1.546
279.87	1.789
280.23	-2.993
280.60	1.017
280.97	0.329
281.34	-1.188
281.71	1.354
282.08	0.000
282.45	0.655
282.82	0.157
283.19	-1.454
283.56	0.164
283.92	3.303
284.29	2.212
284.66	0.657
285.03	-1.122
285.40	0.618
285.77	-1.084
286.14	0.000
286.51	-0.609
286.87	-0.158
287.24	0.904
287.61	0.149
287.98	0.000
288.35	0.000
288.72	0.444
289.08	1.611
289.45	-0.592
289.82	-1.205
290.19	0.287
290.56	0.141
290.93	-0.143
291.29	0.000
291.66	0.000
292.03	-0.814
292.40	0.816
292.77	0.270
293.13	1.083
293.50	-0.394
293.87	0.537
294.24	1.467
294.60	2.023
294.97	-0.805
295.34	1.024
295.71	0.000
296.08	0.517
296.44	0.613
296.81	-0.487
297.18	0.000
297.55	-1.061
297.91	0.474
298.28	0.118
298.65	0.832
299.02	-0.472
299.38	1.602
299.75	1.168
300.12	0.231
300.48	-0.346
300.85	0.787
301.22	0.895
301.59	0.571
301.95	0.339
302.32	2.333
302.69	0.438
303.05	0.326
303.42	0.665
303.79	1.042
304.15	1.998
304.52	0.634
304.89	1.780
305.25	1.035
305.62	0.313
305.99	0.722
306.35	1.008
306.72	1.241
307.09	0.609
307.45	1.863
307.82	1.110
308.19	1.211
308.55	1.929
308.92	1.461
309.29	1.628
309.65	-0.390
310.02	0.495
310.38	1.083
310.75	0.874
311.12	2.205
311.48	0.684
311.85	1.330
312.22	1.044
312.58	1.972
312.95	0.287
313.31	2.439
313.68	2.106
314.05	3.342
314.41	2.459
314.78	1.907
315.14	2.541
315.51	2.770
315.87	3.150
316.24	2.831
316.61	3.286
316.97	2.624
317.34	2.293
317.70	3.406
318.07	2.734
318.43	3.997
318.80	4.515
319.16	2.661
319.53	2.142
319.89	3.769
320.26	4.181
320.62	3.723
320.99	4.247
321.35	4.159
321.72	4.279
322.08	3.427
322.45	4.697
322.81	4.332
323.18	4.425
323.54	4.224
323.91	5.427
324.27	6.282
324.64	6.297
325.00	5.390
325.37	6.061
325.73	7.273
326.10	6.813
326.46	6.840
326.83	7.686
327.19	6.614
327.56	7.273
327.92	7.238
328.29	6.532
328.65	6.365
329.01	7.445
329.38	7.329
329.74	8.305
330.11	7.962
330.47	7.498
330.84	7.580
331.20	8.833
331.56	7.452
331.93	7.615
332.29	7.881
332.66	8.306
333.02	8.208
333.38	8.221
333.75	7.744
334.11	7.506
334.48	8.003
334.84	8.666
335.20	8.564
335.57	8.010
335.93	8.926
336.29	7.404
336.66	7.233
337.02	8.194
337.38	9.014
337.75	7.603
338.11	7.906
338.47	8.437
338.84	7.614
339.20	7.751
339.56	7.166
339.93	8.785
340.29	8.132
340.65	8.435
341.02	8.699
341.38	8.650
341.74	7.910
342.11	7.643
342.47	6.990
342.83	7.488
343.20	7.359
343.56	8.180
343.92	8.167
344.28	6.484
344.65	7.752
345.01	7.722
345.37	7.776
345.73	7.950
346.10	7.878
346.46	6.883
346.82	7.865
347.19	7.639
347.55	7.967
347.91	6.984
348.27	7.511
348.63	8.073
349.00	7.532
349.36	6.691
349.72	7.440
350.08	7.652
350.45	7.985
350.81	7.768
351.17	7.368
351.53	7.430
351.89	6.606
352.26	7.090
352.62	7.015
352.98	6.718
353.34	7.095
353.70	6.086
354.07	7.303
354.43	6.910
354.79	7.180
355.15	7.873
355.51	7.091
355.87	7.180
356.24	6.616
356.60	6.430
356.96	7.191
357.32	6.394
357.68	6.076
358.04	6.961
358.40	6.194
358.77	6.140
359.13	6.647
359.49	5.725
359.85	7.977
360.21	6.456
360.57	6.461
360.93	6.206
361.29	7.088
361.66	6.227
362.02	6.889
362.38	6.887
362.74	6.494
363.10	6.259
363.46	6.510
363.82	6.534
364.18	6.545
364.54	6.846
364.90	7.023
365.26	5.931
365.62	7.467
365.98	6.059
366.35	6.846
366.71	6.259
367.07	6.089
367.43	6.829
367.79	6.569
368.15	6.689
368.51	7.037
368.87	6.924
369.23	6.733
369.59	5.943
369.95	7.032
370.31	6.482
370.67	6.190
371.03	5.679
371.39	6.044
371.75	5.846
372.11	6.233
372.47	6.026
372.83	6.610
373.19	7.071
373.55	5.894
373.91	5.862
374.27	5.951
374.63	6.495
374.99	5.504
375.35	6.104
375.71	6.323
376.07	5.875
376.42	6.486
376.78	6.339
377.14	5.989
377.50	5.756
377.86	6.404
378.22	6.407
378.58	5.886
378.94	5.869
379.30	5.682
379.66	6.290
380.02	6.463
380.38	5.933
380.74	6.141
381.09	5.981
381.45	6.534
381.81	6.382
382.17	6.473
382.53	6.316
382.89	6.659
383.25	5.862
383.61	5.903
383.97	5.241
384.32	5.742
384.68	5.742
385.04	5.610
385.40	6.423
385.76	6.096
386.12	5.745
386.48	6.647
386.83	6.079
387.19	6.431
387.55	4.988
387.91	5.936
388.27	5.427
388.62	5.956
388.98	5.584
389.34	6.128
389.70	5.811
390.06	6.217
390.42	5.904
390.77	6.863
391.13	5.282
391.49	5.254
391.85	4.970
392.20	6.168
392.56	6.497
392.92	6.216
393.28	5.473
393.64	5.642
393.99	5.869
394.35	5.841
394.71	6.108
395.07	4.910
395.42	5.311
395.78	6.033
396.14	5.942
396.50	5.463
396.85	5.844
397.21	5.385
397.57	5.359
397.92	6.415
398.28	5.378
398.64	4.748
399.00	5.497
399.35	5.759
399.71	5.109
400.07	5.559
400.42	5.006
400.78	4.282
401.14	5.065
401.49	5.856
401.85	5.291
402.21	5.620
402.57	6.221
402.92	5.378
403.28	5.445
403.63	4.594
403.99	4.869
404.35	5.230
404.70	5.099
405.06	5.054
405.42	5.386
405.77	5.071
406.13	4.646
406.49	5.968
406.84	5.263
407.20	5.590
407.55	4.603
407.91	5.343
408.27	4.947
408.62	5.119
408.98	5.340
409.34	4.164
409.69	4.821
410.05	5.686
410.40	5.278
410.76	5.440
411.11	5.669
411.47	5.774
411.83	5.056
412.18	5.000
412.54	5.276
412.89	4.889
413.25	4.684
413.60	4.767
413.96	5.012
414.31	5.609
414.67	5.307
415.03	4.738
415.38	5.296
415.74	5.254
416.09	5.059
416.45	5.573
416.80	5.018
417.16	4.917
417.51	4.732
417.87	4.660
418.22	5.689
418.58	4.089
418.93	5.995
419.29	4.439
419.64	4.982
420.00	4.392
420.35	4.885
420.71	4.882
421.06	4.543
421.42	4.644
421.77	5.170
422.12	5.180
422.48	4.864
422.83	4.984
423.19	4.721
423.54	5.033
423.90	4.914
424.25	5.227
424.61	3.674
424.96	4.723
425.31	4.989
425.67	3.918
426.02	4.870
426.38	4.592
426.73	4.576
427.09	5.767
427.44	4.970
427.79	4.754
428.15	4.053
428.50	4.157
428.85	4.535
429.21	5.266
429.56	4.146
429.92	4.816
430.27	4.867
430.62	4.250
430.98	4.870
431.33	4.594
431.68	4.550
432.04	4.926
432.39	4.981
432.74	4.509
433.10	4.922
433.45	4.069
433.80	4.667
434.16	5.062
434.51	4.625
434.86	4.669
435.22	4.463
435.57	5.130
435.92	5.008
436.28	4.721
436.63	4.042
436.98	4.563
437.34	4.340
437.69	3.908
438.04	4.654
438.39	5.227
438.75	4.317
439.10	5.285
439.45	4.695
439.81	5.085
440.16	4.504
440.51	4.404
440.86	4.391
441.22	4.394
441.57	4.350
441.92	4.995
442.27	4.848
442.63	4.372
442.98	5.390
443.33	4.577
443.68	5.352
444.03	5.456
444.39	4.993
444.74	4.696
445.09	5.271
445.44	5.058
445.79	4.933
446.15	4.779
446.50	4.961
446.85	5.010
447.20	5.126
447.55	5.230
447.91	4.817
448.26	4.598
448.61	5.207
448.96	5.365
449.31	5.355
449.66	4.521
450.02	5.222
450.37	5.328
450.72	5.436
451.07	5.410
451.42	4.506
451.77	5.058
452.12	5.135
452.47	4.813
452.83	5.462
453.18	5.079
453.53	4.767
453.88	5.135
454.23	5.593
454.58	4.991
454.93	4.308
455.28	4.937
455.63	5.003
455.98	5.698
456.34	5.065
456.69	5.350
457.04	5.378
457.39	4.712
457.74	4.642
458.09	4.887
458.44	5.603
458.79	4.745
459.14	4.982
459.49	4.641
459.84	4.722
460.19	4.664
460.54	4.997
460.89	4.870
461.24	4.425
461.59	5.977
461.94	4.621
462.29	5.039
462.64	5.311
462.99	5.524
463.34	4.932
463.69	4.807
464.04	5.670
464.39	4.989
464.74	5.302
465.09	4.671
465.44	4.882
465.79	5.447
466.14	4.690
466.49	4.895
466.84	4.408
467.19	5.607
467.54	5.112
467.89	4.770
468.24	4.820
468.59	3.995
468.94	4.138
469.29	4.079
469.64	5.277
469.99	4.653
470.34	3.713
470.68	5.537
471.03	4.650
471.38	4.578
471.73	4.486
472.08	3.871
472.43	4.997
472.78	5.605
473.13	4.172
473.48	5.136
473.83	5.572
474.17	4.982
474.52	4.209
474.87	5.094
475.22	5.690
475.57	4.777
475.92	5.127
476.27	5.591
476.61	4.829
476.96	4.015
477.31	5.248
477.66	5.299
478.01	4.931
478.36	5.135
478.70	4.877
479.05	5.215
479.40	4.837
479.75	4.899
480.10	5.211
480.45	5.424
480.79	4.671
481.14	5.009
481.49	4.861
481.84	5.178
482.19	5.290
482.53	5.028
482.88	4.918
483.23	4.357
483.58	4.236
483.92	4.654
484.27	4.488
484.62	4.909
484.97	4.782
485.31	4.294
485.66	4.753
486.01	4.635
486.36	4.638
486.70	4.913
487.05	4.952
487.40	4.853
487.75	5.293
488.09	4.734
488.44	5.117
488.79	4.755
489.13	4.598
489.48	4.233
489.83	4.708
490.17	4.496
490.52	5.296
490.87	5.118
491.22	4.679
491.56	4.650
491.91	4.884
492.26	5.366
492.60	5.072
492.95	4.871
493.30	5.065
493.64	4.687
493.99	5.175
494.34	3.963
494.68	4.154
495.03	4.846
495.37	4.483
495.72	4.853
496.07	4.864
496.41	4.376
496.76	4.003
497.11	4.713
497.45	4.489
497.80	5.198
498.14	4.172
498.49	4.228
498.84	4.662
499.18	4.139
499.53	5.067
499.87	4.703
500.22	3.963
500.56	4.184
500.91	4.485
501.26	4.909
501.60	4.021
501.95	4.429
502.29	4.651
502.64	4.373
502.98	4.530
503.33	4.492
503.67	3.969
504.02	4.553
504.36	4.736
504.71	4.134
505.06	4.275
505.40	4.433
505.75	4.690
506.09	5.295
506.44	4.457
506.78	4.587
507.13	4.703
507.47	4.453
507.82	4.782
508.16	4.493
508.51	3.985
508.85	4.440
509.19	4.358
509.54	3.939
509.88	4.760
510.23	4.857
510.57	5.220
510.92	4.693
511.26	4.521
511.61	3.959
511.95	4.588
512.30	4.973
512.64	3.798
512.98	4.352
513.33	4.889
513.67	4.691
514.02	4.701
514.36	5.064
514.70	4.583
515.05	3.910
515.39	4.829
515.74	5.037
516.08	4.543
516.42	4.919
516.77	4.259
517.11	4.074
517.46	4.136
517.80	4.329
518.14	4.788
518.49	4.447
518.83	4.470
519.17	4.739
519.52	4.560
519.86	4.963
520.20	4.739
520.55	4.217
520.89	4.223
521.23	4.411
521.58	3.559
521.92	4.079
522.26	4.639
522.61	3.819
522.95	4.383
523.29	3.908
523.64	4.652
523.98	4.164
524.32	5.330
524.66	4.439
525.01	4.247
525.35	4.136
525.69	3.770
526.04	4.191
526.38	4.483
526.72	4.152
527.06	3.930
527.41	4.373
527.75	4.691
528.09	3.778
528.43	4.204
528.78	4.451
529.12	3.956
529.46	4.103
529.80	4.291
530.15	3.826
530.49	3.262
530.83	4.545
531.17	3.345
531.51	4.272
531.86	4.087
532.20	4.390
532.54	4.548
532.88	4.061
533.22	4.537
533.57	5.078
533.91	4.770
534.25	4.466
534.59	4.310
534.93	3.792
535.27	4.507
535.62	4.662
535.96	4.184
536.30	3.819
536.64	4.985
536.98	4.490
537.32	4.198
537.66	4.866
538.01	4.592
538.35	3.715
538.69	3.786
539.03	4.169
539.37	4.122
539.71	4.264
540.05	4.137
540.39	4.218
540.73	3.339
541.07	4.353
541.42	4.253
541.76	3.618
542.10	4.162
542.44	3.837
542.78	4.745
543.12	3.933
543.46	4.029
543.80	3.777
544.14	3.830
544.48	4.965
544.82	4.249
545.16	3.936
545.50	4.494
545.84	4.042
546.18	5.432
546.52	4.650
546.86	4.025
547.20	4.135
547.54	3.870
547.88	3.617
548.22	4.094
548.56	3.862
548.90	3.881
549.24	4.377
549.58	3.912
549.92	3.444
550.26	4.401
550.60	4.467
550.94	4.657
551.28	4.356
551.62	4.380
551.96	4.272
552.30	4.716
552.64	4.231
552.98	3.618
553.32	3.794
553.66	4.116
554.00	3.405
554.34	4.698
554.68	4.067
555.02	4.468
555.36	4.536
555.69	4.036
556.03	3.468
556.37	4.756
556.71	4.058
557.05	3.770
557.39	3.384
557.73	4.293
558.07	3.709
558.41	3.987
558.75	4.057
559.08	4.662
559.42	3.567
559.76	4.749
560.10	4.689
560.44	3.892
560.78	4.375
561.12	4.433
561.45	3.589
561.79	4.396
562.13	4.559
562.47	4.069
562.81	3.291
563.15	3.346
563.48	3.915
563.82	3.990
564.16	3.271
564.50	3.635
564.84	4.071
565.17	4.000
565.51	3.797
565.85	3.682
566.19	3.456
566.52	3.569
566.86	3.679
567.20	4.078
567.54	3.664
567.88	3.466
568.21	4.051
568.55	3.789
568.89	3.768
569.23	4.056
569.56	4.220
569.90	4.134
570.24	4.047
570.57	3.849
570.91	3.368
571.25	3.587
571.59	4.008
571.92	3.731
572.26	3.441
572.60	3.576
572.93	3.896
573.27	3.400
573.61	4.023
573.95	3.739
574.28	4.205
574.62	3.661
574.96	3.529
575.29	3.349
575.63	3.765
575.97	3.880
576.30	3.578
576.64	3.842
576.98	3.736
577.31	3.548
577.65	3.446
577.98	3.897
578.32	3.548
578.66	3.487
578.99	3.871
579.33	3.624
579.67	3.490
580.00	3.461
580.34	4.079
580.67	3.729
581.01	3.397
581.35	3.779
581.68	3.602
582.02	3.697
582.35	3.749
582.69	3.626
583.02	3.644
583.36	3.553
583.70	3.249
584.03	3.648
584.37	3.802
584.70	3.276
585.04	3.464
585.37	3.513
585.71	3.754
586.04	3.589
586.38	3.482
586.72	3.560
587.05	3.198
587.39	3.540
587.72	3.373
588.06	3.603
588.39	3.610
588.73	3.545
589.06	3.217
589.40	3.473
589.73	3.663
590.07	3.282
590.40	3.820
590.73	3.181
591.07	3.984
591.40	2.994
591.74	3.577
592.07	3.979
592.41	3.470
592.74	3.727
593.08	3.854
593.41	3.733
593.75	3.506
594.08	3.453
594.41	3.654
594.75	3.753
595.08	3.297
595.42	3.766
595.75	3.520
596.09	3.728
596.42	3.296
596.75	3.898
597.09	3.717
597.42	3.735
597.75	3.489
598.09	3.849
598.42	4.182
598.76	3.668
599.09	3.774
599.42	3.453
599.76	3.632
600.09	3.470
600.42	3.303
600.76	3.765
601.09	3.551
601.42	3.364
601.76	3.172
602.09	3.252
602.42	3.235
602.76	3.764
603.09	3.304
603.42	3.432
603.76	3.312
604.09	3.939
604.42	3.083
604.76	3.234
605.09	3.789
605.42	3.150
605.75	3.346
606.09	3.173
606.42	3.283
606.75	2.886
607.09	3.571
607.42	3.507
607.75	3.517
608.08	3.631
608.42	3.386
608.75	3.731
609.08	3.014
609.41	3.000
609.75	3.125
610.08	3.254
610.41	3.356
610.74	3.193
611.07	3.020
611.41	3.812
611.74	3.418
612.07	3.740
612.40	3.422
612.73	3.178
613.07	3.716
613.40	3.465
613.73	3.178
614.06	4.171
614.39	3.353
614.72	4.076
615.06	3.417
615.39	3.142
615.72	3.649
616.05	3.108
616.38	3.330
616.71	3.710
617.05	3.301
617.38	3.906
617.71	3.996
618.04	3.886
618.37	3.880
618.70	3.620
619.03	3.465
619.36	2.898
619.69	3.587
620.03	3.202
620.36	3.313
620.69	3.701
621.02	3.871
621.35	3.048
621.68	3.688
622.01	3.915
622.34	2.720
622.67	3.505
623.00	2.767
623.33	4.247
623.66	3.178
623.99	3.226
624.32	4.288
624.65	3.218
624.99	3.511
625.32	4.311
625.65	3.911
625.98	3.322
626.31	2.906
626.64	3.516
626.97	2.776
627.30	2.050
627.63	3.151
627.96	4.204
628.29	3.502
628.62	2.939
628.95	2.717
629.28	2.549
629.61	3.199
629.94	3.013
630.26	2.881
630.59	3.713
630.92	2.511
631.25	4.293
631.58	3.672
631.91	3.468
632.24	3.842
632.57	2.751
632.90	3.611
633.23	2.449
633.56	3.469
633.89	2.376
634.22	4.054
634.55	4.175
634.88	2.165
635.20	3.660
635.53	3.616
635.86	3.467
636.19	3.924
636.52	3.059
636.85	4.392
637.18	3.534
637.51	2.581
637.83	4.762
638.16	4.493
638.49	3.169
638.82	2.480
639.15	2.405
639.48	4.273
639.81	2.425
640.13	4.829
640.46	2.424
640.79	1.348
641.12	3.727
641.45	3.137
641.77	4.493
642.10	3.937
642.43	3.856
642.76	2.439
643.09	4.110
643.41	2.381
643.74	2.897
644.07	4.138
644.40	3.112
644.73	2.467
645.05	3.377
645.38	4.604
645.71	4.399
646.04	4.878
646.36	1.314
646.69	1.534
647.02	3.517
647.35	5.649
647.67	3.704
648.00	1.433
648.33	3.754
648.66	2.140
648.98	3.129
649.31	3.383
649.64	4.648
649.96	4.377
650.29	1.669
650.62	2.687
650.94	1.652
651.27	2.096
651.60	1.901
651.92	1.216
652.25	3.763
652.58	3.026
652.90	3.198
653.23	5.211
653.56	3.566
653.88	3.933
654.21	3.521
654.54	2.890
654.86	3.399
655.19	3.137
655.52	4.709
655.84	3.336
656.17	3.758
656.49	5.348
656.82	5.939
657.15	4.490
657.47	3.443
657.80	2.451
658.13	1.985
658.45	2.535
