SpectraSuite Data File
++++++++++++++++++++++++++++++++++++
Date: Thu May 14 16:38:04 PDT 2015
User: schluterlab
Dark Spectrum Present: Yes
Reference Spectrum Present: Yes
Number of Sampled Component Spectra: 1
Spectrometers: USB2E3373
Integration Time (usec): 3000 (USB2E3373)
Spectra Averaged: 3 (USB2E3373)
Boxcar Smoothing: 0 (USB2E3373)
Correct for Electrical Dark: No (USB2E3373)
Strobe/Lamp Enabled: No (USB2E3373)
Correct for Detector Non-linearity: No (USB2E3373)
Correct for Stray Light: No (USB2E3373)
Number of Pixels in Processed Spectrum: 2048
>>>>>Begin Processed Spectral Data<<<<<
178.53	0.000
178.91	42.857
179.29	-1200.000
179.67	-300.000
180.04	114.286
180.42	-10.000
180.80	20.000
181.18	-900.000
181.56	400.000
181.94	150.000
182.31	-100.000
182.69	300.000
183.07	-250.000
183.45	150.000
183.83	50.000
184.20	33.333
184.58	-0.000
184.96	-100.000
185.34	-11.111
185.72	-180.000
186.09	133.333
186.47	250.000
186.85	200.000
187.23	-111.111
187.61	0.000
187.98	120.000
188.36	325.000
188.74	-50.000
189.12	133.333
189.49	-12.500
189.87	-87.500
190.25	11.111
190.63	60.000
191.00	-122.222
191.38	0.000
191.76	-50.000
192.14	-50.000
192.51	-150.000
192.89	166.667
193.27	0.000
193.65	-28.571
194.02	-1200.000
194.40	-157.143
194.78	100.000
195.15	0.000
195.53	9.091
195.91	0.000
196.29	100.000
196.66	-38.462
197.04	-1200.000
197.42	28.571
197.79	-650.000
198.17	-187.500
198.55	-100.000
198.92	44.444
199.30	-50.000
199.68	45.455
200.05	14.286
200.43	-300.000
200.81	142.857
201.18	0.000
201.56	200.000
201.94	0.000
202.31	200.000
202.69	-144.444
203.07	300.000
203.44	-33.333
203.82	-275.000
204.19	-8.333
204.57	-100.000
204.95	-25.000
205.32	-900.000
205.70	175.000
206.08	-133.333
206.45	0.000
206.83	280.000
207.20	-133.333
207.58	-200.000
207.96	-183.333
208.33	116.667
208.71	91.667
209.08	16.667
209.46	0.000
209.84	116.667
210.21	-100.000
210.59	450.000
210.96	-66.667
211.34	-50.000
211.71	0.000
212.09	-300.000
212.46	0.000
212.84	550.000
213.22	-160.000
213.59	50.000
213.97	-30.000
214.34	-200.000
214.72	50.000
215.09	-100.000
215.47	0.000
215.84	157.143
216.22	350.000
216.59	40.000
216.97	-220.000
217.34	75.000
217.72	75.000
218.09	-200.000
218.47	-200.000
218.84	0.000
219.22	20.000
219.59	58.824
219.97	40.000
220.34	50.000
220.72	-22.222
221.09	69.231
221.47	-266.667
221.84	-70.000
222.22	-14.286
222.59	0.000
222.97	25.000
223.34	-200.000
223.72	-900.000
224.09	-250.000
224.46	-125.000
224.84	-20.000
225.21	-71.429
225.59	-225.000
225.96	-25.000
226.34	34.615
226.71	-33.333
227.08	-400.000
227.46	-13.333
227.83	-325.000
228.21	5.263
228.58	87.500
228.95	750.000
229.33	-33.333
229.70	0.000
230.08	68.421
230.45	60.000
230.82	0.000
231.20	0.000
231.57	16.667
231.95	-45.455
232.32	0.000
232.69	5.000
233.07	0.000
233.44	17.647
233.81	10.000
234.19	44.444
234.56	50.000
234.93	37.931
235.31	21.053
235.68	44.444
236.05	-20.000
236.43	53.846
236.80	60.000
237.17	0.000
237.55	18.182
237.92	-90.000
238.29	48.387
238.67	11.364
239.04	38.889
239.41	11.905
239.79	4.348
240.16	9.259
240.53	23.913
240.91	19.608
241.28	34.426
241.65	26.866
242.02	29.730
242.40	21.538
242.77	25.333
243.14	6.098
243.51	9.211
243.89	7.692
244.26	28.713
244.63	31.373
245.00	28.972
245.38	20.175
245.75	20.354
246.12	18.254
246.49	17.054
246.87	25.714
247.24	17.219
247.61	18.421
247.98	19.463
248.36	21.605
248.73	22.086
249.10	20.765
249.47	24.876
249.84	33.508
250.22	19.171
250.59	21.111
250.96	25.455
251.33	16.837
251.70	20.940
252.08	25.833
252.45	18.443
252.82	21.074
253.19	21.094
253.56	25.095
253.94	21.923
254.31	28.788
254.68	27.273
255.05	24.430
255.42	24.150
255.79	21.359
256.16	21.523
256.54	19.536
256.91	26.230
257.28	27.213
257.65	26.115
258.02	24.189
258.39	25.356
258.76	24.465
259.14	22.701
259.51	22.190
259.88	25.496
260.25	23.333
260.62	22.740
260.99	26.230
261.36	24.129
261.73	20.955
262.10	26.099
262.47	20.375
262.85	26.263
263.22	24.156
263.59	21.579
263.96	24.808
264.33	24.041
264.70	23.210
265.07	28.401
265.44	26.757
265.81	22.685
266.18	24.943
266.55	23.437
266.92	23.918
267.29	26.915
267.66	25.055
268.03	25.109
268.40	24.008
268.77	27.107
269.14	22.247
269.51	24.342
269.88	24.795
270.25	25.352
270.62	25.738
270.99	27.273
271.36	25.545
271.73	22.986
272.10	26.052
272.47	25.050
272.84	23.494
273.21	25.050
273.58	23.790
273.95	23.269
274.32	22.053
274.69	23.985
275.06	23.443
275.43	23.290
275.80	23.633
276.17	21.667
276.54	22.761
276.91	20.930
277.28	21.881
277.65	26.212
278.02	23.346
278.39	24.638
278.76	24.077
279.13	24.291
279.50	24.570
279.87	24.150
280.23	19.014
280.60	23.898
280.97	23.684
281.34	25.127
281.71	24.704
282.08	23.588
282.45	26.023
282.82	21.978
283.19	20.032
283.56	23.443
283.92	23.574
284.29	23.855
284.66	24.466
285.03	20.833
285.40	23.338
285.77	22.755
286.14	22.901
286.51	24.201
286.87	22.433
287.24	22.139
287.61	24.215
287.98	21.148
288.35	21.893
288.72	22.041
289.08	22.987
289.45	20.414
289.82	20.181
290.19	20.690
290.56	24.225
290.93	21.398
291.29	21.625
291.66	21.350
292.03	20.896
292.40	22.041
292.77	19.946
293.13	20.162
293.50	19.448
293.87	19.463
294.24	21.867
294.60	20.607
294.97	17.315
295.34	19.974
295.71	18.285
296.08	19.638
296.44	18.015
296.81	18.270
297.18	19.054
297.55	18.042
297.91	18.861
298.28	17.654
298.65	20.095
299.02	16.883
299.38	18.993
299.75	17.874
300.12	17.940
300.48	18.318
300.85	17.548
301.22	19.687
301.59	16.895
301.95	16.271
302.32	18.111
302.69	15.882
303.05	17.628
303.42	17.627
303.79	17.917
304.15	17.771
304.52	16.913
304.89	16.963
305.25	16.874
305.62	18.077
305.99	17.526
306.35	17.843
306.72	16.753
307.09	16.751
307.45	17.909
307.82	18.163
308.19	17.154
308.55	18.129
308.92	18.306
309.29	16.858
309.65	16.862
310.02	16.832
310.38	17.618
310.75	18.252
311.12	18.600
311.48	17.204
311.85	17.664
312.22	18.216
312.58	17.934
312.95	16.444
313.31	18.790
313.68	18.864
314.05	19.603
314.41	18.579
314.78	19.074
315.14	19.601
315.51	18.837
315.87	19.352
316.24	19.361
316.61	19.716
316.97	18.914
317.34	17.813
317.70	20.437
318.07	20.899
318.43	19.473
318.80	20.987
319.16	20.773
319.53	20.566
319.89	19.457
320.26	20.641
320.62	21.011
320.99	20.868
321.35	22.181
321.72	23.814
322.08	21.731
322.45	23.216
322.81	22.383
323.18	23.186
323.54	24.483
323.91	25.000
324.27	23.494
324.64	25.105
325.00	24.295
325.37	25.635
325.73	26.694
326.10	25.953
326.46	26.629
326.83	27.382
327.19	26.535
327.56	28.617
327.92	27.537
328.29	28.387
328.65	28.141
329.01	28.849
329.38	29.065
329.74	30.051
330.11	31.164
330.47	29.149
330.84	30.835
331.20	29.333
331.56	29.896
331.93	31.883
332.29	30.678
332.66	29.900
333.02	30.402
333.38	29.866
333.75	29.966
334.11	30.525
334.48	30.363
334.84	31.521
335.20	30.479
335.57	31.450
335.93	30.744
336.29	31.281
336.66	29.857
337.02	32.023
337.38	31.718
337.75	30.413
338.11	30.530
338.47	31.348
338.84	30.795
339.20	31.340
339.56	29.901
339.93	31.445
340.29	30.676
340.65	30.170
341.02	31.285
341.38	32.821
341.74	30.670
342.11	31.537
342.47	30.262
342.83	32.126
343.20	32.134
343.56	30.874
343.92	31.145
344.28	31.641
344.65	31.550
345.01	31.435
345.37	31.415
345.73	30.320
346.10	31.591
346.46	31.329
346.82	31.685
347.19	32.315
347.55	32.018
347.91	31.724
348.27	31.866
348.63	30.998
349.00	31.171
349.36	31.375
349.72	31.920
350.08	32.244
350.45	31.711
350.81	32.202
351.17	31.278
351.53	32.600
351.89	32.498
352.26	31.940
352.62	31.716
352.98	32.137
353.34	31.143
353.70	33.359
354.07	32.489
354.43	32.574
354.79	31.189
355.15	30.979
355.51	32.895
355.87	32.311
356.24	33.764
356.60	32.373
356.96	33.062
357.32	32.565
357.68	31.918
358.04	32.410
358.40	32.836
358.77	32.310
359.13	32.422
359.49	32.193
359.85	32.270
360.21	32.927
360.57	32.233
360.93	32.511
361.29	32.772
361.66	32.875
362.02	33.890
362.38	33.450
362.74	33.380
363.10	32.600
363.46	33.518
363.82	33.807
364.18	33.638
364.54	34.509
364.90	33.846
365.26	33.931
365.62	34.667
365.98	34.173
366.35	33.691
366.71	34.490
367.07	33.694
367.43	34.077
367.79	34.904
368.15	35.050
368.51	33.897
368.87	33.899
369.23	33.867
369.59	34.768
369.95	34.753
370.31	34.841
370.67	34.869
371.03	35.180
371.39	34.721
371.75	34.457
372.11	35.027
372.47	34.936
372.83	35.798
373.19	34.556
373.55	34.282
373.91	34.833
374.27	36.028
374.63	35.183
374.99	35.013
375.35	36.948
375.71	35.226
376.07	35.571
376.42	35.516
376.78	36.109
377.14	33.749
377.50	36.306
377.86	34.667
378.22	34.910
378.58	36.147
378.94	35.915
379.30	36.204
379.66	35.920
380.02	36.238
380.38	36.348
380.74	36.563
381.09	36.934
381.45	36.080
381.81	37.295
382.17	37.352
382.53	37.544
382.89	36.174
383.25	36.753
383.61	36.979
383.97	37.044
384.32	37.081
384.68	36.543
385.04	38.404
385.40	38.126
385.76	37.515
386.12	36.026
386.48	36.412
386.83	38.498
387.19	37.080
387.55	37.207
387.91	38.128
388.27	36.547
388.62	36.598
388.98	36.830
389.34	38.126
389.70	36.316
390.06	37.419
390.42	36.807
390.77	38.772
391.13	38.028
391.49	37.621
391.85	37.515
392.20	36.833
392.56	39.102
392.92	37.950
393.28	37.700
393.64	37.095
393.99	38.698
394.35	37.442
394.71	38.024
395.07	38.024
395.42	36.836
395.78	38.696
396.14	38.384
396.50	40.380
396.85	37.865
397.21	38.166
397.57	38.398
397.92	37.743
398.28	37.697
398.64	36.842
399.00	38.272
399.35	37.749
399.71	37.337
400.07	38.911
400.42	37.835
400.78	37.731
401.14	37.735
401.49	38.715
401.85	39.593
402.21	38.239
402.57	38.263
402.92	37.293
403.28	37.471
403.63	37.947
403.99	37.411
404.35	38.090
404.70	37.677
405.06	36.685
405.42	36.710
405.77	38.168
406.13	37.979
406.49	37.613
406.84	37.673
407.20	38.737
407.55	38.098
407.91	37.901
408.27	37.161
408.62	37.929
408.98	37.435
409.34	37.361
409.69	37.206
410.05	38.101
410.40	37.993
410.76	37.970
411.11	38.515
411.47	38.759
411.83	38.742
412.18	39.337
412.54	37.641
412.89	38.591
413.25	37.528
413.60	37.622
413.96	37.646
414.31	37.054
414.67	38.283
415.03	36.923
415.38	38.714
415.74	38.729
416.09	38.433
416.45	36.944
416.80	38.066
417.16	39.336
417.51	38.667
417.87	38.504
418.22	37.964
418.58	38.476
418.93	39.290
419.29	38.841
419.64	39.136
420.00	39.525
420.35	38.069
420.71	38.196
421.06	38.125
421.42	38.819
421.77	37.480
422.12	38.055
422.48	39.580
422.83	39.595
423.19	39.576
423.54	39.657
423.90	38.984
424.25	38.987
424.61	38.289
424.96	39.154
425.31	39.862
425.67	39.023
426.02	39.181
426.38	39.552
426.73	38.728
427.09	39.216
427.44	38.012
427.79	39.303
428.15	38.413
428.50	38.652
428.85	38.060
429.21	39.947
429.56	39.635
429.92	37.838
430.27	38.554
430.62	38.837
430.98	39.056
431.33	39.345
431.68	38.314
432.04	39.970
432.39	40.064
432.74	39.498
433.10	40.617
433.45	38.573
433.80	39.861
434.16	39.308
434.51	40.134
434.86	40.608
435.22	39.904
435.57	41.627
435.92	39.622
436.28	39.875
436.63	40.634
436.98	38.916
437.34	40.868
437.69	39.901
438.04	39.714
438.39	40.724
438.75	40.232
439.10	40.592
439.45	40.805
439.81	40.226
440.16	40.375
440.51	40.914
440.86	40.467
441.22	39.014
441.57	40.933
441.92	40.592
442.27	41.111
442.63	40.537
442.98	41.302
443.33	39.348
443.68	41.031
444.03	41.110
444.39	40.546
444.74	40.735
445.09	39.432
445.44	40.306
445.79	40.278
446.15	40.185
446.50	40.207
446.85	41.148
447.20	39.700
447.55	40.324
447.91	39.895
448.26	39.905
448.61	39.957
448.96	41.953
449.31	40.456
449.66	40.196
450.02	40.665
450.37	40.011
450.72	40.097
451.07	39.977
451.42	40.208
451.77	39.578
452.12	41.591
452.47	40.642
452.83	41.779
453.18	39.988
453.53	39.747
453.88	40.641
454.23	41.186
454.58	40.743
454.93	40.473
455.28	40.698
455.63	40.364
455.98	40.335
456.34	40.754
456.69	39.859
457.04	40.957
457.39	40.521
457.74	41.051
458.09	39.923
458.44	40.625
458.79	40.227
459.14	40.797
459.49	39.955
459.84	40.976
460.19	39.978
460.54	41.511
460.89	41.292
461.24	39.310
461.59	41.007
461.94	39.304
462.29	41.097
462.64	41.219
462.99	41.180
463.34	41.467
463.69	40.856
464.04	41.134
464.39	40.527
464.74	40.422
465.09	40.600
465.44	40.719
465.79	39.979
466.14	39.343
466.49	40.632
466.84	41.322
467.19	40.405
467.54	40.071
467.89	39.943
468.24	40.997
468.59	41.054
468.94	40.152
469.29	40.192
469.64	40.814
469.99	40.599
470.34	40.408
470.68	41.558
471.03	43.026
471.38	41.530
471.73	41.027
472.08	42.005
472.43	42.384
472.78	41.940
473.13	41.909
473.48	41.994
473.83	41.846
474.17	40.211
474.52	42.032
474.87	40.753
475.22	42.085
475.57	41.329
475.92	40.368
476.27	41.054
476.61	41.277
476.96	41.241
477.31	41.881
477.66	42.130
478.01	41.129
478.36	41.176
478.70	40.985
479.05	41.769
479.40	42.103
479.75	41.547
480.10	41.639
480.45	40.839
480.79	41.270
481.14	40.533
481.49	40.663
481.84	42.037
482.19	41.591
482.53	40.971
482.88	41.028
483.23	41.885
483.58	41.004
483.92	41.489
484.27	40.051
484.62	40.017
484.97	40.358
485.31	39.528
485.66	38.023
486.01	36.547
486.36	37.716
486.70	38.471
487.05	39.877
487.40	39.517
487.75	39.618
488.09	39.673
488.44	39.303
488.79	40.540
489.13	39.645
489.48	40.583
489.83	40.322
490.17	39.814
490.52	40.681
490.87	40.102
491.22	39.818
491.56	41.638
491.91	40.689
492.26	40.415
492.60	39.484
492.95	41.115
493.30	41.282
493.64	40.736
493.99	40.439
494.34	39.503
494.68	40.428
495.03	40.308
495.37	40.968
495.72	40.272
496.07	41.192
496.41	39.725
496.76	41.159
497.11	40.085
497.45	39.836
497.80	41.048
498.14	41.723
498.49	41.039
498.84	40.128
499.18	41.116
499.53	40.628
499.87	41.319
500.22	40.650
500.56	40.081
500.91	40.686
501.26	41.409
501.60	39.947
501.95	40.469
502.29	40.807
502.64	41.014
502.98	40.293
503.33	40.778
503.67	40.863
504.02	40.849
504.36	41.778
504.71	40.652
505.06	41.064
505.40	40.585
505.75	40.574
506.09	41.390
506.44	41.458
506.78	41.514
507.13	41.678
507.47	42.207
507.82	42.045
508.16	42.113
508.51	40.272
508.85	41.379
509.19	41.686
509.54	41.451
509.88	42.496
510.23	42.933
510.57	41.614
510.92	42.380
511.26	42.232
511.61	41.429
511.95	41.288
512.30	42.393
512.64	42.579
512.98	41.921
513.33	42.792
513.67	42.478
514.02	42.463
514.36	43.223
514.70	43.490
515.05	43.014
515.39	43.045
515.74	43.955
516.08	42.314
516.42	43.380
516.77	43.428
517.11	42.754
517.46	43.372
517.80	43.560
518.14	44.015
518.49	43.764
518.83	43.374
519.17	42.865
519.52	42.925
519.86	43.928
520.20	44.462
520.55	43.593
520.89	43.581
521.23	43.942
521.58	44.859
521.92	43.853
522.26	43.471
522.61	44.965
522.95	43.887
523.29	43.161
523.64	43.161
523.98	44.894
524.32	45.158
524.66	44.735
525.01	43.828
525.35	43.423
525.69	44.432
526.04	43.398
526.38	45.690
526.72	44.002
527.06	45.220
527.41	43.732
527.75	44.715
528.09	44.687
528.43	43.813
528.78	44.393
529.12	44.266
529.46	43.227
529.80	44.394
530.15	43.710
530.49	44.069
530.83	44.333
531.17	44.265
531.51	44.946
531.86	44.291
532.20	45.427
532.54	43.686
532.88	43.879
533.22	43.783
533.57	43.681
533.91	43.603
534.25	43.414
534.59	43.563
534.93	42.954
535.27	42.817
535.62	44.173
535.96	44.102
536.30	44.360
536.64	43.604
536.98	44.280
537.32	44.444
537.66	43.855
538.01	41.631
538.35	42.570
538.69	42.668
539.03	44.513
539.37	42.049
539.71	42.703
540.05	43.285
540.39	43.826
540.73	42.259
541.07	43.225
541.42	42.115
541.76	42.408
542.10	42.823
542.44	42.083
542.78	43.187
543.12	41.359
543.46	41.514
543.80	41.547
544.14	41.173
544.48	42.199
544.82	42.250
545.16	43.113
545.50	40.923
545.84	42.254
546.18	42.593
546.52	42.548
546.86	42.013
547.20	42.557
547.54	40.824
547.88	41.230
548.22	40.585
548.56	40.843
548.90	41.015
549.24	41.337
549.58	41.514
549.92	41.773
550.26	41.618
550.60	41.034
550.94	41.591
551.28	42.706
551.62	42.318
551.96	41.489
552.30	41.045
552.64	41.568
552.98	42.358
553.32	41.286
553.66	41.672
554.00	41.425
554.34	41.377
554.68	40.026
555.02	41.064
555.36	41.354
555.69	41.192
556.03	41.047
556.37	40.738
556.71	40.457
557.05	40.639
557.39	41.274
557.73	39.762
558.07	39.735
558.41	41.661
558.75	41.515
559.08	40.988
559.42	41.427
559.76	40.773
560.10	40.857
560.44	39.842
560.78	39.875
561.12	39.470
561.45	40.876
561.79	39.072
562.13	40.542
562.47	39.519
562.81	39.241
563.15	39.646
563.48	40.460
563.82	38.996
564.16	38.886
564.50	39.213
564.84	38.702
565.17	38.882
565.51	39.298
565.85	38.124
566.19	38.940
566.52	38.034
566.86	38.653
567.20	38.554
567.54	37.812
567.88	37.666
568.21	37.747
568.55	37.554
568.89	38.130
569.23	36.586
569.56	36.811
569.90	36.244
570.24	36.358
570.57	36.113
570.91	35.211
571.25	34.799
571.59	34.484
571.92	34.248
572.26	34.595
572.60	34.753
572.93	34.818
573.27	34.111
573.61	33.933
573.95	34.134
574.28	33.240
574.62	33.925
574.96	33.105
575.29	33.818
575.63	33.518
575.97	33.916
576.30	33.802
576.64	33.524
576.98	33.212
577.31	33.421
577.65	33.099
577.98	32.794
578.32	32.341
578.66	33.302
578.99	32.521
579.33	33.370
579.67	33.296
580.00	32.884
580.34	32.657
580.67	33.054
581.01	32.735
581.35	32.418
581.68	31.908
582.02	32.329
582.35	32.276
582.69	33.305
583.02	32.947
583.36	32.532
583.70	32.993
584.03	33.357
584.37	32.881
584.70	32.372
585.04	32.202
585.37	32.722
585.71	31.823
586.04	32.277
586.38	32.312
586.72	31.988
587.05	32.745
587.39	32.685
587.72	32.488
588.06	32.471
588.39	32.711
588.73	32.407
589.06	32.421
589.40	33.098
589.73	33.033
590.07	33.024
590.40	33.063
590.73	33.192
591.07	33.730
591.40	33.398
591.74	34.221
592.07	33.902
592.41	33.123
592.74	32.659
593.08	32.580
593.41	32.342
593.75	31.695
594.08	32.384
594.41	32.244
594.75	32.182
595.08	32.537
595.42	32.143
595.75	32.257
596.09	33.074
596.42	33.465
596.75	33.037
597.09	34.141
597.42	33.095
597.75	32.379
598.09	32.937
598.42	33.414
598.76	31.754
599.09	32.182
599.42	31.378
599.76	31.562
600.09	32.533
600.42	31.164
600.76	32.199
601.09	30.866
601.42	31.377
601.76	31.759
602.09	31.951
602.42	31.770
602.76	32.251
603.09	32.122
603.42	31.720
603.76	31.536
604.09	32.505
604.42	31.706
604.76	31.393
605.09	32.429
605.42	31.778
605.75	31.462
606.09	31.318
606.42	30.974
606.75	31.297
607.09	31.452
607.42	30.829
607.75	31.614
608.08	31.689
608.42	31.358
608.75	31.882
609.08	30.942
609.41	31.936
609.75	32.098
610.08	31.970
610.41	32.201
610.74	31.555
611.07	31.661
611.41	31.300
611.74	32.102
612.07	32.071
612.40	31.702
612.73	32.078
613.07	31.736
613.40	31.954
613.73	31.632
614.06	30.864
614.39	31.244
614.72	31.101
615.06	31.521
615.39	31.223
615.72	31.280
616.05	31.423
616.38	31.231
616.71	31.191
617.05	30.618
617.38	32.424
617.71	31.857
618.04	31.678
618.37	32.842
618.70	32.579
619.03	32.258
619.36	32.614
619.69	33.248
620.03	32.203
620.36	32.454
620.69	31.832
621.02	33.071
621.35	34.470
621.68	33.695
622.01	33.737
622.34	31.939
622.67	32.165
623.00	31.511
623.33	32.847
623.66	32.685
623.99	32.258
624.32	32.359
624.65	31.853
624.99	32.445
625.32	31.809
625.65	32.030
625.98	32.678
626.31	33.097
626.64	32.601
626.97	32.558
627.30	31.283
627.63	32.183
627.96	33.183
628.29	33.385
628.62	32.830
628.95	33.742
629.28	33.645
629.61	32.576
629.94	32.218
630.26	32.203
630.59	33.074
630.92	33.074
631.25	34.258
631.58	33.333
631.91	33.739
632.24	34.678
632.57	32.543
632.90	34.504
633.23	33.571
633.56	33.265
633.89	33.471
634.22	34.615
