SpectraSuite Data File
++++++++++++++++++++++++++++++++++++
Date: Thu May 14 16:34:41 PDT 2015
User: schluterlab
Dark Spectrum Present: Yes
Reference Spectrum Present: Yes
Number of Sampled Component Spectra: 1
Spectrometers: USB2E3373
Integration Time (usec): 3000 (USB2E3373)
Spectra Averaged: 3 (USB2E3373)
Boxcar Smoothing: 0 (USB2E3373)
Correct for Electrical Dark: No (USB2E3373)
Strobe/Lamp Enabled: No (USB2E3373)
Correct for Detector Non-linearity: No (USB2E3373)
Correct for Stray Light: No (USB2E3373)
Number of Pixels in Processed Spectrum: 2048
>>>>>Begin Processed Spectral Data<<<<<
178.53	0.000
178.91	128.571
179.29	-200.000
179.67	100.000
180.04	100.000
180.42	10.000
180.80	120.000
181.18	-200.000
181.56	300.000
181.94	275.000
182.31	-25.000
182.69	-0.000
183.07	-200.000
183.45	125.000
183.83	-16.667
184.20	333.333
184.58	300.000
184.96	-200.000
185.34	22.222
185.72	180.000
186.09	155.556
186.47	500.000
186.85	260.000
187.23	-100.000
187.61	-600.000
187.98	-0.000
188.36	175.000
188.74	0.000
189.12	0.000
189.49	62.500
189.87	-50.000
190.25	77.778
190.63	100.000
191.00	-55.556
191.38	0.000
191.76	-300.000
192.14	66.667
192.51	500.000
192.89	0.000
193.27	0.000
193.65	42.857
194.02	-1200.000
194.40	-71.429
194.78	-28.571
195.15	0.000
195.53	36.364
195.91	0.000
196.29	75.000
196.66	-7.692
197.04	-1400.000
197.42	-114.286
197.79	-300.000
198.17	25.000
198.55	-100.000
198.92	44.444
199.30	-87.500
199.68	-9.091
200.05	57.143
200.43	-550.000
200.81	128.571
201.18	0.000
201.56	155.556
201.94	0.000
202.31	566.667
202.69	-122.222
203.07	-100.000
203.44	33.333
203.82	-200.000
204.19	-41.667
204.57	-166.667
204.95	-100.000
205.32	100.000
205.70	125.000
206.08	-116.667
206.45	100.000
206.83	340.000
207.20	-66.667
207.58	-340.000
207.96	-200.000
208.33	-50.000
208.71	83.333
209.08	66.667
209.46	0.000
209.84	316.667
210.21	150.000
210.59	-150.000
210.96	-100.000
211.34	0.000
211.71	-87.500
212.09	-300.000
212.46	0.000
212.84	400.000
213.22	-260.000
213.59	-100.000
213.97	10.000
214.34	33.333
214.72	33.333
215.09	-100.000
215.47	0.000
215.84	-14.286
216.22	-50.000
216.59	40.000
216.97	-20.000
217.34	-175.000
217.72	-87.500
218.09	-75.000
218.47	-100.000
218.84	0.000
219.22	60.000
219.59	64.706
219.97	20.000
220.34	550.000
220.72	-22.222
221.09	23.077
221.47	-166.667
221.84	-30.000
222.22	-171.429
222.59	0.000
222.97	-25.000
223.34	-260.000
223.72	-1100.000
224.09	-350.000
224.46	-125.000
224.84	60.000
225.21	-57.143
225.59	-125.000
225.96	-225.000
226.34	23.077
226.71	183.333
227.08	-200.000
227.46	-26.667
227.83	-125.000
228.21	26.316
228.58	50.000
228.95	450.000
229.33	0.000
229.70	10.000
230.08	89.474
230.45	180.000
230.82	-66.667
231.20	-28.571
231.57	41.667
231.95	-27.273
232.32	-54.545
232.69	-30.000
233.07	125.000
233.44	35.294
233.81	-40.000
234.19	16.667
234.56	27.273
234.93	13.793
235.31	-26.316
235.68	5.556
236.05	-15.000
236.43	65.385
236.80	64.000
237.17	0.000
237.55	42.424
237.92	20.000
238.29	25.806
238.67	11.364
239.04	38.889
239.41	9.524
239.79	8.696
240.16	27.778
240.53	21.739
240.91	33.333
241.28	27.869
241.65	31.343
242.02	33.784
242.40	18.462
242.77	22.667
243.14	23.171
243.51	27.632
243.89	12.821
244.26	31.683
244.63	27.451
245.00	22.430
245.38	24.561
245.75	20.354
246.12	28.571
246.49	18.605
246.87	25.714
247.24	27.152
247.61	30.263
247.98	29.530
248.36	27.778
248.73	26.994
249.10	28.962
249.47	33.333
249.84	35.079
250.22	23.316
250.59	31.667
250.96	29.545
251.33	30.102
251.70	26.923
252.08	30.833
252.45	27.459
252.82	28.926
253.19	31.641
253.56	29.278
253.94	28.462
254.31	28.788
254.68	31.119
255.05	32.899
255.42	27.211
255.79	29.450
256.16	31.126
256.54	29.801
256.91	30.164
257.28	29.836
257.65	26.752
258.02	28.614
258.39	27.350
258.76	34.557
259.14	32.471
259.51	32.277
259.88	31.728
260.25	29.444
260.62	32.055
260.99	32.514
261.36	32.976
261.73	29.443
262.10	32.967
262.47	29.759
262.85	33.333
263.22	30.909
263.59	28.421
263.96	31.458
264.33	28.645
264.70	35.309
265.07	34.368
265.44	35.147
265.81	30.787
266.18	32.426
266.55	31.473
266.92	30.524
267.29	32.166
267.66	30.599
268.03	31.004
268.40	31.942
268.77	31.891
269.14	29.295
269.51	30.921
269.88	31.967
270.25	31.590
270.62	33.966
270.99	32.121
271.36	31.485
271.73	33.792
272.10	34.068
272.47	34.669
272.84	31.526
273.21	33.267
273.58	31.048
273.95	30.000
274.32	27.947
274.69	29.787
275.06	33.150
275.43	29.945
275.80	30.335
276.17	29.444
276.54	28.731
276.91	30.054
277.28	29.656
277.65	32.316
278.02	30.331
278.39	29.167
278.76	26.538
279.13	32.092
279.50	32.474
279.87	30.233
280.23	26.585
280.60	30.847
280.97	31.743
281.34	30.390
281.71	29.442
282.08	31.229
282.45	31.260
282.82	30.612
283.19	26.494
283.56	30.820
283.92	29.279
284.29	31.438
284.66	31.363
285.03	26.603
285.40	28.439
285.77	29.721
286.14	29.466
286.51	28.919
286.87	29.858
287.24	29.970
287.61	29.746
287.98	26.133
288.35	27.959
288.72	30.030
289.08	27.233
289.45	26.479
289.82	26.657
290.19	27.586
290.56	29.014
290.93	26.819
291.29	26.033
291.66	25.207
292.03	26.052
292.40	27.347
292.77	24.528
293.13	25.440
293.50	24.573
293.87	25.101
294.24	26.933
294.60	24.399
294.97	23.490
295.34	25.864
295.71	22.320
296.08	22.868
296.44	24.020
296.81	24.361
297.18	23.910
297.55	24.528
297.91	22.657
298.28	22.393
298.65	23.424
299.02	22.904
299.38	22.654
299.75	23.832
300.12	24.537
300.48	23.733
300.85	22.160
301.22	23.490
301.59	22.032
301.95	21.808
302.32	22.000
302.69	21.468
303.05	23.286
303.42	22.616
303.79	21.667
304.15	22.713
304.52	23.679
304.89	21.675
305.25	20.807
305.62	21.317
305.99	23.402
306.35	21.573
306.72	23.164
307.09	20.609
307.45	21.739
307.82	20.081
308.19	21.292
308.55	21.022
308.92	21.811
309.29	22.126
309.65	21.637
310.02	21.089
310.38	21.063
310.75	22.233
311.12	22.723
311.48	21.994
311.85	20.038
312.22	22.676
312.58	21.690
312.95	20.746
313.31	21.771
313.68	22.436
314.05	22.042
314.41	21.676
314.78	22.162
315.14	22.414
315.51	22.438
315.87	22.232
316.24	23.379
316.61	22.735
316.97	21.629
317.34	21.605
317.70	23.319
318.07	21.781
318.43	23.810
318.80	22.910
319.16	22.575
319.53	20.394
319.89	22.875
320.26	22.509
320.62	21.631
320.99	23.546
321.35	22.366
321.72	23.070
322.08	22.994
322.45	23.397
322.81	24.368
323.18	23.717
323.54	22.759
323.91	24.021
324.27	22.892
324.64	24.517
325.00	24.046
325.37	24.734
325.73	24.711
326.10	24.736
326.46	25.244
326.83	24.980
327.19	25.354
327.56	25.692
327.92	25.492
328.29	25.806
328.65	26.298
329.01	26.227
329.38	27.211
329.74	25.942
330.11	25.771
330.47	26.116
330.84	25.668
331.20	26.500
331.56	26.256
331.93	25.607
332.29	26.271
332.66	26.744
333.02	25.461
333.38	25.755
333.75	26.178
334.11	25.771
334.48	26.733
334.84	26.933
335.20	24.349
335.57	26.813
335.93	27.107
336.29	25.707
336.66	25.063
337.02	27.174
337.38	26.786
337.75	25.868
338.11	27.334
338.47	25.558
338.84	26.227
339.20	26.790
339.56	25.535
339.93	26.765
340.29	25.845
340.65	25.791
341.02	26.177
341.38	27.162
341.74	25.827
342.11	25.664
342.47	26.529
342.83	27.295
343.20	27.146
343.56	25.822
343.92	24.660
344.28	26.094
344.65	26.357
345.01	26.599
345.37	25.661
345.73	25.097
346.10	24.961
346.46	25.870
346.82	26.742
347.19	26.050
347.55	25.873
347.91	24.294
348.27	25.721
348.63	25.286
349.00	25.727
349.36	24.981
349.72	25.372
350.08	24.814
350.45	25.399
350.81	24.434
351.17	24.812
351.53	25.701
351.89	25.285
352.26	24.627
352.62	25.448
352.98	24.885
353.34	25.168
353.70	26.117
354.07	24.590
354.43	25.285
354.79	24.757
355.15	25.681
355.51	24.781
355.87	24.832
356.24	25.627
356.60	23.134
356.96	24.907
357.32	24.387
357.68	24.744
358.04	24.027
358.40	23.582
358.77	24.488
359.13	23.560
359.49	23.271
359.85	24.003
360.21	23.816
360.57	24.121
360.93	22.990
361.29	24.140
361.66	24.258
362.02	25.052
362.38	24.104
362.74	24.232
363.10	24.347
363.46	24.307
363.82	23.651
364.18	24.138
364.54	24.205
364.90	23.679
365.26	24.345
365.62	24.200
365.98	23.213
366.35	23.826
366.71	23.946
367.07	24.357
367.43	22.850
367.79	24.088
368.15	24.682
368.51	23.478
368.87	22.992
369.23	22.867
369.59	22.951
369.95	23.394
370.31	23.903
370.67	23.109
371.03	22.507
371.39	22.431
371.75	23.384
372.11	21.816
372.47	22.817
372.83	24.673
373.19	22.548
373.55	23.374
373.91	22.699
374.27	22.445
374.63	22.869
374.99	22.745
375.35	22.857
375.71	22.839
376.07	22.983
376.42	22.922
376.78	23.120
377.14	21.647
377.50	23.276
377.86	23.091
378.22	22.575
378.58	23.127
378.94	23.122
379.30	22.613
379.66	23.163
380.02	22.562
380.38	23.618
380.74	22.592
381.09	22.764
381.45	21.420
381.81	23.829
382.17	22.387
382.53	22.982
382.89	22.009
383.25	23.154
383.61	21.875
383.97	22.497
384.32	22.667
384.68	22.158
385.04	22.846
385.40	22.864
385.76	23.271
386.12	21.484
386.48	21.882
386.83	22.288
387.19	22.306
387.55	21.772
387.91	22.374
388.27	22.979
388.62	22.279
388.98	21.658
389.34	23.041
389.70	23.010
390.06	21.255
390.42	21.386
390.77	22.938
391.13	21.185
391.49	21.437
391.85	21.939
392.20	22.598
392.56	22.268
392.92	22.083
393.28	22.112
393.64	21.899
393.99	22.022
394.35	22.079
394.71	22.335
395.07	21.198
395.42	21.531
395.78	21.877
396.14	21.925
396.50	21.021
396.85	21.288
397.21	21.775
397.57	21.437
397.92	21.707
398.28	20.478
398.64	20.767
399.00	20.262
399.35	21.152
399.71	20.217
400.07	21.729
400.42	21.246
400.78	21.701
401.14	20.888
401.49	21.489
401.85	21.395
402.21	21.205
402.57	21.479
402.92	20.686
403.28	20.492
403.63	20.525
403.99	20.428
404.35	21.433
404.70	20.453
405.06	21.196
405.42	19.848
405.77	20.829
406.13	21.286
406.49	21.002
406.84	20.720
407.20	21.017
407.55	20.654
407.91	21.119
408.27	20.730
408.62	20.826
408.98	21.010
409.34	19.589
409.69	20.396
410.05	20.926
410.40	21.752
410.76	20.808
411.11	20.923
411.47	20.270
411.83	20.694
412.18	20.783
412.54	20.925
412.89	20.664
413.25	20.711
413.60	19.931
413.96	20.396
414.31	20.283
414.67	20.334
415.03	21.292
415.38	20.681
415.74	20.342
416.09	20.728
416.45	19.599
416.80	20.257
417.16	20.051
417.51	20.548
417.87	20.356
418.22	20.539
418.58	20.136
418.93	20.780
419.29	19.790
419.64	20.348
420.00	20.356
420.35	19.708
420.71	19.701
421.06	19.781
421.42	20.528
421.77	19.871
422.12	19.503
422.48	19.304
422.83	20.811
423.19	19.257
423.54	19.469
423.90	19.326
424.25	19.733
424.61	19.920
424.96	20.209
425.31	20.223
425.67	20.719
426.02	20.310
426.38	19.747
426.73	20.368
427.09	20.069
427.44	19.607
427.79	20.232
428.15	19.749
428.50	19.719
428.85	19.518
429.21	20.479
429.56	19.200
429.92	19.803
430.27	19.807
430.62	19.932
430.98	20.216
431.33	19.990
431.68	19.540
432.04	19.350
432.39	19.068
432.74	20.605
433.10	20.660
433.45	18.729
433.80	19.903
434.16	19.215
434.51	19.527
434.86	20.521
435.22	19.819
435.57	19.458
435.92	19.866
436.28	19.909
436.63	20.208
436.98	20.075
437.34	20.180
437.69	20.693
438.04	19.884
438.39	19.816
438.75	19.314
439.10	20.349
439.45	20.067
439.81	19.774
440.16	19.678
440.51	20.011
440.86	20.067
441.22	19.882
441.57	20.073
441.92	20.223
442.27	21.061
442.63	20.169
442.98	20.704
443.33	20.147
443.68	20.961
444.03	20.931
444.39	20.481
444.74	20.368
445.09	20.628
445.44	20.337
445.79	20.498
446.15	20.401
446.50	20.879
446.85	20.817
447.20	21.035
447.55	20.502
447.91	20.681
448.26	20.930
448.61	20.244
448.96	20.494
449.31	20.732
449.66	20.697
450.02	21.097
450.37	20.991
450.72	21.044
451.07	20.786
451.42	20.508
451.77	20.011
452.12	21.050
452.47	21.212
452.83	20.552
453.18	20.198
453.53	19.931
453.88	19.547
454.23	20.169
454.58	21.068
454.93	20.570
455.28	20.289
455.63	21.035
455.98	20.726
456.34	20.436
456.69	20.400
457.04	20.626
457.39	19.956
457.74	20.638
458.09	19.824
458.44	21.552
458.79	20.113
459.14	21.028
459.49	21.336
459.84	20.881
460.19	19.933
460.54	21.181
460.89	20.699
461.24	19.885
461.59	21.251
461.94	19.395
462.29	20.661
462.64	20.398
462.99	20.904
463.34	21.090
463.69	20.340
464.04	20.623
464.39	19.899
464.74	20.924
465.09	20.761
465.44	20.547
465.79	21.364
466.14	20.219
466.49	20.105
466.84	20.882
467.19	20.116
467.54	20.564
467.89	20.172
468.24	20.499
468.59	19.745
468.94	20.221
469.29	20.516
469.64	20.915
469.99	20.969
470.34	20.730
470.68	20.916
471.03	21.284
471.38	20.602
471.73	19.896
472.08	20.749
472.43	20.530
472.78	20.970
473.13	20.291
473.48	20.544
473.83	20.778
474.17	20.223
474.52	20.204
474.87	19.989
475.22	20.394
475.57	20.613
475.92	20.259
476.27	21.033
476.61	20.093
476.96	20.021
477.31	20.644
477.66	20.409
478.01	20.234
478.36	20.090
478.70	20.197
479.05	20.654
479.40	19.842
479.75	21.037
480.10	20.227
480.45	20.283
480.79	20.499
481.14	20.496
481.49	20.173
481.84	20.061
482.19	21.247
482.53	19.851
482.88	20.558
483.23	20.365
483.58	19.563
483.92	20.213
484.27	19.983
484.62	20.132
484.97	20.179
485.31	19.887
485.66	19.444
486.01	19.077
486.36	19.424
486.70	20.488
487.05	21.157
487.40	20.641
487.75	20.687
488.09	20.344
488.44	20.037
488.79	20.573
489.13	20.022
489.48	19.883
489.83	19.759
490.17	19.603
490.52	19.663
490.87	19.966
491.22	20.191
491.56	20.862
491.91	20.061
492.26	20.078
492.60	19.502
492.95	20.842
493.30	19.408
493.64	20.237
493.99	19.518
494.34	20.209
494.68	19.743
495.03	19.956
495.37	20.595
495.72	19.274
496.07	20.245
496.41	19.949
496.76	20.058
497.11	20.382
497.45	20.371
497.80	19.858
498.14	20.045
498.49	19.577
498.84	20.201
499.18	19.838
499.53	19.955
499.87	20.352
500.22	19.813
500.56	20.198
500.91	19.908
501.26	20.455
501.60	19.090
501.95	19.931
502.29	20.053
502.64	20.157
502.98	19.758
503.33	19.784
503.67	19.887
504.02	19.877
504.36	20.554
504.71	20.579
505.06	20.009
505.40	19.927
505.75	19.672
506.09	20.258
506.44	20.195
506.78	19.633
507.13	20.148
507.47	20.369
507.82	19.744
508.16	19.455
508.51	18.940
508.85	19.603
509.19	20.227
509.54	19.885
509.88	19.670
510.23	20.835
510.57	20.445
510.92	19.497
511.26	19.048
511.61	19.314
511.95	19.815
512.30	20.384
512.64	19.340
512.98	19.860
513.33	20.060
513.67	19.225
514.02	20.388
514.36	19.949
514.70	20.312
515.05	20.073
515.39	20.367
515.74	20.785
516.08	19.440
516.42	20.460
516.77	19.558
517.11	18.876
517.46	20.361
517.80	19.989
518.14	20.239
518.49	19.902
518.83	19.745
519.17	19.548
519.52	20.021
519.86	19.905
520.20	19.595
520.55	19.168
520.89	19.989
521.23	19.710
521.58	20.395
521.92	19.717
522.26	19.817
522.61	20.023
522.95	20.185
523.29	19.195
523.64	19.507
523.98	20.479
524.32	21.032
524.66	19.863
525.01	19.875
525.35	19.357
525.69	20.070
526.04	19.805
526.38	19.943
526.72	20.358
527.06	19.413
527.41	19.883
527.75	20.368
528.09	19.599
528.43	19.657
528.78	19.075
529.12	19.725
529.46	19.449
529.80	19.508
530.15	19.246
530.49	19.632
530.83	19.776
531.17	20.191
531.51	20.517
531.86	20.553
532.20	20.488
532.54	19.629
532.88	20.303
533.22	19.800
533.57	19.561
533.91	19.921
534.25	19.333
534.59	20.115
534.93	19.921
535.27	19.380
535.62	20.125
535.96	20.163
536.30	19.800
536.64	19.820
536.98	20.049
537.32	20.494
537.66	19.963
538.01	19.517
538.35	19.184
538.69	19.772
539.03	19.988
539.37	19.788
539.71	19.700
540.05	20.024
540.39	18.582
540.73	19.186
541.07	19.375
541.42	18.665
541.76	19.336
542.10	19.361
542.44	18.879
542.78	19.769
543.12	19.428
543.46	19.536
543.80	20.024
544.14	18.971
544.48	19.385
544.82	19.689
545.16	19.797
545.50	18.814
545.84	19.473
546.18	20.185
546.52	20.127
546.86	19.057
547.20	19.593
547.54	19.538
547.88	19.048
548.22	19.064
548.56	19.134
548.90	18.806
549.24	19.453
549.58	19.432
549.92	19.324
550.26	19.288
550.60	19.272
550.94	19.987
551.28	20.000
551.62	20.148
551.96	19.417
552.30	20.268
552.64	19.415
552.98	19.027
553.32	19.807
553.66	19.807
554.00	19.042
554.34	19.176
554.68	19.690
555.02	19.185
555.36	19.658
555.69	18.834
556.03	19.294
556.37	19.650
556.71	19.341
557.05	19.042
557.39	18.646
557.73	19.617
558.07	19.868
558.41	19.734
558.75	19.608
559.08	19.137
559.42	19.410
559.76	19.471
560.10	18.888
560.44	19.525
560.78	19.688
561.12	19.273
561.45	18.978
561.79	18.987
562.13	19.224
562.47	18.126
562.81	19.747
563.15	19.318
563.48	19.577
563.82	19.407
564.16	18.898
564.50	18.474
564.84	18.938
565.17	19.588
565.51	19.217
565.85	19.240
566.19	18.836
566.52	19.953
566.86	18.959
567.20	18.651
567.54	19.596
567.88	19.572
568.21	19.417
568.55	19.712
568.89	19.201
569.23	19.265
569.56	18.914
569.90	19.244
570.24	19.663
570.57	18.987
570.91	18.677
571.25	18.716
571.59	19.371
571.92	18.657
572.26	19.164
572.60	18.864
572.93	19.427
573.27	18.910
573.61	18.475
573.95	18.937
574.28	19.154
574.62	18.963
574.96	18.946
575.29	19.057
575.63	18.642
575.97	18.922
576.30	18.776
576.64	18.420
576.98	18.747
577.31	18.506
577.65	18.985
577.98	18.712
578.32	18.441
578.66	18.734
578.99	18.513
579.33	18.897
579.67	18.790
580.00	19.060
580.34	19.241
580.67	18.601
581.01	18.628
581.35	18.761
581.68	18.332
582.02	18.453
582.35	18.629
582.69	18.902
583.02	18.613
583.36	18.690
583.70	19.018
584.03	18.599
584.37	18.835
584.70	18.704
585.04	18.484
585.37	18.294
585.71	18.403
586.04	18.472
586.38	18.570
586.72	18.401
587.05	18.393
587.39	19.023
587.72	18.684
588.06	18.931
588.39	19.119
588.73	18.651
589.06	18.764
589.40	19.207
589.73	18.862
590.07	18.899
590.40	19.337
590.73	18.699
591.07	19.173
591.40	18.390
591.74	19.038
592.07	18.920
592.41	18.139
592.74	18.388
593.08	19.076
593.41	19.073
593.75	18.247
594.08	19.206
594.41	18.558
594.75	18.698
595.08	18.943
595.42	18.896
595.75	18.534
596.09	19.349
596.42	18.990
596.75	19.066
597.09	18.949
597.42	17.998
597.75	18.777
598.09	18.730
598.42	19.542
598.76	18.533
599.09	18.156
599.42	18.505
599.76	18.455
600.09	18.652
600.42	18.519
600.76	18.593
601.09	18.287
601.42	18.469
601.76	18.483
602.09	18.263
602.42	18.284
602.76	18.598
603.09	18.429
603.42	18.786
603.76	18.076
604.09	19.482
604.42	18.055
604.76	18.607
605.09	18.987
605.42	18.700
605.75	18.192
606.09	18.290
606.42	18.497
606.75	18.066
607.09	18.164
607.42	18.613
607.75	18.015
608.08	17.995
608.42	18.098
608.75	18.574
609.08	18.166
609.41	18.615
609.75	18.616
610.08	19.041
610.41	18.309
610.74	18.571
611.07	18.917
611.41	19.372
611.74	19.215
612.07	18.794
612.40	18.489
612.73	18.386
613.07	18.826
613.40	18.720
613.73	18.392
614.06	18.646
614.39	18.076
614.72	18.389
615.06	17.998
615.39	18.560
615.72	18.720
616.05	19.427
616.38	19.576
616.71	18.861
617.05	17.519
617.38	18.673
617.71	18.952
618.04	18.511
618.37	18.634
618.70	19.853
619.03	18.698
619.36	19.174
619.69	19.667
620.03	19.523
620.36	18.773
620.69	18.014
621.02	18.176
621.35	19.521
621.68	19.884
622.01	19.004
622.34	18.968
622.67	18.076
623.00	17.476
623.33	19.907
623.66	19.261
623.99	18.631
624.32	19.753
624.65	18.275
624.99	18.401
625.32	19.791
625.65	18.813
625.98	19.864
626.31	18.994
626.64	18.168
626.97	18.380
627.30	17.464
627.63	19.355
627.96	19.294
628.29	18.833
628.62	17.968
628.95	18.230
629.28	18.522
629.61	19.192
629.94	18.326
630.26	18.305
630.59	17.098
630.92	18.442
631.25	19.141
631.58	19.209
631.91	18.276
632.24	18.540
632.57	17.837
632.90	18.756
633.23	18.265
633.56	18.367
633.89	18.182
