SpectraSuite Data File
++++++++++++++++++++++++++++++++++++
Date: Thu May 14 16:38:28 PDT 2015
User: schluterlab
Dark Spectrum Present: Yes
Reference Spectrum Present: Yes
Number of Sampled Component Spectra: 1
Spectrometers: USB2E3373
Integration Time (usec): 3000 (USB2E3373)
Spectra Averaged: 3 (USB2E3373)
Boxcar Smoothing: 0 (USB2E3373)
Correct for Electrical Dark: No (USB2E3373)
Strobe/Lamp Enabled: No (USB2E3373)
Correct for Detector Non-linearity: No (USB2E3373)
Correct for Stray Light: No (USB2E3373)
Number of Pixels in Processed Spectrum: 2048
>>>>>Begin Processed Spectral Data<<<<<
178.53	0.000
178.91	-0.000
179.29	-1300.000
179.67	-1600.000
180.04	135.714
180.42	60.000
180.80	140.000
181.18	-1200.000
181.56	0.000
181.94	-25.000
182.31	100.000
182.69	166.667
183.07	-100.000
183.45	350.000
183.83	16.667
184.20	66.667
184.58	300.000
184.96	-275.000
185.34	-66.667
185.72	-80.000
186.09	211.111
186.47	550.000
186.85	100.000
187.23	-188.889
187.61	0.000
187.98	80.000
188.36	600.000
188.74	-425.000
189.12	-133.333
189.49	-25.000
189.87	0.000
190.25	66.667
190.63	-100.000
191.00	-88.889
191.38	0.000
191.76	175.000
192.14	100.000
192.51	200.000
192.89	0.000
193.27	0.000
193.65	28.571
194.02	-1500.000
194.40	128.571
194.78	42.857
195.15	0.000
195.53	-9.091
195.91	0.000
196.29	0.000
196.66	15.385
197.04	-900.000
197.42	-57.143
197.79	-300.000
198.17	-75.000
198.55	-128.571
198.92	-44.444
199.30	-37.500
199.68	54.545
200.05	21.429
200.43	0.000
200.81	114.286
201.18	0.000
201.56	144.444
201.94	0.000
202.31	233.333
202.69	-144.444
203.07	-0.000
203.44	-55.556
203.82	-25.000
204.19	25.000
204.57	-150.000
204.95	0.000
205.32	-1100.000
205.70	125.000
206.08	-16.667
206.45	-33.333
206.83	160.000
207.20	100.000
207.58	-240.000
207.96	-216.667
208.33	50.000
208.71	75.000
209.08	66.667
209.46	0.000
209.84	150.000
210.21	250.000
210.59	100.000
210.96	-0.000
211.34	150.000
211.71	-112.500
212.09	-1100.000
212.46	0.000
212.84	700.000
213.22	-180.000
213.59	0.000
213.97	-40.000
214.34	-433.333
214.72	33.333
215.09	-50.000
215.47	0.000
215.84	-14.286
216.22	250.000
216.59	-220.000
216.97	-60.000
217.34	-225.000
217.72	0.000
218.09	-250.000
218.47	-100.000
218.84	0.000
219.22	20.000
219.59	35.294
219.97	0.000
220.34	250.000
220.72	44.444
221.09	38.462
221.47	-133.333
221.84	30.000
222.22	-57.143
222.59	0.000
222.97	-12.500
223.34	-260.000
223.72	-1100.000
224.09	-50.000
224.46	-250.000
224.84	60.000
225.21	-114.286
225.59	-425.000
225.96	-100.000
226.34	7.692
226.71	216.667
227.08	-450.000
227.46	-13.333
227.83	-75.000
228.21	31.579
228.58	87.500
228.95	150.000
229.33	16.667
229.70	-20.000
230.08	84.211
230.45	140.000
230.82	-66.667
231.20	35.714
231.57	0.000
231.95	-27.273
232.32	45.455
232.69	-5.000
233.07	-150.000
233.44	-70.588
233.81	-130.000
234.19	33.333
234.56	40.909
234.93	31.034
235.31	-5.263
235.68	-22.222
236.05	-45.000
236.43	30.769
236.80	20.000
237.17	-18.519
237.55	0.000
237.92	-20.000
238.29	25.806
238.67	2.273
239.04	11.111
239.41	-11.905
239.79	-13.043
240.16	-14.815
240.53	2.174
240.91	-11.765
241.28	13.115
241.65	11.940
242.02	10.811
242.40	-6.154
242.77	2.667
243.14	8.537
243.51	-9.211
243.89	0.000
244.26	-2.970
244.63	4.902
245.00	-3.738
245.38	2.632
245.75	-15.929
246.12	0.000
246.49	-0.775
246.87	6.429
247.24	2.649
247.61	5.921
247.98	6.040
248.36	-1.235
248.73	-5.521
249.10	0.546
249.47	11.940
249.84	3.665
250.22	1.036
250.59	1.667
250.96	7.727
251.33	2.551
251.70	4.701
252.08	5.417
252.45	5.738
252.82	-1.240
253.19	3.125
253.56	3.422
253.94	-0.385
254.31	3.788
254.68	5.944
255.05	7.818
255.42	5.782
255.79	3.883
256.16	3.642
256.54	-1.325
256.91	6.557
257.28	5.246
257.65	2.229
258.02	1.770
258.39	1.425
258.76	6.728
259.14	5.460
259.51	0.865
259.88	1.983
260.25	1.111
260.62	2.192
260.99	4.645
261.36	4.290
261.73	2.122
262.10	3.022
262.47	4.558
262.85	3.788
263.22	1.558
263.59	-3.947
263.96	3.069
264.33	2.302
264.70	3.210
265.07	3.819
265.44	5.896
265.81	1.389
266.18	4.308
266.55	2.902
266.92	2.050
267.29	5.252
267.66	2.661
268.03	3.057
268.40	4.384
268.77	2.506
269.14	2.643
269.51	2.632
269.88	3.279
270.25	4.427
270.62	5.907
270.99	3.838
271.36	2.376
271.73	2.161
272.10	4.810
272.47	3.607
272.84	2.811
273.21	2.204
273.58	5.444
273.95	0.577
274.32	0.951
274.69	3.288
275.06	3.480
275.43	1.848
275.80	5.115
276.17	1.481
276.54	0.933
276.91	2.326
277.28	3.797
277.65	3.591
278.02	3.125
278.39	1.812
278.76	2.285
279.13	2.837
279.50	4.467
279.87	2.504
280.23	0.704
280.60	2.542
280.97	2.303
281.34	0.679
281.71	3.046
282.08	3.156
282.45	1.309
282.82	2.669
283.19	2.100
283.56	2.623
283.92	4.805
284.29	3.791
284.66	2.956
285.03	1.603
285.40	3.864
285.77	3.251
286.14	3.359
286.51	2.131
286.87	3.633
287.24	3.313
287.61	2.691
287.98	2.115
288.35	2.663
288.72	3.994
289.08	4.685
289.45	3.402
289.82	3.614
290.19	2.586
290.56	3.944
290.93	3.994
291.29	3.030
291.66	3.857
292.03	2.578
292.40	3.810
292.77	3.504
293.13	4.195
293.50	3.417
293.87	3.490
294.24	4.533
294.60	5.563
294.97	3.624
295.34	6.018
295.71	3.531
296.08	4.005
296.44	4.657
296.81	4.385
297.18	5.106
297.55	4.363
297.91	4.270
298.28	3.791
298.65	5.826
299.02	5.431
299.38	3.661
299.75	5.841
300.12	3.704
300.48	3.111
300.85	4.837
301.22	4.139
301.59	3.653
301.95	6.441
302.32	5.778
302.69	4.819
303.05	5.658
303.42	5.876
303.79	5.312
304.15	5.258
304.52	4.228
304.89	4.817
305.25	5.072
305.62	5.643
305.99	6.186
306.35	3.730
306.72	5.688
307.09	4.975
307.45	5.383
307.82	4.036
308.19	5.146
308.55	6.172
308.92	5.258
309.29	5.268
309.65	5.166
310.02	5.149
310.38	5.315
310.75	6.408
311.12	7.095
311.48	5.767
311.85	5.793
312.22	5.028
312.58	6.385
312.95	5.545
313.31	7.136
313.68	6.502
314.05	7.769
314.41	5.920
314.78	6.630
315.14	6.443
315.51	6.648
315.87	5.941
316.24	5.936
316.61	7.726
316.97	5.520
317.34	6.173
317.70	6.900
318.07	7.319
318.43	6.718
318.80	7.692
319.16	7.382
319.53	5.827
319.89	6.486
320.26	6.584
320.62	6.117
320.99	6.925
321.35	5.638
321.72	7.349
322.08	7.845
322.45	6.685
322.81	6.859
323.18	6.726
323.54	7.500
323.91	8.541
324.27	6.971
324.64	7.976
325.00	6.716
325.37	7.944
325.73	8.430
326.10	8.354
326.46	8.143
326.83	7.926
327.19	8.346
327.56	8.379
327.92	6.452
328.29	7.500
328.65	6.868
329.01	6.937
329.38	6.740
329.74	8.219
330.11	7.192
330.47	7.498
330.84	6.891
331.20	8.083
331.56	6.846
331.93	7.699
332.29	7.712
332.66	6.894
333.02	7.454
333.38	7.047
333.75	6.061
334.11	7.173
334.48	7.838
334.84	7.986
335.20	6.969
335.57	7.589
335.93	7.107
336.29	7.155
336.66	6.981
337.02	7.023
337.38	8.759
337.75	6.612
338.11	6.560
338.47	6.700
338.84	6.937
339.20	5.644
339.56	6.837
339.93	6.076
340.29	6.602
340.65	6.407
341.02	7.821
341.38	8.246
341.74	7.829
342.11	7.321
342.47	6.195
342.83	7.407
343.20	6.787
343.56	7.538
343.92	7.526
344.28	7.422
344.65	7.674
345.01	7.254
345.37	7.698
345.73	5.456
346.10	6.552
346.46	6.804
346.82	8.165
347.19	7.105
347.55	6.373
347.91	6.464
348.27	7.436
348.63	8.149
349.00	6.339
349.36	6.766
349.72	6.324
350.08	7.132
350.45	6.160
350.81	6.712
351.17	7.218
351.53	6.293
351.89	6.682
352.26	6.493
352.62	6.269
352.98	6.336
353.34	6.273
353.70	6.394
354.07	6.259
354.43	6.606
354.79	6.058
355.15	6.623
355.51	6.725
355.87	6.881
356.24	6.920
356.60	6.135
356.96	6.227
357.32	6.617
357.68	6.369
358.04	6.512
358.40	5.896
358.77	7.456
359.13	5.982
359.49	5.948
359.85	6.309
360.21	6.528
360.57	6.389
360.93	6.347
361.29	7.368
361.66	6.227
362.02	7.585
362.38	7.309
362.74	5.866
363.10	7.015
363.46	6.925
363.82	6.534
364.18	6.897
364.54	6.708
364.90	6.622
365.26	6.414
365.62	6.733
365.98	6.399
366.35	7.047
366.71	6.735
367.07	6.360
367.43	7.223
367.79	7.697
368.15	6.890
368.51	6.901
368.87	6.074
369.23	7.200
369.59	6.011
369.95	6.829
370.31	7.765
370.67	6.809
371.03	6.648
371.39	5.977
371.75	5.846
372.11	6.707
372.47	6.229
372.83	7.199
373.19	7.472
373.55	5.827
373.91	5.930
374.27	6.986
374.63	7.172
374.99	6.631
375.35	7.208
375.71	6.839
376.07	7.553
376.42	6.171
376.78	7.458
377.14	7.361
377.50	7.021
377.86	7.820
378.22	7.605
378.58	7.075
378.94	7.336
379.30	6.444
379.66	6.878
380.02	6.694
380.38	7.719
380.74	6.535
381.09	7.491
381.45	6.761
381.81	7.904
382.17	7.660
382.53	7.310
382.89	8.014
383.25	6.800
383.61	6.771
383.97	7.244
384.32	6.878
384.68	6.845
385.04	8.039
385.40	7.720
385.76	7.737
386.12	7.481
386.48	7.294
386.83	7.926
387.19	6.837
387.55	6.749
387.91	7.306
388.27	7.506
388.62	7.617
388.98	7.163
389.34	8.073
389.70	7.438
390.06	7.460
390.42	7.530
390.77	7.887
391.13	7.981
391.49	7.911
391.85	7.030
392.20	7.651
392.56	7.974
392.92	7.252
393.28	7.297
393.64	7.207
393.99	7.496
394.35	7.418
394.71	8.204
395.07	6.707
395.42	7.481
395.78	7.983
396.14	8.140
396.50	7.601
396.85	7.454
397.21	6.982
397.57	7.656
397.92	7.617
398.28	6.953
398.64	7.609
399.00	7.225
399.35	7.749
399.71	7.283
400.07	7.412
400.42	7.800
400.78	7.581
401.14	7.114
401.49	6.765
401.85	6.977
402.21	7.532
402.57	7.805
402.92	7.683
403.28	6.850
403.63	5.788
403.99	7.185
404.35	7.959
404.70	7.535
405.06	7.609
405.42	7.377
405.77	7.579
406.13	7.185
406.49	7.545
406.84	6.981
407.20	6.931
407.55	6.723
407.91	7.731
408.27	7.362
408.62	7.330
408.98	7.023
409.34	6.686
409.69	7.726
410.05	8.030
410.40	8.121
410.76	7.123
411.11	7.364
411.47	7.494
411.83	7.643
412.18	7.289
412.54	8.239
412.89	7.800
413.25	7.223
413.60	7.237
413.96	7.284
414.31	7.252
414.67	7.752
415.03	6.769
415.38	6.873
415.74	6.720
416.09	7.403
416.45	6.512
416.80	6.793
417.16	6.897
417.51	7.970
417.87	6.622
418.22	7.305
418.58	6.877
418.93	7.974
419.29	6.782
419.64	6.543
420.00	6.944
420.35	6.625
420.71	7.754
421.06	7.533
421.42	6.823
421.77	7.162
422.12	7.452
422.48	6.912
422.83	7.886
423.19	7.321
423.54	7.080
423.90	7.454
424.25	7.680
424.61	6.142
424.96	7.743
425.31	7.696
425.67	7.032
426.02	7.471
426.38	7.405
426.73	6.752
427.09	8.304
427.44	7.100
427.79	6.357
428.15	6.621
428.50	6.854
428.85	7.176
429.21	8.032
429.56	7.009
429.92	7.224
430.27	7.373
430.62	7.279
430.98	7.083
431.33	6.598
431.68	7.136
432.04	7.364
432.39	7.124
432.74	6.279
433.10	7.680
433.45	7.302
433.80	7.242
434.16	7.076
434.51	7.040
434.86	6.623
435.22	6.961
435.57	7.665
435.92	6.733
436.28	6.542
436.63	7.100
436.98	7.085
437.34	7.384
437.69	7.045
438.04	6.980
438.39	6.893
438.75	7.084
439.10	7.822
439.45	7.826
439.81	7.232
440.16	6.273
440.51	7.414
440.86	6.615
441.22	7.020
441.57	7.233
441.92	7.226
442.27	7.222
442.63	7.054
442.98	7.311
443.33	7.049
443.68	7.830
444.03	8.043
444.39	7.166
444.74	7.402
445.09	6.944
445.44	7.007
445.79	6.657
446.15	7.091
446.50	6.873
446.85	7.296
447.20	7.205
447.55	7.479
447.91	7.016
448.26	6.712
448.61	6.908
448.96	7.189
449.31	7.105
449.66	6.536
450.02	7.331
450.37	7.938
450.72	7.158
451.07	6.435
451.42	7.106
451.77	6.670
452.12	6.998
452.47	6.714
452.83	7.432
453.18	7.064
453.53	6.433
453.88	7.289
454.23	7.006
454.58	7.255
454.93	6.978
455.28	7.465
455.63	7.334
455.98	6.592
456.34	6.832
456.69	6.526
457.04	6.974
457.39	6.984
457.74	7.606
458.09	6.919
458.44	6.897
458.79	7.272
459.14	7.604
459.49	6.621
459.84	6.821
460.19	6.219
460.54	6.360
460.89	7.200
461.24	6.322
461.59	6.918
461.94	6.389
462.29	7.279
462.64	6.820
462.99	6.591
463.34	7.008
463.69	7.210
464.04	7.449
464.39	7.119
464.74	7.070
465.09	6.632
465.44	7.457
465.79	7.192
466.14	6.618
466.49	6.789
466.84	6.667
467.19	7.110
467.54	7.168
467.89	6.954
468.24	6.925
468.59	6.543
468.94	6.935
469.29	6.839
469.64	6.357
469.99	6.756
470.34	7.054
470.68	6.288
471.03	7.204
471.38	7.063
471.73	6.502
472.08	6.091
472.43	6.924
472.78	7.116
473.13	6.764
473.48	7.190
473.83	6.674
474.17	7.913
474.52	6.915
474.87	7.198
475.22	7.099
475.57	7.061
475.92	6.969
476.27	7.135
476.61	6.957
476.96	5.892
477.31	7.079
477.66	7.503
478.01	6.711
478.36	6.132
478.70	6.798
479.05	7.004
479.40	6.318
479.75	7.012
480.10	6.727
480.45	6.609
480.79	7.211
481.14	6.710
481.49	6.452
481.84	6.701
482.19	7.054
482.53	6.777
482.88	7.311
483.23	6.847
483.58	6.507
483.92	6.560
484.27	6.393
484.62	6.683
484.97	6.649
485.31	6.829
485.66	6.751
486.01	6.427
486.36	6.659
486.70	7.001
487.05	6.795
487.40	6.733
487.75	7.023
488.09	7.016
488.44	6.874
488.79	6.610
489.13	7.169
489.48	6.680
489.83	6.197
490.17	6.318
490.52	6.322
490.87	6.430
491.22	5.936
491.56	6.570
491.91	6.193
492.26	6.318
492.60	6.384
492.95	6.670
493.30	6.948
493.64	6.045
493.99	5.877
494.34	5.618
494.68	5.867
495.03	6.564
495.37	6.036
495.72	5.941
496.07	6.047
496.41	6.049
496.76	6.380
497.11	6.157
497.45	6.215
497.80	6.753
498.14	6.259
498.49	5.928
498.84	5.850
499.18	5.983
499.53	6.502
499.87	5.978
500.22	5.565
500.56	5.848
500.91	5.995
501.26	6.500
501.60	5.921
501.95	6.340
502.29	5.836
502.64	5.859
502.98	6.169
503.33	5.832
503.67	5.626
504.02	5.692
504.36	6.390
504.71	5.880
505.06	6.185
505.40	6.307
505.75	5.920
506.09	6.584
506.44	6.082
506.78	6.239
507.13	5.901
507.47	6.206
507.82	6.439
508.16	5.736
508.51	5.485
508.85	6.282
509.19	5.685
509.54	6.052
509.88	6.459
510.23	6.508
510.57	6.428
510.92	5.951
511.26	5.772
511.61	5.408
511.95	6.101
512.30	6.155
512.64	5.547
512.98	5.903
513.33	6.200
513.67	6.017
514.02	6.234
514.36	5.882
514.70	5.625
515.05	6.048
515.39	6.142
515.74	5.938
516.08	6.128
516.42	6.960
516.77	5.836
517.11	5.725
517.46	5.832
517.80	6.360
518.14	5.604
518.49	6.453
518.83	5.854
519.17	6.193
519.52	6.394
519.86	5.913
520.20	6.869
520.55	5.969
520.89	6.025
521.23	5.639
521.58	5.819
521.92	5.892
522.26	6.014
522.61	6.019
522.95	5.248
523.29	5.632
523.64	6.278
523.98	6.104
524.32	6.189
524.66	6.147
525.01	6.229
525.35	5.284
525.69	5.568
526.04	5.052
526.38	5.402
526.72	5.940
527.06	5.572
527.41	5.831
527.75	6.235
528.09	5.844
528.43	6.039
528.78	5.607
529.12	5.333
529.46	5.565
529.80	5.721
530.15	5.101
530.49	5.516
530.83	5.726
531.17	5.675
531.51	5.596
531.86	5.950
532.20	5.915
532.54	5.506
532.88	5.515
533.22	5.775
533.57	6.405
533.91	6.453
534.25	5.653
534.59	5.977
534.93	4.641
535.27	5.577
535.62	6.197
535.96	4.997
536.30	5.523
536.64	6.006
536.98	6.089
537.32	5.494
537.66	6.114
538.01	5.378
538.35	5.420
538.69	5.108
539.03	5.273
539.37	6.184
539.71	6.126
540.05	6.055
540.39	5.379
540.73	5.282
541.07	5.641
541.42	5.493
541.76	5.872
542.10	5.187
542.44	5.116
542.78	5.353
543.12	5.125
543.46	5.556
543.80	5.216
544.14	5.625
544.48	5.615
544.82	5.087
545.16	5.784
545.50	5.153
545.84	5.266
546.18	6.049
546.52	5.541
546.86	5.409
547.20	5.344
547.54	4.806
547.88	4.822
548.22	4.912
548.56	4.798
548.90	4.776
549.24	5.167
549.58	5.237
549.92	4.847
550.26	5.437
550.60	5.297
550.94	5.369
551.28	5.479
551.62	5.256
551.96	4.984
552.30	5.290
552.64	5.165
552.98	5.178
553.32	4.823
553.66	4.823
554.00	5.549
554.34	5.534
554.68	4.648
555.02	5.059
555.36	5.654
555.69	4.292
556.03	4.981
556.37	5.194
556.71	4.502
557.05	4.920
557.39	4.977
557.73	5.416
558.07	4.437
558.41	5.116
558.75	4.395
559.08	4.662
559.42	4.047
559.76	5.292
560.10	4.689
560.44	4.156
560.78	4.750
561.12	4.557
561.45	5.839
561.79	5.189
562.13	5.052
562.47	4.686
562.81	4.367
563.15	5.177
563.48	4.910
563.82	4.716
564.16	4.179
564.50	4.589
564.84	5.251
565.17	5.176
565.51	4.603
565.85	4.276
566.19	4.666
566.52	4.447
566.86	4.867
567.20	5.003
567.54	4.302
567.88	5.148
568.21	4.792
568.55	4.892
568.89	5.129
569.23	4.943
569.56	4.728
569.90	4.989
570.24	4.418
570.57	4.618
570.91	4.593
571.25	4.686
571.59	4.871
571.92	4.611
572.26	4.950
572.60	4.614
572.93	5.177
573.27	4.524
573.61	5.294
573.95	5.001
574.28	4.695
574.62	4.616
574.96	4.323
575.29	4.891
575.63	4.920
575.97	4.982
576.30	4.861
576.64	4.939
576.98	4.784
577.31	4.577
577.65	4.767
577.98	4.913
578.32	4.707
578.66	4.730
578.99	4.690
579.33	4.735
579.67	4.578
580.00	4.743
580.34	5.061
580.67	4.678
581.01	4.738
581.35	4.715
581.68	4.845
582.02	4.821
582.35	4.752
582.69	5.046
583.02	4.784
583.36	4.909
583.70	4.703
584.03	4.608
584.37	4.542
584.70	4.377
585.04	4.487
585.37	4.662
585.71	4.725
586.04	4.690
586.38	4.712
586.72	4.412
587.05	4.502
587.39	4.538
587.72	4.569
588.06	4.715
588.39	4.829
588.73	4.630
589.06	4.825
589.40	4.272
589.73	4.531
590.07	4.542
590.40	4.936
590.73	4.419
591.07	5.287
591.40	4.160
591.74	4.332
592.07	4.913
592.41	4.022
592.74	4.792
593.08	4.841
593.41	4.695
593.75	4.483
594.08	4.574
594.41	4.744
594.75	4.616
595.08	4.004
595.42	4.221
595.75	4.617
596.09	5.185
596.42	4.335
596.75	4.902
597.09	5.253
597.42	5.125
597.75	4.273
598.09	4.881
598.42	4.383
598.76	4.280
599.09	4.521
599.42	4.358
599.76	4.556
600.09	4.338
600.42	4.371
600.76	4.789
601.09	4.547
601.42	4.703
601.76	4.483
602.09	4.575
602.42	3.744
602.76	4.502
603.09	4.258
603.42	4.227
603.76	4.369
604.09	4.187
604.42	4.514
604.76	4.072
605.09	4.547
605.42	4.506
605.75	4.269
606.09	4.405
606.42	4.341
606.75	3.973
607.09	3.917
607.42	4.470
607.75	4.611
608.08	4.538
608.42	4.393
608.75	4.892
609.08	4.329
609.41	4.455
609.75	4.018
610.08	4.485
610.41	4.715
610.74	4.118
611.07	4.218
611.41	4.709
611.74	4.711
612.07	4.441
612.40	4.230
612.73	4.303
613.07	4.597
613.40	4.764
613.73	4.237
614.06	4.514
614.39	4.373
614.72	4.173
615.06	4.090
615.39	3.818
615.72	4.408
616.05	4.517
616.38	4.440
616.71	4.336
617.05	3.355
617.38	4.441
617.71	4.428
618.04	4.263
618.37	4.098
618.70	4.751
619.03	4.421
619.36	4.131
619.69	4.292
620.03	3.641
620.36	4.294
620.69	3.763
621.02	4.987
621.35	4.644
621.68	3.832
622.01	4.342
622.34	3.487
622.67	4.536
623.00	3.171
623.33	4.313
623.66	4.021
623.99	3.357
624.32	5.198
624.65	3.797
624.99	3.836
625.32	5.029
625.65	4.518
625.98	4.068
626.31	3.756
626.64	3.736
626.97	3.976
627.30	3.189
627.63	3.676
627.96	5.330
628.29	4.514
628.62	3.359
628.95	4.119
629.28	4.333
629.61	4.293
629.94	3.013
630.26	3.644
630.59	3.282
630.92	3.810
631.25	4.562
631.58	4.049
631.91	3.468
632.24	3.362
632.57	4.459
632.90	3.109
633.23	4.184
633.56	3.673
633.89	3.719
634.22	4.782
634.55	5.010
634.88	3.247
635.20	4.306
635.53	3.616
635.86	3.684
636.19	4.454
636.52	4.114
636.85	3.882
637.18	4.262
637.51	2.366
637.83	4.097
638.16	4.032
638.49	4.225
638.82	3.946
639.15	2.864
639.48	5.658
639.81	3.580
640.13	4.240
640.46	2.182
640.79	2.451
641.12	4.596
641.45	4.141
641.77	5.392
642.10	4.593
642.43	4.787
642.76	3.523
643.09	3.836
643.41	3.501
643.74	4.966
644.07	4.966
644.40	2.405
644.73	3.628
645.05	3.084
645.38	3.022
645.71	3.372
646.04	4.878
646.36	2.044
646.69	4.294
647.02	5.963
647.35	4.580
647.67	4.992
648.00	1.911
648.33	5.405
648.66	4.422
648.98	2.585
649.31	2.977
649.64	3.054
649.96	3.448
650.29	3.199
650.62	3.112
650.94	1.351
651.27	2.246
651.60	4.825
651.92	0.608
652.25	4.486
652.58	2.751
652.90	3.779
653.23	5.070
653.56	2.425
653.88	4.354
654.21	4.225
654.54	3.757
654.86	4.249
655.19	2.760
655.52	3.671
655.84	4.354
656.17	4.623
656.49	6.680
656.82	7.466
657.15	5.933
657.47	4.571
657.80	3.316
658.13	2.595
658.45	3.435
658.78	3.887
659.10	3.724
659.43	3.860
659.75	3.527
