SpectraSuite Data File
++++++++++++++++++++++++++++++++++++
Date: Thu May 14 16:26:25 PDT 2015
User: schluterlab
Dark Spectrum Present: Yes
Reference Spectrum Present: Yes
Number of Sampled Component Spectra: 1
Spectrometers: USB2E3373
Integration Time (usec): 3000 (USB2E3373)
Spectra Averaged: 3 (USB2E3373)
Boxcar Smoothing: 0 (USB2E3373)
Correct for Electrical Dark: No (USB2E3373)
Strobe/Lamp Enabled: No (USB2E3373)
Correct for Detector Non-linearity: No (USB2E3373)
Correct for Stray Light: No (USB2E3373)
Number of Pixels in Processed Spectrum: 2048
>>>>>Begin Processed Spectral Data<<<<<
178.53	0.000
178.91	42.857
179.29	-1700.000
179.67	-1300.000
180.04	192.857
180.42	40.000
180.80	100.000
181.18	0.000
181.56	400.000
181.94	-75.000
182.31	75.000
182.69	33.333
183.07	-100.000
183.45	175.000
183.83	83.333
184.20	166.667
184.58	-200.000
184.96	-100.000
185.34	133.333
185.72	120.000
186.09	66.667
186.47	-300.000
186.85	40.000
187.23	-100.000
187.61	-700.000
187.98	160.000
188.36	75.000
188.74	50.000
189.12	100.000
189.49	50.000
189.87	-25.000
190.25	44.444
190.63	-180.000
191.00	-133.333
191.38	0.000
191.76	-175.000
192.14	-216.667
192.51	400.000
192.89	16.667
193.27	0.000
193.65	-14.286
194.02	-1700.000
194.40	-100.000
194.78	14.286
195.15	0.000
195.53	-27.273
195.91	0.000
196.29	-50.000
196.66	15.385
197.04	-400.000
197.42	-71.429
197.79	-350.000
198.17	-12.500
198.55	-57.143
198.92	-33.333
199.30	-25.000
199.68	45.455
200.05	57.143
200.43	-650.000
200.81	71.429
201.18	0.000
201.56	111.111
201.94	0.000
202.31	266.667
202.69	-55.556
203.07	400.000
203.44	-22.222
203.82	-125.000
204.19	-8.333
204.57	-33.333
204.95	100.000
205.32	200.000
205.70	-50.000
206.08	-116.667
206.45	83.333
206.83	100.000
207.20	-166.667
207.58	-80.000
207.96	-150.000
208.33	-16.667
208.71	91.667
209.08	33.333
209.46	0.000
209.84	233.333
210.21	250.000
210.59	-100.000
210.96	133.333
211.34	125.000
211.71	12.500
212.09	-200.000
212.46	0.000
212.84	950.000
213.22	-180.000
213.59	-200.000
213.97	-30.000
214.34	-233.333
214.72	250.000
215.09	25.000
215.47	0.000
215.84	-14.286
216.22	450.000
216.59	-60.000
216.97	-60.000
217.34	75.000
217.72	-12.500
218.09	75.000
218.47	-125.000
218.84	0.000
219.22	60.000
219.59	47.059
219.97	20.000
220.34	300.000
220.72	-133.333
221.09	-7.692
221.47	66.667
221.84	40.000
222.22	-57.143
222.59	0.000
222.97	12.500
223.34	-60.000
223.72	100.000
224.09	-75.000
224.46	25.000
224.84	220.000
225.21	-57.143
225.59	-50.000
225.96	-125.000
226.34	11.538
226.71	83.333
227.08	0.000
227.46	53.333
227.83	-75.000
228.21	26.316
228.58	87.500
228.95	950.000
229.33	-8.333
229.70	50.000
230.08	52.632
230.45	130.000
230.82	-33.333
231.20	14.286
231.57	33.333
231.95	-9.091
232.32	27.273
232.69	40.000
233.07	-25.000
233.44	-29.412
233.81	-10.000
234.19	50.000
234.56	45.455
234.93	17.241
235.31	26.316
235.68	-11.111
236.05	-40.000
236.43	23.077
236.80	48.000
237.17	25.926
237.55	9.091
237.92	-50.000
238.29	0.000
238.67	-6.818
239.04	2.778
239.41	0.000
239.79	-4.348
240.16	-11.111
240.53	-10.870
240.91	0.000
241.28	6.557
241.65	22.388
242.02	16.216
242.40	1.538
242.77	-9.333
243.14	-7.317
243.51	-14.474
243.89	-6.410
244.26	9.901
244.63	4.902
245.00	0.000
245.38	0.000
245.75	-3.540
246.12	-1.587
246.49	-2.326
246.87	8.571
247.24	6.623
247.61	9.211
247.98	0.000
248.36	1.852
248.73	0.000
249.10	5.464
249.47	6.965
249.84	5.759
250.22	0.518
250.59	3.333
250.96	0.909
251.33	-2.551
251.70	7.265
252.08	7.083
252.45	4.098
252.82	-1.653
253.19	0.000
253.56	0.000
253.94	-2.308
254.31	3.030
254.68	7.692
255.05	6.515
255.42	3.741
255.79	1.942
256.16	5.298
256.54	-0.662
256.91	3.607
257.28	0.328
257.65	1.274
258.02	0.590
258.39	5.128
258.76	4.893
259.14	3.736
259.51	0.576
259.88	1.983
260.25	1.389
260.62	3.562
260.99	6.284
261.36	3.485
261.73	0.531
262.10	2.198
262.47	2.681
262.85	5.808
263.22	1.558
263.59	2.105
263.96	2.046
264.33	2.302
264.70	3.457
265.07	4.057
265.44	5.669
265.81	2.083
266.18	3.175
266.55	4.018
266.92	2.506
267.29	4.376
267.66	1.552
268.03	4.148
268.40	4.384
268.77	0.000
269.14	1.762
269.51	3.509
269.88	4.508
270.25	2.414
270.62	5.485
270.99	6.667
271.36	5.941
271.73	3.340
272.10	4.409
272.47	4.208
272.84	3.815
273.21	3.206
273.58	3.226
273.95	1.923
274.32	2.281
274.69	2.128
275.06	3.297
275.43	1.664
275.80	4.233
276.17	5.185
276.54	2.985
276.91	1.789
277.28	4.521
277.65	3.232
278.02	4.228
278.39	2.536
278.76	3.515
279.13	3.723
279.50	5.155
279.87	2.504
280.23	2.641
280.60	2.712
280.97	3.618
281.34	2.716
281.71	5.415
282.08	3.987
282.45	2.455
282.82	3.297
283.19	1.939
283.56	2.951
283.92	4.204
284.29	4.739
284.66	3.284
285.03	1.442
285.40	4.791
285.77	3.560
286.14	3.511
286.51	2.588
286.87	2.528
287.24	4.970
287.61	3.288
287.98	2.266
288.35	3.698
288.72	4.734
289.08	4.392
289.45	3.254
289.82	2.711
290.19	3.448
290.56	6.056
290.93	1.854
291.29	1.928
291.66	2.342
292.03	2.714
292.40	5.170
292.77	4.178
293.13	4.330
293.50	3.022
293.87	1.611
294.24	4.000
294.60	4.172
294.97	1.342
295.34	4.353
295.71	2.774
296.08	2.842
296.44	2.574
296.81	3.289
297.18	2.989
297.55	3.656
297.91	3.084
298.28	3.199
298.65	3.805
299.02	3.424
299.38	3.318
299.75	3.855
300.12	3.009
300.48	2.880
300.85	3.937
301.22	4.698
301.59	3.653
301.95	4.181
302.32	3.667
302.69	4.491
303.05	3.917
303.42	2.328
303.79	3.542
304.15	3.680
304.52	2.326
304.89	4.503
305.25	3.623
305.62	2.612
305.99	4.021
306.35	3.831
306.72	4.343
307.09	2.843
307.45	4.555
307.82	4.339
308.19	4.440
308.55	4.822
308.92	3.603
309.29	5.268
309.65	3.411
310.02	3.168
310.38	5.610
310.75	5.340
311.12	5.369
311.48	4.888
311.85	5.603
312.22	4.459
312.58	5.446
312.95	4.971
313.31	4.968
313.68	7.234
314.05	6.865
314.41	6.922
314.78	7.175
315.14	9.074
315.51	7.387
315.87	9.181
316.24	8.402
316.61	8.348
316.97	8.326
317.34	9.965
317.70	9.170
318.07	10.229
318.43	9.864
318.80	11.957
319.16	11.245
319.53	10.797
319.89	10.868
320.26	11.744
320.62	12.943
320.99	12.927
321.35	12.847
321.72	14.512
322.08	12.985
322.45	13.821
322.81	14.801
323.18	15.044
323.54	15.517
323.91	16.459
324.27	17.212
324.64	18.136
325.00	17.330
325.37	18.837
325.73	19.504
326.10	19.465
326.46	20.277
326.83	21.377
327.19	21.654
327.56	22.372
327.92	22.738
328.29	22.581
328.65	21.776
329.01	23.604
329.38	24.347
329.74	24.486
330.11	25.000
330.47	23.673
330.84	24.462
331.20	25.250
331.56	25.390
331.93	26.025
332.29	26.186
332.66	25.581
333.02	24.456
333.38	25.503
333.75	26.094
334.11	24.187
334.48	26.073
334.84	26.763
335.20	26.532
335.57	26.560
335.93	27.521
336.29	26.040
336.66	24.979
337.02	25.920
337.38	27.381
337.75	26.942
338.11	26.409
338.47	26.055
338.84	27.157
339.20	26.622
339.56	26.936
339.93	26.355
340.29	26.973
340.65	25.710
341.02	26.576
341.38	27.890
341.74	27.603
342.11	26.870
342.47	25.655
342.83	26.731
343.20	27.392
343.56	27.185
343.92	26.741
344.28	27.187
344.65	27.054
345.01	27.301
345.37	27.527
345.73	25.877
346.10	26.209
346.46	26.345
346.82	25.468
347.19	27.196
347.55	25.645
347.91	26.746
348.27	27.086
348.63	26.504
349.00	26.771
349.36	26.543
349.72	26.637
350.08	27.340
350.45	25.703
350.81	24.962
351.17	26.992
351.53	26.687
351.89	27.107
352.26	27.537
352.62	26.119
352.98	25.878
353.34	26.139
353.70	26.810
354.07	26.602
354.43	27.487
354.79	25.954
355.15	25.607
355.51	26.974
355.87	26.402
356.24	28.593
356.60	25.721
356.96	27.205
357.32	26.245
357.68	26.428
358.04	26.647
358.40	26.194
358.77	26.389
359.13	26.588
359.49	26.171
359.85	27.411
360.21	27.044
360.57	26.274
360.93	26.093
361.29	27.088
361.66	27.299
362.02	27.279
362.38	27.829
362.74	26.536
363.10	27.442
363.46	27.562
363.82	27.557
364.18	26.531
364.54	26.003
364.90	26.622
365.26	26.759
365.62	27.533
365.98	27.297
366.35	26.644
366.71	27.347
367.07	27.673
367.43	26.724
367.79	27.737
368.15	26.823
368.51	27.334
368.87	26.780
369.23	27.267
369.59	28.620
369.95	27.654
370.31	27.346
370.67	26.891
371.03	27.909
371.39	26.998
371.75	27.304
372.11	27.710
372.47	27.691
372.83	27.356
373.19	27.085
373.55	27.642
373.91	27.062
374.27	26.714
374.63	28.417
374.99	28.183
375.35	27.597
375.71	28.194
376.07	26.856
376.42	28.401
376.78	27.346
377.14	27.948
377.50	27.767
377.86	28.387
378.22	28.204
378.58	27.229
378.94	28.345
379.30	28.588
379.66	28.689
380.02	27.813
380.38	28.168
380.74	28.901
381.09	29.501
381.45	28.409
381.81	29.859
382.17	28.504
382.53	28.480
382.89	28.160
383.25	28.605
383.61	28.819
383.97	28.092
384.32	29.067
384.68	27.784
385.04	28.861
385.40	29.523
385.76	29.719
386.12	27.828
386.48	29.059
386.83	28.665
387.19	28.969
387.55	28.345
387.91	28.995
388.27	28.522
388.62	29.496
388.98	27.919
389.34	30.053
389.70	28.588
390.06	28.123
390.42	28.916
390.77	29.320
391.13	28.345
391.49	29.287
391.85	29.030
392.20	29.478
392.56	29.297
392.92	29.226
393.28	29.298
393.64	28.324
393.99	29.343
394.35	29.614
394.71	29.042
395.07	29.222
395.42	28.155
395.78	29.372
396.14	28.699
396.50	28.741
396.85	28.384
397.21	28.817
397.57	29.152
397.92	27.950
398.28	27.920
398.64	28.261
399.00	27.487
399.35	28.220
399.71	27.772
400.07	28.972
400.42	28.522
400.78	28.935
401.14	29.027
401.49	29.051
401.85	29.070
402.21	28.969
402.57	30.106
402.92	29.905
403.28	28.220
403.63	27.745
403.99	28.207
404.35	28.539
404.70	28.329
405.06	28.478
405.42	28.630
405.77	28.844
406.13	28.255
406.49	29.561
406.84	28.033
407.20	28.060
407.55	28.225
407.91	28.473
408.27	27.385
408.62	29.203
408.98	28.671
409.34	27.097
409.69	28.616
410.05	28.488
410.40	28.306
410.76	28.099
411.11	28.755
411.47	28.317
411.83	29.394
412.18	28.916
412.54	28.334
412.89	28.754
413.25	28.330
413.60	27.915
413.96	27.681
414.31	27.762
414.67	28.742
415.03	27.692
415.38	29.760
415.74	28.406
416.09	28.501
416.45	28.053
416.80	27.601
417.16	29.630
417.51	27.958
417.87	28.020
418.22	27.964
418.58	28.501
418.93	28.347
419.29	29.408
419.64	28.752
420.00	27.715
420.35	27.737
420.71	28.317
421.06	27.717
421.42	28.498
421.77	27.894
422.12	28.066
422.48	28.520
422.83	29.682
423.19	28.382
423.54	29.204
423.90	28.603
424.25	29.333
424.61	29.736
424.96	28.775
425.31	29.193
425.67	29.147
426.02	29.109
426.38	29.506
426.73	29.576
427.09	30.219
427.44	29.274
427.79	28.137
428.15	28.368
428.50	29.101
428.85	29.564
429.21	29.734
429.56	29.418
429.92	29.287
430.27	29.205
430.62	29.507
430.98	29.021
431.33	29.032
431.68	28.975
432.04	29.253
432.39	29.513
432.74	29.452
433.10	29.638
433.45	28.874
433.80	30.472
434.16	29.494
434.51	30.627
434.86	30.402
435.22	29.756
435.57	30.719
435.92	30.273
436.28	30.887
436.63	30.694
436.98	29.844
437.34	30.665
437.69	29.499
438.04	29.297
438.39	29.983
438.75	30.050
439.10	30.973
439.45	30.855
439.81	29.718
440.16	29.812
440.51	31.550
440.86	29.516
441.22	30.064
441.57	30.241
441.92	30.262
442.27	31.364
442.63	30.999
442.98	31.483
443.33	30.931
443.68	31.269
444.03	31.515
444.39	31.392
444.74	30.985
445.09	30.411
445.44	31.612
445.79	31.322
446.15	31.706
446.50	30.801
446.85	31.177
447.20	30.319
447.55	31.642
447.91	31.099
448.26	31.924
448.61	30.074
448.96	31.974
449.31	31.336
449.66	31.155
450.02	31.487
450.37	31.646
450.72	31.755
451.07	31.777
451.42	31.138
451.77	32.018
452.12	32.223
452.47	30.838
452.83	31.250
453.18	31.232
453.53	31.074
453.88	31.474
454.23	31.864
454.58	31.631
454.93	31.614
455.28	32.149
455.63	31.097
455.98	30.894
456.34	31.331
456.69	32.451
457.04	30.556
457.39	31.264
457.74	32.327
458.09	31.082
458.44	32.220
458.79	31.717
459.14	30.729
459.49	32.541
459.84	31.899
460.19	30.483
460.54	32.141
460.89	31.445
461.24	31.609
461.59	31.544
461.94	30.804
462.29	31.971
462.64	30.477
462.99	31.576
463.34	31.538
463.69	31.360
464.04	31.795
464.39	32.119
464.74	30.844
465.09	31.488
465.44	30.740
465.79	31.623
466.14	31.058
466.49	31.632
466.84	32.727
467.19	31.792
467.54	31.316
467.89	30.460
468.24	30.526
468.59	30.110
468.94	30.769
469.29	30.354
469.64	31.214
469.99	31.103
470.34	30.817
470.68	30.895
471.03	31.434
471.38	31.589
471.73	30.949
472.08	31.662
472.43	31.066
472.78	31.612
473.13	30.973
473.48	31.239
473.83	31.805
474.17	31.594
474.52	31.870
474.87	31.672
475.22	32.113
475.57	30.997
475.92	30.214
476.27	30.405
476.61	31.049
476.96	30.813
477.31	31.040
477.66	31.480
478.01	30.605
478.36	30.010
478.70	31.379
479.05	31.186
479.40	30.701
479.75	31.124
480.10	31.265
480.45	30.902
480.79	31.519
481.14	31.388
481.49	30.850
481.84	30.766
482.19	30.667
482.53	30.826
482.88	31.280
483.23	30.547
483.58	30.699
483.92	30.275
484.27	31.160
484.62	30.487
484.97	30.715
485.31	30.095
485.66	29.004
486.01	28.827
486.36	29.680
486.70	30.363
487.05	30.567
487.40	30.207
487.75	29.720
488.09	30.318
488.44	29.994
488.79	30.017
489.13	30.014
489.48	29.903
489.83	29.497
490.17	29.202
490.52	29.967
490.87	30.076
491.22	29.896
491.56	29.991
491.91	30.615
492.26	29.424
492.60	30.345
492.95	30.496
493.30	30.076
493.64	29.961
493.99	30.482
494.34	29.704
494.68	29.165
495.03	30.617
495.37	30.049
495.72	30.567
496.07	30.719
496.41	29.816
496.76	30.108
497.11	29.809
497.45	30.168
497.80	29.498
498.14	29.751
498.49	30.285
498.84	29.799
499.18	29.690
499.53	30.359
499.87	29.890
500.22	30.098
500.56	28.790
500.91	30.160
501.26	30.545
501.60	29.032
501.95	29.700
502.29	29.706
502.64	29.340
502.98	29.077
503.33	29.071
503.67	28.958
504.02	29.072
504.36	29.580
504.71	29.674
505.06	29.786
505.40	29.113
505.75	29.690
506.09	28.729
506.44	29.526
506.78	29.587
507.13	29.092
507.47	29.938
507.82	28.835
508.16	29.493
508.51	28.926
508.85	28.909
509.19	28.517
509.54	29.251
509.88	29.237
510.23	30.112
510.57	30.208
510.92	28.254
511.26	28.571
511.61	28.585
511.95	28.648
512.30	29.050
512.64	28.286
512.98	29.615
513.33	29.587
513.67	28.557
514.02	28.462
514.36	29.207
514.70	28.750
515.05	28.728
515.39	28.661
515.74	29.427
516.08	29.054
516.42	29.513
516.77	29.022
517.11	28.262
517.46	28.738
517.80	28.862
518.14	29.543
518.49	28.200
518.83	28.792
519.17	29.187
519.52	28.669
519.86	28.511
520.20	28.115
520.55	28.806
520.89	29.223
521.23	28.811
521.58	29.096
521.92	28.669
522.26	28.179
522.61	28.530
522.95	27.566
523.29	28.046
523.64	27.578
523.98	28.408
524.32	29.570
524.66	28.344
525.01	27.407
525.35	28.202
525.69	28.306
526.04	28.129
526.38	28.103
526.72	28.777
527.06	27.683
527.41	28.397
527.75	28.504
528.09	27.155
528.43	26.821
528.78	27.283
529.12	26.778
529.46	27.094
529.80	27.517
530.15	27.362
530.49	27.521
530.83	28.158
531.17	27.240
531.51	27.196
531.86	27.404
532.20	27.134
532.54	27.289
532.88	27.636
533.22	27.107
533.57	27.178
533.91	26.655
534.25	27.586
534.59	26.782
534.93	26.938
535.27	26.930
535.62	26.890
535.96	27.135
536.30	26.616
536.64	27.267
536.98	27.552
537.32	26.605
537.66	26.638
538.01	26.405
538.35	26.248
538.69	26.322
539.03	26.180
539.37	25.972
539.71	26.186
540.05	27.158
540.39	25.917
540.73	25.562
541.07	25.690
541.42	26.048
541.76	25.445
542.10	25.694
542.44	25.213
542.78	26.582
543.12	25.387
543.46	26.129
543.80	25.000
544.14	25.374
544.48	26.123
544.82	25.254
545.16	25.462
545.50	24.985
545.84	25.107
546.18	26.728
546.52	25.669
546.86	26.164
547.20	25.318
547.54	25.156
547.88	25.075
548.22	25.556
548.56	24.693
548.90	25.254
549.24	24.134
549.58	24.479
549.92	25.702
550.26	25.566
550.60	24.888
550.94	25.032
551.28	25.479
551.62	25.539
551.96	24.013
552.30	25.366
552.64	24.953
552.98	25.265
553.32	25.338
553.66	24.695
554.00	24.401
554.34	24.968
554.68	24.338
555.02	25.296
555.36	24.523
555.69	24.792
556.03	24.338
556.37	24.406
556.71	24.731
557.05	24.984
557.39	24.751
557.73	23.646
558.07	24.305
558.41	23.987
558.75	24.206
559.08	24.704
559.42	24.211
559.76	25.373
560.10	24.046
560.44	23.813
560.78	24.250
561.12	24.200
561.45	24.392
561.79	23.687
562.13	24.214
562.47	23.674
562.81	23.291
563.15	24.116
563.48	24.736
563.82	23.942
564.16	22.956
564.50	23.302
564.84	23.127
565.17	23.647
565.51	22.267
565.85	23.753
566.19	22.984
566.52	22.586
566.86	22.920
567.20	21.805
567.54	22.411
567.88	22.681
568.21	22.036
568.55	23.070
568.89	22.606
569.23	22.180
569.56	22.235
569.90	22.452
570.24	21.653
570.57	22.130
570.91	21.127
571.25	21.724
571.59	21.486
571.92	21.375
572.26	20.805
572.60	21.103
572.93	21.264
573.27	21.017
573.61	21.122
573.95	20.515
574.28	20.930
574.62	20.646
574.96	20.754
575.29	20.335
575.63	20.559
575.97	20.263
576.30	20.306
576.64	20.305
576.98	20.706
577.31	20.609
577.65	20.821
577.98	20.294
578.32	19.967
578.66	19.638
578.99	19.885
579.33	20.542
579.67	19.628
580.00	20.162
580.34	20.244
580.67	19.726
581.01	19.645
581.35	20.047
581.68	20.160
582.02	19.528
582.35	20.174
582.69	19.620
583.02	20.239
583.36	19.881
583.70	19.723
584.03	19.822
584.37	19.649
584.70	19.633
585.04	19.391
585.37	19.333
585.71	19.720
586.04	19.705
586.38	20.357
586.72	19.604
587.05	19.826
587.39	19.272
587.72	20.120
588.06	19.536
588.39	19.642
588.73	19.444
589.06	19.272
589.40	19.791
589.73	20.019
590.07	19.927
590.40	19.844
590.73	19.159
591.07	20.179
591.40	20.295
591.74	20.032
592.07	20.016
592.41	19.361
592.74	19.240
593.08	19.459
593.41	20.181
593.75	18.649
594.08	19.267
594.41	19.519
594.75	19.130
595.08	19.112
595.42	18.961
595.75	19.341
596.09	19.824
596.42	19.563
596.75	19.992
597.09	20.081
597.42	18.832
597.75	19.130
598.09	19.722
598.42	19.421
598.76	18.686
599.09	19.651
599.42	19.008
599.76	18.719
600.09	18.318
600.42	18.952
600.76	18.626
601.09	18.487
601.42	18.538
601.76	18.207
602.09	18.406
602.42	18.539
602.76	18.745
603.09	18.539
603.42	18.569
603.76	18.499
604.09	19.304
604.42	18.899
604.76	18.151
605.09	18.708
605.42	18.581
605.75	18.423
606.09	17.693
606.42	17.913
606.75	17.579
607.09	17.896
607.42	18.189
607.75	18.718
608.08	17.995
608.42	17.856
608.75	18.284
609.08	17.997
609.41	18.659
609.75	17.812
610.08	18.250
610.41	17.630
610.74	17.899
611.07	18.339
611.41	18.475
611.74	18.337
612.07	18.467
612.40	18.108
612.73	18.924
613.07	18.729
613.40	18.576
613.73	18.536
614.06	18.008
614.39	17.736
614.72	18.438
615.06	17.469
615.39	17.545
615.72	17.536
616.05	17.921
616.38	18.466
616.71	18.234
617.05	18.104
617.38	18.299
617.71	17.981
618.04	17.701
618.37	17.705
618.70	18.043
619.03	16.786
619.36	18.372
619.69	18.193
620.03	17.954
620.36	17.853
620.69	18.075
621.02	17.717
621.35	18.215
621.68	18.438
622.01	17.936
622.34	18.201
622.67	17.526
623.00	16.937
623.33	18.315
623.66	18.547
623.99	18.104
624.32	18.519
624.65	17.632
624.99	18.531
625.32	18.811
625.65	18.409
625.98	17.356
626.31	18.285
626.64	17.656
626.97	18.755
627.30	17.008
627.63	17.704
627.96	18.619
628.29	18.444
628.62	17.716
628.95	18.843
629.28	17.332
629.61	17.508
629.94	16.485
630.26	17.797
630.59	17.358
630.92	17.143
631.25	18.336
631.58	19.209
631.91	18.932
632.24	19.404
632.57	16.414
632.90	17.653
633.23	17.551
633.56	18.163
633.89	17.769
634.22	20.166
634.55	17.954
634.88	17.749
635.20	18.730
635.53	19.661
635.86	19.285
636.19	19.830
636.52	19.198
636.85	16.854
637.18	18.919
637.51	17.419
637.83	17.719
638.16	17.627
638.49	17.723
