SpectraSuite Data File
++++++++++++++++++++++++++++++++++++
Date: Thu May 14 16:32:57 PDT 2015
User: schluterlab
Dark Spectrum Present: Yes
Reference Spectrum Present: Yes
Number of Sampled Component Spectra: 1
Spectrometers: USB2E3373
Integration Time (usec): 3000 (USB2E3373)
Spectra Averaged: 3 (USB2E3373)
Boxcar Smoothing: 0 (USB2E3373)
Correct for Electrical Dark: No (USB2E3373)
Strobe/Lamp Enabled: No (USB2E3373)
Correct for Detector Non-linearity: No (USB2E3373)
Correct for Stray Light: No (USB2E3373)
Number of Pixels in Processed Spectrum: 2048
>>>>>Begin Processed Spectral Data<<<<<
178.53	0.000
178.91	-0.000
179.29	-1100.000
179.67	-800.000
180.04	121.429
180.42	50.000
180.80	340.000
181.18	-300.000
181.56	500.000
181.94	-125.000
182.31	50.000
182.69	166.667
183.07	-150.000
183.45	50.000
183.83	0.000
184.20	-100.000
184.58	-200.000
184.96	-100.000
185.34	44.444
185.72	20.000
186.09	122.222
186.47	100.000
186.85	160.000
187.23	-55.556
187.61	-100.000
187.98	-60.000
188.36	175.000
188.74	-100.000
189.12	0.000
189.49	62.500
189.87	25.000
190.25	77.778
190.63	-20.000
191.00	0.000
191.38	0.000
191.76	-250.000
192.14	16.667
192.51	250.000
192.89	33.333
193.27	0.000
193.65	0.000
194.02	-1200.000
194.40	-71.429
194.78	114.286
195.15	0.000
195.53	27.273
195.91	0.000
196.29	350.000
196.66	-38.462
197.04	-600.000
197.42	-42.857
197.79	-650.000
198.17	-62.500
198.55	-14.286
198.92	55.556
199.30	-50.000
199.68	81.818
200.05	0.000
200.43	-350.000
200.81	114.286
201.18	0.000
201.56	144.444
201.94	0.000
202.31	-33.333
202.69	-33.333
203.07	-500.000
203.44	-55.556
203.82	-225.000
204.19	33.333
204.57	100.000
204.95	-25.000
205.32	-600.000
205.70	-25.000
206.08	-100.000
206.45	-16.667
206.83	240.000
207.20	16.667
207.58	-180.000
207.96	-116.667
208.33	183.333
208.71	-0.000
209.08	200.000
209.46	0.000
209.84	233.333
210.21	300.000
210.59	-150.000
210.96	266.667
211.34	125.000
211.71	-37.500
212.09	-100.000
212.46	0.000
212.84	1000.000
213.22	-240.000
213.59	-50.000
213.97	40.000
214.34	33.333
214.72	150.000
215.09	-75.000
215.47	0.000
215.84	14.286
216.22	550.000
216.59	20.000
216.97	60.000
217.34	-100.000
217.72	150.000
218.09	75.000
218.47	-125.000
218.84	0.000
219.22	-60.000
219.59	17.647
219.97	10.000
220.34	400.000
220.72	-66.667
221.09	76.923
221.47	-433.333
221.84	0.000
222.22	-28.571
222.59	0.000
222.97	25.000
223.34	-220.000
223.72	0.000
224.09	-125.000
224.46	-300.000
224.84	80.000
225.21	-171.429
225.59	-350.000
225.96	-150.000
226.34	23.077
226.71	66.667
227.08	-400.000
227.46	40.000
227.83	-225.000
228.21	21.053
228.58	100.000
228.95	50.000
229.33	33.333
229.70	-40.000
230.08	84.211
230.45	30.000
230.82	-66.667
231.20	-42.857
231.57	0.000
231.95	-27.273
232.32	36.364
232.69	-10.000
233.07	-275.000
233.44	52.941
233.81	10.000
234.19	33.333
234.56	-9.091
234.93	27.586
235.31	21.053
235.68	-22.222
236.05	-60.000
236.43	23.077
236.80	20.000
237.17	-11.111
237.55	6.061
237.92	-130.000
238.29	-19.355
238.67	22.727
239.04	-5.556
239.41	-21.429
239.79	28.261
240.16	-3.704
240.53	-2.174
240.91	-19.608
241.28	0.000
241.65	2.985
242.02	10.811
242.40	-7.692
242.77	-10.667
243.14	-6.098
243.51	-7.895
243.89	-15.385
244.26	2.970
244.63	3.922
245.00	-0.935
245.38	-4.386
245.75	-13.274
246.12	2.381
246.49	2.326
246.87	4.286
247.24	-0.662
247.61	-0.658
247.98	3.356
248.36	-2.469
248.73	-6.135
249.10	-1.639
249.47	1.990
249.84	6.806
250.22	-2.073
250.59	-5.556
250.96	1.364
251.33	-7.143
251.70	1.282
252.08	3.750
252.45	-2.049
252.82	-1.240
253.19	-1.563
253.56	0.380
253.94	-0.769
254.31	2.652
254.68	-1.049
255.05	1.954
255.42	0.000
255.79	-2.913
256.16	2.649
256.54	-1.656
256.91	-1.639
257.28	-0.328
257.65	-4.459
258.02	-1.475
258.39	0.855
258.76	3.976
259.14	0.000
259.51	-2.882
259.88	-1.700
260.25	-0.556
260.62	0.274
260.99	2.459
261.36	0.268
261.73	-0.796
262.10	-1.923
262.47	-0.536
262.85	3.030
263.22	-0.779
263.59	-2.368
263.96	1.023
264.33	-2.302
264.70	-0.741
265.07	1.671
265.44	1.134
265.81	0.231
266.18	-0.907
266.55	1.339
266.92	-2.506
267.29	0.219
267.66	-1.109
268.03	0.000
268.40	-0.418
268.77	-5.011
269.14	-3.744
269.51	-0.877
269.88	1.025
270.25	1.006
270.62	1.899
270.99	1.010
271.36	1.188
271.73	0.982
272.10	1.403
272.47	0.200
272.84	0.803
273.21	1.603
273.58	0.806
273.95	-0.962
274.32	-1.901
274.69	-0.193
275.06	0.366
275.43	-1.294
275.80	2.646
276.17	-2.037
276.54	-1.119
276.91	-0.716
277.28	-0.181
277.65	-0.180
278.02	1.287
278.39	-1.993
278.76	-2.109
279.13	-0.532
279.50	2.234
279.87	2.147
280.23	-1.937
280.60	0.508
280.97	0.329
281.34	-0.679
281.71	1.184
282.08	-0.332
282.45	-0.982
282.82	0.000
283.19	-1.616
283.56	-1.639
283.92	1.502
284.29	-0.158
284.66	0.164
285.03	-0.962
285.40	1.700
285.77	-0.774
286.14	0.458
286.51	0.609
286.87	-0.158
287.24	0.301
287.61	0.149
287.98	-0.453
288.35	0.740
288.72	2.515
289.08	1.171
289.45	-0.296
289.82	0.000
290.19	-0.287
290.56	2.113
290.93	0.000
291.29	0.138
291.66	-0.413
292.03	0.678
292.40	1.633
292.77	0.000
293.13	0.541
293.50	0.526
293.87	0.537
294.24	1.333
294.60	0.885
294.97	-0.537
295.34	1.665
295.71	1.009
296.08	-0.129
296.44	0.735
296.81	1.096
297.18	1.619
297.55	0.000
297.91	0.949
298.28	-0.592
298.65	0.832
299.02	1.535
299.38	1.602
299.75	0.818
300.12	0.347
300.48	1.382
300.85	1.462
301.22	2.573
301.59	1.826
301.95	0.339
302.32	1.778
302.69	1.643
303.05	1.959
303.42	2.106
303.79	0.833
304.15	1.262
304.52	0.951
304.89	1.780
305.25	2.692
305.62	1.463
305.99	1.856
306.35	1.109
306.72	2.482
307.09	0.102
307.45	1.863
307.82	0.908
308.19	0.000
308.55	2.025
308.92	1.947
309.29	2.011
309.65	2.534
310.02	1.386
310.38	1.378
310.75	2.427
311.12	3.068
311.48	1.955
311.85	2.659
312.22	2.372
312.58	3.192
312.95	1.816
313.31	2.620
313.68	3.388
314.05	2.800
314.41	3.825
314.78	2.997
315.14	3.539
315.51	3.786
315.87	4.680
316.24	4.749
316.61	4.352
316.97	2.624
317.34	3.439
317.70	4.017
318.07	3.968
318.43	5.187
318.80	5.686
319.16	5.150
319.53	3.256
319.89	4.645
320.26	5.783
320.62	4.521
320.99	6.279
321.35	5.176
321.72	5.395
322.08	5.050
322.45	5.601
322.81	5.776
323.18	6.637
323.54	7.069
323.91	5.872
324.27	6.024
324.64	6.717
325.00	7.048
325.37	7.535
325.73	7.603
326.10	7.461
326.46	8.713
326.83	8.006
327.19	7.638
327.56	7.589
327.92	7.632
328.29	7.903
328.65	8.543
329.01	8.714
329.38	9.014
329.74	9.418
330.11	8.818
330.47	8.088
330.84	9.216
331.20	8.833
331.56	9.012
331.93	9.205
332.29	8.644
332.66	9.302
333.02	8.878
333.38	9.815
333.75	8.165
334.11	9.174
334.48	8.993
334.84	9.771
335.20	9.404
335.57	9.865
335.93	8.926
336.29	8.070
336.66	8.747
337.02	9.197
337.38	8.929
337.75	9.174
338.11	9.083
338.47	9.264
338.84	9.222
339.20	7.414
339.56	8.896
339.93	8.456
340.29	9.098
340.65	8.273
341.02	8.859
341.38	8.812
341.74	8.394
342.11	9.413
342.47	8.737
342.83	9.823
343.20	9.158
343.56	8.581
343.92	8.407
344.28	8.984
344.65	10.155
345.01	7.800
345.37	8.009
345.73	7.327
346.10	8.112
346.46	8.465
346.82	7.865
347.19	8.709
347.55	8.422
347.91	7.949
348.27	8.953
348.63	8.911
349.00	7.905
349.36	8.848
349.72	8.482
350.08	8.915
350.45	7.757
350.81	7.768
351.17	9.023
351.53	7.657
351.89	9.188
352.26	8.284
352.62	8.731
352.98	7.405
353.34	7.991
353.70	8.475
354.07	8.495
354.43	7.973
354.79	7.779
355.15	8.021
355.51	9.795
355.87	8.078
356.24	9.049
356.60	8.352
356.96	7.042
357.32	7.509
357.68	6.955
358.04	7.335
358.40	6.791
358.77	8.114
359.13	7.607
359.49	6.766
359.85	7.034
360.21	7.963
360.57	7.609
360.93	7.898
361.29	8.211
361.66	7.314
362.02	7.585
362.38	7.168
362.74	7.402
363.10	6.740
363.46	7.410
363.82	6.676
364.18	7.108
364.54	7.331
364.90	7.157
365.26	7.586
365.62	8.133
365.98	8.033
366.35	7.584
366.71	7.347
367.07	7.848
367.43	6.960
367.79	7.366
368.15	7.090
368.51	7.848
368.87	7.446
369.23	7.733
369.59	6.694
369.95	7.370
370.31	7.090
370.67	7.290
371.03	8.172
371.39	7.388
371.75	7.015
372.11	7.182
372.47	7.921
372.83	7.068
373.19	6.938
373.55	6.911
373.91	7.226
374.27	7.568
374.63	7.442
374.99	6.897
375.35	7.857
375.71	7.355
376.07	6.714
376.42	7.305
376.78	6.837
377.14	7.174
377.50	7.337
377.86	6.897
378.22	7.006
378.58	6.837
378.94	6.808
379.30	6.737
379.66	7.290
380.02	6.809
380.38	6.970
380.74	7.775
381.09	7.027
381.45	7.841
381.81	7.553
382.17	7.363
382.53	6.257
382.89	7.449
383.25	7.620
383.61	5.671
383.97	6.125
384.32	6.878
384.68	5.684
385.04	7.114
385.40	7.012
385.76	6.800
386.12	7.241
386.48	6.941
386.83	6.794
387.19	6.605
387.55	6.455
387.91	6.849
388.27	7.275
388.62	6.873
388.98	6.825
389.34	6.070
389.70	6.217
390.06	6.454
390.42	7.108
390.77	7.706
391.13	6.749
391.49	7.065
391.85	6.061
392.20	7.295
392.56	7.324
392.92	6.925
393.28	6.357
393.64	6.425
393.99	6.508
394.35	7.068
394.71	7.305
395.07	6.108
395.42	6.168
395.78	7.678
396.14	7.724
396.50	6.473
396.85	6.321
397.21	6.331
397.57	6.596
397.92	7.045
398.28	5.540
398.64	6.751
399.00	6.021
399.35	7.016
399.71	5.978
400.07	7.019
400.42	5.879
400.78	6.424
401.14	6.431
401.49	6.822
401.85	6.686
402.21	5.910
402.57	6.866
402.92	6.087
403.28	5.679
403.63	5.609
403.99	6.116
404.35	6.708
404.70	6.289
405.06	5.924
405.42	6.733
405.77	6.216
406.13	5.943
406.49	6.306
406.84	6.870
407.20	6.037
407.55	5.754
407.91	6.851
408.27	6.596
408.62	5.992
408.98	6.384
409.34	5.748
409.69	6.119
410.05	6.800
410.40	5.742
410.76	6.618
411.11	5.845
411.47	6.634
411.83	6.937
412.18	6.265
412.54	6.758
412.89	5.588
413.25	6.546
413.60	5.686
413.96	5.769
414.31	6.346
414.67	6.619
415.03	6.831
415.38	5.359
415.74	5.925
416.09	5.922
416.45	6.011
416.80	6.059
417.16	6.322
417.51	6.164
417.87	6.376
418.22	6.467
418.58	5.328
418.93	6.519
419.29	6.473
419.64	6.062
420.00	5.757
420.35	6.513
420.71	5.686
421.06	5.923
421.42	5.849
421.77	5.708
422.12	6.501
422.48	5.376
422.83	5.969
423.19	5.464
423.54	5.973
423.90	6.571
424.25	5.920
424.61	5.224
424.96	5.327
425.31	6.423
425.67	5.636
426.02	5.479
426.38	5.454
426.73	5.804
427.09	6.805
427.44	5.352
427.79	5.252
428.15	4.966
428.50	4.831
428.85	5.970
429.21	6.277
429.56	5.577
429.92	5.307
430.27	5.590
430.62	5.520
430.98	5.706
431.33	5.670
431.68	5.077
432.04	5.688
432.39	6.267
432.74	5.708
433.10	5.571
433.45	4.961
433.80	6.438
434.16	6.043
434.51	5.653
434.86	5.592
435.22	5.579
435.57	5.660
435.92	5.620
436.28	5.290
436.63	5.625
436.98	5.904
437.34	5.468
437.69	4.843
438.04	6.081
438.39	5.916
438.75	4.981
439.10	6.237
439.45	5.813
439.81	5.819
440.16	5.684
440.51	5.072
440.86	5.281
441.22	5.895
441.57	5.870
441.92	5.674
442.27	6.111
442.63	6.110
442.98	5.763
443.33	5.944
443.68	6.492
444.03	6.162
444.39	6.056
444.74	5.615
445.09	6.031
445.44	5.954
445.79	5.891
446.15	6.321
446.50	5.788
446.85	5.447
447.20	5.851
447.55	5.962
447.91	5.497
448.26	5.391
448.61	6.323
448.96	6.384
449.31	5.726
449.66	5.719
450.02	6.118
450.37	6.393
450.72	5.867
451.07	5.866
451.42	6.412
451.77	6.337
452.12	5.813
452.47	5.407
452.83	5.912
453.18	5.663
453.53	6.031
453.88	5.577
454.23	5.593
454.58	6.094
454.93	5.400
455.28	6.020
455.63	5.514
455.98	6.369
456.34	5.536
456.69	5.585
457.04	6.147
457.39	6.264
457.74	5.984
458.09	5.546
458.44	6.304
458.79	5.260
459.14	5.401
459.49	5.659
459.84	5.876
460.19	4.831
460.54	5.906
460.89	5.823
461.24	5.057
461.59	5.977
461.94	5.647
462.29	6.271
462.64	5.733
462.99	5.210
463.34	6.489
463.69	6.272
464.04	6.170
464.39	6.502
464.74	6.442
465.09	5.652
465.44	5.794
465.79	6.134
466.14	5.367
466.49	5.737
466.84	5.565
467.19	6.127
467.54	4.935
467.89	5.402
468.24	5.596
468.59	5.096
468.94	5.944
469.29	5.339
469.64	5.022
469.99	4.908
470.34	5.322
470.68	5.400
471.03	5.894
471.38	6.017
471.73	5.397
472.08	5.901
472.43	5.719
472.78	6.171
473.13	5.373
473.48	5.861
473.83	5.978
474.17	5.569
474.52	4.630
474.87	6.368
475.22	6.028
475.57	5.296
475.92	5.426
476.27	6.017
476.61	5.556
476.96	4.588
477.31	5.347
477.66	5.929
478.01	5.643
478.36	5.882
478.70	5.764
479.05	5.828
479.40	4.788
479.75	6.532
480.10	5.685
480.45	5.150
480.79	5.986
481.14	5.377
481.49	5.225
481.84	6.049
482.19	5.075
482.53	5.422
482.88	5.405
483.23	5.247
483.58	4.803
483.92	4.965
484.27	4.953
484.62	5.198
484.97	5.793
485.31	5.315
485.66	5.293
486.01	5.263
486.36	5.266
486.70	5.636
487.05	5.784
487.40	5.596
487.75	5.394
488.09	5.579
488.44	5.240
488.79	5.464
489.13	5.539
489.48	5.010
489.83	5.352
490.17	4.536
490.52	5.049
490.87	5.372
491.22	4.853
491.56	5.290
491.91	5.582
492.26	5.582
492.60	5.903
492.95	5.529
493.30	4.751
493.64	4.731
493.99	5.175
494.34	4.965
494.68	4.540
495.03	5.727
495.37	4.616
495.72	4.535
496.07	5.565
496.41	4.419
496.76	5.338
497.11	4.798
497.45	5.265
497.80	5.820
498.14	5.397
498.49	4.504
498.84	5.165
499.18	5.443
499.53	4.978
499.87	5.363
500.22	4.274
500.56	4.588
500.91	4.943
501.26	5.864
501.60	4.640
501.95	5.124
502.29	4.827
502.64	5.203
502.98	4.961
503.33	4.708
503.67	4.579
504.02	4.816
504.36	5.004
504.71	4.364
505.06	5.093
505.40	4.982
505.75	4.872
506.09	5.018
506.44	4.596
506.78	5.138
507.13	4.979
507.47	5.211
507.82	4.735
508.16	4.732
508.51	4.079
508.85	4.062
509.19	4.453
509.54	5.187
509.88	4.420
510.23	4.711
510.57	4.737
510.92	5.370
511.26	4.329
511.61	4.780
511.95	4.441
512.30	5.121
512.64	4.448
512.98	4.902
513.33	5.343
513.67	3.774
514.02	4.599
514.36	4.655
514.70	4.271
515.05	4.849
515.39	4.672
515.74	5.514
516.08	4.913
516.42	4.710
516.77	4.837
517.11	4.435
517.46	4.931
517.80	5.345
518.14	5.332
518.49	5.206
518.83	4.311
519.17	4.308
519.52	4.560
519.86	4.699
520.20	4.792
520.55	3.998
520.89	4.955
521.23	5.639
521.58	4.350
521.92	4.703
522.26	3.952
522.61	5.035
522.95	4.325
523.29	4.138
523.64	3.924
523.98	4.849
524.32	5.158
524.66	4.895
525.01	4.360
525.35	4.308
525.69	4.524
526.04	4.076
526.38	4.310
526.72	4.787
527.06	4.633
527.41	4.606
527.75	4.513
528.09	4.191
528.43	4.559
528.78	4.509
529.12	4.186
529.46	4.947
529.80	4.519
530.15	4.406
530.49	3.974
530.83	4.723
531.17	4.421
531.51	4.874
531.86	4.387
532.20	4.695
532.54	4.189
532.88	4.545
533.22	4.773
533.57	4.732
533.91	4.770
534.25	4.862
534.59	4.483
534.93	4.301
535.27	4.338
535.62	4.832
535.96	4.707
536.30	4.172
536.64	5.225
536.98	4.428
537.32	4.815
537.66	4.679
538.01	4.230
538.35	3.776
538.69	4.207
539.03	4.598
539.37	5.124
539.71	4.685
540.05	5.096
540.39	3.973
540.73	4.614
541.07	4.169
541.42	4.253
541.76	4.211
542.10	4.101
542.44	3.776
542.78	4.866
543.12	4.172
543.46	5.189
543.80	3.777
544.14	4.010
544.48	4.078
544.82	5.087
545.16	4.413
545.50	4.614
545.84	4.225
546.18	5.000
546.52	4.522
546.86	4.403
547.20	3.944
547.54	4.557
547.88	4.099
548.22	3.626
548.56	3.920
548.90	3.701
549.24	4.316
549.58	3.659
549.92	3.954
550.26	3.754
550.60	4.914
550.94	4.592
551.28	4.356
551.62	4.313
551.96	4.919
552.30	5.290
552.64	4.045
552.98	4.866
553.32	4.373
553.66	3.151
554.00	4.729
554.34	4.247
554.68	4.519
555.02	3.614
555.36	5.062
555.69	3.139
556.03	3.909
556.37	3.880
556.71	5.010
557.05	3.834
557.39	3.318
557.73	3.170
558.07	3.113
558.41	3.920
558.75	3.381
559.08	4.106
559.42	3.361
559.76	4.545
560.10	4.220
560.44	3.760
560.78	4.250
561.12	3.633
561.45	4.440
561.79	3.236
562.13	4.128
562.47	3.637
562.81	3.987
563.15	4.104
563.48	4.102
563.82	3.869
564.16	4.179
564.50	3.754
564.84	3.894
565.17	3.471
565.51	4.603
565.85	4.216
566.19	3.571
566.52	3.686
566.86	3.962
567.20	4.241
567.54	3.611
567.88	3.976
568.21	4.051
568.55	3.933
568.89	3.677
569.23	3.845
569.56	3.791
569.90	4.063
570.24	3.609
570.57	3.560
570.91	3.368
571.25	3.674
571.59	4.036
571.92	3.651
572.26	3.653
572.60	3.849
572.93	4.203
573.27	3.906
573.61	3.785
573.95	3.714
574.28	3.808
574.62	3.661
574.96	3.485
575.29	3.613
575.63	3.627
575.97	3.713
576.30	3.849
576.64	4.104
576.98	3.645
577.31	3.767
577.65	3.508
577.98	3.464
578.32	3.604
578.66	3.732
578.99	3.522
579.33	3.824
579.67	3.762
580.00	3.529
580.34	3.949
580.67	3.486
581.01	3.592
581.35	3.916
581.68	3.531
582.02	3.713
582.35	3.699
582.69	3.695
583.02	3.625
583.36	3.882
583.70	3.772
584.03	3.552
584.37	3.407
584.70	3.374
585.04	3.534
585.37	3.469
585.71	3.689
586.04	3.545
586.38	3.482
586.72	3.259
587.05	2.968
587.39	3.615
587.72	3.325
588.06	3.482
588.39	3.709
588.73	3.466
589.06	3.471
589.40	3.411
589.73	3.792
590.07	3.747
590.40	4.057
590.73	3.676
591.07	4.133
591.40	3.616
591.74	3.339
592.07	4.222
592.41	3.431
592.74	3.443
593.08	3.662
593.41	3.908
593.75	3.678
594.08	3.756
594.41	3.429
594.75	3.288
595.08	3.600
595.42	2.987
595.75	3.390
596.09	3.490
596.42	3.726
596.75	3.898
597.09	3.717
597.42	3.536
597.75	3.450
598.09	3.651
598.42	4.061
598.76	3.095
599.09	3.346
599.42	3.185
599.76	3.433
600.09	3.704
600.42	3.504
600.76	3.369
601.09	3.186
601.42	3.124
601.76	3.207
602.09	3.288
602.42	3.053
602.76	3.579
603.09	3.120
603.42	3.540
603.76	3.347
604.09	3.655
604.42	3.266
604.76	3.311
605.09	3.111
605.42	3.708
605.75	3.500
606.09	2.800
606.42	3.028
606.75	2.961
607.09	3.072
607.42	3.622
607.75	3.478
608.08	3.157
608.42	3.265
608.75	3.441
609.08	3.523
609.41	2.779
609.75	2.545
610.08	3.342
610.41	3.568
610.74	3.445
611.07	3.242
611.41	3.587
611.74	3.372
612.07	3.693
612.40	3.565
612.73	2.836
613.07	4.010
613.40	3.465
613.73	3.322
614.06	3.729
614.39	3.207
614.72	3.299
615.06	3.609
615.39	3.190
615.72	3.412
616.05	3.691
616.38	3.683
616.71	3.866
617.05	2.343
617.38	3.959
617.71	3.888
618.04	3.400
618.37	3.005
618.70	3.281
619.03	2.569
619.36	3.206
619.69	3.267
620.03	3.327
620.36	3.006
620.69	3.578
621.02	3.543
621.35	3.411
621.68	3.688
622.01	2.776
622.34	3.417
622.67	3.024
623.00	2.227
623.33	3.052
623.66	3.048
623.99	2.567
624.32	3.899
624.65	2.381
624.99	2.926
625.32	3.658
625.65	3.034
625.98	3.525
626.31	3.685
626.64	3.883
626.97	3.451
627.30	2.506
627.63	3.076
627.96	3.754
628.29	3.735
628.62	2.687
628.95	2.629
629.28	1.699
629.61	3.030
629.94	2.259
630.26	2.797
630.59	2.504
630.92	2.771
631.25	3.757
631.58	3.296
631.91	3.280
632.24	2.690
632.57	3.036
632.90	1.705
633.23	2.551
633.56	3.776
633.89	2.169
634.22	3.326
634.55	3.236
634.88	2.489
635.20	3.552
635.53	2.486
635.86	2.709
636.19	4.242
636.52	3.586
636.85	3.064
637.18	3.222
637.51	2.903
637.83	3.322
638.16	2.189
638.49	2.465
638.82	3.382
639.15	2.635
639.48	3.811
639.81	3.811
640.13	4.358
640.46	1.455
640.79	2.574
641.12	3.106
641.45	2.384
641.77	4.236
642.10	3.150
642.43	4.654
642.76	2.439
643.09	2.055
643.41	2.661
643.74	3.034
644.07	3.862
644.40	1.556
644.73	1.597
645.05	1.909
645.38	2.878
645.71	1.906
646.04	2.582
646.36	3.358
646.69	2.607
647.02	4.434
647.35	3.511
647.67	2.738
648.00	3.025
648.33	3.754
648.66	3.281
648.98	1.088
649.31	2.571
649.64	2.656
649.96	2.387
650.29	2.503
650.62	2.263
650.94	3.604
651.27	2.695
651.60	2.632
651.92	2.584
652.25	4.776
652.58	3.714
652.90	2.326
653.23	4.225
653.56	3.138
653.88	4.213
654.21	3.521
654.54	2.890
654.86	4.391
655.19	1.882
655.52	3.272
655.84	3.089
656.17	3.537
656.49	4.940
656.82	5.616
657.15	4.329
657.47	3.274
657.80	2.341
658.13	1.832
