SpectraSuite Data File
++++++++++++++++++++++++++++++++++++
Date: Thu May 14 16:25:48 PDT 2015
User: schluterlab
Dark Spectrum Present: Yes
Reference Spectrum Present: Yes
Number of Sampled Component Spectra: 1
Spectrometers: USB2E3373
Integration Time (usec): 3000 (USB2E3373)
Spectra Averaged: 3 (USB2E3373)
Boxcar Smoothing: 0 (USB2E3373)
Correct for Electrical Dark: No (USB2E3373)
Strobe/Lamp Enabled: No (USB2E3373)
Correct for Detector Non-linearity: No (USB2E3373)
Correct for Stray Light: No (USB2E3373)
Number of Pixels in Processed Spectrum: 2048
>>>>>Begin Processed Spectral Data<<<<<
178.53	0.000
178.91	42.857
179.29	-900.000
179.67	400.000
180.04	71.429
180.42	20.000
180.80	180.000
181.18	-500.000
181.56	200.000
181.94	-0.000
182.31	-50.000
182.69	-0.000
183.07	-250.000
183.45	200.000
183.83	-50.000
184.20	33.333
184.58	100.000
184.96	-225.000
185.34	77.778
185.72	-140.000
186.09	166.667
186.47	300.000
186.85	40.000
187.23	-66.667
187.61	-700.000
187.98	20.000
188.36	25.000
188.74	-175.000
189.12	100.000
189.49	31.250
189.87	62.500
190.25	44.444
190.63	0.000
191.00	-55.556
191.38	0.000
191.76	-225.000
192.14	33.333
192.51	-350.000
192.89	16.667
193.27	0.000
193.65	-42.857
194.02	-1200.000
194.40	-114.286
194.78	-0.000
195.15	0.000
195.53	100.000
195.91	0.000
196.29	275.000
196.66	15.385
197.04	-800.000
197.42	14.286
197.79	-100.000
198.17	-87.500
198.55	0.000
198.92	100.000
199.30	-25.000
199.68	9.091
200.05	7.143
200.43	-550.000
200.81	114.286
201.18	0.000
201.56	133.333
201.94	0.000
202.31	433.333
202.69	-77.778
203.07	100.000
203.44	33.333
203.82	-75.000
204.19	8.333
204.57	-16.667
204.95	-62.500
205.32	-1100.000
205.70	-200.000
206.08	-166.667
206.45	100.000
206.83	380.000
207.20	-33.333
207.58	-320.000
207.96	-166.667
208.33	-100.000
208.71	58.333
209.08	50.000
209.46	0.000
209.84	83.333
210.21	200.000
210.59	500.000
210.96	166.667
211.34	-125.000
211.71	37.500
212.09	-1000.000
212.46	0.000
212.84	700.000
213.22	-100.000
213.59	-175.000
213.97	40.000
214.34	-66.667
214.72	133.333
215.09	-225.000
215.47	0.000
215.84	128.571
216.22	100.000
216.59	-40.000
216.97	-240.000
217.34	-175.000
217.72	-25.000
218.09	-150.000
218.47	-225.000
218.84	0.000
219.22	-0.000
219.59	5.882
219.97	-15.000
220.34	850.000
220.72	-55.556
221.09	76.923
221.47	100.000
221.84	10.000
222.22	-142.857
222.59	0.000
222.97	25.000
223.34	-180.000
223.72	-200.000
224.09	-50.000
224.46	-225.000
224.84	-20.000
225.21	14.286
225.59	0.000
225.96	-25.000
226.34	7.692
226.71	216.667
227.08	150.000
227.46	-6.667
227.83	-75.000
228.21	10.526
228.58	75.000
228.95	-150.000
229.33	0.000
229.70	-40.000
230.08	36.842
230.45	60.000
230.82	-300.000
231.20	-57.143
231.57	-8.333
231.95	-27.273
232.32	-9.091
232.69	50.000
233.07	100.000
233.44	-47.059
233.81	-90.000
234.19	0.000
234.56	4.545
234.93	17.241
235.31	5.263
235.68	0.000
236.05	-15.000
236.43	34.615
236.80	64.000
237.17	0.000
237.55	12.121
237.92	-50.000
238.29	0.000
238.67	0.000
239.04	-5.556
239.41	9.524
239.79	6.522
240.16	-1.852
240.53	-6.522
240.91	-9.804
241.28	-1.639
241.65	17.910
242.02	2.703
242.40	-23.077
242.77	-4.000
243.14	-14.634
243.51	-13.158
243.89	-20.513
244.26	4.950
244.63	3.922
245.00	5.607
245.38	2.632
245.75	-7.080
246.12	-2.381
246.49	-4.651
246.87	-1.429
247.24	7.285
247.61	1.316
247.98	-2.685
248.36	-6.173
248.73	-6.748
249.10	-7.650
249.47	3.980
249.84	4.712
250.22	-2.073
250.59	-8.889
250.96	2.727
251.33	-1.020
251.70	-0.427
252.08	1.250
252.45	1.230
252.82	-3.719
253.19	-3.516
253.56	0.000
253.94	0.385
254.31	-0.379
254.68	5.245
255.05	5.537
255.42	0.680
255.79	0.324
256.16	1.987
256.54	-2.318
256.91	-0.328
257.28	0.984
257.65	-3.185
258.02	-2.950
258.39	1.140
258.76	3.976
259.14	1.149
259.51	2.594
259.88	-0.567
260.25	0.000
260.62	2.192
260.99	2.186
261.36	0.804
261.73	0.531
262.10	-1.374
262.47	1.340
262.85	5.808
263.22	0.260
263.59	-1.842
263.96	1.790
264.33	-0.767
264.70	-0.988
265.07	2.148
265.44	3.628
265.81	0.000
266.18	2.268
266.55	1.339
266.92	-1.822
267.29	2.407
267.66	0.887
268.03	1.747
268.40	2.714
268.77	0.228
269.14	0.220
269.51	0.658
269.88	4.098
270.25	1.408
270.62	1.055
270.99	4.242
271.36	2.376
271.73	-0.196
272.10	1.403
272.47	-0.601
272.84	1.004
273.21	2.605
273.58	1.411
273.95	0.577
274.32	-1.521
274.69	-0.580
275.06	0.000
275.43	-1.109
275.80	2.116
276.17	0.000
276.54	0.000
276.91	-0.537
277.28	0.362
277.65	3.950
278.02	2.022
278.39	0.725
278.76	-0.703
279.13	1.773
279.50	2.921
279.87	2.147
280.23	-2.113
280.60	1.186
280.97	2.961
281.34	0.000
281.71	2.876
282.08	0.831
282.45	0.000
282.82	1.256
283.19	-0.162
283.56	-0.328
283.92	0.751
284.29	1.896
284.66	2.135
285.03	-1.122
285.40	1.391
285.77	0.000
286.14	2.595
286.51	0.457
286.87	0.790
287.24	1.807
287.61	-0.299
287.98	-0.302
288.35	1.331
288.72	2.071
289.08	2.343
289.45	-0.740
289.82	-0.452
290.19	0.862
290.56	1.268
290.93	0.856
291.29	1.102
291.66	0.826
292.03	0.814
292.40	2.041
292.77	0.270
293.13	1.083
293.50	1.445
293.87	0.805
294.24	0.933
294.60	1.517
294.97	-1.074
295.34	3.073
295.71	1.009
296.08	0.000
296.44	0.123
296.81	0.731
297.18	0.249
297.55	0.118
297.91	0.949
298.28	-0.829
298.65	0.595
299.02	0.590
299.38	1.945
299.75	1.168
300.12	0.926
300.48	1.152
300.85	1.462
301.22	1.790
301.59	0.342
301.95	1.017
302.32	1.889
302.69	0.767
303.05	0.979
303.42	0.998
303.79	0.208
304.15	0.105
304.52	-1.057
304.89	0.838
305.25	1.760
305.62	0.836
305.99	0.722
306.35	0.806
306.72	0.827
307.09	1.320
307.45	0.207
307.82	0.202
308.19	0.303
308.55	1.543
308.92	1.655
309.29	1.149
309.65	0.585
310.02	-0.693
310.38	0.098
310.75	0.874
311.12	1.534
311.48	0.587
311.85	0.950
312.22	0.190
312.58	1.408
312.95	-0.478
313.31	1.084
313.68	2.198
314.05	1.536
314.41	0.911
314.78	0.999
315.14	0.907
315.51	1.385
315.87	0.270
316.24	0.457
316.61	0.533
316.97	0.181
317.34	0.000
317.70	1.485
318.07	1.323
318.43	1.786
318.80	2.174
319.16	0.515
319.53	0.600
319.89	0.701
320.26	1.690
320.62	0.709
320.99	1.293
321.35	1.201
321.72	1.860
322.08	0.451
322.45	1.716
322.81	1.264
323.18	0.531
323.54	0.862
323.91	0.801
324.27	1.205
324.64	2.519
325.00	0.663
325.37	0.983
325.73	1.653
326.10	2.190
326.46	2.362
326.83	2.802
327.19	1.102
327.56	1.581
327.92	1.810
328.29	0.806
328.65	1.759
329.01	1.692
329.38	1.011
329.74	2.654
330.11	2.226
330.47	1.853
330.84	2.067
331.20	2.417
331.56	0.953
331.93	2.008
332.29	2.203
332.66	2.076
333.02	2.429
333.38	2.013
333.75	1.852
334.11	2.585
334.48	2.145
334.84	2.294
335.20	1.343
335.57	2.108
335.93	2.810
336.29	1.664
336.66	1.430
337.02	1.672
337.38	2.466
337.75	2.397
338.11	2.775
338.47	2.316
338.84	1.946
339.20	0.590
339.56	1.730
339.93	2.135
340.29	2.174
340.65	2.676
341.02	2.394
341.38	3.072
341.74	2.341
342.11	1.850
342.47	1.350
342.83	2.415
343.20	1.554
343.56	2.085
343.92	1.281
344.28	1.797
344.65	3.023
345.01	2.418
345.37	3.033
345.73	1.247
346.10	2.496
346.46	1.345
346.82	2.697
347.19	1.986
347.55	2.580
347.91	2.080
348.27	1.669
348.63	2.970
349.00	1.790
349.36	2.082
349.72	2.158
350.08	2.006
350.45	0.760
350.81	1.207
351.17	2.105
351.53	1.895
351.89	1.746
352.26	2.388
352.62	1.642
352.98	1.679
353.34	0.747
353.70	1.387
354.07	2.310
354.43	0.987
354.79	1.720
355.15	1.692
355.51	1.901
355.87	1.272
356.24	2.586
356.60	2.069
356.96	1.186
357.32	1.338
357.68	1.903
358.04	1.048
358.40	1.119
358.77	2.412
359.13	0.665
359.49	0.074
359.85	1.595
360.21	2.511
360.57	1.795
360.93	1.622
361.29	2.246
361.66	1.738
362.02	2.227
362.38	1.476
362.74	1.327
363.10	1.651
363.46	2.078
363.82	2.060
364.18	1.619
364.54	2.006
364.90	1.605
365.26	0.690
365.62	2.000
365.98	1.838
366.35	1.946
366.71	2.517
367.07	1.286
367.43	2.035
367.79	2.190
368.15	1.672
368.51	2.030
368.87	1.437
369.23	1.333
369.59	1.639
369.95	1.826
370.31	2.363
370.67	2.063
371.03	1.524
371.39	1.478
371.75	1.032
372.11	2.236
372.47	2.031
372.83	2.029
373.19	2.068
373.55	1.016
373.91	1.159
374.27	2.199
374.63	1.691
374.99	0.995
375.35	2.208
375.71	1.677
376.07	1.614
376.42	1.763
376.78	2.362
377.14	1.684
377.50	1.455
377.86	1.970
378.22	1.796
378.58	1.070
378.94	2.347
379.30	1.699
379.66	1.646
380.02	1.269
380.38	1.382
380.74	1.408
381.09	1.452
381.45	1.250
381.81	1.230
382.17	1.781
382.53	1.228
382.89	1.693
383.25	1.524
383.61	0.810
383.97	1.413
384.32	1.974
384.68	1.392
385.04	1.619
385.40	1.886
385.76	1.817
386.12	1.496
386.48	1.941
386.83	1.728
387.19	1.796
387.55	0.880
387.91	1.826
388.27	1.790
388.62	1.661
388.98	1.297
389.34	1.532
389.70	0.755
390.06	1.184
390.42	1.687
390.77	1.746
391.13	1.174
391.49	2.053
391.85	1.212
392.20	1.305
392.56	1.713
392.92	1.581
393.28	1.548
393.64	1.564
393.99	1.569
394.35	1.168
394.71	1.437
395.07	0.778
395.42	1.371
395.78	1.950
396.14	1.367
396.50	1.247
396.85	1.431
397.21	0.947
397.57	1.119
397.92	1.604
398.28	1.141
398.64	1.430
399.00	0.995
399.35	1.780
399.71	0.870
400.07	1.628
400.42	1.222
400.78	1.157
401.14	1.878
401.49	1.819
401.85	1.395
402.21	1.217
402.57	1.819
402.92	1.537
403.28	0.937
403.63	0.955
403.99	1.663
404.35	1.819
404.70	2.380
405.06	1.359
405.42	1.347
405.77	1.091
406.13	1.621
406.49	1.182
406.84	1.773
407.20	1.286
407.55	1.393
407.91	1.634
408.27	1.413
408.62	1.513
408.98	1.799
409.34	1.290
409.69	1.669
410.05	1.290
410.40	1.508
410.76	1.458
411.11	1.461
411.47	1.658
411.83	1.705
412.18	1.687
412.54	1.541
412.89	2.037
413.25	1.749
413.60	1.895
413.96	1.573
414.31	1.756
414.67	1.729
415.03	1.169
415.38	1.892
415.74	1.527
416.09	1.789
416.45	1.378
416.80	1.346
417.16	1.405
417.51	1.930
417.87	1.778
418.22	2.275
418.58	1.177
418.93	2.503
419.29	1.048
419.64	1.621
420.00	1.246
420.35	1.965
420.71	1.608
421.06	1.150
421.42	1.720
421.77	1.400
422.12	2.326
422.48	1.178
422.83	2.081
423.19	1.592
423.54	2.157
423.90	1.933
424.25	2.027
424.61	1.033
424.96	1.373
425.31	2.282
425.67	0.805
426.02	1.217
426.38	1.722
426.73	1.451
427.09	2.653
427.44	1.147
427.79	1.327
428.15	1.427
428.50	1.517
428.85	2.067
429.21	2.819
429.56	1.382
429.92	1.572
430.27	1.639
430.62	1.221
430.98	1.722
431.33	1.906
431.68	1.006
432.04	1.625
432.39	1.714
432.74	2.112
433.10	1.406
433.45	0.948
433.80	1.341
434.16	2.118
434.51	1.542
434.86	1.466
435.22	1.753
435.57	2.182
435.92	2.003
436.28	1.706
436.63	1.638
436.98	2.415
437.34	1.635
437.69	1.321
438.04	1.957
438.39	1.953
438.75	1.882
439.10	1.956
439.45	1.621
439.81	1.525
440.16	1.877
440.51	1.672
440.86	1.445
441.22	1.715
441.57	1.468
441.92	1.697
442.27	1.768
442.63	2.037
442.98	1.868
443.33	2.052
443.68	2.527
444.03	2.399
444.39	1.896
444.74	2.246
445.09	2.129
445.44	2.055
445.79	2.107
446.15	2.004
446.50	2.016
446.85	1.897
447.20	2.176
447.55	2.510
447.91	1.623
448.26	1.321
448.61	1.753
448.96	2.521
449.31	1.856
449.66	1.525
450.02	2.584
450.37	2.717
450.72	1.507
451.07	2.164
451.42	1.560
451.77	2.112
452.12	1.749
452.47	1.664
452.83	2.365
453.18	1.926
453.53	1.551
453.88	1.822
454.23	1.977
454.58	2.205
454.93	1.699
455.28	1.866
455.63	2.388
455.98	2.011
456.34	2.179
456.69	1.940
457.04	1.596
457.39	1.441
457.74	2.740
458.09	1.702
458.44	2.425
458.79	1.496
459.14	1.730
459.49	1.698
459.84	2.308
460.19	1.444
460.54	2.385
460.89	1.641
461.24	1.552
461.59	2.048
461.94	1.540
462.29	2.688
462.64	1.811
462.99	2.009
463.34	2.141
463.69	1.934
464.04	2.390
464.39	2.635
464.74	2.223
465.09	1.269
465.44	2.039
465.79	2.221
466.14	2.293
466.49	2.316
466.84	1.653
467.19	2.428
467.54	1.293
467.89	2.241
468.24	1.551
468.59	0.926
468.94	1.807
469.29	1.440
469.64	1.271
469.99	1.848
470.34	1.856
470.68	1.572
471.03	2.096
471.38	2.224
471.73	0.845
472.08	1.713
472.43	1.505
472.78	2.393
473.13	1.517
473.48	2.236
473.83	1.973
474.17	2.755
474.52	1.503
474.87	2.104
475.22	2.254
475.57	1.610
475.92	1.842
476.27	1.970
476.61	2.233
476.96	1.460
477.31	1.980
477.66	1.784
478.01	2.237
478.36	1.795
478.70	1.872
479.05	1.789
479.40	2.270
479.75	2.402
480.10	2.084
480.45	2.461
480.79	2.404
481.14	2.068
481.49	1.954
481.84	2.393
482.19	2.280
482.53	1.662
482.88	1.994
483.23	2.312
483.58	2.314
483.92	1.507
484.27	2.244
484.62	1.774
484.97	2.333
485.31	1.936
485.66	1.674
486.01	2.050
486.36	1.883
486.70	2.168
487.05	2.139
487.40	2.299
487.75	2.366
488.09	2.480
488.44	2.281
488.79	2.395
489.13	2.534
489.48	1.942
489.83	1.932
490.17	1.742
490.52	2.299
490.87	2.073
491.22	1.690
491.56	2.304
491.91	2.006
492.26	2.553
492.60	1.968
492.95	2.501
493.30	1.838
493.64	1.883
493.99	2.149
494.34	1.829
494.68	1.585
495.03	2.115
495.37	1.775
495.72	2.358
496.07	2.366
496.41	1.759
496.76	1.918
497.11	1.783
497.45	1.640
497.80	2.621
498.14	1.814
498.49	1.700
498.84	1.874
499.18	2.294
499.53	2.152
499.87	1.978
500.22	1.069
500.56	1.889
500.91	2.151
501.26	2.091
501.60	2.033
501.95	2.432
502.29	2.018
502.64	2.055
502.98	2.200
503.33	1.944
503.67	1.788
504.02	2.364
504.36	1.877
504.71	1.378
505.06	2.456
505.40	2.468
505.75	1.958
506.09	2.855
506.44	2.089
506.78	2.569
507.13	2.444
507.47	1.753
507.82	1.894
508.16	2.055
508.51	1.782
508.85	1.795
509.19	2.369
509.54	2.305
509.88	2.088
510.23	2.671
510.57	2.513
510.92	2.080
511.26	2.068
511.61	1.738
511.95	2.538
512.30	2.856
512.64	1.799
512.98	2.101
513.33	2.823
513.67	1.734
514.02	2.555
514.36	2.148
514.70	1.875
515.05	2.033
515.39	2.362
515.74	2.386
516.08	2.166
516.42	2.407
516.77	2.261
517.11	2.166
517.46	2.492
517.80	2.833
518.14	3.047
518.49	2.603
518.83	2.501
519.17	1.292
519.52	2.516
519.86	2.376
520.20	3.301
520.55	2.245
520.89	2.140
521.23	2.568
521.58	1.921
521.92	2.663
522.26	2.291
522.61	1.968
522.95	2.134
523.29	2.529
523.64	2.915
523.98	2.453
524.32	2.693
524.66	2.220
525.01	2.095
525.35	2.757
525.69	1.914
526.04	2.181
526.38	2.241
526.72	2.307
527.06	1.818
527.41	2.507
527.75	2.375
528.09	2.656
528.43	2.487
528.78	2.254
529.12	2.179
529.46	2.361
529.80	2.288
530.15	2.609
530.49	2.017
530.83	2.656
531.17	1.971
531.51	2.587
531.86	2.885
532.20	2.744
532.54	2.454
532.88	2.667
533.22	2.887
533.57	2.193
533.91	3.367
534.25	2.600
534.59	1.897
534.93	2.094
535.27	2.310
535.62	2.672
535.96	2.382
536.30	1.645
536.64	3.063
536.98	3.260
537.32	2.840
537.66	2.495
538.01	2.175
538.35	2.680
538.69	2.704
539.03	1.901
539.37	2.650
539.71	2.823
540.05	2.338
540.39	2.200
540.73	2.429
541.07	2.391
541.42	2.835
541.76	2.491
542.10	2.533
542.44	1.583
542.78	2.920
543.12	2.443
543.46	2.564
543.80	2.098
544.14	2.513
544.48	2.955
544.82	3.351
545.16	2.743
545.50	2.936
545.84	2.082
546.18	3.025
546.52	2.293
546.86	2.767
547.20	2.226
547.54	2.060
547.88	2.351
548.22	1.871
548.56	2.984
548.90	2.090
549.24	2.918
549.58	3.722
549.92	2.551
550.26	3.236
550.60	2.872
550.94	3.040
551.28	2.508
551.62	2.695
551.96	2.589
552.30	2.996
552.64	3.609
552.98	2.620
553.32	1.865
553.66	2.572
554.00	3.216
554.34	2.574
554.68	2.905
555.02	2.825
555.36	3.156
555.69	2.691
556.03	2.396
556.37	3.129
556.71	2.663
557.05	3.578
557.39	3.119
557.73	2.774
558.07	2.450
558.41	2.193
558.75	2.705
559.08	2.923
559.42	2.743
559.76	3.189
560.10	2.746
560.44	2.507
560.78	3.313
561.12	2.525
561.45	2.859
561.79	2.564
562.13	2.526
562.47	2.158
562.81	2.848
563.15	3.409
563.48	2.548
563.82	2.721
564.16	2.059
564.50	2.682
564.84	2.714
565.17	2.941
565.51	2.934
565.85	3.088
566.19	2.880
566.52	3.277
566.86	2.886
567.20	2.393
567.54	3.133
567.88	2.752
568.21	2.223
568.55	2.254
568.89	2.905
569.23	3.338
569.56	2.618
569.90	2.887
570.24	2.833
570.57	2.405
570.91	2.480
571.25	2.777
571.59	3.062
571.92	2.425
572.26	2.885
572.60	2.675
572.93	2.922
573.27	2.585
573.61	2.779
573.95	2.598
574.28	2.897
574.62	2.842
574.96	2.558
575.29	2.842
575.63	2.541
575.97	2.970
576.30	2.689
576.64	3.006
576.98	2.597
577.31	2.957
577.65	2.827
577.98	2.843
578.32	2.703
578.66	2.770
578.99	2.724
579.33	2.823
579.67	2.743
580.00	2.989
580.34	3.163
580.67	2.648
581.01	2.813
581.35	2.864
581.68	2.857
582.02	2.834
582.35	2.828
582.69	2.942
583.02	3.009
583.36	2.732
583.70	2.590
584.03	2.664
584.37	2.913
584.70	2.567
585.04	2.604
585.37	2.894
585.71	3.107
586.04	2.774
586.38	3.227
586.72	2.582
587.05	2.507
587.39	2.942
587.72	2.895
588.06	2.805
588.39	3.186
588.73	2.989
589.06	2.709
589.40	3.073
589.73	2.924
590.07	3.017
590.40	3.076
590.73	3.040
591.07	3.016
591.40	2.294
591.74	2.424
592.07	3.248
592.41	2.563
592.74	3.053
593.08	3.280
593.41	3.150
593.75	2.960
594.08	3.029
594.41	2.724
594.75	2.989
595.08	2.725
595.42	3.117
595.75	3.197
596.09	3.423
596.42	2.759
596.75	3.126
597.09	3.313
597.42	2.781
597.75	2.822
598.09	3.294
598.42	3.177
598.76	3.133
599.09	2.634
599.42	3.218
599.76	3.202
600.09	3.170
600.42	3.103
600.76	3.137
601.09	3.153
601.42	2.952
601.76	3.138
602.09	2.859
602.42	2.908
602.76	3.100
603.09	3.414
603.42	2.854
603.76	2.819
604.09	3.336
604.42	3.376
604.76	3.006
605.09	3.151
605.42	3.389
605.75	3.077
606.09	3.061
606.42	2.919
606.75	3.036
607.09	2.227
607.42	3.006
607.75	3.204
608.08	2.881
608.42	2.821
608.75	3.814
609.08	2.589
609.41	2.867
609.75	3.080
610.08	3.254
610.41	3.059
610.74	2.731
611.07	2.753
611.41	3.453
611.74	3.372
612.07	3.273
612.40	2.994
612.73	3.130
613.07	3.081
613.40	3.561
613.73	3.033
614.06	2.993
614.39	2.575
614.72	3.251
615.06	3.128
615.39	2.997
615.72	3.128
616.05	3.060
616.38	3.380
616.71	2.978
617.05	2.503
617.38	3.317
617.71	3.348
618.04	3.238
618.37	3.115
618.70	3.620
619.03	2.569
619.36	3.021
619.69	3.331
620.03	2.825
620.36	3.374
620.69	2.899
621.02	3.675
621.35	2.685
621.68	2.965
622.01	3.630
622.34	3.278
622.67	2.955
623.00	1.350
623.33	3.318
623.66	3.307
623.99	2.567
624.32	4.353
624.65	2.703
624.99	3.056
625.32	3.658
625.65	2.495
625.98	2.915
626.31	3.473
626.64	3.223
626.97	1.950
627.30	1.898
627.63	2.926
627.96	3.303
628.29	3.035
628.62	2.183
628.95	3.067
629.28	2.549
629.61	3.535
629.94	1.925
630.26	3.729
630.59	3.800
630.92	3.117
631.25	2.594
631.58	3.296
631.91	2.156
632.24	2.402
632.57	2.846
632.90	2.508
633.23	2.857
633.56	2.551
633.89	2.479
634.22	2.807
634.55	3.236
634.88	2.273
635.20	3.983
635.53	3.729
635.86	2.817
636.19	4.030
636.52	3.165
636.85	2.962
637.18	3.534
637.51	3.333
637.83	3.322
638.16	3.456
638.49	3.052
638.82	2.706
639.15	2.405
639.48	3.695
639.81	4.388
640.13	3.062
640.46	1.939
640.79	2.206
641.12	2.857
641.45	3.513
641.77	3.338
642.10	1.706
642.43	3.457
642.76	2.439
643.09	2.192
643.41	2.381
643.74	2.345
644.07	3.586
644.40	2.546
644.73	3.774
645.05	3.818
645.38	3.309
645.71	2.933
646.04	5.022
646.36	2.774
646.69	3.374
647.02	4.434
647.35	3.053
647.67	1.771
648.00	2.229
648.33	3.003
648.66	2.996
648.98	0.680
649.31	2.977
649.64	4.117
649.96	5.172
650.29	3.338
650.62	1.414
650.94	2.102
651.27	2.695
651.60	3.947
651.92	1.672
652.25	3.329
652.58	2.889
652.90	0.872
653.23	4.789
653.56	2.996
653.88	5.197
654.21	3.944
654.54	3.613
654.86	2.975
655.19	2.384
655.52	3.113
655.84	2.941
656.17	3.418
656.49	5.017
656.82	5.599
657.15	4.422
657.47	3.511
657.80	2.706
658.13	2.171
658.45	2.631
658.78	3.419
659.10	3.091
