SpectraSuite Data File
++++++++++++++++++++++++++++++++++++
Date: Thu May 14 16:29:01 PDT 2015
User: schluterlab
Dark Spectrum Present: Yes
Reference Spectrum Present: Yes
Number of Sampled Component Spectra: 1
Spectrometers: USB2E3373
Integration Time (usec): 3000 (USB2E3373)
Spectra Averaged: 3 (USB2E3373)
Boxcar Smoothing: 0 (USB2E3373)
Correct for Electrical Dark: No (USB2E3373)
Strobe/Lamp Enabled: No (USB2E3373)
Correct for Detector Non-linearity: No (USB2E3373)
Correct for Stray Light: No (USB2E3373)
Number of Pixels in Processed Spectrum: 2048
>>>>>Begin Processed Spectral Data<<<<<
178.53	0.000
178.91	-100.000
179.29	-900.000
179.67	-500.000
180.04	71.429
180.42	20.000
180.80	220.000
181.18	300.000
181.56	700.000
181.94	200.000
182.31	0.000
182.69	-66.667
183.07	0.000
183.45	50.000
183.83	116.667
184.20	100.000
184.58	-400.000
184.96	-150.000
185.34	-22.222
185.72	-60.000
186.09	100.000
186.47	550.000
186.85	140.000
187.23	-66.667
187.61	-700.000
187.98	-0.000
188.36	125.000
188.74	-25.000
189.12	-33.333
189.49	68.750
189.87	75.000
190.25	33.333
190.63	60.000
191.00	-100.000
191.38	0.000
191.76	75.000
192.14	-83.333
192.51	-200.000
192.89	66.667
193.27	0.000
193.65	14.286
194.02	-100.000
194.40	214.286
194.78	85.714
195.15	0.000
195.53	54.545
195.91	0.000
196.29	-50.000
196.66	-53.846
197.04	-400.000
197.42	-128.571
197.79	300.000
198.17	-75.000
198.55	0.000
198.92	33.333
199.30	25.000
199.68	118.182
200.05	0.000
200.43	-200.000
200.81	100.000
201.18	0.000
201.56	111.111
201.94	0.000
202.31	533.333
202.69	-44.444
203.07	-300.000
203.44	-44.444
203.82	-175.000
204.19	8.333
204.57	-216.667
204.95	-100.000
205.32	-300.000
205.70	-25.000
206.08	-16.667
206.45	116.667
206.83	140.000
207.20	-100.000
207.58	-60.000
207.96	-233.333
208.33	50.000
208.71	-16.667
209.08	83.333
209.46	0.000
209.84	150.000
210.21	-100.000
210.59	50.000
210.96	333.333
211.34	200.000
211.71	0.000
212.09	-500.000
212.46	0.000
212.84	750.000
213.22	-200.000
213.59	100.000
213.97	40.000
214.34	-133.333
214.72	100.000
215.09	-125.000
215.47	0.000
215.84	71.429
216.22	-350.000
216.59	-40.000
216.97	20.000
217.34	50.000
217.72	-125.000
218.09	0.000
218.47	25.000
218.84	0.000
219.22	-40.000
219.59	11.765
219.97	10.000
220.34	50.000
220.72	22.222
221.09	76.923
221.47	-266.667
221.84	-20.000
222.22	0.000
222.59	0.000
222.97	87.500
223.34	-220.000
223.72	-500.000
224.09	-100.000
224.46	-175.000
224.84	100.000
225.21	-14.286
225.59	-275.000
225.96	-25.000
226.34	3.846
226.71	216.667
227.08	200.000
227.46	66.667
227.83	25.000
228.21	10.526
228.58	150.000
228.95	150.000
229.33	58.333
229.70	0.000
230.08	36.842
230.45	-0.000
230.82	-233.333
231.20	35.714
231.57	0.000
231.95	-18.182
232.32	54.545
232.69	25.000
233.07	25.000
233.44	-29.412
233.81	50.000
234.19	38.889
234.56	13.636
234.93	20.690
235.31	5.263
235.68	16.667
236.05	-75.000
236.43	46.154
236.80	60.000
237.17	25.926
237.55	9.091
237.92	0.000
238.29	-22.581
238.67	-20.455
239.04	8.333
239.41	-4.762
239.79	0.000
240.16	16.667
240.53	-10.870
240.91	-17.647
241.28	-8.197
241.65	10.448
242.02	8.108
242.40	-18.462
242.77	0.000
243.14	0.000
243.51	-15.789
243.89	2.564
244.26	11.881
244.63	6.863
245.00	-1.869
245.38	-0.877
245.75	-7.965
246.12	1.587
246.49	2.326
246.87	4.286
247.24	2.649
247.61	3.289
247.98	4.698
248.36	-0.617
248.73	-4.908
249.10	-6.557
249.47	8.458
249.84	0.524
250.22	-2.073
250.59	0.556
250.96	3.636
251.33	-5.102
251.70	5.556
252.08	4.583
252.45	1.230
252.82	-2.066
253.19	0.000
253.56	0.380
253.94	-1.154
254.31	0.379
254.68	5.594
255.05	3.909
255.42	1.361
255.79	-0.971
256.16	-0.662
256.54	-3.642
256.91	1.639
257.28	-0.656
257.65	0.318
258.02	0.000
258.39	5.128
258.76	3.364
259.14	4.310
259.51	1.441
259.88	0.567
260.25	1.667
260.62	2.740
260.99	4.645
261.36	2.413
261.73	2.122
262.10	-0.275
262.47	2.145
262.85	4.798
263.22	0.779
263.59	-3.947
263.96	3.581
264.33	-1.790
264.70	1.975
265.07	4.296
265.44	4.308
265.81	0.926
266.18	1.361
266.55	2.009
266.92	0.683
267.29	2.626
267.66	0.443
268.03	0.000
268.40	1.461
268.77	0.228
269.14	-2.863
269.51	0.658
269.88	4.098
270.25	1.811
270.62	4.008
270.99	3.838
271.36	2.772
271.73	2.161
272.10	2.405
272.47	1.804
272.84	2.811
273.21	1.804
273.58	1.613
273.95	1.538
274.32	0.570
274.69	-0.580
275.06	0.366
275.43	1.479
275.80	3.704
276.17	0.926
276.54	1.493
276.91	0.716
277.28	2.170
277.65	1.257
278.02	2.757
278.39	1.268
278.76	0.879
279.13	1.950
279.50	2.921
279.87	0.716
280.23	-1.408
280.60	3.390
280.97	0.822
281.34	-1.698
281.71	3.046
282.08	1.661
282.45	-1.309
282.82	0.471
283.19	0.323
283.56	1.311
283.92	3.003
284.29	2.528
284.66	2.299
285.03	0.962
285.40	3.246
285.77	0.929
286.14	2.901
286.51	0.609
286.87	2.212
287.24	1.506
287.61	1.495
287.98	1.057
288.35	2.367
288.72	0.592
289.08	1.611
289.45	-0.296
289.82	0.151
290.19	2.299
290.56	2.254
290.93	1.427
291.29	1.515
291.66	1.102
292.03	0.543
292.40	3.537
292.77	3.369
293.13	0.677
293.50	-1.051
293.87	0.537
294.24	2.533
294.60	2.528
294.97	1.477
295.34	3.073
295.71	0.757
296.08	1.034
296.44	1.838
296.81	1.096
297.18	1.993
297.55	1.887
297.91	1.068
298.28	1.777
298.65	2.854
299.02	1.535
299.38	2.174
299.75	1.402
300.12	1.736
300.48	0.691
300.85	2.362
301.22	3.132
301.59	1.712
301.95	1.582
302.32	2.889
302.69	1.862
303.05	2.394
303.42	3.548
303.79	1.458
304.15	1.262
304.52	1.480
304.89	3.037
305.25	3.002
305.62	1.881
305.99	3.402
306.35	2.722
306.72	3.206
307.09	2.843
307.45	3.106
307.82	3.027
308.19	2.825
308.55	3.664
308.92	3.311
309.29	3.544
309.65	3.411
310.02	3.069
310.38	2.953
310.75	4.078
311.12	5.465
311.48	4.106
311.85	4.653
312.22	3.985
312.58	5.070
312.95	4.780
313.31	6.233
313.68	6.319
314.05	6.865
314.41	7.104
314.78	6.630
315.14	7.713
315.51	7.941
315.87	8.101
316.24	8.311
316.61	9.059
316.97	8.054
317.34	8.995
317.70	10.044
318.07	9.524
318.43	10.629
318.80	11.371
319.16	10.386
319.53	10.797
319.89	10.955
320.26	12.100
320.62	10.904
320.99	12.373
321.35	12.477
321.72	13.953
322.08	12.624
322.45	14.453
322.81	15.343
323.18	16.106
323.54	16.897
323.91	16.014
324.27	16.265
324.64	18.472
325.00	17.081
325.37	19.492
325.73	19.174
326.10	20.519
326.46	20.521
326.83	20.256
327.19	21.024
327.56	22.134
327.92	22.423
328.29	23.226
328.65	21.692
329.01	24.027
329.38	23.589
329.74	24.486
330.11	25.257
330.47	25.021
330.84	25.495
331.20	25.583
331.56	25.823
331.93	25.690
332.29	25.678
332.66	27.658
333.02	26.298
333.38	25.923
333.75	26.431
334.11	26.606
334.48	27.393
334.84	26.593
335.20	27.540
335.57	27.403
335.93	27.521
336.29	26.123
336.66	27.250
337.02	27.759
337.38	28.571
337.75	26.777
338.11	28.175
338.47	28.371
338.84	27.750
339.20	27.717
339.56	27.759
339.93	27.750
340.29	27.617
340.65	27.413
341.02	28.651
341.38	28.456
341.74	28.329
342.11	28.238
342.47	26.926
342.83	28.744
343.20	29.109
343.56	29.431
343.92	27.782
344.28	29.375
344.65	28.605
345.01	27.847
345.37	28.460
345.73	28.371
346.10	27.847
346.46	28.085
346.82	28.464
347.19	29.717
347.55	28.225
347.91	28.678
348.27	28.376
348.63	28.332
349.00	28.113
349.36	28.922
349.72	28.423
350.08	28.529
350.45	28.745
350.81	28.959
351.17	27.820
351.53	28.734
351.89	28.550
352.26	28.731
352.62	29.403
352.98	29.237
353.34	28.529
353.70	28.814
354.07	29.061
354.43	28.398
354.79	29.020
355.15	29.139
355.51	29.094
355.87	29.469
356.24	30.190
356.60	29.047
356.96	29.874
357.32	29.814
357.68	28.038
358.04	29.641
358.40	29.552
358.77	29.971
359.13	28.656
359.49	29.294
359.85	29.587
360.21	28.192
360.57	28.715
360.93	30.113
361.29	30.105
361.66	29.978
362.02	30.411
362.38	29.937
362.74	28.980
363.10	30.330
363.46	29.155
363.82	29.190
364.18	29.909
364.54	30.360
364.90	30.435
365.26	30.966
365.62	31.000
365.98	29.884
366.35	29.597
366.71	29.796
367.07	29.635
367.43	30.138
367.79	30.259
368.15	29.699
368.51	30.447
368.87	30.699
369.23	30.067
369.59	30.123
369.95	29.277
370.31	30.452
370.67	29.298
371.03	30.263
371.39	29.349
371.75	30.674
372.11	30.827
372.47	30.399
372.83	29.712
373.19	30.220
373.55	30.759
373.91	29.380
374.27	29.107
374.63	30.447
374.99	29.708
375.35	30.065
375.71	29.742
376.07	29.955
376.42	29.723
376.78	30.205
377.14	29.881
377.50	29.665
377.86	30.542
378.22	30.539
378.58	30.856
378.94	30.458
379.30	29.643
379.66	30.453
380.02	29.544
380.38	29.666
380.74	30.366
381.09	30.488
381.45	29.545
381.81	31.030
382.17	30.641
382.53	30.409
382.89	29.797
383.25	29.836
383.61	29.803
383.97	29.270
384.32	29.665
384.68	29.292
385.04	30.654
385.40	30.053
385.76	30.188
386.12	29.683
386.48	29.000
386.83	30.095
387.19	29.548
387.55	28.638
387.91	29.224
388.27	29.157
388.62	28.809
388.98	28.878
389.34	28.874
389.70	29.111
390.06	29.366
390.42	28.916
390.77	28.898
391.13	28.052
391.49	28.804
391.85	28.242
392.20	28.173
392.56	28.234
392.92	29.389
393.28	28.690
393.64	28.045
393.99	28.995
394.35	27.570
394.71	28.683
395.07	26.347
395.42	27.127
395.78	27.605
396.14	27.629
396.50	27.910
396.85	27.490
397.21	28.107
397.57	27.326
397.92	28.007
398.28	27.159
398.64	26.316
399.00	26.440
399.35	26.963
399.71	27.065
400.07	27.569
400.42	26.775
400.78	27.025
401.14	26.579
401.49	26.720
401.85	26.570
402.21	26.999
402.57	26.761
402.92	26.891
403.28	25.527
403.63	25.656
403.99	25.950
404.35	25.867
404.70	26.516
405.06	24.837
405.42	26.581
405.77	25.573
406.13	24.797
406.49	25.732
406.84	26.260
407.20	24.930
407.55	24.409
407.91	25.267
408.27	24.441
408.62	24.782
408.98	24.898
409.34	24.340
409.69	24.907
410.05	25.029
410.40	25.986
410.76	23.612
411.11	25.190
411.47	25.676
411.83	25.456
412.18	24.940
412.54	24.481
412.89	25.029
413.25	24.323
413.60	24.354
413.96	25.175
414.31	24.816
414.67	24.568
415.03	23.323
415.38	23.644
415.74	23.396
416.09	24.244
416.45	22.730
416.80	24.541
417.16	24.649
417.51	23.724
417.87	24.034
418.22	22.934
418.58	24.164
418.93	23.690
419.29	23.674
419.64	22.929
420.00	22.908
420.35	24.088
420.71	22.573
421.06	22.197
421.42	22.993
421.77	22.132
422.12	22.992
422.48	22.273
422.83	23.056
423.19	22.971
423.54	23.507
423.90	22.363
424.25	22.667
424.61	21.814
424.96	22.405
425.31	22.771
425.67	21.685
426.02	22.191
426.38	22.560
426.73	21.708
427.09	22.376
427.44	21.628
427.79	21.172
428.15	21.290
428.50	21.966
428.85	21.584
429.21	22.447
429.56	21.372
429.92	21.818
430.27	21.783
430.62	22.130
430.98	21.348
431.33	21.652
431.68	20.259
432.04	20.975
432.39	21.425
432.74	20.605
433.10	21.525
433.45	21.126
433.80	21.352
434.16	21.281
434.51	21.069
434.86	21.227
435.22	21.573
435.57	21.993
435.92	21.369
436.28	21.104
436.63	21.245
436.98	21.095
437.34	20.913
437.69	20.308
438.04	21.629
438.39	21.022
438.75	21.417
439.10	21.247
439.45	20.626
439.81	20.734
440.16	20.751
440.51	20.959
440.86	20.623
441.22	21.329
441.57	21.069
441.92	20.708
442.27	21.010
442.63	21.063
442.98	21.665
443.33	21.725
443.68	21.110
444.03	21.825
444.39	22.053
444.74	20.725
445.09	20.578
445.44	21.391
445.79	21.216
446.15	20.761
446.50	20.724
446.85	21.109
447.20	20.793
447.55	20.921
447.91	21.204
448.26	20.930
448.61	20.882
448.96	20.655
449.31	20.361
449.66	20.752
450.02	20.411
450.37	20.618
450.72	19.914
451.07	20.672
451.42	20.624
451.77	19.789
452.12	20.090
452.47	20.261
452.83	21.002
453.18	19.790
453.53	19.816
453.88	20.375
454.23	20.678
454.58	20.313
454.93	19.114
455.28	19.747
455.63	20.523
455.98	20.112
456.34	19.258
456.69	20.047
457.04	19.917
457.39	19.734
457.74	20.358
458.09	18.396
458.44	20.205
458.79	18.876
459.14	19.245
459.49	20.091
459.84	19.675
460.19	18.989
460.54	19.591
460.89	19.375
461.24	19.540
461.59	20.255
461.94	19.110
462.29	19.541
462.64	19.131
462.99	18.393
463.34	19.922
463.69	18.875
464.04	19.956
464.39	18.890
464.74	19.840
465.09	19.204
465.44	18.991
465.79	19.090
466.14	17.978
466.49	19.158
466.84	19.504
467.19	19.711
467.54	18.860
467.89	18.851
468.24	19.335
468.59	18.761
468.94	18.473
469.29	19.316
469.64	19.072
469.99	18.483
470.34	19.059
470.68	19.959
471.03	18.730
471.38	19.424
471.73	19.051
472.08	19.670
472.43	19.145
472.78	19.899
473.13	18.963
473.48	19.215
473.83	19.733
474.17	19.812
474.52	19.844
474.87	19.103
475.22	19.775
475.57	18.899
475.92	18.915
476.27	19.382
476.61	19.003
476.96	19.082
477.31	19.901
477.66	20.462
478.01	19.776
478.36	19.093
478.70	19.409
479.05	19.172
479.40	19.743
479.75	19.356
480.10	19.469
480.45	19.508
480.79	19.365
481.14	19.485
481.49	19.173
481.84	18.625
482.19	19.441
482.53	20.026
482.88	19.140
483.23	19.431
483.58	18.777
483.92	18.351
484.27	19.009
484.62	17.946
484.97	19.246
485.31	18.057
485.66	17.661
486.01	17.211
486.36	17.281
486.70	18.031
487.05	18.205
487.40	18.667
487.75	18.499
488.09	18.428
488.44	18.403
488.79	18.887
489.13	18.537
489.48	18.524
489.83	18.270
490.17	17.821
490.52	18.760
490.87	18.020
491.22	17.981
491.56	19.070
491.91	18.840
492.26	18.390
492.60	17.665
492.95	18.166
493.30	18.288
493.64	18.528
493.99	18.421
494.34	18.206
494.68	17.473
495.03	18.546
495.37	18.242
495.72	18.277
496.07	18.624
496.41	17.804
496.76	18.307
497.11	17.834
497.45	18.213
497.80	18.214
498.14	18.458
498.49	18.566
498.84	17.550
499.18	17.454
499.53	18.565
499.87	18.813
500.22	17.988
500.56	18.084
500.91	18.078
501.26	19.500
501.60	18.294
501.95	18.715
502.29	18.210
502.64	18.233
502.98	18.939
503.33	18.531
503.67	18.491
504.02	18.564
504.36	19.705
504.71	18.741
505.06	18.690
505.40	19.196
505.75	19.080
506.09	19.705
506.44	19.452
506.78	19.358
507.13	19.917
507.47	19.327
507.82	19.555
508.16	19.073
508.51	18.519
508.85	19.509
509.19	19.612
509.54	19.549
509.88	19.524
510.23	19.961
510.57	20.203
510.92	20.368
511.26	19.769
511.61	18.880
511.95	19.424
512.30	20.138
512.64	19.790
512.98	19.410
513.33	20.766
513.67	20.296
514.02	20.542
514.36	21.995
514.70	20.104
515.05	20.490
515.39	20.630
515.74	21.315
516.08	20.972
516.42	21.612
516.77	20.873
517.11	20.784
517.46	21.686
517.80	21.700
518.14	21.872
518.49	22.072
518.83	21.022
519.17	20.732
519.52	21.384
519.86	20.327
520.20	22.045
520.55	21.249
520.89	21.959
521.23	21.552
521.58	21.525
521.92	21.756
522.26	22.165
522.61	21.470
522.95	22.203
523.29	22.069
523.64	21.469
523.98	22.818
524.32	22.980
524.66	21.571
525.01	21.178
525.35	21.941
525.69	21.868
526.04	22.158
526.38	21.437
526.72	22.491
527.06	22.287
527.41	22.332
527.75	22.862
528.09	22.196
528.43	21.255
528.78	21.214
529.12	20.929
529.46	21.641
529.80	21.911
530.15	21.623
530.49	21.352
530.83	21.192
531.17	21.924
531.51	20.878
531.86	21.394
532.20	21.890
532.54	22.262
532.88	21.939
533.22	21.626
533.57	21.350
533.91	21.380
534.25	21.651
534.59	21.437
534.93	20.996
535.27	20.507
535.62	21.546
535.96	21.441
536.30	21.152
536.64	21.502
536.98	21.956
537.32	20.988
537.66	21.772
538.01	20.665
538.35	21.559
538.69	21.695
539.03	20.846
539.37	21.555
539.71	21.021
540.05	21.283
540.39	20.782
540.73	20.583
541.07	21.398
541.42	20.791
541.76	20.166
542.10	20.265
542.44	20.402
542.78	20.985
543.12	20.620
543.46	21.429
543.80	20.624
544.14	21.065
544.48	21.927
544.82	20.287
545.16	21.109
545.50	20.971
545.84	20.453
546.18	21.111
546.52	20.637
546.86	19.874
547.20	20.483
547.54	20.412
547.88	20.193
548.22	20.175
548.56	19.134
548.90	20.000
549.24	20.304
549.58	19.937
549.92	20.472
550.26	20.971
550.60	20.294
550.94	20.505
551.28	20.330
551.62	20.957
551.96	19.288
552.30	20.841
552.64	20.597
552.98	19.900
553.32	20.000
553.66	19.678
554.00	19.672
554.34	20.785
554.68	20.077
555.02	20.105
555.36	19.921
555.69	19.090
556.03	19.105
556.37	19.837
556.71	19.341
557.05	19.872
557.39	19.376
557.73	19.419
558.07	19.536
558.41	20.133
558.75	19.337
559.08	19.485
559.42	19.342
559.76	19.946
560.10	19.625
560.44	20.053
560.78	20.187
561.12	18.904
561.45	19.161
561.79	19.109
562.13	19.901
562.47	18.866
562.81	19.241
563.15	19.129
563.48	19.391
563.82	19.831
564.16	17.444
564.50	18.892
564.84	18.643
565.17	18.941
565.51	18.700
565.85	19.240
566.19	17.972
566.52	17.905
566.86	18.393
567.20	18.543
567.54	17.844
567.88	17.737
568.21	17.292
568.55	18.129
568.89	18.021
569.23	18.082
569.56	17.233
569.90	17.177
570.24	17.133
570.57	16.902
570.91	16.626
571.25	16.893
571.59	16.866
571.92	17.058
572.26	16.543
572.60	16.216
572.93	17.117
573.27	16.634
573.61	16.702
573.95	16.290
574.28	16.211
574.62	16.303
574.96	15.924
575.29	16.105
575.63	16.193
575.97	16.647
576.30	15.840
576.64	15.820
576.98	16.014
577.31	16.185
577.65	16.137
577.98	15.870
578.32	15.076
578.66	15.680
578.99	15.585
579.33	16.096
579.67	16.138
580.00	15.846
580.34	15.881
580.67	15.711
581.01	15.513
581.35	15.449
581.68	15.741
582.02	15.423
582.35	15.702
582.69	15.600
583.02	15.735
583.36	15.753
583.70	15.701
584.03	15.671
584.37	15.650
584.70	15.672
585.04	15.392
585.37	14.980
585.71	15.534
586.04	15.456
586.38	15.831
586.72	15.242
587.05	15.247
587.39	15.133
587.72	14.928
588.06	15.401
588.39	15.210
588.73	15.529
589.06	15.406
589.40	15.612
589.73	15.778
590.07	15.650
590.40	15.686
590.73	15.765
591.07	16.083
591.40	15.241
591.74	15.660
592.07	15.997
592.41	15.142
592.74	15.513
593.08	14.968
593.41	15.223
593.75	15.316
594.08	15.268
594.41	15.449
594.75	15.377
595.08	15.444
595.42	15.292
595.75	15.467
596.09	15.181
596.42	15.192
596.75	15.708
597.09	15.960
597.42	15.217
597.75	14.896
598.09	15.317
598.42	16.124
598.76	14.788
599.09	14.881
599.42	14.750
599.76	14.493
600.09	14.681
600.42	14.648
600.76	14.795
601.09	14.537
601.42	14.933
601.76	14.655
602.09	14.260
602.42	13.850
602.76	14.391
603.09	14.758
603.42	14.884
603.76	13.531
604.09	15.153
604.42	15.119
604.76	14.574
605.09	15.078
605.42	15.191
605.75	14.577
606.09	13.736
606.42	14.009
606.75	14.093
607.09	14.324
607.42	15.029
607.75	15.006
608.08	14.009
608.42	14.551
608.75	14.635
609.08	14.389
609.41	13.851
609.75	14.420
610.08	14.996
610.41	14.231
610.74	14.370
611.07	14.787
611.41	14.978
611.74	14.827
612.07	15.101
612.40	14.924
612.73	14.377
613.07	14.425
613.40	15.014
613.73	14.877
614.06	14.377
614.39	14.237
614.72	13.925
615.06	13.956
615.39	14.065
615.72	14.123
616.05	14.036
616.38	14.329
616.71	14.316
617.05	14.590
617.38	14.607
617.71	14.579
618.04	14.409
618.37	14.699
618.70	14.876
619.03	14.516
619.36	14.858
619.69	15.054
620.03	14.250
620.36	14.417
620.69	14.065
621.02	13.780
621.35	15.094
621.68	14.244
622.01	15.374
622.34	13.808
622.67	14.433
623.00	12.955
623.33	13.670
623.66	15.045
623.99	12.969
624.32	15.140
624.65	14.479
624.99	14.109
625.32	15.088
625.65	14.363
625.98	13.966
626.31	14.316
626.64	16.044
626.97	14.254
627.30	14.579
627.63	14.029
627.96	15.691
628.29	15.253
628.62	15.029
628.95	14.198
629.28	16.143
629.61	15.404
629.94	14.142
630.26	14.068
630.59	14.249
630.92	14.026
631.25	15.116
631.58	14.972
631.91	14.620
632.24	15.274
632.57	14.421
632.90	14.243
633.23	14.286
633.56	15.102
633.89	14.050
634.22	14.969
634.55	14.301
634.88	12.987
635.20	15.501
635.53	14.237
635.86	15.710
636.19	15.164
636.52	15.401
636.85	15.322
637.18	14.241
637.51	13.656
637.83	15.172
638.16	15.323
