SpectraSuite Data File
++++++++++++++++++++++++++++++++++++
Date: Thu May 14 16:32:29 PDT 2015
User: schluterlab
Dark Spectrum Present: Yes
Reference Spectrum Present: Yes
Number of Sampled Component Spectra: 1
Spectrometers: USB2E3373
Integration Time (usec): 3000 (USB2E3373)
Spectra Averaged: 3 (USB2E3373)
Boxcar Smoothing: 0 (USB2E3373)
Correct for Electrical Dark: No (USB2E3373)
Strobe/Lamp Enabled: No (USB2E3373)
Correct for Detector Non-linearity: No (USB2E3373)
Correct for Stray Light: No (USB2E3373)
Number of Pixels in Processed Spectrum: 2048
>>>>>Begin Processed Spectral Data<<<<<
178.53	0.000
178.91	-57.143
179.29	-200.000
179.67	-1000.000
180.04	107.143
180.42	10.000
180.80	120.000
181.18	-500.000
181.56	0.000
181.94	250.000
182.31	-125.000
182.69	400.000
183.07	-200.000
183.45	25.000
183.83	-16.667
184.20	0.000
184.58	500.000
184.96	-100.000
185.34	44.444
185.72	20.000
186.09	88.889
186.47	100.000
186.85	80.000
187.23	-111.111
187.61	-600.000
187.98	40.000
188.36	-25.000
188.74	-125.000
189.12	-33.333
189.49	-25.000
189.87	-62.500
190.25	55.556
190.63	80.000
191.00	-66.667
191.38	0.000
191.76	-25.000
192.14	0.000
192.51	50.000
192.89	250.000
193.27	0.000
193.65	-42.857
194.02	-1000.000
194.40	-85.714
194.78	100.000
195.15	0.000
195.53	90.909
195.91	0.000
196.29	-25.000
196.66	-15.385
197.04	-1300.000
197.42	71.429
197.79	-200.000
198.17	0.000
198.55	-14.286
198.92	-11.111
199.30	-25.000
199.68	36.364
200.05	0.000
200.43	-50.000
200.81	157.143
201.18	0.000
201.56	188.889
201.94	0.000
202.31	133.333
202.69	0.000
203.07	700.000
203.44	-66.667
203.82	-225.000
204.19	-58.333
204.57	-150.000
204.95	62.500
205.32	200.000
205.70	100.000
206.08	50.000
206.45	0.000
206.83	180.000
207.20	33.333
207.58	-120.000
207.96	-150.000
208.33	100.000
208.71	8.333
209.08	166.667
209.46	0.000
209.84	166.667
210.21	150.000
210.59	150.000
210.96	233.333
211.34	-125.000
211.71	-25.000
212.09	-500.000
212.46	0.000
212.84	600.000
213.22	-140.000
213.59	100.000
213.97	90.000
214.34	100.000
214.72	33.333
215.09	-125.000
215.47	0.000
215.84	-0.000
216.22	600.000
216.59	0.000
216.97	-80.000
217.34	-275.000
217.72	50.000
218.09	-50.000
218.47	-125.000
218.84	0.000
219.22	-120.000
219.59	23.529
219.97	-5.000
220.34	200.000
220.72	-55.556
221.09	69.231
221.47	-300.000
221.84	40.000
222.22	-85.714
222.59	0.000
222.97	25.000
223.34	-80.000
223.72	100.000
224.09	-175.000
224.46	-250.000
224.84	-60.000
225.21	-42.857
225.59	-325.000
225.96	50.000
226.34	19.231
226.71	116.667
227.08	50.000
227.46	93.333
227.83	125.000
228.21	42.105
228.58	87.500
228.95	500.000
229.33	8.333
229.70	-40.000
230.08	68.421
230.45	100.000
230.82	-133.333
231.20	42.857
231.57	41.667
231.95	-27.273
232.32	0.000
232.69	15.000
233.07	-50.000
233.44	0.000
233.81	0.000
234.19	55.556
234.56	0.000
234.93	37.931
235.31	21.053
235.68	5.556
236.05	-25.000
236.43	57.692
236.80	112.000
237.17	66.667
237.55	42.424
237.92	-10.000
238.29	41.935
238.67	31.818
239.04	5.556
239.41	21.429
239.79	26.087
240.16	46.296
240.53	32.609
240.91	29.412
241.28	27.869
241.65	40.299
242.02	35.135
242.40	33.846
242.77	17.333
243.14	20.732
243.51	10.526
243.89	24.359
244.26	40.594
244.63	39.216
245.00	24.299
245.38	29.825
245.75	18.584
246.12	32.540
246.49	31.783
246.87	25.000
247.24	33.113
247.61	34.211
247.98	34.228
248.36	27.778
248.73	26.994
249.10	26.230
249.47	33.831
249.84	39.267
250.22	34.715
250.59	32.778
250.96	30.909
251.33	30.102
251.70	25.641
252.08	30.000
252.45	31.557
252.82	35.537
253.19	30.469
253.56	34.221
253.94	27.692
254.31	31.818
254.68	38.462
255.05	32.573
255.42	30.952
255.79	31.715
256.16	31.126
256.54	31.126
256.91	33.443
257.28	31.148
257.65	29.936
258.02	32.743
258.39	32.194
258.76	37.615
259.14	38.793
259.51	32.277
259.88	33.711
260.25	31.944
260.62	35.068
260.99	33.880
261.36	33.512
261.73	34.748
262.10	36.813
262.47	38.606
262.85	37.374
263.22	35.325
263.59	28.421
263.96	32.992
264.33	31.969
264.70	34.815
265.07	38.186
265.44	34.694
265.81	31.481
266.18	35.374
266.55	32.143
266.92	33.030
267.29	34.792
267.66	31.042
268.03	33.624
268.40	31.106
268.77	34.852
269.14	31.278
269.51	31.140
269.88	32.787
270.25	32.998
270.62	33.966
270.99	33.737
271.36	32.475
271.73	30.648
272.10	35.271
272.47	30.661
272.84	33.534
273.21	31.263
273.58	33.669
273.95	32.115
274.32	31.939
274.69	32.495
275.06	32.967
275.43	31.423
275.80	31.922
276.17	29.815
276.54	32.090
276.91	30.411
277.28	31.284
277.65	31.598
278.02	31.066
278.39	31.884
278.76	30.931
279.13	32.624
279.50	33.162
279.87	31.306
280.23	30.282
280.60	33.898
280.97	32.401
281.34	32.767
281.71	31.810
282.08	30.233
282.45	30.606
282.82	29.827
283.19	31.018
283.56	30.656
283.92	31.832
284.29	32.701
284.66	32.348
285.03	29.808
285.40	29.830
285.77	31.579
286.14	30.229
286.51	27.702
286.87	31.438
287.24	31.024
287.61	28.700
287.98	30.363
288.35	29.142
288.72	29.586
289.08	30.600
289.45	29.142
289.82	30.271
290.19	28.448
290.56	27.324
290.93	28.673
291.29	29.477
291.66	25.758
292.03	25.373
292.40	28.844
292.77	26.011
293.13	27.740
293.50	25.887
293.87	25.772
294.24	26.933
294.60	25.790
294.97	25.906
295.34	28.937
295.71	26.103
296.08	25.452
296.44	24.387
296.81	25.213
297.18	25.405
297.55	24.057
297.91	24.911
298.28	23.697
298.65	24.257
299.02	24.203
299.38	26.201
299.75	24.766
300.12	23.958
300.48	25.691
300.85	22.610
301.22	22.931
301.59	24.087
301.95	23.729
302.32	23.000
302.69	23.111
303.05	24.266
303.42	23.171
303.79	23.958
304.15	23.659
304.52	22.727
304.89	23.455
305.25	24.224
305.62	23.302
305.99	21.856
306.35	23.387
306.72	24.716
307.09	23.350
307.45	22.774
307.82	23.007
308.19	23.209
308.55	22.951
308.92	22.687
309.29	23.372
309.65	22.710
310.02	22.772
310.38	23.228
310.75	22.816
311.12	22.819
311.48	23.851
311.85	23.362
312.22	21.917
312.58	22.066
312.95	21.989
313.31	21.771
313.68	22.527
314.05	22.493
314.41	22.040
314.78	23.070
315.14	21.779
315.51	22.345
315.87	22.592
316.24	22.557
316.61	21.581
316.97	21.176
317.34	20.547
317.70	21.659
318.07	22.310
318.43	20.833
318.80	22.241
319.16	19.914
319.53	20.051
319.89	20.947
320.26	20.996
320.62	20.124
320.99	20.037
321.35	21.165
321.72	21.488
322.08	21.100
322.45	21.409
322.81	21.300
323.18	20.973
323.54	21.810
323.91	21.441
324.27	21.343
324.64	20.991
325.00	21.476
325.37	21.540
325.73	20.579
326.10	20.843
326.46	21.091
326.83	21.537
327.19	20.551
327.56	21.581
327.92	20.535
328.29	19.113
328.65	20.436
329.01	21.743
329.38	20.303
329.74	21.147
330.11	20.805
330.47	21.230
330.84	20.672
331.20	20.917
331.56	22.184
331.93	20.753
332.29	20.763
332.66	20.432
333.02	20.352
333.38	19.715
333.75	21.128
334.11	20.183
334.48	20.627
334.84	19.626
335.20	21.159
335.57	21.332
335.93	20.000
336.29	19.551
336.66	21.110
337.02	19.816
337.38	21.173
337.75	19.752
338.11	19.765
338.47	21.009
338.84	19.459
339.20	20.135
339.56	19.605
339.93	20.197
340.29	19.243
340.65	19.221
341.02	20.271
341.38	18.998
341.74	20.178
342.11	20.193
342.47	18.268
342.83	19.565
343.20	19.542
343.56	19.166
343.92	20.176
344.28	20.156
344.65	19.845
345.01	20.281
345.37	19.285
345.73	19.174
346.10	19.579
346.46	18.750
346.82	19.326
347.19	19.251
347.55	19.499
347.91	18.796
348.27	18.892
348.63	20.259
349.00	18.941
349.36	20.595
349.72	19.568
350.08	19.911
350.45	18.175
350.81	18.552
351.17	19.699
351.53	19.560
351.89	20.653
352.26	19.627
352.62	18.657
352.98	19.313
353.34	18.820
353.70	18.721
354.07	18.927
354.43	18.907
354.79	18.773
355.15	18.322
355.51	19.298
355.87	18.923
356.24	18.403
356.60	18.847
356.96	18.013
357.32	18.364
357.68	18.448
358.04	18.114
358.40	17.836
358.77	17.982
359.13	18.685
359.49	17.621
359.85	19.217
360.21	19.369
360.57	18.880
360.93	18.054
361.29	18.105
361.66	18.030
362.02	19.068
362.38	19.888
362.74	17.458
363.10	18.845
363.46	18.490
363.82	17.330
364.18	18.508
364.54	18.119
364.90	18.863
365.26	17.517
365.62	18.467
365.98	18.176
366.35	18.792
366.71	18.639
367.07	18.200
367.43	17.794
367.79	18.049
368.15	18.930
368.51	18.336
368.87	18.093
369.23	18.067
369.59	17.691
369.95	18.323
370.31	18.231
370.67	17.263
371.03	18.560
371.39	16.655
371.75	17.882
372.11	17.818
372.47	17.536
372.83	18.390
373.19	17.345
373.55	17.954
373.91	17.860
374.27	17.723
374.63	18.403
374.99	17.042
375.35	18.052
375.71	17.935
376.07	17.431
376.42	18.073
376.78	17.899
377.14	17.342
377.50	17.457
377.86	18.473
378.22	18.323
378.58	18.430
378.94	17.606
379.30	17.809
379.66	18.166
380.02	18.523
380.38	18.376
380.74	17.296
381.09	17.944
381.45	17.330
381.81	18.208
382.17	17.815
382.53	17.719
382.89	18.510
383.25	18.288
383.61	17.361
383.97	17.314
384.32	18.122
384.68	16.473
385.04	17.987
385.40	18.209
385.76	18.054
386.12	17.295
386.48	17.647
386.83	18.832
387.19	17.439
387.55	17.019
387.91	17.237
388.27	17.898
388.62	17.698
388.98	16.864
389.34	17.737
389.70	17.316
390.06	17.229
390.42	17.349
390.77	18.483
391.13	17.958
391.49	17.874
391.85	17.576
392.20	17.556
392.56	17.661
392.92	17.121
393.28	17.634
393.64	17.821
393.99	18.129
394.35	17.407
394.71	18.623
395.07	17.126
395.42	17.875
395.78	18.647
396.14	17.944
396.50	17.162
396.85	18.128
397.21	17.751
397.57	17.903
397.92	18.041
398.28	17.273
398.64	16.476
399.00	17.277
399.35	17.644
399.71	16.685
400.07	18.080
400.42	16.997
400.78	17.940
401.14	17.188
401.49	16.771
401.85	16.919
402.21	18.250
402.57	17.371
402.92	17.317
403.28	16.862
403.63	16.766
403.99	17.340
404.35	17.737
404.70	17.054
405.06	17.772
405.42	17.740
405.77	17.557
406.13	17.720
406.49	17.680
406.84	17.230
407.20	17.887
407.55	17.323
407.91	17.599
408.27	17.020
408.62	16.521
408.98	17.702
409.34	16.774
409.69	18.356
410.05	17.995
410.40	17.111
410.76	17.499
411.11	17.417
411.47	17.752
411.83	18.636
412.18	18.253
412.54	18.317
412.89	17.171
413.25	17.664
413.60	16.485
413.96	17.657
414.31	17.337
414.67	18.187
415.03	17.969
415.38	16.141
415.74	18.204
416.09	18.260
416.45	17.408
416.80	16.707
417.16	17.241
417.51	16.936
417.87	17.290
418.22	17.844
418.58	16.914
418.93	17.870
419.29	17.879
419.64	16.447
420.00	17.329
420.35	17.855
420.71	17.346
421.06	17.539
421.42	17.603
421.77	17.017
422.12	16.649
422.48	17.409
422.83	17.251
423.19	17.507
423.54	17.644
423.90	17.173
424.25	17.653
424.61	16.820
424.96	17.298
425.31	18.153
425.67	17.338
426.02	17.543
426.38	17.336
426.73	16.964
427.09	18.224
427.44	17.695
427.79	17.302
428.15	16.952
428.50	17.360
428.85	16.992
429.21	17.500
429.56	17.670
429.92	16.658
430.27	16.819
430.62	17.440
430.98	16.822
431.33	17.204
431.68	16.715
432.04	17.471
432.39	17.140
432.74	17.637
433.10	17.144
433.45	17.113
433.80	16.738
434.16	17.045
434.51	17.369
434.86	17.427
435.22	17.003
435.57	17.512
435.92	17.974
436.28	17.691
436.63	17.750
436.98	16.908
437.34	16.573
437.69	17.611
438.04	16.764
438.39	17.634
438.75	16.270
439.10	17.918
439.45	17.999
439.81	17.062
440.16	16.944
440.51	17.447
440.86	16.732
441.22	17.846
441.57	17.662
441.92	17.022
442.27	17.071
442.63	17.139
442.98	17.609
443.33	17.517
443.68	17.839
444.03	18.015
444.39	17.568
444.74	18.224
445.09	17.030
445.44	18.019
445.79	18.247
446.15	17.163
446.50	17.726
446.85	17.899
447.20	17.698
447.55	18.305
447.91	17.173
448.26	17.072
448.61	17.853
448.96	18.079
449.31	16.914
449.66	17.375
450.02	17.669
450.37	17.848
450.72	17.061
451.07	17.768
451.42	17.562
451.77	17.065
452.12	17.607
452.47	17.291
452.83	17.624
453.18	18.097
453.53	17.346
453.88	17.118
454.23	18.079
454.58	17.876
454.93	17.536
455.28	18.724
455.63	17.965
455.98	17.821
456.34	17.020
456.69	18.519
457.04	17.435
457.39	17.683
457.74	17.506
458.09	17.024
458.44	17.888
458.79	17.174
459.14	17.777
459.49	18.563
459.84	17.681
460.19	17.046
460.54	17.888
460.89	17.840
461.24	17.184
461.59	17.986
461.94	16.543
462.29	18.197
462.64	17.320
462.99	17.577
463.34	18.365
463.69	18.464
464.04	18.066
464.39	18.049
464.74	17.731
465.09	18.051
465.44	17.167
465.79	17.187
466.14	17.301
466.49	18.105
466.84	17.906
467.19	17.630
467.54	17.274
467.89	17.644
468.24	18.172
468.59	17.255
468.94	17.424
469.29	17.576
469.64	16.910
469.99	17.846
470.34	18.193
470.68	18.250
471.03	17.420
471.38	17.332
471.73	17.490
472.08	18.464
472.43	18.001
472.78	17.317
473.13	17.826
473.48	18.610
473.83	18.108
474.17	17.702
474.52	18.220
474.87	16.722
475.22	18.141
475.57	16.926
475.92	17.571
476.27	18.317
476.61	18.017
476.96	17.831
477.31	18.020
477.66	18.520
478.01	18.251
478.36	17.797
478.70	18.227
479.05	17.843
479.40	17.621
479.75	18.828
480.10	18.380
480.45	18.505
480.79	17.868
481.14	18.244
481.49	18.037
481.84	17.798
482.19	18.194
482.53	18.102
482.88	17.856
483.23	18.542
483.58	17.642
483.92	17.775
484.27	17.909
484.62	17.863
484.97	17.691
485.31	17.599
485.66	17.013
486.01	16.491
486.36	16.730
486.70	17.855
487.05	18.483
487.40	18.691
487.75	18.830
488.09	19.019
488.44	18.742
488.79	18.921
489.13	18.429
489.48	17.942
489.83	17.143
490.17	18.064
490.52	18.350
490.87	18.316
491.22	17.764
491.56	18.387
491.91	18.796
492.26	18.477
492.60	18.452
492.95	18.561
493.30	17.526
493.64	18.309
493.99	18.377
494.34	18.336
494.68	17.602
495.03	18.238
495.37	18.287
495.72	17.370
496.07	18.142
496.41	17.761
496.76	17.515
497.11	17.877
497.45	18.127
497.80	18.481
498.14	18.413
498.49	18.199
498.84	18.556
499.18	18.264
499.53	18.206
499.87	18.989
500.22	17.053
500.56	18.264
500.91	18.627
501.26	18.545
501.60	17.720
501.95	18.975
502.29	18.605
502.64	18.277
502.98	18.464
503.33	18.272
503.67	17.924
504.02	17.732
504.36	18.365
504.71	18.374
505.06	18.736
505.40	18.419
505.75	18.215
506.09	18.692
506.44	18.384
506.78	18.578
507.13	18.764
507.47	18.806
507.82	19.034
508.16	17.925
508.51	18.097
508.85	18.422
509.19	18.854
509.54	19.212
509.88	19.136
510.23	18.990
510.57	19.430
510.92	18.771
511.26	19.000
511.61	18.300
511.95	19.424
512.30	19.202
512.64	18.591
512.98	19.310
513.33	18.548
513.67	18.766
514.02	19.520
514.36	19.642
514.70	19.479
515.05	18.926
515.39	19.633
515.74	19.830
516.08	19.440
516.42	19.100
516.77	19.243
517.11	18.979
517.46	20.255
517.80	19.829
518.14	20.022
518.49	20.119
518.83	19.159
519.17	19.925
519.52	19.078
519.86	19.483
520.20	19.436
520.55	19.113
520.89	19.088
521.23	19.598
521.58	20.113
521.92	19.377
522.26	19.702
522.61	20.023
522.95	20.415
523.29	20.460
523.64	19.395
523.98	19.738
524.32	20.057
524.66	20.091
525.01	20.215
525.35	19.586
525.69	19.490
526.04	19.747
526.38	19.425
526.72	20.473
527.06	20.059
527.41	20.233
527.75	20.190
528.09	20.307
528.43	20.545
528.78	19.306
529.12	19.610
529.46	19.618
529.80	19.966
530.15	19.652
530.49	20.166
530.83	20.012
531.17	20.191
531.51	19.434
531.86	20.493
532.20	19.756
532.54	19.749
532.88	20.000
533.22	20.684
533.57	20.196
533.91	19.585
534.25	19.729
534.59	21.034
534.93	19.468
535.27	19.887
535.62	20.694
535.96	19.988
536.30	19.565
536.64	20.901
536.98	21.464
537.32	20.123
537.66	20.462
538.01	19.396
538.35	19.915
538.69	20.613
539.03	20.907
539.37	19.611
539.71	20.541
540.05	20.264
540.39	19.438
540.73	19.369
541.07	19.926
541.42	19.433
541.76	20.937
542.10	20.024
542.44	20.037
542.78	20.255
543.12	19.666
543.46	19.719
543.80	19.365
544.14	19.390
544.48	20.272
544.82	20.586
545.16	20.990
545.50	20.851
545.84	19.718
546.18	20.741
546.52	20.000
546.86	20.314
547.20	20.229
547.54	19.600
547.88	19.831
548.22	19.708
548.56	19.661
548.90	20.060
549.24	19.818
549.58	19.874
549.92	19.898
550.26	20.000
550.60	20.740
550.94	20.569
551.28	20.396
551.62	19.879
551.96	20.129
552.30	19.758
552.64	20.535
552.98	19.713
553.32	20.322
553.66	20.322
554.00	20.113
554.34	21.429
554.68	20.723
555.02	20.237
555.36	21.302
555.69	19.090
556.03	19.609
556.37	20.338
556.71	20.165
557.05	21.150
557.39	20.504
557.73	21.334
558.07	19.801
558.41	20.797
558.75	19.540
559.08	20.668
559.42	20.988
559.76	20.828
560.10	20.094
560.44	20.119
560.78	20.187
561.12	20.259
561.45	20.681
561.79	20.757
562.13	20.025
562.47	19.914
562.81	20.063
563.15	19.381
563.48	21.069
563.82	20.798
564.16	20.594
564.50	20.143
564.84	19.882
565.17	20.059
565.51	19.965
565.85	20.190
566.19	19.182
566.52	20.012
566.86	20.713
567.20	18.869
567.54	19.596
567.88	19.980
568.21	19.318
568.55	19.712
568.89	19.473
569.23	19.476
569.56	19.500
569.90	19.244
570.24	18.617
570.57	19.179
570.91	19.412
571.25	18.716
571.59	19.482
571.92	18.923
572.26	18.767
572.60	18.701
572.93	19.538
573.27	19.247
573.61	19.005
573.95	18.840
574.28	18.897
574.62	18.781
574.96	18.196
575.29	18.572
575.63	18.272
575.97	18.994
576.30	18.900
576.64	18.516
576.98	18.314
577.31	18.791
577.65	18.510
577.98	18.806
578.32	18.036
578.66	18.658
578.99	18.431
579.33	19.097
579.67	18.586
580.00	18.993
580.34	18.979
580.67	18.711
581.01	18.520
581.35	18.488
581.68	18.651
582.02	18.534
582.35	18.431
582.69	18.833
583.02	18.838
583.36	19.306
583.70	19.677
584.03	19.150
584.37	19.600
584.70	19.218
585.04	18.833
585.37	18.383
585.71	18.123
586.04	18.670
586.38	18.825
586.72	18.451
587.05	18.521
587.39	18.798
587.72	18.828
588.06	19.681
588.39	19.069
588.73	19.312
589.06	19.752
589.40	19.330
589.73	19.312
590.07	19.330
590.40	19.642
590.73	19.335
591.07	19.955
591.40	19.673
591.74	18.998
592.07	19.691
592.41	18.888
592.74	18.992
593.08	18.949
593.41	18.985
593.75	18.649
594.08	19.327
594.41	19.263
594.75	19.196
595.08	18.843
595.42	19.286
595.75	19.051
596.09	19.282
596.42	19.885
596.75	19.606
597.09	19.919
597.42	19.229
597.75	19.169
598.09	19.921
598.42	19.903
598.76	19.029
599.09	18.441
599.42	18.237
599.76	18.587
600.09	18.485
600.42	19.019
600.76	18.956
601.09	19.117
601.42	19.018
601.76	18.724
602.09	19.014
602.42	19.266
602.76	18.745
603.09	19.016
603.42	19.003
603.76	18.710
604.09	19.163
604.42	18.716
604.76	19.026
605.09	19.266
605.42	19.298
605.75	19.231
606.09	18.514
606.42	19.555
606.75	19.265
607.09	19.278
607.42	18.728
607.75	19.539
608.08	19.021
608.42	18.984
608.75	19.527
609.08	18.930
609.41	19.629
609.75	19.107
610.08	19.085
610.41	18.989
610.74	19.160
611.07	19.227
611.41	19.776
611.74	20.000
612.07	19.822
612.40	18.916
612.73	19.071
613.07	19.804
613.40	20.164
613.73	18.584
614.06	19.627
614.39	19.339
614.72	19.068
615.06	18.912
615.39	19.333
615.72	18.673
616.05	19.038
616.38	19.223
616.71	19.331
617.05	19.063
617.38	20.011
617.71	20.086
618.04	19.860
618.37	19.891
618.70	19.853
619.03	19.892
619.36	19.975
619.69	20.564
620.03	19.837
620.36	19.509
620.69	19.803
621.02	20.341
621.35	20.900
621.68	21.114
622.01	20.641
622.34	20.153
622.67	18.832
623.00	19.028
623.33	20.969
623.66	20.947
623.99	20.013
624.32	20.403
624.65	19.369
624.99	19.701
625.32	20.183
625.65	19.420
625.98	19.661
626.31	19.490
626.64	20.952
626.97	20.930
627.30	19.742
627.63	20.030
627.96	20.420
628.29	19.922
628.62	19.983
628.95	20.421
629.28	20.986
629.61	20.960
629.94	19.665
630.26	19.237
630.59	20.207
630.92	20.087
631.25	20.483
631.58	20.527
631.91	21.649
632.24	22.286
632.57	21.822
632.90	21.565
633.23	20.816
633.56	21.531
633.89	20.145
634.22	21.933
634.55	20.877
