SpectraSuite Data File
++++++++++++++++++++++++++++++++++++
Date: Thu May 14 16:27:41 PDT 2015
User: schluterlab
Dark Spectrum Present: Yes
Reference Spectrum Present: Yes
Number of Sampled Component Spectra: 1
Spectrometers: USB2E3373
Integration Time (usec): 3000 (USB2E3373)
Spectra Averaged: 3 (USB2E3373)
Boxcar Smoothing: 0 (USB2E3373)
Correct for Electrical Dark: No (USB2E3373)
Strobe/Lamp Enabled: No (USB2E3373)
Correct for Detector Non-linearity: No (USB2E3373)
Correct for Stray Light: No (USB2E3373)
Number of Pixels in Processed Spectrum: 2048
>>>>>Begin Processed Spectral Data<<<<<
178.53	0.000
178.91	-42.857
179.29	-800.000
179.67	-400.000
180.04	142.857
180.42	120.000
180.80	-80.000
181.18	-100.000
181.56	600.000
181.94	-50.000
182.31	150.000
182.69	100.000
183.07	500.000
183.45	-100.000
183.83	-100.000
184.20	33.333
184.58	-400.000
184.96	-175.000
185.34	-55.556
185.72	60.000
186.09	44.444
186.47	-250.000
186.85	260.000
187.23	-100.000
187.61	-600.000
187.98	-60.000
188.36	100.000
188.74	-150.000
189.12	100.000
189.49	93.750
189.87	87.500
190.25	77.778
190.63	100.000
191.00	-77.778
191.38	0.000
191.76	-125.000
192.14	16.667
192.51	-250.000
192.89	166.667
193.27	0.000
193.65	71.429
194.02	-1700.000
194.40	71.429
194.78	57.143
195.15	0.000
195.53	9.091
195.91	0.000
196.29	175.000
196.66	-61.538
197.04	-600.000
197.42	14.286
197.79	-200.000
198.17	-100.000
198.55	14.286
198.92	22.222
199.30	-62.500
199.68	27.273
200.05	50.000
200.43	-300.000
200.81	114.286
201.18	0.000
201.56	166.667
201.94	0.000
202.31	100.000
202.69	-111.111
203.07	200.000
203.44	22.222
203.82	0.000
204.19	16.667
204.57	150.000
204.95	50.000
205.32	-100.000
205.70	150.000
206.08	16.667
206.45	-50.000
206.83	240.000
207.20	116.667
207.58	20.000
207.96	-16.667
208.33	133.333
208.71	66.667
209.08	-33.333
209.46	0.000
209.84	100.000
210.21	300.000
210.59	500.000
210.96	-0.000
211.34	300.000
211.71	0.000
212.09	-200.000
212.46	0.000
212.84	450.000
213.22	-160.000
213.59	75.000
213.97	-20.000
214.34	100.000
214.72	-0.000
215.09	25.000
215.47	0.000
215.84	57.143
216.22	600.000
216.59	0.000
216.97	20.000
217.34	75.000
217.72	37.500
218.09	75.000
218.47	-25.000
218.84	0.000
219.22	-60.000
219.59	64.706
219.97	25.000
220.34	100.000
220.72	22.222
221.09	76.923
221.47	66.667
221.84	-40.000
222.22	-85.714
222.59	0.000
222.97	50.000
223.34	-40.000
223.72	800.000
224.09	0.000
224.46	100.000
224.84	80.000
225.21	-71.429
225.59	-375.000
225.96	50.000
226.34	34.615
226.71	133.333
227.08	-150.000
227.46	20.000
227.83	-100.000
228.21	10.526
228.58	12.500
228.95	-100.000
229.33	58.333
229.70	10.000
230.08	52.632
230.45	40.000
230.82	-66.667
231.20	-14.286
231.57	0.000
231.95	-9.091
232.32	72.727
232.69	55.000
233.07	-100.000
233.44	35.294
233.81	-10.000
234.19	111.111
234.56	27.273
234.93	51.724
235.31	42.105
235.68	44.444
236.05	0.000
236.43	69.231
236.80	96.000
237.17	40.741
237.55	39.394
237.92	40.000
238.29	19.355
238.67	27.273
239.04	25.000
239.41	47.619
239.79	-6.522
240.16	29.630
240.53	26.087
240.91	35.294
241.28	27.869
241.65	41.791
242.02	41.892
242.40	44.615
242.77	49.333
243.14	30.488
243.51	25.000
243.89	15.385
244.26	34.653
244.63	37.255
245.00	38.318
245.38	28.070
245.75	15.929
246.12	37.302
246.49	34.884
246.87	38.571
247.24	45.033
247.61	43.421
247.98	40.940
248.36	37.654
248.73	29.448
249.10	29.508
249.47	37.313
249.84	42.408
250.22	39.378
250.59	38.333
250.96	40.000
251.33	34.184
251.70	36.752
252.08	39.167
252.45	35.246
252.82	34.711
253.19	33.984
253.56	39.544
253.94	28.462
254.31	40.152
254.68	41.608
255.05	37.134
255.42	35.714
255.79	36.893
256.16	38.742
256.54	36.424
256.91	37.049
257.28	39.344
257.65	36.943
258.02	32.743
258.39	38.462
258.76	40.673
259.14	39.080
259.51	39.193
259.88	39.093
260.25	36.944
260.62	37.534
260.99	37.705
261.36	41.823
261.73	36.340
262.10	37.637
262.47	39.946
262.85	38.131
263.22	35.844
263.59	32.632
263.96	35.550
264.33	36.573
264.70	39.753
265.07	36.516
265.44	39.229
265.81	38.194
266.18	37.868
266.55	35.491
266.92	35.763
267.29	38.074
267.66	40.798
268.03	39.301
268.40	35.491
268.77	35.991
269.14	34.581
269.51	36.404
269.88	36.270
270.25	36.217
270.62	39.241
270.99	38.182
271.36	35.842
271.73	36.346
272.10	36.874
272.47	35.872
272.84	36.145
273.21	34.669
273.58	38.105
273.95	36.154
274.32	34.601
274.69	35.203
275.06	36.447
275.43	34.196
275.80	36.861
276.17	34.259
276.54	34.888
276.91	34.705
277.28	36.347
277.65	35.009
278.02	36.581
278.39	34.239
278.76	34.622
279.13	34.397
279.50	34.364
279.87	35.599
280.23	34.507
280.60	36.441
280.97	32.895
281.34	34.126
281.71	36.717
282.08	33.721
282.45	35.025
282.82	32.810
283.19	32.472
283.56	34.590
283.92	34.384
284.29	36.809
284.66	32.512
285.03	32.051
285.40	33.385
285.77	34.056
286.14	35.115
286.51	33.029
286.87	35.387
287.24	32.831
287.61	34.230
287.98	30.060
288.35	33.136
288.72	34.172
289.08	31.625
289.45	32.692
289.82	32.078
290.19	31.466
290.56	30.563
290.93	29.244
291.29	30.303
291.66	30.303
292.03	28.494
292.40	31.020
292.77	29.380
293.13	30.041
293.50	30.092
293.87	28.188
294.24	30.800
294.60	30.341
294.97	26.980
295.34	29.193
295.71	26.482
296.08	28.682
296.44	27.696
296.81	27.527
297.18	27.273
297.55	27.005
297.91	27.402
298.28	26.185
298.65	26.635
299.02	27.391
299.38	26.201
299.75	26.986
300.12	25.810
300.48	26.498
300.85	26.547
301.22	26.734
301.59	26.142
301.95	25.537
302.32	25.556
302.69	26.506
303.05	26.007
303.42	26.053
303.79	26.146
304.15	24.816
304.52	26.004
304.89	24.817
305.25	24.638
305.62	24.765
305.99	25.670
306.35	25.403
306.72	26.784
307.09	24.061
307.45	25.569
307.82	24.924
308.19	24.521
308.55	25.362
308.92	25.901
309.29	24.330
309.65	25.439
310.02	25.347
310.38	25.492
310.75	25.340
311.12	27.325
311.48	26.197
311.85	25.831
312.22	26.660
312.58	26.385
312.95	26.960
313.31	25.745
313.68	25.824
314.05	27.100
314.41	26.230
314.78	26.521
315.14	25.862
315.51	27.701
315.87	27.183
316.24	27.671
316.61	27.709
316.97	27.511
317.34	28.395
317.70	28.559
318.07	28.131
318.43	29.167
318.80	30.100
319.16	28.155
319.53	29.049
319.89	28.747
320.26	29.715
320.62	29.255
320.99	30.840
321.35	31.331
321.72	31.721
322.08	31.380
322.45	30.714
322.81	31.137
323.18	32.212
323.54	31.466
323.91	33.007
324.27	32.444
324.64	33.417
325.00	32.919
325.37	33.251
325.73	34.876
326.10	34.793
326.46	36.075
326.83	35.388
327.19	35.591
327.56	35.573
327.92	35.484
328.29	36.210
328.65	36.013
329.01	37.225
329.38	35.720
329.74	37.842
330.11	37.243
330.47	35.720
330.84	36.951
331.20	37.083
331.56	37.868
331.93	36.820
332.29	36.610
332.66	37.375
333.02	37.605
333.38	37.752
333.75	38.384
334.11	38.282
334.48	37.046
334.84	39.082
335.20	37.615
335.57	37.858
335.93	38.182
336.29	36.938
336.66	38.352
337.02	37.542
337.38	38.010
337.75	37.769
338.11	38.183
338.47	36.559
338.84	37.817
339.20	37.995
339.56	36.738
339.93	36.864
340.29	36.795
340.65	35.766
341.02	37.989
341.38	37.268
341.74	36.077
342.11	38.858
342.47	35.981
342.83	38.003
343.20	37.939
343.56	37.851
343.92	36.669
344.28	37.500
344.65	36.589
345.01	36.817
345.37	37.092
345.73	35.308
346.10	38.300
346.46	36.867
346.82	37.528
347.19	36.746
347.55	39.530
347.91	36.553
348.27	36.419
348.63	37.624
349.00	37.211
349.36	36.877
349.72	36.384
350.08	37.964
350.45	38.099
350.81	36.501
351.17	37.594
351.53	37.301
351.89	38.800
352.26	37.313
352.62	38.507
352.98	37.099
353.34	36.520
353.70	37.904
354.07	37.705
354.43	36.902
354.79	35.901
355.15	37.380
355.51	36.842
355.87	38.220
356.24	38.023
356.60	37.029
356.96	37.732
357.32	36.134
357.68	36.310
358.04	36.153
358.40	36.866
358.77	36.696
359.13	36.041
359.49	35.167
359.85	36.693
360.21	36.083
360.57	36.253
360.93	37.447
361.29	37.684
361.66	37.292
362.02	38.413
362.38	38.229
362.74	37.849
363.10	36.657
363.46	37.812
363.82	37.571
364.18	36.664
364.54	37.206
364.90	38.261
365.26	38.414
365.62	37.067
365.98	37.236
366.35	36.577
366.71	37.551
367.07	37.145
367.43	37.951
367.79	37.293
368.15	36.522
368.51	37.957
368.87	36.773
369.23	36.533
369.59	37.227
369.95	37.728
370.31	37.812
370.67	36.795
371.03	37.258
371.39	35.527
371.75	38.308
372.11	37.127
372.47	37.508
372.83	37.565
373.19	36.691
373.55	37.195
373.91	37.423
374.27	35.576
374.63	37.754
374.99	37.931
375.35	37.468
375.71	37.161
376.07	37.508
376.42	35.957
376.78	38.533
377.14	37.430
377.50	37.634
377.86	37.623
378.22	38.024
378.58	37.693
378.94	37.441
379.30	36.907
379.66	38.095
380.02	38.257
380.38	39.574
380.74	36.901
381.09	37.573
381.45	36.818
381.81	39.052
382.17	37.589
382.53	37.310
382.89	37.585
383.25	36.987
383.61	38.021
383.97	36.219
384.32	38.457
384.68	36.543
385.04	38.115
385.40	37.360
385.76	38.570
386.12	37.044
386.48	37.000
386.83	37.843
387.19	37.601
387.55	36.913
387.91	37.100
388.27	37.702
388.62	37.915
388.98	37.845
389.34	37.949
389.70	37.362
390.06	38.188
390.42	37.771
390.77	37.929
391.13	36.972
391.49	37.138
391.85	36.788
392.20	37.960
392.56	36.385
392.92	37.514
393.28	37.866
393.64	38.101
393.99	37.943
394.35	38.201
394.71	37.425
395.07	36.587
395.42	36.836
395.78	38.940
396.14	38.146
396.50	37.292
396.85	37.269
397.21	37.633
397.57	36.337
397.92	37.973
398.28	36.882
398.64	37.414
399.00	36.178
399.35	37.592
399.71	37.500
400.07	38.349
400.42	36.438
400.78	37.269
401.14	36.995
401.49	37.521
401.85	37.558
402.21	36.385
402.57	37.969
402.92	36.288
403.28	36.417
403.63	35.919
403.99	36.045
404.35	36.612
404.70	36.487
405.06	36.304
405.42	37.705
405.77	37.350
406.13	36.197
406.49	37.162
406.84	36.177
407.20	36.389
407.55	35.675
407.91	36.958
408.27	36.690
408.62	37.173
408.98	37.841
409.34	36.129
409.69	36.650
410.05	36.284
410.40	36.485
410.76	36.287
411.11	36.762
411.47	37.162
411.83	35.920
412.18	36.084
412.54	36.692
412.89	36.380
413.25	36.061
413.60	35.554
413.96	36.422
414.31	35.694
414.67	36.017
415.03	35.877
415.38	37.201
415.74	34.881
416.09	35.965
416.45	34.941
416.80	35.190
417.16	36.718
417.51	36.115
417.87	34.825
418.22	34.850
418.58	35.874
418.93	35.797
419.29	35.943
419.64	35.174
420.00	35.905
420.35	35.710
420.71	35.841
421.06	34.733
421.42	36.697
421.77	34.356
422.12	36.152
422.48	34.818
422.83	36.035
423.19	35.013
423.54	36.007
423.90	35.616
424.25	35.307
424.61	35.304
424.96	35.585
425.31	35.032
425.67	34.675
426.02	36.027
426.38	35.189
426.73	35.100
427.09	35.352
427.44	34.244
427.79	35.268
428.15	34.932
428.50	35.562
428.85	34.558
429.21	35.745
429.56	34.600
429.92	34.300
430.27	35.133
430.62	35.076
430.98	34.678
431.33	34.213
431.68	33.860
432.04	34.434
432.39	33.958
432.74	34.646
433.10	34.667
433.45	34.337
433.80	34.925
434.16	34.194
434.51	34.738
434.86	35.179
435.22	35.228
435.57	35.790
435.92	34.558
436.28	34.471
436.63	34.353
436.98	33.816
437.34	33.935
437.69	34.232
438.04	34.003
438.39	33.774
438.75	32.983
439.10	34.355
439.45	34.321
439.81	33.672
440.16	32.708
440.51	33.278
440.86	34.074
441.22	34.191
441.57	34.696
441.92	33.511
442.27	34.091
442.63	34.178
442.98	33.778
443.33	34.403
443.68	33.994
444.03	34.948
444.39	34.720
444.74	34.558
445.09	32.489
445.44	34.984
445.79	33.716
446.15	33.813
446.50	33.075
446.85	33.755
447.20	33.124
447.55	35.042
447.91	34.188
448.26	32.822
448.61	32.306
448.96	34.549
449.31	32.874
449.66	33.115
450.02	33.281
450.37	33.298
450.72	33.046
451.07	32.745
451.42	32.640
451.77	32.407
452.12	33.465
452.47	32.680
452.83	34.459
453.18	33.392
453.53	31.821
453.88	33.462
454.23	33.842
454.58	33.372
454.93	33.252
455.28	33.353
455.63	32.860
455.98	34.022
456.34	32.332
456.69	33.039
457.04	33.452
457.39	32.317
457.74	33.221
458.09	32.125
458.44	33.297
458.79	32.285
459.14	31.935
459.49	33.447
459.84	33.106
460.19	32.315
460.54	32.879
460.89	32.875
461.24	32.241
461.59	32.651
461.94	31.660
462.29	32.643
462.64	31.925
462.99	32.768
463.34	32.317
463.69	31.008
464.04	31.740
464.39	32.287
464.74	31.756
465.09	32.411
465.44	31.706
465.79	31.465
466.14	31.318
466.49	31.526
466.84	31.736
467.19	31.850
467.54	30.317
467.89	29.540
468.24	31.745
468.59	30.168
468.94	30.420
469.29	29.874
469.64	31.596
469.99	30.975
470.34	30.755
470.68	30.759
471.03	30.845
471.38	30.870
471.73	30.819
472.08	30.964
472.43	30.765
472.78	31.801
473.13	29.646
473.48	30.695
473.83	31.283
474.17	30.832
474.52	31.028
474.87	29.513
475.22	30.310
475.57	30.218
475.92	30.164
476.27	30.138
476.61	29.907
476.96	29.458
477.31	29.653
477.66	30.430
478.01	29.944
478.36	30.110
478.70	30.493
479.05	30.266
479.40	30.553
479.75	29.491
480.10	30.223
480.45	29.672
480.79	30.068
481.14	29.596
481.49	29.350
481.84	29.199
482.19	29.118
482.53	30.214
482.88	29.553
483.23	29.169
483.58	29.039
483.92	28.236
484.27	29.128
484.62	29.167
484.97	29.666
485.31	28.969
485.66	28.571
486.01	29.030
486.36	30.002
486.70	30.395
487.05	30.151
487.40	29.231
487.75	28.550
488.09	27.726
488.44	27.096
488.79	28.364
489.13	27.806
489.48	27.379
489.83	27.928
490.17	27.542
490.52	28.530
490.87	28.553
491.22	28.293
491.56	27.773
491.91	28.565
492.26	28.256
492.60	27.591
492.95	28.214
493.30	27.432
493.64	27.113
493.99	27.588
494.34	27.308
494.68	27.537
495.03	27.401
495.37	27.785
495.72	27.302
496.07	26.906
496.41	26.813
496.76	28.107
497.11	27.558
497.45	27.449
497.80	27.454
498.14	27.256
498.49	26.195
498.84	26.737
499.18	27.170
499.53	27.220
499.87	26.945
500.22	25.913
500.56	26.451
500.91	26.407
501.26	26.773
501.60	26.381
501.95	26.835
502.29	26.722
502.64	26.716
502.98	26.316
503.33	26.134
503.67	25.600
504.02	25.744
504.36	26.184
504.71	26.137
505.06	26.285
505.40	25.914
505.75	25.501
506.09	25.783
506.44	26.045
506.78	26.101
507.13	25.818
507.47	26.528
507.82	25.379
508.16	25.239
508.51	24.754
508.85	26.075
509.19	26.054
509.54	25.696
509.88	25.401
510.23	25.206
510.57	26.728
510.92	25.206
511.26	24.820
511.61	24.867
511.95	25.427
512.30	25.455
512.64	24.588
512.98	24.712
513.33	24.899
513.67	24.987
514.02	25.498
514.36	24.910
514.70	25.312
515.05	25.547
515.39	24.672
515.74	25.451
516.08	24.775
516.42	25.903
516.77	24.816
517.11	24.807
517.46	24.496
517.80	25.067
518.14	24.810
518.49	24.241
518.83	24.162
519.17	24.502
519.52	23.795
519.86	24.762
520.20	23.908
520.55	24.261
520.89	24.550
521.23	23.953
521.58	23.559
521.92	23.513
522.26	23.024
522.61	23.322
522.95	23.645
523.29	23.736
523.64	24.271
523.98	24.358
524.32	24.585
524.66	23.847
525.01	23.103
525.35	24.009
525.69	23.202
526.04	22.675
526.38	23.736
526.72	23.126
527.06	23.871
527.41	23.324
527.75	23.278
528.09	24.616
528.43	23.150
528.78	23.584
529.12	22.649
529.46	23.047
529.80	23.970
530.15	22.319
530.49	23.132
530.83	22.137
531.17	22.700
531.51	22.984
531.86	23.738
532.20	23.354
532.54	22.621
532.88	22.667
533.22	22.746
533.57	23.370
533.91	22.727
534.25	23.064
534.59	22.874
534.93	22.920
535.27	23.549
535.62	24.105
535.96	22.719
536.30	22.973
536.64	23.604
536.98	23.247
537.32	23.395
537.66	23.082
538.01	22.356
538.35	22.899
538.69	22.236
539.03	22.808
539.37	22.674
539.71	22.342
540.05	22.302
540.39	21.699
540.73	21.372
541.07	23.483
541.42	22.859
541.76	22.064
542.10	22.437
542.44	23.143
542.78	22.871
543.12	22.586
543.46	22.161
543.80	21.523
544.14	21.484
544.48	23.582
544.82	23.100
545.16	22.958
545.50	22.289
545.84	22.045
546.18	23.210
546.52	21.083
546.86	21.824
547.20	22.519
547.54	21.973
547.88	21.700
548.22	21.813
548.56	21.123
548.90	21.910
549.24	21.884
549.58	22.524
549.92	21.556
550.26	22.460
550.60	22.336
550.94	22.057
551.28	20.858
551.62	22.237
551.96	21.359
552.30	22.243
552.64	21.966
552.98	22.146
553.32	22.251
553.66	22.058
554.00	22.762
554.34	21.493
554.68	21.821
555.02	21.682
555.36	21.565
555.69	20.243
556.03	21.248
556.37	22.153
556.71	20.609
557.05	21.342
557.39	21.566
557.73	21.004
558.07	21.258
558.41	21.196
558.75	22.110
559.08	22.547
559.42	21.125
559.76	21.506
560.10	21.299
560.44	20.646
560.78	21.375
561.12	21.121
561.45	21.898
561.79	21.306
562.13	20.764
562.47	20.900
562.81	20.886
563.15	21.465
563.48	21.069
563.82	20.617
564.16	20.109
564.50	21.216
564.84	21.003
565.17	21.176
565.51	20.829
565.85	21.378
566.19	21.486
566.52	20.655
566.86	21.449
567.20	20.609
567.54	21.349
567.88	22.324
568.21	22.826
568.55	21.727
568.89	22.152
569.23	21.757
569.56	22.548
569.90	22.666
570.24	22.192
570.57	22.771
570.91	22.535
571.25	22.650
571.59	22.794
571.92	22.468
572.26	21.996
572.60	21.649
572.93	21.820
573.27	22.310
573.61	21.916
573.95	22.117
574.28	21.957
574.62	22.192
574.96	21.945
575.29	22.031
575.63	21.529
575.97	21.749
576.30	21.540
576.64	22.023
576.98	21.913
577.31	22.405
577.65	22.534
577.98	22.270
578.32	22.192
578.66	22.239
578.99	21.790
579.33	21.810
579.67	21.396
580.00	21.668
580.34	21.902
580.67	21.205
581.01	22.263
581.35	21.859
581.68	22.431
582.02	22.134
582.35	22.657
582.69	22.083
583.02	22.463
583.36	21.688
583.70	21.495
584.03	21.094
584.37	21.007
584.70	21.565
585.04	21.553
585.37	21.807
585.71	21.877
586.04	21.841
586.38	21.913
586.72	20.732
587.05	21.080
587.39	21.591
587.72	22.057
588.06	21.567
588.39	21.359
588.73	21.058
589.06	21.360
589.40	20.959
589.73	20.887
590.07	21.088
590.40	21.366
590.73	20.679
591.07	21.407
591.40	20.568
591.74	20.747
592.07	21.194
592.41	20.702
592.74	20.944
593.08	21.879
593.41	22.572
593.75	21.983
594.08	21.721
594.41	21.410
594.75	21.056
595.08	21.265
595.42	21.234
595.75	20.665
596.09	21.416
596.42	20.924
596.75	20.764
597.09	21.172
597.42	20.183
597.75	20.071
598.09	20.675
598.42	20.828
598.76	21.169
599.09	21.218
599.42	20.818
599.76	20.931
600.09	21.855
600.42	21.154
600.76	21.070
601.09	20.677
601.42	20.838
601.76	20.655
602.09	20.264
602.42	20.320
602.76	21.144
603.09	21.329
603.42	20.918
603.76	20.719
604.09	21.363
604.42	21.468
604.76	20.205
605.09	20.742
605.42	21.411
605.75	20.500
606.09	20.007
606.42	19.956
606.75	19.790
607.09	20.276
607.42	20.655
607.75	21.258
608.08	20.521
608.42	20.516
608.75	20.398
609.08	20.119
609.41	20.556
609.75	20.491
610.08	20.712
610.41	20.603
610.74	20.840
611.07	20.071
611.41	20.404
611.74	19.954
612.07	20.337
612.40	20.152
612.73	20.733
613.07	19.853
613.40	20.404
613.73	20.173
614.06	19.725
614.39	20.360
614.72	20.039
615.06	20.693
615.39	20.493
615.72	20.521
616.05	19.815
616.38	20.535
616.71	20.219
617.05	19.808
617.38	20.332
617.71	20.302
618.04	19.374
618.37	20.929
618.70	20.475
619.03	19.176
619.36	19.975
619.69	19.347
620.03	20.088
620.36	19.693
620.69	19.556
621.02	19.357
621.35	20.029
621.68	19.667
622.01	19.146
622.34	18.550
622.67	19.931
623.00	18.286
623.33	19.973
623.66	20.233
623.99	19.157
624.32	21.118
624.65	19.627
624.99	19.311
625.32	19.726
625.65	19.150
625.98	19.390
626.31	19.490
626.64	19.927
626.97	18.455
627.30	18.223
627.63	18.155
627.96	18.619
628.29	19.377
628.62	18.808
628.95	17.879
629.28	18.267
629.61	19.949
629.94	18.661
630.26	19.407
630.59	17.703
630.92	17.403
631.25	18.605
631.58	18.832
631.91	19.306
632.24	19.404
632.57	17.457
632.90	18.355
633.23	17.551
633.56	17.449
633.89	16.839
634.22	18.711
634.55	18.267
