SpectraSuite Data File
++++++++++++++++++++++++++++++++++++
Date: Thu May 14 16:38:26 PDT 2015
User: schluterlab
Dark Spectrum Present: Yes
Reference Spectrum Present: Yes
Number of Sampled Component Spectra: 1
Spectrometers: USB2E3373
Integration Time (usec): 3000 (USB2E3373)
Spectra Averaged: 3 (USB2E3373)
Boxcar Smoothing: 0 (USB2E3373)
Correct for Electrical Dark: No (USB2E3373)
Strobe/Lamp Enabled: No (USB2E3373)
Correct for Detector Non-linearity: No (USB2E3373)
Correct for Stray Light: No (USB2E3373)
Number of Pixels in Processed Spectrum: 2048
>>>>>Begin Processed Spectral Data<<<<<
178.53	0.000
178.91	100.000
179.29	-1300.000
179.67	-300.000
180.04	192.857
180.42	70.000
180.80	100.000
181.18	-1300.000
181.56	800.000
181.94	75.000
182.31	0.000
182.69	-33.333
183.07	-150.000
183.45	75.000
183.83	16.667
184.20	-133.333
184.58	-400.000
184.96	-150.000
185.34	11.111
185.72	-20.000
186.09	200.000
186.47	400.000
186.85	140.000
187.23	-66.667
187.61	-200.000
187.98	120.000
188.36	400.000
188.74	-300.000
189.12	-233.333
189.49	31.250
189.87	-50.000
190.25	11.111
190.63	-160.000
191.00	-166.667
191.38	0.000
191.76	-100.000
192.14	-66.667
192.51	650.000
192.89	-16.667
193.27	0.000
193.65	-57.143
194.02	-800.000
194.40	-114.286
194.78	200.000
195.15	0.000
195.53	-9.091
195.91	0.000
196.29	25.000
196.66	-7.692
197.04	-200.000
197.42	-14.286
197.79	-350.000
198.17	-87.500
198.55	-157.143
198.92	11.111
199.30	-125.000
199.68	27.273
200.05	64.286
200.43	-250.000
200.81	142.857
201.18	0.000
201.56	133.333
201.94	0.000
202.31	233.333
202.69	-133.333
203.07	-300.000
203.44	-55.556
203.82	-100.000
204.19	75.000
204.57	-100.000
204.95	-87.500
205.32	-200.000
205.70	25.000
206.08	16.667
206.45	33.333
206.83	340.000
207.20	-183.333
207.58	-180.000
207.96	50.000
208.33	33.333
208.71	100.000
209.08	66.667
209.46	0.000
209.84	183.333
210.21	100.000
210.59	250.000
210.96	300.000
211.34	-150.000
211.71	-75.000
212.09	-300.000
212.46	0.000
212.84	850.000
213.22	-220.000
213.59	-25.000
213.97	40.000
214.34	66.667
214.72	100.000
215.09	-200.000
215.47	0.000
215.84	228.571
216.22	400.000
216.59	-180.000
216.97	80.000
217.34	-275.000
217.72	-12.500
218.09	-175.000
218.47	-275.000
218.84	0.000
219.22	-60.000
219.59	-11.765
219.97	40.000
220.34	400.000
220.72	-77.778
221.09	7.692
221.47	-333.333
221.84	-20.000
222.22	-42.857
222.59	0.000
222.97	-50.000
223.34	-300.000
223.72	-700.000
224.09	-225.000
224.46	-300.000
224.84	-160.000
225.21	-157.143
225.59	-150.000
225.96	-300.000
226.34	3.846
226.71	266.667
227.08	-100.000
227.46	0.000
227.83	-250.000
228.21	26.316
228.58	112.500
228.95	400.000
229.33	-8.333
229.70	0.000
230.08	10.526
230.45	60.000
230.82	133.333
231.20	0.000
231.57	100.000
231.95	-72.727
232.32	-54.545
232.69	5.000
233.07	-150.000
233.44	17.647
233.81	0.000
234.19	16.667
234.56	4.545
234.93	20.690
235.31	-10.526
235.68	5.556
236.05	-75.000
236.43	7.692
236.80	40.000
237.17	-14.815
237.55	0.000
237.92	-110.000
238.29	-19.355
238.67	-4.545
239.04	-11.111
239.41	2.381
239.79	-4.348
240.16	-24.074
240.53	-6.522
240.91	-3.922
241.28	4.918
241.65	4.478
242.02	14.865
242.40	-18.462
242.77	-6.667
243.14	-1.220
243.51	-11.842
243.89	-7.692
244.26	6.931
244.63	4.902
245.00	8.411
245.38	8.772
245.75	-10.619
246.12	3.968
246.49	0.775
246.87	15.000
247.24	5.960
247.61	3.289
247.98	6.040
248.36	4.938
248.73	-0.613
249.10	2.186
249.47	7.463
249.84	3.665
250.22	3.627
250.59	3.333
250.96	5.000
251.33	2.041
251.70	3.419
252.08	7.083
252.45	9.426
252.82	3.719
253.19	2.344
253.56	6.464
253.94	6.154
254.31	7.197
254.68	10.140
255.05	7.166
255.42	1.701
255.79	-0.324
256.16	7.285
256.54	1.325
256.91	7.213
257.28	4.590
257.65	4.459
258.02	1.770
258.39	1.140
258.76	6.422
259.14	5.747
259.51	4.035
259.88	4.249
260.25	3.333
260.62	6.027
260.99	3.825
261.36	6.971
261.73	3.183
262.10	1.648
262.47	5.362
262.85	5.808
263.22	2.338
263.59	-1.316
263.96	6.650
264.33	1.790
264.70	2.716
265.07	4.535
265.44	7.029
265.81	2.546
266.18	5.215
266.55	4.688
266.92	1.367
267.29	5.908
267.66	4.435
268.03	4.585
268.40	3.340
268.77	1.139
269.14	1.101
269.51	4.825
269.88	5.738
270.25	5.231
270.62	3.797
270.99	4.040
271.36	5.149
271.73	2.161
272.10	4.810
272.47	4.008
272.84	5.422
273.21	2.004
273.58	2.823
273.95	1.154
274.32	2.662
274.69	3.288
275.06	5.861
275.43	2.773
275.80	2.822
276.17	1.852
276.54	3.172
276.91	2.326
277.28	4.159
277.65	3.232
278.02	3.676
278.39	1.630
278.76	3.339
279.13	3.191
279.50	3.952
279.87	3.578
280.23	2.113
280.60	4.237
280.97	3.783
281.34	3.905
281.71	4.061
282.08	5.150
282.45	3.601
282.82	2.983
283.19	3.877
283.56	2.951
283.92	5.105
284.29	5.055
284.66	3.612
285.03	2.724
285.40	4.482
285.77	2.477
286.14	4.733
286.51	3.957
286.87	3.476
287.24	3.765
287.61	3.139
287.98	3.927
288.35	4.586
288.72	5.178
289.08	7.028
289.45	6.657
289.82	3.163
290.19	5.172
290.56	4.930
290.93	5.136
291.29	5.923
291.66	3.719
292.03	5.292
292.40	8.707
292.77	4.178
293.13	5.683
293.50	4.074
293.87	3.087
294.24	6.533
294.60	7.585
294.97	5.369
295.34	5.506
295.71	4.792
296.08	5.685
296.44	4.289
296.81	5.725
297.18	4.857
297.55	5.071
297.91	5.457
298.28	4.976
298.65	6.897
299.02	6.375
299.38	6.407
299.75	7.360
300.12	5.093
300.48	4.724
300.85	6.299
301.22	6.264
301.59	5.137
301.95	6.102
302.32	7.222
302.69	6.134
303.05	6.855
303.42	7.095
303.79	5.521
304.15	5.678
304.52	6.237
304.89	7.225
305.25	7.660
305.62	7.315
305.99	6.907
306.35	7.661
306.72	7.239
307.09	6.599
307.45	8.178
307.82	7.568
308.19	7.164
308.55	8.679
308.92	7.984
309.29	8.333
309.65	7.407
310.02	7.327
310.38	7.185
310.75	8.252
311.12	8.245
311.48	7.429
311.85	7.692
312.22	7.590
312.58	9.014
312.95	7.839
313.31	9.033
313.68	8.425
314.05	9.666
314.41	9.654
314.78	8.538
315.14	8.802
315.51	8.957
315.87	9.451
316.24	9.680
316.61	9.414
316.97	9.955
317.34	9.347
317.70	10.917
318.07	10.406
318.43	10.799
318.80	11.120
319.16	9.700
319.53	8.740
319.89	9.904
320.26	12.367
320.62	10.816
320.99	10.249
321.35	10.536
321.72	11.721
322.08	10.189
322.45	10.930
322.81	10.921
323.18	10.885
323.54	11.724
323.91	12.011
324.27	11.790
324.64	12.343
325.00	10.945
325.37	12.695
325.73	12.066
326.10	11.841
326.46	12.378
326.83	13.771
327.19	13.307
327.56	12.332
327.92	12.195
328.29	12.177
328.65	11.642
329.01	12.183
329.38	13.648
329.74	13.014
330.11	13.185
330.47	13.058
330.84	13.178
331.20	14.083
331.56	12.998
331.93	13.138
332.29	13.644
332.66	13.621
333.02	12.982
333.38	12.919
333.75	12.963
334.11	13.094
334.48	12.459
334.84	13.509
335.20	13.014
335.57	13.575
335.93	12.810
336.29	12.895
336.66	12.616
337.02	12.040
337.38	12.925
337.75	11.818
338.11	12.616
338.47	13.317
338.84	13.113
339.20	11.373
339.56	11.779
339.93	11.494
340.29	12.963
340.65	12.976
341.02	12.610
341.38	12.773
341.74	12.429
342.11	12.148
342.47	10.961
342.83	12.802
343.20	12.183
343.56	12.510
343.92	12.650
344.28	13.281
344.65	12.791
345.01	12.559
345.37	12.286
345.73	11.691
346.10	11.622
346.46	11.551
346.82	11.985
347.19	12.758
347.55	12.519
347.91	12.110
348.27	11.760
348.63	11.957
349.00	11.335
349.36	11.524
349.72	11.979
350.08	12.407
350.45	11.331
350.81	12.142
351.17	11.504
351.53	12.055
351.89	12.680
352.26	12.612
352.62	11.940
352.98	11.679
353.34	11.128
353.70	12.018
354.07	12.817
354.43	11.693
354.79	11.668
355.15	11.994
355.51	12.500
355.87	11.294
356.24	12.624
356.60	12.491
356.96	12.157
357.32	12.193
357.68	11.274
358.04	11.452
358.40	10.896
358.77	11.477
359.13	11.300
359.49	11.301
359.85	12.328
360.21	11.765
360.57	11.701
360.93	11.707
361.29	12.351
361.66	11.948
362.02	13.083
362.38	11.876
362.74	12.570
363.10	12.517
363.46	12.050
363.82	12.074
364.18	11.400
364.54	11.895
364.90	12.508
365.26	10.966
365.62	12.333
365.98	11.845
366.35	12.215
366.71	11.973
367.07	11.908
367.43	12.804
367.79	12.143
368.15	12.910
368.51	12.855
368.87	12.149
369.23	12.267
369.59	12.568
369.95	12.238
370.31	13.707
370.67	12.861
371.03	12.673
371.39	12.559
371.75	12.517
372.11	12.466
372.47	12.593
372.83	13.416
373.19	12.608
373.55	12.195
373.91	12.406
374.27	13.325
374.63	13.126
374.99	12.732
375.35	13.312
375.71	13.355
376.07	13.686
376.42	13.539
376.78	13.424
377.14	13.100
377.50	12.777
377.86	14.717
378.22	13.832
378.58	13.912
378.94	14.613
379.30	13.767
379.66	13.404
380.02	13.907
380.38	14.459
380.74	14.310
381.09	14.402
381.45	14.489
381.81	14.110
382.17	14.252
382.53	14.971
382.89	14.165
383.25	14.478
383.61	14.641
383.97	14.959
384.32	14.833
384.68	14.211
385.04	15.269
385.40	15.557
385.76	15.709
386.12	14.243
386.48	14.471
386.83	15.256
387.19	14.832
387.55	14.319
387.91	15.011
388.27	15.647
388.62	15.349
388.98	14.721
389.34	15.203
389.70	15.630
390.06	15.512
390.42	15.241
390.77	15.292
391.13	15.845
391.49	15.640
391.85	14.909
392.20	15.658
392.56	15.357
392.92	15.758
393.28	16.142
393.64	15.140
393.99	16.328
394.35	16.939
394.71	15.449
395.07	15.509
395.42	16.505
395.78	17.124
396.14	16.934
396.50	16.390
396.85	16.995
397.21	16.864
397.57	16.490
397.92	17.239
398.28	15.861
398.64	16.133
399.00	15.602
399.35	15.550
399.71	16.413
400.07	16.508
400.42	16.938
400.78	16.435
401.14	16.562
401.49	16.941
401.85	16.977
402.21	17.092
402.57	17.136
402.92	17.435
403.28	16.803
403.63	16.169
403.99	16.746
404.35	16.487
404.70	17.167
405.06	16.576
405.42	16.920
405.77	17.721
406.13	17.396
406.49	17.793
406.84	17.341
407.20	16.266
407.55	17.262
407.91	17.536
408.27	17.845
408.62	17.045
408.98	17.528
409.34	17.419
409.69	18.603
410.05	17.351
410.40	17.343
410.76	18.059
411.11	18.118
411.47	18.735
411.83	18.519
412.18	18.193
412.54	18.850
412.89	17.986
413.25	17.494
413.60	17.346
413.96	18.007
414.31	17.677
414.67	17.889
415.03	17.231
415.38	18.726
415.74	18.082
416.09	17.520
416.45	17.470
416.80	17.625
417.16	17.752
417.51	18.120
417.87	18.455
418.22	18.323
418.58	18.278
418.93	18.859
419.29	18.742
419.64	17.887
420.00	18.160
420.35	18.304
420.71	18.438
421.06	18.861
421.42	19.037
421.77	18.255
422.12	18.129
422.48	18.536
422.83	17.963
423.19	18.992
423.54	18.473
423.90	17.283
424.25	18.773
424.61	18.312
424.96	18.616
425.31	19.108
425.67	18.304
426.02	18.318
426.38	18.197
426.73	18.638
427.09	19.204
427.44	18.351
427.79	18.076
428.15	18.208
428.50	19.045
428.85	18.657
429.21	19.521
429.56	18.460
429.92	18.231
430.27	19.663
430.62	18.955
430.98	18.593
431.33	18.524
431.68	17.577
432.04	19.248
432.39	18.532
432.74	18.322
433.10	18.172
433.45	17.726
433.80	18.830
434.16	19.112
434.51	18.448
434.86	19.055
435.22	18.491
435.57	19.281
435.92	18.086
436.28	18.487
436.63	19.170
436.98	18.143
437.34	19.448
437.69	18.932
438.04	18.932
438.39	18.553
438.75	19.148
439.10	19.292
439.45	18.893
439.81	18.362
440.16	19.142
440.51	18.841
440.86	19.733
441.22	19.078
441.57	18.868
441.92	19.108
442.27	19.343
442.63	19.225
442.98	18.730
443.33	19.569
443.68	20.416
444.03	19.426
444.39	19.510
444.74	20.419
445.09	19.260
445.44	19.652
445.79	19.349
446.15	19.219
446.50	19.483
446.85	18.872
447.20	19.632
447.55	19.299
447.91	18.482
448.26	19.080
448.61	19.660
448.96	19.582
449.31	19.353
449.66	19.227
450.02	19.093
450.37	19.339
450.72	19.914
451.07	18.736
451.42	20.451
451.77	18.566
452.12	19.526
452.47	19.667
452.83	19.200
453.18	19.440
453.53	18.725
453.88	18.388
454.23	19.209
454.58	19.211
454.93	20.085
455.28	19.446
455.63	19.443
455.98	20.000
456.34	19.611
456.69	18.930
457.04	19.563
457.39	19.235
457.74	19.799
458.09	19.001
458.44	19.828
458.79	19.030
459.14	19.035
459.49	19.355
459.84	20.252
460.19	19.323
460.54	19.761
460.89	19.746
461.24	18.621
461.59	20.365
461.94	18.939
462.29	19.989
462.64	18.467
462.99	19.774
463.34	18.819
463.69	18.406
464.04	19.789
464.39	19.451
464.74	19.156
465.09	18.224
465.44	19.474
465.79	19.461
466.14	19.437
466.49	19.368
466.84	19.890
467.19	19.075
467.54	18.978
467.89	19.368
468.24	19.446
468.59	18.471
468.94	18.998
469.29	19.076
469.64	18.754
469.99	18.292
470.34	19.616
470.68	18.250
471.03	19.515
471.38	18.967
471.73	18.205
472.08	19.416
472.43	18.423
472.78	18.640
473.13	18.963
473.48	19.154
473.83	19.443
474.17	19.226
474.52	18.821
474.87	18.272
475.22	19.268
475.57	19.626
475.92	18.517
476.27	18.637
476.61	19.990
476.96	18.874
477.31	19.554
477.66	19.465
478.01	18.709
478.36	19.392
478.70	19.015
479.05	18.865
479.40	19.398
479.75	19.068
480.10	19.375
480.45	19.280
480.79	19.138
481.14	19.485
481.49	19.355
481.84	19.539
482.19	19.312
482.53	19.108
482.88	19.273
483.23	19.075
483.58	18.821
483.92	18.484
484.27	19.179
484.62	18.853
484.97	19.129
485.31	18.092
485.66	18.309
486.01	18.006
486.36	18.506
486.70	19.059
487.05	19.097
487.40	18.156
487.75	18.092
488.09	18.287
488.44	18.002
488.79	18.078
489.13	18.646
489.48	18.097
489.83	17.626
490.17	18.145
490.52	17.980
490.87	18.528
491.22	17.894
491.56	18.259
491.91	18.142
492.26	18.607
492.60	17.796
492.95	18.517
493.30	18.153
493.64	17.915
493.99	17.807
494.34	17.509
494.68	17.859
495.03	17.974
495.37	17.843
495.72	17.687
496.07	18.361
496.41	17.804
496.76	17.515
497.11	17.580
497.45	17.307
497.80	18.392
498.14	18.005
498.49	18.290
498.84	17.824
499.18	17.994
499.53	17.623
499.87	17.890
500.22	17.275
500.56	17.409
500.91	16.934
501.26	18.227
501.60	16.924
501.95	17.673
502.29	17.288
502.64	17.534
502.98	17.472
503.33	17.106
503.67	16.747
504.02	17.776
504.36	17.784
504.71	17.455
505.06	17.235
505.40	17.687
505.75	17.395
506.09	17.403
506.44	17.967
506.78	17.798
507.13	18.257
507.47	18.096
507.82	17.850
508.16	17.639
508.51	16.362
508.85	17.714
509.19	17.101
509.54	17.867
509.88	16.999
510.23	18.067
510.57	17.786
510.92	17.513
511.26	16.835
511.61	16.755
511.95	16.789
512.30	17.331
512.64	16.642
512.98	17.559
513.33	17.893
513.67	17.491
514.02	17.271
514.36	18.261
514.70	18.177
515.05	17.258
515.39	17.953
515.74	17.709
516.08	17.169
516.42	17.635
516.77	17.666
517.11	16.864
517.46	17.603
517.80	18.332
518.14	18.118
518.49	18.384
518.83	17.137
519.17	17.017
519.52	17.138
519.86	18.163
520.20	17.572
520.55	18.675
520.89	16.385
521.23	17.811
521.58	17.740
521.92	18.470
522.26	16.781
522.61	17.535
522.95	17.128
523.29	17.414
523.64	17.377
523.98	17.513
524.32	17.937
524.66	17.587
525.01	17.384
525.35	17.576
525.69	16.821
526.04	16.246
526.38	16.724
526.72	16.494
527.06	17.595
527.41	17.201
527.75	17.577
528.09	17.296
528.43	16.815
528.78	16.185
529.12	16.284
529.46	16.470
529.80	16.991
530.15	16.928
530.49	15.955
530.83	17.532
531.17	16.965
531.51	15.824
531.86	17.188
532.20	16.829
532.54	17.115
532.88	17.273
533.22	16.264
533.57	16.503
533.91	17.340
534.25	17.185
534.59	16.379
534.93	16.355
535.27	16.113
535.62	16.430
535.96	16.851
536.30	15.746
536.64	16.276
536.98	15.806
537.32	15.741
537.66	16.032
538.01	15.408
538.35	16.200
538.69	17.248
539.03	16.064
539.37	16.137
539.71	15.616
540.05	16.787
540.39	16.259
540.73	14.876
541.07	15.696
541.42	15.594
541.76	15.896
542.10	15.139
542.44	15.834
542.78	16.788
543.12	15.852
543.46	15.934
543.80	15.168
544.14	15.021
544.48	15.189
544.82	15.260
545.16	15.325
545.50	15.099
545.84	14.881
546.18	15.185
546.52	15.478
546.86	14.969
547.20	15.013
547.54	15.418
547.88	14.467
548.22	14.854
548.56	14.980
548.90	14.209
549.24	14.894
549.58	15.584
549.92	13.967
550.26	14.822
550.60	14.486
550.94	15.653
551.28	13.927
551.62	15.027
551.96	15.081
552.30	14.786
552.64	14.997
552.98	14.847
553.32	15.370
553.66	14.984
554.00	14.250
554.34	14.350
554.68	14.526
555.02	13.272
555.36	14.793
555.69	13.581
556.03	13.556
556.37	14.581
556.71	13.887
557.05	13.802
557.39	13.338
557.73	13.937
558.07	13.709
558.41	15.083
558.75	14.064
559.08	13.431
559.42	13.649
559.76	14.043
560.10	13.798
560.44	13.588
560.78	14.500
561.12	14.286
561.45	14.477
561.79	13.675
562.13	13.494
562.47	13.194
562.81	13.671
563.15	14.205
563.48	13.300
563.82	13.543
564.16	13.144
564.50	13.707
564.84	12.684
565.17	13.235
565.51	13.003
565.85	13.064
566.19	12.615
566.52	13.751
566.86	12.903
567.20	13.377
567.54	13.117
567.88	13.558
568.21	13.538
568.55	12.806
568.89	13.663
569.23	12.928
569.56	12.622
569.90	12.616
570.24	13.153
570.57	12.251
570.91	12.094
571.25	12.815
571.59	12.803
571.92	12.660
572.26	12.837
572.60	12.640
572.93	12.636
573.27	12.504
573.61	12.308
573.95	12.309
574.28	12.591
574.62	12.051
574.96	11.954
575.29	12.095
575.63	11.689
575.97	12.120
576.30	11.843
576.64	12.145
576.98	12.027
577.31	12.155
577.65	12.010
577.98	11.954
578.32	11.657
578.66	12.005
578.99	11.653
579.33	11.939
579.67	11.967
580.00	11.845
580.34	12.020
580.67	11.650
581.01	11.380
581.35	11.748
581.68	11.766
582.02	11.629
582.35	11.871
582.69	11.820
583.02	11.867
583.36	11.727
583.70	11.497
584.03	11.087
584.37	11.405
584.70	11.320
585.04	11.207
585.37	11.335
585.71	11.435
586.04	11.559
586.38	11.490
586.72	11.181
587.05	11.154
587.39	11.045
587.72	11.268
588.06	11.049
588.39	11.302
588.73	11.243
589.06	10.863
589.40	11.401
589.73	10.958
590.07	11.041
590.40	11.629
590.73	11.417
591.07	11.243
591.40	10.420
591.74	10.533
592.07	11.855
592.41	10.804
592.74	11.324
593.08	10.955
593.41	11.140
593.75	10.948
594.08	10.845
594.41	11.058
594.75	10.229
595.08	10.397
595.42	10.877
595.75	11.237
596.09	11.250
596.42	11.143
596.75	10.922
597.09	11.556
597.42	10.767
597.75	10.858
598.09	10.952
598.42	11.178
598.76	10.470
599.09	10.965
599.42	10.828
599.76	10.333
600.09	10.944
600.42	10.477
600.76	10.502
601.09	10.455
601.42	10.367
601.76	10.552
602.09	10.436
602.42	10.360
602.76	10.406
603.09	10.352
603.42	10.116
603.76	9.972
604.09	11.356
604.42	10.826
604.76	9.817
605.09	10.491
605.42	10.008
605.75	9.923
606.09	10.452
606.42	10.398
606.75	9.595
607.09	9.716
607.42	10.328
607.75	10.082
608.08	9.511
608.42	10.157
608.75	9.701
609.08	10.272
609.41	9.881
609.75	10.000
610.08	10.378
610.41	10.025
610.74	10.294
611.07	10.346
611.41	9.731
611.74	10.162
612.07	10.753
612.40	9.838
612.73	9.780
613.07	10.122
613.40	9.913
613.73	9.244
614.06	9.961
614.39	8.989
614.72	10.189
615.06	9.625
615.39	9.715
615.72	9.621
616.05	10.345
616.38	10.343
616.71	10.136
617.05	9.265
617.38	10.059
617.71	10.313
618.04	9.390
618.37	10.601
618.70	9.446
619.03	10.036
619.36	9.926
619.69	10.250
620.03	9.730
620.36	8.896
620.69	9.747
621.02	9.777
621.35	9.724
621.68	9.834
622.01	9.964
622.34	8.856
622.67	8.797
623.00	8.435
623.33	10.153
623.66	9.014
623.99	8.097
624.32	10.591
624.65	9.138
624.99	9.168
625.32	10.124
625.65	9.171
625.98	9.220
626.31	9.639
626.64	10.330
626.97	9.452
627.30	9.339
627.63	9.002
627.96	9.760
628.29	8.716
628.62	8.816
628.95	9.553
629.28	8.496
629.61	9.764
629.94	8.703
630.26	8.898
630.59	9.413
630.92	9.091
631.25	9.660
631.58	10.452
631.91	8.997
632.24	7.589
632.57	8.824
632.90	9.930
633.23	10.000
633.56	9.082
633.89	9.711
634.22	7.900
634.55	9.290
634.88	8.550
635.20	10.334
635.53	10.508
635.86	8.342
636.19	9.862
636.52	9.072
636.85	8.784
637.18	8.732
637.51	8.602
637.83	9.302
638.16	9.447
638.49	9.977
638.82	9.132
639.15	8.362
639.48	8.661
