SpectraSuite Data File
++++++++++++++++++++++++++++++++++++
Date: Thu May 14 16:26:11 PDT 2015
User: schluterlab
Dark Spectrum Present: Yes
Reference Spectrum Present: Yes
Number of Sampled Component Spectra: 1
Spectrometers: USB2E3373
Integration Time (usec): 3000 (USB2E3373)
Spectra Averaged: 3 (USB2E3373)
Boxcar Smoothing: 0 (USB2E3373)
Correct for Electrical Dark: No (USB2E3373)
Strobe/Lamp Enabled: No (USB2E3373)
Correct for Detector Non-linearity: No (USB2E3373)
Correct for Stray Light: No (USB2E3373)
Number of Pixels in Processed Spectrum: 2048
>>>>>Begin Processed Spectral Data<<<<<
178.53	0.000
178.91	71.429
179.29	-1000.000
179.67	-300.000
180.04	85.714
180.42	-10.000
180.80	160.000
181.18	-200.000
181.56	500.000
181.94	-50.000
182.31	125.000
182.69	166.667
183.07	-250.000
183.45	200.000
183.83	50.000
184.20	-66.667
184.58	600.000
184.96	-50.000
185.34	-55.556
185.72	80.000
186.09	133.333
186.47	-0.000
186.85	60.000
187.23	-55.556
187.61	-700.000
187.98	60.000
188.36	100.000
188.74	50.000
189.12	-66.667
189.49	56.250
189.87	0.000
190.25	55.556
190.63	40.000
191.00	-111.111
191.38	0.000
191.76	50.000
192.14	16.667
192.51	350.000
192.89	200.000
193.27	0.000
193.65	0.000
194.02	-400.000
194.40	71.429
194.78	-14.286
195.15	0.000
195.53	36.364
195.91	0.000
196.29	0.000
196.66	-30.769
197.04	0.000
197.42	100.000
197.79	-600.000
198.17	100.000
198.55	-57.143
198.92	55.556
199.30	-25.000
199.68	63.636
200.05	57.143
200.43	-250.000
200.81	28.571
201.18	0.000
201.56	66.667
201.94	0.000
202.31	233.333
202.69	-77.778
203.07	200.000
203.44	88.889
203.82	-300.000
204.19	16.667
204.57	16.667
204.95	87.500
205.32	-300.000
205.70	-0.000
206.08	100.000
206.45	0.000
206.83	80.000
207.20	-116.667
207.58	-40.000
207.96	-216.667
208.33	33.333
208.71	75.000
209.08	200.000
209.46	0.000
209.84	100.000
210.21	-400.000
210.59	-350.000
210.96	66.667
211.34	100.000
211.71	100.000
212.09	-200.000
212.46	0.000
212.84	300.000
213.22	-180.000
213.59	125.000
213.97	100.000
214.34	-66.667
214.72	116.667
215.09	-100.000
215.47	0.000
215.84	42.857
216.22	250.000
216.59	60.000
216.97	-160.000
217.34	150.000
217.72	87.500
218.09	25.000
218.47	-75.000
218.84	0.000
219.22	-60.000
219.59	5.882
219.97	30.000
220.34	300.000
220.72	-55.556
221.09	76.923
221.47	-233.333
221.84	30.000
222.22	-71.429
222.59	0.000
222.97	62.500
223.34	-160.000
223.72	100.000
224.09	225.000
224.46	-100.000
224.84	280.000
225.21	-28.571
225.59	-100.000
225.96	-100.000
226.34	34.615
226.71	16.667
227.08	350.000
227.46	6.667
227.83	0.000
228.21	26.316
228.58	62.500
228.95	500.000
229.33	100.000
229.70	10.000
230.08	73.684
230.45	90.000
230.82	166.667
231.20	21.429
231.57	33.333
231.95	54.545
232.32	72.727
232.69	30.000
233.07	225.000
233.44	0.000
233.81	-50.000
234.19	66.667
234.56	36.364
234.93	27.586
235.31	31.579
235.68	33.333
236.05	10.000
236.43	69.231
236.80	56.000
237.17	7.407
237.55	33.333
237.92	40.000
238.29	32.258
238.67	29.545
239.04	44.444
239.41	26.190
239.79	28.261
240.16	38.889
240.53	21.739
240.91	27.451
241.28	34.426
241.65	52.239
242.02	31.081
242.40	35.385
242.77	21.333
243.14	25.610
243.51	23.684
243.89	43.590
244.26	38.614
244.63	31.373
245.00	32.710
245.38	35.965
245.75	28.319
246.12	30.952
246.49	28.682
246.87	40.714
247.24	35.762
247.61	32.895
247.98	31.544
248.36	39.506
248.73	30.675
249.10	30.601
249.47	37.313
249.84	36.649
250.22	32.124
250.59	35.000
250.96	42.273
251.33	33.673
251.70	33.761
252.08	34.583
252.45	31.148
252.82	33.058
253.19	30.859
253.56	33.080
253.94	35.385
254.31	36.742
254.68	39.510
255.05	34.853
255.42	34.354
255.79	26.861
256.16	34.768
256.54	31.788
256.91	32.787
257.28	30.164
257.65	33.758
258.02	30.678
258.39	33.903
258.76	36.391
259.14	36.782
259.51	32.853
259.88	31.445
260.25	34.167
260.62	31.233
260.99	34.699
261.36	34.584
261.73	31.034
262.10	35.165
262.47	32.976
262.85	35.606
263.22	31.948
263.59	32.105
263.96	34.271
264.33	34.271
264.70	33.333
265.07	34.368
265.44	40.816
265.81	34.722
266.18	36.961
266.55	34.821
266.92	31.891
267.29	37.856
267.66	33.481
268.03	33.843
268.40	35.699
268.77	34.169
269.14	33.700
269.51	33.114
269.88	32.787
270.25	33.803
270.62	34.810
270.99	36.970
271.36	35.644
271.73	34.185
272.10	34.068
272.47	33.066
272.84	33.133
273.21	35.070
273.58	35.282
273.95	30.962
274.32	34.030
274.69	33.656
275.06	33.883
275.43	34.196
275.80	32.275
276.17	33.889
276.54	34.328
276.91	32.379
277.28	32.188
277.65	33.752
278.02	34.743
278.39	32.246
278.76	32.865
279.13	32.624
279.50	31.100
279.87	32.021
280.23	30.458
280.60	32.712
280.97	33.717
281.34	32.937
281.71	34.349
282.08	31.229
282.45	31.588
282.82	31.083
283.19	30.856
283.56	30.820
283.92	31.081
284.29	32.701
284.66	34.319
285.03	30.128
285.40	32.457
285.77	31.734
286.14	33.588
286.51	30.137
286.87	29.068
287.24	30.572
287.61	30.643
287.98	30.967
288.35	31.805
288.72	29.882
289.08	31.332
289.45	29.438
289.82	29.669
290.19	28.592
290.56	29.718
290.93	28.388
291.29	29.339
291.66	28.926
292.03	28.494
292.40	28.844
292.77	27.358
293.13	27.470
293.50	26.150
293.87	26.980
294.24	28.800
294.60	26.549
294.97	25.772
295.34	26.504
295.71	25.977
296.08	25.969
296.44	24.387
296.81	26.066
297.18	25.778
297.55	24.882
297.91	26.572
298.28	24.289
298.65	25.803
299.02	25.502
299.38	24.600
299.75	24.650
300.12	23.843
300.48	23.157
300.85	24.297
301.22	23.937
301.59	24.429
301.95	25.537
302.32	24.222
302.69	23.439
303.05	24.048
303.42	23.836
303.79	23.646
304.15	23.659
304.52	23.256
304.89	24.398
305.25	23.810
305.62	23.302
305.99	22.990
306.35	22.581
306.72	23.992
307.09	22.640
307.45	24.741
307.82	23.814
308.19	23.411
308.55	23.337
308.92	24.148
309.29	22.797
309.65	22.417
310.02	23.465
310.38	23.917
310.75	22.136
311.12	23.011
311.48	22.776
311.85	23.362
312.22	22.201
312.58	22.723
312.95	21.797
313.31	23.306
313.68	23.168
314.05	24.481
314.41	22.769
314.78	22.797
315.14	22.958
315.51	23.730
315.87	23.582
316.24	23.105
316.61	23.535
316.97	22.986
317.34	22.928
317.70	23.668
318.07	24.162
318.43	23.980
318.80	25.669
319.16	24.206
319.53	22.622
319.89	23.313
320.26	24.644
320.62	23.848
320.99	24.469
321.35	24.861
321.72	26.977
322.08	25.969
322.45	25.745
322.81	26.805
323.18	27.080
323.54	25.776
323.91	26.868
324.27	26.850
324.64	26.784
325.00	27.363
325.37	27.764
325.73	28.430
326.10	28.548
326.46	29.397
326.83	30.584
327.19	29.055
327.56	29.881
327.92	29.504
328.29	29.758
328.65	30.151
329.01	30.964
329.38	31.087
329.74	31.507
330.11	33.134
330.47	31.508
330.84	31.611
331.20	32.833
331.56	32.929
331.93	32.971
332.29	32.627
332.66	33.306
333.02	33.082
333.38	33.138
333.75	32.492
334.11	33.611
334.48	34.736
334.84	34.579
335.20	33.669
335.57	33.727
335.93	32.975
336.29	33.860
336.66	33.810
337.02	32.860
337.38	33.929
337.75	33.140
338.11	34.483
338.47	34.326
338.84	34.179
339.20	34.035
339.56	32.867
339.93	33.908
340.29	33.816
340.65	32.603
341.02	34.318
341.38	34.276
341.74	33.656
342.11	33.467
342.47	33.519
342.83	34.702
343.20	34.914
343.56	34.804
343.92	33.147
344.28	33.281
344.65	33.566
345.01	34.009
345.37	33.359
345.73	32.814
346.10	33.931
346.46	34.494
346.82	34.082
347.19	33.308
347.55	33.687
347.91	33.655
348.27	32.246
348.63	34.653
349.00	33.333
349.36	34.126
349.72	32.738
350.08	33.432
350.45	34.601
350.81	32.805
351.17	33.233
351.53	34.041
351.89	33.789
352.26	34.701
352.62	34.104
352.98	34.504
353.34	32.636
353.70	33.282
354.07	33.756
354.43	34.169
354.79	33.657
355.15	33.628
355.51	33.041
355.87	34.331
356.24	34.753
356.60	34.220
356.96	33.951
357.32	33.755
357.68	32.357
358.04	33.458
358.40	34.179
358.77	33.260
359.13	33.973
359.49	33.680
359.85	34.663
360.21	33.716
360.57	33.022
360.93	34.697
361.29	34.175
361.66	34.468
362.02	34.447
362.38	33.732
362.74	34.218
363.10	34.594
363.46	34.003
363.82	35.014
364.18	35.398
364.54	35.339
364.90	35.385
365.26	34.828
365.62	33.667
365.98	34.513
366.35	34.698
366.71	35.374
367.07	36.130
367.43	33.880
367.79	35.501
368.15	36.120
368.51	35.453
368.87	34.879
369.23	34.067
369.59	35.041
369.95	35.294
370.31	35.652
370.67	34.801
371.03	36.773
371.39	35.057
371.75	36.176
372.11	36.179
372.47	35.748
372.83	35.406
373.19	35.357
373.55	36.043
373.91	36.333
374.27	36.999
374.63	36.536
374.99	36.472
375.35	36.883
375.71	36.645
376.07	35.894
376.42	36.965
376.78	37.104
377.14	35.558
377.50	37.318
377.86	37.808
378.22	36.886
378.58	37.337
378.94	37.793
379.30	37.668
379.66	37.625
380.02	38.430
380.38	38.594
380.74	37.690
381.09	38.908
381.45	38.466
381.81	39.696
382.17	38.242
382.53	37.953
382.89	38.375
383.25	39.156
383.61	39.699
383.97	38.987
384.32	39.833
384.68	38.921
385.04	39.734
385.40	40.012
385.76	41.325
386.12	40.634
386.48	40.471
386.83	40.465
387.19	40.151
387.55	39.730
387.91	39.498
388.27	41.397
388.62	40.836
388.98	39.820
389.34	40.837
389.70	42.301
390.06	41.681
390.42	41.084
390.77	42.384
391.13	42.254
391.49	42.452
391.85	42.061
392.20	42.645
392.56	42.646
392.92	41.494
393.28	42.178
393.64	41.620
393.99	42.417
394.35	43.808
394.71	42.754
395.07	43.353
395.42	42.490
395.78	44.241
396.14	43.553
396.50	42.874
396.85	43.053
397.21	43.195
397.57	44.052
397.92	44.330
398.28	42.966
398.64	45.080
399.00	42.251
399.35	44.084
399.71	44.348
400.07	45.312
400.42	44.529
400.78	44.444
401.14	45.248
401.49	45.196
401.85	45.872
402.21	45.075
402.57	45.657
402.92	46.158
403.28	44.965
403.63	46.122
403.99	45.428
404.35	44.628
404.70	45.779
405.06	45.489
405.42	46.253
405.77	46.292
406.13	47.218
406.49	48.029
406.84	46.482
407.20	47.233
407.55	48.213
407.91	47.643
408.27	47.232
408.62	47.586
408.98	47.127
409.34	47.097
409.69	47.837
410.05	48.183
410.40	49.188
410.76	48.458
411.11	48.510
411.47	48.956
411.83	49.148
412.18	49.096
412.54	50.267
412.89	50.407
413.25	49.887
413.60	49.397
413.96	49.942
414.31	49.632
414.67	49.791
415.03	50.338
415.38	50.441
415.74	50.397
416.09	51.326
416.45	49.781
416.80	48.960
417.16	51.405
417.51	51.806
417.87	51.625
418.22	52.335
418.58	52.602
418.93	52.095
419.29	52.836
419.64	52.581
420.00	52.878
420.35	53.229
420.71	52.958
421.06	53.076
421.42	53.268
421.77	52.450
422.12	53.436
422.48	54.173
422.83	55.257
423.19	55.279
423.54	56.527
423.90	55.273
424.25	55.147
424.61	54.822
424.96	55.189
425.31	55.679
425.67	55.770
426.02	57.609
426.38	55.970
426.73	56.306
427.09	58.247
427.44	56.690
427.79	57.214
428.15	56.279
428.50	59.157
428.85	57.405
429.21	58.883
429.56	58.391
429.92	57.396
430.27	58.458
430.62	57.938
430.98	58.928
431.33	57.918
431.68	57.663
432.04	59.116
432.39	58.811
432.74	57.648
433.10	60.844
433.45	58.696
433.80	59.496
434.16	60.124
434.51	60.586
434.86	62.106
435.22	60.627
435.57	60.495
435.92	61.269
436.28	61.889
436.63	61.879
436.98	60.601
437.34	61.838
437.69	60.925
438.04	61.185
438.39	61.401
438.75	60.985
439.10	62.949
439.45	61.934
439.81	61.751
440.16	61.340
440.51	62.319
440.86	61.701
441.22	62.058
441.57	62.945
441.92	62.270
442.27	64.394
442.63	63.189
442.98	63.394
443.33	63.388
443.68	62.587
444.03	65.005
444.39	63.615
444.74	63.757
445.09	63.913
445.44	64.173
445.79	64.224
446.15	64.954
446.50	64.444
446.85	64.397
447.20	63.830
447.55	64.854
447.91	65.079
448.26	65.222
448.61	64.665
448.96	65.773
449.31	64.422
449.66	64.706
450.02	64.662
450.37	64.624
450.72	64.316
451.07	64.977
451.42	65.165
451.77	65.147
452.12	65.914
452.47	65.003
452.83	67.005
453.18	64.682
453.53	64.790
453.88	64.605
454.23	65.424
454.58	67.266
454.93	65.655
455.28	66.406
455.63	65.605
455.98	65.475
456.34	65.724
456.69	65.432
457.04	65.957
457.39	66.685
457.74	66.723
458.09	65.349
458.44	67.188
458.79	64.518
459.14	65.233
459.49	66.553
459.84	66.002
460.19	64.520
460.54	66.383
460.89	67.549
461.24	67.011
461.59	65.468
461.94	66.058
462.29	66.069
462.64	65.057
462.99	67.294
463.34	67.748
463.69	66.882
464.04	67.148
464.39	65.863
464.74	63.968
465.09	66.436
465.44	66.470
465.79	66.579
466.14	65.086
466.49	65.842
466.84	67.163
467.19	67.341
467.54	65.276
467.89	65.402
468.24	65.540
468.59	66.474
468.94	66.608
469.29	65.927
469.64	67.196
469.99	67.304
470.34	66.584
470.68	67.532
471.03	68.566
471.38	66.972
471.73	68.010
472.08	68.211
472.43	65.503
472.78	65.869
473.13	66.814
473.48	67.130
473.83	68.485
474.17	66.354
474.52	68.130
474.87	66.002
475.22	67.662
475.57	66.407
475.92	66.501
476.27	66.400
476.61	65.265
476.96	66.945
477.31	66.386
477.66	66.684
478.01	66.345
478.36	65.155
478.70	66.404
479.05	68.303
479.40	66.683
479.75	66.523
480.10	65.988
480.45	66.272
480.79	65.397
481.14	66.452
481.49	66.924
481.84	66.710
482.19	67.183
482.53	67.643
482.88	67.479
483.23	67.808
483.58	66.419
483.92	65.691
484.27	65.919
484.62	65.924
484.97	65.358
485.31	66.174
485.66	63.057
486.01	61.588
486.36	62.896
486.70	64.900
487.05	67.215
487.40	65.266
487.75	65.064
488.09	66.188
488.44	65.166
488.79	66.003
489.13	66.474
489.48	66.835
489.83	65.473
490.17	65.249
490.52	65.805
490.87	66.074
491.22	67.634
491.56	66.510
491.91	66.245
492.26	66.292
492.60	66.113
492.95	65.292
493.30	65.621
493.64	67.105
493.99	66.096
494.34	67.204
494.68	66.338
495.03	66.388
495.37	66.356
495.72	66.168
496.07	66.652
496.41	65.766
496.76	66.013
497.11	66.879
497.45	65.688
497.80	65.260
498.14	66.803
498.49	66.222
498.84	66.225
499.18	66.172
499.53	66.368
499.87	64.923
500.22	64.515
500.56	66.172
500.91	66.316
501.26	67.045
501.60	66.107
501.95	65.436
502.29	65.336
502.64	65.457
502.98	64.840
503.33	65.227
503.67	65.504
504.02	65.981
504.36	67.382
504.71	66.238
505.06	65.757
505.40	66.179
505.75	66.257
506.09	65.930
506.44	67.688
506.78	66.881
507.13	66.252
507.47	66.509
507.82	66.667
508.16	66.444
508.51	66.807
508.85	67.407
509.19	66.177
509.54	67.195
509.88	66.051
510.23	67.897
510.57	67.279
510.92	66.134
511.26	66.619
511.61	65.234
511.95	65.739
512.30	66.174
512.64	65.917
512.98	66.733
513.33	67.087
513.67	67.976
514.02	68.625
514.36	69.207
514.70	68.646
515.05	68.874
515.39	68.136
515.74	67.709
516.08	67.301
516.42	68.184
516.77	68.244
517.11	67.973
517.46	69.936
517.80	68.840
518.14	68.770
518.49	68.709
518.83	67.270
519.17	68.605
519.52	67.715
519.86	67.899
520.20	68.264
520.55	68.018
520.89	69.820
521.23	68.063
521.58	68.644
521.92	69.802
522.26	68.156
522.61	69.271
522.95	68.973
523.29	69.138
523.64	68.946
523.98	69.709
524.32	69.799
524.66	69.266
525.01	68.290
525.35	69.673
525.69	68.213
526.04	67.910
526.38	69.598
526.72	67.820
527.06	71.085
527.41	69.271
527.75	70.071
528.09	69.894
528.43	69.686
528.78	68.902
529.12	68.979
529.46	68.184
529.80	68.135
530.15	68.174
530.49	69.514
530.83	69.481
531.17	68.638
531.51	69.735
531.86	69.471
532.20	69.573
532.54	68.043
532.88	68.303
533.22	67.943
533.57	68.898
533.91	67.340
534.25	68.344
534.59	69.023
534.93	67.968
535.27	67.099
535.62	69.301
535.96	68.274
536.30	69.036
536.64	68.048
536.98	69.188
537.32	68.951
537.66	69.058
538.01	66.103
538.35	66.809
538.69	67.849
539.03	68.547
539.37	66.431
539.71	67.207
540.05	68.765
540.39	68.399
540.73	67.577
541.07	68.424
541.42	66.037
541.76	66.074
542.10	67.672
542.44	67.661
542.78	68.856
543.12	67.819
543.46	68.193
543.80	66.067
544.14	66.547
544.48	67.849
544.82	68.402
545.16	67.501
545.50	67.765
545.84	67.851
546.18	67.963
546.52	67.197
546.86	67.736
547.20	68.893
547.54	67.853
547.88	67.330
548.22	66.374
548.56	66.589
548.90	66.388
549.24	67.781
549.58	67.256
549.92	67.028
550.26	68.867
550.60	66.752
550.94	68.111
551.28	68.119
551.62	69.070
551.96	65.049
552.30	68.388
552.64	68.886
552.98	66.563
553.32	69.068
553.66	69.132
554.00	68.096
554.34	66.924
554.68	66.495
555.02	66.623
555.36	67.719
555.69	66.496
556.03	66.015
556.37	66.583
556.71	66.836
557.05	66.901
557.39	67.618
557.73	67.503
558.07	65.894
558.41	68.239
558.75	67.275
559.08	69.033
559.42	67.215
559.76	66.825
560.10	67.716
560.44	67.084
560.78	66.938
561.12	66.810
561.45	67.762
561.79	67.216
562.13	65.558
562.47	65.475
562.81	66.013
563.15	66.604
563.48	65.009
563.82	66.264
564.16	65.294
564.50	65.435
564.84	65.841
565.17	66.647
565.51	64.442
565.85	65.499
566.19	64.574
566.52	66.004
566.86	64.290
567.20	64.872
567.54	65.003
567.88	65.087
568.21	64.476
568.55	63.453
568.89	63.504
569.23	62.695
569.56	62.134
569.90	61.618
570.24	62.192
570.57	61.931
570.91	61.329
571.25	60.515
571.59	60.952
571.92	59.941
572.26	60.614
572.60	60.115
572.93	59.115
573.27	60.579
573.61	59.899
573.95	59.602
574.28	59.192
574.62	59.391
574.96	58.139
575.29	58.647
575.63	58.512
575.97	59.593
576.30	58.179
576.64	58.435
576.98	57.859
577.31	59.417
577.65	58.584
577.98	58.001
578.32	57.750
578.66	57.256
578.99	57.895
579.33	59.115
579.67	57.888
580.00	58.463
580.34	58.508
580.67	58.363
581.01	58.005
581.35	57.919
581.68	57.320
582.02	57.068
582.35	58.007
582.69	58.074
583.02	58.232
583.36	58.431
583.70	58.896
584.03	58.555
584.37	58.578
584.70	57.873
585.04	58.126
585.37	57.623
585.71	57.519
586.04	57.926
586.38	57.776
586.72	58.310
587.05	58.762
587.39	58.315
587.72	58.517
588.06	58.341
588.39	58.601
588.73	57.646
589.06	57.872
589.40	59.588
589.73	59.062
590.07	59.085
590.40	59.533
590.73	58.819
591.07	60.164
591.40	59.059
591.74	59.698
592.07	59.886
592.41	59.306
592.74	58.218
593.08	59.076
593.41	58.618
593.75	57.500
594.08	59.285
594.41	58.045
594.75	58.253
595.08	58.950
595.42	58.961
595.75	58.831
596.09	59.505
596.42	58.796
596.75	58.896
597.09	59.313
597.42	58.204
597.75	58.448
598.09	57.659
598.42	58.625
598.76	58.579
599.09	57.351
599.42	56.453
599.76	56.685
600.09	57.357
600.42	57.624
600.76	57.299
601.09	56.854
601.42	56.986
601.76	57.414
602.09	57.219
602.42	57.179
602.76	57.786
603.09	58.113
603.42	57.623
603.76	56.589
604.09	58.765
604.42	58.092
604.76	56.963
605.09	57.758
605.42	58.054
605.75	57.308
606.09	56.364
606.42	55.527
606.75	56.297
607.09	56.336
607.42	55.684
607.75	57.054
608.08	56.709
608.42	56.671
608.75	56.426
609.08	56.919
609.41	56.771
609.75	57.277
610.08	56.816
610.41	56.797
610.74	56.008
611.07	57.771
611.41	56.906
611.74	58.106
612.07	57.784
612.40	56.939
612.73	57.457
613.07	56.773
613.40	56.064
613.73	56.668
614.06	57.164
614.39	57.240
614.72	56.186
615.06	56.256
615.39	55.969
615.72	56.066
616.05	55.949
616.38	57.366
616.71	57.158
617.05	56.496
617.38	56.126
617.71	56.965
618.04	56.881
618.37	58.306
618.70	57.749
619.03	57.527
619.36	57.830
619.69	58.360
620.03	56.748
620.36	56.564
620.69	55.891
621.02	57.940
621.35	59.434
621.68	59.002
622.01	58.149
622.34	57.601
622.67	57.663
623.00	56.613
623.33	58.328
623.66	58.236
623.99	57.406
624.32	57.570
624.65	56.885
624.99	58.062
625.32	57.805
625.65	56.979
625.98	57.559
626.31	56.768
626.64	58.681
626.97	57.239
627.30	58.087
627.63	58.065
627.96	57.282
628.29	58.366
628.62	59.026
628.95	58.896
629.28	59.133
629.61	58.165
629.94	57.238
630.26	57.288
630.59	58.204
630.92	58.442
631.25	58.497
631.58	61.017
631.91	58.669
632.24	60.038
632.57	58.918
632.90	58.877
633.23	59.490
633.56	58.265
633.89	58.368
634.22	59.979
634.55	59.916
