SpectraSuite Data File
++++++++++++++++++++++++++++++++++++
Date: Thu May 14 16:23:03 PDT 2015
User: schluterlab
Dark Spectrum Present: Yes
Reference Spectrum Present: Yes
Number of Sampled Component Spectra: 1
Spectrometers: USB2E3373
Integration Time (usec): 3000 (USB2E3373)
Spectra Averaged: 3 (USB2E3373)
Boxcar Smoothing: 0 (USB2E3373)
Correct for Electrical Dark: No (USB2E3373)
Strobe/Lamp Enabled: No (USB2E3373)
Correct for Detector Non-linearity: No (USB2E3373)
Correct for Stray Light: No (USB2E3373)
Number of Pixels in Processed Spectrum: 2048
>>>>>Begin Processed Spectral Data<<<<<
178.53	0.000
178.91	114.286
179.29	-1500.000
179.67	-1700.000
180.04	171.429
180.42	40.000
180.80	220.000
181.18	-900.000
181.56	400.000
181.94	100.000
182.31	-100.000
182.69	100.000
183.07	-150.000
183.45	150.000
183.83	-33.333
184.20	-200.000
184.58	200.000
184.96	-150.000
185.34	0.000
185.72	0.000
186.09	255.556
186.47	350.000
186.85	300.000
187.23	-233.333
187.61	-600.000
187.98	280.000
188.36	225.000
188.74	75.000
189.12	-33.333
189.49	31.250
189.87	-100.000
190.25	0.000
190.63	80.000
191.00	-188.889
191.38	0.000
191.76	-250.000
192.14	-16.667
192.51	100.000
192.89	-83.333
193.27	0.000
193.65	-85.714
194.02	-2400.000
194.40	-242.857
194.78	300.000
195.15	0.000
195.53	-90.909
195.91	0.000
196.29	-75.000
196.66	23.077
197.04	-900.000
197.42	-85.714
197.79	-150.000
198.17	-62.500
198.55	-57.143
198.92	-88.889
199.30	-162.500
199.68	-45.455
200.05	7.143
200.43	-500.000
200.81	171.429
201.18	0.000
201.56	111.111
201.94	0.000
202.31	600.000
202.69	-77.778
203.07	500.000
203.44	-33.333
203.82	-475.000
204.19	-100.000
204.57	-16.667
204.95	-37.500
205.32	-200.000
205.70	25.000
206.08	-50.000
206.45	0.000
206.83	360.000
207.20	-66.667
207.58	-320.000
207.96	-16.667
208.33	-50.000
208.71	41.667
209.08	150.000
209.46	0.000
209.84	216.667
210.21	800.000
210.59	500.000
210.96	466.667
211.34	-225.000
211.71	12.500
212.09	-1700.000
212.46	0.000
212.84	700.000
213.22	-260.000
213.59	-225.000
213.97	-10.000
214.34	333.333
214.72	250.000
215.09	-425.000
215.47	0.000
215.84	57.143
216.22	850.000
216.59	-60.000
216.97	-100.000
217.34	125.000
217.72	-87.500
218.09	-450.000
218.47	-125.000
218.84	0.000
219.22	240.000
219.59	-23.529
219.97	-15.000
220.34	900.000
220.72	-122.222
221.09	-46.154
221.47	-600.000
221.84	-130.000
222.22	-57.143
222.59	0.000
222.97	75.000
223.34	-80.000
223.72	-1300.000
224.09	-200.000
224.46	-300.000
224.84	-140.000
225.21	-157.143
225.59	-325.000
225.96	-375.000
226.34	-7.692
226.71	250.000
227.08	50.000
227.46	-13.333
227.83	-25.000
228.21	36.842
228.58	25.000
228.95	450.000
229.33	25.000
229.70	-90.000
230.08	21.053
230.45	110.000
230.82	-166.667
231.20	-21.429
231.57	-25.000
231.95	-45.455
232.32	-9.091
232.69	5.000
233.07	-100.000
233.44	-41.176
233.81	-160.000
234.19	0.000
234.56	0.000
234.93	-13.793
235.31	-47.368
235.68	-11.111
236.05	-100.000
236.43	-19.231
236.80	40.000
237.17	-29.630
237.55	-18.182
237.92	-110.000
238.29	-29.032
238.67	0.000
239.04	-22.222
239.41	-23.810
239.79	-19.565
240.16	-18.519
240.53	-32.609
240.91	-23.529
241.28	-11.475
241.65	0.000
242.02	6.757
242.40	-29.231
242.77	-14.667
243.14	-10.976
243.51	-22.368
243.89	-15.385
244.26	-2.970
244.63	-6.863
245.00	-1.869
245.38	-7.018
245.75	-12.389
246.12	0.794
246.49	-10.078
246.87	-2.857
247.24	0.662
247.61	-3.289
247.98	-12.081
248.36	-4.321
248.73	-10.429
249.10	-3.825
249.47	4.478
249.84	3.141
250.22	-6.736
250.59	-5.000
250.96	-0.455
251.33	-9.694
251.70	-2.564
252.08	0.000
252.45	-1.230
252.82	-1.240
253.19	-3.516
253.56	-5.703
253.94	-4.615
254.31	0.379
254.68	0.350
255.05	-0.977
255.42	-2.041
255.79	-3.236
256.16	0.000
256.54	-6.291
256.91	-0.656
257.28	-2.295
257.65	-2.866
258.02	-5.900
258.39	-1.425
258.76	-0.612
259.14	-4.023
259.51	-5.764
259.88	-3.683
260.25	-3.611
260.62	-0.548
260.99	-1.366
261.36	-0.804
261.73	-2.918
262.10	-3.846
262.47	-1.609
262.85	2.273
263.22	-3.636
263.59	-7.368
263.96	-1.790
264.33	-3.836
264.70	-1.728
265.07	-1.909
265.44	2.494
265.81	0.231
266.18	-1.814
266.55	-0.893
266.92	-3.189
267.29	0.219
267.66	-1.996
268.03	-1.092
268.40	-1.253
268.77	-5.011
269.14	-2.863
269.51	-1.535
269.88	1.844
270.25	1.408
270.62	-1.899
270.99	0.202
271.36	-0.396
271.73	0.196
272.10	-0.200
272.47	0.000
272.84	-1.406
273.21	-1.603
273.58	-1.210
273.95	-0.769
274.32	-1.521
274.69	-1.547
275.06	0.549
275.43	-1.479
275.80	-0.353
276.17	-2.037
276.54	-1.493
276.91	-1.789
277.28	-1.989
277.65	-0.898
278.02	-0.551
278.39	-2.899
278.76	-1.933
279.13	-0.887
279.50	1.718
279.87	0.716
280.23	-4.401
280.60	-1.186
280.97	-2.303
281.34	-2.547
281.71	-0.338
282.08	-0.664
282.45	-2.782
282.82	0.314
283.19	-1.939
283.56	-1.967
283.92	1.652
284.29	-0.632
284.66	-1.314
285.03	-3.205
285.40	0.309
285.77	-1.858
286.14	1.069
286.51	-0.913
286.87	-2.054
287.24	-0.301
287.61	-0.897
287.98	-1.813
288.35	-1.479
288.72	-0.444
289.08	-0.293
289.45	-0.592
289.82	-0.753
290.19	-1.724
290.56	0.141
290.93	-1.427
291.29	-0.275
291.66	-2.204
292.03	-1.221
292.40	-0.544
292.77	-1.213
293.13	-0.677
293.50	-1.445
293.87	-1.074
294.24	1.200
294.60	-0.885
294.97	-2.416
295.34	0.896
295.71	-1.135
296.08	-0.388
296.44	-0.735
296.81	0.000
297.18	-0.374
297.55	-1.533
297.91	-1.661
298.28	-1.777
298.65	-0.357
299.02	-0.945
299.38	-1.030
299.75	-0.350
300.12	-1.620
300.48	-0.806
300.85	0.112
301.22	0.559
301.59	0.000
301.95	-1.243
302.32	0.000
302.69	-0.767
303.05	-0.544
303.42	-0.222
303.79	-0.625
304.15	-0.736
304.52	-0.529
304.89	-0.209
305.25	0.621
305.62	-0.104
305.99	-0.206
306.35	-1.613
306.72	-1.138
307.09	-0.914
307.45	0.000
307.82	-1.110
308.19	-0.101
308.55	0.482
308.92	-0.487
309.29	0.862
309.65	-0.877
310.02	-0.891
310.38	-0.591
310.75	-0.680
311.12	-0.192
311.48	-1.271
311.85	-1.045
312.22	-0.759
312.58	-0.751
312.95	-0.574
313.31	-0.452
313.68	0.824
314.05	-0.632
314.41	0.000
314.78	-0.272
315.14	-0.272
315.51	0.554
315.87	0.090
316.24	0.365
316.61	0.444
316.97	-1.176
317.34	-0.794
317.70	0.087
318.07	-0.529
318.43	-0.085
318.80	1.171
319.16	-0.086
319.53	-1.714
319.89	-1.139
320.26	0.089
320.62	-1.064
320.99	-1.016
321.35	-0.647
321.72	0.186
322.08	-0.812
322.45	-1.355
322.81	-0.542
323.18	-0.973
323.54	-0.690
323.91	-0.623
324.27	0.000
324.64	0.756
325.00	-0.995
325.37	-0.328
325.73	0.496
326.10	0.406
326.46	-0.081
326.83	0.480
327.19	0.551
327.56	0.079
327.92	-0.079
328.29	-0.806
328.65	-1.005
329.01	-0.677
329.38	0.337
329.74	0.514
330.11	0.514
330.47	-0.927
330.84	-0.775
331.20	0.417
331.56	-0.693
331.93	-0.335
332.29	-0.847
332.66	-0.249
333.02	0.000
333.38	-0.336
333.75	-0.673
334.11	0.000
334.48	0.330
334.84	-0.170
335.20	-0.840
335.57	0.590
335.93	0.496
336.29	-0.666
336.66	-0.841
337.02	-0.167
337.38	0.340
337.75	-0.579
338.11	-0.084
338.47	0.579
338.84	-0.677
339.20	-0.927
339.56	0.082
339.93	0.082
340.29	1.208
340.65	0.243
341.02	0.958
341.38	0.081
341.74	-0.646
342.11	0.563
342.47	-0.477
342.83	0.644
343.20	-0.082
343.56	-0.401
343.92	0.320
344.28	0.391
344.65	0.620
345.01	0.312
345.37	0.933
345.73	-0.156
346.10	0.468
346.46	-0.237
346.82	1.273
347.19	0.688
347.55	0.910
347.91	0.520
348.27	-0.455
348.63	0.990
349.00	0.224
349.36	0.446
349.72	-0.372
350.08	0.966
350.45	0.000
350.81	-0.075
351.17	-0.150
351.53	-0.152
351.89	0.380
352.26	0.000
352.62	-0.075
352.98	0.382
353.34	-0.672
353.70	-0.693
354.07	-0.522
354.43	-0.607
354.79	-0.524
355.15	0.074
355.51	0.877
355.87	-0.524
356.24	0.000
356.60	-0.222
356.96	-0.667
357.32	-0.520
357.68	-0.732
358.04	-0.150
358.40	-0.597
358.77	0.512
359.13	-0.739
359.49	-1.487
359.85	-0.725
360.21	-0.287
360.57	-0.359
360.93	-0.776
361.29	0.070
361.66	-0.941
362.02	0.696
362.38	0.070
362.74	-0.279
363.10	-0.275
363.46	-0.693
363.82	-0.426
364.18	-0.915
364.54	-0.415
364.90	0.870
365.26	-0.552
365.62	0.133
365.98	0.272
366.35	-0.134
366.71	-0.408
367.07	0.068
367.43	-0.066
367.79	0.332
368.15	0.067
368.51	-0.135
368.87	0.065
369.23	0.400
369.59	-0.546
369.95	0.270
370.31	0.135
370.67	-0.344
371.03	-0.693
371.39	-0.269
371.75	0.275
372.11	-0.068
372.47	0.542
372.83	0.000
373.19	1.134
373.55	-0.949
373.91	0.000
374.27	0.776
374.63	-0.203
374.99	-0.531
375.35	0.909
375.71	0.000
376.07	-0.646
376.42	0.063
376.78	0.559
377.14	0.686
377.50	-0.443
377.86	0.431
378.22	-0.778
378.58	-0.238
378.94	0.176
379.30	0.059
379.66	-0.294
380.02	0.058
380.38	0.115
380.74	-0.113
381.09	-0.116
381.45	0.057
381.81	0.468
382.17	0.119
382.53	0.058
382.89	0.508
383.25	0.293
383.61	-0.637
383.97	-1.119
384.32	-0.179
384.68	-0.580
385.04	0.231
385.40	0.354
385.76	0.234
386.12	-0.539
386.48	-0.235
386.83	0.596
387.19	-0.695
387.55	-0.528
387.91	-0.571
388.27	0.577
388.62	0.229
388.98	0.564
389.34	0.000
389.70	0.174
390.06	0.414
390.42	0.060
390.77	0.963
391.13	-0.117
391.49	0.121
391.85	-0.485
392.20	-0.652
392.56	0.059
392.92	0.382
393.28	0.829
393.64	-0.112
393.99	0.349
394.35	-0.292
394.71	0.240
395.07	-0.778
395.42	0.685
395.78	0.122
396.14	0.535
396.50	-0.475
396.85	0.060
397.21	-0.592
397.57	-0.236
397.92	0.172
398.28	-0.598
398.64	-0.286
399.00	0.157
399.35	0.524
399.71	-0.435
400.07	0.056
400.42	0.116
400.78	-0.116
401.14	0.057
401.49	-0.227
401.85	0.000
402.21	-0.174
402.57	0.352
402.92	0.296
403.28	-0.293
403.63	-0.656
403.99	-0.238
404.35	0.114
404.70	0.567
405.06	-0.435
405.42	0.059
405.77	0.600
406.13	0.162
406.49	0.000
406.84	0.222
407.20	0.391
407.55	-0.666
407.91	-0.629
408.27	0.236
408.62	0.349
408.98	0.464
409.34	-0.762
409.69	-0.742
410.05	0.762
410.40	0.580
410.76	0.280
411.11	-0.234
411.47	0.369
411.83	-0.176
412.18	-0.301
412.54	0.356
412.89	1.106
413.25	-0.056
413.60	0.057
413.96	0.117
414.31	0.170
414.67	0.060
415.03	-0.246
415.38	-0.441
415.74	-0.183
416.09	-0.185
416.45	0.063
416.80	0.061
417.16	0.255
417.51	0.436
417.87	-0.061
418.22	0.299
418.58	0.310
418.93	0.931
419.29	-0.432
419.64	0.000
420.00	0.297
420.35	0.618
420.71	0.402
421.06	-0.460
421.42	0.229
421.77	-0.054
422.12	0.317
422.48	-0.051
422.83	-0.055
423.19	-0.106
423.54	0.387
423.90	-0.276
424.25	0.160
424.61	-0.057
424.96	0.329
425.31	0.637
425.67	0.054
426.02	0.553
426.38	0.230
426.73	-0.279
427.09	0.461
427.44	0.218
427.79	0.055
428.15	0.171
428.50	-0.281
428.85	0.402
429.21	0.532
429.56	0.148
429.92	0.344
430.27	0.530
430.62	-0.293
430.98	0.098
431.33	-0.098
431.68	0.000
432.04	0.356
432.39	0.321
432.74	0.114
433.10	-0.216
433.45	-0.111
433.80	0.054
434.16	0.775
434.51	-0.257
434.86	-0.543
435.22	0.159
435.57	0.236
435.92	0.056
436.28	0.171
436.63	-0.437
436.98	0.805
437.34	-0.282
437.69	0.000
438.04	-0.317
438.39	0.000
438.75	-0.332
439.10	0.317
439.45	0.335
439.81	0.621
440.16	0.161
440.51	-0.223
440.86	-0.278
441.22	0.161
441.57	-0.105
441.92	-0.194
442.27	-0.101
442.63	0.248
442.98	0.374
443.33	0.473
443.68	0.793
444.03	0.188
444.39	0.324
444.74	0.766
445.09	0.760
445.44	0.105
445.79	0.048
446.15	0.206
446.50	0.258
446.85	0.535
447.20	0.677
447.55	0.366
447.91	-0.628
448.26	-0.159
448.61	0.159
448.96	0.376
449.31	0.000
449.66	-0.436
450.02	0.633
450.37	1.066
450.72	-0.377
451.07	0.569
451.42	0.173
451.77	0.222
452.12	0.169
452.47	-0.475
452.83	0.056
453.18	-0.117
453.53	0.230
453.88	0.552
454.23	0.000
454.58	-0.464
454.93	0.485
455.28	0.241
455.63	0.227
455.98	0.279
456.34	-0.059
456.69	0.118
457.04	-0.473
457.39	-0.443
457.74	0.168
458.09	-0.165
458.44	0.593
458.79	0.103
459.14	0.000
459.49	0.000
459.84	0.420
460.19	-0.389
460.54	0.398
460.89	-0.159
461.24	-0.057
461.59	0.166
461.94	-0.685
462.29	-0.056
462.64	0.121
462.99	-0.188
463.34	0.065
463.69	0.469
464.04	0.445
464.39	0.448
464.74	0.627
465.09	-0.173
465.44	0.054
465.79	0.740
466.14	-0.052
466.49	0.421
466.84	-0.165
467.19	0.405
467.54	-0.411
467.89	-0.172
468.24	0.332
468.59	-0.347
468.94	-0.408
469.29	-0.540
469.64	-0.381
469.99	0.127
470.34	0.186
470.68	-0.273
471.03	0.327
471.38	0.131
471.73	-0.260
472.08	-0.190
472.43	0.301
472.78	0.504
473.13	-0.253
473.48	0.665
473.83	-0.116
474.17	0.703
474.52	0.180
474.87	0.664
475.22	0.394
475.57	0.260
475.92	0.249
476.27	0.479
476.61	0.363
476.96	-0.104
477.31	0.297
477.66	0.630
478.01	0.356
478.36	0.399
478.70	-0.099
479.05	0.460
479.40	0.346
479.75	1.105
480.10	0.568
480.45	0.410
480.79	0.952
481.14	0.506
481.49	0.091
481.84	0.653
482.19	0.215
482.53	0.262
482.88	0.399
483.23	0.445
483.58	0.306
483.92	0.222
484.27	0.423
484.62	-0.165
484.97	0.622
485.31	0.352
485.66	0.486
486.01	0.536
486.36	0.429
486.70	0.755
487.05	0.693
487.40	0.464
487.75	0.789
488.09	0.507
488.44	0.524
488.79	0.843
489.13	0.905
489.48	0.078
489.83	0.040
490.17	0.122
490.52	0.575
490.87	0.846
491.22	-0.087
491.56	0.683
491.91	0.829
492.26	0.606
492.60	0.481
492.95	0.658
493.30	0.090
493.64	0.000
493.99	0.526
494.34	0.218
494.68	0.043
495.03	0.220
495.37	-0.178
495.72	0.499
496.07	0.394
496.41	0.129
496.76	0.542
497.11	0.042
497.45	0.561
497.80	0.711
498.14	0.454
498.49	0.230
498.84	0.594
499.18	0.675
499.53	0.717
499.87	0.791
500.22	-0.312
500.56	-0.315
500.91	0.366
501.26	0.591
501.60	0.133
501.95	0.695
502.29	0.307
502.64	0.525
502.98	0.043
503.33	-0.043
503.67	-0.044
504.02	0.438
504.36	0.760
504.71	0.138
505.06	0.637
505.40	0.320
505.75	0.729
506.09	0.783
506.44	0.696
506.78	0.963
507.13	0.738
507.47	0.521
507.82	0.616
508.16	0.287
508.51	0.375
508.85	-0.189
509.19	0.332
509.54	0.528
509.88	0.049
510.23	0.534
510.57	0.628
510.92	0.435
511.26	0.625
511.61	0.097
511.95	0.732
512.30	1.034
512.64	0.200
512.98	0.450
513.33	0.706
513.67	0.816
514.02	0.358
514.36	0.870
514.70	0.625
515.05	0.521
515.39	0.105
515.74	1.007
516.08	0.951
516.42	1.151
516.77	0.421
517.11	0.825
517.46	0.583
517.80	0.695
518.14	0.871
518.49	0.434
518.83	0.798
519.17	0.108
519.52	0.786
519.86	0.845
520.20	1.065
520.55	0.712
520.89	0.394
521.23	0.726
521.58	0.734
521.92	0.510
522.26	0.458
522.61	0.116
522.95	0.231
523.29	0.402
523.64	0.448
523.98	0.685
524.32	0.974
524.66	0.455
525.01	1.189
525.35	0.345
525.69	0.870
526.04	0.746
526.38	0.632
526.72	0.692
527.06	0.293
527.41	0.525
527.75	1.128
528.09	0.472
528.43	0.059
528.78	-0.058
529.12	0.459
529.46	0.675
529.80	0.343
530.15	0.928
530.49	0.059
530.83	1.063
531.17	0.896
531.51	0.181
531.86	1.623
532.20	0.854
532.54	0.299
532.88	0.364
533.22	1.414
533.57	0.577
533.91	1.235
534.25	1.470
534.59	0.287
534.93	0.679
535.27	0.789
535.62	1.194
535.96	0.581
536.30	0.411
536.64	0.480
536.98	0.923
537.32	1.049
537.66	0.749
538.01	0.060
538.35	0.548
538.69	-0.361
539.03	0.920
539.37	0.883
539.71	1.381
540.05	1.319
540.39	0.550
540.73	1.154
541.07	1.594
541.42	0.709
541.76	0.712
542.10	0.663
542.44	-0.305
542.78	0.852
543.12	0.775
543.46	0.305
543.80	0.480
544.14	0.180
544.48	1.005
544.82	1.137
545.16	0.775
545.50	0.060
545.84	1.041
546.18	1.728
546.52	0.127
546.86	0.566
547.20	0.573
547.54	1.124
547.88	0.422
548.22	0.351
548.56	0.878
548.90	0.478
549.24	1.277
549.58	0.883
549.92	0.829
550.26	1.165
550.60	0.638
550.94	1.294
551.28	1.452
551.62	0.876
551.96	1.165
552.30	1.402
552.64	0.498
552.98	1.185
553.32	1.158
553.66	0.514
554.00	0.504
554.34	1.158
554.68	1.033
555.02	0.723
555.36	1.315
555.69	0.641
556.03	0.694
556.37	1.189
556.71	1.015
557.05	0.831
557.39	0.398
557.73	0.594
558.07	0.530
558.41	1.130
558.75	0.609
559.08	0.974
559.42	0.480
559.76	1.628
560.10	1.273
560.44	0.462
560.78	1.312
561.12	1.232
561.45	1.277
561.79	0.794
562.13	1.356
562.47	0.801
562.81	0.380
563.15	1.136
563.48	0.559
563.82	0.726
564.16	0.485
564.50	0.477
564.84	0.826
565.17	0.824
565.51	0.863
565.85	1.069
566.19	0.864
566.52	0.702
566.86	0.792
567.20	0.544
567.54	0.850
567.88	1.019
568.21	1.038
568.55	0.863
568.89	0.862
569.23	1.267
569.56	0.821
569.90	1.354
570.24	1.012
570.57	0.674
570.91	0.888
571.25	1.215
571.59	1.141
571.92	1.066
572.26	1.085
572.60	0.983
572.93	1.169
573.27	1.068
573.61	1.191
573.95	1.481
574.28	1.448
574.62	1.160
574.96	1.037
575.29	1.212
575.63	1.063
575.97	1.006
576.30	1.110
576.64	1.026
576.98	1.048
577.31	1.095
577.65	1.094
577.98	1.355
578.32	0.993
578.66	1.338
578.99	1.065
579.33	1.067
579.67	1.043
580.00	1.034
580.34	1.265
580.67	1.236
581.01	1.125
581.35	1.403
581.68	1.313
582.02	1.173
582.35	1.299
582.69	1.180
583.02	1.252
583.36	1.417
583.70	1.045
584.03	0.936
584.37	1.333
584.70	1.002
585.04	1.093
585.37	1.038
585.71	1.338
586.04	1.145
586.38	1.462
586.72	1.028
587.05	0.691
587.39	0.972
587.72	0.933
588.06	1.040
588.39	1.394
588.73	1.243
589.06	1.298
589.40	0.768
589.73	0.996
590.07	1.459
590.40	1.589
590.73	0.884
591.07	1.638
591.40	0.894
591.74	1.033
592.07	1.259
592.41	1.025
592.74	1.171
593.08	1.847
593.41	1.341
593.75	1.236
594.08	1.272
594.41	1.122
594.75	1.096
595.08	0.707
595.42	1.039
595.75	1.356
596.09	1.559
596.42	0.932
596.75	1.505
597.09	1.414
597.42	0.755
597.75	1.019
598.09	1.230
598.42	1.930
598.76	1.070
599.09	0.819
599.42	1.509
599.76	1.321
600.09	1.268
600.42	1.068
600.76	1.090
601.09	1.095
601.42	1.064
601.76	1.172
602.09	1.215
602.42	1.345
602.76	1.070
603.09	1.101
603.42	1.192
603.76	1.022
604.09	1.561
604.42	1.174
604.76	0.989
605.09	1.157
605.42	0.917
605.75	1.000
606.09	0.597
606.42	0.985
606.75	0.750
607.09	0.998
607.42	1.156
607.75	1.563
608.08	1.105
608.42	0.927
608.75	1.327
609.08	0.467
609.41	1.323
609.75	0.580
610.08	0.880
610.41	0.637
610.74	1.092
611.07	0.577
611.41	1.570
611.74	0.878
612.07	1.216
612.40	0.903
612.73	0.831
613.07	1.320
613.40	1.203
613.73	1.252
614.06	1.276
614.39	0.583
614.72	0.582
615.06	1.059
615.39	0.918
615.72	1.280
616.05	0.923
616.38	1.211
616.71	1.567
617.05	0.532
617.38	1.498
617.71	1.350
618.04	1.025
618.37	0.820
618.70	1.188
619.03	0.538
619.36	0.925
619.69	0.961
620.03	1.318
620.36	0.982
620.69	1.172
621.02	0.853
621.35	0.871
621.68	1.157
622.01	0.712
622.34	0.139
622.67	0.550
623.00	0.202
623.33	1.194
623.66	0.973
623.99	0.592
624.32	1.884
624.65	0.257
624.99	1.495
625.32	1.110
625.65	1.079
625.98	0.475
626.31	1.063
626.64	0.733
626.97	0.750
627.30	-0.456
627.63	0.525
627.96	1.577
628.29	0.700
628.62	0.084
628.95	0.964
629.28	0.425
629.61	1.010
629.94	-0.251
630.26	-0.254
630.59	0.173
630.92	-0.087
631.25	0.537
631.58	0.000
631.91	-0.187
632.24	0.768
632.57	0.474
632.90	0.100
633.23	0.510
633.56	1.020
633.89	0.413
634.22	0.208
634.55	0.939
634.88	-0.108
635.20	0.969
635.53	0.565
635.86	0.433
636.19	2.121
636.52	0.738
636.85	0.817
637.18	0.312
637.51	-0.645
637.83	0.997
638.16	0.461
638.49	-0.587
638.82	0.676
639.15	0.458
639.48	1.617
639.81	0.808
640.13	1.296
640.46	-1.455
640.79	-1.838
641.12	0.248
641.45	-0.125
641.77	1.926
642.10	-0.787
642.43	2.527
642.76	0.136
643.09	0.959
643.41	0.140
643.74	0.138
644.07	0.552
644.40	-0.566
644.73	-1.306
645.05	-0.147
645.38	1.007
645.71	1.173
646.04	2.296
646.36	-1.022
646.69	-0.307
647.02	1.376
647.35	-0.153
647.67	-0.161
648.00	-0.318
648.33	1.201
648.66	0.428
648.98	-0.272
649.31	-1.083
649.64	0.531
