SpectraSuite Data File
++++++++++++++++++++++++++++++++++++
Date: Thu May 14 16:36:40 PDT 2015
User: schluterlab
Dark Spectrum Present: Yes
Reference Spectrum Present: Yes
Number of Sampled Component Spectra: 1
Spectrometers: USB2E3373
Integration Time (usec): 3000 (USB2E3373)
Spectra Averaged: 3 (USB2E3373)
Boxcar Smoothing: 0 (USB2E3373)
Correct for Electrical Dark: No (USB2E3373)
Strobe/Lamp Enabled: No (USB2E3373)
Correct for Detector Non-linearity: No (USB2E3373)
Correct for Stray Light: No (USB2E3373)
Number of Pixels in Processed Spectrum: 2048
>>>>>Begin Processed Spectral Data<<<<<
178.53	0.000
178.91	71.429
179.29	-600.000
179.67	-1100.000
180.04	157.143
180.42	70.000
180.80	160.000
181.18	-1000.000
181.56	-100.000
181.94	50.000
182.31	-100.000
182.69	-33.333
183.07	-600.000
183.45	425.000
183.83	-150.000
184.20	-166.667
184.58	400.000
184.96	-100.000
185.34	-133.333
185.72	-160.000
186.09	122.222
186.47	450.000
186.85	300.000
187.23	-22.222
187.61	-600.000
187.98	220.000
188.36	75.000
188.74	-75.000
189.12	-133.333
189.49	-6.250
189.87	-37.500
190.25	0.000
190.63	-160.000
191.00	-111.111
191.38	0.000
191.76	-225.000
192.14	-133.333
192.51	550.000
192.89	-16.667
193.27	0.000
193.65	-28.571
194.02	-1100.000
194.40	14.286
194.78	128.571
195.15	0.000
195.53	-118.182
195.91	0.000
196.29	-50.000
196.66	-30.769
197.04	-1100.000
197.42	14.286
197.79	-350.000
198.17	-112.500
198.55	-242.857
198.92	-11.111
199.30	-112.500
199.68	54.545
200.05	-42.857
200.43	-150.000
200.81	200.000
201.18	0.000
201.56	166.667
201.94	0.000
202.31	233.333
202.69	-100.000
203.07	400.000
203.44	22.222
203.82	-350.000
204.19	-33.333
204.57	-50.000
204.95	-37.500
205.32	0.000
205.70	50.000
206.08	-100.000
206.45	-100.000
206.83	240.000
207.20	-66.667
207.58	-180.000
207.96	-166.667
208.33	150.000
208.71	83.333
209.08	-33.333
209.46	0.000
209.84	150.000
210.21	100.000
210.59	-50.000
210.96	500.000
211.34	25.000
211.71	-37.500
212.09	-1300.000
212.46	0.000
212.84	400.000
213.22	-80.000
213.59	-300.000
213.97	40.000
214.34	-233.333
214.72	166.667
215.09	-75.000
215.47	0.000
215.84	-0.000
216.22	650.000
216.59	-40.000
216.97	-120.000
217.34	25.000
217.72	87.500
218.09	-25.000
218.47	-175.000
218.84	0.000
219.22	80.000
219.59	11.765
219.97	15.000
220.34	650.000
220.72	-111.111
221.09	46.154
221.47	-266.667
221.84	-60.000
222.22	-271.429
222.59	0.000
222.97	62.500
223.34	-320.000
223.72	-1700.000
224.09	-150.000
224.46	-300.000
224.84	-120.000
225.21	-185.714
225.59	-225.000
225.96	-225.000
226.34	-7.692
226.71	300.000
227.08	-300.000
227.46	20.000
227.83	25.000
228.21	-5.263
228.58	62.500
228.95	450.000
229.33	-16.667
229.70	70.000
230.08	42.105
230.45	110.000
230.82	66.667
231.20	-50.000
231.57	-41.667
231.95	-36.364
232.32	-63.636
232.69	-15.000
233.07	25.000
233.44	11.765
233.81	-140.000
234.19	-5.556
234.56	-54.545
234.93	31.034
235.31	-10.526
235.68	-50.000
236.05	-35.000
236.43	34.615
236.80	32.000
237.17	7.407
237.55	39.394
237.92	-110.000
238.29	-9.677
238.67	-15.909
239.04	-25.000
239.41	-19.048
239.79	-23.913
240.16	-7.407
240.53	-4.348
240.91	-19.608
241.28	4.918
241.65	-7.463
242.02	13.514
242.40	-23.077
242.77	-4.000
243.14	-12.195
243.51	-22.368
243.89	-10.256
244.26	13.861
244.63	1.961
245.00	0.935
245.38	-4.386
245.75	-7.080
246.12	-2.381
246.49	-6.977
246.87	5.714
247.24	7.285
247.61	3.947
247.98	-3.356
248.36	-0.617
248.73	-7.362
249.10	-3.279
249.47	5.473
249.84	2.094
250.22	-0.518
250.59	2.222
250.96	5.000
251.33	-2.551
251.70	1.709
252.08	4.167
252.45	4.918
252.82	-4.545
253.19	0.781
253.56	1.901
253.94	1.538
254.31	2.652
254.68	0.699
255.05	2.606
255.42	1.701
255.79	2.589
256.16	0.000
256.54	-3.974
256.91	3.607
257.28	2.295
257.65	-3.185
258.02	-3.540
258.39	0.855
258.76	2.141
259.14	3.736
259.51	2.017
259.88	-1.983
260.25	-0.278
260.62	1.918
260.99	3.279
261.36	1.340
261.73	-1.061
262.10	-1.923
262.47	0.804
262.85	4.040
263.22	-1.039
263.59	-2.368
263.96	0.767
264.33	0.256
264.70	1.728
265.07	3.103
265.44	2.948
265.81	1.389
266.18	2.948
266.55	1.786
266.92	-1.139
267.29	4.595
267.66	-0.665
268.03	0.437
268.40	0.418
268.77	-1.822
269.14	-1.542
269.51	0.877
269.88	3.074
270.25	2.616
270.62	2.532
270.99	4.040
271.36	4.356
271.73	1.768
272.10	2.204
272.47	0.401
272.84	0.803
273.21	1.403
273.58	-1.008
273.95	1.923
274.32	-0.951
274.69	-0.580
275.06	1.099
275.43	0.000
275.80	2.646
276.17	0.370
276.54	1.119
276.91	-1.073
277.28	0.904
277.65	0.898
278.02	1.471
278.39	1.630
278.76	1.230
279.13	1.418
279.50	3.093
279.87	1.789
280.23	0.704
280.60	2.203
280.97	0.493
281.34	0.849
281.71	3.046
282.08	1.495
282.45	1.146
282.82	0.000
283.19	-0.485
283.56	0.820
283.92	3.303
284.29	4.423
284.66	2.791
285.03	1.122
285.40	2.009
285.77	2.012
286.14	3.359
286.51	0.913
286.87	0.474
287.24	2.560
287.61	0.747
287.98	0.906
288.35	1.036
288.72	1.775
289.08	1.611
289.45	2.219
289.82	3.012
290.19	1.006
290.56	1.549
290.93	2.710
291.29	1.240
291.66	1.653
292.03	0.271
292.40	2.313
292.77	1.078
293.13	2.030
293.50	1.051
293.87	1.208
294.24	2.667
294.60	3.161
294.97	0.134
295.34	2.561
295.71	1.135
296.08	1.680
296.44	1.225
296.81	1.583
297.18	0.374
297.55	1.297
297.91	1.779
298.28	-0.592
298.65	0.951
299.02	0.826
299.38	2.632
299.75	1.636
300.12	1.157
300.48	2.074
300.85	2.587
301.22	1.902
301.59	0.228
301.95	1.695
302.32	3.556
302.69	0.986
303.05	1.850
303.42	1.441
303.79	1.979
304.15	1.472
304.52	0.951
304.89	1.885
305.25	1.967
305.62	2.090
305.99	1.856
306.35	1.310
306.72	1.551
307.09	1.421
307.45	2.381
307.82	2.220
308.19	1.917
308.55	1.543
308.92	0.974
309.29	2.299
309.65	1.949
310.02	1.980
310.38	2.559
310.75	2.621
311.12	2.876
311.48	2.248
311.85	2.564
312.22	1.992
312.58	2.911
312.95	2.868
313.31	3.884
313.68	3.571
314.05	3.975
314.41	3.825
314.78	3.633
315.14	4.991
315.51	4.709
315.87	5.131
316.24	5.845
316.61	6.217
316.97	4.615
317.34	5.820
317.70	6.550
318.07	6.526
318.43	7.738
318.80	8.194
319.16	8.841
319.53	7.027
319.89	9.202
320.26	10.676
320.62	9.131
320.99	10.434
321.35	9.427
321.72	11.721
322.08	10.460
322.45	10.930
322.81	11.733
323.18	12.301
323.54	13.362
323.91	14.413
324.27	15.232
324.64	15.869
325.00	15.091
325.37	17.199
325.73	17.107
326.10	18.005
326.46	18.567
326.83	19.376
327.19	19.921
327.56	20.316
327.92	20.850
328.29	21.210
328.65	21.608
329.01	22.843
329.38	22.831
329.74	22.089
330.11	23.459
330.47	23.757
330.84	23.514
331.20	25.583
331.56	25.130
331.93	25.105
332.29	26.695
332.66	26.495
333.02	24.958
333.38	26.007
333.75	26.768
334.11	26.939
334.48	27.888
334.84	27.613
335.20	26.868
335.57	27.572
335.93	28.678
336.29	26.539
336.66	27.250
337.02	28.261
337.38	29.082
337.75	27.438
338.11	29.521
338.47	29.198
338.84	29.188
339.20	28.475
339.56	28.336
339.93	28.325
340.29	28.663
340.65	29.684
341.02	29.848
341.38	30.154
341.74	29.701
342.11	29.525
342.47	29.150
342.83	29.469
343.20	29.518
343.56	29.591
343.92	29.624
344.28	30.703
344.65	31.318
345.01	31.279
345.37	30.871
345.73	30.242
346.10	30.733
346.46	30.142
346.82	31.236
347.19	29.947
347.55	32.094
347.91	30.832
348.27	32.473
348.63	32.521
349.00	31.245
349.36	31.524
349.72	31.994
350.08	31.947
350.45	32.395
350.81	32.127
351.17	32.331
351.53	34.041
351.89	32.574
352.26	32.015
352.62	33.209
352.98	34.046
353.34	32.786
353.70	32.743
354.07	31.744
354.43	33.637
354.79	32.536
355.15	33.481
355.51	33.699
355.87	33.358
356.24	33.992
356.60	33.481
356.96	34.322
357.32	34.201
357.68	33.089
358.04	33.234
358.40	35.000
358.77	35.526
359.13	33.752
359.49	34.647
359.85	35.968
360.21	35.007
360.57	34.602
360.93	36.178
361.29	36.070
361.66	36.133
362.02	35.908
362.38	37.245
362.74	37.081
363.10	36.657
363.46	38.019
363.82	37.287
364.18	37.016
364.54	37.414
364.90	37.793
365.26	36.966
365.62	37.867
365.98	38.189
366.35	37.248
366.71	37.823
367.07	38.295
367.43	38.674
367.79	38.620
368.15	39.064
368.51	39.175
368.87	39.125
369.23	38.867
369.59	39.139
369.95	39.824
370.31	40.378
370.67	39.890
371.03	41.136
371.39	40.564
371.75	40.578
372.11	40.244
372.47	41.706
372.83	41.427
373.19	41.294
373.55	40.921
373.91	41.104
374.27	41.203
374.63	42.625
374.99	41.711
375.35	42.727
375.71	41.548
376.07	41.575
376.42	42.506
376.78	42.635
377.14	42.670
377.50	44.529
377.86	41.379
378.22	44.012
378.58	43.282
378.94	43.369
379.30	43.117
379.66	43.974
380.02	43.739
380.38	45.276
380.74	45.070
381.09	44.715
381.45	44.545
381.81	46.077
382.17	45.724
382.53	44.269
382.89	44.582
383.25	45.428
383.61	44.965
383.97	44.111
384.32	45.993
384.68	44.432
385.04	46.559
385.40	46.376
385.76	45.545
386.12	45.601
386.48	45.647
386.83	47.139
387.19	46.466
387.55	46.890
387.91	47.203
388.27	47.113
388.62	46.392
388.98	46.701
389.34	47.496
389.70	46.833
390.06	46.004
390.42	46.566
390.77	48.104
391.13	48.239
391.49	48.249
391.85	47.879
392.20	49.110
392.56	47.844
392.92	48.528
393.28	47.816
393.64	47.542
393.99	49.157
394.35	49.708
394.71	48.802
395.07	48.683
395.42	47.915
395.78	49.543
396.14	49.138
396.50	48.872
396.85	49.016
397.21	47.633
397.57	48.881
397.92	47.938
398.28	48.452
398.64	48.169
399.00	47.382
399.35	48.848
399.71	48.424
400.07	48.287
400.42	49.185
400.78	49.826
401.14	48.150
401.49	49.346
401.85	50.233
402.21	50.116
402.57	50.000
402.92	48.641
403.28	48.009
403.63	49.284
403.99	49.941
404.35	48.721
404.70	49.235
405.06	47.880
405.42	49.239
405.77	50.273
406.13	48.622
406.49	50.113
406.84	49.363
407.20	49.357
407.55	48.940
407.91	49.151
408.27	47.880
408.62	50.494
408.98	48.810
409.34	49.501
409.69	50.309
410.05	49.297
410.40	50.000
410.76	49.860
411.11	50.555
411.47	49.570
411.83	49.794
412.18	50.964
412.54	49.496
412.89	49.593
413.25	48.251
413.60	49.397
413.96	50.699
414.31	49.178
414.67	49.911
415.03	49.354
415.38	50.694
415.74	49.908
416.09	50.154
416.45	48.028
416.80	50.245
417.16	51.149
417.51	49.813
417.87	50.031
418.22	51.317
418.58	49.380
418.93	50.000
419.29	50.308
419.64	48.559
420.00	50.564
420.35	49.747
420.71	48.708
421.06	48.879
421.42	49.427
421.77	48.411
422.12	48.520
422.48	49.718
422.83	49.836
423.19	49.125
423.54	49.723
423.90	48.647
424.25	49.813
424.61	48.393
424.96	48.819
425.31	50.531
425.67	48.846
426.02	50.636
426.38	49.885
426.73	49.498
427.09	51.615
427.44	48.880
427.79	49.088
428.15	49.543
428.50	48.764
428.85	48.794
429.21	50.638
429.56	50.099
429.92	49.042
430.27	48.964
430.62	49.389
430.98	49.926
431.33	49.365
431.68	48.228
432.04	48.807
432.39	49.545
432.74	49.429
433.10	50.352
433.45	49.275
433.80	48.230
434.16	50.517
434.51	50.874
434.86	50.380
435.22	50.797
435.57	49.705
435.92	49.583
436.28	51.081
436.63	51.229
436.98	48.417
437.34	49.662
437.69	49.422
438.04	49.656
438.39	50.316
438.75	50.194
439.10	50.211
439.45	49.134
439.81	49.605
440.16	48.365
440.51	49.721
440.86	48.471
441.22	48.660
441.57	49.423
441.92	48.691
442.27	49.192
442.63	48.584
442.98	49.947
443.33	49.342
443.68	49.752
444.03	49.389
444.39	49.330
444.74	49.668
445.09	48.099
445.44	48.999
445.79	49.473
446.15	48.767
446.50	48.837
446.85	49.222
447.20	47.776
447.55	48.431
447.91	48.691
448.26	48.414
448.61	48.618
448.96	49.195
449.31	49.099
449.66	49.074
450.02	49.051
450.37	48.748
450.72	49.031
451.07	49.260
451.42	48.816
451.77	48.471
452.12	48.928
452.47	47.831
452.83	49.324
453.18	46.935
453.53	48.650
453.88	46.715
454.23	49.605
454.58	49.042
454.93	48.301
455.28	48.284
455.63	46.561
455.98	47.933
456.34	47.291
456.69	47.795
457.04	48.522
457.39	47.783
457.74	48.154
458.09	48.325
458.44	47.899
458.79	47.499
459.14	47.352
459.49	47.765
459.84	47.429
460.19	47.529
460.54	47.303
460.89	48.280
461.24	48.333
461.59	47.648
461.94	45.807
462.29	47.368
462.64	46.952
462.99	47.583
463.34	48.021
463.69	46.249
464.04	47.471
464.39	47.814
464.74	45.724
465.09	44.925
465.44	46.567
465.79	45.796
466.14	45.388
466.49	45.842
466.84	46.501
467.19	45.376
467.54	44.595
467.89	45.862
468.24	46.316
468.59	45.918
468.94	45.221
469.29	46.671
469.64	45.900
469.99	45.953
470.34	46.349
470.68	46.958
471.03	45.645
471.38	46.174
471.73	44.538
472.08	45.558
472.43	44.732
472.78	45.655
473.13	45.765
473.48	44.230
473.83	45.096
474.17	44.959
474.52	44.678
474.87	44.131
475.22	44.000
475.57	44.393
475.92	44.898
476.27	43.823
476.61	43.718
476.96	43.222
477.31	43.564
477.66	44.648
478.01	42.959
478.36	43.121
478.70	43.054
479.05	44.121
479.40	43.682
479.75	43.900
480.10	43.250
480.45	42.707
480.79	42.676
481.14	42.325
481.49	42.617
481.84	42.211
482.19	42.280
482.53	42.938
482.88	43.066
483.23	42.197
483.58	41.747
483.92	41.578
484.27	41.660
484.62	40.677
484.97	41.757
485.31	40.549
485.66	38.293
486.01	37.544
486.36	38.558
486.70	39.338
487.05	40.273
487.40	40.469
487.75	40.483
488.09	40.180
488.44	39.673
488.79	40.236
489.13	40.007
489.48	39.922
489.83	39.879
490.17	39.895
490.52	38.711
490.87	39.763
491.22	39.601
491.56	40.102
491.91	39.555
492.26	39.853
492.60	39.091
492.95	39.491
493.30	39.892
493.64	39.290
493.99	38.465
494.34	38.415
494.68	38.887
495.03	39.559
495.37	38.970
495.72	38.912
496.07	39.614
496.41	37.709
496.76	38.574
497.11	38.429
497.45	38.110
497.80	38.561
498.14	38.367
498.49	37.730
498.84	37.843
499.18	38.507
499.53	37.713
499.87	37.846
500.22	37.044
500.56	37.382
500.91	37.162
501.26	37.091
501.60	36.500
501.95	36.561
502.29	36.902
502.64	37.035
502.98	35.677
503.33	36.026
503.67	36.677
504.02	36.340
504.36	36.997
504.71	36.059
505.06	35.789
505.40	36.060
505.75	35.291
506.09	35.267
506.44	36.165
506.78	36.009
507.13	35.869
507.47	36.239
507.82	35.227
508.16	34.608
508.51	34.787
508.85	35.097
509.19	34.770
509.54	35.783
509.88	34.046
510.23	35.357
510.57	34.848
510.92	34.785
511.26	34.247
511.61	34.476
511.95	34.407
512.30	34.712
512.64	34.383
512.98	33.967
513.33	35.030
513.67	33.860
514.02	34.236
514.36	33.913
514.70	33.854
515.05	34.984
515.39	33.858
515.74	34.571
516.08	33.386
516.42	33.438
516.77	33.491
517.11	33.058
517.46	34.199
517.80	33.832
518.14	34.331
518.49	33.134
518.83	32.624
519.17	32.418
519.52	32.128
519.86	32.946
520.20	32.535
520.55	32.202
520.89	32.432
521.23	33.222
521.58	32.147
521.92	32.465
522.26	31.730
522.61	32.407
522.95	32.411
523.29	32.356
523.64	31.670
523.98	32.402
524.32	32.894
524.66	32.157
525.01	30.974
525.35	30.729
525.69	31.961
526.04	30.999
526.38	31.609
526.72	30.681
527.06	30.850
527.41	30.787
527.75	31.235
528.09	31.169
528.43	30.373
528.78	29.942
529.12	29.644
529.46	29.005
529.80	30.034
530.15	30.609
530.49	29.656
530.83	29.575
531.17	29.809
531.51	30.205
531.86	28.425
532.20	28.598
532.54	29.503
532.88	29.212
533.22	28.698
533.57	29.140
533.91	28.844
534.25	28.434
534.59	27.816
534.93	27.165
535.27	28.113
535.62	28.027
535.96	28.356
536.30	27.732
536.64	28.589
536.98	28.536
537.32	28.519
537.66	28.447
538.01	28.097
538.35	27.954
538.69	26.683
539.03	28.326
539.37	27.091
539.71	27.327
540.05	27.158
540.39	27.200
540.73	27.019
541.07	26.732
541.42	27.230
541.76	26.631
542.10	25.513
542.44	26.188
542.78	27.433
543.12	25.626
543.46	25.275
543.80	25.300
544.14	25.494
544.48	25.296
544.82	25.434
545.16	25.641
545.50	25.704
545.84	24.556
546.18	26.852
546.52	25.096
546.86	25.220
547.20	25.700
547.54	24.782
547.88	23.810
548.22	25.556
548.56	24.576
548.90	24.657
549.24	25.106
549.58	24.227
549.92	24.171
550.26	25.307
550.60	23.931
550.94	24.838
551.28	24.620
551.62	24.259
551.96	23.754
552.30	24.665
552.64	23.584
552.98	24.454
553.32	24.116
553.66	24.244
554.00	24.653
554.34	23.037
554.68	23.241
555.02	23.653
555.36	23.932
555.69	22.870
556.03	23.392
556.37	24.093
556.71	23.272
557.05	24.217
557.39	23.822
557.73	22.391
558.07	23.245
558.41	24.186
558.75	22.989
559.08	23.452
559.42	22.771
559.76	23.813
560.10	23.577
560.44	22.098
560.78	21.750
561.12	22.475
561.45	22.993
561.79	21.734
562.13	22.489
562.47	21.948
562.81	22.532
563.15	21.591
563.48	21.877
563.82	21.705
564.16	21.926
564.50	21.275
564.84	20.708
565.17	22.294
565.51	21.231
565.85	21.615
566.19	20.565
566.52	20.948
566.86	20.600
567.20	20.718
567.54	21.030
567.88	20.438
568.21	20.010
568.55	20.096
568.89	20.200
569.23	20.025
569.56	19.031
569.90	19.138
570.24	19.325
570.57	18.987
570.91	18.157
571.25	18.745
571.59	18.592
571.92	17.591
572.26	18.634
572.60	18.892
572.93	18.926
573.27	18.882
573.61	18.158
573.95	17.796
574.28	17.659
574.62	18.008
574.96	17.358
575.29	17.317
575.63	17.602
575.97	18.084
576.30	17.789
576.64	17.609
576.98	17.335
577.31	17.302
577.65	17.809
577.98	17.056
578.32	16.492
578.66	16.830
578.99	17.243
579.33	16.919
579.67	17.112
580.00	17.285
580.34	16.863
580.67	16.946
581.01	16.357
581.35	16.852
581.68	16.131
582.02	16.661
582.35	16.541
582.69	16.524
583.02	16.838
583.36	16.821
583.70	16.746
584.03	16.895
584.37	16.268
584.70	16.406
585.04	15.810
585.37	16.262
585.71	16.268
586.04	15.962
586.38	16.643
586.72	16.069
587.05	16.347
587.39	16.081
587.72	16.148
588.06	16.223
588.39	16.181
588.73	15.661
589.06	16.337
589.40	16.195
589.73	16.581
590.07	16.578
590.40	17.039
590.73	16.366
591.07	16.828
591.40	16.019
591.74	16.693
592.07	16.443
592.41	16.088
592.74	15.619
593.08	16.115
593.41	16.390
593.75	15.489
594.08	15.510
594.41	15.865
594.75	15.842
595.08	15.915
595.42	15.747
595.75	16.177
596.09	16.028
596.42	16.302
596.75	16.480
597.09	16.202
597.42	15.971
597.75	15.641
598.09	15.794
598.42	16.084
598.76	15.170
599.09	15.664
599.42	15.320
599.76	15.352
600.09	15.549
600.42	15.549
600.76	15.125
601.09	14.769
601.42	15.173
601.76	15.345
602.09	14.939
602.42	14.867
602.76	15.387
603.09	15.822
603.42	14.993
603.76	14.623
604.09	15.649
604.42	16.110
604.76	14.802
605.09	14.759
605.42	15.351
605.75	15.077
606.09	15.230
606.42	14.885
606.75	15.217
607.09	14.593
607.42	15.183
607.75	14.342
608.08	15.193
608.42	15.075
608.75	15.133
609.08	14.686
609.41	14.689
609.75	14.777
610.08	15.743
610.41	14.359
610.74	14.328
611.07	14.920
611.41	15.022
611.74	14.827
612.07	14.586
612.40	14.306
612.73	14.572
613.07	14.425
613.40	14.822
613.73	14.733
614.06	14.720
614.39	14.820
614.72	14.410
615.06	14.389
615.39	14.016
615.72	14.645
616.05	14.522
616.38	14.884
616.71	14.577
617.05	14.430
617.38	15.463
617.71	16.091
618.04	14.031
618.37	14.317
618.70	15.045
619.03	14.576
619.36	14.735
619.69	15.567
620.03	15.129
620.36	13.620
620.69	14.867
621.02	15.814
621.35	16.110
621.68	15.184
622.01	15.302
622.34	15.551
622.67	14.433
623.00	14.103
623.33	13.869
623.66	15.370
623.99	14.417
624.32	15.335
624.65	13.514
624.99	14.954
625.32	14.958
625.65	14.835
625.98	14.237
626.31	15.096
626.64	15.165
626.97	15.229
627.30	14.199
627.63	15.229
627.96	16.592
628.29	14.475
628.62	14.777
628.95	15.337
629.28	15.208
629.61	15.404
629.94	13.891
630.26	14.661
630.59	14.508
630.92	15.325
631.25	15.564
631.58	15.913
631.91	14.433
632.24	15.562
632.57	15.085
632.90	15.547
633.23	14.592
633.56	15.714
633.89	14.463
634.22	15.593
634.55	15.449
634.88	15.584
635.20	15.608
635.53	16.836
635.86	14.843
636.19	15.695
636.52	14.873
636.85	14.300
