SpectraSuite Data File
++++++++++++++++++++++++++++++++++++
Date: Thu May 14 16:27:29 PDT 2015
User: schluterlab
Dark Spectrum Present: Yes
Reference Spectrum Present: Yes
Number of Sampled Component Spectra: 1
Spectrometers: USB2E3373
Integration Time (usec): 3000 (USB2E3373)
Spectra Averaged: 3 (USB2E3373)
Boxcar Smoothing: 0 (USB2E3373)
Correct for Electrical Dark: No (USB2E3373)
Strobe/Lamp Enabled: No (USB2E3373)
Correct for Detector Non-linearity: No (USB2E3373)
Correct for Stray Light: No (USB2E3373)
Number of Pixels in Processed Spectrum: 2048
>>>>>Begin Processed Spectral Data<<<<<
178.53	0.000
178.91	-0.000
179.29	0.000
179.67	-900.000
180.04	164.286
180.42	50.000
180.80	80.000
181.18	0.000
181.56	500.000
181.94	-50.000
182.31	175.000
182.69	366.667
183.07	-50.000
183.45	-50.000
183.83	66.667
184.20	133.333
184.58	-700.000
184.96	-50.000
185.34	0.000
185.72	60.000
186.09	122.222
186.47	150.000
186.85	220.000
187.23	-144.444
187.61	-500.000
187.98	20.000
188.36	50.000
188.74	-100.000
189.12	166.667
189.49	-6.250
189.87	-12.500
190.25	22.222
190.63	100.000
191.00	-111.111
191.38	0.000
191.76	25.000
192.14	-16.667
192.51	100.000
192.89	83.333
193.27	0.000
193.65	57.143
194.02	-400.000
194.40	85.714
194.78	-28.571
195.15	0.000
195.53	36.364
195.91	0.000
196.29	125.000
196.66	-15.385
197.04	-500.000
197.42	128.571
197.79	150.000
198.17	50.000
198.55	-57.143
198.92	-11.111
199.30	25.000
199.68	63.636
200.05	35.714
200.43	-100.000
200.81	42.857
201.18	0.000
201.56	66.667
201.94	0.000
202.31	-33.333
202.69	-55.556
203.07	-400.000
203.44	-11.111
203.82	-125.000
204.19	8.333
204.57	33.333
204.95	-12.500
205.32	400.000
205.70	-25.000
206.08	-16.667
206.45	83.333
206.83	200.000
207.20	33.333
207.58	-240.000
207.96	-50.000
208.33	133.333
208.71	25.000
209.08	116.667
209.46	0.000
209.84	100.000
210.21	-100.000
210.59	300.000
210.96	200.000
211.34	250.000
211.71	-50.000
212.09	-200.000
212.46	0.000
212.84	800.000
213.22	-40.000
213.59	-25.000
213.97	0.000
214.34	-100.000
214.72	66.667
215.09	0.000
215.47	0.000
215.84	-42.857
216.22	450.000
216.59	-40.000
216.97	-120.000
217.34	-25.000
217.72	12.500
218.09	-75.000
218.47	-200.000
218.84	0.000
219.22	-200.000
219.59	52.941
219.97	60.000
220.34	400.000
220.72	33.333
221.09	23.077
221.47	-200.000
221.84	-20.000
222.22	-28.571
222.59	0.000
222.97	87.500
223.34	-200.000
223.72	100.000
224.09	50.000
224.46	-75.000
224.84	-20.000
225.21	-57.143
225.59	-50.000
225.96	-25.000
226.34	23.077
226.71	-66.667
227.08	-50.000
227.46	66.667
227.83	75.000
228.21	63.158
228.58	-50.000
228.95	50.000
229.33	0.000
229.70	-40.000
230.08	73.684
230.45	-0.000
230.82	33.333
231.20	-21.429
231.57	33.333
231.95	72.727
232.32	45.455
232.69	25.000
233.07	-125.000
233.44	-11.765
233.81	60.000
234.19	44.444
234.56	13.636
234.93	41.379
235.31	36.842
235.68	-27.778
236.05	10.000
236.43	57.692
236.80	88.000
237.17	40.741
237.55	42.424
237.92	60.000
238.29	35.484
238.67	29.545
239.04	52.778
239.41	21.429
239.79	23.913
240.16	33.333
240.53	13.043
240.91	21.569
241.28	31.148
241.65	41.791
242.02	47.297
242.40	38.462
242.77	32.000
243.14	19.512
243.51	18.421
243.89	16.667
244.26	32.673
244.63	28.431
245.00	29.907
245.38	25.439
245.75	6.195
246.12	35.714
246.49	28.682
246.87	29.286
247.24	29.139
247.61	36.184
247.98	33.557
248.36	30.247
248.73	24.540
249.10	24.044
249.47	33.831
249.84	36.649
250.22	26.943
250.59	30.000
250.96	29.091
251.33	26.531
251.70	32.051
252.08	30.417
252.45	27.869
252.82	28.926
253.19	30.078
253.56	32.319
253.94	28.462
254.31	31.439
254.68	30.420
255.05	29.967
255.42	26.531
255.79	29.450
256.16	24.503
256.54	28.808
256.91	30.492
257.28	31.475
257.65	31.210
258.02	28.614
258.39	29.630
258.76	33.945
259.14	32.759
259.51	29.107
259.88	30.312
260.25	32.778
260.62	31.781
260.99	33.607
261.36	31.635
261.73	27.056
262.10	29.670
262.47	29.491
262.85	32.828
263.22	27.792
263.59	30.263
263.96	32.481
264.33	28.900
264.70	33.086
265.07	31.742
265.44	29.705
265.81	29.398
266.18	31.746
266.55	31.027
266.92	28.474
267.29	28.884
267.66	33.259
268.03	32.096
268.40	31.733
268.77	29.841
269.14	28.634
269.51	32.456
269.88	29.098
270.25	30.181
270.62	32.489
270.99	30.505
271.36	31.881
271.73	29.862
272.10	32.064
272.47	27.255
272.84	28.112
273.21	29.058
273.58	31.250
273.95	30.192
274.32	28.137
274.69	29.594
275.06	30.586
275.43	27.911
275.80	31.041
276.17	27.963
276.54	28.358
276.91	26.834
277.28	29.114
277.65	29.803
278.02	29.228
278.39	28.080
278.76	29.877
279.13	29.610
279.50	29.210
279.87	28.444
280.23	26.408
280.60	28.814
280.97	27.467
281.34	27.165
281.71	28.257
282.08	28.239
282.45	28.969
282.82	25.903
283.19	28.110
283.56	27.049
283.92	27.928
284.29	29.858
284.66	27.094
285.03	24.359
285.40	27.048
285.77	28.483
286.14	28.244
286.51	26.636
286.87	27.804
287.24	27.108
287.61	27.803
287.98	26.284
288.35	27.071
288.72	28.107
289.08	27.379
289.45	25.444
289.82	24.096
290.19	25.287
290.56	27.887
290.93	24.822
291.29	24.931
291.66	25.620
292.03	23.066
292.40	25.442
292.77	24.124
293.13	22.869
293.50	24.179
293.87	23.087
294.24	25.200
294.60	23.009
294.97	22.819
295.34	23.303
295.71	22.446
296.08	22.481
296.44	22.917
296.81	21.559
297.18	21.420
297.55	20.873
297.91	21.590
298.28	20.142
298.65	21.879
299.02	21.370
299.38	21.510
299.75	21.729
300.12	20.949
300.48	21.774
300.85	22.385
301.22	21.588
301.59	20.091
301.95	20.904
302.32	21.111
302.69	20.591
303.05	21.654
303.42	20.510
303.79	19.375
304.15	20.610
304.52	21.036
304.89	19.895
305.25	19.358
305.62	19.749
305.99	21.134
306.35	20.464
306.72	21.613
307.09	19.188
307.45	18.841
307.82	19.677
308.19	19.273
308.55	19.961
308.92	19.864
309.29	19.636
309.65	18.713
310.02	19.109
310.38	21.063
310.75	19.903
311.12	20.901
311.48	20.528
311.85	19.183
312.22	18.786
312.58	19.718
312.95	18.642
313.31	19.603
313.68	21.795
314.05	21.590
314.41	21.311
314.78	21.798
315.14	20.327
315.51	20.960
315.87	21.512
316.24	21.005
316.61	21.314
316.97	20.814
317.34	21.076
317.70	22.183
318.07	22.487
318.43	22.704
318.80	23.495
319.16	21.974
319.53	21.765
319.89	22.875
320.26	23.310
320.62	23.316
320.99	24.284
321.35	24.584
321.72	25.209
322.08	25.248
322.45	25.745
322.81	24.549
323.18	26.372
323.54	26.466
323.91	27.580
324.27	27.539
324.64	28.296
325.00	28.192
325.37	29.484
325.73	30.413
326.10	31.306
326.46	30.537
326.83	32.346
327.19	31.890
327.56	32.885
327.92	32.494
328.29	33.548
328.65	34.171
329.01	34.095
329.38	34.794
329.74	35.445
330.11	35.531
330.47	35.131
330.84	35.573
331.20	37.167
331.56	38.995
331.93	36.987
332.29	39.492
332.66	36.877
333.02	38.191
333.38	39.010
333.75	39.815
334.11	39.533
334.48	39.356
334.84	40.272
335.20	38.707
335.57	40.135
335.93	39.917
336.29	39.601
336.66	39.361
337.02	40.217
337.38	41.497
337.75	40.496
338.11	42.557
338.47	40.943
338.84	42.132
339.20	39.511
339.56	41.021
339.93	40.312
340.29	40.177
340.65	42.011
341.02	42.059
341.38	42.441
341.74	41.646
342.11	41.834
342.47	40.747
342.83	42.754
343.20	42.437
343.56	43.464
343.92	41.153
344.28	41.953
344.65	42.481
345.01	42.356
345.37	42.691
345.73	42.089
346.10	42.200
346.46	41.297
346.82	42.846
347.19	43.468
347.55	43.247
347.91	43.388
348.27	42.944
348.63	43.031
349.00	42.655
349.36	42.974
349.72	42.560
350.08	43.834
350.45	43.422
350.81	43.514
351.17	42.782
351.53	43.669
351.89	43.888
352.26	43.806
352.62	44.030
352.98	43.740
353.34	41.524
353.70	45.686
354.07	44.411
354.43	44.267
354.79	43.231
355.15	43.782
355.51	44.664
355.87	43.755
356.24	45.095
356.60	44.420
356.96	45.145
357.32	44.758
357.68	44.802
358.04	44.536
358.40	44.478
358.77	44.298
359.13	45.421
359.49	45.502
359.85	45.540
360.21	46.126
360.57	44.580
360.93	45.416
361.29	45.754
361.66	45.619
362.02	45.720
362.38	46.943
362.74	46.089
363.10	46.355
363.46	46.191
363.82	47.301
364.18	46.517
364.54	46.888
364.90	48.629
365.26	46.345
365.62	48.333
365.98	46.698
366.35	47.315
366.71	48.912
367.07	47.632
367.43	46.159
367.79	48.507
368.15	48.896
368.51	48.714
368.87	47.289
369.23	47.667
369.59	50.342
369.95	48.073
370.31	49.831
370.67	49.794
371.03	49.861
371.39	47.683
371.75	49.175
372.11	50.474
372.47	48.680
372.83	49.411
373.19	49.166
373.55	49.526
373.91	50.307
374.27	50.453
374.63	50.812
374.99	51.061
375.35	51.299
375.71	51.613
376.07	51.517
376.42	53.149
376.78	51.709
377.14	51.653
377.50	51.803
377.86	52.032
378.22	51.916
378.58	52.794
378.94	52.171
379.30	53.193
379.66	52.792
380.02	52.337
380.38	53.975
380.74	54.310
381.09	54.936
381.45	54.659
381.81	54.215
382.17	55.226
382.53	54.795
382.89	54.684
383.25	56.682
383.61	55.498
383.97	55.830
384.32	57.356
384.68	54.872
385.04	57.201
385.40	56.570
385.76	58.382
386.12	57.331
386.48	57.529
386.83	58.939
387.19	57.590
387.55	57.805
387.91	58.847
388.27	58.949
388.62	58.477
388.98	58.263
389.34	59.988
389.70	59.326
390.06	58.200
390.42	59.398
390.77	59.783
391.13	58.803
391.49	59.903
391.85	60.727
392.20	61.684
392.56	60.602
392.92	60.414
393.28	61.913
393.64	61.341
393.99	62.289
394.35	62.675
394.71	62.395
395.07	62.335
395.42	61.736
395.78	63.559
396.14	63.399
396.50	63.599
396.85	62.075
397.21	63.905
397.57	64.016
397.92	63.459
398.28	64.422
398.64	64.760
399.00	63.246
399.35	63.927
399.71	64.783
400.07	66.086
400.42	65.425
400.78	66.146
401.14	66.648
401.49	66.515
401.85	67.326
402.21	67.903
402.57	68.662
402.92	67.317
403.28	67.272
403.63	67.482
403.99	67.696
404.35	67.254
404.70	67.252
405.06	67.174
405.42	67.447
405.77	69.956
406.13	69.260
406.49	70.158
406.84	70.360
407.20	71.045
407.55	69.836
407.91	71.087
408.27	70.259
408.62	71.728
408.98	72.490
409.34	72.199
409.69	71.817
410.05	70.985
410.40	72.622
410.76	72.630
411.11	73.992
411.47	72.359
411.83	74.544
412.18	76.024
412.54	73.503
412.89	74.040
413.25	75.000
413.60	74.727
413.96	74.650
414.31	73.598
414.67	74.717
415.03	75.385
415.38	77.617
415.74	75.565
416.09	76.064
416.45	74.389
416.80	75.398
417.16	76.948
417.51	76.152
417.87	77.008
418.22	77.725
418.58	76.394
418.93	76.950
419.29	79.038
419.64	77.971
420.00	78.694
420.35	76.867
420.71	77.082
421.06	79.413
421.42	78.440
421.77	77.060
422.12	77.801
422.48	79.007
422.83	79.901
423.19	80.159
423.54	80.033
423.90	78.465
424.25	79.360
424.61	79.506
424.96	80.121
425.31	80.361
425.67	79.388
426.02	82.125
426.38	81.573
426.73	80.636
427.09	80.046
427.44	80.502
427.79	81.150
428.15	80.251
428.50	80.730
428.85	79.564
429.21	81.543
429.56	82.132
429.92	81.523
430.27	82.795
430.62	82.267
430.98	82.341
431.33	81.329
431.68	80.268
432.04	83.088
432.39	82.646
432.74	84.018
433.10	83.775
433.45	81.605
433.80	82.457
434.16	82.076
434.51	85.971
434.86	85.668
435.22	85.282
435.57	85.613
435.92	83.695
436.28	83.788
436.63	85.636
436.98	83.629
437.34	85.457
437.69	85.195
438.04	84.506
438.39	83.802
438.75	84.892
439.10	86.258
439.45	84.684
439.81	85.819
440.16	85.201
440.51	85.396
440.86	85.992
441.22	86.227
441.57	87.788
441.92	86.324
442.27	88.333
442.63	87.183
442.98	86.179
443.33	86.796
443.68	87.859
444.03	89.464
444.39	88.257
444.74	87.596
445.09	86.771
445.44	89.252
445.79	88.362
446.15	88.129
446.50	87.855
446.85	87.938
447.20	88.346
447.55	88.964
447.91	88.953
448.26	88.636
448.61	88.682
448.96	90.290
449.31	88.335
449.66	88.998
450.02	89.082
450.37	89.451
450.72	90.581
451.07	89.522
451.42	90.006
451.77	89.883
452.12	90.406
452.47	89.542
452.83	92.061
453.18	89.609
453.53	89.374
453.88	88.404
454.23	90.678
454.58	91.701
454.93	90.534
455.28	91.030
455.63	89.426
455.98	91.341
456.34	90.754
456.69	90.594
457.04	92.376
457.39	90.798
457.74	92.841
458.09	91.049
458.44	91.756
458.79	90.253
459.14	90.666
459.49	91.002
459.84	91.553
460.19	90.505
460.54	91.596
460.89	92.006
461.24	90.345
461.59	92.197
461.94	89.675
462.29	92.273
462.64	91.913
462.99	92.593
463.34	92.927
463.69	90.504
464.04	92.329
464.39	92.433
464.74	89.795
465.09	90.657
465.44	92.650
465.79	91.116
466.14	89.786
466.49	91.368
466.84	92.507
467.19	91.561
467.54	90.306
467.89	89.828
468.24	90.693
468.59	92.067
468.94	91.958
469.29	91.662
469.64	94.088
469.99	92.862
470.34	92.265
470.68	95.557
471.03	94.695
471.38	93.918
471.73	93.693
472.08	94.289
472.43	93.016
472.78	94.710
473.13	94.185
473.48	93.897
473.83	94.254
474.17	92.673
474.52	94.528
474.87	92.913
475.22	94.873
475.57	90.862
475.92	92.782
476.27	93.184
476.61	91.433
476.96	91.710
477.31	92.277
477.66	94.439
478.01	92.781
478.36	91.775
478.70	94.187
479.05	95.092
479.40	93.978
479.75	92.123
480.10	94.079
480.45	93.573
480.79	92.744
481.14	92.739
481.49	92.776
481.84	94.125
482.19	94.753
482.53	95.015
482.88	94.019
483.23	93.731
483.58	92.751
483.92	92.908
484.27	92.972
484.62	93.276
484.97	92.768
485.31	92.679
485.66	88.334
486.01	85.688
486.36	87.249
486.70	89.595
487.05	92.076
487.40	91.247
487.75	91.349
488.09	92.815
488.44	90.629
488.79	92.209
489.13	93.555
489.48	93.243
489.83	92.636
490.17	91.778
490.52	92.118
490.87	94.755
491.22	95.061
491.56	94.625
491.91	93.938
492.26	93.985
492.60	93.485
492.95	93.945
493.30	95.114
493.64	95.707
493.99	95.132
494.34	94.469
494.68	95.246
495.03	94.758
495.37	96.449
495.72	94.331
496.07	94.435
496.41	94.123
496.76	95.413
497.11	95.329
497.45	94.907
497.80	93.247
498.14	93.651
498.49	95.956
498.84	95.475
499.18	95.861
499.53	94.664
499.87	95.956
500.22	94.256
500.56	94.467
500.91	95.744
501.26	96.636
501.60	94.918
501.95	95.484
502.29	95.832
502.64	97.420
502.98	94.996
503.33	94.903
503.67	94.200
504.02	94.921
504.36	95.934
504.71	97.336
505.06	95.180
505.40	96.115
505.75	95.355
506.09	95.580
506.44	96.797
506.78	96.972
507.13	95.528
507.47	96.779
507.82	95.928
508.16	96.893
508.51	95.124
508.85	98.394
509.19	97.726
509.54	96.974
509.88	95.920
510.23	98.640
510.57	98.115
510.92	97.291
511.26	96.441
511.61	96.475
511.95	97.706
512.30	97.095
512.64	97.251
512.98	97.949
513.33	98.085
513.67	98.470
514.02	98.007
514.36	98.670
514.70	99.427
515.05	99.218
515.39	99.948
515.74	99.311
516.08	98.838
516.42	98.639
516.77	101.104
517.11	98.556
517.46	101.909
517.80	100.802
518.14	101.578
518.49	100.868
518.83	100.106
519.17	99.677
519.52	99.581
519.86	100.739
520.20	100.958
520.55	99.945
520.89	101.070
521.23	102.122
521.58	101.073
521.92	100.623
522.26	100.115
522.61	103.009
522.95	103.691
523.29	102.701
523.64	100.448
523.98	102.453
524.32	105.272
524.66	102.675
525.01	101.416
525.35	102.757
525.69	101.972
526.04	100.689
526.38	102.299
526.72	101.788
527.06	103.460
527.41	102.274
527.75	105.048
528.09	104.073
528.43	102.309
528.78	102.948
529.12	102.466
529.46	101.461
529.80	102.632
530.15	103.710
530.49	104.567
530.83	103.070
531.17	102.748
531.51	103.851
531.86	104.267
532.20	104.329
532.54	102.693
532.88	103.394
533.22	103.418
533.57	103.058
533.91	102.189
534.25	102.657
534.59	104.655
534.93	103.113
535.27	103.493
535.62	101.990
535.96	104.067
536.30	103.760
536.64	103.063
536.98	106.273
537.32	103.889
537.66	104.180
538.01	101.450
538.35	103.532
538.69	105.228
539.03	106.131
539.37	102.827
539.71	105.105
540.05	103.897
540.39	104.829
540.73	103.461
541.07	105.518
541.42	101.299
541.76	101.661
542.10	105.669
542.44	104.446
542.78	103.163
543.12	102.324
543.46	103.419
543.80	102.638
544.14	104.428
544.48	103.369
544.82	104.668
545.16	103.280
545.50	102.756
545.84	102.205
546.18	104.815
546.52	105.796
546.86	103.711
547.20	106.616
547.54	102.684
547.88	102.411
548.22	103.216
548.56	103.394
548.90	105.552
549.24	104.316
549.58	105.047
549.92	103.827
550.26	105.502
550.60	104.340
550.94	106.468
551.28	105.281
551.62	107.615
551.96	103.430
552.30	104.971
552.64	103.547
552.98	104.180
553.32	105.209
553.66	104.952
554.00	105.107
554.34	104.762
554.68	104.325
555.02	105.716
555.36	106.049
555.69	103.267
556.03	105.296
556.37	103.692
556.71	105.200
557.05	103.195
557.39	106.105
557.73	104.359
558.07	103.576
558.41	105.316
558.75	103.854
559.08	108.420
559.42	105.898
559.76	104.817
560.10	105.961
560.44	106.003
560.78	104.562
561.12	103.510
561.45	103.041
561.79	104.212
562.13	104.806
562.47	103.144
562.81	104.114
563.15	104.104
563.48	103.915
563.82	103.930
564.16	101.938
564.50	102.682
564.84	101.416
565.17	103.000
565.51	102.934
565.85	104.335
566.19	102.074
566.52	102.458
566.86	101.698
567.20	100.054
567.54	100.956
567.88	102.803
568.21	100.791
568.55	100.432
568.89	101.316
569.23	98.099
569.56	97.304
569.90	96.793
570.24	98.010
570.57	96.793
570.91	95.132
571.25	93.549
571.59	94.211
571.92	93.630
572.26	92.377
572.60	93.148
572.93	93.126
573.27	93.369
573.61	93.303
573.95	92.280
574.28	91.381
574.62	91.428
574.96	90.075
575.29	90.130
575.63	91.014
575.97	91.138
576.30	91.241
576.64	91.148
576.98	91.093
577.31	90.780
577.65	91.374
577.98	90.098
578.32	88.840
578.66	89.559
578.99	90.272
579.33	91.129
579.67	91.024
580.00	90.470
580.34	91.078
580.67	90.380
581.01	91.043
581.35	89.616
581.68	89.370
582.02	88.681
582.35	90.431
582.69	90.352
583.02	90.021
583.36	90.285
583.70	91.025
584.03	90.641
584.37	92.125
584.70	90.856
585.04	90.514
585.37	90.146
585.71	89.342
586.04	90.048
586.38	91.272
586.72	90.724
587.05	91.532
587.39	91.249
587.72	91.292
588.06	90.667
588.39	90.889
588.73	91.138
589.06	90.801
589.40	93.362
589.73	92.995
590.07	92.739
590.40	92.765
590.73	93.248
591.07	93.299
591.40	94.362
591.74	93.402
592.07	93.017
592.41	93.178
592.74	91.232
593.08	91.688
593.41	92.038
593.75	91.092
594.08	92.396
594.41	92.628
594.75	91.166
595.08	92.530
595.42	92.890
595.75	91.314
596.09	93.290
596.42	91.974
596.75	93.670
597.09	93.939
597.42	92.372
597.75	91.219
598.09	92.579
598.42	93.486
598.76	91.288
599.09	90.424
599.42	89.775
599.76	89.303
600.09	91.191
600.42	91.058
600.76	90.885
601.09	90.176
601.42	90.182
601.76	90.621
602.09	91.387
602.42	90.912
602.76	90.775
603.09	91.997
603.42	91.257
603.76	90.169
604.09	92.690
604.42	90.972
604.76	90.639
605.09	92.022
605.42	92.544
605.75	91.692
606.09	90.743
606.42	89.383
606.75	90.142
607.09	89.055
607.42	89.557
607.75	90.465
608.08	91.002
608.42	89.037
608.75	91.750
609.08	90.153
609.41	91.222
609.75	92.455
610.08	90.413
610.41	90.994
610.74	90.882
611.07	91.208
611.41	91.794
611.74	92.333
612.07	90.930
612.40	92.395
612.73	93.936
613.07	92.421
613.40	91.771
613.73	92.056
614.06	93.327
614.39	91.108
614.72	91.557
615.06	90.712
615.39	90.285
615.72	90.948
616.05	90.578
616.38	92.735
616.71	91.588
617.05	91.587
617.38	91.279
617.71	92.603
618.04	91.527
618.37	94.536
618.70	93.326
619.03	93.190
619.36	94.945
619.69	94.555
620.03	93.785
620.36	93.006
620.69	94.386
621.02	93.635
621.35	99.202
621.68	95.662
622.01	94.591
622.34	95.258
622.67	93.746
623.00	94.062
623.33	95.023
623.66	92.218
623.99	95.787
624.32	95.776
624.65	94.015
624.99	94.863
625.32	94.840
625.65	95.819
625.98	93.288
626.31	95.252
626.64	95.165
626.97	95.424
627.30	96.431
627.63	95.574
627.96	95.420
628.29	96.420
628.62	97.145
628.95	100.613
629.28	97.111
629.61	97.222
629.94	95.816
630.26	97.458
630.59	97.150
630.92	97.489
631.25	99.374
