SpectraSuite Data File
++++++++++++++++++++++++++++++++++++
Date: Thu May 14 16:28:43 PDT 2015
User: schluterlab
Dark Spectrum Present: Yes
Reference Spectrum Present: Yes
Number of Sampled Component Spectra: 1
Spectrometers: USB2E3373
Integration Time (usec): 3000 (USB2E3373)
Spectra Averaged: 3 (USB2E3373)
Boxcar Smoothing: 0 (USB2E3373)
Correct for Electrical Dark: No (USB2E3373)
Strobe/Lamp Enabled: No (USB2E3373)
Correct for Detector Non-linearity: No (USB2E3373)
Correct for Stray Light: No (USB2E3373)
Number of Pixels in Processed Spectrum: 2048
>>>>>Begin Processed Spectral Data<<<<<
178.53	0.000
178.91	42.857
179.29	-500.000
179.67	-1000.000
180.04	100.000
180.42	50.000
180.80	160.000
181.18	-100.000
181.56	200.000
181.94	50.000
182.31	25.000
182.69	133.333
183.07	250.000
183.45	75.000
183.83	50.000
184.20	-133.333
184.58	-100.000
184.96	-125.000
185.34	-11.111
185.72	-140.000
186.09	111.111
186.47	450.000
186.85	140.000
187.23	11.111
187.61	-1300.000
187.98	80.000
188.36	400.000
188.74	-25.000
189.12	166.667
189.49	50.000
189.87	-50.000
190.25	66.667
190.63	20.000
191.00	-55.556
191.38	0.000
191.76	-125.000
192.14	0.000
192.51	100.000
192.89	83.333
193.27	0.000
193.65	0.000
194.02	-400.000
194.40	100.000
194.78	-28.571
195.15	0.000
195.53	54.545
195.91	0.000
196.29	250.000
196.66	-23.077
197.04	-600.000
197.42	14.286
197.79	250.000
198.17	25.000
198.55	-85.714
198.92	-11.111
199.30	-125.000
199.68	0.000
200.05	0.000
200.43	0.000
200.81	114.286
201.18	0.000
201.56	11.111
201.94	0.000
202.31	133.333
202.69	-55.556
203.07	-1100.000
203.44	-11.111
203.82	-200.000
204.19	33.333
204.57	16.667
204.95	-37.500
205.32	300.000
205.70	-300.000
206.08	83.333
206.45	16.667
206.83	300.000
207.20	33.333
207.58	-180.000
207.96	-83.333
208.33	83.333
208.71	150.000
209.08	83.333
209.46	0.000
209.84	116.667
210.21	350.000
210.59	-400.000
210.96	300.000
211.34	225.000
211.71	25.000
212.09	-1200.000
212.46	0.000
212.84	200.000
213.22	-80.000
213.59	-225.000
213.97	40.000
214.34	66.667
214.72	50.000
215.09	-150.000
215.47	0.000
215.84	-85.714
216.22	300.000
216.59	-160.000
216.97	-120.000
217.34	75.000
217.72	87.500
218.09	-100.000
218.47	-300.000
218.84	0.000
219.22	140.000
219.59	41.176
219.97	55.000
220.34	350.000
220.72	22.222
221.09	30.769
221.47	-166.667
221.84	30.000
222.22	-57.143
222.59	0.000
222.97	62.500
223.34	140.000
223.72	-500.000
224.09	150.000
224.46	25.000
224.84	120.000
225.21	-114.286
225.59	-300.000
225.96	-75.000
226.34	23.077
226.71	366.667
227.08	-150.000
227.46	-6.667
227.83	-200.000
228.21	26.316
228.58	50.000
228.95	150.000
229.33	33.333
229.70	110.000
230.08	36.842
230.45	70.000
230.82	333.333
231.20	-14.286
231.57	16.667
231.95	90.909
232.32	118.182
232.69	55.000
233.07	-75.000
233.44	11.765
233.81	60.000
234.19	44.444
234.56	9.091
234.93	3.448
235.31	31.579
235.68	38.889
236.05	-45.000
236.43	76.923
236.80	40.000
237.17	59.259
237.55	21.212
237.92	20.000
238.29	9.677
238.67	6.818
239.04	8.333
239.41	33.333
239.79	23.913
240.16	18.519
240.53	23.913
240.91	0.000
241.28	26.230
241.65	35.821
242.02	31.081
242.40	26.154
242.77	22.667
243.14	8.537
243.51	19.737
243.89	29.487
244.26	30.693
244.63	28.431
245.00	24.299
245.38	20.175
245.75	15.929
246.12	23.810
246.49	31.783
246.87	31.429
247.24	30.464
247.61	32.895
247.98	28.859
248.36	25.926
248.73	22.086
249.10	25.683
249.47	27.363
249.84	36.649
250.22	25.907
250.59	28.333
250.96	37.273
251.33	27.551
251.70	24.786
252.08	27.500
252.45	32.787
252.82	28.926
253.19	32.031
253.56	33.080
253.94	27.308
254.31	27.652
254.68	33.217
255.05	33.225
255.42	26.190
255.79	27.832
256.16	30.132
256.54	30.132
256.91	30.820
257.28	27.869
257.65	27.707
258.02	27.729
258.39	29.630
258.76	29.052
259.14	29.598
259.51	31.700
259.88	29.178
260.25	28.611
260.62	31.781
260.99	27.869
261.36	32.708
261.73	30.769
262.10	29.945
262.47	30.563
262.85	30.808
263.22	30.649
263.59	27.368
263.96	28.133
264.33	29.923
264.70	28.642
265.07	31.265
265.44	31.519
265.81	30.324
266.18	31.746
266.55	31.473
266.92	28.474
267.29	31.510
267.66	29.490
268.03	27.948
268.40	32.359
268.77	26.196
269.14	29.295
269.51	27.851
269.88	27.869
270.25	28.974
270.62	30.802
270.99	32.525
271.36	31.485
271.73	28.291
272.10	31.463
272.47	31.062
272.84	29.920
273.21	28.457
273.58	28.427
273.95	26.923
274.32	27.567
274.69	28.046
275.06	28.571
275.43	26.248
275.80	29.982
276.17	26.111
276.54	26.679
276.91	26.655
277.28	26.763
277.65	28.905
278.02	31.985
278.39	28.804
278.76	26.362
279.13	30.142
279.50	28.866
279.87	29.159
280.23	25.176
280.60	27.119
280.97	25.493
281.34	24.958
281.71	27.919
282.08	26.246
282.45	26.678
282.82	27.786
283.19	25.848
283.56	27.869
283.92	28.679
284.29	26.856
284.66	24.795
285.03	26.282
285.40	27.821
285.77	25.851
286.14	28.550
286.51	26.788
286.87	27.014
287.24	27.410
287.61	25.710
287.98	24.924
288.35	24.556
288.72	28.254
289.08	25.769
289.45	25.444
289.82	26.205
290.19	23.563
290.56	26.056
290.93	24.822
291.29	24.518
291.66	26.309
292.03	23.745
292.40	24.082
292.77	22.372
293.13	22.869
293.50	23.916
293.87	23.356
294.24	24.000
294.60	21.871
294.97	21.611
295.34	24.712
295.71	21.690
296.08	23.127
296.44	22.672
296.81	22.168
297.18	22.291
297.55	22.170
297.91	21.115
298.28	20.972
298.65	21.165
299.02	20.661
299.38	21.510
299.75	20.561
300.12	20.718
300.48	22.005
300.85	20.697
301.22	21.141
301.59	20.434
301.95	20.452
302.32	20.444
302.69	20.153
303.05	20.239
303.42	20.732
303.79	19.896
304.15	18.402
304.52	18.922
304.89	19.581
305.25	18.737
305.62	19.958
305.99	19.072
306.35	18.750
306.72	19.131
307.09	17.766
307.45	19.151
307.82	19.677
308.19	19.475
308.55	19.576
308.92	17.624
309.29	20.594
309.65	19.591
310.02	19.703
310.38	20.276
310.75	19.223
311.12	20.709
311.48	18.280
311.85	19.468
312.22	19.070
312.58	18.404
312.95	19.025
313.31	18.880
313.68	18.773
314.05	19.693
314.41	19.399
314.78	17.893
315.14	19.873
315.51	19.391
315.87	19.442
316.24	19.269
316.61	18.739
316.97	17.647
317.34	18.607
317.70	18.952
318.07	19.048
318.43	18.707
318.80	19.398
319.16	18.455
319.53	17.138
319.89	19.369
320.26	18.505
320.62	18.351
320.99	18.467
321.35	18.577
321.72	19.814
322.08	17.493
322.45	17.615
322.81	18.953
323.18	17.788
323.54	18.793
323.91	18.594
324.27	18.933
324.64	19.060
325.00	17.993
325.37	18.755
325.73	19.752
326.10	19.789
326.46	18.485
326.83	19.696
327.19	19.213
327.56	19.289
327.92	18.411
328.29	17.581
328.65	18.844
329.01	19.797
329.38	19.798
329.74	19.349
330.11	18.664
330.47	17.944
330.84	18.605
331.20	18.833
331.56	18.804
331.93	19.247
332.29	20.000
332.66	19.020
333.02	18.760
333.38	19.295
333.75	19.108
334.11	18.015
334.48	18.647
334.84	19.881
335.20	17.968
335.57	18.887
335.93	18.678
336.29	18.053
336.66	17.494
337.02	17.977
337.38	19.048
337.75	18.264
338.11	18.503
338.47	17.370
338.84	17.936
339.20	17.776
339.56	18.616
339.93	17.406
340.29	16.908
340.65	18.167
341.02	18.436
341.38	18.836
341.74	17.111
342.11	18.665
342.47	18.745
342.83	18.116
343.20	18.888
343.56	17.642
343.92	18.255
344.28	18.047
344.65	18.682
345.01	17.083
345.37	17.807
345.73	17.147
346.10	17.629
346.46	17.642
346.82	17.228
347.19	17.723
347.55	18.209
347.91	18.053
348.27	18.134
348.63	18.812
349.00	17.823
349.36	17.398
349.72	17.783
350.08	18.722
350.45	17.110
350.81	16.365
351.17	16.917
351.53	17.968
351.89	17.768
352.26	17.537
352.62	17.537
352.98	16.947
353.34	15.982
353.70	16.949
354.07	17.362
354.43	16.021
354.79	17.577
355.15	17.807
355.51	17.763
355.87	16.530
356.24	17.719
356.60	16.925
356.96	16.753
357.32	17.026
357.68	16.471
358.04	16.093
358.40	16.269
358.77	17.032
359.13	17.282
359.49	16.803
359.85	16.751
360.21	16.714
360.57	16.511
360.93	16.925
361.29	16.842
361.66	16.799
362.02	17.119
362.38	17.217
362.74	15.992
363.10	17.675
363.46	15.582
363.82	16.406
364.18	16.608
364.54	16.805
364.90	16.722
365.26	16.759
365.62	16.867
365.98	17.155
366.35	16.913
366.71	16.463
367.07	15.968
367.43	16.875
367.79	16.656
368.15	16.656
368.51	17.456
368.87	16.525
369.23	15.867
369.59	15.915
369.95	15.957
370.31	16.408
370.67	15.887
371.03	16.690
371.39	16.051
371.75	15.956
372.11	16.328
372.47	15.843
372.83	16.623
373.19	15.677
373.55	16.328
373.91	14.383
374.27	16.429
374.63	15.765
374.99	15.849
375.35	16.753
375.71	15.677
376.07	15.946
376.42	15.680
376.78	15.973
377.14	15.721
377.50	16.192
377.86	16.256
378.22	16.228
378.58	15.993
378.94	16.138
379.30	15.934
379.66	15.638
380.02	16.042
380.38	16.820
380.74	15.718
381.09	15.215
381.45	15.966
381.81	16.218
382.17	15.974
382.53	15.497
382.89	16.196
383.25	15.592
383.61	14.641
383.97	15.665
384.32	16.029
384.68	15.313
385.04	15.963
385.40	15.321
385.76	15.944
386.12	15.739
386.48	15.118
386.83	16.567
387.19	16.396
387.55	14.554
387.91	15.753
388.27	15.993
388.62	15.292
388.98	15.341
389.34	15.910
389.70	15.747
390.06	16.400
390.42	16.145
390.77	16.315
391.13	15.669
391.49	15.761
391.85	14.909
392.20	15.184
392.56	15.298
392.92	15.758
393.28	15.920
393.64	15.363
393.99	16.734
394.35	15.888
394.71	15.629
395.07	14.072
395.42	15.420
395.78	15.356
396.14	14.914
396.50	14.964
396.85	15.683
397.21	15.030
397.57	16.137
397.92	15.693
398.28	15.535
398.64	15.332
399.00	15.236
399.35	15.445
399.71	15.217
400.07	15.048
400.42	15.250
400.78	15.451
401.14	15.424
401.49	15.748
401.85	15.465
402.21	15.817
402.57	16.080
402.92	15.839
403.28	15.164
403.63	14.976
403.99	14.252
404.35	15.179
404.70	15.184
405.06	15.109
405.42	16.393
405.77	15.431
406.13	15.343
406.49	15.428
406.84	15.956
407.20	14.701
407.55	14.961
407.91	15.211
408.27	15.194
408.62	15.416
408.98	14.626
409.34	14.780
409.69	15.513
410.05	15.123
410.40	14.907
410.76	15.311
411.11	15.839
411.47	15.172
411.83	15.697
412.18	15.361
412.54	15.234
412.89	16.065
413.25	15.914
413.60	15.566
413.96	15.676
414.31	14.844
414.67	15.802
415.03	14.831
415.38	15.826
415.74	14.966
416.09	15.916
416.45	15.091
416.80	14.933
417.16	15.390
417.51	15.816
417.87	15.328
418.22	15.808
418.58	14.932
418.93	15.716
419.29	15.721
419.64	13.986
420.00	15.015
420.35	14.992
420.71	15.336
421.06	15.354
421.42	15.195
421.77	14.755
422.12	15.116
422.48	14.542
422.83	15.608
423.19	14.748
423.54	15.376
423.90	15.516
424.25	15.733
424.61	14.237
424.96	14.772
425.31	15.711
425.67	15.191
426.02	14.831
426.38	15.385
426.73	15.458
427.09	16.609
427.44	14.746
427.79	14.925
428.15	14.498
428.50	14.719
428.85	14.983
429.21	14.309
429.56	14.709
429.92	15.381
430.27	15.277
430.62	15.437
430.98	15.248
431.33	14.907
431.68	14.224
432.04	15.541
432.39	14.622
432.74	14.669
433.10	15.468
433.45	14.716
433.80	15.987
434.16	15.702
434.51	15.057
434.86	15.092
435.22	15.781
435.57	15.271
435.92	15.025
436.28	15.301
436.63	15.128
436.98	15.459
437.34	15.389
437.69	14.915
438.04	14.860
438.39	14.819
438.75	15.163
439.10	15.381
439.45	14.701
439.81	14.915
440.16	15.013
440.51	15.050
440.86	14.452
441.22	14.684
441.57	15.723
441.92	14.937
442.27	15.000
442.63	15.052
442.98	14.781
443.33	15.097
443.68	15.510
444.03	15.146
444.39	14.887
444.74	14.906
445.09	15.003
445.44	15.016
445.79	15.230
446.15	15.519
446.50	15.039
446.85	15.029
447.20	15.716
447.55	15.220
447.91	14.607
448.26	15.539
448.61	14.984
448.96	15.343
449.31	14.793
449.66	14.869
450.02	14.662
450.37	15.024
450.72	14.639
451.07	15.376
451.42	14.905
451.77	14.897
452.12	14.673
452.47	15.033
452.83	15.203
453.18	14.536
453.53	15.164
453.88	14.357
454.23	15.254
454.58	15.496
454.93	14.867
455.28	15.111
455.63	15.406
455.98	14.749
456.34	14.547
456.69	14.756
457.04	15.485
457.39	15.299
457.74	14.765
458.09	14.443
458.44	14.978
458.79	14.544
459.14	14.053
459.49	15.337
459.84	15.477
460.19	14.159
460.54	15.105
460.89	15.193
461.24	14.483
461.59	15.053
461.94	14.204
462.29	14.838
462.64	14.062
462.99	14.815
463.34	15.185
463.69	14.596
464.04	14.341
464.39	15.583
464.74	15.051
465.09	14.591
465.44	14.378
465.79	14.172
466.14	14.851
466.49	14.684
466.84	15.207
467.19	15.376
467.54	14.101
467.89	14.885
468.24	14.460
468.59	13.955
468.94	13.636
469.29	14.517
469.64	13.795
469.99	14.340
470.34	14.418
470.68	15.653
471.03	14.342
471.38	15.043
471.73	13.784
472.08	13.769
472.43	14.509
472.78	15.239
473.13	14.286
473.48	14.079
473.83	14.452
474.17	13.423
474.52	13.470
474.87	15.449
475.22	15.268
475.57	14.278
475.92	14.435
476.27	14.590
476.61	14.849
476.96	13.556
477.31	15.149
477.66	14.323
478.01	14.387
478.36	14.158
478.70	14.483
479.05	14.724
479.40	14.906
479.75	14.938
480.10	14.732
480.45	14.494
480.79	14.694
481.14	14.936
481.49	13.903
481.84	15.057
482.19	14.065
482.53	15.129
482.88	13.957
483.23	14.362
483.58	14.498
483.92	13.431
484.27	14.395
484.62	14.233
484.97	14.697
485.31	13.974
485.66	14.178
486.01	14.755
486.36	15.108
486.70	15.189
487.05	15.174
487.40	14.999
487.75	14.860
488.09	14.652
488.44	14.519
488.79	14.874
489.13	14.663
489.48	13.864
489.83	13.924
490.17	14.257
490.52	13.834
490.87	13.748
491.22	14.341
491.56	14.206
491.91	13.650
492.26	14.453
492.60	13.424
492.95	14.348
493.30	14.388
493.64	14.411
493.99	14.254
494.34	13.894
494.68	13.961
495.03	14.097
495.37	14.070
495.72	13.741
496.07	14.549
496.41	14.372
496.76	14.262
497.11	13.503
497.45	13.984
497.80	14.349
498.14	13.469
498.49	13.143
498.84	13.894
499.18	14.350
499.53	14.126
499.87	14.154
500.22	13.268
500.56	13.585
500.91	14.920
501.26	13.818
501.60	13.743
501.95	13.938
502.29	13.251
502.64	14.211
502.98	13.891
503.33	14.168
503.67	13.781
504.02	14.098
504.36	14.209
504.71	13.137
505.06	13.915
505.40	13.711
505.75	14.526
506.09	14.549
506.44	14.392
506.78	13.394
507.13	13.923
507.47	14.543
507.82	13.352
508.16	13.767
508.51	13.737
508.85	13.557
509.19	14.211
509.54	13.881
509.88	13.745
510.23	13.162
510.57	14.113
510.92	13.304
511.26	13.131
511.61	13.134
511.95	13.421
512.30	13.983
512.64	13.293
512.98	13.207
513.33	13.710
513.67	13.514
514.02	13.286
514.36	14.015
514.70	13.594
515.05	13.452
515.39	13.123
515.74	13.945
516.08	13.576
516.42	13.396
516.77	13.670
517.11	13.718
517.46	13.415
517.80	13.576
518.14	14.418
518.49	13.449
518.83	13.997
519.17	13.355
519.52	13.941
519.86	13.147
520.20	13.152
520.55	13.198
520.89	12.894
521.23	12.898
521.58	14.011
521.92	12.805
522.26	13.116
522.61	13.889
522.95	13.033
523.29	13.506
523.64	13.453
523.98	12.949
524.32	14.212
524.66	14.001
525.01	12.967
525.35	13.153
525.69	13.399
526.04	12.744
526.38	13.103
526.72	14.129
527.06	12.669
527.41	13.236
527.75	13.242
528.09	12.928
528.43	13.914
528.78	12.775
529.12	13.647
529.46	13.603
529.80	13.959
530.15	12.928
530.49	12.930
530.83	13.164
531.17	13.023
531.51	13.177
531.86	13.161
532.20	13.659
532.54	12.567
532.88	14.727
533.22	13.789
533.57	13.733
533.91	14.478
534.25	14.189
534.59	13.333
534.93	12.847
535.27	13.408
535.62	14.156
535.96	14.178
536.30	14.219
536.64	14.114
536.98	14.453
537.32	14.444
537.66	13.350
538.01	13.535
538.35	13.155
538.69	13.582
539.03	13.979
539.37	14.252
539.71	14.174
540.05	14.089
540.39	13.325
540.73	13.843
541.07	13.305
541.42	13.467
541.76	12.752
542.10	13.691
542.44	13.094
542.78	13.929
543.12	13.647
543.46	13.309
543.80	12.890
544.14	13.106
544.48	13.948
544.82	12.807
545.16	12.701
545.50	13.301
545.84	13.105
546.18	14.444
546.52	12.739
546.86	13.648
547.20	13.613
547.54	13.171
547.88	13.803
548.22	13.626
548.56	13.575
548.90	13.313
549.24	13.617
549.58	13.880
549.92	13.393
550.26	13.981
550.60	13.019
550.94	13.389
551.28	13.267
551.62	14.151
551.96	13.722
552.30	14.085
552.64	14.624
552.98	13.600
553.32	13.248
553.66	13.312
554.00	13.430
554.34	13.063
554.68	13.363
555.02	12.878
555.36	13.741
555.69	13.901
556.03	14.754
556.37	14.143
556.71	12.746
557.05	13.546
557.39	13.072
557.73	13.276
558.07	13.444
558.41	14.219
558.75	13.252
559.08	13.848
559.42	12.894
559.76	14.043
560.10	13.798
560.44	12.995
560.78	14.375
561.12	13.732
561.45	13.990
561.79	13.980
562.13	14.171
562.47	13.194
562.81	13.165
563.15	13.889
563.48	13.487
563.82	13.059
564.16	12.962
564.50	13.468
564.84	13.628
565.17	13.824
565.51	13.636
565.85	14.133
566.19	13.191
566.52	14.102
566.86	13.413
567.20	13.975
567.54	13.808
567.88	14.781
568.21	14.625
568.55	13.237
568.89	14.571
569.23	14.913
569.56	14.850
569.90	14.968
570.24	15.042
570.57	14.785
570.91	14.574
571.25	14.811
571.59	15.224
571.92	14.686
572.26	14.690
572.60	14.715
572.93	14.890
573.27	14.667
573.61	15.008
573.95	15.441
574.28	15.043
574.62	14.620
574.96	14.888
575.29	14.232
575.63	14.692
575.97	14.850
576.30	14.236
576.64	14.531
576.98	14.852
577.31	14.871
577.65	15.332
577.98	15.211
578.32	14.837
578.66	14.964
578.99	14.663
579.33	14.673
579.67	14.755
580.00	15.037
580.34	15.271
580.67	15.071
581.01	14.994
581.35	15.293
581.68	14.765
582.02	14.967
582.35	15.127
582.69	15.464
583.02	15.100
583.36	15.301
583.70	15.019
584.03	14.687
584.37	14.638
584.70	14.817
585.04	14.787
585.37	14.737
585.71	14.628
586.04	14.685
586.38	14.786
586.72	14.314
587.05	14.863
587.39	14.784
587.72	14.809
588.06	14.749
588.39	15.484
588.73	14.815
589.06	14.814
589.40	14.413
589.73	14.332
590.07	15.053
590.40	14.909
590.73	14.457
591.07	14.631
591.40	14.502
591.74	14.388
592.07	14.616
592.41	14.629
592.74	14.909
593.08	14.586
593.41	15.194
593.75	14.569
594.08	14.662
594.41	14.647
594.75	14.480
595.08	14.670
595.42	14.351
595.75	15.111
596.09	15.419
596.42	14.654
596.75	14.435
597.09	14.828
597.42	14.422
597.75	14.661
598.09	15.317
598.42	14.676
598.76	14.177
599.09	14.169
599.42	14.180
599.76	14.625
600.09	15.349
600.42	15.048
600.76	14.564
601.09	14.637
601.42	14.041
601.76	14.414
602.09	14.904
602.42	14.068
602.76	13.985
603.09	14.354
603.42	14.848
603.76	14.729
604.09	15.330
604.42	14.495
604.76	14.079
605.09	14.719
605.42	14.234
605.75	14.769
606.09	14.334
606.42	14.228
606.75	14.055
607.09	13.978
607.42	14.489
607.75	14.810
608.08	14.522
608.42	14.430
608.75	14.179
609.08	14.049
609.41	14.336
609.75	14.196
610.08	14.336
610.41	14.104
610.74	13.992
611.07	13.988
611.41	14.933
611.74	14.596
612.07	14.493
612.40	14.354
612.73	13.985
613.07	14.377
613.40	14.244
613.73	14.011
614.06	14.475
614.39	14.286
614.72	14.168
615.06	13.619
615.39	14.210
615.72	14.123
616.05	13.890
616.38	14.178
616.71	13.218
617.05	13.472
617.38	14.393
617.71	14.255
618.04	14.571
618.37	14.262
618.70	14.989
619.03	13.859
619.36	13.502
619.69	13.453
620.03	13.685
620.36	13.926
620.69	13.202
621.02	14.042
621.35	13.716
621.68	14.461
622.01	14.662
622.34	14.017
622.67	13.402
623.00	12.753
623.33	13.869
623.66	14.073
623.99	13.430
624.32	13.970
624.65	12.870
624.99	13.589
625.32	14.174
625.65	13.688
625.98	13.085
626.31	13.040
626.64	13.333
626.97	13.053
627.30	13.060
627.63	13.803
627.96	14.039
628.29	13.385
628.62	12.091
628.95	12.445
629.28	12.574
629.61	13.047
629.94	12.552
630.26	11.610
630.59	13.644
630.92	12.468
631.25	13.417
631.58	12.524
631.91	12.559
632.24	13.353
632.57	12.903
632.90	12.638
633.23	12.449
633.56	11.837
633.89	12.603
634.22	12.370
634.55	13.570
