SpectraSuite Data File
++++++++++++++++++++++++++++++++++++
Date: Thu May 14 16:34:50 PDT 2015
User: schluterlab
Dark Spectrum Present: Yes
Reference Spectrum Present: Yes
Number of Sampled Component Spectra: 1
Spectrometers: USB2E3373
Integration Time (usec): 3000 (USB2E3373)
Spectra Averaged: 3 (USB2E3373)
Boxcar Smoothing: 0 (USB2E3373)
Correct for Electrical Dark: No (USB2E3373)
Strobe/Lamp Enabled: No (USB2E3373)
Correct for Detector Non-linearity: No (USB2E3373)
Correct for Stray Light: No (USB2E3373)
Number of Pixels in Processed Spectrum: 2048
>>>>>Begin Processed Spectral Data<<<<<
178.53	0.000
178.91	-28.571
179.29	-700.000
179.67	-400.000
180.04	92.857
180.42	-40.000
180.80	-40.000
181.18	-1000.000
181.56	200.000
181.94	75.000
182.31	-350.000
182.69	233.333
183.07	-150.000
183.45	25.000
183.83	66.667
184.20	-100.000
184.58	-400.000
184.96	25.000
185.34	-100.000
185.72	160.000
186.09	122.222
186.47	-0.000
186.85	20.000
187.23	-122.222
187.61	-1500.000
187.98	-0.000
188.36	200.000
188.74	-50.000
189.12	166.667
189.49	-12.500
189.87	25.000
190.25	11.111
190.63	20.000
191.00	-155.556
191.38	0.000
191.76	-125.000
192.14	0.000
192.51	-300.000
192.89	-66.667
193.27	0.000
193.65	71.429
194.02	-1200.000
194.40	-28.571
194.78	85.714
195.15	0.000
195.53	72.727
195.91	0.000
196.29	-125.000
196.66	-7.692
197.04	-300.000
197.42	-157.143
197.79	-450.000
198.17	-150.000
198.55	-214.286
198.92	55.556
199.30	-62.500
199.68	18.182
200.05	78.571
200.43	-450.000
200.81	228.571
201.18	0.000
201.56	166.667
201.94	0.000
202.31	566.667
202.69	-155.556
203.07	-100.000
203.44	-11.111
203.82	-375.000
204.19	-25.000
204.57	66.667
204.95	-75.000
205.32	-1000.000
205.70	175.000
206.08	0.000
206.45	0.000
206.83	320.000
207.20	-66.667
207.58	-280.000
207.96	-83.333
208.33	-66.667
208.71	75.000
209.08	33.333
209.46	0.000
209.84	400.000
210.21	200.000
210.59	-50.000
210.96	466.667
211.34	-50.000
211.71	-75.000
212.09	-400.000
212.46	0.000
212.84	650.000
213.22	-220.000
213.59	-75.000
213.97	50.000
214.34	-166.667
214.72	233.333
215.09	0.000
215.47	0.000
215.84	85.714
216.22	300.000
216.59	80.000
216.97	0.000
217.34	50.000
217.72	-50.000
218.09	-100.000
218.47	-225.000
218.84	0.000
219.22	120.000
219.59	11.765
219.97	15.000
220.34	300.000
220.72	-100.000
221.09	46.154
221.47	200.000
221.84	-20.000
222.22	-57.143
222.59	0.000
222.97	100.000
223.34	-60.000
223.72	-1100.000
224.09	75.000
224.46	-300.000
224.84	-100.000
225.21	-185.714
225.59	-375.000
225.96	-325.000
226.34	-11.538
226.71	216.667
227.08	-250.000
227.46	-13.333
227.83	-25.000
228.21	21.053
228.58	150.000
228.95	450.000
229.33	41.667
229.70	-30.000
230.08	26.316
230.45	120.000
230.82	100.000
231.20	7.143
231.57	-58.333
231.95	18.182
232.32	72.727
232.69	30.000
233.07	-150.000
233.44	23.529
233.81	-90.000
234.19	0.000
234.56	-22.727
234.93	10.345
235.31	-5.263
235.68	-5.556
236.05	-25.000
236.43	61.538
236.80	28.000
237.17	3.704
237.55	-27.273
237.92	-90.000
238.29	-12.903
238.67	-18.182
239.04	8.333
239.41	4.762
239.79	-2.174
240.16	16.667
240.53	-15.217
240.91	-13.725
241.28	3.279
241.65	23.881
242.02	20.270
242.40	-4.615
242.77	14.667
243.14	1.220
243.51	-7.895
243.89	-3.846
244.26	7.921
244.63	10.784
245.00	12.150
245.38	-4.386
245.75	-7.080
246.12	6.349
246.49	3.876
246.87	11.429
247.24	7.285
247.61	10.526
247.98	5.369
248.36	6.790
248.73	-2.454
249.10	4.372
249.47	13.433
249.84	16.230
250.22	6.218
250.59	9.444
250.96	6.364
251.33	0.510
251.70	12.821
252.08	4.167
252.45	8.197
252.82	10.744
253.19	7.422
253.56	10.646
253.94	9.615
254.31	8.333
254.68	9.790
255.05	10.423
255.42	7.143
255.79	8.414
256.16	7.616
256.54	4.636
256.91	7.541
257.28	4.918
257.65	5.732
258.02	6.490
258.39	9.972
258.76	11.315
259.14	9.770
259.51	9.510
259.88	9.348
260.25	8.333
260.62	11.781
260.99	11.202
261.36	12.601
261.73	8.753
262.10	5.769
262.47	9.115
262.85	11.111
263.22	4.675
263.59	4.211
263.96	8.440
264.33	5.882
264.70	9.136
265.07	10.740
265.44	12.925
265.81	6.944
266.18	9.297
266.55	8.929
266.92	4.784
267.29	9.409
267.66	9.978
268.03	8.952
268.40	9.603
268.77	6.150
269.14	6.828
269.51	7.675
269.88	8.197
270.25	8.249
270.62	8.650
270.99	9.495
271.36	12.277
271.73	9.234
272.10	9.619
272.47	6.212
272.84	8.434
273.21	8.417
273.58	7.863
273.95	7.692
274.32	7.605
274.69	6.963
275.06	10.989
275.43	5.915
275.80	9.171
276.17	7.407
276.54	8.209
276.91	7.692
277.28	6.872
277.65	7.361
278.02	9.375
278.39	10.145
278.76	7.909
279.13	8.511
279.50	10.309
279.87	9.123
280.23	5.986
280.60	8.983
280.97	9.539
281.34	7.131
281.71	8.291
282.08	7.309
282.45	6.874
282.82	8.477
283.19	6.139
283.56	7.213
283.92	9.309
284.29	8.847
284.66	9.688
285.03	6.250
285.40	9.583
285.77	8.824
286.14	9.008
286.51	7.002
286.87	9.953
287.24	8.735
287.61	7.175
287.98	7.704
288.35	8.876
288.72	8.876
289.08	8.638
289.45	9.911
289.82	8.886
290.19	9.052
290.56	10.141
290.93	8.702
291.29	9.229
291.66	9.366
292.03	7.463
292.40	10.476
292.77	8.491
293.13	9.743
293.50	8.410
293.87	10.201
294.24	10.933
294.60	11.631
294.97	9.530
295.34	12.164
295.71	10.593
296.08	10.078
296.44	9.559
296.81	10.962
297.18	9.589
297.55	10.259
297.91	10.083
298.28	10.190
298.65	10.702
299.02	9.445
299.38	10.870
299.75	9.346
300.12	10.301
300.48	10.138
300.85	11.474
301.22	11.745
301.59	10.616
301.95	11.977
302.32	13.000
302.69	12.486
303.05	11.534
303.42	9.424
303.79	10.208
304.15	11.462
304.52	11.311
304.89	12.042
305.25	11.491
305.62	12.226
305.99	11.959
306.35	10.585
306.72	11.582
307.09	11.066
307.45	11.284
307.82	12.412
308.19	10.898
308.55	13.404
308.92	11.879
309.29	12.452
309.65	12.183
310.02	12.277
310.38	11.516
310.75	11.845
311.12	12.272
311.48	12.805
311.85	12.251
312.22	11.860
312.58	12.864
312.95	13.002
313.31	12.918
313.68	12.271
314.05	14.182
314.41	13.843
314.78	12.807
315.14	13.430
315.51	13.758
315.87	14.131
316.24	14.612
316.61	14.032
316.97	13.213
317.34	12.610
317.70	14.498
318.07	14.903
318.43	14.116
318.80	14.967
319.16	13.820
319.53	13.453
319.89	13.409
320.26	15.214
320.62	14.628
320.99	15.512
321.35	14.325
321.72	15.256
322.08	16.772
322.45	15.808
322.81	15.253
323.18	15.664
323.54	15.000
323.91	14.769
324.27	14.888
324.64	16.037
325.00	15.672
325.37	15.070
325.73	16.116
326.10	15.491
326.46	16.694
326.83	17.214
327.19	15.906
327.56	16.601
327.92	16.522
328.29	15.726
328.65	15.997
329.01	16.244
329.38	16.512
329.74	17.380
330.11	16.952
330.47	17.270
330.84	15.332
331.20	17.500
331.56	16.984
331.93	16.987
332.29	15.254
332.66	16.944
333.02	15.997
333.38	16.107
333.75	16.162
334.11	17.014
334.48	16.007
334.84	16.907
335.20	15.281
335.57	16.779
335.93	17.438
336.29	14.476
336.66	15.896
337.02	15.468
337.38	15.986
337.75	15.289
338.11	17.073
338.47	16.625
338.84	15.651
339.20	14.827
339.56	16.145
339.93	15.517
340.29	16.184
340.65	15.166
341.02	16.201
341.38	14.875
341.74	15.174
342.11	16.653
342.47	15.250
342.83	16.908
343.20	14.800
343.56	15.638
343.92	15.452
344.28	15.312
344.65	16.434
345.01	15.289
345.37	15.630
345.73	15.355
346.10	15.601
346.46	14.873
346.82	16.629
347.19	15.661
347.55	15.857
347.91	14.339
348.27	15.250
348.63	16.146
349.00	14.467
349.36	15.316
349.72	15.625
350.08	15.602
350.45	14.753
350.81	15.158
351.17	15.940
351.53	15.011
351.89	14.806
352.26	15.149
352.62	15.149
352.98	14.656
353.34	13.443
353.70	14.561
354.07	15.499
354.43	14.427
354.79	15.333
355.15	15.820
355.51	14.693
355.87	13.837
356.24	15.133
356.60	15.521
356.96	14.974
357.32	15.019
357.68	15.447
358.04	15.269
358.40	14.776
358.77	15.863
359.13	15.214
359.49	14.647
359.85	16.099
360.21	15.208
360.57	14.645
360.93	14.669
361.29	16.772
361.66	14.917
362.02	16.075
362.38	15.039
362.74	15.782
363.10	16.300
363.46	14.751
363.82	14.702
364.18	14.356
364.54	15.007
364.90	15.719
365.26	15.103
365.62	15.800
365.98	14.908
366.35	16.107
366.71	14.422
367.07	14.208
367.43	16.087
367.79	15.727
368.15	16.120
368.51	15.426
368.87	15.741
369.23	15.200
369.59	16.735
369.95	15.416
370.31	16.070
370.67	16.300
371.03	14.335
371.39	16.051
371.75	15.750
372.11	15.786
372.47	15.166
372.83	16.296
373.19	15.944
373.55	15.312
373.91	15.542
374.27	15.201
374.63	17.253
374.99	15.981
375.35	16.429
375.71	14.774
376.07	15.365
376.42	16.436
376.78	16.097
377.14	15.908
377.50	16.319
377.86	16.626
378.22	17.246
378.58	16.468
378.94	15.610
379.30	16.227
379.66	15.991
380.02	16.330
380.38	16.302
380.74	16.451
381.09	15.970
381.45	16.193
381.81	16.686
382.17	16.746
382.53	16.842
382.89	16.479
383.25	16.413
383.61	16.435
383.97	16.608
384.32	18.002
384.68	15.835
385.04	17.120
385.40	17.148
385.76	17.761
386.12	16.876
386.48	17.471
386.83	17.163
387.19	17.034
387.55	16.549
387.91	16.838
388.27	17.148
388.62	15.865
388.98	16.469
389.34	17.501
389.70	17.780
390.06	16.519
390.42	17.289
390.77	18.663
391.13	16.725
391.49	17.995
391.85	16.667
392.20	17.023
392.56	18.015
392.92	17.339
393.28	17.468
393.64	17.374
393.99	17.316
394.35	17.465
394.71	18.563
395.07	16.826
395.42	16.676
395.78	17.794
396.14	17.706
396.50	17.458
396.85	16.995
397.21	17.278
397.57	17.197
397.92	18.442
398.28	16.676
398.64	17.277
399.00	16.649
399.35	17.330
399.71	16.793
400.07	17.518
400.42	17.986
400.78	17.535
401.14	17.359
401.49	16.543
401.85	17.965
402.21	17.439
402.57	18.310
402.92	17.967
403.28	17.037
403.63	17.184
403.99	16.449
404.35	17.055
404.70	17.280
405.06	16.630
405.42	17.037
405.77	17.939
406.13	17.288
406.49	17.399
406.84	17.285
407.20	17.328
407.55	16.535
407.91	17.222
408.27	16.843
408.62	17.219
408.98	18.340
409.34	16.833
409.69	17.305
410.05	17.292
410.40	18.097
410.76	17.723
411.11	17.709
411.47	17.260
411.83	17.402
412.18	17.410
412.54	16.953
412.89	17.637
413.25	17.438
413.60	17.519
413.96	17.366
414.31	17.054
414.67	17.770
415.03	17.723
415.38	17.339
415.74	17.532
416.09	17.520
416.45	17.721
416.80	16.340
417.16	17.241
417.51	16.750
417.87	17.229
418.22	17.365
418.58	17.534
418.93	17.637
419.29	17.016
419.64	16.927
420.00	17.567
420.35	17.350
420.71	17.289
421.06	16.791
421.42	17.259
421.77	17.178
422.12	17.389
422.48	16.999
422.83	17.360
423.19	17.507
423.54	17.201
423.90	16.510
424.25	17.333
424.61	16.361
424.96	17.628
425.31	17.941
425.67	16.908
426.02	17.543
426.38	16.590
426.73	17.188
427.09	18.108
427.44	17.149
427.79	17.358
428.15	16.952
428.50	17.135
428.85	17.279
429.21	17.872
429.56	16.486
429.92	16.216
430.27	17.349
430.62	17.391
430.98	17.068
431.33	16.716
431.68	16.810
432.04	17.115
432.39	16.283
432.74	17.466
433.10	17.144
433.45	16.276
433.80	17.167
434.16	16.581
434.51	17.061
434.86	16.667
435.22	16.738
435.57	17.217
435.92	17.641
436.28	17.349
436.63	17.313
436.98	16.747
437.34	16.798
437.69	16.951
438.04	16.499
438.39	17.289
438.75	16.879
439.10	17.706
439.45	16.993
439.81	16.780
440.16	16.515
440.51	17.168
440.86	17.009
441.22	17.471
441.57	16.405
441.92	17.216
442.27	16.970
442.63	17.089
442.98	17.503
443.33	16.202
443.68	17.939
444.03	16.886
444.39	16.875
444.74	17.815
445.09	16.675
445.44	17.334
445.79	17.433
446.15	16.701
446.50	16.331
446.85	17.169
447.20	16.925
447.55	17.626
447.91	16.702
448.26	16.438
448.61	16.738
448.96	17.811
449.31	16.649
449.66	16.558
450.02	16.561
450.37	17.688
450.72	16.416
451.07	17.027
451.42	16.002
451.77	16.898
452.12	16.591
452.47	16.578
452.83	16.723
453.18	16.112
453.53	16.198
453.88	16.289
454.23	17.062
454.58	16.773
454.93	15.837
455.28	17.158
455.63	16.373
455.98	16.927
456.34	16.137
456.69	16.402
457.04	16.903
457.39	15.687
457.74	16.779
458.09	16.310
458.44	16.379
458.79	16.452
459.14	16.466
459.49	16.186
459.84	16.474
460.19	16.657
460.54	16.865
460.89	16.146
461.24	16.494
461.59	17.045
461.94	15.516
462.29	16.797
462.64	15.751
462.99	16.133
463.34	16.418
463.69	15.475
464.04	15.953
464.39	16.592
464.74	16.021
465.09	16.090
465.44	15.987
465.79	16.816
466.14	16.467
466.49	16.158
466.84	16.253
467.19	16.185
467.54	16.157
467.89	15.517
468.24	16.288
468.59	15.229
468.94	15.851
469.29	16.317
469.64	16.338
469.99	16.316
470.34	16.213
470.68	15.858
471.03	15.848
471.38	15.566
471.73	15.670
472.08	16.117
472.43	15.894
472.78	16.184
473.13	15.613
473.48	16.616
473.83	16.251
474.17	15.592
474.52	16.597
474.87	16.279
475.22	16.732
475.57	15.369
475.92	15.928
476.27	16.507
476.61	15.421
476.96	15.172
477.31	15.743
477.66	15.897
478.01	15.404
478.36	15.803
478.70	16.158
479.05	16.258
479.40	15.647
479.75	16.282
480.10	15.253
480.45	16.089
480.79	15.918
481.14	15.763
481.49	16.129
481.84	15.579
482.19	15.398
482.53	15.785
482.88	15.817
483.23	15.963
483.58	15.109
483.92	15.691
484.27	15.707
484.62	15.635
484.97	15.474
485.31	15.382
485.66	15.204
486.01	14.885
486.36	15.001
486.70	15.896
487.05	16.105
487.40	16.067
487.75	15.649
488.09	15.582
488.44	15.228
488.79	15.717
489.13	15.532
489.48	15.184
489.83	15.010
490.17	14.500
490.52	14.984
490.87	15.186
491.22	14.775
491.56	15.188
491.91	15.307
492.26	15.145
492.60	15.523
492.95	15.270
493.30	15.061
493.64	15.112
493.99	14.956
494.34	14.286
494.68	14.518
495.03	15.242
495.37	14.780
495.72	15.238
496.07	14.724
496.41	15.101
496.76	15.138
497.11	14.904
497.45	14.674
497.80	14.793
498.14	14.467
498.49	14.430
498.84	15.631
499.18	14.665
499.53	15.381
499.87	14.857
500.22	14.248
500.56	14.305
500.91	14.920
501.26	15.273
501.60	14.538
501.95	15.284
502.29	14.348
502.64	15.260
502.98	14.840
503.33	15.162
503.67	14.566
504.02	14.580
504.36	15.103
504.71	15.158
505.06	14.416
505.40	14.534
505.75	14.800
506.09	15.193
506.44	14.949
506.78	14.771
507.13	14.431
507.47	14.732
507.82	14.678
508.16	15.105
508.51	14.299
508.85	15.494
509.19	14.353
509.54	15.658
509.88	14.959
510.23	14.959
510.57	15.466
510.92	14.611
511.26	14.574
511.61	14.872
511.95	14.837
512.30	15.165
512.64	14.243
512.98	14.257
513.33	15.020
513.67	15.094
514.02	15.330
514.36	15.601
514.70	15.260
515.05	14.546
515.39	15.696
515.74	15.323
516.08	15.161
516.42	15.489
516.77	14.669
517.11	14.595
517.46	15.164
517.80	15.500
518.14	15.343
518.49	15.672
518.83	14.210
519.17	14.324
519.52	15.723
519.86	15.628
520.20	15.335
520.55	14.622
520.89	14.977
521.23	15.243
521.58	15.028
521.92	14.844
522.26	15.006
522.61	14.815
522.95	14.418
523.29	15.517
523.64	15.639
523.98	16.030
524.32	16.160
524.66	14.570
525.01	13.986
525.35	14.819
525.69	15.371
526.04	14.811
526.38	14.885
526.72	14.533
527.06	15.543
527.41	14.810
527.75	15.261
528.09	14.994
528.43	15.157
528.78	14.277
529.12	14.794
529.46	14.727
529.80	14.416
530.15	15.304
530.49	14.531
530.83	14.817
531.17	15.114
531.51	15.343
531.86	15.144
532.20	15.000
532.54	14.363
532.88	15.030
533.22	15.262
533.57	14.541
533.91	15.152
534.25	15.093
534.59	14.713
534.93	14.884
535.27	15.042
535.62	15.065
535.96	14.526
536.30	14.747
536.64	15.195
536.98	15.375
537.32	14.198
537.66	14.910
538.01	14.139
538.35	14.921
538.69	14.964
539.03	15.021
539.37	14.488
539.71	14.715
540.05	14.748
540.39	14.425
540.73	14.572
541.07	14.102
541.42	14.826
541.76	14.650
542.10	14.113
542.44	14.373
542.78	15.146
543.12	14.958
543.46	14.347
543.80	13.909
544.14	14.183
544.48	14.421
544.82	14.841
545.16	14.729
545.50	14.080
545.84	14.085
546.18	14.877
546.52	14.713
546.86	14.151
547.20	14.186
547.54	13.546
547.88	13.442
548.22	14.503
548.56	13.868
548.90	13.910
549.24	14.772
549.58	13.817
549.92	14.286
550.26	14.239
550.60	13.082
550.94	14.036
551.28	14.257
551.62	13.679
551.96	14.239
552.30	13.894
552.64	13.628
552.98	13.475
553.32	14.662
553.66	13.891
554.00	13.934
554.34	13.127
554.68	14.074
555.02	13.995
555.36	14.398
555.69	12.812
556.03	13.934
556.37	14.143
556.71	13.824
557.05	13.866
557.39	13.869
557.73	13.342
558.07	13.179
558.41	14.286
558.75	12.576
559.08	14.127
559.42	13.169
559.76	14.518
560.10	13.932
560.44	14.182
560.78	14.062
561.12	13.547
561.45	13.017
561.79	13.187
562.13	13.309
562.47	12.577
562.81	13.101
563.15	14.015
563.48	13.611
563.82	13.120
564.16	12.780
564.50	13.707
564.84	13.215
565.17	13.824
565.51	12.543
565.85	13.658
566.19	13.249
566.52	13.575
566.86	12.224
567.20	12.398
567.54	12.639
567.88	13.150
568.21	12.698
568.55	13.141
568.89	13.118
569.23	13.646
569.56	12.857
569.90	13.364
570.24	12.310
570.57	12.861
570.91	12.890
571.25	12.554
571.59	13.109
571.92	12.633
572.26	12.785
572.60	12.667
572.93	12.831
573.27	12.897
573.61	12.732
573.95	12.867
574.28	13.034
574.62	12.551
574.96	12.439
575.29	12.426
575.63	12.682
575.97	12.886
576.30	12.460
576.64	12.121
576.98	12.392
577.31	13.009
577.65	12.856
577.98	12.632
578.32	12.466
578.66	12.156
578.99	12.308
579.33	11.939
579.67	12.398
580.00	12.272
580.34	12.587
580.67	11.783
581.01	12.527
581.35	12.488
581.68	12.387
582.02	12.622
582.35	12.512
582.69	12.367
583.02	12.315
583.36	12.343
583.70	12.452
584.03	12.239
584.37	12.318
584.70	11.980
585.04	12.044
585.37	12.285
585.71	12.039
586.04	12.395
586.38	12.372
586.72	12.284
587.05	12.433
587.39	11.967
587.72	12.105
588.06	12.137
588.39	12.248
588.73	11.772
589.06	12.500
589.40	12.047
589.73	11.954
590.07	12.367
590.40	12.610
590.73	12.443
591.07	12.844
591.40	12.131
591.74	12.321
592.07	12.302
592.41	11.632
592.74	11.679
593.08	11.943
593.41	12.278
593.75	12.328
594.08	12.239
594.41	12.276
594.75	11.923
595.08	11.878
595.42	12.110
595.75	12.076
596.09	12.775
596.42	12.612
596.75	11.849
597.09	12.283
597.42	12.316
597.75	11.799
598.09	12.024
598.42	12.264
598.76	11.731
599.09	12.318
599.42	11.398
599.76	11.885
600.09	11.678
600.42	11.745
600.76	11.460
601.09	11.882
601.42	11.946
601.76	11.724
602.09	11.901
602.42	11.523
602.76	12.066
603.09	11.527
603.42	11.777
603.76	11.276
604.09	11.959
604.42	11.743
604.76	11.606
605.09	11.887
605.42	11.722
605.75	11.577
606.09	11.385
606.42	11.529
606.75	11.657
607.09	10.791
607.42	11.869
607.75	11.567
608.08	11.839
608.42	11.608
608.75	11.733
609.08	11.121
609.41	11.469
609.75	11.205
610.08	11.741
610.41	11.130
610.74	11.218
611.07	11.590
611.41	11.345
611.74	11.640
612.07	11.360
612.40	11.027
612.73	11.736
613.07	11.736
613.40	11.790
613.73	11.314
614.06	11.187
614.39	10.884
614.72	11.305
615.06	11.261
615.39	10.923
615.72	11.327
616.05	11.122
616.38	11.857
616.71	11.703
617.05	11.289
617.38	11.664
617.71	11.177
618.04	11.171
618.37	11.585
618.70	11.256
619.03	11.051
619.36	10.974
619.69	11.531
620.03	11.488
620.36	10.920
620.69	10.611
621.02	11.614
621.35	11.611
621.68	11.424
622.01	11.530
622.34	11.227
622.67	11.271
623.00	9.582
623.33	12.210
623.66	11.154
623.99	11.389
624.32	11.436
624.65	10.875
624.99	11.248
625.32	11.496
625.65	11.059
625.98	10.983
626.31	11.056
626.64	11.722
626.97	11.328
627.30	10.402
627.63	10.878
627.96	12.387
628.29	10.817
628.62	10.579
628.95	11.569
629.28	10.025
629.61	11.448
629.94	10.293
630.26	10.424
630.59	10.449
630.92	10.823
631.25	11.717
631.58	12.429
631.91	10.216
632.24	12.104
632.57	11.575
632.90	10.933
633.23	10.714
633.56	12.041
633.89	11.364
634.22	11.019
634.55	10.960
634.88	10.065
635.20	10.549
635.53	10.847
635.86	11.376
636.19	12.831
