SpectraSuite Data File
++++++++++++++++++++++++++++++++++++
Date: Thu May 14 16:36:18 PDT 2015
User: schluterlab
Dark Spectrum Present: Yes
Reference Spectrum Present: Yes
Number of Sampled Component Spectra: 1
Spectrometers: USB2E3373
Integration Time (usec): 3000 (USB2E3373)
Spectra Averaged: 3 (USB2E3373)
Boxcar Smoothing: 0 (USB2E3373)
Correct for Electrical Dark: No (USB2E3373)
Strobe/Lamp Enabled: No (USB2E3373)
Correct for Detector Non-linearity: No (USB2E3373)
Correct for Stray Light: No (USB2E3373)
Number of Pixels in Processed Spectrum: 2048
>>>>>Begin Processed Spectral Data<<<<<
178.53	0.000
178.91	157.143
179.29	-1800.000
179.67	-100.000
180.04	114.286
180.42	50.000
180.80	100.000
181.18	-200.000
181.56	0.000
181.94	200.000
182.31	-50.000
182.69	300.000
183.07	250.000
183.45	275.000
183.83	-166.667
184.20	-333.333
184.58	1400.000
184.96	-100.000
185.34	-22.222
185.72	100.000
186.09	111.111
186.47	700.000
186.85	420.000
187.23	-133.333
187.61	-300.000
187.98	100.000
188.36	25.000
188.74	-200.000
189.12	-300.000
189.49	43.750
189.87	-137.500
190.25	-22.222
190.63	80.000
191.00	-188.889
191.38	0.000
191.76	-225.000
192.14	-16.667
192.51	350.000
192.89	-50.000
193.27	0.000
193.65	-100.000
194.02	-1100.000
194.40	-14.286
194.78	-0.000
195.15	0.000
195.53	-9.091
195.91	0.000
196.29	75.000
196.66	-53.846
197.04	-1600.000
197.42	-57.143
197.79	-400.000
198.17	-162.500
198.55	-71.429
198.92	22.222
199.30	-100.000
199.68	-18.182
200.05	0.000
200.43	-700.000
200.81	200.000
201.18	0.000
201.56	111.111
201.94	0.000
202.31	400.000
202.69	-66.667
203.07	1600.000
203.44	-77.778
203.82	-175.000
204.19	0.000
204.57	33.333
204.95	-112.500
205.32	-1200.000
205.70	225.000
206.08	-166.667
206.45	33.333
206.83	480.000
207.20	-16.667
207.58	-260.000
207.96	-133.333
208.33	-33.333
208.71	75.000
209.08	0.000
209.46	0.000
209.84	250.000
210.21	450.000
210.59	250.000
210.96	366.667
211.34	25.000
211.71	-25.000
212.09	-200.000
212.46	0.000
212.84	850.000
213.22	-100.000
213.59	-75.000
213.97	50.000
214.34	-100.000
214.72	216.667
215.09	-350.000
215.47	0.000
215.84	-28.571
216.22	450.000
216.59	-40.000
216.97	-40.000
217.34	-100.000
217.72	-12.500
218.09	-225.000
218.47	-125.000
218.84	0.000
219.22	240.000
219.59	-11.765
219.97	30.000
220.34	550.000
220.72	-44.444
221.09	0.000
221.47	66.667
221.84	-80.000
222.22	-114.286
222.59	0.000
222.97	62.500
223.34	-120.000
223.72	-800.000
224.09	-300.000
224.46	-225.000
224.84	20.000
225.21	-242.857
225.59	-200.000
225.96	-325.000
226.34	-15.385
226.71	116.667
227.08	-100.000
227.46	6.667
227.83	0.000
228.21	-21.053
228.58	137.500
228.95	400.000
229.33	0.000
229.70	-30.000
230.08	26.316
230.45	170.000
230.82	-100.000
231.20	-7.143
231.57	25.000
231.95	-54.545
232.32	36.364
232.69	25.000
233.07	-100.000
233.44	-35.294
233.81	-50.000
234.19	22.222
234.56	0.000
234.93	-3.448
235.31	31.579
235.68	0.000
236.05	-25.000
236.43	42.308
236.80	24.000
237.17	-3.704
237.55	24.242
237.92	-10.000
238.29	12.903
238.67	11.364
239.04	19.444
239.41	0.000
239.79	19.565
240.16	11.111
240.53	10.870
240.91	19.608
241.28	14.754
241.65	16.418
242.02	24.324
242.40	9.231
242.77	9.333
243.14	12.195
243.51	0.000
243.89	16.667
244.26	16.832
244.63	18.627
245.00	17.757
245.38	10.526
245.75	1.770
246.12	16.667
246.49	13.953
246.87	13.571
247.24	15.894
247.61	17.763
247.98	14.765
248.36	14.198
248.73	14.110
249.10	12.568
249.47	25.871
249.84	19.372
250.22	16.062
250.59	23.333
250.96	17.273
251.33	13.776
251.70	15.812
252.08	18.333
252.45	18.852
252.82	14.876
253.19	14.453
253.56	19.392
253.94	14.615
254.31	19.318
254.68	17.483
255.05	21.824
255.42	17.687
255.79	20.065
256.16	15.232
256.54	15.232
256.91	20.328
257.28	17.705
257.65	15.287
258.02	15.929
258.39	17.379
258.76	23.853
259.14	20.115
259.51	15.274
259.88	17.564
260.25	17.222
260.62	19.178
260.99	18.579
261.36	21.448
261.73	19.098
262.10	16.758
262.47	18.499
262.85	20.455
263.22	18.442
263.59	17.368
263.96	20.205
264.33	21.483
264.70	22.222
265.07	22.196
265.44	23.129
265.81	18.519
266.18	20.181
266.55	17.857
266.92	16.401
267.29	21.007
267.66	19.956
268.03	20.306
268.40	19.833
268.77	17.084
269.14	18.722
269.51	18.640
269.88	20.492
270.25	17.505
270.62	20.464
270.99	20.000
271.36	18.614
271.73	19.253
272.10	19.439
272.47	19.439
272.84	18.474
273.21	19.439
273.58	18.952
273.95	18.654
274.32	17.490
274.69	18.956
275.06	18.864
275.43	18.484
275.80	18.871
276.17	18.148
276.54	19.216
276.91	18.247
277.28	19.168
277.65	18.133
278.02	18.382
278.39	17.935
278.76	19.332
279.13	19.681
279.50	18.900
279.87	18.605
280.23	17.430
280.60	18.136
280.97	17.599
281.34	18.676
281.71	20.135
282.08	16.279
282.45	18.003
282.82	18.838
283.19	15.832
283.56	16.885
283.92	18.919
284.29	18.641
284.66	18.555
285.03	16.827
285.40	17.311
285.77	17.647
286.14	18.626
286.51	17.504
286.87	16.114
287.24	17.620
287.61	16.891
287.98	16.465
288.35	15.976
288.72	17.456
289.08	16.545
289.45	14.645
289.82	15.060
290.19	16.092
290.56	16.761
290.93	15.549
291.29	16.253
291.66	15.289
292.03	14.518
292.40	15.510
292.77	15.633
293.13	15.968
293.50	14.717
293.87	14.899
294.24	15.867
294.60	16.688
294.97	13.557
295.34	15.365
295.71	15.637
296.08	14.470
296.44	13.848
296.81	13.764
297.18	15.068
297.55	13.325
297.91	13.286
298.28	11.256
298.65	13.080
299.02	13.459
299.38	14.302
299.75	13.435
300.12	11.690
300.48	13.710
300.85	13.161
301.22	13.758
301.59	12.215
301.95	14.124
302.32	13.333
302.69	12.048
303.05	12.514
303.42	13.747
303.79	13.229
304.15	13.565
304.52	13.953
304.89	12.984
305.25	12.940
305.62	11.808
305.99	13.505
306.35	12.601
306.72	13.857
307.09	11.777
307.45	12.422
307.82	11.705
308.19	13.017
308.55	12.633
308.92	12.950
309.29	12.644
309.65	12.573
310.02	12.376
310.38	12.894
310.75	12.039
311.12	11.409
311.48	12.805
311.85	12.915
312.22	11.765
312.58	13.146
312.95	11.950
313.31	12.556
313.68	12.546
314.05	13.640
314.41	12.477
314.78	13.170
315.14	12.432
315.51	11.727
315.87	12.511
316.24	12.511
316.61	13.410
316.97	11.131
317.34	11.993
317.70	12.838
318.07	13.051
318.43	13.605
318.80	13.462
319.16	12.961
319.53	10.883
319.89	12.445
320.26	12.989
320.62	11.791
320.99	11.819
321.35	11.738
321.72	12.744
322.08	12.083
322.45	11.834
322.81	12.635
323.18	11.593
323.54	12.500
323.91	12.633
324.27	11.962
324.64	13.350
325.00	11.940
325.37	12.531
325.73	12.645
326.10	11.679
326.46	12.704
326.83	13.611
327.19	12.913
327.56	12.648
327.92	12.116
328.29	11.935
328.65	12.060
329.01	11.675
329.38	13.479
329.74	12.500
330.11	11.558
330.47	13.311
330.84	12.231
331.20	13.083
331.56	12.392
331.93	12.636
332.29	13.390
332.66	12.292
333.02	11.474
333.38	11.997
333.75	12.121
334.11	12.427
334.48	12.376
334.84	12.319
335.20	12.175
335.57	12.395
335.93	12.149
336.29	11.814
336.66	11.859
337.02	11.789
337.38	13.350
337.75	10.992
338.11	11.438
338.47	12.655
338.84	12.014
339.20	11.289
339.56	11.944
339.93	11.987
340.29	13.124
340.65	11.922
341.02	12.769
341.38	11.803
341.74	12.026
342.11	11.022
342.47	11.358
342.83	11.836
343.20	11.856
343.56	12.189
343.92	12.330
344.28	11.250
344.65	12.171
345.01	12.402
345.37	11.897
345.73	10.912
346.10	11.700
346.46	10.759
346.82	13.109
347.19	11.077
347.55	12.595
347.91	12.333
348.27	10.622
348.63	12.262
349.00	11.111
349.36	12.342
349.72	11.607
350.08	11.664
350.45	10.875
350.81	11.538
351.17	11.955
351.53	11.979
351.89	11.997
352.26	11.791
352.62	11.194
352.98	11.221
353.34	10.978
353.70	10.863
354.07	10.730
354.43	11.314
354.79	10.920
355.15	11.258
355.51	12.719
355.87	10.696
356.24	11.027
356.60	11.160
356.96	10.452
357.32	11.152
357.68	11.420
358.04	10.404
358.40	11.269
358.77	11.550
359.13	10.340
359.49	9.591
359.85	10.877
360.21	10.258
360.57	11.558
360.93	11.213
361.29	11.649
361.66	11.586
362.02	11.900
362.38	10.190
362.74	11.313
363.10	10.798
363.46	11.911
363.82	12.003
364.18	11.541
364.54	10.581
364.90	11.371
365.26	10.207
365.62	12.067
365.98	10.960
366.35	10.537
366.71	10.408
367.07	11.231
367.43	10.965
367.79	11.480
368.15	11.037
368.51	10.555
368.87	11.234
369.23	10.467
369.59	10.587
369.95	11.494
370.31	11.141
370.67	10.935
371.03	10.734
371.39	11.350
371.75	11.004
372.11	10.976
372.47	11.374
372.83	10.471
373.19	10.740
373.55	10.501
373.91	10.429
374.27	11.190
374.63	10.893
374.99	10.544
375.35	10.844
375.71	10.710
376.07	11.491
376.42	10.831
376.78	11.187
377.14	10.730
377.50	11.006
377.86	10.899
378.22	11.138
378.58	11.118
378.94	10.270
379.30	10.310
379.66	10.700
380.02	10.906
380.38	10.945
380.74	10.873
381.09	10.627
381.45	11.080
381.81	11.475
382.17	10.748
382.53	10.936
382.89	11.287
383.25	10.668
383.61	10.417
383.97	10.012
384.32	11.065
384.68	9.745
385.04	10.642
385.40	11.373
385.76	10.551
386.12	11.071
386.48	10.706
386.83	11.323
387.19	10.487
387.55	10.622
387.91	10.103
388.27	10.624
388.62	10.825
388.98	9.870
389.34	10.371
389.70	10.633
390.06	11.368
390.42	10.904
390.77	11.379
391.13	10.681
391.49	11.051
391.85	10.364
392.20	10.439
392.56	10.809
392.92	10.742
393.28	10.503
393.64	10.056
393.99	10.691
394.35	10.864
394.71	11.557
395.07	9.940
395.42	10.908
395.78	11.213
396.14	10.992
396.50	10.511
396.85	10.912
397.21	11.302
397.57	11.131
397.92	11.397
398.28	9.832
398.64	10.297
399.00	10.157
399.35	10.942
399.71	10.598
400.07	11.005
400.42	10.186
400.78	10.359
401.14	10.131
401.49	10.574
401.85	10.581
402.21	10.660
402.57	11.561
402.92	10.816
403.28	9.895
403.63	10.322
403.99	10.154
404.35	10.802
404.70	11.218
405.06	9.946
405.42	10.539
405.77	11.396
406.13	11.129
406.49	10.923
406.84	10.803
407.20	10.453
407.55	9.933
407.91	10.434
408.27	11.484
408.62	10.995
408.98	10.911
409.34	10.205
409.69	11.001
410.05	11.137
410.40	11.137
410.76	11.441
411.11	11.397
411.47	10.811
411.83	11.464
412.18	11.145
412.54	10.492
412.89	11.932
413.25	11.061
413.60	10.741
413.96	10.723
414.31	9.745
414.67	11.151
415.03	11.446
415.38	11.349
415.74	10.446
416.09	11.598
416.45	10.770
416.80	10.649
417.16	10.792
417.51	10.461
417.87	11.159
418.22	11.138
418.58	10.967
418.93	11.525
419.29	11.467
419.64	10.564
420.00	10.682
420.35	11.342
420.71	11.200
421.06	10.811
421.42	11.296
421.77	10.232
422.12	10.571
422.48	10.753
422.83	11.446
423.19	10.981
423.54	11.338
423.90	11.209
424.25	10.933
424.61	9.989
424.96	11.203
425.31	11.359
425.67	10.521
426.02	10.625
426.38	10.850
426.73	11.384
427.09	11.361
427.44	11.469
427.79	11.001
428.15	10.788
428.50	10.955
428.85	11.137
429.21	11.755
429.56	10.661
429.92	11.106
430.27	11.084
430.62	10.943
430.98	11.117
431.33	10.606
431.68	10.920
432.04	10.513
432.39	11.194
432.74	11.016
433.10	10.438
433.45	10.256
433.80	11.588
434.16	10.899
434.51	10.843
434.86	10.478
435.22	11.371
435.57	10.790
435.92	11.352
436.28	10.182
436.63	11.087
436.98	11.702
437.34	11.612
437.69	10.897
438.04	11.052
438.39	11.373
438.75	11.455
439.10	11.522
439.45	11.235
439.81	10.508
440.16	11.046
440.51	11.594
440.86	10.673
441.22	10.772
441.57	11.268
441.92	11.009
442.27	10.707
442.63	11.078
442.98	11.953
443.33	11.152
443.68	11.497
444.03	12.465
444.39	11.697
444.74	11.383
445.09	11.657
445.44	11.117
445.79	11.830
446.15	11.100
446.50	11.628
446.85	11.868
447.20	11.750
447.55	11.192
447.91	11.414
448.26	11.364
448.61	11.318
448.96	12.446
449.31	11.506
449.66	10.730
450.02	11.392
450.37	11.348
450.72	12.056
451.07	11.959
451.42	11.438
451.77	11.618
452.12	11.456
452.47	10.517
452.83	11.430
453.18	10.741
453.53	11.258
453.88	11.596
454.23	11.864
454.58	11.898
454.93	11.044
455.28	11.680
455.63	11.825
455.98	12.570
456.34	11.484
456.69	11.993
457.04	11.702
457.39	10.920
457.74	11.745
458.09	12.356
458.44	12.446
458.79	11.862
459.14	12.375
459.49	11.828
459.84	12.697
460.19	11.494
460.54	11.584
460.89	12.388
461.24	11.667
461.59	12.286
461.94	11.295
462.29	12.486
462.64	11.708
462.99	11.990
463.34	11.097
463.69	12.544
464.04	12.785
464.39	12.612
464.74	12.657
465.09	12.226
465.44	12.017
465.79	12.586
466.14	12.454
466.49	12.316
466.84	11.680
467.19	12.486
467.54	11.222
467.89	12.414
468.24	12.355
468.59	11.697
468.94	11.713
469.29	11.698
469.64	12.524
469.99	12.428
470.34	12.438
470.68	13.876
471.03	13.229
471.38	12.819
471.73	12.744
472.08	12.754
472.43	12.583
472.78	12.972
473.13	12.832
473.48	12.447
473.83	14.045
474.17	12.720
474.52	12.688
474.87	13.289
475.22	12.789
475.57	12.409
475.92	12.444
476.27	12.993
476.61	12.409
476.96	11.887
477.31	13.416
477.66	12.749
478.01	12.964
478.36	12.463
478.70	12.020
479.05	12.986
479.40	12.586
479.75	13.305
480.10	12.838
480.45	13.355
480.79	12.834
481.14	12.316
481.49	12.358
481.84	12.533
482.19	12.258
482.53	13.380
482.88	13.292
483.23	12.228
483.58	12.402
483.92	12.855
484.27	12.743
484.62	13.243
484.97	12.597
485.31	12.214
485.66	11.639
486.01	11.099
486.36	11.312
486.70	11.850
487.05	12.242
487.40	12.282
487.75	11.807
488.09	11.806
488.44	11.961
488.79	12.108
489.13	12.491
489.48	12.388
489.83	12.837
490.17	13.082
490.52	13.300
490.87	13.832
491.22	12.782
491.56	12.756
491.91	13.301
492.26	13.068
492.60	13.336
492.95	13.164
493.30	13.402
493.64	13.710
493.99	13.289
494.34	13.153
494.68	13.490
495.03	12.731
495.37	13.715
495.72	13.560
496.07	13.760
496.41	12.784
496.76	13.428
497.11	13.291
497.45	13.164
497.80	13.816
498.14	12.971
498.49	13.557
498.84	13.300
499.18	13.630
499.53	13.677
499.87	13.451
500.22	12.956
500.56	13.405
500.91	12.815
501.26	14.000
501.60	13.345
501.95	13.808
502.29	13.602
502.64	13.380
502.98	13.417
503.33	13.218
503.67	12.996
504.02	13.398
504.36	13.986
504.71	13.643
505.06	13.415
505.40	13.665
505.75	13.843
506.09	14.411
506.44	13.974
506.78	14.312
507.13	14.431
507.47	13.785
507.82	13.684
508.16	13.432
508.51	13.830
508.85	13.462
509.19	14.259
509.54	14.265
509.88	13.696
510.23	14.279
510.57	14.596
510.92	14.272
511.26	14.190
511.61	14.099
511.95	14.007
512.30	14.574
512.64	13.593
512.98	14.307
513.33	14.869
513.67	13.463
514.02	14.461
514.36	14.783
514.70	14.062
515.05	14.338
515.39	14.541
515.74	14.899
516.08	15.320
516.42	15.437
516.77	14.826
517.11	13.873
517.46	15.005
517.80	15.446
518.14	15.288
518.49	15.239
518.83	15.061
519.17	14.324
519.52	14.832
519.86	14.995
520.20	15.122
520.55	14.677
520.89	16.385
521.23	15.410
521.58	15.085
521.92	14.731
522.26	15.178
522.61	15.509
522.95	15.225
523.29	15.690
523.64	15.415
523.98	15.687
524.32	15.989
524.66	15.196
525.01	15.912
525.35	15.566
525.69	15.487
526.04	14.925
526.38	15.402
526.72	15.917
527.06	15.425
527.41	16.210
527.75	16.093
528.09	15.230
528.43	14.861
528.78	15.145
529.12	15.252
529.46	15.121
529.80	14.989
530.15	15.710
530.49	14.709
530.83	15.407
531.17	16.010
531.51	15.223
531.86	15.986
532.20	16.037
532.54	15.380
532.88	15.636
533.22	15.793
533.57	15.638
533.91	15.208
534.25	14.811
534.59	15.747
534.93	14.884
535.27	15.775
535.62	15.520
535.96	15.979
536.30	15.981
536.64	16.577
536.98	15.314
537.32	15.988
537.66	15.533
538.01	15.227
538.35	14.921
538.69	15.925
539.03	15.880
539.37	16.196
539.71	15.315
540.05	16.007
540.39	15.098
540.73	14.997
541.07	15.083
541.42	15.357
541.76	14.472
542.10	15.682
542.44	14.799
542.78	15.146
543.12	15.197
543.46	15.079
543.80	14.688
544.14	15.200
544.48	16.076
544.82	15.141
545.16	15.385
545.50	15.398
545.84	15.554
546.18	16.543
546.52	15.287
546.86	15.409
547.20	16.158
547.54	14.919
547.88	14.949
548.22	15.205
548.56	14.745
548.90	15.881
549.24	15.076
549.58	15.268
549.92	14.860
550.26	16.828
550.60	14.997
550.94	15.459
551.28	15.710
551.62	17.251
551.96	16.181
552.30	15.870
552.64	15.059
552.98	16.032
553.32	16.977
553.66	15.820
554.00	14.817
554.34	16.152
554.68	15.171
555.02	15.900
555.36	17.226
555.69	15.247
556.03	15.826
556.37	16.083
556.71	15.536
557.05	15.783
557.39	14.599
557.73	15.852
558.07	16.689
558.41	16.080
558.75	16.160
559.08	16.771
559.42	16.392
559.76	16.350
560.10	17.080
560.44	16.887
560.78	15.688
561.12	15.086
561.45	15.633
561.79	14.713
562.13	16.389
562.47	15.290
562.81	13.924
563.15	15.720
563.48	16.408
563.82	15.296
564.16	15.021
564.50	15.793
564.84	15.516
565.17	15.882
565.51	15.420
565.85	15.677
566.19	15.783
566.52	16.267
566.86	14.714
567.20	14.410
567.54	15.242
567.88	14.985
568.21	14.970
568.55	15.156
568.89	14.662
569.23	14.237
569.56	13.951
569.90	13.542
570.24	13.052
570.57	13.438
570.91	12.645
571.25	13.364
571.59	13.220
571.92	12.767
572.26	12.335
572.60	12.913
572.93	12.886
573.27	12.616
573.61	12.705
573.95	12.794
574.28	12.310
574.62	12.187
574.96	12.131
575.29	12.205
575.63	12.566
575.97	12.479
576.30	12.361
576.64	12.145
576.98	12.141
577.31	12.067
577.65	12.196
577.98	11.860
578.32	11.987
578.66	11.647
578.99	12.001
579.33	12.228
579.67	11.922
580.00	11.755
580.34	12.304
580.67	12.114
581.01	12.029
581.35	12.059
581.68	11.872
582.02	11.889
582.35	11.937
582.69	12.094
583.02	11.904
583.36	12.056
583.70	11.884
584.03	12.095
584.37	12.269
584.70	11.883
585.04	11.579
585.37	12.086
585.71	12.319
586.04	12.087
586.38	12.419
586.72	11.933
587.05	11.844
587.39	12.241
587.72	12.464
588.06	12.403
588.39	12.099
588.73	12.275
589.06	12.472
589.40	12.508
589.73	12.725
590.07	12.765
590.40	13.286
590.73	12.867
591.07	13.328
591.40	13.025
591.74	13.275
592.07	14.089
592.41	12.815
592.74	12.851
593.08	12.898
593.41	12.715
593.75	12.615
594.08	12.481
594.41	12.981
594.75	12.720
595.08	12.887
595.42	12.662
595.75	12.883
596.09	13.046
596.42	12.934
596.75	13.547
597.09	13.051
597.42	13.270
597.75	13.759
598.09	12.857
598.42	13.872
598.76	13.259
599.09	12.994
599.42	12.672
599.76	12.380
600.09	12.813
600.42	12.846
600.76	12.616
601.09	12.645
601.42	12.736
601.76	13.034
602.09	12.437
602.42	12.723
602.76	12.731
603.09	12.922
603.42	12.825
603.76	12.932
604.09	13.449
604.42	13.211
604.76	12.900
605.09	13.363
605.42	13.118
605.75	13.308
606.09	13.326
606.42	12.842
606.75	12.744
607.09	13.018
607.42	13.603
607.75	13.286
608.08	13.575
608.42	13.180
608.75	13.640
609.08	13.158
609.41	13.719
609.75	13.973
610.08	13.412
610.41	13.381
610.74	12.857
611.07	13.588
611.41	13.318
611.74	13.718
612.07	14.025
612.40	13.260
612.73	14.377
613.07	14.132
613.40	13.426
613.73	14.107
614.06	13.886
614.39	14.286
614.72	13.925
615.06	13.667
615.39	13.726
615.72	14.218
616.05	13.987
616.38	13.925
616.71	14.838
617.05	14.111
617.38	15.356
617.71	14.471
618.04	14.571
618.37	14.863
618.70	14.876
619.03	14.576
619.36	15.043
619.69	15.503
620.03	14.626
620.36	15.521
620.69	14.867
621.02	15.354
621.35	16.038
621.68	16.269
622.01	16.370
622.34	15.481
622.67	15.533
623.00	13.023
623.33	15.859
623.66	15.435
623.99	14.681
624.32	16.179
624.65	14.479
624.99	15.345
625.32	15.611
625.65	16.183
625.98	15.254
626.31	16.088
626.64	16.410
626.97	15.154
627.30	15.642
627.63	15.604
627.96	15.766
628.29	16.031
628.62	15.197
628.95	17.178
629.28	16.313
629.61	16.751
629.94	16.318
630.26	16.525
630.59	16.580
630.92	16.450
631.25	16.905
631.58	18.738
631.91	16.589
632.24	18.156
632.57	17.552
632.90	17.753
633.23	17.959
633.56	18.061
633.89	17.045
