SpectraSuite Data File
++++++++++++++++++++++++++++++++++++
Date: Thu May 14 16:30:07 PDT 2015
User: schluterlab
Dark Spectrum Present: Yes
Reference Spectrum Present: Yes
Number of Sampled Component Spectra: 1
Spectrometers: USB2E3373
Integration Time (usec): 3000 (USB2E3373)
Spectra Averaged: 3 (USB2E3373)
Boxcar Smoothing: 0 (USB2E3373)
Correct for Electrical Dark: No (USB2E3373)
Strobe/Lamp Enabled: No (USB2E3373)
Correct for Detector Non-linearity: No (USB2E3373)
Correct for Stray Light: No (USB2E3373)
Number of Pixels in Processed Spectrum: 2048
>>>>>Begin Processed Spectral Data<<<<<
178.53	0.000
178.91	57.143
179.29	-1300.000
179.67	-600.000
180.04	150.000
180.42	-40.000
180.80	40.000
181.18	-500.000
181.56	400.000
181.94	-350.000
182.31	0.000
182.69	100.000
183.07	-100.000
183.45	200.000
183.83	33.333
184.20	200.000
184.58	300.000
184.96	125.000
185.34	-22.222
185.72	120.000
186.09	111.111
186.47	150.000
186.85	220.000
187.23	-55.556
187.61	-900.000
187.98	60.000
188.36	50.000
188.74	-75.000
189.12	-133.333
189.49	12.500
189.87	-12.500
190.25	133.333
190.63	80.000
191.00	-111.111
191.38	0.000
191.76	-150.000
192.14	16.667
192.51	400.000
192.89	216.667
193.27	0.000
193.65	14.286
194.02	-900.000
194.40	-42.857
194.78	-28.571
195.15	0.000
195.53	18.182
195.91	0.000
196.29	75.000
196.66	-53.846
197.04	-600.000
197.42	-42.857
197.79	700.000
198.17	75.000
198.55	-114.286
198.92	33.333
199.30	-75.000
199.68	-9.091
200.05	64.286
200.43	-100.000
200.81	157.143
201.18	0.000
201.56	22.222
201.94	0.000
202.31	100.000
202.69	-100.000
203.07	-100.000
203.44	11.111
203.82	-200.000
204.19	58.333
204.57	-50.000
204.95	-87.500
205.32	-600.000
205.70	-50.000
206.08	-16.667
206.45	66.667
206.83	300.000
207.20	-33.333
207.58	-200.000
207.96	-150.000
208.33	0.000
208.71	-58.333
209.08	116.667
209.46	0.000
209.84	116.667
210.21	-150.000
210.59	50.000
210.96	-200.000
211.34	200.000
211.71	-87.500
212.09	-1300.000
212.46	0.000
212.84	400.000
213.22	-120.000
213.59	50.000
213.97	40.000
214.34	-33.333
214.72	66.667
215.09	75.000
215.47	0.000
215.84	-57.143
216.22	350.000
216.59	140.000
216.97	-20.000
217.34	-125.000
217.72	50.000
218.09	25.000
218.47	-25.000
218.84	0.000
219.22	-100.000
219.59	58.824
219.97	30.000
220.34	400.000
220.72	22.222
221.09	69.231
221.47	-133.333
221.84	20.000
222.22	57.143
222.59	0.000
222.97	12.500
223.34	20.000
223.72	0.000
224.09	150.000
224.46	-75.000
224.84	160.000
225.21	-128.571
225.59	-150.000
225.96	-50.000
226.34	50.000
226.71	33.333
227.08	-300.000
227.46	13.333
227.83	225.000
228.21	84.211
228.58	125.000
228.95	300.000
229.33	-16.667
229.70	-20.000
230.08	73.684
230.45	30.000
230.82	66.667
231.20	64.286
231.57	58.333
231.95	-54.545
232.32	63.636
232.69	50.000
233.07	225.000
233.44	11.765
233.81	50.000
234.19	61.111
234.56	22.727
234.93	24.138
235.31	0.000
235.68	72.222
236.05	-10.000
236.43	73.077
236.80	76.000
237.17	33.333
237.55	27.273
237.92	-10.000
238.29	16.129
238.67	6.818
239.04	36.111
239.41	40.476
239.79	28.261
240.16	42.593
240.53	13.043
240.91	7.843
241.28	27.869
241.65	41.791
242.02	25.676
242.40	38.462
242.77	18.667
243.14	15.854
243.51	21.053
243.89	17.949
244.26	33.663
244.63	29.412
245.00	28.972
245.38	23.684
245.75	3.540
246.12	28.571
246.49	20.930
246.87	30.714
247.24	31.788
247.61	28.289
247.98	28.859
248.36	24.691
248.73	22.086
249.10	26.230
249.47	34.826
249.84	31.937
250.22	26.425
250.59	30.000
250.96	30.909
251.33	28.061
251.70	26.923
252.08	29.583
252.45	29.508
252.82	22.727
253.19	23.828
253.56	29.658
253.94	26.538
254.31	26.515
254.68	30.070
255.05	28.013
255.42	30.272
255.79	28.803
256.16	26.821
256.54	28.146
256.91	28.525
257.28	29.836
257.65	28.662
258.02	27.729
258.39	26.211
258.76	30.581
259.14	30.460
259.51	32.853
259.88	25.779
260.25	28.611
260.62	32.329
260.99	31.421
261.36	30.295
261.73	28.382
262.10	29.396
262.47	28.954
262.85	31.566
263.22	29.610
263.59	26.053
263.96	29.923
264.33	27.366
264.70	28.395
265.07	31.742
265.44	30.385
265.81	26.157
266.18	30.612
266.55	28.348
266.92	30.296
267.29	30.416
267.66	29.047
268.03	30.349
268.40	26.931
268.77	28.246
269.14	27.533
269.51	29.167
269.88	29.713
270.25	28.773
270.62	29.747
270.99	27.475
271.36	28.911
271.73	25.737
272.10	29.058
272.47	28.657
272.84	28.313
273.21	29.259
273.58	29.234
273.95	25.577
274.32	29.087
274.69	27.466
275.06	28.022
275.43	25.508
275.80	27.866
276.17	27.778
276.54	26.679
276.91	27.370
277.28	28.752
277.65	27.110
278.02	26.471
278.39	28.261
278.76	26.186
279.13	27.482
279.50	27.491
279.87	27.013
280.23	24.472
280.60	27.458
280.97	26.974
281.34	25.637
281.71	28.426
282.08	25.748
282.45	27.169
282.82	25.118
283.19	23.586
283.56	26.885
283.92	27.928
284.29	27.962
284.66	26.929
285.03	23.077
285.40	25.502
285.77	27.245
286.14	27.023
286.51	24.658
286.87	24.013
287.24	27.711
287.61	25.710
287.98	24.018
288.35	26.775
288.72	24.704
289.08	25.622
289.45	23.964
289.82	24.548
290.19	23.851
290.56	25.352
290.93	24.822
291.29	24.380
291.66	23.278
292.03	22.795
292.40	24.218
292.77	21.294
293.13	21.922
293.50	22.733
293.87	22.550
294.24	23.067
294.60	23.135
294.97	20.805
295.34	23.047
295.71	20.933
296.08	21.447
296.44	21.814
296.81	21.437
297.18	22.167
297.55	20.165
297.91	21.590
298.28	20.261
298.65	21.879
299.02	20.897
299.38	19.794
299.75	19.743
300.12	20.023
300.48	20.276
300.85	20.135
301.22	20.022
301.59	18.493
301.95	19.096
302.32	20.333
302.69	18.729
303.05	18.934
303.42	19.069
303.79	19.167
304.15	19.558
304.52	17.759
304.89	18.743
305.25	19.151
305.62	17.973
305.99	19.381
306.35	18.851
306.72	20.476
307.09	18.579
307.45	18.944
307.82	18.466
308.19	17.457
308.55	18.708
308.92	17.624
309.29	18.487
309.65	16.862
310.02	19.208
310.38	18.012
310.75	17.961
311.12	18.121
311.48	17.986
311.85	17.949
312.22	16.983
312.58	17.653
312.95	17.017
313.31	18.519
313.68	18.864
314.05	18.880
314.41	18.579
314.78	17.984
315.14	18.875
315.51	17.729
315.87	17.822
316.24	18.447
316.61	18.739
316.97	18.190
317.34	18.078
317.70	17.817
318.07	17.196
318.43	17.942
318.80	18.060
319.16	17.682
319.53	16.624
319.89	18.230
320.26	17.616
320.62	17.376
320.99	16.251
321.35	18.577
321.72	19.442
322.08	18.215
322.45	18.970
322.81	18.141
323.18	17.876
323.54	18.534
323.91	19.929
324.27	16.781
324.64	18.304
325.00	16.915
325.37	18.837
325.73	18.099
326.10	17.680
326.46	18.567
326.83	20.176
327.19	18.898
327.56	18.735
327.92	16.837
328.29	17.742
328.65	18.090
329.01	17.428
329.38	18.113
329.74	17.894
330.11	18.236
330.47	18.281
330.84	17.485
331.20	17.667
331.56	18.631
331.93	18.410
332.29	17.966
332.66	18.272
333.02	17.420
333.38	18.121
333.75	17.845
334.11	17.181
334.48	17.244
334.84	17.757
335.20	16.793
335.57	17.960
335.93	18.347
336.29	17.138
336.66	17.914
337.02	18.896
337.38	17.602
337.75	16.777
338.11	17.998
338.47	18.197
338.84	17.682
339.20	16.512
339.56	16.557
339.93	18.309
340.29	16.828
340.65	17.275
341.02	18.117
341.38	17.462
341.74	17.111
342.11	16.331
342.47	16.442
342.83	17.472
343.20	17.171
343.56	17.482
343.92	17.454
344.28	17.656
344.65	17.132
345.01	16.849
345.37	16.096
345.73	16.913
346.10	16.537
346.46	17.168
346.82	16.629
347.19	17.876
347.55	16.995
347.91	16.419
348.27	16.009
348.63	16.679
349.00	15.884
349.36	15.836
349.72	16.667
350.08	16.048
350.45	16.350
350.81	16.290
351.17	16.842
351.53	16.831
351.89	16.705
352.26	16.493
352.62	15.597
352.98	16.260
353.34	15.609
353.70	15.485
354.07	15.648
354.43	15.869
354.79	15.782
355.15	16.041
355.51	16.667
355.87	15.632
356.24	16.198
356.60	15.373
356.96	15.864
357.32	15.985
357.68	15.520
358.04	15.419
358.40	15.821
358.77	16.155
359.13	16.691
359.49	15.242
359.85	15.446
360.21	16.284
360.57	15.721
360.93	15.585
361.29	15.579
361.66	16.148
362.02	16.354
362.38	15.531
362.74	15.363
363.10	17.194
363.46	16.066
363.82	15.838
364.18	15.341
364.54	16.321
364.90	15.318
365.26	15.517
365.62	16.200
365.98	16.270
366.35	15.503
366.71	15.714
367.07	15.697
367.43	14.905
367.79	14.930
368.15	16.388
368.51	15.088
368.87	15.284
369.23	15.667
369.59	15.984
369.95	15.416
370.31	15.327
370.67	15.199
371.03	15.443
371.39	15.111
371.75	15.337
372.11	14.905
372.47	15.775
372.83	15.838
373.19	15.143
373.55	15.583
373.91	15.610
374.27	15.071
374.63	15.359
374.99	15.119
375.35	15.325
375.71	14.645
376.07	15.365
376.42	15.806
376.78	15.973
377.14	14.972
377.50	13.978
377.86	16.010
378.22	15.389
378.58	15.220
378.94	15.200
379.30	15.173
379.66	14.638
380.02	14.830
380.38	15.207
380.74	14.761
381.09	14.808
381.45	14.830
381.81	15.164
382.17	14.667
382.53	14.795
382.89	14.616
383.25	16.061
383.61	13.252
383.97	15.194
384.32	15.431
384.68	13.689
385.04	15.385
385.40	14.968
385.76	14.947
386.12	14.363
386.48	14.765
386.83	15.316
387.19	14.426
387.55	14.789
387.91	13.927
388.27	14.607
388.62	14.662
388.98	13.988
389.34	14.850
389.70	14.701
390.06	14.269
390.42	14.217
390.77	15.653
391.13	14.026
391.49	14.312
391.85	13.455
392.20	14.057
392.56	13.999
392.92	14.667
393.28	15.091
393.64	14.581
393.99	14.817
394.35	14.603
394.71	15.090
395.07	13.114
395.42	14.220
395.78	14.442
396.14	14.617
396.50	14.549
396.85	14.669
397.21	15.207
397.57	13.663
397.92	14.318
398.28	14.177
398.64	13.844
399.00	13.613
399.35	14.660
399.71	14.022
400.07	14.992
400.42	14.785
400.78	13.657
401.14	15.253
401.49	14.440
401.85	15.581
402.21	14.426
402.57	14.613
402.92	14.835
403.28	13.759
403.63	14.439
403.99	14.430
404.35	13.360
404.70	14.334
405.06	13.370
405.42	14.520
405.77	14.831
406.13	13.614
406.49	14.414
406.84	14.294
407.20	14.142
407.55	13.144
407.91	14.079
408.27	14.311
408.62	14.834
408.98	14.510
409.34	13.314
409.69	13.659
410.05	13.658
410.40	14.443
410.76	14.750
411.11	14.611
411.47	14.005
411.83	14.874
412.18	14.157
412.54	14.226
412.89	14.377
413.25	14.673
413.60	14.072
413.96	13.811
414.31	13.484
414.67	14.729
415.03	14.400
415.38	14.187
415.74	14.356
416.09	13.695
416.45	14.152
416.80	14.137
417.16	14.623
417.51	14.197
417.87	14.347
418.22	14.910
418.58	13.941
418.93	14.843
419.29	14.180
419.64	12.965
420.00	14.243
420.35	14.879
420.71	14.532
421.06	14.031
421.42	14.335
421.77	13.678
422.12	14.535
422.48	13.774
422.83	14.403
423.19	14.377
423.54	14.436
423.90	13.805
424.25	14.773
424.61	13.490
424.96	14.662
425.31	14.915
425.67	14.063
426.02	14.333
426.38	14.581
426.73	14.453
427.09	15.629
427.44	12.998
427.79	14.317
428.15	13.527
428.50	13.876
428.85	13.490
429.21	14.574
429.56	13.919
429.92	14.103
430.27	14.313
430.62	13.190
430.98	13.133
431.33	13.734
431.68	13.123
432.04	14.424
432.39	14.730
432.74	13.356
433.10	14.170
433.45	13.712
433.80	14.002
434.16	14.360
434.51	14.183
434.86	14.441
435.22	14.240
435.57	14.151
435.92	14.469
436.28	13.709
436.63	14.200
436.98	13.902
437.34	14.205
437.69	13.649
438.04	13.855
438.39	14.245
438.75	13.392
439.10	14.535
439.45	14.366
439.81	13.503
440.16	13.834
440.51	13.545
440.86	13.619
441.22	13.987
441.57	14.151
441.92	13.919
442.27	14.848
442.63	13.612
442.98	14.941
443.33	14.308
443.68	14.767
444.03	14.770
444.39	14.239
444.74	14.446
445.09	14.192
445.44	14.647
445.79	13.841
446.15	13.977
446.50	13.798
446.85	14.105
447.20	14.362
447.55	14.801
447.91	14.660
448.26	14.165
448.61	14.718
448.96	14.700
449.31	14.369
449.66	13.671
450.02	14.715
450.37	14.651
450.72	13.940
451.07	14.294
451.42	14.385
451.77	13.674
452.12	14.898
452.47	13.666
452.83	14.189
453.18	14.653
453.53	14.130
453.88	14.633
454.23	14.576
454.58	14.568
454.93	13.835
455.28	14.931
455.63	14.440
455.98	14.749
456.34	13.486
456.69	14.227
457.04	14.421
457.39	15.244
457.74	14.821
458.09	14.717
458.44	14.278
458.79	13.925
459.14	13.896
459.49	14.431
459.84	14.376
460.19	13.881
460.54	13.913
460.89	14.293
461.24	13.506
461.59	14.776
461.94	14.261
462.29	14.390
462.64	14.363
462.99	13.873
463.34	14.082
463.69	14.889
464.04	15.175
464.39	14.854
464.74	14.481
465.09	14.648
465.44	14.646
465.79	14.913
466.14	13.757
466.49	14.105
466.84	13.664
467.19	14.566
467.54	14.101
467.89	14.368
468.24	13.463
468.59	14.186
468.94	14.044
469.29	13.797
469.64	13.859
469.99	13.830
470.34	14.047
470.68	14.354
471.03	13.556
471.38	13.669
471.73	14.044
472.08	13.832
472.43	13.426
472.78	14.547
473.13	13.780
473.48	14.441
473.83	14.800
474.17	13.892
474.52	15.213
474.87	14.286
475.22	14.535
475.57	14.226
475.92	14.783
476.27	14.217
476.61	13.759
476.96	14.025
477.31	14.307
477.66	14.533
478.01	14.743
478.36	13.410
478.70	14.039
479.05	14.213
479.40	13.870
479.75	13.689
480.10	13.974
480.45	13.810
480.79	14.376
481.14	13.971
481.49	14.266
481.84	14.056
482.19	13.849
482.53	14.386
482.88	14.089
483.23	14.273
483.58	14.323
483.92	13.431
484.27	14.395
484.62	14.398
484.97	14.386
485.31	14.572
485.66	13.530
486.01	13.592
486.36	13.929
486.70	14.290
487.05	14.263
487.40	14.627
487.75	14.504
488.09	14.567
488.44	14.334
488.79	14.772
489.13	14.301
489.48	13.398
489.83	13.602
490.17	13.447
490.52	13.998
490.87	14.509
491.22	13.648
491.56	14.548
491.91	14.697
492.26	14.193
492.60	13.511
492.95	14.656
493.30	13.895
493.64	14.148
493.99	14.035
494.34	13.502
494.68	13.876
495.03	14.361
495.37	13.848
495.72	13.878
496.07	13.672
496.41	13.642
496.76	14.304
497.11	13.970
497.45	13.552
497.80	14.394
498.14	13.605
498.49	13.603
498.84	13.894
499.18	14.035
499.53	13.946
499.87	14.593
500.22	13.446
500.56	14.575
500.91	13.913
501.26	14.409
501.60	13.610
501.95	13.765
502.29	13.822
502.64	14.254
502.98	14.150
503.33	13.521
503.67	13.912
504.02	13.310
504.36	13.852
504.71	13.826
505.06	14.188
505.40	13.528
505.75	14.026
506.09	13.950
506.44	13.510
506.78	13.899
507.13	14.523
507.47	14.543
507.82	13.589
508.16	13.576
508.51	13.643
508.85	14.029
509.19	13.974
509.54	15.082
509.88	13.890
510.23	13.842
510.57	13.871
510.92	13.933
511.26	13.901
511.61	13.906
511.95	14.690
512.30	14.229
512.64	13.893
512.98	13.357
513.33	14.466
513.67	13.616
514.02	13.592
514.36	14.066
514.70	13.802
515.05	14.286
515.39	14.226
515.74	14.952
516.08	13.576
516.42	14.338
516.77	14.143
517.11	14.131
517.46	13.680
517.80	13.896
518.14	14.091
518.49	14.425
518.83	13.890
519.17	13.139
519.52	14.780
519.86	14.731
520.20	14.058
520.55	14.841
520.89	14.133
521.23	14.405
521.58	14.633
521.92	14.731
522.26	13.517
522.61	14.178
522.95	13.437
523.29	13.793
523.64	14.350
523.98	14.147
524.32	14.613
524.66	13.660
525.01	14.439
525.35	13.728
525.69	14.211
526.04	13.892
526.38	14.310
526.72	14.648
527.06	14.604
527.41	13.819
527.75	14.786
528.09	13.636
528.43	13.854
528.78	13.815
529.12	13.647
529.46	13.828
529.80	14.073
530.15	13.797
530.49	14.591
530.83	14.286
531.17	14.098
531.51	13.598
531.86	14.784
532.20	14.085
532.54	14.123
532.88	13.636
533.22	14.025
533.57	14.310
533.91	15.208
534.25	14.358
534.59	14.483
534.93	13.243
535.27	14.648
535.62	14.724
535.96	14.294
536.30	14.336
536.64	14.595
536.98	14.207
537.32	14.444
537.66	14.598
538.01	14.139
538.35	13.886
538.69	13.642
539.03	14.470
539.37	14.782
539.71	14.174
540.05	14.928
540.39	14.914
540.73	13.783
541.07	13.550
541.42	14.294
541.76	14.472
542.10	13.088
542.44	12.972
542.78	14.294
543.12	14.005
543.46	14.225
543.80	13.429
544.14	14.243
544.48	14.243
544.82	14.722
545.16	14.132
545.50	13.960
545.84	14.268
546.18	14.877
546.52	14.076
546.86	14.591
547.20	14.059
547.54	14.732
547.88	13.562
548.22	14.503
548.56	14.570
548.90	14.866
549.24	15.076
549.58	13.628
549.92	14.222
550.26	14.434
550.60	14.742
550.94	14.424
551.28	14.323
551.62	15.162
551.96	13.981
552.30	14.149
552.64	14.001
552.98	14.535
553.32	14.341
553.66	13.891
554.00	14.943
554.34	14.221
554.68	14.203
555.02	14.520
555.36	14.530
555.69	13.709
556.03	14.376
556.37	14.831
556.71	14.838
557.05	14.888
557.39	14.930
557.73	14.465
558.07	14.636
558.41	14.219
558.75	14.266
559.08	14.127
559.42	14.472
559.76	14.993
560.10	14.133
560.44	14.446
560.78	15.625
561.12	14.224
561.45	15.085
561.79	14.469
562.13	15.096
562.47	14.303
562.81	14.684
563.15	13.636
563.48	14.730
563.82	14.933
564.16	13.749
564.50	14.064
564.84	14.100
565.17	14.647
565.51	14.212
565.85	13.539
566.19	14.631
566.52	13.868
566.86	14.544
567.20	13.921
567.54	14.817
567.88	14.985
568.21	14.773
568.55	14.436
568.89	15.025
569.23	14.322
569.56	14.771
569.90	14.540
570.24	14.772
570.57	14.208
570.91	14.207
571.25	13.914
571.59	14.667
571.92	14.739
572.26	14.796
572.60	14.578
572.93	14.306
573.27	14.695
573.61	14.796
573.95	14.324
574.28	14.669
574.62	14.507
574.96	14.138
575.29	14.629
575.63	14.507
575.97	14.251
576.30	14.532
576.64	14.293
576.98	14.601
577.31	14.367
577.65	14.816
577.98	14.966
578.32	14.506
578.66	14.568
578.99	14.704
579.33	14.606
579.67	14.529
580.00	14.520
580.34	14.398
580.67	14.784
581.01	14.712
581.35	14.494
581.68	14.499
582.02	14.528
582.35	14.847
582.69	14.728
583.02	14.577
583.36	14.664
583.70	14.588
584.03	14.591
584.37	14.712
584.70	14.377
585.04	14.811
585.37	14.384
585.71	14.455
586.04	14.817
586.38	14.369
586.72	14.490
587.05	14.070
587.39	15.034
587.72	14.833
588.06	14.724
588.39	14.787
588.73	14.101
589.06	14.560
589.40	14.874
589.73	14.428
590.07	14.589
590.40	14.435
590.73	14.387
591.07	15.227
591.40	14.386
591.74	14.746
592.07	15.063
592.41	14.669
592.74	14.661
593.08	14.841
593.41	14.640
593.75	14.483
594.08	14.662
594.41	15.000
594.75	14.879
595.08	14.704
595.42	14.545
595.75	14.950
596.09	15.046
596.42	14.547
596.75	14.589
597.09	15.030
597.42	14.978
597.75	14.073
598.09	14.841
598.42	14.877
598.76	14.559
599.09	14.311
599.42	14.583
599.76	14.460
600.09	14.815
600.42	14.248
600.76	14.861
601.09	14.305
601.42	14.487
601.76	14.448
602.09	14.725
602.42	14.249
602.76	14.428
603.09	14.868
603.42	14.595
603.76	14.235
604.09	14.798
604.42	14.936
604.76	14.422
605.09	15.397
605.42	14.633
605.75	14.000
606.09	14.296
606.42	14.484
606.75	14.280
607.09	14.516
607.42	14.258
607.75	14.459
608.08	14.562
608.42	14.430
608.75	14.967
609.08	14.643
609.41	14.689
609.75	14.152
610.08	14.468
610.41	14.826
610.74	14.496
611.07	14.476
611.41	14.753
611.74	14.642
612.07	14.540
612.40	14.449
612.73	15.208
613.07	14.817
613.40	14.774
613.73	14.444
614.06	14.671
614.39	14.334
614.72	14.119
615.06	14.389
615.39	14.355
615.72	14.171
616.05	14.619
616.38	14.329
616.71	14.211
617.05	14.377
617.38	14.821
617.71	14.903
618.04	14.463
618.37	15.246
618.70	14.876
619.03	14.217
619.36	14.797
619.69	14.414
620.03	14.438
620.36	14.110
620.69	14.374
621.02	14.764
621.35	14.949
621.68	14.678
622.01	13.808
622.34	14.086
622.67	14.433
623.00	12.888
623.33	15.594
623.66	14.008
623.99	14.417
624.32	15.984
624.65	13.385
624.99	14.759
625.32	15.807
625.65	14.767
625.98	14.237
626.31	14.529
626.64	15.092
626.97	14.104
627.30	14.123
627.63	13.803
627.96	15.991
628.29	14.786
628.62	13.854
628.95	13.935
629.28	14.528
629.61	15.067
629.94	13.473
630.26	14.153
630.59	13.817
630.92	13.939
631.25	14.401
631.58	14.972
631.91	13.402
632.24	13.833
632.57	15.085
632.90	14.142
633.23	13.980
633.56	15.204
633.89	13.223
634.22	14.033
