SpectraSuite Data File
++++++++++++++++++++++++++++++++++++
Date: Thu May 14 16:27:15 PDT 2015
User: schluterlab
Dark Spectrum Present: Yes
Reference Spectrum Present: Yes
Number of Sampled Component Spectra: 1
Spectrometers: USB2E3373
Integration Time (usec): 3000 (USB2E3373)
Spectra Averaged: 3 (USB2E3373)
Boxcar Smoothing: 0 (USB2E3373)
Correct for Electrical Dark: No (USB2E3373)
Strobe/Lamp Enabled: No (USB2E3373)
Correct for Detector Non-linearity: No (USB2E3373)
Correct for Stray Light: No (USB2E3373)
Number of Pixels in Processed Spectrum: 2048
>>>>>Begin Processed Spectral Data<<<<<
178.53	0.000
178.91	42.857
179.29	-700.000
179.67	100.000
180.04	92.857
180.42	-0.000
180.80	-0.000
181.18	-300.000
181.56	400.000
181.94	-25.000
182.31	75.000
182.69	66.667
183.07	-100.000
183.45	125.000
183.83	-83.333
184.20	133.333
184.58	-1000.000
184.96	-175.000
185.34	-33.333
185.72	-120.000
186.09	133.333
186.47	450.000
186.85	260.000
187.23	-100.000
187.61	-1400.000
187.98	80.000
188.36	350.000
188.74	-200.000
189.12	-133.333
189.49	18.750
189.87	-200.000
190.25	44.444
190.63	160.000
191.00	-11.111
191.38	0.000
191.76	-400.000
192.14	-33.333
192.51	-100.000
192.89	133.333
193.27	0.000
193.65	28.571
194.02	-1700.000
194.40	100.000
194.78	42.857
195.15	0.000
195.53	27.273
195.91	0.000
196.29	75.000
196.66	0.000
197.04	-200.000
197.42	-71.429
197.79	200.000
198.17	25.000
198.55	-85.714
198.92	111.111
199.30	-62.500
199.68	45.455
200.05	-50.000
200.43	-300.000
200.81	142.857
201.18	0.000
201.56	100.000
201.94	0.000
202.31	366.667
202.69	-55.556
203.07	-0.000
203.44	22.222
203.82	-75.000
204.19	50.000
204.57	-83.333
204.95	-100.000
205.32	-1400.000
205.70	100.000
206.08	-50.000
206.45	-150.000
206.83	20.000
207.20	66.667
207.58	-220.000
207.96	-183.333
208.33	16.667
208.71	66.667
209.08	250.000
209.46	0.000
209.84	83.333
210.21	-150.000
210.59	-100.000
210.96	233.333
211.34	-75.000
211.71	12.500
212.09	-400.000
212.46	0.000
212.84	600.000
213.22	-80.000
213.59	325.000
213.97	70.000
214.34	100.000
214.72	-50.000
215.09	-150.000
215.47	0.000
215.84	114.286
216.22	550.000
216.59	100.000
216.97	20.000
217.34	-175.000
217.72	-87.500
218.09	-75.000
218.47	0.000
218.84	0.000
219.22	-60.000
219.59	23.529
219.97	5.000
220.34	400.000
220.72	-55.556
221.09	15.385
221.47	-200.000
221.84	-20.000
222.22	-142.857
222.59	0.000
222.97	-37.500
223.34	-160.000
223.72	-1300.000
224.09	-225.000
224.46	-75.000
224.84	160.000
225.21	-42.857
225.59	100.000
225.96	0.000
226.34	7.692
226.71	233.333
227.08	50.000
227.46	53.333
227.83	50.000
228.21	10.526
228.58	75.000
228.95	50.000
229.33	16.667
229.70	40.000
230.08	26.316
230.45	140.000
230.82	-66.667
231.20	28.571
231.57	50.000
231.95	-72.727
232.32	9.091
232.69	25.000
233.07	-150.000
233.44	0.000
233.81	20.000
234.19	61.111
234.56	9.091
234.93	10.345
235.31	47.368
235.68	22.222
236.05	0.000
236.43	76.923
236.80	48.000
237.17	29.630
237.55	18.182
237.92	-60.000
238.29	35.484
238.67	0.000
239.04	22.222
239.41	9.524
239.79	21.739
240.16	5.556
240.53	6.522
240.91	0.000
241.28	14.754
241.65	14.925
242.02	18.919
242.40	10.769
242.77	12.000
243.14	7.317
243.51	-5.263
243.89	0.000
244.26	19.802
244.63	17.647
245.00	17.757
245.38	5.263
245.75	1.770
246.12	11.905
246.49	10.853
246.87	15.714
247.24	9.272
247.61	13.158
247.98	12.081
248.36	9.877
248.73	4.294
249.10	3.279
249.47	19.403
249.84	15.183
250.22	9.326
250.59	10.000
250.96	12.727
251.33	5.102
251.70	11.111
252.08	8.750
252.45	9.426
252.82	11.983
253.19	9.375
253.56	13.688
253.94	5.385
254.31	12.500
254.68	11.888
255.05	12.378
255.42	9.524
255.79	8.414
256.16	11.921
256.54	5.629
256.91	10.820
257.28	10.164
257.65	8.917
258.02	9.145
258.39	10.256
258.76	13.761
259.14	11.782
259.51	11.239
259.88	7.932
260.25	6.944
260.62	13.699
260.99	9.836
261.36	10.992
261.73	8.753
262.10	10.165
262.47	9.115
262.85	15.657
263.22	9.610
263.59	7.368
263.96	10.230
264.33	7.417
264.70	13.086
265.07	13.842
265.44	12.018
265.81	10.185
266.18	11.791
266.55	10.937
266.92	9.795
267.29	11.816
267.66	12.195
268.03	10.480
268.40	11.273
268.77	7.973
269.14	8.590
269.51	11.842
269.88	14.549
270.25	10.262
270.62	11.603
270.99	12.929
271.36	11.881
271.73	11.984
272.10	11.222
272.47	10.421
272.84	10.843
273.21	10.020
273.58	9.073
273.95	10.192
274.32	7.795
274.69	10.058
275.06	12.821
275.43	10.536
275.80	11.287
276.17	9.444
276.54	9.142
276.91	10.018
277.28	11.573
277.65	9.695
278.02	11.213
278.39	11.594
278.76	7.733
279.13	10.816
279.50	10.309
279.87	12.343
280.23	6.866
280.60	10.678
280.97	10.855
281.34	10.696
281.71	12.352
282.08	13.123
282.45	9.329
282.82	9.419
283.19	9.693
283.56	9.508
283.92	10.060
284.29	11.216
284.66	11.330
285.03	8.974
285.40	11.437
285.77	9.907
286.14	12.519
286.51	10.807
286.87	9.321
287.24	9.940
287.61	8.969
287.98	11.027
288.35	9.911
288.72	10.059
289.08	11.859
289.45	9.467
289.82	10.241
290.19	9.339
290.56	9.296
290.93	10.128
291.29	8.815
291.66	9.366
292.03	8.820
292.40	10.884
292.77	8.356
293.13	9.472
293.50	8.804
293.87	9.262
294.24	9.600
294.60	10.367
294.97	7.517
295.34	9.475
295.71	8.323
296.08	8.656
296.44	9.191
296.81	8.526
297.18	7.970
297.55	8.373
297.91	8.304
298.28	8.175
298.65	8.799
299.02	8.619
299.38	8.810
299.75	8.762
300.12	8.333
300.48	8.756
300.85	9.449
301.22	8.166
301.59	6.849
301.95	8.136
302.32	8.556
302.69	8.872
303.05	8.487
303.42	7.761
303.79	7.500
304.15	9.148
304.52	6.977
304.89	7.435
305.25	8.696
305.62	7.941
305.99	7.113
306.35	7.964
306.72	8.687
307.09	7.411
307.45	7.867
307.82	7.669
308.19	7.972
308.55	8.968
308.92	8.374
309.29	7.663
309.65	6.238
310.02	8.416
310.38	7.283
310.75	7.864
311.12	7.766
311.48	7.820
311.85	7.597
312.22	8.539
312.58	7.606
312.95	6.501
313.31	9.033
313.68	8.242
314.05	8.220
314.41	10.200
314.78	8.356
315.14	7.804
315.51	7.941
315.87	8.101
316.24	8.219
316.61	8.792
316.97	7.149
317.34	7.760
317.70	8.122
318.07	8.113
318.43	8.333
318.80	8.194
319.16	7.639
319.53	7.198
319.89	7.011
320.26	8.274
320.62	8.333
320.99	8.403
321.35	7.209
321.72	8.837
322.08	7.214
322.45	7.769
322.81	8.574
323.18	7.168
323.54	8.017
323.91	8.185
324.27	8.003
324.64	8.396
325.00	7.214
325.37	7.862
325.73	8.843
326.10	8.273
326.46	9.039
326.83	9.608
327.19	8.661
327.56	8.458
327.92	8.261
328.29	7.016
328.65	7.873
329.01	8.714
329.38	8.677
329.74	8.305
330.11	8.647
330.47	6.824
330.84	8.441
331.20	9.167
331.56	7.366
331.93	8.285
332.29	7.966
332.66	8.804
333.02	9.213
333.38	8.054
333.75	8.670
334.11	8.590
334.48	7.921
334.84	8.921
335.20	8.228
335.57	7.251
335.93	9.008
336.29	7.238
336.66	8.831
337.02	7.776
337.38	8.248
337.75	7.438
338.11	8.999
338.47	8.519
338.84	7.360
339.20	7.919
339.56	7.908
339.93	7.225
340.29	8.615
340.65	7.624
341.02	8.380
341.38	8.812
341.74	6.860
342.11	8.367
342.47	7.705
342.83	8.293
343.20	7.604
343.56	8.019
343.92	7.846
344.28	7.266
344.65	8.605
345.01	8.268
345.37	8.709
345.73	7.015
346.10	9.282
346.46	6.962
346.82	7.865
347.19	7.105
347.55	8.270
347.91	8.098
348.27	7.436
348.63	7.921
349.00	7.383
349.36	8.104
349.72	8.854
350.08	7.801
350.45	7.909
350.81	7.391
351.17	8.421
351.53	7.733
351.89	8.276
352.26	7.761
352.62	8.507
352.98	7.099
353.34	7.319
353.70	7.011
354.07	7.824
354.43	7.365
354.79	7.779
355.15	7.653
355.51	8.991
355.87	7.180
356.24	6.996
356.60	7.834
356.96	6.820
357.32	7.732
357.68	7.980
358.04	6.587
358.40	7.239
358.77	7.675
359.13	7.755
359.49	7.361
359.85	7.614
360.21	7.747
360.57	7.681
360.93	7.123
361.29	7.649
361.66	6.951
362.02	8.559
362.38	7.449
362.74	7.123
363.10	7.978
363.46	7.064
363.82	6.676
364.18	7.460
364.54	7.953
364.90	7.759
365.26	6.483
365.62	8.600
365.98	7.352
366.35	7.248
366.71	7.823
367.07	7.104
367.43	7.223
367.79	7.631
368.15	7.291
368.51	8.187
368.87	7.250
369.23	7.267
369.59	6.831
369.95	6.761
370.31	8.103
370.67	7.497
371.03	7.895
371.39	6.447
371.75	7.565
372.11	6.978
372.47	7.583
372.83	7.395
373.19	6.938
373.55	8.333
373.91	6.817
374.27	8.085
374.63	6.563
374.99	6.565
375.35	7.792
375.71	7.677
376.07	6.908
376.42	7.053
376.78	7.520
377.14	7.424
377.50	6.768
377.86	8.005
378.22	7.605
378.58	7.729
378.94	6.690
379.30	7.674
379.66	7.055
380.02	7.386
380.38	6.624
380.74	6.479
381.09	6.794
381.45	7.159
381.81	7.377
382.17	7.126
382.53	6.550
382.89	7.506
383.25	6.975
383.61	7.118
383.97	6.537
384.32	7.177
384.68	6.497
385.04	7.114
385.40	7.189
385.76	7.503
386.12	7.002
386.48	8.176
386.83	6.913
387.19	7.474
387.55	6.514
387.91	6.393
388.27	7.679
388.62	7.331
388.98	7.050
389.34	7.248
389.70	6.915
390.06	6.631
390.42	6.325
390.77	8.128
391.13	6.925
391.49	7.488
391.85	6.606
392.20	7.414
392.56	7.383
392.92	7.525
393.28	7.242
393.64	6.480
393.99	7.205
394.35	7.535
394.71	7.545
395.07	6.647
395.42	6.282
395.78	7.739
396.14	7.130
396.50	6.770
396.85	7.513
397.21	6.923
397.57	6.949
397.92	7.904
398.28	6.844
398.64	6.808
399.00	6.387
399.35	7.277
399.71	6.467
400.07	7.187
400.42	7.334
400.78	7.060
401.14	7.342
401.49	7.732
401.85	6.744
402.21	7.184
402.57	7.746
402.92	6.738
403.28	7.026
403.63	6.623
403.99	6.591
404.35	7.561
404.70	7.025
405.06	6.359
405.42	6.909
405.77	7.034
406.13	7.077
406.49	6.982
406.84	7.313
407.20	7.211
407.55	6.965
407.91	6.851
408.27	6.890
408.62	7.155
408.98	7.429
409.34	6.686
409.69	7.046
410.05	7.737
410.40	7.947
410.76	7.011
411.11	7.481
411.47	7.248
411.83	7.349
412.18	6.506
412.54	7.113
412.89	7.916
413.25	7.167
413.60	6.663
413.96	7.925
414.31	6.969
414.67	7.036
415.03	6.831
415.38	7.125
415.74	7.758
416.09	7.033
416.45	6.951
416.80	8.568
417.16	7.407
417.51	7.846
417.87	7.419
418.22	7.066
418.58	7.249
418.93	7.567
419.29	7.645
419.64	7.143
420.00	7.240
420.35	7.019
420.71	7.582
421.06	6.613
421.42	7.110
421.77	6.947
422.12	7.558
422.48	7.527
422.83	7.065
423.19	7.321
423.54	7.301
423.90	7.289
424.25	7.573
424.61	7.520
424.96	7.798
425.31	7.803
425.67	7.461
426.02	6.752
426.38	6.602
426.73	6.585
427.09	7.670
427.44	7.155
427.79	6.855
428.15	7.021
428.50	6.629
428.85	6.946
429.21	8.245
429.56	6.565
429.92	7.813
430.27	6.940
430.62	6.888
430.98	7.477
431.33	7.136
431.68	6.418
432.04	7.009
432.39	7.177
432.74	7.420
433.10	7.301
433.45	6.633
433.80	6.813
434.16	6.973
434.51	7.297
434.86	7.003
435.22	7.333
435.57	7.075
435.92	7.290
436.28	7.622
436.63	7.373
436.98	7.193
437.34	7.046
437.69	7.320
438.04	6.822
438.39	7.582
438.75	7.305
439.10	7.505
439.45	7.937
439.81	7.571
440.16	6.810
440.51	6.912
440.86	7.615
441.22	6.806
441.57	6.971
441.92	6.790
442.27	6.970
442.63	7.948
442.98	8.058
443.33	7.417
443.68	8.077
444.03	7.855
444.39	7.675
444.74	7.606
445.09	7.349
445.44	7.007
445.79	8.142
446.15	7.297
446.50	7.545
446.85	7.539
447.20	8.124
447.55	8.002
447.91	6.963
448.26	6.924
448.61	7.598
448.96	7.886
449.31	7.582
449.66	6.972
450.02	7.489
450.37	8.311
450.72	6.620
451.07	7.916
451.42	7.741
451.77	7.504
452.12	6.998
452.47	7.724
452.83	7.489
453.18	8.114
453.53	6.548
453.88	8.062
454.23	7.514
454.58	7.487
454.93	7.342
455.28	7.104
455.63	7.220
455.98	8.324
456.34	7.185
456.69	7.172
457.04	7.151
457.39	7.927
457.74	7.494
458.09	7.688
458.44	7.759
458.79	7.375
459.14	8.076
459.49	8.093
459.84	7.450
460.19	6.607
460.54	7.553
460.89	8.311
461.24	7.011
461.59	7.416
461.94	7.302
462.29	7.839
462.64	7.182
462.99	6.842
463.34	8.047
463.69	7.972
464.04	7.838
464.39	7.119
464.74	7.925
465.09	7.093
465.44	7.296
465.79	8.620
466.14	7.087
466.49	7.105
466.84	7.052
467.19	7.746
467.54	7.638
467.89	7.184
468.24	7.701
468.59	7.701
468.94	7.576
469.29	7.738
469.64	7.184
469.99	7.393
470.34	7.797
470.68	8.202
471.03	7.990
471.38	8.175
471.73	7.607
472.08	7.741
472.43	7.405
472.78	7.305
473.13	7.775
473.48	8.036
473.83	8.183
474.17	7.210
474.52	7.817
474.87	7.807
475.22	7.606
475.57	7.996
475.92	8.213
476.27	7.987
476.61	6.906
476.96	7.091
477.31	7.970
477.66	7.712
478.01	7.168
478.36	7.926
478.70	8.079
479.05	8.231
479.40	7.947
479.75	8.117
480.10	8.195
480.45	7.840
480.79	7.891
481.14	7.399
481.49	7.497
481.84	7.876
482.19	7.828
482.53	7.696
482.88	8.197
483.23	8.359
483.58	7.904
483.92	6.915
484.27	7.917
484.62	7.508
484.97	8.009
485.31	7.321
485.66	7.210
486.01	7.424
486.36	7.225
486.70	7.563
487.05	7.290
487.40	7.337
487.75	7.379
488.09	7.467
488.44	7.337
488.79	7.960
489.13	7.567
489.48	7.379
489.83	7.525
490.17	7.412
490.52	7.923
490.87	7.995
491.22	7.582
491.56	8.447
491.91	8.112
492.26	7.746
492.60	7.652
492.95	7.854
493.30	7.799
493.64	8.279
493.99	8.026
494.34	7.056
494.68	7.709
495.03	7.797
495.37	7.723
495.72	8.163
496.07	8.238
496.41	7.894
496.76	7.882
497.11	7.601
497.45	7.337
497.80	8.130
498.14	7.392
498.49	7.721
498.84	7.678
499.18	8.142
499.53	8.386
499.87	8.000
500.22	7.703
500.56	7.962
500.91	8.009
501.26	7.727
501.60	7.645
501.95	8.076
502.29	7.723
502.64	8.177
502.98	8.283
503.33	7.430
503.67	7.414
504.02	7.968
504.36	8.132
504.71	7.717
505.06	7.549
505.40	7.770
505.75	7.832
506.09	8.195
506.44	7.382
506.78	7.752
507.13	8.299
507.47	8.053
507.82	8.191
508.16	7.696
508.51	7.595
508.85	7.463
509.19	8.622
509.54	8.453
509.88	8.111
510.23	8.305
510.57	8.942
510.92	8.660
511.26	7.600
511.61	7.967
511.95	8.638
512.30	8.026
512.64	7.796
512.98	8.154
513.33	8.367
513.67	8.363
514.02	8.585
514.36	8.133
514.70	8.021
515.05	8.446
515.39	8.031
515.74	8.324
516.08	8.399
516.42	9.314
516.77	8.202
517.11	8.252
517.46	8.855
517.80	8.712
518.14	8.651
518.49	8.134
518.83	8.302
519.17	8.508
519.52	8.543
519.86	8.817
520.20	7.881
520.55	8.817
520.89	8.446
521.23	8.599
521.58	8.079
521.92	8.895
522.26	8.018
522.61	8.507
522.95	7.843
523.29	8.276
523.64	8.128
523.98	9.412
524.32	9.341
524.66	9.106
525.01	8.267
525.35	7.869
525.69	8.759
526.04	8.496
526.38	8.391
526.72	9.400
527.06	8.622
527.41	8.571
527.75	8.907
528.09	8.619
528.43	8.585
528.78	8.555
529.12	7.913
529.46	8.263
529.80	8.924
530.15	9.333
530.49	7.948
530.83	9.032
531.17	8.065
531.51	9.627
531.86	8.413
532.20	9.695
532.54	8.917
532.88	8.424
533.22	8.427
533.57	9.002
533.91	8.754
534.25	8.084
534.59	8.621
534.93	8.489
535.27	8.563
535.62	8.471
535.96	9.123
536.30	8.402
536.64	8.829
536.98	8.795
537.32	8.272
537.66	8.297
538.01	8.459
538.35	7.734
538.69	8.233
539.03	8.645
539.37	9.600
539.71	8.889
540.05	8.693
540.39	7.824
540.73	8.925
541.07	8.952
541.42	8.801
541.76	8.719
542.10	8.685
542.44	7.674
542.78	9.002
543.12	9.178
543.46	8.791
543.80	8.333
544.14	8.438
544.48	8.924
544.82	9.755
545.16	8.408
545.50	8.868
545.84	8.573
546.18	9.383
546.52	8.344
546.86	8.428
547.20	8.524
547.54	8.115
547.88	8.499
548.22	8.246
548.56	8.719
548.90	7.881
549.24	8.875
549.58	8.517
549.92	8.992
550.26	8.350
550.60	8.934
550.94	9.702
551.28	8.911
551.62	9.973
551.96	8.803
552.30	9.624
552.64	8.650
552.98	8.422
553.32	8.939
553.66	8.682
554.00	8.638
554.34	8.108
554.68	8.586
555.02	9.396
555.36	10.519
555.69	8.520
556.03	8.260
556.37	8.761
556.71	9.639
557.05	9.393
557.39	8.825
557.73	8.785
558.07	9.073
558.41	8.638
558.75	9.331
559.08	9.255
559.42	7.956
559.76	9.430
560.10	8.573
560.44	8.707
560.78	9.688
561.12	9.052
561.45	9.854
561.79	8.852
562.13	8.872
562.47	8.940
562.81	8.291
563.15	8.838
563.48	8.888
563.82	8.706
564.16	8.177
564.50	9.118
564.84	8.732
565.17	8.412
565.51	8.976
565.85	8.729
566.19	8.813
566.52	9.128
566.86	8.942
567.20	8.157
567.54	8.550
567.88	8.767
568.21	9.091
568.55	8.249
568.89	9.033
569.23	8.745
569.56	8.324
569.90	8.803
570.24	8.094
570.57	8.018
570.91	7.624
571.25	8.244
571.59	8.099
571.92	8.049
572.26	7.702
572.60	8.081
572.93	8.350
573.27	7.980
573.61	8.311
573.95	7.526
574.28	7.942
574.62	7.890
574.96	7.212
575.29	7.733
575.63	7.715
575.97	7.952
576.30	8.068
576.64	7.802
576.98	7.882
577.31	7.490
577.65	7.738
577.98	7.643
578.32	7.336
578.66	7.576
578.99	7.475
579.33	7.737
579.67	7.548
580.00	7.800
580.34	7.853
580.67	7.679
581.01	7.399
581.35	7.637
581.68	7.560
582.02	7.752
582.35	7.695
582.69	7.715
583.02	7.494
583.36	7.640
583.70	7.385
584.03	7.511
584.37	7.652
584.70	7.604
585.04	7.301
585.37	7.446
585.71	7.443
586.04	7.552
586.38	7.753
586.72	7.546
587.05	7.598
587.39	7.729
587.72	7.679
588.06	7.761
588.39	7.941
588.73	7.460
589.06	8.014
589.40	8.328
589.73	8.226
590.07	8.090
590.40	8.824
590.73	8.271
591.07	8.340
591.40	8.009
591.74	7.949
592.07	8.648
592.41	8.162
592.74	7.987
593.08	7.962
593.41	8.224
593.75	8.046
594.08	7.816
594.41	7.981
594.75	8.469
595.08	7.840
595.42	7.987
595.75	7.879
596.09	8.302
596.42	8.241
596.75	8.568
597.09	8.485
597.42	7.946
597.75	8.036
598.09	8.135
598.42	8.685
598.76	7.719
599.09	8.295
599.42	7.643
599.76	7.890
600.09	8.141
600.42	8.041
600.76	8.190
601.09	7.833
601.42	7.690
601.76	8.276
602.09	8.041
602.42	7.779
602.76	7.823
603.09	8.040
603.42	8.020
603.76	7.611
604.09	8.304
604.42	8.110
604.76	7.648
605.09	8.257
605.42	8.214
605.75	7.808
606.09	7.988
606.42	7.443
606.75	7.984
607.09	7.527
607.42	8.632
607.75	8.597
608.08	8.327
608.42	8.424
608.75	8.292
609.08	8.404
609.41	7.675
609.75	8.214
610.08	8.223
610.41	8.156
610.74	7.983
611.07	8.259
611.41	8.206
611.74	8.684
612.07	8.789
612.40	7.795
612.73	8.655
613.07	7.824
613.40	8.662
613.73	8.474
614.06	8.342
614.39	8.601
614.72	8.054
615.06	8.133
615.39	8.797
615.72	8.199
616.05	8.451
616.38	8.073
616.71	7.994
617.05	8.307
617.38	9.042
617.71	8.639
618.04	8.203
618.37	9.235
618.70	9.050
619.03	8.303
619.36	8.323
619.69	9.353
620.03	8.914
620.36	8.160
620.69	8.513
621.02	8.530
621.35	8.491
621.68	9.472
622.01	8.470
622.34	7.741
622.67	8.797
623.00	7.692
623.33	8.825
623.66	9.857
623.99	8.032
624.32	9.162
624.65	8.752
624.99	8.257
625.32	9.732
625.65	9.373
625.98	8.407
626.31	8.292
626.64	9.011
626.97	9.002
627.30	7.669
627.63	9.002
627.96	10.135
628.29	8.716
628.62	8.144
628.95	10.079
629.28	9.091
629.61	9.764
629.94	8.703
630.26	9.068
630.59	9.326
630.92	8.831
631.25	9.839
631.58	9.134
631.91	8.903
632.24	9.990
632.57	9.962
632.90	10.431
633.23	9.184
633.56	9.184
633.89	8.058
634.22	9.979
634.55	10.230
634.88	10.281
635.20	11.410
635.53	8.814
635.86	10.076
636.19	10.604
636.52	9.705
636.85	9.091
637.18	10.187
637.51	9.462
637.83	10.963
638.16	10.253
638.49	9.272
638.82	9.245
639.15	9.393
639.48	11.201
639.81	10.970
640.13	10.247
640.46	8.000
640.79	9.436
641.12	9.689
641.45	10.414
641.77	11.810
642.10	10.105
642.43	11.037
642.76	10.434
643.09	9.452
643.41	10.784
643.74	10.345
644.07	10.759
644.40	9.194
644.73	9.144
645.05	10.132
645.38	10.216
645.71	10.264
646.04	12.339
646.36	9.489
646.69	9.509
647.02	10.703
647.35	12.061
647.67	10.789
648.00	11.306
648.33	11.261
648.66	9.843
648.98	9.932
649.31	10.555
649.64	11.554
649.96	9.549
650.29	8.901
650.62	11.033
650.94	9.459
651.27	9.281
651.60	9.795
651.92	8.967
652.25	10.130
652.58	9.491
652.90	9.448
653.23	10.141
653.56	9.558
653.88	11.657
654.21	9.014
654.54	10.116
654.86	10.623
655.19	8.407
655.52	10.056
655.84	7.493
656.17	8.627
656.49	12.164
656.82	13.082
657.15	10.457
657.47	7.658
