SpectraSuite Data File
++++++++++++++++++++++++++++++++++++
Date: Thu May 14 16:42:16 PDT 2015
User: schluterlab
Dark Spectrum Present: Yes
Reference Spectrum Present: Yes
Number of Sampled Component Spectra: 1
Spectrometers: USB2E3373
Integration Time (usec): 3000 (USB2E3373)
Spectra Averaged: 3 (USB2E3373)
Boxcar Smoothing: 0 (USB2E3373)
Correct for Electrical Dark: No (USB2E3373)
Strobe/Lamp Enabled: No (USB2E3373)
Correct for Detector Non-linearity: No (USB2E3373)
Correct for Stray Light: No (USB2E3373)
Number of Pixels in Processed Spectrum: 2048
>>>>>Begin Processed Spectral Data<<<<<
178.53	0.000
178.91	57.143
179.29	-1500.000
179.67	100.000
180.04	71.429
180.42	-40.000
180.80	20.000
181.18	300.000
181.56	-200.000
181.94	150.000
182.31	-250.000
182.69	133.333
183.07	250.000
183.45	25.000
183.83	16.667
184.20	66.667
184.58	100.000
184.96	-100.000
185.34	88.889
185.72	-40.000
186.09	155.556
186.47	100.000
186.85	240.000
187.23	-77.778
187.61	-300.000
187.98	40.000
188.36	125.000
188.74	-150.000
189.12	-166.667
189.49	112.500
189.87	-75.000
190.25	55.556
190.63	-60.000
191.00	-33.333
191.38	0.000
191.76	-400.000
192.14	-100.000
192.51	450.000
192.89	0.000
193.27	0.000
193.65	14.286
194.02	-400.000
194.40	-28.571
194.78	14.286
195.15	0.000
195.53	63.636
195.91	0.000
196.29	-100.000
196.66	7.692
197.04	-1200.000
197.42	-157.143
197.79	-150.000
198.17	87.500
198.55	-157.143
198.92	77.778
199.30	25.000
199.68	36.364
200.05	92.857
200.43	100.000
200.81	85.714
201.18	0.000
201.56	44.444
201.94	0.000
202.31	366.667
202.69	55.556
203.07	700.000
203.44	0.000
203.82	-75.000
204.19	-8.333
204.57	-66.667
204.95	-12.500
205.32	-400.000
205.70	-150.000
206.08	-16.667
206.45	83.333
206.83	140.000
207.20	-83.333
207.58	-100.000
207.96	-150.000
208.33	0.000
208.71	58.333
209.08	33.333
209.46	0.000
209.84	200.000
210.21	-200.000
210.59	-150.000
210.96	200.000
211.34	125.000
211.71	-87.500
212.09	-600.000
212.46	0.000
212.84	800.000
213.22	-220.000
213.59	75.000
213.97	-10.000
214.34	133.333
214.72	66.667
215.09	-100.000
215.47	0.000
215.84	-0.000
216.22	400.000
216.59	-20.000
216.97	140.000
217.34	275.000
217.72	37.500
218.09	-150.000
218.47	50.000
218.84	0.000
219.22	80.000
219.59	11.765
219.97	35.000
220.34	200.000
220.72	33.333
221.09	38.462
221.47	-300.000
221.84	-20.000
222.22	-42.857
222.59	0.000
222.97	12.500
223.34	-140.000
223.72	-1000.000
224.09	-275.000
224.46	-250.000
224.84	-20.000
225.21	-100.000
225.59	-250.000
225.96	-75.000
226.34	42.308
226.71	166.667
227.08	250.000
227.46	60.000
227.83	-250.000
228.21	21.053
228.58	62.500
228.95	-0.000
229.33	25.000
229.70	-60.000
230.08	78.947
230.45	20.000
230.82	0.000
231.20	21.429
231.57	8.333
231.95	-27.273
232.32	45.455
232.69	10.000
233.07	-25.000
233.44	-11.765
233.81	-100.000
234.19	-11.111
234.56	4.545
234.93	48.276
235.31	0.000
235.68	-22.222
236.05	-35.000
236.43	57.692
236.80	72.000
237.17	33.333
237.55	24.242
237.92	-120.000
238.29	-12.903
238.67	0.000
239.04	13.889
239.41	-16.667
239.79	6.522
240.16	-11.111
240.53	-8.696
240.91	-5.882
241.28	0.000
241.65	13.433
242.02	4.054
242.40	-6.154
242.77	-9.333
243.14	2.439
243.51	-14.474
243.89	-5.128
244.26	2.970
244.63	0.980
245.00	-2.804
245.38	3.509
245.75	-6.195
246.12	5.556
246.49	3.876
246.87	10.000
247.24	9.272
247.61	10.526
247.98	-5.369
248.36	-1.852
248.73	-3.681
249.10	-3.279
249.47	0.498
249.84	3.665
250.22	-3.109
250.59	0.000
250.96	2.727
251.33	0.000
251.70	6.838
252.08	7.500
252.45	2.049
252.82	-1.240
253.19	2.734
253.56	2.281
253.94	-1.923
254.31	1.515
254.68	1.399
255.05	3.909
255.42	0.340
255.79	0.324
256.16	-1.325
256.54	-2.980
256.91	2.295
257.28	0.656
257.65	-0.955
258.02	-1.770
258.39	2.564
258.76	4.281
259.14	2.874
259.51	0.288
259.88	-1.133
260.25	3.333
260.62	1.644
260.99	3.825
261.36	5.094
261.73	-1.857
262.10	-1.374
262.47	0.804
262.85	5.051
263.22	-0.519
263.59	-1.842
263.96	2.813
264.33	1.535
264.70	1.235
265.07	5.489
265.44	5.442
265.81	1.620
266.18	1.814
266.55	4.241
266.92	-1.595
267.29	2.626
267.66	3.548
268.03	3.057
268.40	1.253
268.77	-1.595
269.14	-2.643
269.51	-0.219
269.88	2.459
270.25	0.000
270.62	3.586
270.99	4.444
271.36	2.376
271.73	0.000
272.10	2.605
272.47	1.603
272.84	1.807
273.21	2.004
273.58	2.218
273.95	-0.577
274.32	0.570
274.69	0.193
275.06	2.015
275.43	0.739
275.80	2.822
276.17	1.481
276.54	0.187
276.91	0.000
277.28	0.723
277.65	2.513
278.02	4.044
278.39	0.906
278.76	1.406
279.13	1.950
279.50	2.749
279.87	1.431
280.23	1.056
280.60	1.864
280.97	2.138
281.34	-0.170
281.71	2.200
282.08	0.997
282.45	2.128
282.82	3.768
283.19	1.777
283.56	-0.164
283.92	3.303
284.29	3.791
284.66	2.463
285.03	-0.962
285.40	2.164
285.77	0.464
286.14	3.511
286.51	0.761
286.87	1.422
287.24	1.657
287.61	0.149
287.98	1.208
288.35	1.923
288.72	0.888
289.08	3.221
289.45	0.592
289.82	1.657
290.19	1.293
290.56	2.535
290.93	1.712
291.29	1.377
291.66	1.240
292.03	1.628
292.40	4.218
292.77	2.022
293.13	3.654
293.50	1.971
293.87	1.208
294.24	3.467
294.60	2.149
294.97	1.611
295.34	2.945
295.71	2.270
296.08	1.680
296.44	2.328
296.81	1.827
297.18	2.117
297.55	2.476
297.91	0.830
298.28	1.896
298.65	2.140
299.02	1.535
299.38	3.432
299.75	1.168
300.12	1.505
300.48	1.152
300.85	2.587
301.22	2.908
301.59	1.941
301.95	2.147
302.32	3.000
302.69	2.738
303.05	3.482
303.42	2.993
303.79	2.396
304.15	2.313
304.52	2.220
304.89	2.408
305.25	3.209
305.62	2.508
305.99	3.196
306.35	3.125
306.72	2.689
307.09	2.538
307.45	3.106
307.82	4.036
308.19	3.027
308.55	4.725
308.92	3.797
309.29	4.598
309.65	2.632
310.02	3.663
310.38	4.724
310.75	4.369
311.12	4.698
311.48	5.279
311.85	4.653
312.22	5.313
312.58	5.446
312.95	6.119
313.31	5.962
313.68	6.868
314.05	7.859
314.41	7.013
314.78	8.084
315.14	6.987
315.51	7.479
315.87	8.911
316.24	9.406
316.61	9.591
316.97	8.507
317.34	8.642
317.70	9.782
318.07	10.582
318.43	11.650
318.80	11.622
319.16	11.245
319.53	10.283
319.89	10.780
320.26	12.811
320.62	12.500
320.99	13.481
321.35	15.065
321.72	15.163
322.08	13.977
322.45	13.731
322.81	15.794
323.18	16.018
323.54	17.328
323.91	17.883
324.27	18.417
324.64	19.731
325.00	17.910
325.37	19.984
325.73	19.835
326.10	21.249
326.46	21.580
326.83	24.019
327.19	23.228
327.56	25.138
327.92	24.233
328.29	24.355
328.65	24.539
329.01	26.058
329.38	24.937
329.74	26.199
330.11	27.740
330.47	26.706
330.84	27.390
331.20	28.083
331.56	27.903
331.93	28.703
332.29	29.068
332.66	27.907
333.02	28.392
333.38	28.607
333.75	28.620
334.11	30.275
334.48	29.703
334.84	30.586
335.20	30.143
335.57	31.197
335.93	31.570
336.29	29.867
336.66	31.119
337.02	30.602
337.38	31.548
337.75	30.248
338.11	30.782
338.47	32.093
338.84	31.895
339.20	31.340
339.56	30.890
339.93	31.773
340.29	32.609
340.65	31.630
341.02	31.285
341.38	33.630
341.74	33.091
342.11	32.743
342.47	32.645
342.83	34.380
343.20	33.034
343.56	32.558
343.92	32.186
344.28	33.203
344.65	32.636
345.01	34.633
345.37	34.526
345.73	32.034
346.10	34.945
346.46	33.782
346.82	33.258
347.19	34.072
347.55	33.915
347.91	34.547
348.27	34.067
348.63	34.425
349.00	33.632
349.36	34.721
349.72	34.375
350.08	34.101
350.45	34.144
350.81	34.465
351.17	35.564
351.53	35.557
351.89	36.295
352.26	35.522
352.62	35.821
352.98	35.802
353.34	35.474
353.70	36.595
354.07	35.171
354.43	35.004
354.79	35.079
355.15	35.099
355.51	37.208
355.87	36.500
356.24	38.175
356.60	34.959
356.96	36.471
357.32	36.877
357.68	36.018
358.04	36.377
358.40	36.567
358.77	37.500
359.13	36.189
359.49	36.283
359.85	36.548
360.21	36.944
360.57	36.540
360.93	37.094
361.29	37.474
361.66	37.437
362.02	37.717
362.38	37.526
362.74	38.268
363.10	38.171
363.46	37.673
363.82	38.281
364.18	37.579
364.54	38.036
364.90	38.863
365.26	36.621
365.62	38.267
365.98	38.121
366.35	38.121
366.71	39.660
367.07	38.836
367.43	39.330
367.79	38.288
368.15	40.334
368.51	39.378
368.87	38.537
369.23	37.933
369.59	39.959
369.95	39.621
370.31	40.986
370.67	39.615
371.03	38.712
371.39	39.825
371.75	38.377
372.11	39.566
372.47	38.863
372.83	39.136
373.19	39.626
373.55	39.634
373.91	39.809
374.27	40.168
374.63	40.731
374.99	38.660
375.35	40.909
375.71	39.548
376.07	39.122
376.42	40.554
376.78	39.155
377.14	38.677
377.50	39.911
377.86	40.025
378.22	40.958
378.58	40.666
378.94	40.258
379.30	39.660
379.66	41.681
380.02	40.277
380.38	41.417
380.74	39.718
381.09	40.592
381.45	41.364
381.81	40.691
382.17	40.796
382.53	40.175
382.89	40.181
383.25	41.325
383.61	40.856
383.97	40.047
384.32	42.225
384.68	40.719
385.04	41.238
385.40	41.544
385.76	42.028
386.12	39.677
386.48	40.647
386.83	40.465
387.19	40.093
387.55	40.434
387.91	40.925
388.27	41.224
388.62	40.550
388.98	39.707
389.34	40.837
389.70	41.313
390.06	39.432
390.42	40.241
390.77	40.518
391.13	39.789
391.49	41.063
391.85	41.030
392.20	41.281
392.56	40.402
392.92	40.622
393.28	41.570
393.64	39.777
393.99	40.674
394.35	40.537
394.71	41.437
395.07	39.222
395.42	39.634
395.78	40.280
396.14	40.345
396.50	40.261
396.85	41.383
397.21	40.592
397.57	40.459
397.92	39.805
398.28	40.196
398.64	39.645
399.00	39.476
399.35	39.948
399.71	38.641
400.07	39.360
400.42	39.173
400.78	40.278
401.14	40.239
401.49	38.545
401.85	39.767
402.21	39.455
402.57	39.495
402.92	39.480
403.28	39.052
403.63	39.021
403.99	39.846
404.35	39.511
404.70	39.093
405.06	38.043
405.42	39.461
405.77	39.640
406.13	39.330
406.49	39.077
406.84	39.391
407.20	38.401
407.55	38.340
407.91	39.283
408.27	38.104
408.62	39.209
408.98	38.247
409.34	37.595
409.69	37.948
410.05	38.628
410.40	39.443
410.76	38.138
411.11	37.989
411.47	38.268
411.83	37.860
412.18	39.699
412.54	38.767
412.89	38.242
413.25	38.318
413.60	38.139
413.96	38.228
414.31	37.337
414.67	37.507
415.03	36.862
415.38	37.453
415.74	35.858
416.09	37.323
416.45	35.942
416.80	37.209
417.16	37.420
417.51	36.862
417.87	37.155
418.22	36.347
418.58	36.121
418.93	36.845
419.29	36.128
419.64	36.315
420.00	36.499
420.35	36.159
420.71	35.841
421.06	35.423
421.42	36.296
421.77	35.757
422.12	35.941
422.48	36.559
422.83	36.145
423.19	35.756
423.54	36.062
423.90	35.119
424.25	35.947
424.61	35.419
424.96	35.914
425.31	36.200
425.67	35.105
426.02	35.916
426.38	35.993
426.73	35.658
427.09	35.755
427.44	35.390
427.79	35.158
428.15	35.274
428.50	35.618
428.85	34.386
429.21	35.053
429.56	34.995
429.92	35.184
430.27	35.904
430.62	34.392
430.98	35.219
431.33	34.018
431.68	34.674
432.04	35.551
432.39	35.083
432.74	34.589
433.10	33.694
433.45	33.612
433.80	34.335
434.16	34.866
434.51	34.224
434.86	35.396
435.22	34.538
435.57	34.729
435.92	34.335
436.28	33.504
436.63	34.571
436.98	33.119
437.34	33.089
437.69	33.902
438.04	33.897
438.39	33.716
438.75	33.204
439.10	33.087
439.45	33.426
439.81	32.768
440.16	32.493
440.51	33.110
440.86	32.796
441.22	32.315
441.57	33.648
441.92	32.153
442.27	33.636
442.63	33.383
442.98	32.070
443.33	32.299
443.68	32.507
444.03	32.973
444.39	33.195
444.74	33.180
445.09	32.184
445.44	32.719
445.79	32.519
446.15	32.271
446.50	31.783
446.85	32.247
447.20	32.930
447.55	32.897
447.91	31.990
448.26	31.712
448.61	31.934
448.96	32.189
449.31	31.389
449.66	31.645
450.02	31.857
450.37	31.700
450.72	31.001
451.07	31.663
451.42	30.676
451.77	30.906
452.12	31.264
452.47	30.660
452.83	32.320
453.18	30.706
453.53	30.442
453.88	31.033
454.23	31.808
454.58	31.689
454.93	30.158
455.28	32.089
455.63	30.870
455.98	31.564
456.34	29.918
456.69	30.041
457.04	31.442
457.39	30.654
457.74	30.705
458.09	29.874
458.44	30.657
458.79	30.067
459.14	29.890
459.49	30.673
459.84	30.010
460.19	29.539
460.54	29.983
460.89	29.328
461.24	29.598
461.59	29.386
461.94	28.808
462.29	29.395
462.64	29.330
462.99	29.002
463.34	29.851
463.69	28.546
464.04	28.738
464.39	29.372
464.74	29.076
465.09	29.123
465.44	27.951
465.79	27.710
466.14	29.078
466.49	29.000
466.84	28.815
467.19	28.555
467.54	28.143
467.89	28.161
468.24	28.421
468.59	26.578
468.94	27.855
469.29	27.475
469.64	27.336
469.99	28.043
470.34	26.733
470.68	27.341
471.03	28.160
471.38	27.534
471.73	26.398
472.08	27.157
472.43	26.911
472.78	27.456
473.13	26.422
473.48	26.949
473.83	27.278
474.17	26.671
474.52	27.420
474.87	26.633
475.22	26.423
475.57	26.428
475.92	26.779
476.27	26.518
476.61	25.857
476.96	26.173
477.31	26.584
477.66	26.810
478.01	25.572
478.36	25.723
478.70	25.665
479.05	26.278
479.40	25.913
479.75	25.937
480.10	24.917
480.45	24.886
480.79	26.122
481.14	25.230
481.49	24.580
481.84	25.283
482.19	24.645
482.53	24.792
482.88	25.210
483.23	24.944
483.58	23.930
483.92	23.892
484.27	24.217
484.62	23.969
484.97	24.145
485.31	23.548
485.66	23.332
486.01	23.029
486.36	23.450
486.70	24.069
487.05	24.069
487.40	23.427
487.75	22.723
488.09	22.964
488.44	22.534
488.79	22.631
489.13	22.882
489.48	22.874
489.83	23.139
490.17	22.600
490.52	22.947
490.87	22.885
491.22	23.007
491.56	23.080
491.91	22.809
492.26	23.107
492.60	22.475
492.95	22.598
493.30	21.829
493.64	23.127
493.99	22.588
494.34	21.995
494.68	22.612
495.03	22.555
495.37	21.926
495.72	21.678
496.07	21.604
496.41	22.008
496.76	22.310
497.11	21.614
497.45	21.666
497.80	21.679
498.14	21.134
498.49	21.553
498.84	21.389
499.18	21.233
499.53	21.211
499.87	21.714
500.22	20.347
500.56	21.368
500.91	21.236
501.26	21.864
501.60	20.725
501.95	21.363
502.29	20.886
502.64	21.863
502.98	20.708
503.33	20.950
503.67	20.802
504.02	19.965
504.36	21.403
504.71	20.303
505.06	20.464
505.40	19.378
505.75	20.219
506.09	20.488
506.44	21.123
506.78	20.596
507.13	20.055
507.47	20.606
507.82	20.549
508.16	19.551
508.51	18.987
508.85	19.745
509.19	19.801
509.54	20.029
509.88	19.330
510.23	19.087
510.57	19.816
510.92	19.594
511.26	19.577
511.61	19.266
511.95	20.205
512.30	19.842
512.64	18.741
512.98	19.560
513.33	19.254
513.67	18.919
514.02	19.469
514.36	19.642
514.70	19.219
515.05	19.708
515.39	19.528
515.74	19.247
516.08	18.700
516.42	18.838
516.77	18.980
517.11	18.257
517.46	19.088
517.80	19.241
518.14	19.369
518.49	19.035
518.83	18.414
519.17	17.232
519.52	18.606
519.86	18.004
520.20	18.051
520.55	19.168
520.89	18.187
521.23	18.370
521.58	17.853
521.92	18.017
522.26	18.041
522.61	18.056
522.95	17.243
523.29	18.218
523.64	18.330
523.98	18.483
524.32	19.140
524.66	18.782
525.01	18.063
525.35	18.208
525.69	17.633
526.04	16.648
526.38	17.644
526.72	17.532
527.06	18.299
527.41	18.076
527.75	17.162
528.09	17.887
528.43	17.762
528.78	17.630
529.12	16.972
529.46	17.369
529.80	16.362
530.15	17.217
530.49	17.260
530.83	17.119
531.17	16.368
531.51	16.968
531.86	17.308
532.20	17.439
532.54	16.637
532.88	16.727
533.22	17.266
533.57	16.561
533.91	16.835
534.25	17.015
534.59	16.724
534.93	16.469
535.27	16.225
535.62	17.453
535.96	15.979
536.30	16.275
536.64	17.177
536.98	16.298
537.32	16.914
537.66	17.155
538.01	15.770
538.35	15.530
538.69	16.526
539.03	15.819
539.37	16.196
539.71	15.495
540.05	16.547
540.39	15.098
540.73	15.118
541.07	16.186
541.42	16.007
541.76	15.065
542.10	15.078
542.44	15.408
542.78	15.876
543.12	15.495
543.46	15.751
543.80	14.748
544.14	15.081
544.48	15.957
544.82	15.978
545.16	15.325
545.50	15.758
545.84	14.574
546.18	15.864
546.52	15.350
546.86	15.786
547.20	15.394
547.54	15.044
547.88	14.225
548.22	14.620
548.56	15.506
548.90	14.149
549.24	15.441
549.58	14.069
549.92	14.541
550.26	15.340
550.60	15.571
550.94	15.201
551.28	13.993
551.62	14.555
551.96	15.081
552.30	15.424
552.64	14.437
552.98	14.598
553.32	15.048
553.66	14.855
554.00	15.069
554.34	14.929
554.68	14.655
555.02	14.586
555.36	14.661
555.69	13.901
556.03	14.439
556.37	14.143
556.71	14.711
557.05	15.016
557.39	13.869
557.73	13.738
558.07	14.305
558.41	14.751
558.75	13.590
559.08	13.709
559.42	14.540
559.76	14.586
560.10	13.932
560.44	13.786
560.78	14.750
561.12	13.978
561.45	14.294
561.79	14.408
562.13	15.034
562.47	13.810
562.81	13.987
563.15	13.068
563.48	13.487
563.82	14.148
564.16	13.446
564.50	13.230
564.84	12.979
565.17	13.882
565.51	13.234
565.85	13.599
566.19	13.479
566.52	13.458
566.86	14.205
567.20	12.398
567.54	13.011
567.88	13.863
568.21	13.538
568.55	13.429
568.89	13.209
569.23	13.477
569.56	13.286
569.90	12.794
570.24	12.648
570.57	12.700
570.91	12.186
571.25	12.439
571.59	12.636
571.92	12.473
572.26	12.599
572.60	12.203
572.93	12.497
573.27	12.082
573.61	12.202
573.95	12.576
574.28	12.450
574.62	12.119
574.96	11.756
575.29	11.853
575.63	12.335
575.97	12.240
576.30	12.040
576.64	11.883
576.98	11.959
577.31	11.980
577.65	12.031
577.98	11.785
578.32	11.859
578.66	11.798
578.99	11.612
579.33	12.139
579.67	11.786
580.00	11.800
580.34	11.911
580.67	11.430
581.01	11.640
581.35	11.689
581.68	11.908
582.02	11.906
582.35	11.789
582.69	11.529
583.02	11.699
583.36	11.440
583.70	11.452
584.03	11.087
584.37	11.503
584.70	11.565
585.04	11.486
585.37	11.776
585.71	11.413
586.04	11.096
586.38	11.351
586.72	11.331
587.05	11.358
587.39	11.568
587.72	11.603
588.06	11.605
588.39	11.426
588.73	11.349
589.06	11.795
589.40	11.893
589.73	11.697
590.07	11.671
590.40	11.697
590.73	11.276
591.07	11.690
591.40	11.664
591.74	11.169
592.07	11.652
592.41	11.199
592.74	11.821
593.08	11.592
593.41	11.957
593.75	11.178
594.08	11.633
594.41	11.474
594.75	10.927
595.08	10.834
595.42	10.974
595.75	10.946
596.09	11.217
596.42	11.394
596.75	11.154
597.09	11.677
597.42	10.807
597.75	10.898
598.09	11.190
598.42	11.339
598.76	10.967
599.09	10.894
599.42	10.795
599.76	11.291
600.09	11.612
600.42	11.311
600.76	10.964
601.09	10.919
601.42	10.814
601.76	10.897
602.09	11.294
602.42	10.723
602.76	10.554
603.09	11.050
603.42	11.416
603.76	10.465
604.09	11.427
604.42	11.303
604.76	11.225
605.09	10.730
605.42	11.005
605.75	10.846
606.09	10.825
606.42	10.653
606.75	10.832
607.09	10.138
607.42	10.867
607.75	10.512
608.08	10.655
608.42	10.883
608.75	10.862
609.08	10.441
609.41	11.381
609.75	10.312
610.08	10.994
610.41	10.535
610.74	10.042
611.07	10.924
611.41	11.390
611.74	10.808
612.07	10.659
612.40	10.646
612.73	11.296
613.07	10.367
613.40	11.550
613.73	11.363
614.06	10.451
614.39	10.350
614.72	10.626
615.06	10.443
615.39	10.005
615.72	10.711
616.05	10.442
616.38	10.949
616.71	10.554
617.05	9.957
617.38	10.915
617.71	10.907
618.04	10.523
618.37	10.765
618.70	9.785
619.03	10.514
619.36	10.666
619.69	10.955
620.03	10.546
620.36	10.368
620.69	10.796
621.02	10.564
621.35	10.668
621.68	11.424
622.01	11.032
622.34	10.879
622.67	10.790
623.00	9.649
623.33	11.944
623.66	10.765
623.99	10.336
624.32	11.176
624.65	10.360
624.99	11.118
625.32	10.908
625.65	10.924
625.98	10.102
626.31	10.773
626.64	10.769
626.97	10.653
627.30	10.023
627.63	11.628
627.96	11.336
628.29	10.039
628.62	9.824
628.95	10.517
629.28	10.195
629.61	11.785
629.94	9.707
630.26	9.661
630.59	9.931
630.92	10.130
631.25	11.986
631.58	11.582
631.91	10.497
632.24	10.951
632.57	11.670
632.90	10.030
633.23	10.612
633.56	9.694
633.89	10.227
634.22	13.410
634.55	10.125
634.88	10.606
635.20	11.841
635.53	10.508
635.86	12.459
636.19	12.195
636.52	10.232
636.85	11.747
637.18	10.707
637.51	10.538
637.83	12.957
638.16	10.714
