SpectraSuite Data File
++++++++++++++++++++++++++++++++++++
Date: Thu May 14 16:39:28 PDT 2015
User: schluterlab
Dark Spectrum Present: Yes
Reference Spectrum Present: Yes
Number of Sampled Component Spectra: 1
Spectrometers: USB2E3373
Integration Time (usec): 3000 (USB2E3373)
Spectra Averaged: 3 (USB2E3373)
Boxcar Smoothing: 0 (USB2E3373)
Correct for Electrical Dark: No (USB2E3373)
Strobe/Lamp Enabled: No (USB2E3373)
Correct for Detector Non-linearity: No (USB2E3373)
Correct for Stray Light: No (USB2E3373)
Number of Pixels in Processed Spectrum: 2048
>>>>>Begin Processed Spectral Data<<<<<
178.53	0.000
178.91	14.286
179.29	-600.000
179.67	-100.000
180.04	121.429
180.42	-30.000
180.80	160.000
181.18	-400.000
181.56	300.000
181.94	-0.000
182.31	-75.000
182.69	200.000
183.07	100.000
183.45	-75.000
183.83	-83.333
184.20	300.000
184.58	-200.000
184.96	-75.000
185.34	77.778
185.72	60.000
186.09	133.333
186.47	300.000
186.85	40.000
187.23	-166.667
187.61	-1100.000
187.98	200.000
188.36	-50.000
188.74	-200.000
189.12	-33.333
189.49	25.000
189.87	-75.000
190.25	-33.333
190.63	-40.000
191.00	-44.444
191.38	0.000
191.76	0.000
192.14	-66.667
192.51	700.000
192.89	33.333
193.27	0.000
193.65	-42.857
194.02	-1800.000
194.40	-157.143
194.78	200.000
195.15	0.000
195.53	0.000
195.91	0.000
196.29	25.000
196.66	46.154
197.04	100.000
197.42	-100.000
197.79	-750.000
198.17	-62.500
198.55	28.571
198.92	55.556
199.30	-25.000
199.68	9.091
200.05	0.000
200.43	-400.000
200.81	114.286
201.18	0.000
201.56	200.000
201.94	0.000
202.31	200.000
202.69	-77.778
203.07	-100.000
203.44	88.889
203.82	-225.000
204.19	8.333
204.57	-100.000
204.95	100.000
205.32	-300.000
205.70	175.000
206.08	-16.667
206.45	33.333
206.83	300.000
207.20	-200.000
207.58	-140.000
207.96	-183.333
208.33	83.333
208.71	125.000
209.08	0.000
209.46	0.000
209.84	16.667
210.21	400.000
210.59	550.000
210.96	333.333
211.34	50.000
211.71	-25.000
212.09	-900.000
212.46	0.000
212.84	800.000
213.22	-160.000
213.59	-75.000
213.97	-10.000
214.34	-100.000
214.72	150.000
215.09	75.000
215.47	0.000
215.84	85.714
216.22	150.000
216.59	40.000
216.97	-100.000
217.34	-150.000
217.72	-87.500
218.09	-350.000
218.47	-225.000
218.84	0.000
219.22	120.000
219.59	-35.294
219.97	15.000
220.34	500.000
220.72	-11.111
221.09	107.692
221.47	-66.667
221.84	-30.000
222.22	14.286
222.59	0.000
222.97	-37.500
223.34	-240.000
223.72	-700.000
224.09	-400.000
224.46	-225.000
224.84	240.000
225.21	-71.429
225.59	-125.000
225.96	-225.000
226.34	-7.692
226.71	50.000
227.08	-100.000
227.46	-26.667
227.83	-125.000
228.21	-36.842
228.58	112.500
228.95	300.000
229.33	83.333
229.70	50.000
230.08	52.632
230.45	50.000
230.82	-200.000
231.20	-7.143
231.57	-16.667
231.95	0.000
232.32	36.364
232.69	35.000
233.07	-225.000
233.44	-35.294
233.81	-140.000
234.19	16.667
234.56	0.000
234.93	-3.448
235.31	-47.368
235.68	-16.667
236.05	-20.000
236.43	-7.692
236.80	52.000
237.17	25.926
237.55	-12.121
237.92	-140.000
238.29	-9.677
238.67	-15.909
239.04	-16.667
239.41	-23.810
239.79	-15.217
240.16	-5.556
240.53	-17.391
240.91	-19.608
241.28	-1.639
241.65	8.955
242.02	4.054
242.40	-4.615
242.77	-10.667
243.14	-14.634
243.51	-18.421
243.89	-14.103
244.26	0.990
244.63	-3.922
245.00	-7.477
245.38	-3.509
245.75	-18.584
246.12	-1.587
246.49	0.000
246.87	2.857
247.24	0.000
247.61	1.974
247.98	-1.342
248.36	-0.617
248.73	-4.294
249.10	-9.290
249.47	4.478
249.84	7.330
250.22	-6.736
250.59	-5.556
250.96	-0.455
251.33	-8.163
251.70	1.709
252.08	3.333
252.45	2.049
252.82	-2.893
253.19	-3.516
253.56	3.422
253.94	-3.077
254.31	-0.379
254.68	2.797
255.05	1.629
255.42	-0.340
255.79	-2.913
256.16	-1.656
256.54	-0.993
256.91	-2.623
257.28	-1.967
257.65	-2.229
258.02	-3.245
258.39	-0.855
258.76	0.917
259.14	0.862
259.51	0.288
259.88	-0.850
260.25	-0.278
260.62	0.274
260.99	3.005
261.36	0.804
261.73	-1.857
262.10	-2.198
262.47	-2.145
262.85	2.778
263.22	-2.338
263.59	-1.842
263.96	3.069
264.33	-1.790
264.70	-0.247
265.07	1.193
265.44	2.268
265.81	-1.157
266.18	-0.680
266.55	-0.670
266.92	-2.506
267.29	1.969
267.66	0.665
268.03	1.310
268.40	1.044
268.77	-2.961
269.14	-0.220
269.51	-0.219
269.88	0.615
270.25	0.000
270.62	0.422
270.99	2.828
271.36	3.762
271.73	1.572
272.10	0.401
272.47	1.202
272.84	-0.803
273.21	-0.200
273.58	1.411
273.95	1.154
274.32	-2.471
274.69	-1.354
275.06	-0.733
275.43	0.000
275.80	0.882
276.17	-1.667
276.54	-1.119
276.91	-0.716
277.28	0.542
277.65	0.898
278.02	2.022
278.39	-1.268
278.76	-0.176
279.13	-0.709
279.50	1.203
279.87	2.147
280.23	-1.585
280.60	1.864
280.97	1.316
281.34	-1.528
281.71	1.861
282.08	-0.166
282.45	0.327
282.82	-0.785
283.19	-1.131
283.56	-1.311
283.92	2.252
284.29	2.528
284.66	0.328
285.03	-1.763
285.40	1.546
285.77	0.310
286.14	1.221
286.51	0.304
286.87	-0.474
287.24	0.602
287.61	-0.149
287.98	-0.906
288.35	0.148
288.72	0.740
289.08	1.025
289.45	-1.183
289.82	0.602
290.19	1.149
290.56	1.690
290.93	0.285
291.29	0.000
291.66	0.826
292.03	-0.136
292.40	0.680
292.77	1.078
293.13	0.812
293.50	0.394
293.87	0.805
294.24	1.600
294.60	2.655
294.97	0.403
295.34	1.665
295.71	0.504
296.08	-0.258
296.44	1.961
296.81	-0.853
297.18	0.996
297.55	0.590
297.91	-1.068
298.28	-1.066
298.65	1.189
299.02	-0.472
299.38	1.259
299.75	0.935
300.12	0.116
300.48	1.382
300.85	1.350
301.22	1.342
301.59	1.027
301.95	0.339
302.32	0.667
302.69	0.329
303.05	1.415
303.42	0.887
303.79	0.938
304.15	1.367
304.52	0.106
304.89	1.152
305.25	1.760
305.62	1.045
305.99	2.268
306.35	1.411
306.72	1.965
307.09	-0.508
307.45	1.967
307.82	1.110
308.19	1.312
308.55	1.832
308.92	2.142
309.29	2.395
309.65	2.242
310.02	1.584
310.38	2.362
310.75	2.427
311.12	3.356
311.48	2.053
311.85	3.229
312.22	2.751
312.58	2.723
312.95	2.390
313.31	3.162
313.68	4.579
314.05	5.239
314.41	4.463
314.78	3.633
315.14	4.900
315.51	4.801
315.87	4.770
316.24	4.475
316.61	5.240
316.97	4.525
317.34	4.850
317.70	5.852
318.07	6.085
318.43	7.143
318.80	7.943
319.16	5.751
319.53	6.427
319.89	6.310
320.26	7.918
320.62	7.358
320.99	8.864
321.35	7.671
321.72	10.326
322.08	7.755
322.45	10.659
322.81	9.928
323.18	9.735
323.54	10.603
323.91	10.587
324.27	10.843
324.64	11.587
325.00	12.023
325.37	12.285
325.73	13.884
326.10	13.382
326.46	14.658
326.83	15.853
327.19	15.118
327.56	15.020
327.92	15.972
328.29	16.129
328.65	15.578
329.01	17.174
329.38	17.439
329.74	19.178
330.11	17.295
330.47	18.366
330.84	18.260
331.20	20.083
331.56	19.064
331.93	18.577
332.29	19.746
332.66	19.269
333.02	19.430
333.38	20.050
333.75	20.286
334.11	20.601
334.48	21.122
334.84	20.986
335.20	20.487
335.57	22.260
335.93	20.744
336.29	19.967
336.66	20.269
337.02	19.983
337.38	21.514
337.75	20.661
338.11	21.278
338.47	21.175
338.84	21.404
339.20	19.714
339.56	19.522
339.93	21.593
340.29	20.692
340.65	21.330
341.02	20.910
341.38	21.665
341.74	21.227
342.11	21.319
342.47	20.969
342.83	21.256
343.20	22.077
343.56	21.091
343.92	18.735
344.28	20.938
344.65	21.628
345.01	21.373
345.37	21.928
345.73	21.122
346.10	21.919
346.46	21.203
346.82	21.049
347.19	21.238
347.55	21.775
347.91	21.025
348.27	20.486
348.63	21.325
349.00	21.327
349.36	20.818
349.72	20.015
350.08	21.991
350.45	20.913
350.81	21.493
351.17	21.880
351.53	21.683
351.89	21.716
352.26	21.716
352.62	21.045
352.98	21.603
353.34	20.090
353.70	22.265
354.07	21.535
354.43	20.349
354.79	21.765
355.15	20.824
355.51	22.003
355.87	21.242
356.24	21.445
356.60	20.695
356.96	21.497
357.32	21.710
357.68	20.717
358.04	19.985
358.40	21.866
358.77	21.857
359.13	20.384
359.49	21.041
359.85	21.465
360.21	21.377
360.57	21.823
360.93	22.144
361.29	21.333
361.66	21.579
362.02	22.129
362.38	21.996
362.74	22.137
363.10	21.871
363.46	20.983
363.82	20.952
364.18	19.845
364.54	22.822
364.90	23.278
365.26	21.103
365.62	21.800
365.98	21.443
366.35	20.671
366.71	22.041
367.07	21.786
367.43	21.799
367.79	21.367
368.15	22.876
368.51	22.260
368.87	22.273
369.23	20.667
369.59	21.653
369.95	21.095
370.31	21.877
370.67	22.077
371.03	22.161
371.39	21.021
371.75	21.596
372.11	21.680
372.47	20.988
372.83	22.120
373.19	22.148
373.55	22.154
373.91	21.472
374.27	22.898
374.63	22.327
374.99	21.684
375.35	22.662
375.71	22.000
376.07	21.950
376.42	22.418
376.78	23.120
377.14	21.896
377.50	22.075
377.86	21.860
378.22	21.796
378.58	22.533
378.94	22.946
379.30	22.261
379.66	21.576
380.02	22.274
380.38	22.062
380.74	21.352
381.09	22.532
381.45	21.989
381.81	22.658
382.17	22.506
382.53	22.339
382.89	21.953
383.25	22.978
383.61	21.238
383.97	22.320
384.32	21.591
384.68	21.172
385.04	22.094
385.40	22.510
385.76	22.333
386.12	21.963
386.48	22.294
386.83	21.931
387.19	22.596
387.55	21.890
387.91	22.146
388.27	21.709
388.62	22.108
388.98	21.658
389.34	21.685
389.70	22.429
390.06	21.314
390.42	21.627
390.77	22.216
391.13	21.479
391.49	23.430
391.85	20.485
392.20	21.708
392.56	21.914
392.92	21.974
393.28	22.720
393.64	21.173
393.99	21.964
394.35	21.379
394.71	22.216
395.07	21.317
395.42	20.788
395.78	22.182
396.14	21.272
396.50	21.615
396.85	21.467
397.21	21.006
397.57	21.790
397.92	20.733
398.28	21.401
398.64	21.167
399.00	20.419
399.35	20.995
399.71	20.652
400.07	21.280
400.42	21.420
400.78	21.123
401.14	21.514
401.49	21.774
401.85	21.686
402.21	21.669
402.57	21.479
402.92	21.099
403.28	20.550
403.63	20.764
403.99	20.962
404.35	21.148
404.70	20.907
405.06	20.163
405.42	21.311
405.77	20.774
406.13	20.367
406.49	20.439
406.84	20.831
407.20	20.235
407.55	20.715
407.91	20.302
408.27	19.847
408.62	21.001
408.98	19.733
409.34	19.941
409.69	20.643
410.05	20.574
410.40	20.882
410.76	20.527
411.11	21.157
411.47	20.823
411.83	21.105
412.18	19.880
412.54	20.451
412.89	20.955
413.25	20.542
413.60	20.333
413.96	20.862
414.31	19.603
414.67	20.692
415.03	20.062
415.38	20.618
415.74	20.159
416.09	21.221
416.45	20.726
416.80	19.890
417.16	19.668
417.51	20.486
417.87	19.926
418.22	20.240
418.58	19.703
418.93	21.129
419.29	19.544
419.64	20.288
420.00	19.644
420.35	20.157
420.71	19.701
421.06	19.954
421.42	20.413
421.77	19.817
422.12	19.873
422.48	19.969
422.83	19.934
423.19	19.735
423.54	20.354
423.90	20.375
424.25	20.427
424.61	20.264
424.96	19.714
425.31	20.807
425.67	20.397
426.02	20.642
426.38	20.551
426.73	20.536
427.09	21.223
427.44	20.098
427.79	19.348
428.15	20.205
428.50	20.056
428.85	20.321
429.21	20.106
429.56	19.299
429.92	19.656
430.27	20.627
430.62	19.980
430.98	19.921
431.33	19.746
431.68	20.690
432.04	19.909
432.39	20.407
432.74	20.548
433.10	20.876
433.45	20.903
433.80	20.655
434.16	20.455
434.51	19.938
434.86	20.793
435.22	20.882
435.57	21.108
435.92	20.089
436.28	20.307
436.63	21.081
436.98	20.344
437.34	20.237
437.69	19.923
438.04	20.148
438.39	21.539
438.75	20.144
439.10	21.195
439.45	20.738
439.81	20.339
440.16	19.839
440.51	20.624
440.86	20.956
441.22	20.740
441.57	20.597
441.92	20.902
442.27	20.000
442.63	20.616
442.98	20.918
443.33	20.305
443.68	20.466
444.03	21.072
444.39	20.804
444.74	20.572
445.09	20.831
445.44	20.495
445.79	20.738
446.15	21.274
446.50	21.344
446.85	20.282
447.20	21.277
447.55	20.711
447.91	20.838
448.26	20.930
448.61	20.563
448.96	21.620
449.31	20.891
449.66	20.861
450.02	20.886
450.37	21.470
450.72	20.936
451.07	21.014
451.42	20.624
451.77	20.789
452.12	20.880
452.47	21.034
452.83	21.002
453.18	20.607
453.53	19.644
453.88	20.486
454.23	21.412
454.58	21.126
454.93	20.206
455.28	20.409
455.63	20.978
455.98	20.726
456.34	21.260
456.69	21.282
457.04	20.686
457.39	21.064
457.74	20.749
458.09	20.483
458.44	20.744
458.79	19.907
459.14	20.031
459.49	20.939
459.84	20.619
460.19	20.267
460.54	21.238
460.89	20.116
461.24	19.828
461.59	20.974
461.94	19.566
462.29	20.773
462.64	20.821
462.99	21.030
463.34	21.155
463.69	19.402
464.04	21.012
464.39	20.235
464.74	20.011
465.09	20.069
465.44	20.064
465.79	20.465
466.14	19.177
466.49	19.947
466.84	19.614
467.19	20.405
467.54	20.212
467.89	20.230
468.24	19.668
468.59	19.745
468.94	19.464
469.29	19.676
469.64	20.025
469.99	20.331
470.34	19.988
470.68	20.643
471.03	20.105
471.38	20.078
471.73	19.961
472.08	19.289
472.43	18.964
472.78	19.395
473.13	19.595
473.48	19.698
473.83	19.791
474.17	19.988
474.52	19.723
474.87	19.712
475.22	19.606
475.57	19.574
475.92	20.259
476.27	19.595
476.61	19.574
476.96	19.864
477.31	19.703
477.66	20.409
478.01	19.929
478.36	19.442
478.70	20.049
479.05	19.632
479.40	19.497
479.75	19.164
480.10	19.280
480.45	19.006
480.79	19.955
481.14	19.577
481.49	18.991
481.84	19.191
482.19	18.796
482.53	19.895
482.88	19.849
483.23	19.342
483.58	17.904
483.92	18.839
484.27	19.856
484.62	18.482
484.97	18.390
485.31	18.620
485.66	17.904
486.01	17.175
486.36	17.297
486.70	18.096
487.05	18.483
487.40	18.946
487.75	18.702
488.09	19.273
488.44	19.051
488.79	18.853
489.13	19.008
489.48	18.602
489.83	18.109
490.17	18.429
490.52	19.048
490.87	18.993
491.22	18.847
491.56	19.070
491.91	18.622
492.26	18.087
492.60	18.496
492.95	18.692
493.30	18.557
493.64	18.222
493.99	18.947
494.34	18.206
494.68	18.672
495.03	18.634
495.37	19.041
495.72	18.005
496.07	18.624
496.41	17.804
496.76	18.515
497.11	18.344
497.45	18.084
497.80	18.347
498.14	17.370
498.49	18.382
498.84	18.327
499.18	18.444
499.53	18.296
499.87	17.846
500.22	18.210
500.56	18.039
500.91	18.215
501.26	18.364
501.60	17.278
501.95	17.629
502.29	17.595
502.64	17.796
502.98	17.731
503.33	17.019
503.67	17.270
504.02	17.426
504.36	18.320
504.71	17.731
505.06	18.236
505.40	17.550
505.75	17.851
506.09	17.634
506.44	18.338
506.78	18.349
507.13	17.473
507.47	17.385
507.82	18.134
508.16	17.352
508.51	17.346
508.85	17.147
509.19	17.859
509.54	17.819
509.88	17.290
510.23	17.776
510.57	17.786
510.92	17.997
511.26	17.316
511.61	17.093
511.95	17.521
512.30	17.085
512.64	17.241
512.98	17.659
513.33	17.641
513.67	17.491
514.02	17.578
514.36	17.136
514.70	16.927
515.05	18.665
515.39	17.165
515.74	17.550
516.08	17.169
516.42	17.425
516.77	17.087
517.11	17.071
517.46	17.444
517.80	17.745
518.14	17.519
518.49	17.733
518.83	17.243
519.17	16.909
519.52	16.824
519.86	17.635
520.20	17.412
520.55	17.306
520.89	17.624
521.23	18.202
521.58	16.780
521.92	17.620
522.26	17.068
522.61	17.187
522.95	16.667
523.29	17.299
523.64	16.928
523.98	17.114
524.32	17.880
524.66	17.188
525.01	16.988
525.35	16.427
525.69	17.227
526.04	16.877
526.38	16.322
526.72	17.186
527.06	16.246
527.41	16.385
527.75	17.221
528.09	16.175
528.43	16.341
528.78	16.994
529.12	16.456
529.46	15.739
529.80	16.247
530.15	16.348
530.49	15.421
530.83	16.116
531.17	16.487
531.51	16.065
531.86	16.526
532.20	16.341
532.54	16.278
532.88	15.636
533.22	16.735
533.57	16.215
533.91	15.544
534.25	15.263
534.59	15.747
534.93	14.488
535.27	15.268
535.62	15.634
535.96	15.921
536.30	15.570
536.64	16.757
536.98	15.929
537.32	15.741
537.66	15.783
538.01	15.710
538.35	16.261
538.69	15.325
539.03	15.512
539.37	16.137
539.71	15.375
540.05	16.307
540.39	15.709
540.73	15.604
541.07	15.696
541.42	15.121
541.76	15.006
542.10	15.078
542.44	15.469
542.78	15.998
543.12	14.958
543.46	14.713
543.80	15.588
544.14	15.440
544.48	15.662
544.82	15.560
545.16	15.683
545.50	15.698
545.84	14.697
546.18	15.494
546.52	14.395
546.86	14.717
547.20	15.267
547.54	14.981
547.88	15.009
548.22	14.795
548.56	14.628
548.90	14.507
549.24	14.650
549.58	14.322
549.92	14.541
550.26	15.081
550.60	15.061
550.94	13.972
551.28	14.323
551.62	15.836
551.96	14.822
552.30	14.786
552.64	14.935
552.98	14.286
553.32	15.305
553.66	14.920
554.00	15.259
554.34	15.380
554.68	14.526
555.02	14.980
555.36	15.450
555.69	14.862
556.03	13.808
556.37	14.143
556.71	14.711
557.05	14.760
557.39	14.466
557.73	14.201
558.07	13.576
558.41	14.352
558.75	13.658
559.08	14.683
559.42	13.992
559.76	14.722
560.10	14.401
560.44	14.908
560.78	14.125
561.12	13.424
561.45	14.234
561.79	13.858
562.13	14.479
562.47	13.502
562.81	14.177
563.15	14.331
563.48	14.481
563.82	14.148
564.16	13.931
564.50	13.409
564.84	12.920
565.17	13.588
565.51	13.579
565.85	12.470
566.19	12.730
566.52	12.873
566.86	13.582
567.20	13.322
567.54	12.427
567.88	12.844
568.21	13.340
568.55	12.806
568.89	13.436
569.23	13.181
569.56	12.505
569.90	12.224
570.24	12.277
570.57	12.380
570.91	12.002
571.25	11.802
571.59	12.190
571.92	11.807
572.26	11.832
572.60	12.121
572.93	12.163
573.27	12.251
573.61	12.414
573.95	11.775
574.28	11.726
574.62	11.619
574.96	11.601
575.29	11.787
575.63	11.435
575.97	11.713
576.30	11.892
576.64	11.477
576.98	12.050
577.31	11.410
577.65	11.473
577.98	11.333
578.32	11.362
578.66	11.421
578.99	11.694
579.33	11.627
579.67	11.265
580.00	11.531
580.34	11.300
580.67	11.496
581.01	11.640
581.35	11.046
581.68	11.358
582.02	11.238
582.35	11.460
582.69	11.067
583.02	11.605
583.36	11.522
583.70	11.066
584.03	11.399
584.37	11.528
584.70	11.491
585.04	11.183
585.37	11.158
585.71	11.370
586.04	11.251
586.38	11.096
586.72	10.930
587.05	11.051
587.39	11.444
587.72	11.507
588.06	11.460
588.39	11.277
588.73	11.746
589.06	11.625
589.40	11.401
589.73	11.665
590.07	11.704
590.40	11.663
590.73	11.630
591.07	12.100
591.40	11.664
591.74	11.725
592.07	12.140
592.41	10.923
592.74	11.395
593.08	11.433
593.41	11.315
593.75	10.948
594.08	11.360
594.41	11.442
594.75	11.026
595.08	11.306
595.42	11.104
595.75	11.334
596.09	11.386
596.42	11.000
596.75	11.849
597.09	11.475
597.42	11.561
597.75	10.976
598.09	11.429
598.42	11.460
598.76	10.661
599.09	10.644
599.42	11.163
599.76	10.961
600.09	11.378
600.42	11.211
600.76	10.931
601.09	10.986
601.42	10.608
601.76	10.621
602.09	10.579
602.42	11.014
602.76	11.033
603.09	10.977
603.42	10.368
603.76	10.395
604.09	11.568
604.42	10.495
604.76	10.883
605.09	11.368
605.42	10.845
605.75	10.962
606.09	10.377
606.42	10.361
606.75	10.457
607.09	10.484
607.42	11.098
607.75	10.434
608.08	10.892
608.42	10.883
608.75	11.153
609.08	10.951
609.41	10.631
609.75	11.071
610.08	11.214
610.41	10.578
610.74	10.420
611.07	10.613
611.41	11.076
611.74	11.039
612.07	10.706
612.40	10.504
612.73	10.318
613.07	11.100
613.40	11.068
613.73	10.159
614.06	10.795
614.39	10.398
614.72	11.160
615.06	11.165
615.39	10.246
615.72	10.758
616.05	10.345
616.38	11.504
616.71	10.867
617.05	10.437
617.38	11.182
617.71	11.177
618.04	11.225
618.37	10.656
618.70	11.143
619.03	10.036
619.36	11.159
619.69	11.403
620.03	10.797
620.36	10.245
620.69	10.179
621.02	11.811
621.35	10.668
621.68	11.497
622.01	11.744
622.34	9.763
622.67	10.378
623.00	9.379
623.33	11.347
623.66	10.765
623.99	10.731
624.32	12.216
624.65	9.717
624.99	10.598
625.32	10.451
625.65	10.924
625.98	9.763
626.31	10.843
626.64	11.136
626.97	10.728
627.30	9.871
627.63	10.128
627.96	11.486
628.29	11.206
628.62	9.992
628.95	10.429
629.28	10.110
629.61	11.364
629.94	9.958
630.26	10.169
630.59	10.104
630.92	10.130
631.25	11.538
631.58	11.959
631.91	9.653
632.24	11.431
632.57	10.247
632.90	11.033
633.23	11.939
633.56	10.714
633.89	10.950
634.22	12.162
634.55	12.109
634.88	10.606
635.20	11.841
635.53	11.412
635.86	10.401
636.19	11.877
636.52	11.392
636.85	11.032
