SpectraSuite Data File
++++++++++++++++++++++++++++++++++++
Date: Thu May 14 16:39:22 PDT 2015
User: schluterlab
Dark Spectrum Present: Yes
Reference Spectrum Present: Yes
Number of Sampled Component Spectra: 1
Spectrometers: USB2E3373
Integration Time (usec): 3000 (USB2E3373)
Spectra Averaged: 3 (USB2E3373)
Boxcar Smoothing: 0 (USB2E3373)
Correct for Electrical Dark: No (USB2E3373)
Strobe/Lamp Enabled: No (USB2E3373)
Correct for Detector Non-linearity: No (USB2E3373)
Correct for Stray Light: No (USB2E3373)
Number of Pixels in Processed Spectrum: 2048
>>>>>Begin Processed Spectral Data<<<<<
178.53	0.000
178.91	57.143
179.29	-600.000
179.67	-700.000
180.04	214.286
180.42	-0.000
180.80	-0.000
181.18	-900.000
181.56	500.000
181.94	-0.000
182.31	275.000
182.69	166.667
183.07	250.000
183.45	300.000
183.83	-33.333
184.20	166.667
184.58	200.000
184.96	-100.000
185.34	-77.778
185.72	0.000
186.09	100.000
186.47	-100.000
186.85	200.000
187.23	-88.889
187.61	-400.000
187.98	140.000
188.36	375.000
188.74	-250.000
189.12	166.667
189.49	6.250
189.87	-37.500
190.25	33.333
190.63	-100.000
191.00	-111.111
191.38	0.000
191.76	-25.000
192.14	-83.333
192.51	600.000
192.89	83.333
193.27	0.000
193.65	71.429
194.02	-1900.000
194.40	-57.143
194.78	128.571
195.15	0.000
195.53	0.000
195.91	0.000
196.29	200.000
196.66	69.231
197.04	-1400.000
197.42	-71.429
197.79	150.000
198.17	-50.000
198.55	-57.143
198.92	-77.778
199.30	-37.500
199.68	-36.364
200.05	35.714
200.43	-550.000
200.81	-28.571
201.18	0.000
201.56	177.778
201.94	0.000
202.31	366.667
202.69	55.556
203.07	-800.000
203.44	22.222
203.82	-175.000
204.19	16.667
204.57	-166.667
204.95	12.500
205.32	-500.000
205.70	-150.000
206.08	-33.333
206.45	-33.333
206.83	280.000
207.20	-100.000
207.58	-80.000
207.96	-150.000
208.33	216.667
208.71	-33.333
209.08	66.667
209.46	0.000
209.84	166.667
210.21	-300.000
210.59	-150.000
210.96	266.667
211.34	125.000
211.71	-25.000
212.09	-500.000
212.46	0.000
212.84	750.000
213.22	-20.000
213.59	-150.000
213.97	90.000
214.34	33.333
214.72	83.333
215.09	-100.000
215.47	0.000
215.84	71.429
216.22	850.000
216.59	80.000
216.97	-20.000
217.34	-225.000
217.72	25.000
218.09	50.000
218.47	50.000
218.84	0.000
219.22	80.000
219.59	64.706
219.97	70.000
220.34	750.000
220.72	55.556
221.09	38.462
221.47	-33.333
221.84	50.000
222.22	-28.571
222.59	0.000
222.97	37.500
223.34	-180.000
223.72	-500.000
224.09	-75.000
224.46	-275.000
224.84	-140.000
225.21	-42.857
225.59	-175.000
225.96	-75.000
226.34	7.692
226.71	50.000
227.08	-200.000
227.46	-26.667
227.83	-150.000
228.21	0.000
228.58	50.000
228.95	550.000
229.33	8.333
229.70	-10.000
230.08	36.842
230.45	70.000
230.82	100.000
231.20	0.000
231.57	91.667
231.95	118.182
232.32	100.000
232.69	40.000
233.07	-25.000
233.44	-17.647
233.81	-40.000
234.19	50.000
234.56	50.000
234.93	55.172
235.31	26.316
235.68	55.556
236.05	-60.000
236.43	34.615
236.80	36.000
237.17	81.481
237.55	33.333
237.92	90.000
238.29	12.903
238.67	22.727
239.04	19.444
239.41	-4.762
239.79	23.913
240.16	22.222
240.53	23.913
240.91	19.608
241.28	26.230
241.65	44.776
242.02	22.973
242.40	13.846
242.77	21.333
243.14	32.927
243.51	19.737
243.89	30.769
244.26	34.653
244.63	23.529
245.00	38.318
245.38	34.211
245.75	23.894
246.12	33.333
246.49	31.008
246.87	26.429
247.24	33.113
247.61	30.921
247.98	34.228
248.36	28.395
248.73	24.540
249.10	29.508
249.47	33.831
249.84	36.126
250.22	28.497
250.59	38.889
250.96	35.455
251.33	31.633
251.70	26.496
252.08	33.333
252.45	31.557
252.82	32.231
253.19	32.422
253.56	30.798
253.94	25.769
254.31	35.985
254.68	31.119
255.05	33.876
255.42	29.592
255.79	28.803
256.16	33.775
256.54	28.477
256.91	32.459
257.28	30.492
257.65	28.344
258.02	29.499
258.39	31.054
258.76	33.639
259.14	32.184
259.51	32.565
259.88	27.195
260.25	31.944
260.62	32.055
260.99	33.880
261.36	32.440
261.73	29.708
262.10	31.319
262.47	34.316
262.85	30.051
263.22	31.429
263.59	26.316
263.96	31.969
264.33	33.504
264.70	30.864
265.07	34.845
265.44	32.426
265.81	30.787
266.18	31.293
266.55	32.812
266.92	30.068
267.29	28.884
267.66	33.925
268.03	33.624
268.40	29.436
268.77	30.068
269.14	28.194
269.51	31.360
269.88	30.738
270.25	31.187
270.62	32.489
270.99	32.121
271.36	29.109
271.73	29.273
272.10	32.465
272.47	32.265
272.84	29.719
273.21	29.860
273.58	33.065
273.95	25.385
274.32	28.327
274.69	28.433
275.06	31.502
275.43	29.575
275.80	32.275
276.17	26.111
276.54	32.276
276.91	30.054
277.28	28.752
277.65	29.084
278.02	29.596
278.39	30.254
278.76	30.228
279.13	27.128
279.50	29.725
279.87	30.054
280.23	27.289
280.60	29.831
280.97	28.783
281.34	29.711
281.71	28.257
282.08	27.575
282.45	27.496
282.82	27.316
283.19	28.918
283.56	29.508
283.92	27.928
284.29	29.542
284.66	27.258
285.03	25.000
285.40	31.066
285.77	28.328
286.14	29.008
286.51	29.224
286.87	27.804
287.24	29.217
287.61	27.952
287.98	26.888
288.35	27.219
288.72	28.402
289.08	28.697
289.45	25.444
289.82	27.410
290.19	26.437
290.56	26.620
290.93	26.676
291.29	28.650
291.66	25.895
292.03	24.559
292.40	26.939
292.77	26.280
293.13	25.304
293.50	25.230
293.87	24.430
294.24	26.667
294.60	25.917
294.97	24.161
295.34	23.944
295.71	23.077
296.08	24.031
296.44	25.613
296.81	23.630
297.18	24.035
297.55	23.821
297.91	24.318
298.28	22.393
298.65	23.662
299.02	23.613
299.38	23.913
299.75	23.832
300.12	23.843
300.48	22.811
300.85	23.285
301.22	25.056
301.59	23.174
301.95	22.486
302.32	24.333
302.69	23.549
303.05	24.810
303.42	21.840
303.79	23.438
304.15	23.028
304.52	22.304
304.89	22.827
305.25	22.464
305.62	22.571
305.99	23.814
306.35	22.984
306.72	23.888
307.09	22.234
307.45	22.464
307.82	23.613
308.19	23.007
308.55	23.915
308.92	23.564
309.29	23.372
309.65	23.879
310.02	23.465
310.38	23.819
310.75	23.010
311.12	25.791
311.48	24.438
311.85	24.406
312.22	24.099
312.58	24.789
312.95	24.379
313.31	24.661
313.68	24.908
314.05	25.655
314.41	25.956
314.78	23.978
315.14	26.316
315.51	27.239
315.87	28.803
316.24	26.667
316.61	28.064
316.97	25.701
317.34	27.072
317.70	28.384
318.07	27.690
318.43	28.061
318.80	29.348
319.16	28.498
319.53	27.335
319.89	26.906
320.26	29.626
320.62	29.078
320.99	29.732
321.35	31.238
321.72	32.186
322.08	30.658
322.45	30.894
322.81	32.401
323.18	31.681
323.54	34.224
323.91	34.431
324.27	33.133
324.64	34.425
325.00	35.406
325.37	35.545
325.73	36.281
326.10	36.821
326.46	38.111
326.83	39.792
327.19	38.898
327.56	38.893
327.92	40.126
328.29	39.677
328.65	40.034
329.01	39.509
329.38	40.775
329.74	40.839
330.11	41.438
330.47	41.112
330.84	41.774
331.20	42.167
331.56	44.367
331.93	42.343
332.29	44.068
332.66	42.110
333.02	43.049
333.38	44.044
333.75	43.603
334.11	43.953
334.48	44.059
334.84	44.690
335.20	44.752
335.57	45.278
335.93	45.868
336.29	42.762
336.66	44.828
337.02	44.732
337.38	44.558
337.75	44.215
338.11	45.164
338.47	45.244
338.84	45.262
339.20	44.566
339.56	44.646
339.93	44.663
340.29	43.961
340.65	43.796
341.02	43.176
341.38	45.837
341.74	44.229
342.11	45.776
342.47	44.718
342.83	47.424
343.20	46.852
343.56	45.309
343.92	45.236
344.28	45.859
344.65	46.822
345.01	46.256
345.37	44.712
345.73	44.349
346.10	46.568
346.46	45.095
346.82	45.993
347.19	46.524
347.55	46.282
347.91	45.691
348.27	46.434
348.63	46.839
349.00	45.712
349.36	46.766
349.72	45.982
350.08	47.548
350.45	46.540
350.81	47.738
351.17	46.917
351.53	47.991
351.89	47.077
352.26	47.463
352.62	47.836
352.98	47.557
353.34	46.527
353.70	48.690
354.07	47.914
354.43	47.608
354.79	48.616
355.15	47.241
355.51	46.711
355.87	47.270
356.24	49.125
356.60	46.268
356.96	47.813
357.32	47.435
357.68	47.657
358.04	48.728
358.40	47.910
358.77	47.295
359.13	48.006
359.49	48.848
359.85	48.223
360.21	47.991
360.57	48.744
360.93	48.942
361.29	48.772
361.66	48.154
362.02	49.130
362.38	49.262
362.74	48.534
363.10	47.937
363.46	49.515
363.82	50.142
364.18	50.669
364.54	50.346
364.90	50.301
365.26	49.931
365.62	50.467
365.98	49.830
366.35	50.403
366.71	50.408
367.07	50.812
367.43	50.230
367.79	51.029
368.15	51.906
368.51	51.421
368.87	50.490
369.23	51.800
369.59	52.527
369.95	50.845
370.31	52.735
370.67	51.582
371.03	52.216
371.39	49.631
371.75	50.481
372.11	51.287
372.47	51.523
372.83	51.113
373.19	51.501
373.55	51.626
373.91	52.829
374.27	51.294
374.63	52.774
374.99	52.122
375.35	53.506
375.71	51.806
376.07	52.163
376.42	51.637
376.78	54.133
377.14	52.589
377.50	53.637
377.86	52.586
378.22	52.395
378.58	53.983
378.94	52.406
379.30	52.841
379.66	54.380
380.02	53.491
380.38	54.493
380.74	53.352
381.09	53.949
381.45	52.898
381.81	56.323
382.17	54.216
382.53	54.386
382.89	53.330
383.25	54.982
383.61	54.398
383.97	54.829
384.32	54.785
384.68	53.480
385.04	55.234
385.40	54.744
385.76	55.100
386.12	54.219
386.48	55.176
386.83	56.436
387.19	53.940
387.55	54.930
387.91	53.995
388.27	55.312
388.62	55.384
388.98	54.653
389.34	55.687
389.70	56.188
390.06	56.069
390.42	55.602
390.77	55.750
391.13	55.869
391.49	54.469
391.85	56.000
392.20	56.168
392.56	55.582
392.92	55.071
393.28	55.556
393.64	54.972
393.99	56.421
394.35	56.600
394.71	55.689
395.07	56.168
395.42	55.740
395.78	58.318
396.14	56.031
396.50	55.107
396.85	56.231
397.21	55.976
397.57	55.889
397.92	56.758
398.28	55.459
398.64	56.121
399.00	54.031
399.35	56.073
399.71	56.141
400.07	56.990
400.42	55.239
400.78	56.250
401.14	55.322
401.49	56.623
401.85	56.395
402.21	57.648
402.57	56.925
402.92	57.210
403.28	55.211
403.63	55.967
403.99	54.869
404.35	55.486
404.70	54.674
405.06	54.293
405.42	54.918
405.77	56.434
406.13	56.726
406.49	55.687
406.84	55.568
407.20	55.674
407.55	55.179
407.91	55.500
408.27	55.241
408.62	56.661
408.98	55.543
409.34	55.836
409.69	56.428
410.05	55.920
410.40	55.800
410.76	54.964
411.11	56.108
411.47	56.634
411.83	56.202
412.18	55.904
412.54	55.720
412.89	55.879
413.25	54.458
413.60	55.773
413.96	56.177
414.31	55.694
414.67	55.933
415.03	55.138
415.38	57.629
415.74	56.445
416.09	56.570
416.45	54.415
416.80	55.018
417.16	56.833
417.51	55.978
417.87	56.836
418.22	56.108
418.58	55.081
418.93	57.043
419.29	56.658
419.64	57.083
420.00	56.677
420.35	56.597
420.71	55.600
421.06	55.952
421.42	57.225
421.77	56.381
422.12	55.233
422.48	56.682
422.83	57.503
423.19	57.135
423.54	58.296
423.90	57.482
424.25	57.707
424.61	57.577
424.96	56.398
425.31	56.688
425.67	57.005
426.02	58.218
426.38	57.405
426.73	56.529
427.09	57.497
427.44	56.636
427.79	57.324
428.15	57.135
428.50	57.135
428.85	57.405
429.21	58.245
429.56	58.391
429.92	57.592
430.27	56.627
430.62	57.645
430.98	58.042
431.33	57.038
431.68	57.519
432.04	59.421
432.39	58.650
432.74	58.276
433.10	58.897
433.45	56.745
433.80	57.833
434.16	58.161
434.51	58.376
434.86	60.043
435.22	58.980
435.57	59.847
435.92	58.542
436.28	59.613
436.63	60.295
436.98	56.790
437.34	60.090
437.69	58.943
438.04	58.488
438.39	58.530
438.75	58.716
439.10	60.307
439.45	60.257
439.81	59.831
440.16	59.196
440.51	60.479
440.86	57.699
441.22	59.110
441.57	60.115
441.92	59.117
442.27	59.596
442.63	58.470
442.98	60.726
443.33	59.705
443.68	60.902
444.03	61.148
444.39	60.333
444.74	60.643
445.09	59.453
445.44	60.590
445.79	61.255
446.15	60.586
446.50	60.413
446.85	60.944
447.20	60.010
447.55	61.768
447.91	60.628
448.26	60.359
448.61	60.680
448.96	62.232
449.31	60.604
449.66	60.784
450.02	61.392
450.37	60.895
450.72	60.388
451.07	61.617
451.42	60.774
451.77	61.812
452.12	61.625
452.47	62.270
452.83	62.106
453.18	62.580
453.53	60.195
453.88	60.574
454.23	60.734
454.58	61.637
454.93	62.075
455.28	62.553
455.63	61.342
455.98	62.514
456.34	61.661
456.69	60.788
457.04	62.293
457.39	61.585
457.74	62.752
458.09	61.395
458.44	61.422
458.79	60.701
459.14	60.986
459.49	61.404
459.84	62.277
460.19	60.577
460.54	61.613
460.89	62.043
461.24	60.690
461.59	61.649
461.94	60.068
462.29	61.814
462.64	61.738
462.99	62.398
463.34	61.973
463.69	60.434
464.04	61.145
464.39	61.491
464.74	60.319
465.09	61.822
465.44	59.657
465.79	60.709
466.14	60.917
466.49	60.579
466.84	62.149
467.19	61.156
467.54	60.223
467.89	60.057
468.24	61.163
468.59	60.336
468.94	60.956
469.29	60.948
469.64	60.966
469.99	61.249
470.34	60.953
470.68	63.158
471.03	62.410
471.38	61.871
471.73	60.988
472.08	61.612
472.43	61.469
472.78	61.587
473.13	61.252
473.48	61.148
473.83	62.739
474.17	60.668
474.52	62.297
474.87	60.631
475.22	61.296
475.57	59.813
475.92	59.980
476.27	61.342
476.61	60.903
476.96	61.522
477.31	61.634
477.66	61.910
478.01	60.447
478.36	60.319
478.70	61.281
479.05	62.883
479.40	61.550
479.75	61.335
480.10	60.540
480.45	60.483
480.79	60.680
481.14	61.075
481.49	61.608
481.84	61.140
482.19	61.247
482.53	61.259
482.88	61.099
483.23	61.138
483.58	60.611
483.92	59.353
484.27	60.754
484.62	59.282
484.97	60.109
485.31	59.486
485.66	57.116
486.01	55.697
486.36	57.187
486.70	58.446
487.05	60.836
487.40	60.645
487.75	60.789
488.09	62.778
488.44	61.591
488.79	62.361
489.13	61.658
489.48	61.049
489.83	60.362
490.17	59.376
490.52	59.072
490.87	60.152
491.22	60.745
491.56	60.623
491.91	60.009
492.26	60.234
492.60	59.773
492.95	59.719
493.30	59.928
493.64	60.710
493.99	60.219
494.34	60.279
494.68	59.743
495.03	60.176
495.37	60.630
495.72	60.952
496.07	59.991
496.41	59.803
496.76	59.716
497.11	59.490
497.45	60.380
497.80	59.751
498.14	59.184
498.49	59.651
498.84	60.283
499.18	60.504
499.53	61.211
499.87	60.308
500.22	58.727
500.56	59.604
500.91	61.236
501.26	60.818
501.60	59.037
501.95	59.357
502.29	60.246
502.64	60.516
502.98	59.664
503.33	60.000
503.67	59.093
504.02	59.676
504.36	60.992
504.71	60.680
505.06	60.164
505.40	60.649
505.75	60.792
506.09	60.313
506.44	61.049
506.78	60.872
507.13	60.811
507.47	61.677
507.82	60.985
508.16	60.755
508.51	58.603
508.85	60.983
509.19	60.208
509.54	61.912
509.88	62.409
510.23	61.632
510.57	62.591
510.92	62.361
511.26	60.895
511.61	60.309
511.95	61.298
512.30	62.186
512.64	60.170
512.98	61.181
513.33	61.391
513.67	61.244
514.02	63.005
514.36	63.223
514.70	62.396
515.05	63.139
515.39	62.625
515.74	63.680
516.08	61.648
516.42	62.533
516.77	62.355
517.11	62.610
517.46	63.309
517.80	63.870
518.14	63.439
518.49	63.557
518.83	62.799
519.17	62.197
519.52	62.212
519.86	63.675
520.20	63.472
520.55	63.308
520.89	64.752
521.23	64.042
521.58	64.689
521.92	64.476
522.26	63.574
522.61	64.873
522.95	64.533
523.29	65.057
523.64	64.686
523.98	65.088
524.32	64.241
524.66	65.623
525.01	64.609
525.35	63.354
525.69	63.921
526.04	63.318
526.38	64.828
526.72	66.090
527.06	65.161
527.41	65.364
527.75	65.083
528.09	66.293
528.43	64.535
528.78	64.971
529.12	64.220
529.46	64.081
529.80	65.103
530.15	66.261
530.49	65.777
530.83	65.112
531.17	64.158
531.51	66.005
531.86	65.204
532.20	65.549
532.54	65.949
532.88	66.242
533.22	63.760
533.57	64.224
533.91	64.871
534.25	65.800
534.59	66.437
534.93	65.365
535.27	65.127
535.62	66.629
535.96	66.938
536.30	66.392
536.64	66.847
536.98	67.466
537.32	67.160
537.66	66.875
538.01	64.532
538.35	65.286
538.69	64.543
539.03	66.769
539.37	64.782
539.71	67.327
540.05	67.266
540.39	65.281
540.73	64.481
541.07	66.462
541.42	64.146
541.76	65.421
542.10	65.139
542.44	65.408
542.78	66.180
543.12	64.660
543.46	64.957
543.80	65.468
544.14	64.153
544.48	66.076
544.82	67.445
545.16	67.024
545.50	64.350
545.84	65.891
546.18	67.284
546.52	64.841
546.86	67.484
547.20	67.176
547.54	65.543
547.88	67.089
548.22	65.673
548.56	64.541
548.90	65.791
549.24	66.140
549.58	66.751
549.92	65.561
550.26	65.631
550.60	64.582
550.94	64.683
551.28	66.535
551.62	67.925
551.96	65.890
552.30	67.623
552.64	66.335
552.98	67.249
553.32	67.846
553.66	67.717
554.00	67.528
554.34	67.439
554.68	65.268
555.02	66.754
555.36	68.639
555.69	65.855
556.03	66.393
556.37	66.395
556.71	65.441
557.05	66.134
557.39	67.286
557.73	67.834
558.07	67.152
558.41	67.442
558.75	66.734
559.08	67.780
559.42	68.244
559.76	66.486
560.10	66.175
560.44	66.821
560.78	66.313
561.12	65.517
561.45	65.937
561.79	65.079
562.13	65.126
562.47	65.228
562.81	66.519
563.15	66.856
563.48	66.750
563.82	65.296
564.16	65.051
564.50	65.673
564.84	64.248
565.17	65.059
565.51	64.269
565.85	65.974
566.19	63.940
566.52	65.418
566.86	65.818
567.20	63.622
567.54	64.047
567.88	64.883
568.21	64.822
568.55	64.365
568.89	64.231
569.23	62.569
569.56	62.055
569.90	61.083
570.24	61.821
570.57	61.802
570.91	59.982
571.25	60.283
571.59	60.785
571.92	60.314
572.26	59.873
572.60	60.388
572.93	60.813
573.27	60.607
573.61	59.688
573.95	60.209
574.28	59.659
574.62	59.345
574.96	57.675
575.29	58.735
575.63	59.552
575.97	59.210
576.30	59.660
576.64	59.532
576.98	58.884
577.31	59.571
577.65	59.142
577.98	58.358
578.32	58.246
578.66	58.029
578.99	58.755
579.33	60.138
579.67	59.746
580.00	58.912
580.34	58.530
580.67	59.223
581.01	58.936
581.35	58.212
581.68	57.391
582.02	57.280
582.35	58.813
582.69	58.604
583.02	59.466
583.36	59.376
583.70	60.941
584.03	60.571
584.37	60.133
584.70	59.315
585.04	59.289
585.37	59.015
585.71	58.468
586.04	58.697
586.38	58.983
586.72	59.639
587.05	59.325
587.39	59.187
587.72	59.211
588.06	59.792
588.39	59.622
588.73	59.947
589.06	60.356
589.40	60.418
589.73	61.632
590.07	60.908
590.40	61.224
590.73	60.764
591.07	61.579
591.40	60.925
591.74	61.049
592.07	61.307
592.41	60.134
592.74	58.857
593.08	58.790
593.41	59.638
593.75	58.621
594.08	60.436
594.41	60.385
594.75	60.246
595.08	59.690
595.42	59.870
595.75	59.800
596.09	60.691
596.42	60.444
596.75	60.749
597.09	61.253
597.42	60.787
597.75	59.624
598.09	59.921
598.42	60.394
598.76	59.152
599.09	58.953
599.42	57.560
599.76	58.138
600.09	59.526
600.42	58.492
600.76	58.917
601.09	58.845
601.42	59.423
601.76	58.690
602.09	60.472
602.42	59.324
602.76	59.483
603.09	59.361
603.42	59.790
603.76	59.020
604.09	60.433
604.42	59.780
604.76	58.638
605.09	60.231
605.42	60.048
605.75	59.269
606.09	58.455
606.42	57.935
606.75	58.583
607.09	58.986
607.42	57.688
607.75	59.867
608.08	58.524
608.42	57.557
608.75	59.411
609.08	58.956
609.41	60.521
609.75	59.643
610.08	59.631
610.41	59.303
610.74	58.782
611.07	60.080
611.41	59.910
611.74	59.492
612.07	60.215
612.40	60.171
612.73	60.685
613.07	59.902
613.40	59.721
613.73	59.846
614.06	58.979
614.39	57.775
614.72	58.612
615.06	59.577
615.39	57.854
615.72	58.104
616.05	57.892
616.38	59.384
616.71	60.084
617.05	59.531
617.38	60.460
617.71	59.395
618.04	60.766
618.37	60.000
618.70	61.538
619.03	60.633
619.36	60.851
619.69	60.987
620.03	60.201
620.36	59.816
620.69	60.148
621.02	60.236
621.35	62.772
621.68	61.967
622.01	62.064
622.34	60.600
622.67	60.687
623.00	59.987
623.33	59.390
623.66	60.117
623.99	59.118
624.32	60.884
624.65	59.653
624.99	60.273
625.32	61.137
625.65	60.553
625.98	60.203
626.31	61.021
626.64	60.586
626.97	60.990
627.30	61.731
627.63	60.615
627.96	61.036
628.29	59.767
628.62	61.461
628.95	62.840
629.28	61.003
629.61	61.364
629.94	60.753
630.26	60.000
630.59	61.054
630.92	60.779
631.25	62.612
631.58	64.407
631.91	62.793
632.24	62.440
632.57	61.765
632.90	63.490
633.23	63.776
633.56	63.265
633.89	61.983
634.22	62.786
