SpectraSuite Data File
++++++++++++++++++++++++++++++++++++
Date: Thu May 14 16:42:23 PDT 2015
User: schluterlab
Dark Spectrum Present: Yes
Reference Spectrum Present: Yes
Number of Sampled Component Spectra: 1
Spectrometers: USB2E3373
Integration Time (usec): 3000 (USB2E3373)
Spectra Averaged: 3 (USB2E3373)
Boxcar Smoothing: 0 (USB2E3373)
Correct for Electrical Dark: No (USB2E3373)
Strobe/Lamp Enabled: No (USB2E3373)
Correct for Detector Non-linearity: No (USB2E3373)
Correct for Stray Light: No (USB2E3373)
Number of Pixels in Processed Spectrum: 2048
>>>>>Begin Processed Spectral Data<<<<<
178.53	0.000
178.91	-42.857
179.29	-600.000
179.67	-700.000
180.04	142.857
180.42	30.000
180.80	80.000
181.18	-300.000
181.56	500.000
181.94	-75.000
182.31	-75.000
182.69	-100.000
183.07	-100.000
183.45	175.000
183.83	133.333
184.20	-133.333
184.58	-0.000
184.96	-225.000
185.34	-77.778
185.72	80.000
186.09	122.222
186.47	500.000
186.85	240.000
187.23	-77.778
187.61	-300.000
187.98	-40.000
188.36	125.000
188.74	-75.000
189.12	66.667
189.49	25.000
189.87	-50.000
190.25	122.222
190.63	100.000
191.00	-55.556
191.38	0.000
191.76	-200.000
192.14	-116.667
192.51	-50.000
192.89	133.333
193.27	0.000
193.65	57.143
194.02	-1100.000
194.40	-42.857
194.78	-28.571
195.15	0.000
195.53	-72.727
195.91	0.000
196.29	75.000
196.66	-61.538
197.04	-700.000
197.42	-42.857
197.79	0.000
198.17	75.000
198.55	-57.143
198.92	44.444
199.30	-62.500
199.68	0.000
200.05	50.000
200.43	-250.000
200.81	185.714
201.18	0.000
201.56	155.556
201.94	0.000
202.31	166.667
202.69	-144.444
203.07	600.000
203.44	-22.222
203.82	-150.000
204.19	0.000
204.57	-33.333
204.95	0.000
205.32	0.000
205.70	50.000
206.08	-100.000
206.45	16.667
206.83	180.000
207.20	16.667
207.58	-100.000
207.96	-83.333
208.33	133.333
208.71	25.000
209.08	100.000
209.46	0.000
209.84	183.333
210.21	250.000
210.59	-0.000
210.96	200.000
211.34	50.000
211.71	50.000
212.09	400.000
212.46	0.000
212.84	350.000
213.22	0.000
213.59	-25.000
213.97	-50.000
214.34	266.667
214.72	33.333
215.09	-225.000
215.47	0.000
215.84	71.429
216.22	650.000
216.59	20.000
216.97	40.000
217.34	-50.000
217.72	25.000
218.09	-250.000
218.47	-250.000
218.84	0.000
219.22	120.000
219.59	11.765
219.97	0.000
220.34	600.000
220.72	11.111
221.09	0.000
221.47	-33.333
221.84	100.000
222.22	-100.000
222.59	0.000
222.97	37.500
223.34	-180.000
223.72	-200.000
224.09	100.000
224.46	-150.000
224.84	-20.000
225.21	-100.000
225.59	50.000
225.96	-200.000
226.34	11.538
226.71	-100.000
227.08	200.000
227.46	33.333
227.83	0.000
228.21	-21.053
228.58	-37.500
228.95	200.000
229.33	33.333
229.70	30.000
230.08	89.474
230.45	100.000
230.82	-100.000
231.20	-64.286
231.57	58.333
231.95	27.273
232.32	-9.091
232.69	65.000
233.07	150.000
233.44	29.412
233.81	-60.000
234.19	50.000
234.56	50.000
234.93	27.586
235.31	47.368
235.68	100.000
236.05	-20.000
236.43	38.462
236.80	64.000
237.17	40.741
237.55	30.303
237.92	-10.000
238.29	35.484
238.67	11.364
239.04	22.222
239.41	16.667
239.79	19.565
240.16	0.000
240.53	8.696
240.91	1.961
241.28	19.672
241.65	34.328
242.02	25.676
242.40	-7.692
242.77	14.667
243.14	4.878
243.51	10.526
243.89	6.410
244.26	21.782
244.63	19.608
245.00	11.215
245.38	21.053
245.75	6.195
246.12	19.048
246.49	13.178
246.87	15.000
247.24	18.543
247.61	21.711
247.98	14.094
248.36	20.370
248.73	15.951
249.10	13.661
249.47	16.915
249.84	23.037
250.22	11.399
250.59	17.778
250.96	22.727
251.33	13.776
251.70	17.949
252.08	16.250
252.45	18.852
252.82	14.876
253.19	14.453
253.56	17.871
253.94	16.154
254.31	17.045
254.68	16.783
255.05	19.218
255.42	12.585
255.79	15.210
256.16	13.576
256.54	12.914
256.91	18.689
257.28	17.705
257.65	13.376
258.02	13.864
258.39	17.379
258.76	18.043
259.14	14.655
259.51	15.850
259.88	14.164
260.25	17.778
260.62	18.356
260.99	17.486
261.36	15.282
261.73	12.467
262.10	15.934
262.47	13.137
262.85	17.929
263.22	11.688
263.59	15.263
263.96	14.066
264.33	14.322
264.70	11.852
265.07	15.752
265.44	19.048
265.81	13.889
266.18	16.780
266.55	15.848
266.92	13.895
267.29	20.788
267.66	16.630
268.03	15.066
268.40	16.284
268.77	12.073
269.14	12.555
269.51	15.570
269.88	15.779
270.25	15.895
270.62	16.034
270.99	17.576
271.36	13.267
271.73	15.521
272.10	16.633
272.47	17.635
272.84	15.462
273.21	14.028
273.58	14.919
273.95	15.769
274.32	13.308
274.69	16.634
275.06	16.667
275.43	13.124
275.80	15.873
276.17	15.926
276.54	14.925
276.91	16.279
277.28	14.467
277.65	17.056
278.02	15.074
278.39	14.855
278.76	15.466
279.13	14.007
279.50	16.495
279.87	13.596
280.23	14.437
280.60	15.593
280.97	16.118
281.34	13.922
281.71	14.213
282.08	15.282
282.45	14.075
282.82	13.658
283.19	11.309
283.56	12.623
283.92	16.066
284.29	16.430
284.66	14.943
285.03	13.942
285.40	14.838
285.77	15.170
286.14	17.099
286.51	15.068
286.87	15.324
287.24	15.663
287.61	14.499
287.98	12.538
288.35	14.793
288.72	14.645
289.08	15.227
289.45	13.166
289.82	14.157
290.19	14.224
290.56	16.197
290.93	14.265
291.29	15.152
291.66	15.289
292.03	11.533
292.40	15.374
292.77	12.803
293.13	11.637
293.50	12.484
293.87	14.228
294.24	15.200
294.60	15.044
294.97	10.872
295.34	14.469
295.71	13.241
296.08	12.403
296.44	13.603
296.81	13.398
297.18	13.076
297.55	13.561
297.91	13.049
298.28	11.374
298.65	12.366
299.02	12.987
299.38	13.730
299.75	12.266
300.12	11.921
300.48	12.788
300.85	12.823
301.22	14.094
301.59	12.785
301.95	14.011
302.32	14.111
302.69	11.501
303.05	12.731
303.42	12.749
303.79	13.333
304.15	12.513
304.52	12.791
304.89	13.298
305.25	13.561
305.62	11.076
305.99	13.196
306.35	11.694
306.72	13.133
307.09	12.690
307.45	13.354
307.82	12.311
308.19	12.412
308.55	13.500
308.92	14.119
309.29	12.835
309.65	12.378
310.02	13.168
310.38	13.287
310.75	14.660
311.12	13.710
311.48	13.196
311.85	13.865
312.22	14.137
312.58	14.460
312.95	13.289
313.31	14.544
313.68	14.744
314.05	14.092
314.41	16.029
314.78	14.532
315.14	16.152
315.51	14.312
315.87	15.662
316.24	16.073
316.61	15.364
316.97	14.842
317.34	15.079
317.70	16.769
318.07	16.490
318.43	15.391
318.80	16.304
319.16	15.365
319.53	15.681
319.89	14.899
320.26	15.214
320.62	14.982
320.99	16.528
321.35	16.266
321.72	16.558
322.08	15.780
322.45	15.989
322.81	16.336
323.18	16.106
323.54	16.293
323.91	17.082
324.27	16.781
324.64	18.556
325.00	16.418
325.37	18.755
325.73	17.438
326.10	17.356
326.46	18.078
326.83	18.415
327.19	19.449
327.56	19.368
327.92	18.489
328.29	16.935
328.65	17.923
329.01	18.866
329.38	19.292
329.74	19.264
330.11	19.007
330.47	18.703
330.84	18.174
331.20	19.167
331.56	18.371
331.93	19.247
332.29	19.237
332.66	19.020
333.02	17.923
333.38	18.372
333.75	18.687
334.11	20.100
334.48	18.069
334.84	19.286
335.20	18.388
335.57	17.622
335.93	19.587
336.29	18.386
336.66	18.251
337.02	18.813
337.38	19.728
337.75	17.769
338.11	17.410
338.47	19.189
338.84	18.613
339.20	19.208
339.56	17.957
339.93	19.130
340.29	17.230
340.65	17.843
341.02	19.234
341.38	18.998
341.74	17.837
342.11	18.021
342.47	17.951
342.83	19.485
343.20	19.215
343.56	18.043
343.92	18.175
344.28	18.438
344.65	18.527
345.01	18.097
345.37	18.585
345.73	17.693
346.10	17.785
346.46	18.908
346.82	18.652
347.19	18.717
347.55	19.120
347.91	18.202
348.27	18.285
348.63	19.193
349.00	18.643
349.36	19.480
349.72	18.750
350.08	19.094
350.45	17.795
350.81	19.080
351.17	18.571
351.53	18.271
351.89	18.983
352.26	18.284
352.62	17.836
352.98	18.626
353.34	17.999
353.70	18.490
354.07	17.288
354.43	18.223
354.79	18.923
355.15	18.543
355.51	20.541
355.87	18.474
356.24	18.631
356.60	18.108
356.96	18.532
357.32	18.216
357.68	17.862
358.04	17.515
358.40	17.761
358.77	19.006
359.13	18.981
359.49	18.290
359.85	19.434
360.21	19.010
360.57	19.454
360.93	18.970
361.29	19.719
361.66	17.958
362.02	20.529
362.38	18.693
362.74	19.204
363.10	19.464
363.46	19.321
363.82	19.105
364.18	19.704
364.54	19.225
364.90	20.000
365.26	19.517
365.62	20.000
365.98	20.354
366.35	18.926
366.71	20.952
367.07	19.756
367.43	19.829
367.79	19.774
368.15	19.799
368.51	20.771
368.87	20.314
369.23	20.467
369.59	20.150
369.95	19.878
370.31	20.932
370.67	20.770
371.03	20.014
371.39	20.484
371.75	21.114
372.11	20.190
372.47	20.921
372.83	19.764
373.19	21.014
373.55	20.461
373.91	20.314
374.27	21.151
374.63	21.177
374.99	20.756
375.35	21.234
375.71	20.774
376.07	20.852
376.42	21.725
376.78	20.758
377.14	22.084
377.50	21.632
377.86	22.229
378.22	21.437
378.58	21.819
378.94	21.655
379.30	21.734
379.66	21.987
380.02	21.696
380.38	22.465
380.74	21.352
381.09	22.067
381.45	21.136
381.81	22.834
382.17	22.031
382.53	22.105
382.89	22.348
383.25	22.333
383.61	22.685
383.97	22.556
384.32	24.043
384.68	21.984
385.04	22.961
385.40	23.925
385.76	23.974
386.12	22.741
386.48	23.000
386.83	24.255
387.19	22.190
387.55	22.770
387.91	22.546
388.27	23.845
388.62	24.170
388.98	22.730
389.34	24.160
389.70	24.463
390.06	23.860
390.42	23.193
390.77	23.781
391.13	24.237
391.49	24.457
391.85	23.939
392.20	24.140
392.56	24.690
392.92	23.991
393.28	23.494
393.64	23.799
393.99	24.288
394.35	23.949
394.71	24.251
395.07	24.431
395.42	24.158
395.78	24.924
396.14	24.183
396.50	24.644
396.85	23.554
397.21	24.675
397.57	25.206
397.92	24.570
398.28	24.117
398.64	24.371
399.00	25.131
399.35	24.555
399.71	24.728
400.07	24.312
400.42	24.563
400.78	25.463
401.14	25.100
401.49	25.185
401.85	25.698
402.21	24.623
402.57	24.237
402.92	25.000
403.28	23.653
403.63	24.702
403.99	25.238
404.35	25.071
404.70	25.326
405.06	24.402
405.42	24.941
405.77	26.063
406.13	24.743
406.49	24.887
406.84	25.983
407.20	24.707
407.55	25.076
407.91	25.393
408.27	25.501
408.62	25.596
408.98	25.479
409.34	24.106
409.69	26.329
410.05	26.553
410.40	25.464
410.76	24.678
411.11	25.774
411.47	25.369
411.83	25.338
412.18	26.325
412.54	26.556
412.89	25.728
413.25	25.395
413.60	25.617
413.96	25.874
414.31	25.666
414.67	25.224
415.03	25.354
415.38	25.851
415.74	25.473
416.09	25.972
416.45	24.108
416.80	25.214
417.16	25.862
417.51	26.588
417.87	25.506
418.22	25.629
418.58	25.589
418.93	25.960
419.29	25.216
419.64	25.330
420.00	25.401
420.35	25.772
420.71	25.962
421.06	25.244
421.42	26.491
421.77	25.094
422.12	25.053
422.48	25.653
422.83	26.177
423.19	25.358
423.54	25.608
423.90	25.676
424.25	26.027
424.61	25.832
424.96	25.920
425.31	26.486
425.67	25.389
426.02	26.065
426.38	25.488
426.73	24.609
427.09	26.182
427.44	25.232
427.79	24.986
428.15	25.228
428.50	25.281
428.85	25.775
429.21	25.319
429.56	25.173
429.92	25.111
430.27	26.313
430.62	26.282
430.98	25.381
431.33	25.073
431.68	25.096
432.04	25.241
432.39	25.549
432.74	26.256
433.10	25.527
433.45	24.972
433.80	25.268
434.16	25.517
434.51	25.797
434.86	26.113
435.22	26.621
435.57	25.708
435.92	25.264
436.28	26.223
436.63	25.669
436.98	25.926
437.34	25.141
437.69	24.986
438.04	25.595
438.39	26.020
438.75	24.848
439.10	26.057
439.45	25.824
439.81	25.085
440.16	24.611
440.51	25.530
440.86	25.069
441.22	24.491
441.57	26.415
441.92	25.752
442.27	25.657
442.63	24.690
442.98	25.774
443.33	25.145
443.68	25.520
444.03	26.152
444.39	25.613
444.74	25.370
445.09	25.190
445.44	25.606
445.79	25.958
446.15	25.077
446.50	25.530
446.85	25.195
447.20	25.629
447.55	25.105
447.91	25.445
448.26	25.687
448.61	25.345
448.96	26.127
449.31	24.973
449.66	25.054
450.02	25.527
450.37	25.892
450.72	25.242
451.07	25.228
451.42	24.610
451.77	25.014
452.12	25.339
452.47	24.183
452.83	25.676
453.18	24.577
453.53	25.158
453.88	25.345
454.23	25.537
454.58	25.595
454.93	24.575
455.28	24.985
455.63	25.810
455.98	24.972
456.34	25.206
456.69	25.338
457.04	25.827
457.39	25.055
457.74	25.615
458.09	25.481
458.44	25.970
458.79	24.961
459.14	25.223
459.49	24.788
459.84	25.131
460.19	24.653
460.54	25.383
460.89	25.199
461.24	25.517
461.59	25.346
461.94	23.731
462.29	25.084
462.64	24.804
462.99	24.922
463.34	24.270
463.69	24.502
464.04	25.347
464.39	25.280
464.74	25.485
465.09	25.317
465.44	24.517
465.79	24.749
466.14	25.117
466.49	24.684
466.84	25.234
467.19	25.491
467.54	23.561
467.89	23.621
468.24	24.598
468.59	23.683
468.94	24.068
469.29	24.295
469.64	23.776
469.99	24.602
470.34	23.948
470.68	24.539
471.03	25.278
471.38	24.657
471.73	23.277
472.08	23.921
472.43	24.022
472.78	24.685
473.13	23.767
473.48	23.625
473.83	24.956
474.17	23.974
474.52	23.812
474.87	23.754
475.22	24.563
475.57	24.143
475.92	23.892
476.27	24.281
476.61	23.988
476.96	23.306
477.31	24.307
477.66	23.190
478.01	23.132
478.36	23.380
478.70	23.547
479.05	24.796
479.40	23.346
479.75	23.391
480.10	22.975
480.45	23.428
480.79	23.492
481.14	23.254
481.49	22.944
481.84	23.107
482.19	23.441
482.53	23.262
482.88	23.527
483.23	23.121
483.58	22.533
483.92	22.784
484.27	22.862
484.62	22.772
484.97	22.745
485.31	22.703
485.66	22.198
486.01	21.884
486.36	22.440
486.70	23.234
487.05	23.574
487.40	23.125
487.75	22.443
488.09	22.654
488.44	22.596
488.79	23.002
489.13	22.158
489.48	22.214
489.83	21.932
490.17	21.264
490.52	22.455
490.87	21.616
491.22	21.707
491.56	22.611
491.91	22.067
492.26	21.592
492.60	22.169
492.95	21.896
493.30	22.232
493.64	21.770
493.99	22.018
494.34	22.343
494.68	21.456
495.03	21.762
495.37	21.793
495.72	21.633
496.07	21.735
496.41	21.707
496.76	21.393
497.11	21.274
497.45	21.968
497.80	21.102
498.14	21.315
498.49	20.864
498.84	20.704
499.18	21.188
499.53	21.525
499.87	21.275
500.22	20.125
500.56	20.828
500.91	20.595
501.26	21.273
501.60	20.990
501.95	20.886
502.29	20.974
502.64	21.294
502.98	20.104
503.33	21.037
503.67	20.497
504.02	19.440
504.36	20.912
504.71	20.854
505.06	21.055
505.40	20.247
505.75	20.082
506.09	20.580
506.44	20.706
506.78	21.101
507.13	20.655
507.47	20.985
507.82	20.597
508.16	20.029
508.51	19.925
508.85	19.887
509.19	20.038
509.54	20.077
509.88	19.961
510.23	20.107
510.57	20.251
510.92	19.836
511.26	20.298
511.61	18.831
511.95	19.717
512.30	19.842
512.64	19.740
512.98	19.760
513.33	20.363
513.67	18.970
514.02	19.622
514.36	20.358
514.70	19.740
515.05	19.552
515.39	19.895
515.74	19.830
516.08	18.753
516.42	19.885
516.77	20.242
517.11	19.649
517.46	19.141
517.80	18.653
518.14	19.859
518.49	19.306
518.83	19.478
519.17	18.848
519.52	19.130
519.86	19.166
520.20	19.436
520.55	19.496
520.89	19.426
521.23	18.760
521.58	19.774
521.92	19.263
522.26	18.843
522.61	19.039
522.95	18.916
523.29	17.874
523.64	19.170
523.98	19.509
524.32	19.427
524.66	19.124
525.01	18.913
525.35	18.380
525.69	18.097
526.04	17.968
526.38	18.908
526.72	19.262
527.06	18.592
527.41	18.776
527.75	18.705
528.09	18.772
528.43	18.472
528.78	18.555
529.12	18.291
529.46	18.044
529.80	17.849
530.15	18.725
530.49	18.980
530.83	18.831
531.17	17.503
531.51	17.750
531.86	18.510
532.20	18.720
532.54	17.295
532.88	18.848
533.22	17.796
533.57	18.177
533.91	18.294
534.25	17.807
534.59	17.356
534.93	17.204
535.27	18.085
535.62	18.647
535.96	18.478
536.30	17.861
536.64	18.619
536.98	18.327
537.32	17.840
537.66	17.966
538.01	17.704
538.35	17.540
538.69	17.668
539.03	18.332
539.37	17.432
539.71	16.997
540.05	17.146
540.39	17.604
540.73	17.729
541.07	17.413
541.42	16.657
541.76	17.260
542.10	17.008
542.44	16.870
542.78	17.762
543.12	17.282
543.46	16.850
543.80	17.446
544.14	16.038
544.48	17.612
544.82	18.312
545.16	16.816
545.50	17.795
545.84	16.412
546.18	17.407
546.52	16.115
546.86	16.730
547.20	16.539
547.54	16.479
547.88	16.154
548.22	16.140
548.56	16.735
548.90	16.299
549.24	16.900
549.58	16.278
549.92	16.327
550.26	16.570
550.60	16.528
550.94	17.464
551.28	16.436
551.62	16.644
551.96	16.246
552.30	17.017
552.64	16.304
552.98	17.717
553.32	16.592
553.66	16.141
554.00	16.267
554.34	16.345
554.68	16.010
555.02	16.294
555.36	16.700
555.69	16.079
556.03	15.889
556.37	17.084
556.71	16.741
557.05	15.655
557.39	16.656
557.73	15.918
558.07	15.430
558.41	16.279
558.75	15.889
559.08	15.727
559.42	15.089
559.76	16.011
560.10	16.075
560.44	15.633
560.78	16.438
561.12	16.010
561.45	16.971
561.79	16.239
562.13	15.835
562.47	15.413
562.81	15.759
563.15	15.783
563.48	15.724
563.82	15.659
564.16	14.718
564.50	15.614
564.84	15.575
565.17	15.765
565.51	14.845
565.85	15.321
566.19	15.035
566.52	15.799
566.86	15.337
567.20	14.899
567.54	15.348
567.88	15.902
568.21	15.662
568.55	15.300
568.89	15.388
569.23	16.477
569.56	15.358
569.90	15.966
570.24	15.683
570.57	15.170
570.91	15.064
571.25	14.753
571.59	15.725
571.92	14.899
572.26	15.246
572.60	15.343
572.93	15.224
573.27	15.398
573.61	15.034
573.95	15.489
574.28	15.043
574.62	14.916
574.96	14.843
575.29	15.290
575.63	15.385
575.97	15.497
576.30	15.026
576.64	14.984
576.98	14.897
577.31	14.958
577.65	15.167
577.98	15.136
578.32	15.058
578.66	15.096
578.99	15.175
579.33	15.318
579.67	14.733
580.00	15.037
580.34	15.009
580.67	14.872
581.01	14.453
581.35	14.709
581.68	15.067
582.02	15.179
582.35	14.831
582.69	15.036
583.02	14.932
583.36	15.013
583.70	14.928
584.03	15.071
584.37	14.712
584.70	14.303
585.04	14.020
585.37	14.450
585.71	14.693
586.04	14.751
586.38	14.531
586.72	14.440
587.05	14.275
587.39	14.510
587.72	14.593
588.06	14.362
588.39	14.638
588.73	14.471
589.06	14.560
589.40	14.352
589.73	14.557
590.07	14.987
590.40	15.213
590.73	14.705
591.07	14.631
591.40	14.308
591.74	13.871
592.07	14.698
592.41	14.038
592.74	14.093
593.08	14.713
593.41	14.902
593.75	14.425
594.08	14.662
594.41	14.519
594.75	14.181
595.08	14.132
595.42	14.383
595.75	14.143
596.09	14.537
596.42	14.153
596.75	14.821
597.09	14.545
597.42	13.985
597.75	14.387
598.09	14.802
598.42	14.717
598.76	14.406
599.09	13.991
599.42	13.711
599.76	13.866
600.09	14.281
600.42	14.147
600.76	13.937
601.09	14.238
601.42	14.075
601.76	14.276
602.09	14.439
602.42	14.286
602.76	13.875
603.09	13.877
603.42	13.764
603.76	14.059
604.09	14.833
604.42	14.385
604.76	14.117
605.09	13.841
605.42	14.434
605.75	13.692
606.09	13.923
606.42	13.353
606.75	13.606
607.09	13.902
607.42	14.220
607.75	13.638
608.08	13.812
608.42	13.744
608.75	14.262
609.08	13.158
609.41	13.895
609.75	14.062
610.08	14.468
610.41	13.764
610.74	13.655
611.07	14.387
611.41	13.946
611.74	13.764
612.07	13.745
612.40	12.833
612.73	14.279
613.07	14.034
613.40	14.052
613.73	13.770
614.06	13.445
614.39	14.091
614.72	13.295
615.06	13.811
615.39	13.630
615.72	13.460
616.05	13.453
616.38	14.178
616.71	13.480
617.05	13.259
617.38	14.500
617.71	13.715
618.04	13.869
618.37	13.333
618.70	14.480
619.03	13.799
619.36	14.488
619.69	14.222
620.03	13.183
620.36	13.129
620.69	13.634
621.02	13.583
621.35	13.788
621.68	14.461
622.01	12.740
622.34	13.250
622.67	13.814
623.00	12.416
623.33	13.802
623.66	13.878
623.99	12.903
624.32	14.750
624.65	12.870
624.99	13.524
625.32	14.239
625.65	13.688
625.98	13.220
626.31	13.324
626.64	14.359
626.97	13.353
627.30	12.604
627.63	13.128
627.96	14.790
628.29	13.385
628.62	12.594
628.95	12.883
629.28	14.359
629.61	13.721
629.94	13.054
630.26	13.220
630.59	13.299
630.92	14.113
631.25	13.506
631.58	13.936
631.91	12.933
632.24	13.929
632.57	13.472
632.90	12.638
633.23	13.061
633.56	12.653
633.89	11.054
634.22	14.449
634.55	13.883
