SpectraSuite Data File
++++++++++++++++++++++++++++++++++++
Date: Tue May 12 19:44:36 PDT 2015
User: schluterlab
Dark Spectrum Present: Yes
Reference Spectrum Present: Yes
Number of Sampled Component Spectra: 1
Spectrometers: USB2E3373
Integration Time (usec): 3000 (USB2E3373)
Spectra Averaged: 3 (USB2E3373)
Boxcar Smoothing: 0 (USB2E3373)
Correct for Electrical Dark: No (USB2E3373)
Strobe/Lamp Enabled: No (USB2E3373)
Correct for Detector Non-linearity: No (USB2E3373)
Correct for Stray Light: No (USB2E3373)
Number of Pixels in Processed Spectrum: 2048
>>>>>Begin Processed Spectral Data<<<<<
178.53	0.000
178.91	-10.000
179.29	-66.667
179.67	233.333
180.04	0.000
180.42	-60.000
180.80	-466.667
181.18	300.000
181.56	250.000
181.94	266.667
182.31	1100.000
182.69	-100.000
183.07	0.000
183.45	216.667
183.83	80.000
184.20	316.667
184.58	950.000
184.96	250.000
185.34	100.000
185.72	-57.143
186.09	-83.333
186.47	-1700.000
186.85	0.000
187.23	91.667
187.61	-228.571
187.98	-280.000
188.36	900.000
188.74	50.000
189.12	-144.444
189.49	20.000
189.87	375.000
190.25	122.222
190.63	366.667
191.00	280.000
191.38	-533.333
191.76	200.000
192.14	-85.714
192.51	-10.000
192.89	0.000
193.27	20.000
193.65	-266.667
194.02	-183.333
194.40	200.000
194.78	-125.000
195.15	-257.143
195.53	700.000
195.91	80.000
196.29	-425.000
196.66	-133.333
197.04	-128.571
197.42	-40.000
197.79	-187.500
198.17	-50.000
198.55	400.000
198.92	-111.111
199.30	500.000
199.68	-50.000
200.05	-800.000
200.43	-72.222
200.81	-108.333
201.18	316.667
201.56	-650.000
201.94	-100.000
202.31	-91.667
202.69	11.111
203.07	-66.667
203.44	-475.000
203.82	0.000
204.19	287.500
204.57	-366.667
204.95	172.727
205.32	200.000
205.70	475.000
206.08	-600.000
206.45	0.000
206.83	1700.000
207.20	-133.333
207.58	76.923
207.96	433.333
208.33	566.667
208.71	400.000
209.08	700.000
209.46	22.222
209.84	300.000
210.21	-233.333
210.59	250.000
210.96	233.333
211.34	-325.000
211.71	850.000
212.09	-100.000
212.46	12.500
212.84	-137.500
213.22	28.571
213.59	-100.000
213.97	0.000
214.34	-400.000
214.72	-1000.000
215.09	500.000
215.47	6.667
215.84	-50.000
216.22	-900.000
216.59	400.000
216.97	50.000
217.34	-50.000
217.72	16.667
218.09	200.000
218.47	-68.421
218.84	-112.500
219.22	0.000
219.59	-20.000
219.97	-110.000
220.34	283.333
220.72	63.636
221.09	-850.000
221.47	0.000
221.84	250.000
222.22	-75.000
222.59	-175.000
222.97	-13.043
223.34	140.000
223.72	214.286
224.09	-83.333
224.46	176.923
224.84	-33.333
225.21	150.000
225.59	-175.000
225.96	50.000
226.34	133.333
226.71	240.000
227.08	-84.615
227.46	-57.143
227.83	50.000
228.21	-700.000
228.58	133.333
228.95	0.000
229.33	12.500
229.70	-233.333
230.08	-33.333
230.45	-500.000
230.82	-600.000
231.20	-14.286
231.57	-120.000
231.95	-466.667
232.32	122.222
232.69	-400.000
233.07	-43.750
233.44	-62.500
233.81	29.032
234.19	-260.000
234.56	-11.111
234.93	-166.667
235.31	11.111
235.68	33.333
236.05	-7.692
236.43	-42.105
236.80	-4.545
237.17	-142.857
237.55	-35.000
237.92	16.279
238.29	29.032
238.67	28.571
239.04	34.286
239.41	-5.882
239.79	10.000
240.16	10.000
240.53	5.172
240.91	17.808
241.28	16.901
241.65	26.562
242.02	12.281
242.40	16.000
242.77	22.105
243.14	20.000
243.51	24.731
243.89	20.000
244.26	21.296
244.63	26.531
245.00	23.214
245.38	22.689
245.75	19.492
246.12	31.250
246.49	21.600
246.87	21.311
247.24	12.676
247.61	19.205
247.98	28.090
248.36	23.270
248.73	24.432
249.10	28.889
249.47	23.958
249.84	27.919
250.22	23.438
250.59	25.843
250.96	28.182
251.33	29.245
251.70	29.358
252.08	23.377
252.45	23.265
252.82	23.207
253.19	27.626
253.56	26.275
253.94	30.894
254.31	30.216
254.68	26.736
255.05	32.450
255.42	27.636
255.79	30.795
256.16	26.736
256.54	29.697
256.91	30.128
257.28	31.169
257.65	28.197
258.02	28.829
258.39	32.628
258.76	27.829
259.14	25.882
259.51	27.606
259.88	29.395
260.25	29.545
260.62	26.685
260.99	28.691
261.36	28.161
261.73	28.800
262.10	31.880
262.47	33.333
262.85	29.820
263.22	28.763
263.59	32.440
263.96	30.287
264.33	28.841
264.70	26.781
265.07	28.571
265.44	29.977
265.81	30.843
266.18	30.445
266.55	31.190
266.92	30.804
267.29	29.111
267.66	25.909
268.03	30.538
268.40	32.037
268.77	28.731
269.14	27.521
269.51	30.317
269.88	29.701
270.25	27.004
270.62	29.202
270.99	26.316
271.36	29.801
271.73	30.625
272.10	31.743
272.47	30.600
272.84	23.779
273.21	26.096
273.58	27.959
273.95	26.096
274.32	29.787
274.69	30.137
275.06	28.143
275.43	27.400
275.80	30.975
276.17	27.273
276.54	29.087
276.91	28.023
277.28	30.174
277.65	26.276
278.02	28.977
278.39	29.220
278.76	28.864
279.13	30.769
279.50	30.686
279.87	28.113
280.23	26.776
280.60	27.385
280.97	29.877
281.34	27.119
281.71	25.577
282.08	29.696
282.45	27.160
282.82	26.936
283.19	28.451
283.56	28.498
283.92	26.224
284.29	28.765
284.66	26.726
285.03	27.101
285.40	26.500
285.77	27.750
286.14	27.734
286.51	25.080
286.87	27.391
287.24	25.481
287.61	25.617
287.98	28.169
288.35	26.977
288.72	27.217
289.08	24.214
289.45	24.961
289.82	24.534
290.19	25.606
290.56	24.747
290.93	25.702
291.29	24.397
291.66	24.017
292.03	26.399
292.40	23.885
292.77	24.490
293.13	22.173
293.50	24.931
293.87	23.994
294.24	22.753
294.60	23.634
294.97	23.130
295.34	22.192
295.71	22.191
296.08	21.585
296.44	23.715
296.81	19.922
297.18	23.157
297.55	22.111
297.91	22.081
298.28	22.379
298.65	22.122
299.02	22.318
299.38	19.643
299.75	22.780
300.12	20.863
300.48	20.892
300.85	20.905
301.22	21.274
301.59	21.411
301.95	21.341
302.32	20.778
302.69	18.193
303.05	21.015
303.42	21.860
303.79	20.000
304.15	19.932
304.52	20.335
304.89	19.053
305.25	19.610
305.62	20.114
305.99	18.701
306.35	20.134
306.72	20.370
307.09	19.042
307.45	19.849
307.82	19.637
308.19	21.232
308.55	20.992
308.92	17.585
309.29	19.038
309.65	19.195
310.02	20.335
310.38	21.002
310.75	18.750
311.12	20.346
311.48	21.069
311.85	20.061
312.22	19.318
312.58	18.832
312.95	20.329
313.31	18.977
313.68	19.265
314.05	21.053
314.41	19.646
314.78	20.201
315.14	20.568
315.51	20.854
315.87	21.094
316.24	21.860
316.61	20.485
316.97	20.392
317.34	21.627
317.70	21.475
318.07	21.697
318.43	22.023
318.80	22.222
319.16	20.130
319.53	21.981
319.89	21.780
320.26	23.206
320.62	24.516
320.99	25.306
321.35	23.320
321.72	24.747
322.08	25.050
322.45	24.063
322.81	25.813
323.18	25.791
323.54	26.919
323.91	26.186
324.27	27.194
324.64	27.741
325.00	27.843
325.37	28.417
325.73	26.277
326.10	28.546
326.46	28.921
326.83	29.200
327.19	30.131
327.56	31.830
327.92	30.035
328.29	29.480
328.65	32.392
329.01	31.193
329.38	33.701
329.74	34.355
330.11	32.992
330.47	33.147
330.84	34.398
331.20	32.810
331.56	33.962
331.93	34.492
332.29	34.690
332.66	35.443
333.02	36.955
333.38	36.489
333.75	35.316
334.11	35.533
334.48	35.242
334.84	35.681
335.20	34.378
335.57	37.421
335.93	35.814
336.29	34.461
336.66	35.974
337.02	36.446
337.38	36.604
337.75	36.727
338.11	37.830
338.47	37.790
338.84	37.293
339.20	36.847
339.56	37.185
339.93	36.486
340.29	36.990
340.65	37.626
341.02	36.138
341.38	36.275
341.74	38.523
342.11	38.108
342.47	37.150
342.83	37.034
343.20	37.577
343.56	36.101
343.92	37.883
344.28	36.792
344.65	36.558
345.01	36.760
345.37	37.009
345.73	36.606
346.10	37.338
346.46	36.583
346.82	37.553
347.19	37.258
347.55	37.840
347.91	36.855
348.27	36.984
348.63	37.770
349.00	37.479
349.36	37.923
349.72	38.424
350.08	38.216
350.45	37.266
350.81	37.325
351.17	37.150
351.53	37.279
351.89	37.824
352.26	37.073
352.62	37.776
352.98	38.577
353.34	37.845
353.70	36.461
354.07	38.056
354.43	37.312
354.79	37.295
355.15	36.562
355.51	38.223
355.87	38.551
356.24	39.216
356.60	37.563
356.96	36.651
357.32	40.082
357.68	38.345
358.04	38.493
358.40	38.953
358.77	37.751
359.13	38.795
359.49	37.600
359.85	38.609
360.21	36.955
360.57	38.437
360.93	39.034
361.29	37.305
361.66	37.855
362.02	38.932
362.38	38.850
362.74	40.046
363.10	39.216
363.46	39.127
363.82	39.280
364.18	37.547
364.54	39.771
364.90	39.407
365.26	38.674
365.62	39.818
365.98	40.255
366.35	40.242
366.71	39.955
367.07	39.483
367.43	39.495
367.79	39.826
368.15	38.918
368.51	39.700
368.87	40.896
369.23	40.424
369.59	40.000
369.95	40.238
370.31	40.303
370.67	41.729
371.03	41.254
371.39	41.088
371.75	39.896
372.11	41.259
372.47	40.757
372.83	41.563
373.19	41.792
373.55	42.216
373.91	41.742
374.27	43.561
374.63	42.784
374.99	42.533
375.35	41.945
375.71	42.611
376.07	42.261
376.42	42.324
376.78	42.997
377.14	43.366
377.50	43.228
377.86	43.106
378.22	42.470
378.58	43.750
378.94	44.401
379.30	43.436
379.66	44.110
380.02	44.755
380.38	44.020
380.74	44.500
381.09	44.409
381.45	44.444
381.81	45.344
382.17	44.691
382.53	46.022
382.89	45.157
383.25	45.276
383.61	45.963
383.97	45.484
384.32	44.968
384.68	45.913
385.04	45.640
385.40	45.559
385.76	47.185
386.12	47.327
386.48	46.641
386.83	47.531
387.19	47.893
387.55	46.762
387.91	45.607
388.27	46.705
388.62	47.474
388.98	48.473
389.34	47.235
389.70	49.359
390.06	47.459
390.42	48.884
390.77	48.893
391.13	49.837
391.49	50.000
391.85	49.035
392.20	51.221
392.56	48.854
392.92	50.464
393.28	50.509
393.64	50.982
393.99	50.455
394.35	50.746
394.71	51.656
395.07	51.194
395.42	50.222
395.78	51.815
396.14	52.298
396.50	50.970
396.85	51.553
397.21	50.841
397.57	52.140
397.92	52.481
398.28	53.837
398.64	53.016
399.00	52.815
399.35	53.400
399.71	53.234
400.07	53.366
400.42	53.910
400.78	54.511
401.14	55.303
401.49	54.841
401.85	54.667
402.21	55.393
402.57	52.028
402.92	56.042
403.28	57.347
403.63	55.962
403.99	56.737
404.35	54.841
404.70	56.871
405.06	57.347
405.42	57.189
405.77	55.826
406.13	55.197
406.49	58.044
406.84	57.970
407.20	56.691
407.55	58.317
407.91	58.042
408.27	60.040
408.62	57.106
408.98	59.588
409.34	59.027
409.69	58.662
410.05	58.484
410.40	59.859
410.76	59.963
411.11	59.729
411.47	60.476
411.83	58.854
412.18	59.817
412.54	59.379
412.89	60.751
413.25	60.063
413.60	62.054
413.96	62.136
414.31	60.548
414.67	61.715
415.03	60.858
415.38	61.003
415.74	61.988
416.09	62.578
416.45	63.623
416.80	62.587
417.16	63.611
417.51	62.942
417.87	64.159
418.22	63.235
418.58	65.031
418.93	64.217
419.29	64.383
419.64	66.003
420.00	64.506
420.35	64.532
420.71	65.109
421.06	65.801
421.42	64.931
421.77	65.591
422.12	65.151
422.48	66.077
422.83	64.924
423.19	65.765
423.54	66.402
423.90	66.255
424.25	68.640
424.61	68.194
424.96	67.322
425.31	67.935
425.67	67.212
426.02	68.696
426.38	68.082
426.73	68.536
427.09	68.418
427.44	68.827
427.79	70.606
428.15	66.709
428.50	69.347
428.85	69.788
429.21	69.038
429.56	68.232
429.92	69.281
430.27	69.067
430.62	69.605
430.98	68.135
431.33	70.133
431.68	69.311
432.04	69.908
432.39	70.291
432.74	70.082
433.10	71.134
433.45	72.324
433.80	72.262
434.16	71.461
434.51	71.349
434.86	71.239
435.22	71.304
435.57	73.879
435.92	71.084
436.28	70.486
436.63	71.855
436.98	73.210
437.34	73.448
437.69	73.704
438.04	73.017
438.39	73.107
438.75	72.492
439.10	73.690
439.45	74.968
439.81	72.698
440.16	75.201
440.51	74.102
440.86	74.684
441.22	73.973
441.57	73.219
441.92	76.588
442.27	74.629
442.63	75.395
442.98	76.956
443.33	74.442
443.68	75.541
444.03	74.742
444.39	75.742
444.74	76.188
445.09	77.450
445.44	75.685
445.79	75.620
446.15	76.327
446.50	74.667
446.85	75.963
447.20	75.000
447.55	74.636
447.91	76.073
448.26	76.202
448.61	78.066
448.96	75.754
449.31	77.577
449.66	75.787
450.02	75.740
450.37	77.582
450.72	76.122
451.07	77.324
451.42	77.931
451.77	76.356
452.12	75.689
452.47	77.642
452.83	79.452
453.18	78.596
453.53	78.707
453.88	77.409
454.23	79.553
454.58	76.828
454.93	77.997
455.28	78.004
455.63	77.973
455.98	77.665
456.34	77.428
456.69	79.350
457.04	77.297
457.39	78.215
457.74	78.382
458.09	79.029
458.44	79.215
458.79	77.621
459.14	78.116
459.49	78.726
459.84	79.548
460.19	77.236
460.54	77.525
460.89	77.882
461.24	78.831
461.59	78.864
461.94	78.764
462.29	77.569
462.64	79.248
462.99	80.276
463.34	79.707
463.69	80.110
464.04	79.987
464.39	78.585
464.74	79.624
465.09	78.135
465.44	78.104
465.79	78.821
466.14	78.162
466.49	78.822
466.84	77.518
467.19	78.103
467.54	76.592
467.89	79.882
468.24	77.336
468.59	78.665
468.94	79.018
469.29	80.554
469.64	80.817
469.99	78.659
470.34	78.501
470.68	79.385
471.03	78.905
471.38	80.479
471.73	79.360
472.08	78.363
472.43	81.051
472.78	80.348
473.13	78.246
473.48	80.360
473.83	80.779
474.17	79.853
474.52	80.911
474.87	78.283
475.22	79.416
475.57	79.142
475.92	78.908
476.27	79.144
476.61	80.792
476.96	79.668
477.31	78.767
477.66	78.559
478.01	81.342
478.36	79.370
478.70	81.521
479.05	78.932
479.40	79.104
479.75	81.548
480.10	80.790
480.45	80.785
480.79	80.176
481.14	80.759
481.49	80.154
481.84	80.202
482.19	79.366
482.53	78.775
482.88	80.478
483.23	80.653
483.58	79.752
483.92	80.101
484.27	80.978
484.62	79.114
484.97	78.339
485.31	77.340
485.66	75.976
486.01	74.743
486.36	75.492
486.70	76.435
487.05	76.885
487.40	75.596
487.75	75.265
488.09	75.940
488.44	77.334
488.79	77.294
489.13	77.639
489.48	78.975
489.83	78.872
490.17	79.231
490.52	78.872
490.87	81.009
491.22	79.882
491.56	78.310
491.91	78.614
492.26	81.438
492.60	80.867
492.95	81.006
493.30	81.129
493.64	80.426
493.99	80.647
494.34	80.689
494.68	78.444
495.03	79.767
495.37	79.676
495.72	79.536
496.07	80.375
496.41	78.557
496.76	78.223
497.11	80.847
497.45	80.110
497.80	79.699
498.14	80.201
498.49	80.619
498.84	78.931
499.18	79.917
499.53	79.543
499.87	80.236
500.22	80.416
500.56	81.685
500.91	81.384
501.26	80.210
501.60	80.173
501.95	80.553
502.29	80.195
502.64	78.099
502.98	78.445
503.33	77.783
503.67	79.632
504.02	79.826
504.36	78.172
504.71	79.787
505.06	80.075
505.40	81.823
505.75	79.200
506.09	82.719
506.44	79.775
506.78	80.460
507.13	80.402
507.47	82.438
507.82	80.971
508.16	81.292
508.51	82.166
508.85	80.714
509.19	81.240
509.54	81.586
509.88	80.725
510.23	81.798
510.57	82.396
510.92	82.200
511.26	82.711
511.61	82.021
511.95	82.707
512.30	82.319
512.64	82.053
512.98	82.812
513.33	82.356
513.67	82.156
514.02	83.053
514.36	82.681
514.70	83.667
515.05	83.537
515.39	84.818
515.74	84.273
516.08	84.055
516.42	83.468
516.77	84.969
517.11	81.651
517.46	84.447
517.80	85.258
518.14	83.808
518.49	84.411
518.83	85.344
519.17	84.062
519.52	83.823
519.86	84.927
520.20	82.611
520.55	85.836
520.89	86.235
521.23	85.571
521.58	84.722
521.92	84.980
522.26	85.636
522.61	86.212
522.95	85.479
523.29	84.750
523.64	84.803
523.98	84.140
524.32	85.657
524.66	86.880
525.01	85.911
525.35	84.610
525.69	85.065
526.04	87.526
526.38	86.635
526.72	86.806
527.06	87.764
527.41	87.739
527.75	86.648
528.09	85.785
528.43	84.904
528.78	84.556
529.12	83.288
529.46	84.518
529.80	85.773
530.15	85.754
530.49	86.541
530.83	87.563
531.17	87.641
531.51	87.152
531.86	85.084
532.20	84.848
532.54	86.043
532.88	86.255
533.22	86.494
533.57	84.552
533.91	85.616
534.25	85.404
534.59	87.208
534.93	84.889
535.27	84.108
535.62	84.943
535.96	86.113
536.30	83.786
536.64	86.481
536.98	86.504
537.32	86.384
537.66	84.384
538.01	86.009
538.35	84.800
538.69	84.430
539.03	84.571
539.37	84.709
539.71	86.232
540.05	87.192
540.39	85.330
540.73	85.495
541.07	85.735
541.42	83.464
541.76	84.029
542.10	83.429
542.44	85.838
542.78	84.751
543.12	83.610
543.46	85.022
543.80	83.417
544.14	85.305
544.48	82.035
544.82	84.244
545.16	85.725
545.50	84.934
545.84	83.760
546.18	83.970
546.52	85.703
546.86	84.927
547.20	84.848
547.54	84.534
547.88	81.197
548.22	82.208
548.56	84.778
548.90	81.474
549.24	83.333
549.58	83.532
549.92	82.782
550.26	83.243
550.60	85.726
550.94	84.841
551.28	84.472
551.62	88.452
551.96	85.703
552.30	83.178
552.64	81.968
552.98	82.318
553.32	82.500
553.66	82.322
554.00	83.320
554.34	86.172
554.68	83.892
555.02	84.365
555.36	83.797
555.69	81.322
556.03	81.818
556.37	82.446
556.71	81.976
557.05	84.609
557.39	83.534
557.73	82.154
558.07	82.316
558.41	82.522
558.75	83.817
559.08	86.553
559.42	84.197
559.76	83.235
560.10	84.923
560.44	80.998
560.78	82.044
561.12	81.893
561.45	83.036
561.79	79.222
562.13	79.985
562.47	83.180
562.81	81.577
563.15	79.316
563.48	79.476
563.82	81.004
564.16	80.261
564.50	79.226
564.84	79.802
565.17	80.472
565.51	79.451
565.85	79.225
566.19	80.585
566.52	82.007
566.86	79.986
567.20	80.838
567.54	79.770
567.88	77.973
568.21	77.902
568.55	76.457
568.89	77.033
569.23	75.050
569.56	75.908
569.90	75.418
570.24	73.483
570.57	74.266
570.91	73.399
571.25	72.899
571.59	71.967
571.92	71.566
572.26	70.688
572.60	71.584
572.93	71.578
573.27	70.376
573.61	70.474
573.95	70.891
574.28	69.683
574.62	68.284
574.96	68.918
575.29	69.076
575.63	68.695
575.97	68.638
576.30	69.144
576.64	67.723
576.98	69.405
577.31	69.063
577.65	68.440
577.98	67.401
578.32	67.132
578.66	67.255
578.99	68.570
579.33	67.988
579.67	67.736
580.00	67.394
580.34	67.972
580.67	67.777
581.01	67.049
581.35	66.427
581.68	66.584
582.02	66.610
582.35	66.686
582.69	67.036
583.02	65.969
583.36	66.235
583.70	66.841
584.03	66.778
584.37	67.970
584.70	67.660
585.04	65.599
585.37	66.471
585.71	65.282
586.04	66.986
586.38	67.039
586.72	66.824
587.05	66.223
587.39	66.552
587.72	66.574
588.06	66.050
588.39	66.930
588.73	67.114
589.06	67.249
589.40	66.702
589.73	67.203
590.07	67.906
590.40	67.497
590.73	66.597
591.07	68.745
591.40	68.936
591.74	68.750
592.07	68.434
592.41	69.025
592.74	67.746
593.08	66.905
593.41	66.335
593.75	66.936
594.08	67.036
594.41	67.219
594.75	66.797
595.08	66.108
595.42	64.626
595.75	66.023
596.09	66.813
596.42	65.074
596.75	66.818
597.09	67.071
597.42	66.682
597.75	67.495
598.09	65.309
598.42	67.487
598.76	66.849
599.09	66.008
599.42	64.437
599.76	65.555
600.09	66.350
600.42	63.828
600.76	65.166
601.09	65.961
601.42	64.130
601.76	64.976
602.09	64.600
602.42	66.479
602.76	65.183
603.09	66.449
603.42	66.397
603.76	65.254
604.09	66.541
604.42	65.436
604.76	65.952
605.09	65.612
605.42	65.877
605.75	65.190
606.09	65.467
606.42	65.879
606.75	64.920
607.09	66.278
607.42	65.397
607.75	63.545
608.08	65.996
608.42	65.422
608.75	66.483
609.08	64.816
609.41	66.045
609.75	65.350
610.08	65.116
610.41	66.463
610.74	64.762
611.07	64.675
611.41	64.347
611.74	64.853
612.07	65.290
612.40	65.237
612.73	65.567
613.07	64.885
613.40	65.497
613.73	64.490
614.06	64.520
614.39	65.612
614.72	65.289
615.06	64.466
615.39	64.434
615.72	63.550
616.05	64.522
616.38	65.125
616.71	63.806
617.05	64.573
617.38	64.258
617.71	65.839
618.04	66.229
618.37	65.337
618.70	65.421
619.03	67.585
619.36	66.274
619.69	65.708
620.03	67.429
620.36	66.969
620.69	66.149
621.02	66.587
621.35	67.915
621.68	69.667
622.01	69.251
622.34	65.745
622.67	68.381
623.00	66.257
623.33	66.299
623.66	67.968
623.99	68.102
624.32	66.481
624.65	66.875
624.99	65.547
625.32	66.430
625.65	65.572
625.98	67.917
626.31	68.658
626.64	66.757
626.97	68.658
627.30	68.148
627.63	68.930
627.96	68.250
628.29	68.069
628.62	69.485
628.95	68.743
629.28	69.835
629.61	68.966
629.94	69.295
630.26	69.874
630.59	70.262
630.92	68.282
631.25	71.397
631.58	70.465
631.91	68.907
632.24	70.888
632.57	71.819
632.90	69.619
