SpectraSuite Data File
++++++++++++++++++++++++++++++++++++
Date: Tue May 12 19:53:11 PDT 2015
User: schluterlab
Dark Spectrum Present: Yes
Reference Spectrum Present: Yes
Number of Sampled Component Spectra: 1
Spectrometers: USB2E3373
Integration Time (usec): 3000 (USB2E3373)
Spectra Averaged: 3 (USB2E3373)
Boxcar Smoothing: 0 (USB2E3373)
Correct for Electrical Dark: No (USB2E3373)
Strobe/Lamp Enabled: No (USB2E3373)
Correct for Detector Non-linearity: No (USB2E3373)
Correct for Stray Light: No (USB2E3373)
Number of Pixels in Processed Spectrum: 2048
>>>>>Begin Processed Spectral Data<<<<<
178.53	0.000
178.91	-90.000
179.29	-150.000
179.67	533.333
180.04	0.000
180.42	-280.000
180.80	-766.667
181.18	1000.000
181.56	-450.000
181.94	500.000
182.31	1700.000
182.69	-300.000
183.07	0.000
183.45	300.000
183.83	260.000
184.20	316.667
184.58	1200.000
184.96	433.333
185.34	-466.667
185.72	-64.286
186.09	-316.667
186.47	-1500.000
186.85	-220.000
187.23	316.667
187.61	-285.714
187.98	-320.000
188.36	600.000
188.74	-100.000
189.12	-233.333
189.49	-110.000
189.87	600.000
190.25	155.556
190.63	833.333
191.00	460.000
191.38	-500.000
191.76	540.000
192.14	-200.000
192.51	-130.000
192.89	-80.000
193.27	-220.000
193.65	-333.333
194.02	-250.000
194.40	1900.000
194.78	-237.500
195.15	-314.286
195.53	600.000
195.91	440.000
196.29	-625.000
196.66	-566.667
197.04	-342.857
197.42	160.000
197.79	-275.000
198.17	-125.000
198.55	-1500.000
198.92	-277.778
199.30	900.000
199.68	-375.000
200.05	-900.000
200.43	-72.222
200.81	-191.667
201.18	400.000
201.56	-750.000
201.94	-1700.000
202.31	-175.000
202.69	-111.111
203.07	-116.667
203.44	-325.000
203.82	0.000
204.19	262.500
204.57	-666.667
204.95	254.545
205.32	460.000
205.70	300.000
206.08	-1600.000
206.45	-280.000
206.83	2900.000
207.20	-244.444
207.58	-100.000
207.96	800.000
208.33	1066.667
208.71	1066.667
209.08	750.000
209.46	-144.444
209.84	766.667
210.21	-633.333
210.59	900.000
210.96	366.667
211.34	-275.000
211.71	1100.000
212.09	-280.000
212.46	-325.000
212.84	-275.000
213.22	285.714
213.59	-150.000
213.97	0.000
214.34	-650.000
214.72	-1100.000
215.09	1450.000
215.47	-66.667
215.84	-212.500
216.22	-2100.000
216.59	2200.000
216.97	-141.667
217.34	-333.333
217.72	11.111
218.09	525.000
218.47	-36.842
218.84	-175.000
219.22	-57.143
219.59	-250.000
219.97	-90.000
220.34	400.000
220.72	136.364
221.09	-1200.000
221.47	0.000
221.84	1200.000
222.22	-600.000
222.59	-475.000
222.97	-52.174
223.34	153.333
223.72	385.714
224.09	-233.333
224.46	207.692
224.84	-100.000
225.21	-1150.000
225.59	-775.000
225.96	-15.000
226.34	350.000
226.71	300.000
227.08	-84.615
227.46	-242.857
227.83	-33.333
228.21	-850.000
228.58	233.333
228.95	-57.895
229.33	-31.250
229.70	-300.000
230.08	-266.667
230.45	-933.333
230.82	-2400.000
231.20	-85.714
231.57	-580.000
231.95	-800.000
232.32	300.000
232.69	-1200.000
233.07	-12.500
233.44	-237.500
233.81	9.677
234.19	-480.000
234.56	-100.000
234.93	-416.667
235.31	-14.815
235.68	-29.630
236.05	-65.385
236.43	-89.474
236.80	-104.545
237.17	-207.143
237.55	-110.000
237.92	-30.233
238.29	-48.387
238.67	-46.429
239.04	-51.429
239.41	-27.451
239.79	-18.000
240.16	-30.000
240.53	-15.517
240.91	-15.068
241.28	-8.451
241.65	-7.812
242.02	-31.579
242.40	-14.667
242.77	-11.579
243.14	-10.588
243.51	-5.376
243.89	-19.048
244.26	-13.889
244.63	-9.184
245.00	-14.286
245.38	-17.647
245.75	-5.932
246.12	-3.906
246.49	-17.600
246.87	-9.016
247.24	-0.704
247.61	-3.974
247.98	-0.562
248.36	-8.176
248.73	-0.568
249.10	0.000
249.47	-5.208
249.84	-2.030
250.22	-5.729
250.59	-3.933
250.96	-0.455
251.33	-2.358
251.70	1.835
252.08	3.030
252.45	-1.633
252.82	-5.907
253.19	-1.167
253.56	3.922
253.94	-4.065
254.31	5.755
254.68	-0.694
255.05	1.325
255.42	-0.727
255.79	6.291
256.16	2.431
256.54	3.333
256.91	4.167
257.28	1.299
257.65	0.000
258.02	3.604
258.39	1.511
258.76	-0.917
259.14	-0.588
259.51	4.225
259.88	1.729
260.25	-2.273
260.62	1.685
260.99	0.836
261.36	0.287
261.73	0.267
262.10	3.270
262.47	3.030
262.85	4.113
263.22	0.269
263.59	2.681
263.96	2.350
264.33	-1.887
264.70	1.720
265.07	1.478
265.44	2.342
265.81	0.000
266.18	1.405
266.55	1.429
266.92	5.134
267.29	3.333
267.66	2.955
268.03	2.366
268.40	1.373
268.77	0.891
269.14	2.731
269.51	2.036
269.88	1.496
270.25	2.110
270.62	2.731
270.99	2.105
271.36	0.883
271.73	3.125
272.10	1.867
272.47	-0.400
272.84	-1.911
273.21	0.835
273.58	0.204
273.95	1.992
274.32	2.901
274.69	4.501
275.06	2.064
275.43	-0.400
275.80	1.530
276.17	0.988
276.54	2.852
276.91	1.727
277.28	1.547
277.65	-0.567
278.02	2.841
278.39	3.811
278.76	2.793
279.13	2.862
279.50	1.625
279.87	1.887
280.23	1.821
280.60	-0.353
280.97	1.406
281.34	0.847
281.71	0.178
282.08	0.894
282.45	0.176
282.82	0.337
283.19	1.684
283.56	2.901
283.92	0.474
284.29	2.538
284.66	2.124
285.03	-2.744
285.40	1.667
285.77	1.970
286.14	1.268
286.51	0.643
286.87	0.810
287.24	-0.321
287.61	1.852
287.98	3.912
288.35	2.481
288.72	3.364
289.08	1.101
289.45	3.744
289.82	1.863
290.19	0.606
290.56	3.184
290.93	2.068
291.29	1.986
291.66	2.809
292.03	3.156
292.40	3.741
292.77	2.332
293.13	1.175
293.50	1.102
293.87	2.774
294.24	2.247
294.60	4.781
294.97	1.524
295.34	3.151
295.71	0.555
296.08	1.913
296.44	2.635
296.81	1.552
297.18	3.493
297.55	4.146
297.91	3.680
298.28	2.558
298.65	3.364
299.02	2.959
299.38	2.168
299.75	2.445
300.12	2.758
300.48	4.108
300.85	2.934
301.22	4.207
301.59	3.041
301.95	4.024
302.32	3.159
302.69	1.546
303.05	3.542
303.42	3.623
303.79	2.135
304.15	4.077
304.52	3.464
304.89	3.269
305.25	4.817
305.62	3.864
305.99	3.919
306.35	3.915
306.72	4.466
307.09	3.591
307.45	3.020
307.82	4.696
308.19	5.611
308.55	5.591
308.92	4.767
309.29	5.230
309.65	4.025
310.02	5.765
310.38	4.371
310.75	6.557
311.12	6.511
311.48	7.194
311.85	5.674
312.22	8.161
312.58	6.546
312.95	7.084
313.31	6.981
313.68	7.150
314.05	8.242
314.41	7.171
314.78	6.734
315.14	8.619
315.51	9.831
315.87	10.254
316.24	9.990
316.61	11.068
316.97	9.608
317.34	11.196
317.70	11.765
318.07	11.861
318.43	11.342
318.80	11.293
319.16	12.116
319.53	12.264
319.89	13.352
320.26	13.569
320.62	13.953
320.99	14.490
321.35	15.316
321.72	15.960
322.08	16.238
322.45	15.680
322.81	15.961
323.18	17.546
323.54	18.673
323.91	17.932
324.27	16.490
324.64	18.369
325.00	17.561
325.37	20.144
325.73	18.522
326.10	19.702
326.46	20.308
326.83	21.372
327.19	21.747
327.56	21.662
327.92	21.007
328.29	21.774
328.65	23.258
329.01	23.394
329.38	23.875
329.74	23.863
330.11	23.579
330.47	23.929
330.84	24.530
331.20	24.584
331.56	23.868
331.93	23.696
332.29	23.959
332.66	25.588
333.02	24.884
333.38	25.276
333.75	25.892
334.11	24.864
334.48	25.134
334.84	24.319
335.20	24.888
335.57	27.975
335.93	26.326
336.29	26.143
336.66	26.503
337.02	25.657
337.38	26.887
337.75	26.364
338.11	26.527
338.47	27.855
338.84	26.427
339.20	28.048
339.56	26.375
339.93	27.027
340.29	27.471
340.65	27.215
341.02	25.864
341.38	28.332
341.74	27.402
342.11	26.967
342.47	26.486
342.83	26.366
343.20	28.117
343.56	27.797
343.92	27.734
344.28	26.758
344.65	26.969
345.01	28.397
345.37	27.521
345.73	27.390
346.10	28.868
346.46	27.092
346.82	27.273
347.19	28.848
347.55	28.741
347.91	28.256
348.27	29.570
348.63	29.473
349.00	30.050
349.36	30.173
349.72	29.310
350.08	30.115
350.45	29.373
350.81	29.232
351.17	28.501
351.53	28.261
351.89	30.397
352.26	30.407
352.62	30.008
352.98	30.126
353.34	29.825
353.70	28.807
354.07	31.384
354.43	29.633
354.79	29.754
355.15	29.379
355.51	30.970
355.87	32.556
356.24	32.435
356.60	31.720
356.96	30.964
357.32	33.333
357.68	32.140
358.04	31.037
358.40	31.424
358.77	32.129
359.13	33.092
359.49	32.480
359.85	34.213
360.21	32.593
360.57	32.616
360.93	34.283
361.29	35.047
361.66	33.912
362.02	34.223
362.38	33.877
362.74	34.589
363.10	34.012
363.46	34.913
363.82	34.150
364.18	34.065
364.54	34.809
364.90	35.481
365.26	36.364
365.62	36.790
365.98	35.757
366.35	36.687
366.71	36.221
367.07	37.196
367.43	35.523
367.79	37.064
368.15	36.990
368.51	37.453
368.87	37.739
369.23	38.456
369.59	37.059
369.95	38.674
370.31	39.621
370.67	38.872
371.03	40.093
371.39	40.634
371.75	39.896
372.11	39.481
372.47	39.644
372.83	41.563
373.19	40.512
373.55	41.243
373.91	41.667
374.27	41.354
374.63	41.973
374.99	42.020
375.35	41.800
375.71	41.750
376.07	42.827
376.42	41.978
376.78	43.554
377.14	43.645
377.50	43.639
377.86	44.986
378.22	43.989
378.58	44.671
378.94	44.335
379.30	44.916
379.66	44.622
380.02	46.408
380.38	47.646
380.74	46.240
381.09	47.586
381.45	48.063
381.81	47.832
382.17	48.208
382.53	49.178
382.89	48.493
383.25	47.622
383.61	49.142
383.97	50.942
384.32	48.968
384.68	49.553
385.04	49.650
385.40	50.607
385.76	50.285
386.12	50.297
386.48	51.859
386.83	51.613
387.19	52.043
387.55	51.878
387.91	51.526
388.27	51.759
388.62	54.339
388.98	54.071
389.34	53.221
389.70	55.833
390.06	55.578
390.42	56.660
390.77	56.405
391.13	56.344
391.49	56.402
391.85	56.354
392.20	57.096
392.56	55.927
392.92	57.514
393.28	57.211
393.64	58.075
393.99	59.091
394.35	56.587
394.71	57.947
395.07	59.416
395.42	58.476
395.78	58.468
396.14	60.626
396.50	59.573
396.85	59.947
397.21	58.344
397.57	60.500
397.92	61.260
398.28	61.151
398.64	60.889
399.00	60.650
399.35	63.013
399.71	62.335
400.07	63.434
400.42	62.692
400.78	62.060
401.14	63.194
401.49	62.898
401.85	64.317
402.21	63.959
402.57	63.232
402.92	65.471
403.28	66.060
403.63	66.154
403.99	65.324
404.35	65.223
404.70	65.801
405.06	66.770
405.42	66.428
405.77	65.220
406.13	64.934
406.49	67.129
406.84	67.746
407.20	66.419
407.55	67.335
407.91	68.182
408.27	68.285
408.62	67.010
408.98	69.498
409.34	68.758
409.69	67.425
410.05	67.487
410.40	68.722
410.76	69.489
411.11	70.071
411.47	68.912
411.83	69.414
412.18	70.942
412.54	69.793
412.89	70.078
413.25	71.285
413.60	70.408
413.96	70.550
414.31	70.108
414.67	71.978
415.03	70.678
415.38	75.070
415.74	72.263
416.09	72.846
416.45	74.098
416.80	73.713
417.16	73.061
417.51	73.144
417.87	73.529
418.22	74.733
418.58	75.605
418.93	73.179
419.29	74.966
419.64	78.091
420.00	75.442
420.35	75.016
420.71	75.800
421.06	76.898
421.42	75.345
421.77	76.614
422.12	75.960
422.48	76.471
422.83	78.116
423.19	77.882
423.54	76.420
423.90	78.245
424.25	79.154
424.61	77.613
424.96	78.194
425.31	80.374
425.67	79.879
426.02	79.193
426.38	79.151
426.73	79.875
427.09	80.499
427.44	81.111
427.79	81.683
428.15	80.089
428.50	80.339
428.85	79.795
429.21	81.231
429.56	80.663
429.92	81.125
430.27	81.067
430.62	80.855
430.98	79.635
431.33	82.481
431.68	82.440
432.04	82.911
432.39	81.581
432.74	81.467
433.10	83.808
433.45	83.914
433.80	83.690
434.16	82.739
434.51	84.058
434.86	83.867
435.22	81.781
435.57	85.092
435.92	84.272
436.28	82.877
436.63	83.423
436.98	84.753
437.34	85.988
437.69	85.123
438.04	84.976
438.39	87.010
438.75	83.385
439.10	87.798
439.45	87.035
439.81	84.190
440.16	86.395
440.51	83.705
440.86	85.606
441.22	84.991
441.57	84.615
441.92	86.582
442.27	86.229
442.63	86.964
442.98	87.592
443.33	84.019
443.68	85.857
444.03	85.412
444.39	87.194
444.74	86.835
445.09	89.492
445.44	87.872
445.79	87.163
446.15	87.464
446.50	88.028
446.85	88.284
447.20	87.090
447.55	85.457
447.91	86.831
448.26	88.665
448.61	87.492
448.96	88.114
449.31	86.799
449.66	85.472
450.02	86.568
450.37	86.330
450.72	85.996
451.07	88.926
451.42	88.735
451.77	86.129
452.12	85.652
452.47	87.127
452.83	88.667
453.18	88.926
453.53	87.916
453.88	87.875
454.23	85.751
454.58	89.164
454.93	85.082
455.28	87.305
455.63	88.499
455.98	87.437
456.34	88.681
456.69	88.829
457.04	87.467
457.39	86.704
457.74	87.547
458.09	87.430
458.44	87.186
458.79	86.455
459.14	86.047
459.49	85.860
459.84	87.039
460.19	87.179
460.54	86.932
460.89	86.235
461.24	87.857
461.59	87.066
461.94	86.785
462.29	84.586
462.64	85.933
462.99	87.600
463.34	87.839
463.69	87.311
464.04	86.273
464.39	87.138
464.74	85.594
465.09	85.531
465.44	85.543
465.79	85.499
466.14	85.800
466.49	84.771
466.84	85.688
467.19	84.925
467.54	82.958
467.89	85.108
468.24	84.785
468.59	84.031
468.94	86.416
469.29	86.367
469.64	86.506
469.99	84.932
470.34	86.634
470.68	84.769
471.03	84.599
471.38	86.238
471.73	87.427
472.08	85.480
472.43	87.137
472.78	85.714
473.13	86.035
473.48	86.722
473.83	85.337
474.17	84.390
474.52	85.800
474.87	85.480
475.22	83.926
475.57	84.136
475.92	84.650
476.27	83.665
476.61	86.407
476.96	86.248
477.31	85.788
477.66	84.370
478.01	85.109
478.36	85.100
478.70	86.423
479.05	85.490
479.40	85.572
479.75	86.315
480.10	85.390
480.45	85.183
480.79	84.639
481.14	84.344
481.49	84.936
481.84	85.808
482.19	83.317
482.53	84.804
482.88	84.748
483.23	85.025
483.58	84.653
483.92	84.070
484.27	83.059
484.62	83.451
484.97	81.722
485.31	81.593
485.66	79.704
486.01	78.489
486.36	79.878
486.70	81.676
487.05	81.994
487.40	81.585
487.75	80.847
488.09	80.514
488.44	80.587
488.79	81.116
489.13	82.336
489.48	80.389
489.83	82.339
490.17	83.826
490.52	81.549
490.87	84.224
491.22	83.481
491.56	82.905
491.91	82.480
492.26	83.988
492.60	82.908
492.95	83.522
493.30	85.050
493.64	83.874
493.99	85.164
494.34	83.578
494.68	82.607
495.03	82.201
495.37	82.818
495.72	82.331
496.07	83.621
496.41	82.164
496.76	81.089
497.11	82.816
497.45	82.421
497.80	82.658
498.14	81.521
498.49	82.114
498.84	82.285
499.18	80.799
499.53	82.243
499.87	82.181
500.22	82.701
500.56	82.365
500.91	83.325
501.26	83.097
501.60	80.683
501.95	84.033
502.29	82.145
502.64	80.936
502.98	80.818
503.33	80.729
503.67	79.990
504.02	81.103
504.36	79.918
504.71	80.904
505.06	82.432
505.40	82.306
505.75	80.463
506.09	81.907
506.44	82.725
506.78	80.460
507.13	82.519
507.47	82.604
507.82	82.924
508.16	82.795
508.51	82.330
508.85	81.923
509.19	82.063
509.54	82.776
509.88	83.487
510.23	82.247
510.57	82.680
510.92	82.596
511.26	82.424
511.61	82.648
511.95	82.071
512.30	82.203
512.64	81.760
512.98	83.107
513.33	80.481
513.67	81.916
514.02	83.293
514.36	83.808
514.70	82.757
515.05	82.378
515.39	84.316
515.74	85.276
516.08	83.490
516.42	83.717
516.77	84.720
517.11	83.303
517.46	83.760
517.80	85.322
518.14	84.124
518.49	84.929
518.83	84.630
519.17	83.805
519.52	82.136
519.86	83.724
520.20	84.650
520.55	85.183
520.89	87.449
521.23	84.836
521.58	85.714
521.92	84.846
522.26	86.323
522.61	86.212
522.95	85.137
523.29	84.076
523.64	84.600
523.98	82.728
524.32	83.973
524.66	84.568
525.01	84.948
525.35	85.021
525.69	84.721
526.04	88.372
526.38	84.441
526.72	85.000
527.06	87.904
527.41	85.330
527.75	85.930
528.09	84.371
528.43	86.322
528.78	85.395
529.12	84.178
529.46	81.196
529.80	83.390
530.15	85.893
530.49	83.124
530.83	85.900
531.17	82.345
531.51	84.297
531.86	82.213
532.20	83.333
532.54	83.237
532.88	83.200
533.22	84.986
533.57	81.517
533.91	84.515
534.25	81.874
534.59	84.250
534.93	82.404
535.27	83.232
535.62	81.229
535.96	83.322
536.30	81.768
536.64	81.474
536.98	82.670
537.32	85.417
537.66	80.645
538.01	83.137
538.35	82.327
538.69	78.344
539.03	80.101
539.37	81.981
539.71	82.174
540.05	82.562
540.39	80.610
540.73	81.465
541.07	81.985
541.42	79.686
541.76	82.014
542.10	80.775
542.44	80.780
542.78	80.205
543.12	80.433
543.46	80.775
543.80	80.486
544.14	80.717
544.48	79.298
544.82	79.631
545.16	81.304
545.50	80.640
545.84	79.810
546.18	82.247
546.52	81.245
546.86	79.572
547.20	80.530
547.54	80.288
547.88	79.274
548.22	78.481
548.56	80.056
548.90	79.228
549.24	78.143
549.58	79.210
549.92	78.947
550.26	80.541
550.60	81.761
550.94	80.794
551.28	79.268
551.62	79.279
551.96	79.073
552.30	78.837
552.64	79.489
552.98	78.529
553.32	78.106
553.66	77.466
554.00	79.691
554.34	79.063
554.68	78.469
555.02	79.127
555.36	78.475
555.69	76.787
556.03	75.905
556.37	76.069
556.71	76.697
557.05	78.047
557.39	78.635
557.73	77.044
558.07	77.856
558.41	75.419
558.75	77.012
559.08	79.660
559.42	78.010
559.76	77.254
560.10	76.121
560.44	75.930
560.78	76.409
561.12	77.310
561.45	77.381
561.79	75.257
562.13	75.019
562.47	76.376
562.81	75.284
563.15	74.449
563.48	74.457
563.82	76.492
564.16	73.948
564.50	73.281
564.84	72.927
565.17	74.821
565.51	74.666
565.85	74.437
566.19	74.043
566.52	74.552
566.86	73.702
567.20	73.586
567.54	72.623
567.88	71.420
568.21	73.095
568.55	71.364
568.89	71.813
569.23	69.478
569.56	68.276
569.90	69.122
570.24	68.046
570.57	67.645
570.91	67.613
571.25	67.287
571.59	66.033
571.92	64.837
572.26	64.826
572.60	65.234
572.93	65.226
573.27	65.120
573.61	64.872
573.95	64.639
574.28	64.193
574.62	63.093
574.96	63.364
575.29	63.191
575.63	62.450
575.97	62.255
576.30	62.811
576.64	62.514
576.98	63.270
577.31	63.754
577.65	63.192
577.98	62.535
578.32	61.918
578.66	61.720
578.99	62.980
579.33	61.928
579.67	61.528
580.00	61.397
580.34	61.769
580.67	61.368
581.01	61.345
581.35	60.772
581.68	60.329
582.02	60.985
582.35	61.168
582.69	61.522
583.02	61.394
583.36	61.004
583.70	61.271
584.03	61.436
584.37	62.061
584.70	61.277
585.04	60.215
585.37	60.005
585.71	60.146
586.04	61.445
586.38	62.081
586.72	61.554
587.05	61.609
587.39	60.953
587.72	61.378
588.06	61.312
588.39	61.788
588.73	60.806
589.06	60.791
589.40	61.668
589.73	61.818
590.07	61.285
590.40	61.250
590.73	63.265
591.07	62.078
591.40	61.489
591.74	62.453
592.07	62.846
592.41	62.746
592.74	62.292
593.08	60.594
593.41	60.884
593.75	60.600
594.08	61.208
594.41	61.115
594.75	60.493
595.08	60.031
595.42	61.021
595.75	60.379
596.09	60.809
596.42	60.761
596.75	61.364
597.09	60.494
597.42	60.160
597.75	62.336
598.09	59.644
598.42	59.820
598.76	59.927
599.09	60.210
599.42	58.497
599.76	59.553
600.09	59.589
600.42	57.930
600.76	58.353
601.09	58.157
601.42	58.172
601.76	58.766
602.09	59.279
602.42	59.357
602.76	59.860
603.09	59.225
603.42	59.242
603.76	58.875
604.09	58.104
604.42	57.664
604.76	58.923
605.09	58.668
605.42	59.858
605.75	58.154
606.09	58.400
606.42	57.612
606.75	57.726
607.09	58.069
607.42	57.916
607.75	58.173
608.08	58.700
608.42	57.614
608.75	59.330
609.08	57.042
609.41	57.906
609.75	59.610
610.08	57.416
610.41	58.219
610.74	57.937
611.07	57.589
611.41	57.976
611.74	57.726
612.07	57.533
612.40	57.994
612.73	58.449
613.07	58.837
613.40	57.964
613.73	58.763
614.06	58.255
614.39	58.758
614.72	58.796
615.06	57.520
615.39	57.564
615.72	55.431
616.05	57.797
616.38	56.524
616.71	56.032
617.05	56.721
617.38	57.290
617.71	58.328
618.04	58.476
618.37	58.208
618.70	58.356
619.03	59.898
619.36	58.689
619.69	57.543
620.03	59.725
620.36	59.788
620.69	57.724
621.02	59.224
621.35	59.745
621.68	61.386
622.01	59.626
622.34	59.045
622.67	59.106
623.00	58.477
623.33	57.874
623.66	59.283
623.99	59.569
624.32	58.380
624.65	58.438
624.99	57.578
625.32	57.583
625.65	56.525
625.98	60.167
626.31	57.316
626.64	60.811
626.97	60.846
627.30	60.370
627.63	58.233
627.96	58.473
628.29	58.987
628.62	59.072
628.95	60.190
629.28	59.298
629.61	57.471
629.94	59.336
630.26	59.728
630.59	59.267
630.92	57.956
631.25	60.000
631.58	60.698
631.91	59.795
632.24	62.485
632.57	61.831
632.90	61.132
633.23	62.839
633.56	60.503
633.89	61.741
634.22	61.282
