SpectraSuite Data File
++++++++++++++++++++++++++++++++++++
Date: Tue May 12 19:52:26 PDT 2015
User: schluterlab
Dark Spectrum Present: Yes
Reference Spectrum Present: Yes
Number of Sampled Component Spectra: 1
Spectrometers: USB2E3373
Integration Time (usec): 3000 (USB2E3373)
Spectra Averaged: 3 (USB2E3373)
Boxcar Smoothing: 0 (USB2E3373)
Correct for Electrical Dark: No (USB2E3373)
Strobe/Lamp Enabled: No (USB2E3373)
Correct for Detector Non-linearity: No (USB2E3373)
Correct for Stray Light: No (USB2E3373)
Number of Pixels in Processed Spectrum: 2048
>>>>>Begin Processed Spectral Data<<<<<
178.53	0.000
178.91	-280.000
179.29	-266.667
179.67	733.333
180.04	0.000
180.42	-300.000
180.80	-700.000
181.18	950.000
181.56	-1100.000
181.94	450.000
182.31	3100.000
182.69	-185.714
183.07	0.000
183.45	266.667
183.83	600.000
184.20	333.333
184.58	1200.000
184.96	433.333
185.34	-566.667
185.72	-71.429
186.09	-200.000
186.47	-1500.000
186.85	-100.000
187.23	191.667
187.61	-300.000
187.98	-540.000
188.36	1100.000
188.74	-475.000
189.12	-144.444
189.49	-220.000
189.87	500.000
190.25	355.556
190.63	666.667
191.00	500.000
191.38	-533.333
191.76	380.000
192.14	-157.143
192.51	-150.000
192.89	-120.000
193.27	-240.000
193.65	-700.000
194.02	-316.667
194.40	600.000
194.78	-175.000
195.15	-328.571
195.53	733.333
195.91	520.000
196.29	-700.000
196.66	-600.000
197.04	-328.571
197.42	440.000
197.79	-350.000
198.17	-191.667
198.55	-1700.000
198.92	-200.000
199.30	1150.000
199.68	-350.000
200.05	-1000.000
200.43	-11.111
200.81	-141.667
201.18	533.333
201.56	-850.000
201.94	-1100.000
202.31	-83.333
202.69	-66.667
203.07	-100.000
203.44	-700.000
203.82	0.000
204.19	212.500
204.57	-866.667
204.95	254.545
205.32	540.000
205.70	650.000
206.08	-700.000
206.45	-260.000
206.83	2300.000
207.20	-244.444
207.58	-84.615
207.96	633.333
208.33	666.667
208.71	566.667
209.08	1200.000
209.46	-77.778
209.84	1300.000
210.21	-1100.000
210.59	800.000
210.96	244.444
211.34	-575.000
211.71	1750.000
212.09	-240.000
212.46	-412.500
212.84	-350.000
213.22	242.857
213.59	-162.500
213.97	0.000
214.34	-800.000
214.72	-2200.000
215.09	1650.000
215.47	-53.333
215.84	-237.500
216.22	-1700.000
216.59	2200.000
216.97	-66.667
217.34	-233.333
217.72	-44.444
218.09	425.000
218.47	-84.211
218.84	-275.000
219.22	-142.857
219.59	-120.000
219.97	-100.000
220.34	450.000
220.72	181.818
221.09	-1250.000
221.47	0.000
221.84	900.000
222.22	-325.000
222.59	-500.000
222.97	-30.435
223.34	220.000
223.72	542.857
224.09	-333.333
224.46	223.077
224.84	-80.000
225.21	-1300.000
225.59	-625.000
225.96	0.000
226.34	450.000
226.71	220.000
227.08	-123.077
227.46	-300.000
227.83	-108.333
228.21	-1300.000
228.58	366.667
228.95	-73.684
229.33	-100.000
229.70	-350.000
230.08	-233.333
230.45	-700.000
230.82	-1700.000
231.20	-90.476
231.57	-520.000
231.95	-833.333
232.32	288.889
232.69	-1250.000
233.07	-93.750
233.44	-200.000
233.81	-25.806
234.19	-380.000
234.56	-111.111
234.93	-416.667
235.31	0.000
235.68	-70.370
236.05	-76.923
236.43	-115.789
236.80	-63.636
237.17	-235.714
237.55	-125.000
237.92	-20.930
238.29	-67.742
238.67	-60.714
239.04	-51.429
239.41	-31.373
239.79	-32.000
240.16	-55.000
240.53	-46.552
240.91	-28.767
241.28	-23.944
241.65	-14.062
242.02	-38.596
242.40	-34.667
242.77	-10.526
243.14	-8.235
243.51	-18.280
243.89	-15.238
244.26	2.778
244.63	-24.490
245.00	-16.964
245.38	-15.126
245.75	-11.017
246.12	-7.813
246.49	-10.400
246.87	-14.754
247.24	-21.127
247.61	-7.285
247.98	-7.303
248.36	-6.918
248.73	-9.091
249.10	-8.889
249.47	-7.812
249.84	-7.107
250.22	-5.208
250.59	-10.112
250.96	-8.636
251.33	-3.774
251.70	-3.211
252.08	-3.463
252.45	-3.673
252.82	-13.924
253.19	-5.447
253.56	-0.392
253.94	-3.659
254.31	1.439
254.68	-5.208
255.05	0.993
255.42	-5.455
255.79	-0.331
256.16	-5.903
256.54	-0.303
256.91	-0.641
257.28	-2.922
257.65	-5.246
258.02	-1.502
258.39	0.604
258.76	-1.529
259.14	-5.588
259.51	-0.282
259.88	-1.729
260.25	-2.557
260.62	-2.809
260.99	-0.836
261.36	-3.161
261.73	-0.800
262.10	-1.090
262.47	-0.551
262.85	1.285
263.22	-3.495
263.59	-0.268
263.96	1.567
264.33	-5.660
264.70	-0.491
265.07	-2.956
265.44	3.044
265.81	3.373
266.18	-1.874
266.55	-0.952
266.92	0.000
267.29	1.111
267.66	-5.000
268.03	1.290
268.40	-3.204
268.77	-1.336
269.14	0.630
269.51	-1.584
269.88	0.427
270.25	-1.266
270.62	1.681
270.99	-1.684
271.36	-0.662
271.73	-0.417
272.10	-0.207
272.47	0.200
272.84	-2.972
273.21	-1.670
273.58	0.000
273.95	0.199
274.32	0.000
274.69	0.978
275.06	-1.126
275.43	-1.800
275.80	0.000
276.17	-2.372
276.54	3.992
276.91	0.960
277.28	0.580
277.65	-0.756
278.02	0.758
278.39	2.541
278.76	1.490
279.13	0.894
279.50	0.542
279.87	-0.377
280.23	1.457
280.60	-0.883
280.97	0.176
281.34	0.508
281.71	-1.599
282.08	-0.894
282.45	1.235
282.82	0.168
283.19	-1.010
283.56	1.024
283.92	-0.474
284.29	0.508
284.66	-1.770
285.03	-1.372
285.40	0.000
285.77	-0.164
286.14	-0.634
286.51	0.965
286.87	1.135
287.24	-2.885
287.61	-0.154
287.98	3.286
288.35	1.395
288.72	1.529
289.08	-0.629
289.45	-0.780
289.82	-0.621
290.19	-0.303
290.56	2.750
290.93	1.625
291.29	0.993
291.66	0.421
292.03	1.578
292.40	0.144
292.77	-2.041
293.13	-1.028
293.50	1.102
293.87	1.803
294.24	0.843
294.60	1.503
294.97	-0.277
295.34	0.548
295.71	-0.971
296.08	1.366
296.44	1.581
296.81	0.000
297.18	1.294
297.55	1.508
297.91	1.777
298.28	-1.535
298.65	0.129
299.02	1.850
299.38	1.020
299.75	1.673
300.12	1.918
300.48	1.643
300.85	0.489
301.22	0.361
301.59	0.487
301.95	0.976
302.32	-0.122
302.69	1.189
303.05	0.236
303.42	0.121
303.79	-0.337
304.15	1.586
304.52	1.117
304.89	0.451
305.25	0.573
305.62	0.795
305.99	-0.336
306.35	0.783
306.72	0.545
307.09	0.109
307.45	-0.216
307.82	1.387
308.19	1.210
308.55	1.266
308.92	0.318
309.29	0.209
309.65	1.135
310.02	1.992
310.38	1.279
310.75	0.615
311.12	1.017
311.48	2.261
311.85	-0.507
312.22	1.033
312.58	0.906
312.95	1.232
313.31	0.787
313.68	1.390
314.05	1.390
314.41	1.277
314.78	-0.603
315.14	1.469
315.51	2.880
315.87	1.465
316.24	1.286
316.61	1.650
316.97	0.490
317.34	1.531
317.70	1.027
318.07	0.193
318.43	1.985
318.80	2.459
319.16	1.678
319.53	1.887
319.89	2.178
320.26	0.983
320.62	1.647
320.99	1.122
321.35	1.976
321.72	2.323
322.08	2.574
322.45	1.381
322.81	3.153
323.18	2.493
323.54	2.559
323.91	2.372
324.27	1.061
324.64	1.500
325.00	3.094
325.37	2.248
325.73	1.551
326.10	2.715
326.46	2.176
326.83	1.759
327.19	2.445
327.56	2.829
327.92	1.215
328.29	1.613
328.65	2.825
329.01	0.367
329.38	1.286
329.74	2.971
330.11	1.398
330.47	1.304
330.84	1.222
331.20	1.201
331.56	1.226
331.93	1.281
332.29	2.128
332.66	2.351
333.02	2.786
333.38	2.849
333.75	2.104
334.11	2.351
334.48	2.057
334.84	1.784
335.20	1.791
335.57	3.451
335.93	0.837
336.29	2.011
336.66	2.277
337.02	2.448
337.38	1.887
337.75	3.545
338.11	2.735
338.47	2.414
338.84	1.565
339.20	2.291
339.56	1.398
339.93	2.162
340.29	2.901
340.65	2.466
341.02	3.012
341.38	3.177
341.74	3.470
342.11	1.945
342.47	1.661
342.83	2.255
343.20	1.326
343.56	2.185
343.92	1.750
344.28	1.372
344.65	1.884
345.01	2.003
345.37	2.821
345.73	1.464
346.10	2.593
346.46	0.690
346.82	2.549
347.19	1.682
347.55	2.466
347.91	1.556
348.27	2.190
348.63	2.334
349.00	1.920
349.36	2.968
349.72	3.366
350.08	2.946
350.45	1.871
350.81	2.395
351.17	2.142
351.53	2.013
351.89	1.468
352.26	1.870
352.62	2.126
352.98	2.176
353.34	2.256
353.70	1.481
354.07	2.554
354.43	1.169
354.79	2.131
355.15	1.533
355.51	2.526
355.87	1.415
356.24	2.533
356.60	1.252
356.96	2.054
357.32	2.469
357.68	3.023
358.04	1.702
358.40	1.637
358.77	2.570
359.13	2.892
359.49	1.840
359.85	3.118
360.21	1.269
360.57	1.515
360.93	1.108
361.29	1.713
361.66	1.341
362.02	1.884
362.38	2.486
362.74	2.229
363.10	1.735
363.46	2.333
363.82	2.680
364.18	2.195
364.54	3.130
364.90	1.481
365.26	2.161
365.62	1.060
365.98	2.174
366.35	2.496
366.71	2.539
367.07	2.583
367.43	1.661
367.79	1.599
368.15	1.631
368.51	2.472
368.87	2.790
369.23	2.498
369.59	1.985
369.95	1.937
370.31	1.136
370.67	2.105
371.03	2.322
371.39	2.644
371.75	1.932
372.11	2.074
372.47	2.004
372.83	2.045
373.19	1.280
373.55	1.572
373.91	2.121
374.27	2.723
374.63	1.694
374.99	1.464
375.35	0.798
375.71	1.937
376.07	3.180
376.42	2.144
376.78	1.812
377.14	3.142
377.50	2.873
377.86	2.437
378.22	1.585
378.58	1.974
378.94	2.554
379.30	1.995
379.66	2.497
380.02	2.479
380.38	2.481
380.74	2.672
381.09	2.097
381.45	1.968
381.81	2.360
382.17	2.997
382.53	2.170
382.89	2.309
383.25	2.029
383.61	1.335
383.97	2.014
384.32	2.129
384.68	2.107
385.04	1.464
385.40	2.045
385.76	2.087
386.12	2.838
386.48	1.696
386.83	2.238
387.19	1.469
387.55	1.490
387.91	1.558
388.27	1.855
388.62	1.943
388.98	2.099
389.34	1.496
389.70	1.731
390.06	2.838
390.42	2.028
390.77	1.610
391.13	2.147
391.49	2.291
391.85	1.530
392.20	2.508
392.56	1.179
392.92	2.103
393.28	2.095
393.64	1.963
393.99	1.688
394.35	1.622
394.71	2.185
395.07	1.592
395.42	2.159
395.78	0.806
396.14	1.466
396.50	3.105
396.85	1.917
397.21	2.070
397.57	1.909
397.92	2.672
398.28	1.679
398.64	1.968
399.00	1.973
399.35	2.227
399.71	2.695
400.07	1.915
400.42	2.821
400.78	2.175
401.14	2.146
401.49	2.311
401.85	2.413
402.21	1.967
402.57	1.610
402.92	1.660
403.28	1.756
403.63	2.308
403.99	1.585
404.35	2.038
404.70	2.280
405.06	2.480
405.42	2.212
405.77	2.556
406.13	1.732
406.49	0.757
406.84	2.304
407.20	1.735
407.55	2.204
407.91	1.329
408.27	2.859
408.62	1.801
408.98	2.896
409.34	1.985
409.69	1.806
410.05	2.396
410.40	1.606
410.76	2.055
411.11	1.357
411.47	2.109
411.83	2.061
412.18	1.702
412.54	1.423
412.89	1.425
413.25	2.508
413.60	2.168
413.96	2.395
414.31	1.338
414.67	1.958
415.03	1.660
415.38	1.811
415.74	2.418
416.09	1.861
416.45	1.911
416.80	0.904
417.16	1.763
417.51	2.568
417.87	2.052
418.22	1.872
418.58	1.382
418.93	2.192
419.29	1.493
419.64	2.473
420.00	2.554
420.35	2.072
420.71	2.113
421.06	1.493
421.42	1.945
421.77	2.801
422.12	2.481
422.48	2.741
422.83	2.614
423.19	2.412
423.54	2.138
423.90	1.174
424.25	2.115
424.61	1.484
424.96	2.088
425.31	2.536
425.67	1.576
426.02	1.304
426.38	1.609
426.73	1.994
427.09	1.445
427.44	1.914
427.79	3.960
428.15	2.156
428.50	1.884
428.85	1.860
429.21	3.288
429.56	2.099
429.92	2.326
430.27	1.387
430.62	2.380
430.98	2.526
431.33	2.280
431.68	2.298
432.04	2.014
432.39	2.496
432.74	1.834
433.10	2.062
433.45	1.900
433.80	2.440
434.16	2.532
434.51	2.843
434.86	2.719
435.22	2.503
435.57	2.177
435.92	1.858
436.28	1.619
436.63	2.803
436.98	1.975
437.34	2.111
437.69	1.420
438.04	1.683
438.39	1.371
438.75	2.031
439.10	3.155
439.45	2.311
439.81	2.095
440.16	1.422
440.51	2.230
440.86	2.399
441.22	1.965
441.57	2.792
441.92	2.098
442.27	2.400
442.63	1.862
442.98	2.567
443.33	3.055
443.68	2.718
444.03	2.113
444.39	2.343
444.74	1.717
445.09	2.597
445.44	2.624
445.79	2.373
446.15	2.216
446.50	2.082
446.85	2.750
447.20	2.133
447.55	1.745
447.91	2.881
448.26	2.315
448.61	2.659
448.96	3.016
449.31	2.049
449.66	2.179
450.02	2.426
450.37	2.552
450.72	2.633
451.07	2.175
451.42	3.096
451.77	2.396
452.12	2.632
452.47	2.168
452.83	3.362
453.18	2.093
453.53	2.874
453.88	2.936
454.23	2.684
454.58	2.611
454.93	0.886
455.28	2.580
455.63	1.754
455.98	2.411
456.34	2.344
456.69	1.828
457.04	2.231
457.39	2.871
457.74	2.339
458.09	1.867
458.44	3.066
458.79	2.356
459.14	3.518
459.49	2.357
459.84	2.675
460.19	2.877
460.54	1.705
460.89	2.647
461.24	2.468
461.59	3.407
461.94	2.630
462.29	3.008
462.64	2.228
462.99	2.466
463.34	3.297
463.69	2.606
464.04	2.309
464.39	2.572
464.74	2.531
465.09	3.215
465.44	3.059
465.79	2.407
466.14	2.864
466.49	3.093
466.84	3.071
467.19	2.989
467.54	1.658
467.89	2.743
468.24	3.093
468.59	2.683
468.94	2.555
469.29	2.699
469.64	2.699
469.99	2.379
470.34	1.202
470.68	2.846
471.03	2.555
471.38	2.244
471.73	2.471
472.08	3.132
472.43	2.766
472.78	2.175
473.13	4.140
473.48	2.628
473.83	3.038
474.17	2.468
474.52	2.277
474.87	3.157
475.22	2.795
475.57	3.525
475.92	2.103
476.27	2.411
476.61	3.487
476.96	2.786
477.31	2.683
477.66	3.254
478.01	2.472
478.36	3.152
478.70	3.718
479.05	2.496
479.40	3.096
479.75	2.524
480.10	3.193
480.45	2.827
480.79	3.321
481.14	3.163
481.49	3.085
481.84	2.727
482.19	2.780
482.53	3.088
482.88	2.847
483.23	3.216
483.58	2.574
483.92	2.764
484.27	2.565
484.62	3.442
484.97	2.724
485.31	2.978
485.66	2.870
486.01	3.335
486.36	2.942
486.70	3.285
487.05	3.065
487.40	3.259
487.75	3.235
488.09	2.976
488.44	3.006
488.79	3.326
489.13	3.034
489.48	2.650
489.83	3.236
490.17	3.329
490.52	2.820
490.87	3.264
491.22	3.649
491.56	3.508
491.91	3.163
492.26	3.417
492.60	3.367
492.95	2.721
493.30	2.666
493.64	3.144
493.99	3.234
494.34	3.649
494.68	3.221
495.03	2.941
495.37	3.396
495.72	3.006
496.07	2.535
496.41	3.014
496.76	2.674
497.11	3.003
497.45	3.666
497.80	3.011
498.14	3.062
498.49	3.203
498.84	2.883
499.18	3.166
499.53	3.167
499.87	3.123
500.22	2.753
500.56	3.244
500.91	4.510
501.26	3.517
501.60	3.976
501.95	2.968
502.29	3.181
502.64	2.887
502.98	2.877
503.33	3.744
503.67	3.114
504.02	3.371
504.36	2.979
504.71	3.404
505.06	3.482
505.40	3.217
505.75	3.265
506.09	3.250
506.44	3.863
506.78	2.623
507.13	2.932
507.47	3.102
507.82	2.958
508.16	2.617
508.51	3.720
508.85	2.967
509.19	3.730
509.54	3.569
509.88	2.301
510.23	3.483
510.57	2.669
510.92	2.834
511.26	3.102
511.61	3.425
511.95	3.412
512.30	4.000
512.64	3.636
512.98	2.481
513.33	3.341
513.67	2.635
514.02	2.764
514.36	2.788
514.70	4.068
515.05	3.841
515.39	3.388
515.74	3.383
516.08	2.448
516.42	3.232
516.77	3.478
517.11	2.630
517.46	4.497
517.80	3.638
518.14	4.175
518.49	3.687
518.83	3.632
519.17	3.149
519.52	3.685
519.86	3.420
520.20	3.758
520.55	3.851
520.89	4.049
521.23	3.273
521.58	3.836
521.92	3.672
522.26	3.849
522.61	3.276
522.95	3.562
523.29	3.036
523.64	2.646
523.98	3.696
524.32	4.242
524.66	4.351
525.01	3.574
525.35	3.146
525.69	3.716
526.04	3.524
526.38	4.387
526.72	4.167
527.06	3.516
527.41	3.756
527.75	3.015
528.09	2.900
528.43	3.544
528.78	3.075
529.12	3.288
529.46	3.787
529.80	3.336
530.15	3.405
530.49	4.672
530.83	3.326
531.17	2.825
531.51	3.640
531.86	4.692
532.20	3.896
532.54	4.101
532.88	3.564
533.22	4.095
533.57	3.103
533.91	3.648
534.25	3.259
534.59	3.508
534.93	2.888
535.27	3.030
535.62	4.186
535.96	3.489
536.30	3.062
536.64	4.292
536.98	3.540
537.32	3.571
537.66	3.592
538.01	3.314
538.35	3.345
538.69	2.335
539.03	3.461
539.37	3.518
539.71	4.565
540.05	2.967
540.39	4.430
540.73	3.736
541.07	3.603
541.42	4.277
541.76	4.245
542.10	4.806
542.44	4.552
542.78	3.592
543.12	2.383
543.46	3.428
543.80	4.789
544.14	4.516
544.48	3.860
544.82	3.265
545.16	3.551
545.50	4.731
545.84	4.170
546.18	3.670
546.52	3.151
546.86	3.902
547.20	3.864
547.54	3.033
547.88	3.490
548.22	3.868
548.56	4.228
548.90	3.579
549.24	3.728
549.58	4.322
549.92	5.188
550.26	4.710
550.60	3.648
550.94	3.413
551.28	2.846
551.62	3.767
551.96	4.633
552.30	3.256
552.64	3.456
552.98	3.269
553.32	3.182
553.66	4.249
554.00	3.938
554.34	4.609
554.68	3.987
555.02	3.651
555.36	3.654
555.69	3.997
556.03	3.843
556.37	3.901
556.71	4.374
557.05	3.906
557.39	3.293
557.73	4.403
558.07	4.304
558.41	2.713
558.75	3.154
559.08	4.426
559.42	3.344
559.76	3.538
560.10	4.564
560.44	3.484
560.78	3.907
561.12	3.306
561.45	3.199
561.79	3.084
562.13	3.039
562.47	3.364
562.81	3.715
563.15	2.966
563.48	2.921
563.82	4.221
564.16	3.628
564.50	2.937
564.84	4.252
565.17	3.791
565.51	4.645
565.85	4.859
566.19	4.036
566.52	3.226
566.86	3.825
567.20	3.460
567.54	3.127
567.88	2.913
568.21	4.220
568.55	4.301
568.89	3.187
569.23	3.564
569.56	3.908
569.90	3.940
570.24	3.783
570.57	3.649
570.91	3.821
571.25	4.270
571.59	3.902
571.92	3.721
572.26	3.826
572.60	3.592
572.93	3.831
573.27	3.894
573.61	3.776
573.95	4.215
574.28	3.090
574.62	3.704
574.96	3.207
575.29	3.485
575.63	3.950
575.97	3.730
576.30	3.702
576.64	3.142
576.98	3.494
577.31	3.632
577.65	3.714
577.98	3.578
578.32	3.905
578.66	3.660
578.99	3.911
579.33	3.580
579.67	3.730
580.00	3.972
580.34	3.838
580.67	3.561
581.01	4.010
581.35	3.568
581.68	3.498
582.02	3.712
582.35	3.779
582.69	3.854
583.02	3.561
583.36	3.723
583.70	3.766
584.03	3.728
584.37	3.768
584.70	3.546
585.04	3.445
585.37	3.833
585.71	3.902
586.04	3.910
586.38	3.759
586.72	3.768
587.05	3.875
587.39	3.790
587.72	3.723
588.06	3.897
588.39	4.090
588.73	3.716
589.06	3.130
589.40	4.294
589.73	3.403
590.07	3.678
590.40	3.361
590.73	4.456
591.07	4.242
591.40	3.472
591.74	3.451
592.07	3.677
592.41	3.843
592.74	3.835
593.08	3.719
593.41	3.462
593.75	4.449
594.08	3.969
594.41	3.693
594.75	3.641
595.08	3.857
595.42	3.905
595.75	3.939
596.09	3.603
596.42	4.144
596.75	4.318
597.09	3.825
597.42	3.238
597.75	3.893
598.09	3.699
598.42	4.165
598.76	3.415
599.09	4.328
599.42	3.895
599.76	3.845
600.09	4.033
600.42	3.281
600.76	4.311
601.09	3.412
601.42	3.986
601.76	3.490
602.09	3.561
602.42	3.908
602.76	4.101
603.09	3.786
603.42	4.344
603.76	3.273
604.09	4.094
604.42	4.508
604.76	3.241
605.09	3.921
605.42	3.981
605.75	3.426
606.09	3.911
606.42	3.718
606.75	4.085
607.09	4.291
607.42	3.855
607.75	3.352
608.08	4.350
608.42	3.152
608.75	2.951
609.08	3.433
609.41	4.199
609.75	3.318
610.08	3.824
610.41	2.901
610.74	4.044
611.07	4.178
611.41	3.426
611.74	3.591
612.07	3.292
612.40	4.735
612.73	3.935
613.07	3.464
613.40	4.083
613.73	3.322
614.06	3.630
614.39	3.749
614.72	4.132
615.06	4.305
615.39	3.926
615.72	3.583
616.05	3.014
616.38	3.677
616.71	3.545
617.05	3.266
617.38	3.677
617.71	3.396
618.04	4.074
618.37	3.663
618.70	2.989
619.03	4.206
619.36	4.345
619.69	2.488
620.03	4.424
620.36	4.082
620.69	4.065
621.02	3.484
621.35	3.745
621.68	4.140
622.01	3.565
622.34	3.936
622.67	3.879
623.00	4.095
623.33	4.409
623.66	4.622
623.99	4.226
624.32	3.415
624.65	3.906
624.99	2.813
625.32	4.186
625.65	3.443
625.98	5.000
626.31	3.723
626.64	4.775
626.97	4.228
627.30	2.593
627.63	4.000
627.96	4.842
628.29	4.876
628.62	3.918
628.95	4.224
629.28	4.339
629.61	4.180
629.94	4.149
630.26	4.289
630.59	5.759
630.92	2.845
631.25	3.017
631.58	2.558
631.91	3.759
632.24	5.562
632.57	4.281
632.90	5.412
633.23	4.387
633.56	4.528
633.89	1.979
634.22	3.462
634.55	2.365
634.88	5.221
635.20	4.795
635.53	4.888
635.86	5.027
636.19	2.592
636.52	3.235
636.85	2.738
637.18	4.922
637.51	3.659
637.83	3.352
638.16	3.983
638.49	4.899
638.82	3.094
639.15	3.714
639.48	2.620
639.81	2.385
640.13	4.594
640.46	5.669
640.79	2.791
641.12	4.341
641.45	4.666
641.77	3.344
642.10	4.072
642.43	5.724
642.76	3.226
643.09	2.768
643.41	2.867
643.74	4.340
644.07	1.764
644.40	6.137
644.73	4.236
645.05	2.863
645.38	2.692
645.71	4.198
646.04	3.717
646.36	3.409
646.69	6.383
647.02	6.836
647.35	4.800
647.67	7.615
648.00	6.214
648.33	2.697
648.66	3.340
648.98	6.102
649.31	3.442
649.64	2.926
649.96	4.730
650.29	1.416
650.62	4.267
650.94	3.512
651.27	2.119
651.60	4.971
651.92	4.008
652.25	-0.191
652.58	3.950
652.90	2.491
653.23	0.366
653.56	4.167
653.88	3.650
