SpectraSuite Data File
++++++++++++++++++++++++++++++++++++
Date: Tue May 12 19:50:45 PDT 2015
User: schluterlab
Dark Spectrum Present: Yes
Reference Spectrum Present: Yes
Number of Sampled Component Spectra: 1
Spectrometers: USB2E3373
Integration Time (usec): 3000 (USB2E3373)
Spectra Averaged: 3 (USB2E3373)
Boxcar Smoothing: 0 (USB2E3373)
Correct for Electrical Dark: No (USB2E3373)
Strobe/Lamp Enabled: No (USB2E3373)
Correct for Detector Non-linearity: No (USB2E3373)
Correct for Stray Light: No (USB2E3373)
Number of Pixels in Processed Spectrum: 2048
>>>>>Begin Processed Spectral Data<<<<<
178.53	0.000
178.91	-110.000
179.29	-200.000
179.67	766.667
180.04	0.000
180.42	-340.000
180.80	-366.667
181.18	1250.000
181.56	-900.000
181.94	416.667
182.31	2300.000
182.69	-100.000
183.07	0.000
183.45	166.667
183.83	400.000
184.20	233.333
184.58	1200.000
184.96	383.333
185.34	-433.333
185.72	-128.571
186.09	-166.667
186.47	-2200.000
186.85	-100.000
187.23	116.667
187.61	-228.571
187.98	-300.000
188.36	1100.000
188.74	-275.000
189.12	-244.444
189.49	-130.000
189.87	500.000
190.25	322.222
190.63	733.333
191.00	440.000
191.38	-266.667
191.76	500.000
192.14	-328.571
192.51	-80.000
192.89	320.000
193.27	-360.000
193.65	-700.000
194.02	-166.667
194.40	1100.000
194.78	-150.000
195.15	-285.714
195.53	433.333
195.91	200.000
196.29	-550.000
196.66	-700.000
197.04	-271.429
197.42	160.000
197.79	-262.500
198.17	-166.667
198.55	-1000.000
198.92	-222.222
199.30	1250.000
199.68	-200.000
200.05	-1000.000
200.43	-61.111
200.81	-183.333
201.18	500.000
201.56	-500.000
201.94	-2400.000
202.31	-166.667
202.69	-155.556
203.07	-108.333
203.44	-600.000
203.82	0.000
204.19	412.500
204.57	-500.000
204.95	254.545
205.32	540.000
205.70	450.000
206.08	-1400.000
206.45	-60.000
206.83	2400.000
207.20	-177.778
207.58	-100.000
207.96	600.000
208.33	966.667
208.71	966.667
209.08	1100.000
209.46	-144.444
209.84	766.667
210.21	-833.333
210.59	800.000
210.96	322.222
211.34	-575.000
211.71	1500.000
212.09	-220.000
212.46	-275.000
212.84	-362.500
213.22	300.000
213.59	-112.500
213.97	0.000
214.34	-800.000
214.72	-1100.000
215.09	1050.000
215.47	-66.667
215.84	-125.000
216.22	-1400.000
216.59	1500.000
216.97	-125.000
217.34	-266.667
217.72	-11.111
218.09	625.000
218.47	-73.684
218.84	-137.500
219.22	-71.429
219.59	-190.000
219.97	-150.000
220.34	400.000
220.72	227.273
221.09	-1050.000
221.47	0.000
221.84	500.000
222.22	-450.000
222.59	-600.000
222.97	-26.087
223.34	180.000
223.72	414.286
224.09	-366.667
224.46	238.462
224.84	-113.333
225.21	-700.000
225.59	-600.000
225.96	-15.000
226.34	550.000
226.71	340.000
227.08	-130.769
227.46	-28.571
227.83	-83.333
228.21	-1350.000
228.58	283.333
228.95	-57.895
229.33	-18.750
229.70	-316.667
230.08	-266.667
230.45	-833.333
230.82	-1600.000
231.20	-33.333
231.57	-360.000
231.95	-566.667
232.32	255.556
232.69	-950.000
233.07	-25.000
233.44	-312.500
233.81	-29.032
234.19	-600.000
234.56	-83.333
234.93	-333.333
235.31	-59.259
235.68	-48.148
236.05	-80.769
236.43	-110.526
236.80	-68.182
237.17	-228.571
237.55	-105.000
237.92	-20.930
238.29	-54.839
238.67	-35.714
239.04	-25.714
239.41	-17.647
239.79	-14.000
240.16	-52.500
240.53	-34.483
240.91	-4.110
241.28	-23.944
241.65	-23.437
242.02	-40.351
242.40	-29.333
242.77	-22.105
243.14	-24.706
243.51	-12.903
243.89	-13.333
244.26	-9.259
244.63	-10.204
245.00	-15.179
245.38	-25.210
245.75	-12.712
246.12	-17.188
246.49	-20.000
246.87	-19.672
247.24	-12.676
247.61	-11.258
247.98	-5.618
248.36	-9.434
248.73	-13.636
249.10	-5.556
249.47	-15.104
249.84	-11.675
250.22	-10.417
250.59	-14.607
250.96	-6.818
251.33	-7.075
251.70	-7.339
252.08	-1.732
252.45	-8.163
252.82	-10.549
253.19	-5.058
253.56	-5.882
253.94	-6.911
254.31	-0.719
254.68	-9.028
255.05	-3.642
255.42	-7.636
255.79	-5.298
256.16	-6.250
256.54	-2.121
256.91	-2.244
257.28	-4.870
257.65	-9.836
258.02	-2.102
258.39	-4.230
258.76	-3.976
259.14	-8.529
259.51	0.000
259.88	-2.017
260.25	-7.386
260.62	-4.213
260.99	-7.521
261.36	-7.759
261.73	-6.400
262.10	-4.632
262.47	-2.755
262.85	-3.342
263.22	-7.527
263.59	-6.166
263.96	-4.178
264.33	-7.817
264.70	-6.634
265.07	-3.448
265.44	0.468
265.81	-0.723
266.18	-3.981
266.55	-6.429
266.92	-1.339
267.29	-4.444
267.66	-7.273
268.03	-3.226
268.40	-7.094
268.77	-4.232
269.14	-2.101
269.51	-5.430
269.88	-1.923
270.25	-5.696
270.62	-0.840
270.99	-3.579
271.36	-6.402
271.73	-3.333
272.10	-2.905
272.47	-5.200
272.84	-5.732
273.21	-5.637
273.58	-4.898
273.95	-1.992
274.32	-3.288
274.69	-1.761
275.06	-2.814
275.43	-5.800
275.80	-2.868
276.17	-4.348
276.54	-1.521
276.91	-0.960
277.28	-2.321
277.65	-3.970
278.02	-3.977
278.39	-1.089
278.76	-2.421
279.13	1.073
279.50	-1.083
279.87	-3.396
280.23	-2.550
280.60	-3.357
280.97	-2.988
281.34	-3.051
281.71	-5.329
282.08	-3.757
282.45	-4.586
282.82	-3.535
283.19	-2.189
283.56	-2.218
283.92	-3.160
284.29	-3.723
284.66	-4.602
285.03	-5.317
285.40	-3.167
285.77	-2.791
286.14	-3.487
286.51	-4.180
286.87	-2.593
287.24	-4.327
287.61	-2.778
287.98	-1.095
288.35	-2.946
288.72	-2.141
289.08	-4.245
289.45	-3.900
289.82	-2.329
290.19	-4.242
290.56	-2.315
290.93	-1.773
291.29	-1.277
291.66	-1.404
292.03	-1.148
292.40	-1.871
292.77	-2.478
293.13	-2.496
293.50	-2.066
293.87	-2.219
294.24	-2.809
294.60	-1.366
294.97	-2.909
295.34	-2.603
295.71	-3.190
296.08	-2.732
296.44	-1.054
296.81	-4.269
297.18	-2.975
297.55	-2.638
297.91	-1.904
298.28	-3.069
298.65	-3.234
299.02	-0.986
299.38	-3.954
299.75	-0.901
300.12	-2.758
300.48	-1.291
300.85	-4.156
301.22	0.481
301.59	-2.433
301.95	-1.463
302.32	-2.795
302.69	-2.497
303.05	-2.952
303.42	-2.415
303.79	-2.472
304.15	-1.586
304.52	-2.235
304.89	-1.691
305.25	-2.408
305.62	-0.909
305.99	-3.135
306.35	-1.790
306.72	-2.505
307.09	-1.850
307.45	-2.589
307.82	-0.640
308.19	-1.430
308.55	-1.688
308.92	-1.271
309.29	-1.255
309.65	-2.270
310.02	-1.153
310.38	-1.812
310.75	-1.742
311.12	-1.424
311.48	-0.925
311.85	-2.837
312.22	-1.033
312.58	-1.813
312.95	-1.643
313.31	-2.360
313.68	-0.794
314.05	-0.497
314.41	-1.670
314.78	-2.714
315.14	-2.351
315.51	-1.192
315.87	-0.488
316.24	-1.484
316.61	-0.971
316.97	-2.059
317.34	-1.627
317.70	-1.867
318.07	-2.122
318.43	-1.229
318.80	-1.366
319.16	-2.516
319.53	-2.264
319.89	-1.799
320.26	-1.377
320.62	-0.581
320.99	-1.837
321.35	-2.174
321.72	-1.717
322.08	-0.594
322.45	-1.874
322.81	-0.690
323.18	-0.863
323.54	-0.095
323.91	-0.664
324.27	-2.507
324.64	-1.687
325.00	-1.456
325.37	-1.439
325.73	-1.734
326.10	-1.138
326.46	-1.541
326.83	-0.704
327.19	-0.699
327.56	-0.707
327.92	-1.736
328.29	-2.330
328.65	-1.601
329.01	-1.101
329.38	-0.918
329.74	-1.114
330.11	-1.957
330.47	-1.024
330.84	-1.222
331.20	-0.924
331.56	-1.226
331.93	-1.555
332.29	-2.035
332.66	0.181
333.02	-1.114
333.38	-1.103
333.75	-0.549
334.11	-1.808
334.48	-1.789
334.84	-2.535
335.20	-2.507
335.57	0.000
335.93	-1.302
336.29	-1.097
336.66	-0.911
337.02	-0.907
337.38	-1.981
337.75	-1.182
338.11	-1.003
338.47	-1.764
338.84	-0.737
339.20	-1.558
339.56	-2.610
339.93	-1.712
340.29	-1.179
340.65	-0.548
341.02	-1.683
341.38	-0.794
341.74	-1.601
342.11	-1.680
342.47	-0.962
342.83	-0.607
343.20	-1.503
343.56	-2.185
343.92	-0.875
344.28	-2.230
344.65	-0.257
345.01	-1.394
345.37	-0.684
345.73	-1.378
346.10	-0.778
346.46	-1.381
346.82	-1.614
347.19	-1.177
347.55	-0.680
347.91	-2.129
348.27	-2.190
348.63	-2.161
349.00	-1.169
349.36	-0.660
349.72	-0.082
350.08	-0.491
350.45	-1.383
350.81	-1.569
351.17	-1.977
351.53	-0.805
351.89	-1.641
352.26	-1.951
352.62	-1.390
352.98	-0.921
353.34	-1.003
353.70	-1.893
354.07	-0.741
354.43	-2.421
354.79	-1.148
355.15	-1.211
355.51	-1.548
355.87	-1.582
356.24	0.327
356.60	-2.254
356.96	-0.790
357.32	-0.329
357.68	-0.955
358.04	-1.621
358.40	-1.146
358.77	-1.606
359.13	-0.080
359.49	-1.760
359.85	-0.639
360.21	-1.427
360.57	-0.797
360.93	-1.742
361.29	-1.402
361.66	-0.710
362.02	-0.942
362.38	-1.166
362.74	-1.845
363.10	-1.282
363.46	-0.903
363.82	-1.302
364.18	-0.984
364.54	-1.298
364.90	-1.037
365.26	-0.596
365.62	-0.908
365.98	-1.199
366.35	-1.437
366.71	-0.597
367.07	-0.295
367.43	-1.300
367.79	-1.453
368.15	-2.076
368.51	-0.749
368.87	-0.441
369.23	-1.060
369.59	-0.735
369.95	-1.341
370.31	-1.288
370.67	-0.752
371.03	-0.232
371.39	-0.906
371.75	-0.817
372.11	-1.111
372.47	-0.668
372.83	-0.365
373.19	-1.054
373.55	-0.524
373.91	-1.212
374.27	-0.662
374.63	-1.178
374.99	-1.537
375.35	-1.524
375.71	-1.793
376.07	-0.565
376.42	-0.277
376.78	-1.463
377.14	-0.698
377.50	-0.068
377.86	-0.209
378.22	-0.330
378.58	-0.921
378.94	-0.982
379.30	-0.064
379.66	-0.448
380.02	-1.399
380.38	-0.763
380.74	-0.497
381.09	-1.461
381.45	-0.635
381.81	-1.084
382.17	-0.326
382.53	-0.920
382.89	-0.706
383.25	-1.078
383.61	-1.335
383.97	-0.585
384.32	-0.839
384.68	-0.128
385.04	-1.146
385.40	-0.831
385.76	-0.316
386.12	-0.396
386.48	-0.848
386.83	-1.514
387.19	-0.766
387.55	-1.490
387.91	-1.869
388.27	-0.960
388.62	-0.648
388.98	-0.064
389.34	-1.496
389.70	-1.090
390.06	-0.396
390.42	-1.352
390.77	-0.805
391.13	-0.195
391.49	-0.741
391.85	-1.065
392.20	-0.924
392.56	-1.375
392.92	-0.742
393.28	-0.658
393.64	-1.647
393.99	-0.779
394.35	-1.428
394.71	-0.927
395.07	-0.995
395.42	-0.825
395.78	-1.210
396.14	-1.332
396.50	-0.129
396.85	-0.727
397.21	-1.100
397.57	-0.790
397.92	-0.573
398.28	-0.959
398.64	-1.206
399.00	-0.348
399.35	-0.703
399.71	-0.838
400.07	-0.556
400.42	-0.449
400.78	-0.768
401.14	-0.758
401.49	-0.625
401.85	-0.698
402.21	0.063
402.57	-1.545
402.92	-0.730
403.28	-1.235
403.63	-0.577
403.99	-1.651
404.35	-1.465
404.70	-0.380
405.06	-1.178
405.42	-0.846
405.77	-0.832
406.13	-0.717
406.49	-1.262
406.84	-0.187
407.20	-0.558
407.55	-0.668
407.91	-1.608
408.27	-0.931
408.62	-1.286
408.98	-0.322
409.34	-0.640
409.69	-0.936
410.05	-1.166
410.40	-2.119
410.76	-0.436
411.11	-1.293
411.47	-1.156
411.83	-0.966
412.18	-1.113
412.54	0.388
412.89	-1.231
413.25	-1.191
413.60	-0.319
413.96	-1.100
414.31	-1.593
414.67	-0.878
415.03	-1.314
415.38	-1.253
415.74	-0.739
416.09	-1.723
416.45	-0.849
416.80	-1.599
417.16	-0.987
417.51	-0.694
417.87	-0.616
418.22	-1.604
418.58	-1.382
418.93	-0.645
419.29	-0.882
419.64	-0.481
420.00	-0.786
420.35	-0.628
420.71	-1.408
421.06	-0.584
421.42	-1.004
421.77	-0.731
422.12	-1.122
422.48	-1.028
422.83	-0.790
423.19	-0.176
423.54	-1.710
423.90	-0.680
424.25	-0.423
424.61	-1.419
424.96	-0.614
425.31	-0.906
425.67	-1.333
426.02	-1.553
426.38	-1.158
426.73	-0.748
427.09	-1.313
427.44	-1.481
427.79	-0.248
428.15	-0.444
428.50	-0.691
428.85	-1.155
429.21	-0.060
429.56	-1.050
429.92	-0.757
430.27	-0.853
430.62	-0.811
430.98	-0.484
431.33	-0.723
431.68	-1.149
432.04	-1.036
432.39	-0.951
432.74	-0.443
433.10	-1.092
433.45	-1.140
433.80	0.060
434.16	-0.518
434.51	0.279
434.86	-1.027
435.22	-0.990
435.57	-0.528
435.92	-1.672
436.28	-0.747
436.63	-0.417
436.98	-0.802
437.34	-1.024
437.69	-1.420
438.04	-1.623
438.39	-1.305
438.75	-0.677
439.10	-0.060
439.45	-0.770
439.81	-0.254
440.16	-1.484
440.51	-1.363
440.86	-1.641
441.22	-0.596
441.57	-0.342
441.92	-0.828
442.27	-0.400
442.63	-0.621
442.98	-0.856
443.33	-0.235
443.68	-0.388
444.03	-0.309
444.39	-1.510
444.74	-0.801
445.09	-1.299
445.44	-1.166
445.79	-0.971
446.15	-1.108
446.50	-0.231
446.85	-0.825
447.20	-0.602
447.55	-0.989
447.91	-0.235
448.26	-0.890
448.61	-0.967
448.96	-0.591
449.31	-1.206
449.66	-0.726
450.02	-1.065
450.37	-1.033
450.72	-0.898
451.07	-0.923
451.42	-0.593
451.77	-1.576
452.12	-1.253
452.47	-1.355
452.83	-0.747
453.18	-0.878
453.53	-0.065
453.88	-1.532
454.23	0.064
454.58	-0.849
454.93	-1.635
455.28	-0.883
455.63	-0.910
455.98	-0.571
456.34	-1.474
456.69	-1.354
457.04	-1.050
457.39	-0.749
457.74	-0.695
458.09	-1.493
458.44	-0.245
458.79	-1.296
459.14	-0.060
459.49	-1.274
459.84	-0.773
460.19	0.188
460.54	-1.831
460.89	-1.059
461.24	-0.455
461.59	-1.073
461.94	-0.657
462.29	-0.627
462.64	-1.323
462.99	-0.653
463.34	-1.392
463.69	-0.549
464.04	-0.962
464.39	-0.836
464.74	-1.233
465.09	0.129
465.44	-0.960
465.79	-0.842
466.14	-1.730
466.49	0.000
466.84	-0.184
467.19	-0.260
467.54	-1.459
467.89	-0.849
468.24	-0.694
468.59	-0.654
468.94	-1.143
469.29	-1.522
469.64	-1.094
469.99	-1.442
470.34	-1.485
470.68	-1.231
471.03	-1.241
471.38	-1.346
471.73	-0.727
472.08	-1.068
472.43	-0.830
472.78	-2.175
473.13	-1.193
473.48	-1.314
473.83	0.132
474.17	-1.067
474.52	-0.737
474.87	-0.694
475.22	-0.762
475.57	-1.175
475.92	-1.137
476.27	-0.422
476.61	-0.473
476.96	-0.178
477.31	-0.514
477.66	-1.046
478.01	-1.825
478.36	-1.146
478.70	-0.169
479.05	-0.871
479.40	-1.050
479.75	-1.010
480.10	-1.190
480.45	-0.471
480.79	-0.104
481.14	-0.896
481.49	-1.183
481.84	-1.515
482.19	-1.317
482.53	-0.539
482.88	-1.017
483.23	-0.754
483.58	-0.941
483.92	-0.804
484.27	-0.774
484.62	-0.283
484.97	-0.747
485.31	-0.503
485.66	-0.533
486.01	0.041
486.36	-0.191
486.70	-0.240
487.05	-0.318
487.40	-0.477
487.75	-0.429
488.09	-0.376
488.44	-0.495
488.79	-0.344
489.13	-0.748
489.48	-0.486
489.83	-0.740
490.17	-0.047
490.52	-0.813
490.87	-0.495
491.22	-0.394
491.56	-0.494
491.91	-0.703
492.26	-0.408
492.60	-0.306
492.95	-0.565
493.30	-0.627
493.64	-0.558
493.99	-0.873
494.34	-0.304
494.68	-0.942
495.03	-1.065
495.37	-0.405
495.72	-0.264
496.07	-0.913
496.41	-0.939
496.76	-0.907
497.11	-0.886
497.45	-0.201
497.80	-0.675
498.14	-1.003
498.49	-1.121
498.84	-0.681
499.18	-0.727
499.53	-0.623
499.87	-0.870
500.22	-0.779
500.56	-0.366
500.91	-0.157
501.26	-0.157
501.60	-0.561
501.95	-1.177
502.29	-0.564
502.64	-0.448
502.98	-0.808
503.33	-0.599
503.67	-0.766
504.02	-0.153
504.36	-0.668
504.71	-0.691
505.06	-0.857
505.40	-0.536
505.75	-1.106
506.09	-1.246
506.44	-0.644
506.78	-1.178
507.13	-0.923
507.47	-0.720
507.82	-1.172
508.16	-0.780
508.51	0.055
508.85	-1.264
509.19	-1.207
509.54	-0.907
509.88	-1.438
510.23	-0.618
510.57	-1.249
510.92	-0.454
511.26	-0.976
511.61	-0.400
511.95	-0.925
512.30	-0.870
512.64	-1.232
512.98	-0.473
513.33	-1.524
513.67	-1.916
514.02	-1.382
514.36	-0.830
514.70	-0.668
515.05	-1.098
515.39	-0.502
515.74	-1.190
516.08	-1.507
516.42	-0.994
516.77	-1.056
517.11	-1.468
517.46	-0.812
517.80	-0.766
518.14	-0.443
518.49	-1.552
518.83	-1.881
519.17	-0.835
519.52	-0.312
519.86	-0.760
520.20	-1.720
520.55	-1.044
520.89	-0.607
521.23	-1.069
521.58	-0.926
521.92	-0.801
522.26	-0.893
522.61	-0.751
522.95	-0.890
523.29	-0.877
523.64	-1.085
523.98	-1.210
524.32	-0.875
524.66	-0.680
525.01	-0.481
525.35	-0.479
525.69	-0.688
526.04	-1.621
526.38	-1.302
526.72	-0.347
527.06	-1.406
527.41	-1.347
527.75	-1.723
528.09	-1.344
528.43	-0.638
528.78	-1.118
529.12	-1.438
529.46	-0.864
529.80	-1.702
530.15	-0.347
530.49	-0.488
530.83	-2.314
531.17	-0.989
531.51	-0.143
531.86	-0.210
532.20	-1.732
532.54	-1.223
532.88	-1.891
533.22	-1.580
533.57	-1.517
533.91	-0.895
534.25	-0.068
534.59	-1.169
534.93	-0.604
535.27	-2.020
535.62	-0.945
535.96	-1.186
536.30	0.070
536.64	-0.644
536.98	-1.991
537.32	-0.595
537.66	-1.026
538.01	-1.178
538.35	-1.455
538.69	-1.415
539.03	-0.793
539.37	-1.651
539.71	-1.232
540.05	-0.579
540.39	-0.799
540.73	-0.293
541.07	-1.838
541.42	-0.855
541.76	-0.647
542.10	-1.578
542.44	-0.578
542.78	-2.199
543.12	-1.805
543.46	-1.341
543.80	-0.929
544.14	-0.932
544.48	-0.772
544.82	-0.426
545.16	-1.812
545.50	-0.728
545.84	-0.293
546.18	-1.648
546.52	-0.538
546.86	-1.377
547.20	-1.136
547.54	-1.668
547.88	-0.285
548.22	-0.703
548.56	-0.352
548.90	0.140
549.24	-0.658
549.58	-0.149
549.92	-0.602
550.26	-0.232
550.60	-1.031
550.94	-0.794
551.28	-0.488
551.62	-1.147
551.96	-1.278
552.30	-1.395
552.64	-1.503
552.98	-1.263
553.32	-1.515
553.66	-0.835
554.00	-0.695
554.34	-0.313
554.68	-1.595
555.02	-1.746
555.36	-2.145
555.69	-1.307
556.03	-0.665
556.37	-1.275
556.71	-1.508
557.05	-0.781
557.39	-1.285
557.73	-0.472
558.07	0.156
558.41	-1.117
558.75	-1.494
559.08	-0.851
559.42	-1.421
559.76	-1.432
560.10	-0.570
560.44	-1.504
560.78	-1.202
561.12	-2.329
561.45	-1.414
561.79	-1.836
562.13	-1.334
562.47	-2.141
562.81	-0.986
563.15	-1.749
563.48	-1.648
563.82	-1.310
564.16	-2.177
564.50	-1.361
564.84	0.283
565.17	-1.502
565.51	-0.844
565.85	-0.915
566.19	-0.487
566.52	-1.075
566.86	-1.093
567.20	-1.996
567.54	-1.276
567.88	-2.002
568.21	-0.996
568.55	-0.905
568.89	-1.264
569.23	-0.552
569.56	-0.322
569.90	-0.600
570.24	-0.591
570.57	-0.677
570.91	-0.328
571.25	0.138
571.59	-0.131
571.92	-0.558
572.26	-0.401
572.60	-0.417
572.93	-0.262
573.27	-0.260
573.61	-0.557
573.95	-0.396
574.28	-0.469
574.62	-0.183
574.96	-0.469
575.29	-0.181
575.63	-0.240
575.97	-0.332
576.30	-0.434
576.64	-0.221
576.98	-0.587
577.31	-0.102
577.65	-0.168
577.98	0.000
578.32	-0.021
578.66	-0.485
578.99	0.000
579.33	-0.358
579.67	-0.104
580.00	-0.156
580.34	-0.102
580.67	-0.102
581.01	-0.274
581.35	0.090
581.68	0.021
582.02	-0.303
582.35	-0.189
582.69	-0.296
583.02	-0.108
583.36	-0.141
583.70	-0.314
584.03	-0.250
584.37	-0.143
584.70	-0.397
585.04	-0.431
585.37	-0.179
585.71	-0.277
586.04	0.000
586.38	-0.436
586.72	-0.324
587.05	-0.385
587.39	-0.144
587.72	-0.139
588.06	-0.196
588.39	-0.555
588.73	-0.344
589.06	-0.791
589.40	-0.141
589.73	-0.337
590.07	-0.581
590.40	-0.277
590.73	0.625
591.07	-0.519
591.40	-0.365
591.74	-0.793
592.07	-0.478
592.41	-0.656
592.74	-0.469
593.08	-0.376
593.41	-0.480
593.75	-0.101
594.08	-0.107
594.41	-0.565
594.75	-0.470
595.08	0.000
595.42	0.113
595.75	-0.303
596.09	-0.681
596.42	-0.465
596.75	-0.318
597.09	-0.746
597.42	-0.892
597.75	-0.516
598.09	0.000
598.42	-0.663
598.76	-0.865
599.09	-0.210
599.42	-0.629
599.76	-0.432
600.09	-0.395
600.42	-0.586
600.76	-0.423
601.09	-0.039
601.42	-0.242
601.76	-0.568
602.09	-0.670
602.42	-0.695
602.76	-0.654
603.09	-0.044
603.42	-0.256
603.76	-0.881
604.09	-0.251
604.42	0.043
604.76	-0.685
605.09	-1.228
605.42	-0.521
605.75	-0.457
606.09	-0.578
606.42	-0.656
606.75	0.355
607.09	-0.513
607.42	0.046
607.75	-0.689
608.08	0.000
608.42	-0.582
608.75	-1.401
609.08	-1.312
609.41	0.311
609.75	-0.948
610.08	-1.395
610.41	-0.712
610.74	-0.607
611.07	-1.058
611.41	-1.285
611.74	-0.544
612.07	-0.670
612.40	-0.056
612.73	-1.562
613.07	-0.587
613.40	-0.518
613.73	-1.375
614.06	-1.347
614.39	-0.644
614.72	-1.240
615.06	-0.230
615.39	-0.751
615.72	-0.672
616.05	-1.275
616.38	-1.127
616.71	-0.684
617.05	-0.691
617.38	-0.710
617.71	-1.110
618.04	-0.460
618.37	-1.177
618.70	-0.543
619.03	-0.508
619.36	-0.515
619.69	-1.788
620.03	-0.915
620.36	-0.831
620.69	-1.109
621.02	-0.792
621.35	-0.766
621.68	-1.710
622.01	-1.515
622.34	-0.586
622.67	-1.855
623.00	-1.310
623.33	-0.630
623.66	-1.036
623.99	-1.276
624.32	-2.383
624.65	-1.406
624.99	-1.172
625.32	-1.659
625.65	-1.922
625.98	-0.333
626.31	-0.952
626.64	-1.081
626.97	-0.827
627.30	-1.852
627.63	-1.302
627.96	-1.769
628.29	-0.574
628.62	-1.856
628.95	-1.056
629.28	-2.169
629.61	-0.731
629.94	-1.867
630.26	-2.406
630.59	-0.524
630.92	-2.318
631.25	-1.564
