SpectraSuite Data File
++++++++++++++++++++++++++++++++++++
Date: Tue May 12 19:42:11 PDT 2015
User: schluterlab
Dark Spectrum Present: Yes
Reference Spectrum Present: Yes
Number of Sampled Component Spectra: 1
Spectrometers: USB2E3373
Integration Time (usec): 3000 (USB2E3373)
Spectra Averaged: 3 (USB2E3373)
Boxcar Smoothing: 0 (USB2E3373)
Correct for Electrical Dark: No (USB2E3373)
Strobe/Lamp Enabled: No (USB2E3373)
Correct for Detector Non-linearity: No (USB2E3373)
Correct for Stray Light: No (USB2E3373)
Number of Pixels in Processed Spectrum: 2048
>>>>>Begin Processed Spectral Data<<<<<
178.53	0.000
178.91	-100.000
179.29	-33.333
179.67	166.667
180.04	0.000
180.42	0.000
180.80	133.333
181.18	1000.000
181.56	-250.000
181.94	133.333
182.31	1400.000
182.69	-28.571
183.07	0.000
183.45	225.000
183.83	120.000
184.20	250.000
184.58	500.000
184.96	216.667
185.34	66.667
185.72	-42.857
186.09	-83.333
186.47	-1400.000
186.85	-140.000
187.23	200.000
187.61	-142.857
187.98	-240.000
188.36	950.000
188.74	25.000
189.12	44.444
189.49	20.000
189.87	225.000
190.25	222.222
190.63	666.667
191.00	220.000
191.38	-400.000
191.76	260.000
192.14	-114.286
192.51	0.000
192.89	80.000
193.27	-200.000
193.65	-300.000
194.02	50.000
194.40	700.000
194.78	-25.000
195.15	-242.857
195.53	400.000
195.91	300.000
196.29	-150.000
196.66	33.333
197.04	-271.429
197.42	-0.000
197.79	-237.500
198.17	-100.000
198.55	300.000
198.92	-22.222
199.30	650.000
199.68	-300.000
200.05	-850.000
200.43	-38.889
200.81	-41.667
201.18	183.333
201.56	-50.000
201.94	-300.000
202.31	8.333
202.69	22.222
203.07	-8.333
203.44	-500.000
203.82	0.000
204.19	125.000
204.57	-266.667
204.95	90.909
205.32	400.000
205.70	275.000
206.08	0.000
206.45	60.000
206.83	700.000
207.20	-100.000
207.58	30.769
207.96	100.000
208.33	666.667
208.71	233.333
209.08	100.000
209.46	55.556
209.84	200.000
210.21	-433.333
210.59	-50.000
210.96	211.111
211.34	-75.000
211.71	600.000
212.09	120.000
212.46	-62.500
212.84	-87.500
213.22	242.857
213.59	37.500
213.97	0.000
214.34	-400.000
214.72	-200.000
215.09	400.000
215.47	26.667
215.84	-75.000
216.22	-1000.000
216.59	200.000
216.97	66.667
217.34	-83.333
217.72	50.000
218.09	300.000
218.47	10.526
218.84	-62.500
219.22	-64.286
219.59	-100.000
219.97	-20.000
220.34	233.333
220.72	100.000
221.09	-1050.000
221.47	0.000
221.84	50.000
222.22	-325.000
222.59	-225.000
222.97	8.696
223.34	133.333
223.72	242.857
224.09	-50.000
224.46	115.385
224.84	13.333
225.21	-200.000
225.59	-150.000
225.96	50.000
226.34	200.000
226.71	150.000
227.08	-61.538
227.46	-14.286
227.83	-83.333
228.21	-1200.000
228.58	166.667
228.95	-36.842
229.33	-68.750
229.70	-66.667
230.08	-77.778
230.45	-566.667
230.82	-1400.000
231.20	19.048
231.57	-360.000
231.95	-733.333
232.32	133.333
232.69	-1100.000
233.07	62.500
233.44	-112.500
233.81	19.355
234.19	-160.000
234.56	-50.000
234.93	-233.333
235.31	-11.111
235.68	14.815
236.05	-15.385
236.43	-73.684
236.80	-31.818
237.17	-100.000
237.55	-35.000
237.92	-9.302
238.29	-35.484
238.67	-10.714
239.04	-20.000
239.41	0.000
239.79	6.000
240.16	12.500
240.53	-12.069
240.91	6.849
241.28	-16.901
241.65	-3.125
242.02	-33.333
242.40	-12.000
242.77	4.211
243.14	-4.706
243.51	2.151
243.89	0.000
244.26	0.000
244.63	-3.061
245.00	-14.286
245.38	-7.563
245.75	-3.390
246.12	-4.688
246.49	-11.200
246.87	-10.656
247.24	-14.085
247.61	-3.974
247.98	0.562
248.36	-0.629
248.73	-3.409
249.10	-2.778
249.47	-5.208
249.84	-1.523
250.22	-5.729
250.59	2.809
250.96	0.000
251.33	0.943
251.70	-0.917
252.08	-0.433
252.45	-2.041
252.82	-7.173
253.19	-2.724
253.56	-1.569
253.94	0.407
254.31	2.518
254.68	-2.778
255.05	0.993
255.42	-0.364
255.79	1.325
256.16	-1.389
256.54	-0.303
256.91	1.282
257.28	-0.325
257.65	-0.656
258.02	3.003
258.39	2.719
258.76	-1.529
259.14	-1.765
259.51	4.507
259.88	1.729
260.25	-1.136
260.62	-1.124
260.99	-2.507
261.36	0.575
261.73	-0.800
262.10	0.272
262.47	-1.653
262.85	1.285
263.22	0.000
263.59	1.609
263.96	-0.783
264.33	-4.043
264.70	0.983
265.07	-0.739
265.44	1.874
265.81	1.928
266.18	-0.937
266.55	-1.190
266.92	3.571
267.29	0.222
267.66	-2.500
268.03	1.505
268.40	-1.144
268.77	2.895
269.14	0.210
269.51	-2.262
269.88	1.282
270.25	-2.110
270.62	0.000
270.99	0.842
271.36	1.104
271.73	0.208
272.10	1.245
272.47	-1.400
272.84	-2.760
273.21	-1.670
273.58	-2.449
273.95	0.398
274.32	0.387
274.69	-0.587
275.06	0.938
275.43	-2.200
275.80	0.382
276.17	-2.964
276.54	2.471
276.91	1.152
277.28	-0.387
277.65	-3.214
278.02	1.705
278.39	1.270
278.76	0.745
279.13	0.716
279.50	1.264
279.87	0.755
280.23	0.182
280.60	-0.707
280.97	-0.176
281.34	-0.169
281.71	-1.066
282.08	-0.716
282.45	-2.116
282.82	-0.337
283.19	0.168
283.56	2.560
283.92	0.632
284.29	0.338
284.66	-1.239
285.03	-1.544
285.40	1.667
285.77	0.000
286.14	0.317
286.51	0.804
286.87	0.162
287.24	-1.282
287.61	0.772
287.98	1.565
288.35	-0.310
288.72	1.070
289.08	-2.201
289.45	0.000
289.82	-0.776
290.19	0.303
290.56	1.447
290.93	0.591
291.29	1.702
291.66	1.124
292.03	0.861
292.40	2.446
292.77	-0.583
293.13	-0.587
293.50	0.275
293.87	2.080
294.24	0.843
294.60	1.093
294.97	0.416
295.34	0.274
295.71	-0.555
296.08	-0.956
296.44	-0.659
296.81	-1.164
297.18	1.682
297.55	0.251
297.91	1.142
298.28	0.512
298.65	0.906
299.02	0.863
299.38	-0.638
299.75	-0.644
300.12	1.799
300.48	0.235
300.85	-0.489
301.22	0.601
301.59	-0.122
301.95	0.854
302.32	1.944
302.69	-0.238
303.05	-0.826
303.42	-0.725
303.79	0.225
304.15	1.133
304.52	-0.112
304.89	0.564
305.25	0.229
305.62	0.455
305.99	-0.560
306.35	-0.224
306.72	0.327
307.09	-0.109
307.45	-0.755
307.82	0.747
308.19	0.550
308.55	0.738
308.92	0.953
309.29	0.418
309.65	0.413
310.02	1.153
310.38	0.959
310.75	2.152
311.12	0.814
311.48	1.747
311.85	0.000
312.22	0.413
312.58	0.201
312.95	0.821
313.31	1.967
313.68	0.596
314.05	1.390
314.41	0.196
314.78	-0.704
315.14	1.567
315.51	1.291
315.87	1.758
316.24	0.791
316.61	1.262
316.97	-0.196
317.34	0.766
317.70	1.307
318.07	0.386
318.43	1.323
318.80	0.820
319.16	0.186
319.53	1.887
319.89	0.852
320.26	1.868
320.62	0.581
320.99	2.245
321.35	0.988
321.72	1.111
322.08	1.683
322.45	1.578
322.81	0.985
323.18	0.767
323.54	0.948
323.91	0.854
324.27	-0.096
324.64	0.843
325.00	0.819
325.37	2.248
325.73	0.730
326.10	1.138
326.46	0.453
326.83	1.055
327.19	0.786
327.56	2.829
327.92	0.000
328.29	0.448
328.65	2.354
329.01	2.018
329.38	0.643
329.74	2.321
330.11	1.584
330.47	1.490
330.84	0.846
331.20	1.201
331.56	0.094
331.93	0.732
332.29	0.833
332.66	2.351
333.02	1.857
333.38	2.206
333.75	0.732
334.11	0.904
334.48	0.447
334.84	0.000
335.20	1.522
335.57	2.089
335.93	0.930
336.29	2.011
336.66	0.729
337.02	2.357
337.38	0.943
337.75	1.182
338.11	2.097
338.47	0.743
338.84	2.026
339.20	1.467
339.56	0.932
339.93	0.811
340.29	1.360
340.65	1.461
341.02	-0.266
341.38	1.853
341.74	1.423
342.11	1.503
342.47	1.224
342.83	1.735
343.20	0.531
343.56	1.311
343.92	1.487
344.28	0.515
344.65	0.856
345.01	0.958
345.37	1.880
345.73	1.550
346.10	0.605
346.46	0.777
346.82	1.359
347.19	1.262
347.55	1.020
347.91	1.556
348.27	1.601
348.63	0.432
349.00	1.669
349.36	1.814
349.72	0.493
350.08	2.128
350.45	1.302
350.81	1.073
351.17	1.071
351.53	0.966
351.89	-0.432
352.26	-0.244
352.62	1.063
352.98	1.255
353.34	1.504
353.70	0.905
354.07	1.318
354.43	-0.083
354.79	1.393
355.15	0.484
355.51	1.222
355.87	1.665
356.24	2.451
356.60	0.167
356.96	1.738
357.32	1.646
357.68	1.989
358.04	1.053
358.40	0.900
358.77	1.365
359.13	1.847
359.49	0.640
359.85	1.199
360.21	0.634
360.57	0.797
360.93	1.267
361.29	0.234
361.66	0.552
362.02	0.863
362.38	1.554
362.74	1.307
363.10	1.207
363.46	1.129
363.82	1.838
364.18	1.211
364.54	1.069
364.90	0.222
365.26	1.714
365.62	0.984
365.98	1.349
366.35	1.589
366.71	2.315
367.07	1.993
367.43	1.083
367.79	1.817
368.15	0.445
368.51	1.348
368.87	1.395
369.23	1.287
369.59	1.544
369.95	1.341
370.31	-0.455
370.67	1.203
371.03	1.548
371.39	1.208
371.75	0.520
372.11	0.444
372.47	0.520
372.83	0.877
373.19	1.054
373.55	1.272
373.91	1.364
374.27	1.251
374.63	0.810
374.99	0.878
375.35	-0.073
375.71	1.148
376.07	1.767
376.42	1.176
376.78	0.906
377.14	1.397
377.50	1.505
377.86	0.905
378.22	1.651
378.58	2.171
378.94	2.423
379.30	1.737
379.66	1.152
380.02	0.636
380.38	1.399
380.74	1.492
381.09	1.080
381.45	1.270
381.81	1.148
382.17	1.759
382.53	0.920
382.89	1.283
383.25	1.015
383.61	0.064
383.97	1.624
384.32	1.226
384.68	1.660
385.04	0.191
385.40	1.086
385.76	1.455
386.12	1.386
386.48	0.718
386.83	0.790
387.19	1.533
387.55	0.712
387.91	0.810
388.27	0.640
388.62	0.842
388.98	1.081
389.34	0.651
389.70	1.346
390.06	1.848
390.42	0.270
390.77	1.811
391.13	1.496
391.49	1.011
391.85	0.865
392.20	1.122
392.56	0.458
392.92	1.175
393.28	1.197
393.64	0.443
393.99	1.039
394.35	1.168
394.71	0.728
395.07	1.326
395.42	0.889
395.78	1.008
396.14	0.600
396.50	1.811
396.85	1.058
397.21	0.712
397.57	0.395
397.92	1.145
398.28	1.559
398.64	0.571
399.00	1.451
399.35	1.348
399.71	1.078
400.07	1.421
400.42	1.795
400.78	0.704
401.14	1.641
401.49	1.562
401.85	2.032
402.21	1.459
402.57	-0.064
402.92	1.129
403.28	1.365
403.63	2.115
403.99	0.396
404.35	1.401
404.70	0.697
405.06	0.372
405.42	1.366
405.77	1.724
406.13	0.956
406.49	0.189
406.84	1.619
407.20	0.743
407.55	1.336
407.91	1.189
408.27	1.064
408.62	0.450
408.98	1.866
409.34	0.640
409.69	0.736
410.05	1.490
410.40	0.257
410.76	1.121
411.11	0.840
411.47	1.156
411.83	1.610
412.18	0.916
412.54	1.294
412.89	0.972
413.25	1.818
413.60	1.467
413.96	0.583
414.31	0.701
414.67	1.553
415.03	0.553
415.38	0.836
415.74	1.545
416.09	-0.345
416.45	0.283
416.80	0.070
417.16	1.834
417.51	0.902
417.87	2.189
418.22	0.869
418.58	1.382
418.93	1.741
419.29	1.018
419.64	1.030
420.00	1.703
420.35	1.758
420.71	1.280
421.06	0.714
421.42	1.443
421.77	1.218
422.12	1.359
422.48	0.742
422.83	1.763
423.19	1.824
423.54	1.405
423.90	1.545
424.25	0.846
424.61	0.516
424.96	1.044
425.31	1.268
425.67	1.152
426.02	0.435
426.38	0.000
426.73	1.371
427.09	0.657
427.44	0.741
427.79	1.733
428.15	0.824
428.50	0.817
428.85	0.898
429.21	1.076
429.56	1.381
429.92	1.514
430.27	0.587
430.62	1.460
430.98	2.042
431.33	1.557
431.68	1.368
432.04	1.554
432.39	1.248
432.74	1.075
433.10	1.334
433.45	0.823
433.80	1.250
434.16	1.036
434.51	1.561
434.86	1.450
435.22	1.164
435.57	1.121
435.92	0.743
436.28	0.747
436.63	1.491
436.98	1.111
437.34	0.576
437.69	0.741
438.04	0.421
438.39	0.783
438.75	0.923
439.10	2.560
439.45	1.348
439.81	0.635
440.16	0.371
440.51	1.487
440.86	1.389
441.22	0.774
441.57	1.538
441.92	1.988
442.27	1.543
442.63	1.862
442.98	2.017
443.33	2.174
443.68	1.553
444.03	1.443
444.39	0.677
444.74	1.832
445.09	0.885
445.44	0.641
445.79	1.510
446.15	0.583
446.50	1.851
446.85	1.265
447.20	0.930
447.55	1.163
447.91	1.529
448.26	2.136
448.61	1.934
448.96	1.833
449.31	1.085
449.66	1.090
450.02	0.355
450.37	1.640
450.72	1.317
451.07	0.725
451.42	2.174
451.77	0.441
452.12	0.815
452.47	0.610
452.83	1.619
453.18	0.878
453.53	1.698
453.88	1.340
454.23	1.534
454.58	1.371
454.93	0.136
455.28	0.747
455.63	0.845
455.98	1.269
456.34	1.072
456.69	0.609
457.04	1.509
457.39	1.623
457.74	0.442
458.09	0.996
458.44	1.410
458.79	1.001
459.14	1.193
459.49	1.338
459.84	1.962
460.19	1.188
460.54	1.199
460.89	1.000
461.24	1.753
461.59	1.830
461.94	1.315
462.29	1.316
462.64	1.462
462.99	0.870
463.34	1.392
463.69	1.097
464.04	1.219
464.39	1.608
464.74	0.779
465.09	1.543
465.44	1.800
465.79	1.384
466.14	1.432
466.49	1.666
466.84	1.966
467.19	2.339
467.54	1.194
467.89	1.502
468.24	1.389
468.59	1.309
468.94	1.412
469.29	1.315
469.64	0.948
469.99	1.226
470.34	0.636
470.68	1.308
471.03	0.438
471.38	0.673
471.73	1.163
472.08	1.922
472.43	1.245
472.78	0.798
473.13	1.825
473.48	1.521
473.83	1.255
474.17	0.867
474.52	2.411
474.87	1.705
475.22	1.271
475.57	0.940
475.92	1.137
476.27	1.688
476.61	1.655
476.96	1.363
477.31	1.313
477.66	1.511
478.01	1.059
478.36	1.146
478.70	1.859
479.05	0.464
479.40	0.995
479.75	1.346
480.10	1.245
480.45	1.885
480.79	1.920
481.14	1.318
481.49	1.799
481.84	0.758
482.19	1.317
482.53	1.765
482.88	0.915
483.23	1.608
483.58	0.990
483.92	1.156
484.27	1.549
484.62	2.263
484.97	1.494
485.31	1.508
485.66	1.479
486.01	1.564
486.36	1.567
486.70	1.476
487.05	1.453
487.40	1.669
487.75	1.546
488.09	1.566
488.44	1.308
488.79	1.911
489.13	0.914
489.48	1.369
489.83	1.849
490.17	1.875
490.52	1.099
490.87	1.583
491.22	1.529
491.56	1.482
491.91	1.606
492.26	1.632
492.60	1.684
492.95	1.232
493.30	1.411
493.64	1.166
493.99	0.667
494.34	1.926
494.68	1.239
495.03	1.166
495.37	1.368
495.72	1.582
496.07	2.130
496.41	1.038
496.76	1.289
497.11	1.329
497.45	1.557
497.80	1.973
498.14	1.742
498.49	1.014
498.84	1.258
499.18	1.713
499.53	0.987
499.87	1.075
500.22	1.143
500.56	2.564
500.91	2.255
501.26	0.892
501.60	1.988
501.95	0.972
502.29	1.488
502.64	1.643
502.98	1.413
503.33	0.999
503.67	1.276
504.02	1.481
504.36	1.387
504.71	2.181
505.06	1.125
505.40	1.877
505.75	1.738
506.09	1.408
506.44	1.931
506.78	1.231
507.13	1.466
507.47	1.884
507.82	0.949
508.16	1.169
508.51	1.915
508.85	1.593
509.19	1.700
509.54	1.246
509.88	0.575
510.23	2.079
510.57	1.079
510.92	1.247
511.26	0.804
511.61	1.370
511.95	1.446
512.30	1.449
512.64	1.349
512.98	1.536
513.33	0.645
513.67	0.479
514.02	0.300
514.36	2.254
514.70	1.943
515.05	1.463
515.39	1.255
515.74	1.003
516.08	1.507
516.42	1.740
516.77	1.677
517.11	1.223
517.46	1.686
517.80	1.787
518.14	2.467
518.49	0.841
518.83	1.167
519.17	1.735
519.52	2.061
519.86	2.153
520.20	1.146
520.55	1.828
520.89	1.957
521.23	2.138
521.58	0.529
521.92	1.335
522.26	2.199
522.61	1.843
522.95	1.438
523.29	2.024
523.64	1.153
523.98	1.411
524.32	1.886
524.66	1.835
525.01	1.993
525.35	1.368
525.69	1.032
526.04	1.973
526.38	1.782
526.72	2.431
527.06	1.547
527.41	1.276
527.75	1.795
528.09	1.202
528.43	1.276
528.78	0.839
529.12	1.849
529.46	1.661
529.80	1.361
530.15	2.363
530.49	1.395
530.83	1.735
531.17	1.271
531.51	1.999
531.86	3.151
532.20	0.433
532.54	1.655
532.88	0.945
533.22	1.509
533.57	1.379
533.91	1.858
534.25	1.901
534.59	1.444
534.93	1.813
535.27	1.414
535.62	1.756
535.96	1.954
536.30	2.227
536.64	1.645
536.98	1.327
537.32	1.711
537.66	1.906
538.01	1.767
538.35	2.109
538.69	1.203
539.03	1.802
539.37	1.938
539.71	2.609
540.05	1.664
540.39	2.179
540.73	2.564
541.07	1.618
541.42	1.996
541.76	2.302
542.10	2.439
542.44	1.590
542.78	0.440
543.12	0.866
543.46	1.490
543.80	2.216
544.14	2.509
544.48	1.474
544.82	2.058
545.16	1.594
545.50	1.892
545.84	2.268
546.18	1.348
546.52	2.152
546.86	1.301
547.20	1.212
547.54	1.213
547.88	1.994
548.22	1.617
548.56	1.973
548.90	2.877
549.24	1.974
549.58	2.310
549.92	2.481
550.26	2.085
550.60	1.665
550.94	1.825
551.28	1.545
551.62	2.457
551.96	2.476
552.30	0.775
552.64	2.179
552.98	1.857
553.32	0.985
553.66	1.745
554.00	2.162
554.34	1.719
554.68	1.276
555.02	1.746
555.36	0.715
555.69	1.384
556.03	2.365
556.37	2.176
556.71	1.584
557.05	1.719
557.39	0.643
557.73	2.358
558.07	2.895
558.41	1.756
558.75	1.577
559.08	2.298
559.42	1.839
559.76	1.938
560.10	2.282
560.44	1.267
560.78	1.878
561.12	1.728
561.45	1.190
561.79	1.322
562.13	1.483
562.47	1.453
562.81	1.592
563.15	0.913
563.48	0.375
563.82	2.620
564.16	1.016
564.50	1.719
564.84	2.977
565.17	2.575
565.51	1.970
565.85	1.901
566.19	2.227
566.52	1.147
566.86	2.117
567.20	1.397
567.54	1.659
567.88	1.335
568.21	2.169
568.55	1.471
568.89	1.429
569.23	1.506
569.56	1.793
569.90	2.056
570.24	2.285
570.57	2.257
570.91	2.074
571.25	2.583
571.59	2.098
571.92	1.798
572.26	2.067
572.60	1.860
572.93	1.866
573.27	1.557
573.61	2.074
573.95	2.037
574.28	1.793
574.62	2.269
574.96	1.617
575.29	2.013
575.63	1.895
575.97	2.183
576.30	2.458
576.64	1.626
576.98	1.867
577.31	2.108
577.65	1.725
577.98	2.138
578.32	1.995
578.66	2.051
578.99	2.183
579.33	1.994
579.67	2.191
580.00	2.207
580.34	2.288
580.67	2.085
581.01	1.918
581.35	2.244
581.68	1.893
582.02	2.064
582.35	2.098
582.69	2.253
583.02	2.266
583.36	2.262
583.70	2.066
584.03	2.087
584.37	2.255
584.70	1.759
585.04	1.857
585.37	2.223
585.71	1.964
586.04	2.097
586.38	2.070
586.72	1.825
587.05	2.070
587.39	2.067
587.72	2.028
588.06	2.327
588.39	2.016
588.73	1.843
589.06	1.977
589.40	2.605
589.73	2.206
590.07	1.897
590.40	2.649
590.73	2.082
591.07	1.948
591.40	1.919
591.74	1.632
592.07	2.340
592.41	1.500
592.74	2.130
593.08	2.367
593.41	2.365
593.75	2.663
594.08	2.145
594.41	1.922
594.75	1.840
595.08	2.259
595.42	2.028
595.75	1.894
596.09	1.761
596.42	1.860
596.75	2.864
597.09	2.239
597.42	1.877
597.75	2.064
598.09	2.341
598.42	2.224
598.76	1.321
599.09	2.269
599.42	1.731
599.76	2.079
600.09	2.254
600.42	1.719
600.76	2.194
601.09	2.196
601.42	2.496
601.76	1.989
602.09	1.927
602.42	2.084
602.76	2.094
603.09	2.306
603.42	2.129
603.76	1.930
604.09	2.005
604.42	2.705
604.76	1.917
605.09	1.748
605.42	1.991
605.75	1.553
606.09	1.867
606.42	1.619
606.75	2.087
607.09	1.959
607.42	2.616
607.75	1.745
608.08	1.824
608.42	1.649
608.75	1.051
609.08	0.909
609.41	2.696
609.75	2.422
610.08	1.705
610.41	1.527
610.74	1.871
611.07	1.639
611.41	1.285
611.74	2.122
612.07	2.009
612.40	2.173
612.73	2.199
613.07	2.231
613.40	2.070
613.73	1.203
614.06	1.347
614.39	1.992
614.72	1.535
615.06	2.354
615.39	1.963
615.72	1.624
616.05	1.623
616.38	1.957
616.71	1.119
617.05	2.010
617.38	2.065
617.71	1.829
618.04	1.905
618.37	1.504
618.70	1.834
619.03	1.523
619.36	1.473
619.69	0.622
620.03	1.831
620.36	1.663
620.69	1.256
621.02	0.950
621.35	1.362
621.68	0.990
622.01	2.406
622.34	1.926
622.67	1.433
623.00	1.884
623.33	1.496
623.66	2.151
623.99	1.435
624.32	1.668
624.65	2.187
624.99	0.781
625.32	2.212
625.65	2.322
625.98	3.000
626.31	1.039
626.64	1.802
626.97	3.125
627.30	1.389
627.63	1.860
627.96	1.117
628.29	2.103
628.62	1.753
628.95	1.162
629.28	1.033
629.61	1.881
629.94	1.556
630.26	2.092
630.59	2.094
630.92	0.948
631.25	2.235
631.58	0.116
631.91	1.367
632.24	2.012
632.57	2.854
632.90	2.091
633.23	2.581
633.56	1.635
633.89	-0.792
634.22	1.282
634.55	1.051
634.88	2.142
635.20	1.507
635.53	0.838
635.86	1.902
636.19	2.865
636.52	2.156
636.85	0.652
637.18	2.979
637.51	1.626
637.83	1.955
638.16	2.276
638.49	2.305
638.82	0.844
639.15	1.429
639.48	0.582
639.81	1.490
640.13	1.378
640.46	0.472
640.79	-0.310
641.12	2.326
641.45	1.555
641.77	-0.159
642.10	3.257
642.43	1.852
642.76	2.151
643.09	1.384
643.41	1.434
643.74	0.694
644.07	-0.705
644.40	0.181
644.73	-0.368
645.05	0.191
645.38	-0.192
645.71	0.191
646.04	3.532
646.36	-0.189
646.69	2.708
647.02	2.734
647.35	1.000
647.67	3.006
648.00	4.272
648.33	0.771
648.66	0.742
648.98	2.712
649.31	-0.172
649.64	1.377
649.96	-0.169
650.29	0.708
650.62	-0.186
650.94	2.957
651.27	0.963
651.60	-0.191
651.92	-1.336
652.25	-0.191
652.58	0.000
652.90	1.246
653.23	-0.548
653.56	0.521
653.88	0.182
654.21	0.756
654.54	-0.375
654.86	1.619
655.19	0.484
655.52	2.004
655.84	1.967
656.17	2.123
