SpectraSuite Data File
++++++++++++++++++++++++++++++++++++
Date: Tue May 12 19:40:40 PDT 2015
User: schluterlab
Dark Spectrum Present: Yes
Reference Spectrum Present: Yes
Number of Sampled Component Spectra: 1
Spectrometers: USB2E3373
Integration Time (usec): 3000 (USB2E3373)
Spectra Averaged: 3 (USB2E3373)
Boxcar Smoothing: 0 (USB2E3373)
Correct for Electrical Dark: No (USB2E3373)
Strobe/Lamp Enabled: No (USB2E3373)
Correct for Detector Non-linearity: No (USB2E3373)
Correct for Stray Light: No (USB2E3373)
Number of Pixels in Processed Spectrum: 2048
>>>>>Begin Processed Spectral Data<<<<<
178.53	0.000
178.91	10.000
179.29	-33.333
179.67	233.333
180.04	0.000
180.42	-40.000
180.80	-400.000
181.18	1100.000
181.56	-200.000
181.94	183.333
182.31	600.000
182.69	28.571
183.07	0.000
183.45	208.333
183.83	180.000
184.20	150.000
184.58	650.000
184.96	133.333
185.34	-400.000
185.72	14.286
186.09	-50.000
186.47	-900.000
186.85	140.000
187.23	158.333
187.61	-128.571
187.98	-340.000
188.36	200.000
188.74	-350.000
189.12	-122.222
189.49	-50.000
189.87	225.000
190.25	77.778
190.63	133.333
191.00	60.000
191.38	-166.667
191.76	320.000
192.14	-85.714
192.51	-60.000
192.89	20.000
193.27	-100.000
193.65	-366.667
194.02	-50.000
194.40	200.000
194.78	-112.500
195.15	-114.286
195.53	300.000
195.91	60.000
196.29	-200.000
196.66	-300.000
197.04	-142.857
197.42	100.000
197.79	-87.500
198.17	0.000
198.55	-100.000
198.92	-200.000
199.30	450.000
199.68	-150.000
200.05	-650.000
200.43	-11.111
200.81	-133.333
201.18	216.667
201.56	0.000
201.94	-1900.000
202.31	-25.000
202.69	-22.222
203.07	-83.333
203.44	-350.000
203.82	0.000
204.19	162.500
204.57	-300.000
204.95	72.727
205.32	120.000
205.70	325.000
206.08	0.000
206.45	20.000
206.83	1400.000
207.20	-200.000
207.58	-30.769
207.96	133.333
208.33	700.000
208.71	400.000
209.08	1000.000
209.46	-55.556
209.84	466.667
210.21	-300.000
210.59	-100.000
210.96	155.556
211.34	-225.000
211.71	1000.000
212.09	120.000
212.46	-100.000
212.84	-100.000
213.22	114.286
213.59	-62.500
213.97	0.000
214.34	-500.000
214.72	-700.000
215.09	450.000
215.47	33.333
215.84	-12.500
216.22	-1300.000
216.59	900.000
216.97	-41.667
217.34	16.667
217.72	61.111
218.09	100.000
218.47	31.579
218.84	-187.500
219.22	-21.429
219.59	-90.000
219.97	-20.000
220.34	16.667
220.72	109.091
221.09	-300.000
221.47	0.000
221.84	550.000
222.22	-300.000
222.59	-175.000
222.97	17.391
223.34	86.667
223.72	314.286
224.09	-66.667
224.46	115.385
224.84	-33.333
225.21	50.000
225.59	-375.000
225.96	55.000
226.34	266.667
226.71	250.000
227.08	-53.846
227.46	-114.286
227.83	-41.667
228.21	-750.000
228.58	216.667
228.95	5.263
229.33	-37.500
229.70	-100.000
230.08	0.000
230.45	-500.000
230.82	-900.000
231.20	33.333
231.57	-160.000
231.95	-433.333
232.32	177.778
232.69	-500.000
233.07	-43.750
233.44	-62.500
233.81	6.452
234.19	-120.000
234.56	-5.556
234.93	-266.667
235.31	33.333
235.68	-25.926
236.05	-11.538
236.43	-5.263
236.80	-27.273
237.17	-114.286
237.55	-40.000
237.92	4.651
238.29	-9.677
238.67	-17.857
239.04	-8.571
239.41	-15.686
239.79	2.000
240.16	7.500
240.53	-13.793
240.91	-13.699
241.28	-25.352
241.65	3.125
242.02	-24.561
242.40	-12.000
242.77	-1.053
243.14	9.412
243.51	-8.602
243.89	-13.333
244.26	-2.778
244.63	-17.347
245.00	-9.821
245.38	-7.563
245.75	-14.407
246.12	8.594
246.49	-8.800
246.87	-8.197
247.24	-16.197
247.61	-5.960
247.98	-0.562
248.36	-6.918
248.73	-4.545
249.10	-2.222
249.47	0.521
249.84	-9.645
250.22	-6.771
250.59	-6.742
250.96	-1.364
251.33	3.774
251.70	-2.294
252.08	1.732
252.45	0.000
252.82	-5.485
253.19	-2.335
253.56	0.784
253.94	-1.626
254.31	2.878
254.68	-4.861
255.05	-1.656
255.42	-2.909
255.79	1.325
256.16	-6.250
256.54	2.121
256.91	2.564
257.28	2.273
257.65	-4.590
258.02	0.000
258.39	3.021
258.76	-2.752
259.14	-4.118
259.51	5.352
259.88	1.153
260.25	-3.409
260.62	-1.404
260.99	1.671
261.36	-3.161
261.73	1.067
262.10	-0.272
262.47	0.551
262.85	1.285
263.22	-3.226
263.59	1.609
263.96	-1.828
264.33	-5.391
264.70	-2.457
265.07	-0.739
265.44	0.000
265.81	1.205
266.18	-0.703
266.55	-1.905
266.92	3.125
267.29	-2.222
267.66	-4.773
268.03	0.860
268.40	0.229
268.77	-2.004
269.14	-0.630
269.51	-3.394
269.88	-1.282
270.25	-0.844
270.62	-0.420
270.99	-0.211
271.36	-3.091
271.73	1.250
272.10	1.867
272.47	-1.400
272.84	-3.822
273.21	-1.879
273.58	-1.224
273.95	1.195
274.32	0.967
274.69	-0.587
275.06	-1.126
275.43	-3.000
275.80	-0.382
276.17	-2.767
276.54	1.521
276.91	0.384
277.28	-0.387
277.65	-0.378
278.02	0.189
278.39	-0.363
278.76	1.304
279.13	0.179
279.50	0.181
279.87	-0.755
280.23	-1.275
280.60	-0.177
280.97	0.351
281.34	0.169
281.71	-1.776
282.08	-0.894
282.45	-1.411
282.82	-1.010
283.19	0.337
283.56	0.341
283.92	-0.474
284.29	-0.169
284.66	-1.770
285.03	-3.087
285.40	0.500
285.77	1.314
286.14	-0.317
286.51	-0.161
286.87	0.324
287.24	-3.365
287.61	-0.154
287.98	1.878
288.35	-0.465
288.72	2.446
289.08	-2.201
289.45	-0.156
289.82	-0.311
290.19	1.061
290.56	0.579
290.93	1.329
291.29	0.426
291.66	0.281
292.03	1.435
292.40	0.863
292.77	0.146
293.13	-0.294
293.50	-0.138
293.87	-0.277
294.24	0.562
294.60	0.820
294.97	0.000
295.34	-0.137
295.71	-0.555
296.08	0.273
296.44	0.395
296.81	-0.647
297.18	0.259
297.55	-1.256
297.91	-1.396
298.28	-0.128
298.65	0.129
299.02	0.740
299.38	-1.403
299.75	0.000
300.12	-0.120
300.48	1.056
300.85	-0.489
301.22	0.361
301.59	1.095
301.95	1.220
302.32	-1.580
302.69	-1.308
303.05	0.472
303.42	-0.604
303.79	-1.011
304.15	0.566
304.52	-0.782
304.89	-0.676
305.25	0.917
305.62	-0.114
305.99	-1.120
306.35	-0.783
306.72	1.198
307.09	0.326
307.45	-0.216
307.82	1.067
308.19	0.330
308.55	1.371
308.92	0.636
309.29	-0.314
309.65	-0.619
310.02	0.105
310.38	0.426
310.75	-0.307
311.12	0.509
311.48	1.439
311.85	0.811
312.22	0.103
312.58	0.201
312.95	0.924
313.31	0.492
313.68	0.099
314.05	1.192
314.41	-0.196
314.78	-1.106
315.14	0.588
315.51	1.291
315.87	1.465
316.24	1.385
316.61	1.165
316.97	0.490
317.34	0.287
317.70	0.373
318.07	0.675
318.43	1.229
318.80	0.638
319.16	-0.186
319.53	0.660
319.89	1.042
320.26	0.885
320.62	1.938
320.99	2.959
321.35	1.779
321.72	1.616
322.08	1.881
322.45	1.479
322.81	1.182
323.18	1.534
323.54	1.991
323.91	2.087
324.27	0.771
324.64	0.750
325.00	0.637
325.37	1.619
325.73	0.456
326.10	0.350
326.46	0.725
326.83	1.319
327.19	1.310
327.56	2.299
327.92	1.128
328.29	1.613
328.65	1.789
329.01	1.835
329.38	2.479
329.74	1.393
330.11	1.025
330.47	1.955
330.84	1.410
331.20	1.386
331.56	1.132
331.93	0.549
332.29	0.833
332.66	1.627
333.02	1.764
333.38	1.562
333.75	0.640
334.11	0.904
334.48	1.342
334.84	0.563
335.20	0.179
335.57	1.272
335.93	1.674
336.29	1.188
336.66	2.368
337.02	1.904
337.38	1.321
337.75	0.818
338.11	2.552
338.47	1.393
338.84	0.921
339.20	2.383
339.56	0.373
339.93	2.162
340.29	1.541
340.65	1.370
341.02	0.974
341.38	1.853
341.74	2.135
342.11	1.326
342.47	1.311
342.83	1.301
343.20	2.034
343.56	0.787
343.92	1.575
344.28	0.772
344.65	1.284
345.01	1.394
345.37	2.051
345.73	1.378
346.10	2.247
346.46	1.294
346.82	2.124
347.19	2.691
347.55	2.296
347.91	1.147
348.27	2.612
348.63	2.161
349.00	2.588
349.36	3.050
349.72	2.709
350.08	2.700
350.45	2.766
350.81	2.230
351.17	2.636
351.53	3.623
351.89	1.468
352.26	1.301
352.62	2.371
352.98	2.510
353.34	2.757
353.70	0.988
354.07	2.883
354.43	1.669
354.79	2.049
355.15	1.856
355.51	2.608
355.87	3.247
356.24	3.676
356.60	3.255
356.96	2.370
357.32	3.457
357.68	3.341
358.04	1.945
358.40	2.373
358.77	2.490
359.13	2.972
359.49	2.400
359.85	3.197
360.21	2.696
360.57	1.834
360.93	2.454
361.29	2.570
361.66	1.814
362.02	2.512
362.38	3.186
362.74	2.306
363.10	3.167
363.46	2.784
363.82	2.603
364.18	3.028
364.54	2.901
364.90	2.444
365.26	3.130
365.62	2.044
365.98	3.298
366.35	3.177
366.71	3.585
367.07	3.616
367.43	2.455
367.79	2.398
368.15	2.817
368.51	2.846
368.87	2.570
369.23	2.422
369.59	3.235
369.95	1.863
370.31	2.879
370.67	3.609
371.03	2.632
371.39	3.852
371.75	3.343
372.11	2.519
372.47	2.747
372.83	3.433
373.19	3.539
373.55	2.695
373.91	2.576
374.27	2.870
374.63	3.461
374.99	1.537
375.35	2.830
375.71	3.013
376.07	3.180
376.42	2.835
376.78	2.300
377.14	3.631
377.50	3.078
377.86	3.412
378.22	3.633
378.58	3.553
378.94	3.209
379.30	3.218
379.66	3.137
380.02	2.988
380.38	2.926
380.74	4.475
381.09	3.113
381.45	2.984
381.81	3.253
382.17	3.779
382.53	4.011
382.89	2.694
383.25	3.551
383.61	2.352
383.97	3.899
384.32	3.290
384.68	3.768
385.04	2.546
385.40	3.770
385.76	3.985
386.12	3.036
386.48	3.653
386.83	4.147
387.19	3.640
387.55	2.526
387.91	3.551
388.27	3.455
388.62	3.174
388.98	3.817
389.34	3.448
389.70	3.333
390.06	3.498
390.42	3.516
390.77	4.158
391.13	4.034
391.49	3.841
391.85	3.327
392.20	3.894
392.56	3.078
392.92	3.649
393.28	4.608
393.64	3.167
393.99	3.247
394.35	3.569
394.71	4.238
395.07	4.576
395.42	3.873
395.78	3.159
396.14	3.398
396.50	4.528
396.85	3.900
397.21	3.816
397.57	4.147
397.92	4.071
398.28	4.017
398.64	3.746
399.00	4.411
399.35	4.279
399.71	4.251
400.07	4.694
400.42	4.872
400.78	4.543
401.14	4.924
401.49	3.998
401.85	4.317
402.21	4.886
402.57	3.863
402.92	4.449
403.28	4.291
403.63	4.872
403.99	3.699
404.35	4.968
404.70	4.370
405.06	4.402
405.42	4.684
405.77	4.697
406.13	4.182
406.49	4.101
406.84	5.293
407.20	4.709
407.55	5.010
407.91	4.545
408.27	5.519
408.62	4.373
408.98	5.727
409.34	5.186
409.69	4.749
410.05	4.987
410.40	4.110
410.76	5.542
411.11	4.977
411.47	5.374
411.83	5.538
412.18	5.366
412.54	5.369
412.89	4.922
413.25	5.329
413.60	6.059
413.96	5.566
414.31	5.099
414.67	7.022
415.03	5.809
415.38	6.058
415.74	5.910
416.09	5.582
416.45	5.662
416.80	4.729
417.16	5.571
417.51	6.662
417.87	6.703
418.22	6.684
418.58	6.220
418.93	6.125
419.29	5.767
419.64	5.701
420.00	6.942
420.35	6.591
420.71	6.146
421.06	6.360
421.42	6.085
421.77	7.065
422.12	6.438
422.48	6.910
422.83	6.869
423.19	7.706
423.54	6.414
423.90	6.428
424.25	6.888
424.61	6.839
424.96	7.371
425.31	7.246
425.67	7.515
426.02	6.273
426.38	6.371
426.73	7.040
427.09	6.632
427.44	7.531
427.79	7.921
428.15	6.595
428.50	7.977
428.85	7.184
429.21	8.548
429.56	7.459
429.92	6.977
430.27	6.773
430.62	7.247
430.98	8.060
431.33	7.898
431.68	7.385
432.04	7.825
432.39	8.021
432.74	8.096
433.10	7.762
433.45	7.410
433.80	8.393
434.16	8.458
434.51	8.528
434.86	7.492
435.22	7.916
435.57	8.773
435.92	6.687
436.28	7.285
436.63	8.289
436.98	8.333
437.34	8.317
437.69	7.778
438.04	7.812
438.39	8.094
438.75	8.492
439.10	8.988
439.45	9.820
439.81	8.063
440.16	8.287
440.51	8.364
440.86	8.460
441.22	8.874
441.57	9.117
441.92	9.056
442.27	8.743
442.63	8.239
442.98	9.046
443.33	9.166
443.68	8.486
444.03	8.557
444.39	8.589
444.74	8.014
445.09	8.914
445.44	9.096
445.79	9.655
446.15	9.096
446.50	8.907
446.85	9.351
447.20	9.464
447.55	9.017
447.91	9.935
448.26	9.199
448.61	9.305
448.96	8.575
449.31	9.584
449.66	8.838
450.02	8.462
450.37	9.113
450.72	8.977
451.07	9.624
451.42	10.211
451.77	8.890
452.12	9.148
452.47	9.688
452.83	9.838
453.18	9.858
453.53	9.471
453.88	10.019
454.23	10.160
454.58	10.117
454.93	8.787
455.28	9.165
455.63	9.682
455.98	9.708
456.34	9.712
456.69	9.817
457.04	9.777
457.39	9.488
457.74	9.861
458.09	10.579
458.44	9.933
458.79	8.834
459.14	10.793
459.49	9.745
459.84	10.404
460.19	9.381
460.54	10.227
460.89	10.059
461.24	10.584
461.59	10.789
461.94	9.599
462.29	10.150
462.64	9.819
462.99	8.774
463.34	10.183
463.69	10.562
464.04	10.071
464.39	9.518
464.74	10.188
465.09	10.997
465.44	10.438
465.79	9.868
466.14	9.905
466.49	9.816
466.84	10.135
467.19	10.396
467.54	10.279
467.89	10.647
468.24	10.038
468.59	10.537
468.94	9.953
469.29	10.519
469.64	10.941
469.99	9.589
470.34	10.679
470.68	10.692
471.03	10.219
471.38	9.873
471.73	10.828
472.08	10.249
472.43	11.203
472.78	10.080
473.13	11.439
473.48	10.443
473.83	11.096
474.17	10.340
474.52	10.717
474.87	10.859
475.22	10.991
475.57	10.811
475.92	10.574
476.27	11.151
476.61	11.584
476.96	10.729
477.31	11.187
477.66	10.750
478.01	10.065
478.36	10.946
478.70	11.662
479.05	10.795
479.40	11.111
479.75	12.227
480.10	11.472
480.45	11.571
480.79	11.780
481.14	10.754
481.49	11.517
481.84	10.404
482.19	11.220
482.53	11.225
482.88	10.625
483.23	11.055
483.58	11.089
483.92	11.508
484.27	11.762
484.62	11.975
484.97	11.292
485.31	11.330
485.66	11.154
486.01	10.560
486.36	10.653
486.70	10.888
487.05	11.035
487.40	11.367
487.75	10.965
488.09	11.310
488.44	10.785
488.79	12.041
489.13	11.222
489.48	11.440
489.83	11.512
490.17	11.580
490.52	11.329
490.87	12.315
491.22	11.538
491.56	11.413
491.91	10.843
492.26	11.831
492.60	12.092
492.95	11.345
493.30	11.709
493.64	11.714
493.99	11.858
494.34	11.860
494.68	11.001
495.03	10.953
495.37	11.860
495.72	11.920
496.07	12.120
496.41	10.573
496.76	11.414
497.11	11.521
497.45	12.104
497.80	11.734
498.14	11.563
498.49	11.692
498.84	11.164
499.18	12.299
499.53	12.928
499.87	11.623
500.22	12.052
500.56	12.297
500.91	12.218
501.26	11.759
501.60	12.589
501.95	12.180
502.29	12.673
502.64	12.344
502.98	11.762
503.33	12.282
503.67	12.251
504.02	11.798
504.36	12.224
504.71	12.553
505.06	12.159
505.40	13.083
505.75	12.796
506.09	12.568
506.44	12.661
506.78	11.991
507.13	13.029
507.47	13.296
507.82	12.891
508.16	12.528
508.51	13.293
508.85	12.692
509.19	12.397
509.54	12.408
509.88	12.601
510.23	12.809
510.57	12.209
510.92	13.379
511.26	12.694
511.61	13.299
511.95	13.707
512.30	13.391
512.64	13.607
512.98	13.467
513.33	12.778
513.67	12.335
514.02	13.341
514.36	13.879
514.70	14.511
515.05	14.268
515.39	15.056
515.74	14.286
516.08	13.936
516.42	14.730
516.77	14.410
517.11	14.557
517.46	14.678
517.80	13.976
518.14	14.801
518.49	15.201
518.83	15.240
519.17	14.332
519.52	14.866
519.86	15.199
520.20	14.331
520.55	15.796
520.89	16.464
521.23	15.498
521.58	15.675
521.92	15.087
522.26	15.395
522.61	16.246
522.95	15.959
523.29	15.452
523.64	16.011
523.98	15.927
524.32	17.172
524.66	16.044
525.01	16.564
525.35	15.595
525.69	16.999
526.04	16.913
526.38	15.764
526.72	16.458
527.06	17.229
527.41	15.946
527.75	17.444
528.09	16.407
528.43	17.151
528.78	17.051
529.12	16.644
529.46	17.076
529.80	16.542
530.15	17.582
530.49	16.597
530.83	16.992
531.17	17.020
531.51	17.416
531.86	18.137
532.20	16.739
532.54	17.626
532.88	16.800
533.22	16.810
533.57	17.448
533.91	16.999
534.25	16.904
534.59	16.850
534.93	17.529
535.27	17.104
535.62	17.286
535.96	17.306
536.30	17.189
536.64	17.525
536.98	18.289
537.32	17.560
537.66	18.109
538.01	18.115
538.35	18.691
538.69	17.268
539.03	18.241
539.37	17.444
539.71	17.754
540.05	17.656
540.39	17.938
540.73	18.901
541.07	18.456
541.42	18.674
541.76	18.058
542.10	18.795
542.44	18.714
542.78	17.815
543.12	16.895
543.46	18.033
543.80	18.156
544.14	17.993
544.48	18.246
544.82	17.388
545.16	18.768
545.50	18.705
545.84	19.093
546.18	18.502
546.52	17.909
546.86	18.210
547.20	18.409
547.54	18.044
547.88	18.661
548.22	17.581
548.56	18.252
548.90	17.825
549.24	17.836
549.58	18.852
549.92	19.173
550.26	19.614
550.60	18.953
550.94	19.206
551.28	18.537
551.62	19.247
551.96	19.808
552.30	19.147
552.64	18.407
552.98	18.053
553.32	18.106
553.66	18.816
554.00	19.073
554.34	19.453
554.68	18.182
555.02	18.571
555.36	17.871
555.69	18.063
556.03	19.290
556.37	18.455
556.71	19.005
557.05	18.906
557.39	18.233
557.73	18.003
558.07	18.701
558.41	19.473
558.75	17.925
559.08	19.489
559.42	18.144
559.76	18.197
560.10	19.723
560.44	17.894
560.78	17.806
561.12	18.482
561.45	19.122
561.79	17.254
562.13	17.939
562.47	17.049
562.81	16.755
563.15	18.023
563.48	18.127
563.82	17.249
564.16	17.054
564.50	17.550
564.84	17.931
565.17	17.883
565.51	17.452
565.85	18.662
566.19	18.511
566.52	18.351
566.86	18.101
567.20	17.631
567.54	16.975
567.88	16.869
568.21	17.175
568.55	16.978
568.89	16.703
569.23	16.365
569.56	17.103
569.90	16.274
570.24	16.273
570.57	15.764
570.91	16.412
571.25	15.978
571.59	16.197
571.92	15.380
572.26	15.304
572.60	15.715
572.93	15.259
573.27	15.217
573.61	15.785
573.95	15.248
574.28	15.310
574.62	14.710
574.96	14.602
575.29	14.610
575.63	14.572
575.97	14.424
576.30	14.922
576.64	14.416
576.98	14.244
577.31	14.707
577.65	15.097
577.98	14.270
578.32	14.396
578.66	14.531
578.99	14.827
579.33	14.625
579.67	14.763
580.00	14.564
580.34	14.413
580.67	14.725
581.01	14.670
581.35	14.318
581.68	14.609
582.02	14.053
582.35	14.437
582.69	14.427
583.02	13.919
583.36	14.373
583.70	14.854
584.03	14.997
584.37	15.101
584.70	14.270
585.04	14.374
585.37	14.056
585.71	14.527
586.04	14.448
586.38	14.301
586.72	14.160
587.05	14.729
587.39	14.700
587.72	14.476
588.06	14.186
588.39	14.373
588.73	14.397
589.06	14.333
589.40	14.643
589.73	14.847
590.07	14.673
590.40	14.670
590.73	14.827
591.07	14.805
591.40	14.801
591.74	14.832
592.07	14.947
592.41	15.089
592.74	14.487
593.08	13.899
593.41	14.330
593.75	14.628
594.08	14.516
594.41	14.393
594.75	14.683
595.08	14.297
595.42	14.495
595.75	14.470
596.09	14.171
596.42	14.503
596.75	14.727
597.09	14.646
597.42	14.172
597.75	14.634
598.09	14.279
598.42	14.718
598.76	14.936
599.09	14.328
599.42	13.769
599.76	13.770
600.09	14.077
600.42	13.320
600.76	13.895
601.09	13.922
601.42	14.372
601.76	13.555
602.09	13.909
602.42	14.590
602.76	14.180
603.09	14.143
603.42	13.969
603.76	13.764
604.09	14.244
604.42	14.126
604.76	13.510
605.09	13.604
605.42	14.265
605.75	13.659
606.09	13.689
606.42	13.692
606.75	14.032
607.09	13.526
607.42	13.538
607.75	13.545
608.08	13.985
608.42	13.967
608.75	13.307
609.08	13.125
609.41	14.308
609.75	14.060
610.08	13.540
610.41	13.740
610.74	13.094
611.07	13.802
611.41	13.062
611.74	13.928
612.07	13.449
612.40	13.593
612.73	14.062
613.07	14.093
613.40	12.996
613.73	12.371
614.06	13.232
614.39	13.767
614.72	13.046
615.06	14.696
615.39	14.203
615.72	13.326
616.05	12.986
616.38	13.108
616.71	13.433
617.05	13.631
617.38	14.645
617.71	13.586
618.04	13.601
618.37	13.407
618.70	13.315
619.03	13.633
619.36	14.801
619.69	12.908
620.03	14.416
620.36	13.454
620.69	13.378
621.02	12.985
621.35	13.787
621.68	13.771
622.01	15.152
622.34	14.657
622.67	14.081
623.00	13.350
623.33	14.016
623.66	14.422
623.99	13.477
624.32	13.185
624.65	13.203
624.99	12.734
625.32	13.428
625.65	13.371
625.98	14.500
626.31	13.593
626.64	12.973
626.97	15.074
627.30	14.815
627.63	13.581
627.96	14.991
628.29	14.340
628.62	14.227
628.95	13.622
629.28	15.393
629.61	14.525
629.94	13.485
630.26	14.121
630.59	14.764
630.92	12.856
631.25	13.966
631.58	12.442
631.91	14.009
632.24	15.148
632.57	14.863
632.90	15.498
633.23	16.387
633.56	14.465
633.89	14.776
634.22	14.103
634.55	13.929
634.88	14.859
635.20	14.247
635.53	13.408
635.86	15.217
636.19	13.643
636.52	13.612
636.85	13.429
637.18	16.580
637.51	15.312
637.83	14.106
638.16	15.647
638.49	15.274
638.82	12.236
639.15	13.857
639.48	12.664
639.81	13.860
640.13	14.242
640.46	16.063
640.79	15.349
641.12	13.488
641.45	13.530
641.77	14.490
642.10	14.984
642.43	14.815
642.76	14.158
643.09	15.398
643.41	15.412
