SpectraSuite Data File
++++++++++++++++++++++++++++++++++++
Date: Tue May 12 19:43:04 PDT 2015
User: schluterlab
Dark Spectrum Present: Yes
Reference Spectrum Present: Yes
Number of Sampled Component Spectra: 1
Spectrometers: USB2E3373
Integration Time (usec): 3000 (USB2E3373)
Spectra Averaged: 3 (USB2E3373)
Boxcar Smoothing: 0 (USB2E3373)
Correct for Electrical Dark: No (USB2E3373)
Strobe/Lamp Enabled: No (USB2E3373)
Correct for Detector Non-linearity: No (USB2E3373)
Correct for Stray Light: No (USB2E3373)
Number of Pixels in Processed Spectrum: 2048
>>>>>Begin Processed Spectral Data<<<<<
178.53	0.000
178.91	-90.000
179.29	-116.667
179.67	300.000
180.04	0.000
180.42	-180.000
180.80	-33.333
181.18	600.000
181.56	150.000
181.94	166.667
182.31	700.000
182.69	14.286
183.07	0.000
183.45	166.667
183.83	80.000
184.20	100.000
184.58	850.000
184.96	216.667
185.34	-300.000
185.72	-14.286
186.09	-66.667
186.47	-1100.000
186.85	-40.000
187.23	66.667
187.61	-28.571
187.98	-100.000
188.36	-0.000
188.74	150.000
189.12	-88.889
189.49	-50.000
189.87	100.000
190.25	144.444
190.63	266.667
191.00	360.000
191.38	-466.667
191.76	240.000
192.14	14.286
192.51	-50.000
192.89	0.000
193.27	-180.000
193.65	-166.667
194.02	-216.667
194.40	300.000
194.78	0.000
195.15	-71.429
195.53	200.000
195.91	240.000
196.29	-175.000
196.66	-66.667
197.04	-271.429
197.42	100.000
197.79	-150.000
198.17	0.000
198.55	600.000
198.92	-44.444
199.30	650.000
199.68	-250.000
200.05	-350.000
200.43	-61.111
200.81	8.333
201.18	283.333
201.56	50.000
201.94	-1000.000
202.31	25.000
202.69	-22.222
203.07	25.000
203.44	-250.000
203.82	0.000
204.19	162.500
204.57	-300.000
204.95	100.000
205.32	200.000
205.70	175.000
206.08	-100.000
206.45	0.000
206.83	1500.000
207.20	-155.556
207.58	84.615
207.96	166.667
208.33	666.667
208.71	500.000
209.08	800.000
209.46	66.667
209.84	600.000
210.21	-466.667
210.59	200.000
210.96	177.778
211.34	-25.000
211.71	700.000
212.09	0.000
212.46	12.500
212.84	-112.500
213.22	100.000
213.59	-25.000
213.97	0.000
214.34	-500.000
214.72	-1400.000
215.09	650.000
215.47	-46.667
215.84	-37.500
216.22	-800.000
216.59	-0.000
216.97	-66.667
217.34	-133.333
217.72	11.111
218.09	300.000
218.47	0.000
218.84	-12.500
219.22	14.286
219.59	-130.000
219.97	10.000
220.34	216.667
220.72	90.909
221.09	-350.000
221.47	0.000
221.84	200.000
222.22	125.000
222.59	-250.000
222.97	-8.696
223.34	60.000
223.72	214.286
224.09	-150.000
224.46	100.000
224.84	6.667
225.21	-250.000
225.59	-250.000
225.96	70.000
226.34	300.000
226.71	120.000
227.08	-15.385
227.46	-57.143
227.83	-33.333
228.21	-1000.000
228.58	116.667
228.95	-10.526
229.33	6.250
229.70	-150.000
230.08	-88.889
230.45	-300.000
230.82	-1500.000
231.20	4.762
231.57	-260.000
231.95	-333.333
232.32	11.111
232.69	-800.000
233.07	25.000
233.44	-100.000
233.81	38.710
234.19	-320.000
234.56	-33.333
234.93	-216.667
235.31	0.000
235.68	-14.815
236.05	-23.077
236.43	-21.053
236.80	-50.000
237.17	-7.143
237.55	-5.000
237.92	30.233
238.29	22.581
238.67	-3.571
239.04	20.000
239.41	5.882
239.79	8.000
240.16	25.000
240.53	-1.724
240.91	9.589
241.28	5.634
241.65	28.125
242.02	-3.509
242.40	16.000
242.77	18.947
243.14	23.529
243.51	19.355
243.89	15.238
244.26	16.667
244.63	26.531
245.00	14.286
245.38	10.924
245.75	20.339
246.12	21.875
246.49	20.000
246.87	10.656
247.24	11.972
247.61	18.543
247.98	17.416
248.36	19.497
248.73	19.886
249.10	20.556
249.47	18.750
249.84	20.305
250.22	15.104
250.59	23.034
250.96	22.727
251.33	27.830
251.70	22.936
252.08	25.541
252.45	25.714
252.82	19.409
253.19	19.455
253.56	23.137
253.94	23.171
254.31	23.741
254.68	17.361
255.05	28.146
255.42	20.727
255.79	25.828
256.16	23.611
256.54	20.909
256.91	24.679
257.28	22.078
257.65	19.672
258.02	26.126
258.39	22.356
258.76	26.606
259.14	20.882
259.51	25.070
259.88	27.089
260.25	21.307
260.62	21.910
260.99	22.841
261.36	22.989
261.73	24.267
262.10	23.433
262.47	24.242
262.85	23.907
263.22	20.161
263.59	20.643
263.96	22.454
264.33	22.642
264.70	21.867
265.07	23.892
265.44	23.419
265.81	24.819
266.18	23.419
266.55	25.000
266.92	21.875
267.29	22.889
267.66	22.727
268.03	24.086
268.40	22.883
268.77	24.276
269.14	22.059
269.51	22.851
269.88	22.009
270.25	22.996
270.62	25.420
270.99	25.684
271.36	24.062
271.73	21.875
272.10	23.444
272.47	25.200
272.84	22.081
273.21	21.712
273.58	22.653
273.95	22.908
274.32	22.437
274.69	22.896
275.06	23.640
275.43	21.200
275.80	24.665
276.17	23.518
276.54	23.954
276.91	23.608
277.28	22.244
277.65	21.361
278.02	22.159
278.39	24.319
278.76	24.767
279.13	23.077
279.50	21.841
279.87	25.094
280.23	23.315
280.60	20.671
280.97	22.496
281.34	24.068
281.71	20.782
282.08	21.825
282.45	21.693
282.82	21.886
283.19	22.391
283.56	22.696
283.92	21.959
284.29	24.365
284.66	20.177
285.03	18.182
285.40	23.167
285.77	22.824
286.14	19.810
286.51	19.453
286.87	21.394
287.24	19.712
287.61	22.068
287.98	23.318
288.35	21.085
288.72	20.336
289.08	17.296
289.45	19.657
289.82	19.565
290.19	20.303
290.56	22.865
290.93	21.566
291.29	20.993
291.66	21.770
292.03	22.095
292.40	20.719
292.77	18.659
293.13	19.824
293.50	19.284
293.87	20.250
294.24	19.242
294.60	20.219
294.97	16.482
295.34	18.219
295.71	19.001
296.08	19.399
296.44	19.895
296.81	17.853
297.18	19.276
297.55	17.839
297.91	18.020
298.28	17.136
298.65	17.464
299.02	19.605
299.38	15.944
299.75	17.632
300.12	19.065
300.48	18.310
300.85	17.359
301.22	19.832
301.59	18.005
301.95	17.561
302.32	17.375
302.69	16.409
303.05	16.411
303.42	16.063
303.79	15.955
304.15	16.308
304.52	17.765
304.89	15.784
305.25	18.005
305.62	15.795
305.99	16.685
306.35	18.345
306.72	16.231
307.09	16.322
307.45	16.505
307.82	17.930
308.19	18.262
308.55	17.300
308.92	17.267
309.29	18.410
309.65	17.234
310.02	17.820
310.38	17.591
310.75	17.828
311.12	17.192
311.48	18.705
311.85	17.629
312.22	17.562
312.58	17.523
312.95	18.378
313.31	17.994
313.68	19.563
314.05	20.060
314.41	19.155
314.78	19.196
315.14	20.274
315.51	19.265
315.87	20.312
316.24	19.585
316.61	20.874
316.97	20.686
317.34	22.297
317.70	21.289
318.07	22.758
318.43	21.456
318.80	22.495
319.16	21.435
319.53	23.302
319.89	23.864
320.26	25.369
320.62	24.806
320.99	25.918
321.35	25.296
321.72	26.364
322.08	26.832
322.45	26.233
322.81	27.389
323.18	27.900
323.54	27.583
323.91	27.514
324.27	28.351
324.64	29.053
325.00	31.119
325.37	30.576
325.73	30.839
326.10	31.961
326.46	32.457
326.83	31.662
327.19	32.402
327.56	34.041
327.92	32.639
328.29	33.333
328.65	34.934
329.01	35.138
329.38	36.364
329.74	36.026
330.11	35.788
330.47	36.965
330.84	36.842
331.20	36.599
331.56	35.755
331.93	36.871
332.29	35.615
332.66	38.427
333.02	38.347
333.38	38.511
333.75	38.884
334.11	38.969
334.48	38.014
334.84	38.498
335.20	38.854
335.57	38.420
335.93	40.372
336.29	39.580
336.66	39.526
337.02	40.798
337.38	40.283
337.75	41.545
338.11	42.571
338.47	42.340
338.84	40.608
339.20	42.438
339.56	41.007
339.93	41.532
340.29	42.067
340.65	42.557
341.02	42.161
341.38	42.718
341.74	42.972
342.11	44.739
342.47	42.133
342.83	41.110
343.20	43.148
343.56	43.531
343.92	46.107
344.28	41.938
344.65	44.863
345.01	44.686
345.37	44.701
345.73	42.550
346.10	45.635
346.46	44.866
346.82	45.115
347.19	44.323
347.55	44.388
347.91	43.571
348.27	45.409
348.63	45.808
349.00	46.995
349.36	46.331
349.72	46.305
350.08	46.727
350.45	46.216
350.81	46.408
351.17	44.975
351.53	45.894
351.89	47.755
352.26	46.748
352.62	47.179
352.98	47.782
353.34	47.786
353.70	45.267
354.07	48.023
354.43	46.327
354.79	47.377
355.15	46.086
355.51	48.818
355.87	48.543
356.24	47.304
356.60	49.416
356.96	46.603
357.32	49.136
357.68	47.812
358.04	48.136
358.40	48.282
358.77	47.952
359.13	48.434
359.49	48.000
359.85	48.761
360.21	48.216
360.57	48.246
360.93	49.010
361.29	48.131
361.66	47.082
362.02	49.608
362.38	48.951
362.74	49.808
363.10	47.738
363.46	48.533
363.82	48.469
364.18	48.221
364.54	49.618
364.90	49.407
365.26	50.224
365.62	49.054
365.98	50.000
366.35	50.454
366.71	49.813
367.07	49.225
367.43	48.159
367.79	49.637
368.15	50.185
368.51	50.637
368.87	50.220
369.23	50.719
369.59	49.485
369.95	50.075
370.31	50.152
370.67	48.496
371.03	49.613
371.39	50.982
371.75	49.331
372.11	49.259
372.47	50.111
372.83	51.717
373.19	51.807
373.55	50.225
373.91	50.606
374.27	51.508
374.63	50.147
374.99	50.366
375.35	50.653
375.71	49.498
376.07	50.177
376.42	50.899
376.78	50.871
377.14	50.489
377.50	51.094
377.86	52.437
378.22	50.462
378.58	52.500
378.94	51.015
379.30	50.193
379.66	50.128
380.02	50.668
380.38	51.590
380.74	51.461
381.09	50.381
381.45	50.603
381.81	50.446
382.17	50.423
382.53	51.151
382.89	50.866
383.25	50.983
383.61	49.841
383.97	49.708
384.32	50.774
384.68	50.830
385.04	49.841
385.40	49.457
385.76	50.158
386.12	49.571
386.48	49.315
386.83	51.481
387.19	50.830
387.55	49.935
387.91	49.470
388.27	50.160
388.62	49.741
388.98	50.254
389.34	49.902
389.70	50.833
390.06	50.825
390.42	50.439
390.77	49.832
391.13	48.992
391.49	50.606
391.85	50.100
392.20	49.505
392.56	49.247
392.92	50.155
393.28	47.516
393.64	49.905
393.99	48.247
394.35	48.670
394.71	48.212
395.07	50.199
395.42	48.444
395.78	49.059
396.14	47.968
396.50	48.642
396.85	48.645
397.21	48.965
397.57	48.585
397.92	48.282
398.28	48.441
398.64	46.794
399.00	46.721
399.35	47.304
399.71	46.826
400.07	47.746
400.42	47.051
400.78	47.281
401.14	46.717
401.49	46.721
401.85	46.984
402.21	47.462
402.57	45.396
402.92	46.813
403.28	47.204
403.63	46.474
403.99	44.980
404.35	45.669
404.70	46.168
405.06	46.497
405.42	44.697
405.77	44.768
406.13	44.982
406.49	45.110
406.84	44.334
407.20	44.300
407.55	45.291
407.91	44.336
408.27	45.346
408.62	44.116
408.98	45.109
409.34	43.470
409.69	43.077
410.05	43.459
410.40	42.453
410.76	43.524
411.11	43.504
411.47	44.558
411.83	42.498
412.18	42.343
412.54	43.273
412.89	42.617
413.25	42.508
413.60	42.985
413.96	40.583
414.31	40.472
414.67	42.471
415.03	42.462
415.38	42.549
415.74	42.445
416.09	41.075
416.45	41.472
416.80	40.960
417.16	42.313
417.51	42.054
417.87	42.408
418.22	40.642
418.58	40.152
418.93	39.587
419.29	41.384
419.64	41.690
420.00	40.668
420.35	39.674
420.71	41.037
421.06	40.169
421.42	40.339
421.77	40.317
422.12	40.047
422.48	40.605
422.83	38.298
423.19	39.647
423.54	38.852
423.90	38.813
424.25	39.275
424.61	38.258
424.96	39.005
425.31	38.345
425.67	38.424
426.02	37.702
426.38	38.224
426.73	37.259
427.09	38.739
427.44	38.272
427.79	39.109
428.15	36.715
428.50	37.060
428.85	37.396
429.21	37.956
429.56	37.017
429.92	37.317
430.27	35.733
430.62	36.074
430.98	35.733
431.33	36.763
431.68	37.144
432.04	37.917
432.39	35.532
432.74	35.737
433.10	36.446
433.45	35.845
433.80	36.250
434.16	35.213
434.51	35.674
434.86	34.985
435.22	35.157
435.57	35.950
435.92	34.365
436.28	34.433
436.63	35.182
436.98	35.000
437.34	35.829
437.69	34.136
438.04	34.375
438.39	34.922
438.75	33.908
439.10	34.167
439.45	34.531
439.81	33.524
440.16	34.447
440.51	33.457
440.86	34.722
441.22	33.591
441.57	34.644
441.92	33.241
442.27	34.514
442.63	33.634
442.98	34.597
443.33	33.666
443.68	32.779
444.03	33.402
444.39	33.160
444.74	34.058
445.09	33.589
445.44	33.120
445.79	33.333
446.15	33.178
446.50	32.562
446.85	32.893
447.20	32.768
447.55	32.228
447.91	33.216
448.26	33.591
448.61	32.568
448.96	32.703
449.31	32.610
449.66	32.446
450.02	32.249
450.37	32.746
450.72	31.718
451.07	32.037
451.42	31.884
451.77	31.084
452.12	32.519
452.47	32.046
452.83	31.943
453.18	32.681
453.53	33.899
453.88	32.355
454.23	32.780
454.58	31.854
454.93	30.654
455.28	31.161
455.63	31.189
455.98	31.155
456.34	31.011
456.69	31.144
457.04	31.627
457.39	31.960
457.74	31.479
458.09	30.616
458.44	31.698
458.79	30.683
459.14	30.233
459.49	30.637
459.84	30.202
460.19	31.019
460.54	30.051
460.89	30.941
461.24	31.429
461.59	31.041
461.94	30.440
462.29	30.827
462.64	30.501
462.99	30.747
463.34	30.476
463.69	30.933
464.04	30.789
464.39	30.804
464.74	30.370
465.09	30.096
465.44	30.654
465.79	30.205
466.14	29.117
466.49	29.625
466.84	28.931
467.19	29.175
467.54	29.045
467.89	29.980
468.24	29.419
468.59	29.777
468.94	29.321
469.29	29.619
469.64	29.759
469.99	30.425
470.34	29.066
470.68	30.231
471.03	29.708
471.38	29.319
471.73	29.215
472.08	30.178
472.43	29.737
472.78	29.007
473.13	30.175
473.48	29.115
473.83	29.128
474.17	28.486
474.52	29.672
474.87	28.725
475.22	29.288
475.57	28.907
475.92	29.051
476.27	30.139
476.61	29.610
476.96	29.638
477.31	28.938
477.66	28.762
478.01	27.899
478.36	28.883
478.70	29.521
479.05	27.974
479.40	29.022
479.75	29.669
480.10	27.652
480.45	28.272
480.79	29.113
481.14	28.150
481.49	28.329
481.84	28.485
482.19	28.098
482.53	28.873
482.88	28.368
483.23	28.945
483.58	28.614
483.92	28.492
484.27	28.558
484.62	28.430
484.97	27.548
485.31	27.069
485.66	26.627
486.01	25.875
486.36	26.092
486.70	26.130
487.05	26.090
487.40	27.080
487.75	26.825
488.09	26.942
488.44	27.086
488.79	27.714
489.13	27.307
489.48	26.988
489.83	27.508
490.17	27.145
490.52	27.390
490.87	28.734
491.22	28.698
491.56	28.211
491.91	27.510
492.26	27.384
492.60	28.469
492.95	27.618
493.30	27.810
493.64	27.941
493.99	27.618
494.34	28.079
494.68	26.957
495.03	27.231
495.37	27.522
495.72	27.795
496.07	27.485
496.41	26.976
496.76	27.412
497.11	27.474
497.45	27.725
497.80	28.245
498.14	27.244
498.49	27.549
498.84	27.463
499.18	26.777
499.53	26.843
499.87	28.111
500.22	26.753
500.56	28.100
500.91	27.687
501.26	27.612
501.60	27.319
501.95	27.636
502.29	28.014
502.64	27.725
502.98	26.401
503.33	26.860
503.67	27.718
504.02	27.783
504.36	26.554
504.71	27.660
505.06	27.156
505.40	27.936
505.75	28.278
506.09	28.007
506.44	27.790
506.78	27.141
507.13	28.122
507.47	27.867
507.82	27.902
508.16	27.617
508.51	28.829
508.85	28.352
509.19	28.086
509.54	28.612
509.88	27.100
510.23	28.034
510.57	28.052
510.92	28.345
511.26	28.374
511.61	28.824
511.95	27.183
512.30	28.290
512.64	27.918
512.98	28.825
513.33	27.843
513.67	27.246
514.02	28.786
514.36	28.233
514.70	29.387
515.05	28.963
515.39	28.921
515.74	28.571
516.08	27.997
516.42	28.900
516.77	28.944
517.11	28.379
517.46	29.794
517.80	29.292
518.14	29.475
518.49	29.495
518.83	29.896
519.17	29.049
519.52	29.232
519.86	30.272
520.20	29.299
520.55	30.222
520.89	31.107
521.23	29.793
521.58	29.696
521.92	28.772
522.26	29.485
522.61	30.990
522.95	29.521
523.29	29.217
523.64	29.783
523.98	30.511
524.32	30.303
524.66	31.271
525.01	30.653
525.35	29.549
525.69	28.975
526.04	30.726
526.38	31.049
526.72	30.972
527.06	31.505
527.41	30.333
527.75	30.366
528.09	30.339
528.43	31.325
528.78	31.167
529.12	29.795
529.46	30.033
529.80	29.680
530.15	30.924
530.49	30.683
530.83	29.429
531.17	29.449
531.51	30.692
531.86	30.952
532.20	27.922
532.54	30.216
532.88	30.473
533.22	30.244
533.57	29.931
533.91	29.869
534.25	30.346
534.59	30.674
534.93	29.214
535.27	29.697
535.62	30.317
535.96	30.216
536.30	29.923
536.64	29.614
536.98	29.794
537.32	30.655
537.66	29.252
538.01	30.118
538.35	29.164
538.69	29.795
539.03	30.065
539.37	28.643
539.71	30.000
540.05	30.101
540.39	29.339
540.73	29.890
541.07	29.632
541.42	30.078
541.76	30.504
542.10	30.416
542.44	29.552
542.78	28.299
543.12	28.014
543.46	30.030
543.80	28.878
544.14	28.961
544.48	29.825
544.82	28.744
545.16	29.855
545.50	31.077
545.84	31.236
546.18	30.037
546.52	29.055
546.86	30.069
547.20	30.455
547.54	29.113
547.88	29.274
548.22	28.903
548.56	29.387
548.90	29.825
549.24	30.190
549.58	29.881
549.92	30.000
550.26	31.274
550.60	29.580
550.94	30.476
551.28	30.732
551.62	30.876
551.96	30.911
552.30	29.690
552.64	29.226
552.98	30.535
553.32	29.545
553.66	29.514
554.00	28.880
554.34	30.547
554.68	29.665
555.02	29.206
555.36	30.659
555.69	28.440
556.03	29.416
556.37	28.882
556.71	29.110
557.05	30.000
557.39	30.040
557.73	28.381
558.07	30.203
558.41	29.210
558.75	30.622
559.08	32.170
559.42	29.682
559.76	31.255
560.10	29.829
560.44	30.087
560.78	29.602
561.12	28.700
561.45	29.390
561.79	29.001
562.13	29.503
562.47	29.128
562.81	29.113
563.15	28.897
563.48	28.015
563.82	28.603
564.16	28.737
564.50	28.295
564.84	29.341
565.17	29.041
565.51	29.909
565.85	29.155
566.19	29.715
566.52	29.677
566.86	28.415
567.20	28.942
567.54	27.824
567.88	27.791
568.21	27.843
568.55	27.844
568.89	27.857
569.23	26.707
569.56	25.977
569.90	26.852
570.24	26.793
570.57	25.997
570.91	26.965
571.25	26.274
571.59	25.934
571.92	24.868
572.26	25.208
572.60	24.984
572.93	25.278
573.27	25.406
573.61	24.977
573.95	24.668
574.28	24.579
574.62	23.918
574.96	24.824
575.29	23.980
575.63	23.993
575.97	24.371
576.30	24.928
576.64	24.118
576.98	24.113
577.31	24.282
577.65	24.107
577.98	23.762
578.32	23.493
578.66	23.484
578.99	24.448
579.33	24.418
579.67	23.735
580.00	24.065
580.34	23.869
580.67	24.212
581.01	23.836
581.35	24.013
581.68	23.909
582.02	23.333
582.35	22.959
582.69	23.794
583.02	23.306
583.36	23.586
583.70	24.294
584.03	24.346
584.37	24.579
584.70	23.546
585.04	23.419
585.37	23.511
585.71	23.842
586.04	23.770
586.38	23.972
586.72	24.433
587.05	24.549
587.39	24.289
587.72	23.812
588.06	24.110
588.39	24.072
588.73	23.829
589.06	24.415
589.40	24.428
589.73	24.869
590.07	24.661
590.40	25.030
590.73	24.240
591.07	25.411
591.40	25.126
591.74	25.746
592.07	25.119
592.41	24.883
592.74	25.138
593.08	25.207
593.41	24.066
593.75	25.312
594.08	24.598
594.41	25.396
594.75	24.706
595.08	24.659
595.42	24.596
595.75	24.205
596.09	24.620
596.42	24.947
596.75	24.727
597.09	24.114
597.42	24.636
597.75	25.188
598.09	24.766
598.42	25.319
598.76	25.046
599.09	24.748
599.42	23.879
599.76	24.951
600.09	24.911
600.42	23.477
600.76	23.595
601.09	24.000
601.42	24.557
601.76	24.554
602.09	24.592
602.42	24.533
602.76	24.913
603.09	24.717
603.42	24.319
603.76	24.171
604.09	24.353
604.42	24.689
604.76	24.555
605.09	24.280
605.42	25.071
605.75	24.440
606.09	24.933
606.42	24.234
606.75	25.044
607.09	25.280
607.42	24.782
607.75	24.013
608.08	25.117
608.42	24.588
608.75	24.912
609.08	24.685
609.41	25.713
609.75	24.855
610.08	24.238
610.41	25.140
610.74	24.722
611.07	25.013
611.41	24.625
611.74	25.571
612.07	25.000
612.40	24.903
612.73	24.595
613.07	25.250
613.40	25.532
613.73	24.570
614.06	24.532
614.39	25.249
614.72	25.030
615.06	25.258
615.39	24.827
615.72	23.964
616.05	23.942
616.38	24.318
616.71	25.311
617.05	24.937
617.38	25.677
617.71	24.820
618.04	26.018
618.37	26.030
618.70	25.951
619.03	25.743
619.36	27.835
619.69	26.283
620.03	25.934
620.36	25.850
620.69	26.386
621.02	25.970
621.35	27.234
621.68	28.623
622.01	27.540
622.34	26.717
622.67	26.476
623.00	27.518
623.33	26.614
623.66	26.693
623.99	26.715
624.32	26.291
624.65	26.953
624.99	26.016
625.32	26.619
625.65	27.062
625.98	28.333
626.31	24.935
626.64	28.288
626.97	28.401
627.30	29.167
627.63	26.326
627.96	28.492
628.29	28.394
628.62	27.835
628.95	29.145
629.28	27.479
629.61	28.631
629.94	28.631
630.26	29.079
630.59	30.052
630.92	27.187
631.25	29.385
631.58	29.186
631.91	29.954
632.24	28.521
632.57	29.845
632.90	30.996
633.23	30.710
