SpectraSuite Data File
++++++++++++++++++++++++++++++++++++
Date: Tue May 12 19:35:46 PDT 2015
User: schluterlab
Dark Spectrum Present: Yes
Reference Spectrum Present: Yes
Number of Sampled Component Spectra: 1
Spectrometers: USB2E3373
Integration Time (usec): 3000 (USB2E3373)
Spectra Averaged: 3 (USB2E3373)
Boxcar Smoothing: 0 (USB2E3373)
Correct for Electrical Dark: No (USB2E3373)
Strobe/Lamp Enabled: No (USB2E3373)
Correct for Detector Non-linearity: No (USB2E3373)
Correct for Stray Light: No (USB2E3373)
Number of Pixels in Processed Spectrum: 2048
>>>>>Begin Processed Spectral Data<<<<<
178.53	0.000
178.91	0.000
179.29	-33.333
179.67	400.000
180.04	0.000
180.42	-100.000
180.80	-366.667
181.18	450.000
181.56	-200.000
181.94	183.333
182.31	1500.000
182.69	100.000
183.07	0.000
183.45	91.667
183.83	100.000
184.20	200.000
184.58	700.000
184.96	300.000
185.34	33.333
185.72	21.429
186.09	-66.667
186.47	-1500.000
186.85	60.000
187.23	125.000
187.61	-185.714
187.98	-200.000
188.36	200.000
188.74	-25.000
189.12	-22.222
189.49	-20.000
189.87	275.000
190.25	44.444
190.63	233.333
191.00	460.000
191.38	-566.667
191.76	320.000
192.14	-14.286
192.51	50.000
192.89	120.000
193.27	-160.000
193.65	-200.000
194.02	-100.000
194.40	900.000
194.78	-62.500
195.15	-100.000
195.53	166.667
195.91	160.000
196.29	-275.000
196.66	-200.000
197.04	14.286
197.42	60.000
197.79	-100.000
198.17	-8.333
198.55	0.000
198.92	-55.556
199.30	650.000
199.68	-75.000
200.05	-200.000
200.43	-5.556
200.81	-91.667
201.18	150.000
201.56	-50.000
201.94	-400.000
202.31	50.000
202.69	-33.333
203.07	16.667
203.44	-275.000
203.82	0.000
204.19	250.000
204.57	-400.000
204.95	90.909
205.32	220.000
205.70	150.000
206.08	-600.000
206.45	-80.000
206.83	1300.000
207.20	-55.556
207.58	-38.462
207.96	66.667
208.33	600.000
208.71	200.000
209.08	-150.000
209.46	11.111
209.84	466.667
210.21	-333.333
210.59	250.000
210.96	188.889
211.34	-125.000
211.71	250.000
212.09	120.000
212.46	-50.000
212.84	-150.000
213.22	71.429
213.59	-150.000
213.97	0.000
214.34	-50.000
214.72	-700.000
215.09	400.000
215.47	-13.333
215.84	75.000
216.22	-200.000
216.59	1400.000
216.97	-33.333
217.34	-100.000
217.72	33.333
218.09	250.000
218.47	-10.526
218.84	0.000
219.22	-14.286
219.59	-70.000
219.97	-20.000
220.34	83.333
220.72	36.364
221.09	-900.000
221.47	0.000
221.84	150.000
222.22	-225.000
222.59	-100.000
222.97	-17.391
223.34	113.333
223.72	271.429
224.09	-33.333
224.46	84.615
224.84	20.000
225.21	50.000
225.59	-125.000
225.96	65.000
226.34	316.667
226.71	80.000
227.08	-38.462
227.46	-57.143
227.83	8.333
228.21	-400.000
228.58	183.333
228.95	-15.789
229.33	75.000
229.70	-16.667
230.08	-88.889
230.45	-133.333
230.82	-1600.000
231.20	14.286
231.57	-80.000
231.95	-400.000
232.32	144.444
232.69	-400.000
233.07	12.500
233.44	12.500
233.81	41.935
234.19	-200.000
234.56	-22.222
234.93	-266.667
235.31	48.148
235.68	11.111
236.05	-30.769
236.43	0.000
236.80	-9.091
237.17	-100.000
237.55	-40.000
237.92	18.605
238.29	-9.677
238.67	-7.143
239.04	-8.571
239.41	-3.922
239.79	20.000
240.16	-15.000
240.53	-13.793
240.91	8.219
241.28	7.042
241.65	14.062
242.02	-7.018
242.40	-1.333
242.77	5.263
243.14	17.647
243.51	4.301
243.89	1.905
244.26	-0.926
244.63	15.306
245.00	-2.679
245.38	-7.563
245.75	14.407
246.12	10.156
246.49	6.400
246.87	2.459
247.24	0.000
247.61	6.623
247.98	9.551
248.36	11.321
248.73	6.250
249.10	7.778
249.47	3.125
249.84	2.030
250.22	2.604
250.59	10.112
250.96	7.273
251.33	13.679
251.70	9.633
252.08	8.225
252.45	6.939
252.82	0.000
253.19	9.339
253.56	10.588
253.94	1.626
254.31	11.511
254.68	4.167
255.05	11.258
255.42	10.909
255.79	8.940
256.16	7.639
256.54	12.121
256.91	11.859
257.28	8.766
257.65	7.213
258.02	10.210
258.39	9.668
258.76	8.257
259.14	7.941
259.51	11.831
259.88	11.239
260.25	5.114
260.62	5.899
260.99	4.457
261.36	7.759
261.73	8.267
262.10	7.629
262.47	8.540
262.85	12.082
263.22	4.032
263.59	7.507
263.96	6.527
264.33	6.469
264.70	9.337
265.07	6.404
265.44	6.557
265.81	8.675
266.18	6.089
266.55	6.190
266.92	11.607
267.29	10.000
267.66	6.818
268.03	9.677
268.40	7.551
268.77	8.241
269.14	6.933
269.51	7.466
269.88	8.974
270.25	7.595
270.62	7.773
270.99	7.579
271.36	5.298
271.73	5.208
272.10	8.921
272.47	5.000
272.84	3.397
273.21	7.307
273.58	6.122
273.95	7.968
274.32	6.770
274.69	5.871
275.06	8.443
275.43	6.200
275.80	7.648
276.17	5.336
276.54	7.224
276.91	7.486
277.28	7.544
277.65	6.994
278.02	7.765
278.39	9.982
278.76	6.331
279.13	6.977
279.50	6.859
279.87	7.170
280.23	9.107
280.60	6.184
280.97	5.448
281.34	5.593
281.71	4.973
282.08	6.440
282.45	7.584
282.82	4.714
283.19	6.061
283.56	7.338
283.92	8.057
284.29	6.599
284.66	4.071
285.03	3.945
285.40	6.667
285.77	8.374
286.14	6.339
286.51	5.788
286.87	9.238
287.24	4.006
287.61	6.790
287.98	8.138
288.35	6.822
288.72	5.657
289.08	4.874
289.45	6.240
289.82	5.124
290.19	8.030
290.56	6.946
290.93	5.170
291.29	5.816
291.66	7.303
292.03	8.608
292.40	6.043
292.77	6.268
293.13	5.140
293.50	6.336
293.87	5.548
294.24	5.478
294.60	7.104
294.97	4.848
295.34	4.247
295.71	4.716
296.08	5.191
296.44	5.665
296.81	4.398
297.18	6.856
297.55	5.151
297.91	5.838
298.28	4.476
298.65	4.657
299.02	5.919
299.38	5.612
299.75	5.019
300.12	6.355
300.48	6.338
300.85	4.034
301.22	4.688
301.59	4.136
301.95	4.512
302.32	5.103
302.69	3.329
303.05	6.139
303.42	6.159
303.79	3.820
304.15	4.417
304.52	4.358
304.89	5.524
305.25	4.472
305.62	5.568
305.99	3.359
306.35	3.915
306.72	6.318
307.09	4.026
307.45	5.178
307.82	5.123
308.19	6.271
308.55	5.169
308.92	4.767
309.29	3.556
309.65	5.263
310.02	5.451
310.38	4.904
310.75	4.816
311.12	5.188
311.48	5.858
311.85	3.546
312.22	6.198
312.58	4.834
312.95	5.441
313.31	5.605
313.68	5.263
314.05	7.448
314.41	6.287
314.78	5.628
315.14	5.975
315.51	6.157
315.87	6.836
316.24	6.924
316.61	6.602
316.97	7.059
317.34	6.603
317.70	6.256
318.07	5.400
318.43	6.144
318.80	6.740
319.16	6.431
319.53	6.509
319.89	5.114
320.26	8.653
320.62	8.140
320.99	7.143
321.35	8.202
321.72	8.081
322.08	7.030
322.45	8.383
322.81	8.177
323.18	9.012
323.54	8.246
323.91	8.539
324.27	6.557
324.64	8.154
325.00	9.099
325.37	9.892
325.73	8.850
326.10	8.757
326.46	9.248
326.83	9.235
327.19	9.869
327.56	9.019
327.92	10.677
328.29	10.036
328.65	9.981
329.01	10.917
329.38	10.652
329.74	10.585
330.11	10.997
330.47	10.335
330.84	10.996
331.20	10.721
331.56	10.094
331.93	10.796
332.29	11.101
332.66	11.483
333.02	10.864
333.38	11.121
333.75	10.613
334.11	11.935
334.48	11.181
334.84	10.798
335.20	10.833
335.57	11.807
335.93	10.791
336.29	11.792
336.66	11.475
337.02	10.607
337.38	12.075
337.75	12.364
338.11	11.395
338.47	11.885
338.84	10.866
339.20	11.549
339.56	11.277
339.93	12.162
340.29	12.239
340.65	12.694
341.02	11.603
341.38	11.650
341.74	11.477
342.11	12.113
342.47	11.713
342.83	10.755
343.20	11.671
343.56	11.888
343.92	11.549
344.28	9.520
344.65	12.243
345.01	10.627
345.37	11.795
345.73	11.800
346.10	11.582
346.46	10.871
346.82	11.555
347.19	10.345
347.55	11.480
347.91	9.910
348.27	11.963
348.63	11.322
349.00	11.686
349.36	11.047
349.72	11.248
350.08	10.966
350.45	11.391
350.81	11.230
351.17	11.203
351.53	12.077
351.89	12.435
352.26	10.732
352.62	11.120
352.98	12.636
353.34	12.197
353.70	11.440
354.07	11.862
354.43	11.603
354.79	13.033
355.15	11.219
355.51	12.225
355.87	10.908
356.24	12.990
356.60	11.770
356.96	11.927
357.32	12.263
357.68	12.013
358.04	11.021
358.40	11.866
358.77	12.289
359.13	12.530
359.49	11.760
359.85	12.950
360.21	11.975
360.57	12.360
360.93	12.431
361.29	11.293
361.66	11.593
362.02	12.245
362.38	12.510
362.74	11.914
363.10	11.614
363.46	13.318
363.82	11.715
364.18	13.096
364.54	12.214
364.90	12.370
365.26	12.146
365.62	12.415
365.98	12.444
366.35	13.540
366.71	14.115
367.07	13.948
367.43	12.852
367.79	13.445
368.15	11.416
368.51	14.007
368.87	13.216
369.23	13.853
369.59	13.015
369.95	12.146
370.31	13.409
370.67	13.233
371.03	13.622
371.39	13.822
371.75	13.819
372.11	12.741
372.47	13.140
372.83	13.806
373.19	13.027
373.55	13.772
373.91	13.712
374.27	13.687
374.63	13.991
374.99	13.690
375.35	14.078
375.71	14.993
376.07	15.053
376.42	15.076
376.78	14.425
377.14	14.455
377.50	14.227
377.86	14.276
378.22	14.003
378.58	14.737
378.94	15.652
379.30	14.865
379.66	15.237
380.02	15.766
380.38	15.267
380.74	15.165
381.09	14.676
381.45	14.921
381.81	15.561
382.17	14.984
382.53	16.108
382.89	15.330
383.25	15.916
383.61	15.194
383.97	16.049
384.32	15.806
384.68	15.773
385.04	15.532
385.40	15.974
385.76	16.256
386.12	16.172
386.48	16.308
386.83	17.051
387.19	15.900
387.55	16.969
387.91	16.262
388.27	16.891
388.62	16.645
388.98	16.921
389.34	16.721
389.70	16.603
390.06	18.086
390.42	17.309
390.77	17.304
391.13	17.632
391.49	16.981
391.85	16.966
392.20	18.680
392.56	17.485
392.92	17.749
393.28	17.056
393.64	17.036
393.99	17.273
394.35	17.651
394.71	17.550
395.07	18.236
395.42	17.333
395.78	17.070
396.14	17.655
396.50	19.599
396.85	18.176
397.21	17.464
397.57	18.828
397.92	19.593
398.28	19.484
398.64	19.302
399.00	19.559
399.35	19.109
399.71	19.162
400.07	18.962
400.42	19.038
400.78	20.026
401.14	19.066
401.49	18.738
401.85	19.810
402.21	19.289
402.57	18.995
402.92	20.120
403.28	19.636
403.63	19.936
403.99	19.947
404.35	19.363
404.70	19.823
405.06	19.095
405.42	20.429
405.77	20.036
406.13	19.892
406.49	20.063
406.84	20.548
407.20	20.818
407.55	20.775
407.91	20.699
408.27	20.944
408.62	21.158
408.98	21.622
409.34	20.294
409.69	20.401
410.05	20.790
410.40	19.846
410.76	20.610
411.11	21.461
411.47	20.816
411.83	21.120
412.18	21.401
412.54	21.345
412.89	21.503
413.25	21.630
413.60	21.684
413.96	21.424
414.31	21.670
414.67	21.472
415.03	21.231
415.38	21.657
415.74	21.961
416.09	21.502
416.45	23.284
416.80	22.531
417.16	23.413
417.51	22.207
417.87	23.598
418.22	23.195
418.58	23.013
418.93	22.631
419.29	23.745
419.64	23.970
420.00	23.707
420.35	23.854
420.71	24.200
421.06	24.075
421.42	23.902
421.77	23.630
422.12	22.859
422.48	24.386
422.83	24.134
423.19	24.941
423.54	25.046
423.90	24.784
424.25	25.498
424.61	24.516
424.96	25.061
425.31	24.879
425.67	24.788
426.02	24.286
426.38	24.324
426.73	25.607
427.09	25.016
427.44	25.741
427.79	26.114
428.15	25.365
428.50	26.256
428.85	26.042
429.21	26.181
429.56	25.635
429.92	26.176
430.27	26.080
430.62	26.933
430.98	26.599
431.33	26.696
431.68	26.696
432.04	26.928
432.39	25.847
432.74	26.376
433.10	27.047
433.45	27.042
433.80	27.798
434.16	27.675
434.51	27.648
434.86	27.976
435.22	26.717
435.57	28.892
435.92	26.935
436.28	27.958
436.63	28.086
436.98	29.012
437.34	28.599
437.69	29.444
438.04	27.644
438.39	28.851
438.75	27.754
439.10	29.048
439.45	29.461
439.81	29.270
440.16	29.870
440.51	28.315
440.86	29.040
441.22	29.482
441.57	28.490
441.92	30.094
442.27	30.571
442.63	29.684
442.98	31.785
443.33	29.730
443.68	30.394
444.03	29.845
444.39	30.088
444.74	30.395
445.09	30.756
445.44	30.437
445.79	30.852
446.15	30.029
446.50	30.885
446.85	31.353
447.20	30.033
447.55	30.017
447.91	30.629
448.26	32.047
448.61	31.722
448.96	31.402
449.31	31.766
449.66	31.356
450.02	31.953
450.37	32.382
450.72	30.580
451.07	31.180
451.42	32.148
451.77	31.274
452.12	32.018
452.47	31.572
452.83	32.130
453.18	32.681
453.53	32.724
453.88	32.163
454.23	32.396
454.58	33.355
454.93	32.561
455.28	33.876
455.63	32.294
455.98	33.122
456.34	31.949
456.69	33.108
457.04	32.874
457.39	32.772
457.74	32.364
458.09	32.358
458.44	34.151
458.79	32.214
459.14	33.214
459.49	32.803
459.84	33.948
460.19	31.770
460.54	31.250
460.89	32.353
461.24	34.481
461.59	33.943
461.94	32.676
462.29	32.519
462.64	33.705
462.99	34.590
463.34	34.212
463.69	34.774
464.04	33.932
464.39	33.569
464.74	33.809
465.09	34.405
465.44	32.993
465.79	32.792
466.14	34.010
466.49	33.195
466.84	33.600
467.19	33.398
467.54	32.759
467.89	32.593
468.24	33.333
468.59	33.966
468.94	33.692
469.29	33.979
469.64	35.157
469.99	35.040
470.34	34.017
470.68	35.308
471.03	34.307
471.38	35.826
471.73	36.047
472.08	34.520
472.43	36.169
472.78	34.735
473.13	35.158
473.48	34.993
473.83	35.535
474.17	34.290
474.52	35.700
474.87	35.922
475.22	36.277
475.57	35.194
475.92	34.792
476.27	35.021
476.61	35.343
476.96	35.862
477.31	34.932
477.66	36.781
478.01	35.433
478.36	35.587
478.70	36.845
479.05	36.332
479.40	36.761
479.75	36.736
480.10	35.606
480.45	35.812
480.79	36.066
481.14	35.793
481.49	36.761
481.84	35.505
482.19	35.463
482.53	35.784
482.88	35.384
483.23	36.080
483.58	35.990
483.92	35.176
484.27	36.108
484.62	35.785
484.97	34.622
485.31	34.455
485.66	33.728
486.01	32.503
486.36	32.359
486.70	33.235
487.05	33.084
487.40	33.890
487.75	33.982
488.09	34.179
488.44	33.769
488.79	35.168
489.13	35.121
489.48	35.292
489.83	35.691
490.17	35.537
490.52	35.803
490.87	36.301
491.22	36.884
491.56	35.721
491.91	36.847
492.26	36.053
492.60	36.378
492.95	36.345
493.30	36.174
493.64	36.359
493.99	37.577
494.34	36.999
494.68	35.679
495.03	34.888
495.37	35.530
495.72	36.287
496.07	36.258
496.41	35.178
496.76	35.960
497.11	36.681
497.45	37.670
497.80	36.812
498.14	36.959
498.49	37.053
498.84	36.530
499.18	37.104
499.53	36.916
499.87	37.174
500.22	36.156
500.56	37.834
500.91	37.441
501.26	37.008
501.60	37.258
501.95	37.410
502.29	38.327
502.64	36.486
502.98	36.800
503.33	37.194
503.67	37.570
504.02	37.538
504.36	37.237
504.71	37.394
505.06	37.815
505.40	38.445
505.75	39.494
506.09	37.866
506.44	38.305
506.78	37.741
507.13	38.654
507.47	38.615
507.82	38.728
508.16	38.474
508.51	38.895
508.85	39.396
509.19	39.111
509.54	39.263
509.88	39.643
510.23	40.281
510.57	40.375
510.92	40.249
511.26	39.805
511.61	39.269
511.95	40.139
512.30	40.348
512.64	40.117
512.98	40.874
513.33	39.742
513.67	39.401
514.02	40.325
514.36	40.569
514.70	40.923
515.05	41.098
515.39	42.346
515.74	42.168
516.08	42.498
516.42	42.200
516.77	42.484
517.11	41.957
517.46	41.849
517.80	42.948
518.14	43.074
518.49	43.855
518.83	44.163
519.17	42.738
519.52	43.285
519.86	44.079
520.20	43.885
520.55	44.191
520.89	45.547
521.23	45.224
521.58	45.040
521.92	44.860
522.26	45.223
522.61	46.280
522.95	45.137
523.29	45.277
523.64	45.590
523.98	45.094
524.32	45.589
524.66	46.567
525.01	45.773
525.35	46.238
525.69	46.111
526.04	46.230
526.38	45.648
526.72	47.014
527.06	45.570
527.41	46.137
527.75	46.805
528.09	44.979
528.43	47.130
528.78	45.563
529.12	46.507
529.46	44.850
529.80	44.860
530.15	47.255
530.49	46.932
530.83	46.855
531.17	45.480
531.51	46.395
531.86	45.308
532.20	45.238
532.54	46.763
532.88	47.127
533.22	46.336
533.57	46.138
533.91	46.869
534.25	45.757
534.59	46.080
534.93	46.206
535.27	46.061
535.62	44.700
535.96	46.197
536.30	46.834
536.64	46.066
536.98	45.723
537.32	46.131
537.66	45.894
538.01	46.907
538.35	44.509
538.69	43.878
539.03	45.999
539.37	45.154
539.71	47.246
540.05	47.395
540.39	46.696
540.73	46.520
541.07	46.103
541.42	45.617
541.76	45.971
542.10	44.620
542.44	45.303
542.78	45.088
543.12	43.899
543.46	45.306
543.80	44.246
544.14	44.946
544.48	44.702
544.82	45.067
545.16	45.725
545.50	45.997
545.84	46.598
546.18	45.543
546.52	47.194
546.86	46.442
547.20	45.379
547.54	45.792
547.88	44.729
548.22	45.077
548.56	46.794
548.90	44.561
549.24	45.980
549.58	45.604
549.92	46.316
550.26	46.950
550.60	45.995
550.94	45.952
551.28	46.260
551.62	47.338
551.96	46.326
552.30	45.814
552.64	45.379
552.98	44.725
553.32	46.364
553.66	45.675
554.00	46.873
554.34	46.719
554.68	46.970
555.02	46.746
555.36	45.274
555.69	45.657
556.03	45.824
556.37	45.236
556.71	45.400
557.05	46.719
557.39	46.747
557.73	46.226
558.07	46.244
558.41	44.134
558.75	46.141
559.08	46.723
559.42	46.739
559.76	47.094
560.10	47.514
560.44	45.368
560.78	45.455
561.12	45.755
561.45	45.685
561.79	44.273
562.13	45.070
562.47	45.260
562.81	45.489
563.15	43.346
563.48	43.521
563.82	44.978
564.16	43.251
564.50	43.911
564.84	45.074
565.17	45.637
565.51	44.053
565.85	43.732
566.19	44.607
566.52	45.018
566.86	44.467
567.20	43.047
567.54	41.927
567.88	41.930
568.21	43.259
568.55	41.483
568.89	42.582
569.23	40.964
569.56	40.184
569.90	39.700
570.24	38.377
570.57	38.074
570.91	39.083
571.25	38.499
571.59	37.934
571.92	36.775
572.26	36.594
572.60	36.786
572.93	37.132
573.27	36.762
573.61	36.181
573.95	36.521
574.28	35.807
574.62	35.394
574.96	35.567
575.29	35.261
575.63	34.508
575.97	34.816
576.30	36.322
576.64	35.667
576.98	35.023
577.31	34.722
577.65	35.179
577.98	35.086
578.32	33.877
578.66	34.333
578.99	34.933
579.33	35.208
579.67	34.950
580.00	34.891
580.34	34.799
580.67	34.486
581.01	34.471
581.35	34.111
581.68	34.568
582.02	33.731
582.35	33.938
582.69	34.328
583.02	34.009
583.36	34.166
583.70	34.911
584.03	35.281
584.37	35.570
584.70	35.319
585.04	34.132
585.37	34.909
585.71	34.366
586.04	35.215
586.38	35.086
586.72	35.973
587.05	35.138
587.39	35.142
587.72	34.899
588.06	34.707
588.39	35.291
588.73	35.696
589.06	35.420
589.40	36.466
589.73	36.200
590.07	36.198
590.40	36.338
590.73	37.484
591.07	36.840
591.40	36.912
591.74	37.780
592.07	36.724
592.41	38.004
592.74	37.069
593.08	36.627
593.41	35.824
593.75	35.558
594.08	35.788
594.41	36.134
594.75	35.591
595.08	36.541
595.42	35.637
595.75	35.720
596.09	36.189
596.42	35.560
596.75	36.818
597.09	36.614
597.42	36.978
597.75	37.570
598.09	35.955
598.42	36.772
598.76	37.250
599.09	35.546
599.42	34.972
599.76	34.955
600.09	35.469
600.42	34.414
600.76	34.257
601.09	35.137
601.42	35.024
601.76	34.010
602.09	35.735
602.42	35.519
602.76	34.904
603.09	35.466
603.42	35.945
603.76	34.368
604.09	35.464
604.42	35.251
604.76	35.418
605.09	35.002
605.42	35.829
605.75	35.404
606.09	35.600
606.42	35.389
606.75	34.503
607.09	34.935
607.42	35.521
607.75	34.665
608.08	35.688
608.42	34.675
608.75	34.867
609.08	34.679
609.41	36.392
609.75	35.124
610.08	35.245
610.41	35.573
610.74	34.732
611.07	35.167
611.41	36.242
611.74	35.092
612.07	34.821
612.40	35.487
612.73	35.475
613.07	35.408
613.40	35.940
613.73	35.510
614.06	35.363
614.39	36.380
614.72	35.478
615.06	36.223
615.39	35.566
615.72	35.050
616.05	35.478
616.38	36.062
616.71	34.826
617.05	34.987
617.38	35.871
617.71	35.206
618.04	35.611
618.37	35.644
618.70	36.753
619.03	37.491
619.36	36.892
619.69	37.092
620.03	36.156
620.36	37.188
620.69	35.994
621.02	36.896
621.35	38.128
621.68	37.714
622.01	37.968
622.34	37.521
622.67	38.617
623.00	38.247
623.33	36.614
623.66	36.813
623.99	36.842
624.32	35.981
624.65	36.406
624.99	34.766
625.32	37.046
625.65	36.669
625.98	38.417
626.31	37.576
626.64	38.198
626.97	39.154
627.30	38.704
627.63	37.488
627.96	36.872
628.29	38.528
628.62	39.072
628.95	37.804
629.28	38.636
629.61	37.095
629.94	38.174
630.26	38.075
630.59	38.953
630.92	37.724
631.25	39.777
631.58	38.721
631.91	38.724
632.24	40.237
632.57	40.785
632.90	40.221
633.23	40.258
633.56	39.371
633.89	39.182
634.22	40.128
634.55	41.393
634.88	41.365
635.20	42.466
635.53	43.017
635.86	40.897
636.19	41.337
636.52	40.970
636.85	41.069
637.18	40.674
637.51	41.192
637.83	39.246
