SpectraSuite Data File
++++++++++++++++++++++++++++++++++++
Date: Tue May 12 19:43:08 PDT 2015
User: schluterlab
Dark Spectrum Present: Yes
Reference Spectrum Present: Yes
Number of Sampled Component Spectra: 1
Spectrometers: USB2E3373
Integration Time (usec): 3000 (USB2E3373)
Spectra Averaged: 3 (USB2E3373)
Boxcar Smoothing: 0 (USB2E3373)
Correct for Electrical Dark: No (USB2E3373)
Strobe/Lamp Enabled: No (USB2E3373)
Correct for Detector Non-linearity: No (USB2E3373)
Correct for Stray Light: No (USB2E3373)
Number of Pixels in Processed Spectrum: 2048
>>>>>Begin Processed Spectral Data<<<<<
178.53	0.000
178.91	-90.000
179.29	16.667
179.67	333.333
180.04	0.000
180.42	-260.000
180.80	-100.000
181.18	650.000
181.56	150.000
181.94	133.333
182.31	2100.000
182.69	-14.286
183.07	0.000
183.45	141.667
183.83	120.000
184.20	133.333
184.58	450.000
184.96	366.667
185.34	-233.333
185.72	14.286
186.09	-66.667
186.47	-1200.000
186.85	80.000
187.23	91.667
187.61	42.857
187.98	-140.000
188.36	250.000
188.74	-250.000
189.12	-166.667
189.49	-10.000
189.87	225.000
190.25	133.333
190.63	600.000
191.00	240.000
191.38	-100.000
191.76	300.000
192.14	-157.143
192.51	-30.000
192.89	-180.000
193.27	-220.000
193.65	-200.000
194.02	-150.000
194.40	300.000
194.78	25.000
195.15	-171.429
195.53	333.333
195.91	160.000
196.29	-575.000
196.66	-200.000
197.04	-257.143
197.42	80.000
197.79	-112.500
198.17	8.333
198.55	400.000
198.92	-66.667
199.30	550.000
199.68	0.000
200.05	-900.000
200.43	-38.889
200.81	-116.667
201.18	200.000
201.56	100.000
201.94	-700.000
202.31	-75.000
202.69	44.444
203.07	8.333
203.44	-175.000
203.82	0.000
204.19	225.000
204.57	-400.000
204.95	172.727
205.32	240.000
205.70	275.000
206.08	-500.000
206.45	180.000
206.83	1900.000
207.20	-77.778
207.58	7.692
207.96	333.333
208.33	300.000
208.71	633.333
209.08	50.000
209.46	77.778
209.84	533.333
210.21	-533.333
210.59	250.000
210.96	133.333
211.34	-225.000
211.71	500.000
212.09	0.000
212.46	-112.500
212.84	-62.500
213.22	100.000
213.59	-25.000
213.97	0.000
214.34	-350.000
214.72	-600.000
215.09	600.000
215.47	20.000
215.84	-112.500
216.22	-400.000
216.59	2400.000
216.97	41.667
217.34	-100.000
217.72	33.333
218.09	400.000
218.47	-15.789
218.84	-200.000
219.22	71.429
219.59	-70.000
219.97	-90.000
220.34	166.667
220.72	72.727
221.09	-600.000
221.47	0.000
221.84	150.000
222.22	-100.000
222.59	-150.000
222.97	-13.043
223.34	93.333
223.72	228.571
224.09	-33.333
224.46	169.231
224.84	-13.333
225.21	-550.000
225.59	-225.000
225.96	65.000
226.34	200.000
226.71	180.000
227.08	53.846
227.46	-28.571
227.83	-8.333
228.21	-800.000
228.58	166.667
228.95	-10.526
229.33	-18.750
229.70	-66.667
230.08	-55.556
230.45	-233.333
230.82	-600.000
231.20	9.524
231.57	-80.000
231.95	100.000
232.32	11.111
232.69	-600.000
233.07	62.500
233.44	25.000
233.81	90.323
234.19	-40.000
234.56	27.778
234.93	16.667
235.31	44.444
235.68	0.000
236.05	-11.538
236.43	10.526
236.80	77.273
237.17	-14.286
237.55	5.000
237.92	67.442
238.29	38.710
238.67	64.286
239.04	57.143
239.41	29.412
239.79	62.000
240.16	45.000
240.53	41.379
240.91	39.726
241.28	60.563
241.65	51.562
242.02	57.895
242.40	57.333
242.77	48.421
243.14	55.294
243.51	49.462
243.89	31.429
244.26	56.481
244.63	66.327
245.00	40.179
245.38	57.143
245.75	54.237
246.12	55.469
246.49	56.000
246.87	56.557
247.24	52.817
247.61	53.642
247.98	61.236
248.36	54.088
248.73	55.682
249.10	57.222
249.47	61.458
249.84	55.838
250.22	55.729
250.59	51.685
250.96	58.182
251.33	64.151
251.70	62.385
252.08	60.606
252.45	55.102
252.82	51.899
253.19	55.642
253.56	62.353
253.94	60.569
254.31	57.914
254.68	57.639
255.05	56.623
255.42	60.364
255.79	61.921
256.16	58.681
256.54	58.485
256.91	58.654
257.28	57.792
257.65	58.361
258.02	61.261
258.39	61.934
258.76	59.939
259.14	57.353
259.51	56.056
259.88	59.654
260.25	57.670
260.62	58.708
260.99	59.610
261.36	57.184
261.73	57.333
262.10	65.395
262.47	61.708
262.85	58.355
263.22	58.602
263.59	60.858
263.96	58.486
264.33	60.377
264.70	61.179
265.07	59.113
265.44	57.143
265.81	65.301
266.18	57.143
266.55	61.905
266.92	59.598
267.29	61.333
267.66	57.955
268.03	61.075
268.40	60.412
268.77	60.802
269.14	57.143
269.51	58.371
269.88	57.479
270.25	55.274
270.62	57.563
270.99	60.842
271.36	61.810
271.73	60.417
272.10	56.639
272.47	58.000
272.84	56.688
273.21	58.038
273.58	57.347
273.95	57.570
274.32	57.447
274.69	57.926
275.06	57.036
275.43	59.200
275.80	56.788
276.17	56.522
276.54	58.365
276.91	58.733
277.28	58.994
277.65	58.223
278.02	59.470
278.39	57.895
278.76	58.845
279.13	59.571
279.50	58.484
279.87	55.660
280.23	55.738
280.60	56.184
280.97	58.524
281.34	58.983
281.71	54.352
282.08	55.993
282.45	58.025
282.82	53.199
283.19	55.051
283.56	56.655
283.92	56.082
284.29	57.022
284.66	56.637
285.03	53.345
285.40	55.500
285.77	59.606
286.14	55.468
286.51	54.019
286.87	55.267
287.24	54.327
287.61	51.235
287.98	53.991
288.35	53.488
288.72	52.446
289.08	52.201
289.45	51.326
289.82	51.708
290.19	53.030
290.56	50.362
290.93	51.551
291.29	51.206
291.66	49.017
292.03	52.224
292.40	51.511
292.77	50.000
293.13	48.605
293.50	50.000
293.87	46.602
294.24	48.034
294.60	47.951
294.97	46.399
295.34	46.301
295.71	47.712
296.08	44.945
296.44	46.904
296.81	43.596
297.18	45.149
297.55	45.980
297.91	45.178
298.28	45.652
298.65	45.278
299.02	45.623
299.38	44.770
299.75	45.560
300.12	43.165
300.48	42.958
300.85	41.443
301.22	44.231
301.59	43.187
301.95	44.390
302.32	43.256
302.69	42.806
303.05	43.093
303.42	44.082
303.79	43.596
304.15	43.035
304.52	42.570
304.89	41.488
305.25	42.317
305.62	42.386
305.99	41.993
306.35	42.170
306.72	42.702
307.09	42.220
307.45	41.748
307.82	41.089
308.19	43.674
308.55	43.354
308.92	43.326
309.29	40.795
309.65	42.931
310.02	40.461
310.38	41.898
310.75	42.418
311.12	42.930
311.48	42.446
311.85	43.769
312.22	44.525
312.58	42.296
312.95	43.018
313.31	43.658
313.68	44.786
314.05	44.191
314.41	44.303
314.78	45.528
315.14	44.172
315.51	44.389
315.87	45.117
316.24	46.093
316.61	46.602
316.97	45.980
317.34	46.699
317.70	46.872
318.07	47.348
318.43	47.921
318.80	46.812
319.16	47.996
319.53	50.566
319.89	50.189
320.26	49.656
320.62	50.678
320.99	51.735
321.35	51.285
321.72	53.030
322.08	53.465
322.45	51.972
322.81	52.118
323.18	53.883
323.54	55.545
323.91	53.416
324.27	53.230
324.64	56.232
325.00	55.050
325.37	56.025
325.73	54.836
326.10	56.480
326.46	56.845
326.83	59.191
327.19	58.865
327.56	60.035
327.92	57.726
328.29	59.050
328.65	61.111
329.01	60.459
329.38	60.882
329.74	59.610
330.11	59.366
330.47	60.056
330.84	61.372
331.20	60.906
331.56	60.472
331.93	60.750
332.29	60.870
332.66	62.206
333.02	61.281
333.38	63.787
333.75	63.038
334.11	60.398
334.48	60.286
334.84	61.596
335.20	60.877
335.57	63.306
335.93	63.628
336.29	62.706
336.66	62.842
337.02	62.103
337.38	62.075
337.75	63.364
338.11	64.084
338.47	66.388
338.84	63.352
339.20	63.703
339.56	63.467
339.93	63.243
340.29	64.551
340.65	64.749
341.02	64.748
341.38	63.901
341.74	65.836
342.11	66.048
342.47	63.549
342.83	64.614
343.20	64.191
343.56	66.434
343.92	65.354
344.28	64.666
344.65	65.068
345.01	65.157
345.37	64.103
345.73	65.719
346.10	65.860
346.46	65.746
346.82	67.035
347.19	67.368
347.55	67.687
347.91	65.602
348.27	67.313
348.63	68.971
349.00	69.115
349.36	66.941
349.72	67.488
350.08	65.466
350.45	66.965
350.81	66.557
351.17	66.639
351.53	65.539
351.89	68.480
352.26	66.667
352.62	67.702
352.98	68.954
353.34	68.588
353.70	66.914
354.07	67.545
354.43	68.614
354.79	68.361
355.15	67.635
355.51	69.601
355.87	70.774
356.24	68.954
356.60	71.035
356.96	68.009
357.32	68.642
357.68	69.610
358.04	71.070
358.40	72.422
358.77	71.004
359.13	71.647
359.49	70.480
359.85	73.941
360.21	70.975
360.57	70.973
360.93	72.842
361.29	73.442
361.66	71.215
362.02	74.097
362.38	72.416
362.74	71.945
363.10	70.739
363.46	71.708
363.82	71.975
364.18	71.083
364.54	73.588
364.90	73.926
365.26	72.504
365.62	74.565
365.98	74.213
366.35	77.458
366.71	74.832
367.07	75.055
367.43	73.863
367.79	72.892
368.15	75.093
368.51	77.004
368.87	73.568
369.23	76.154
369.59	75.662
369.95	73.323
370.31	77.424
370.67	76.090
371.03	77.399
371.39	76.662
371.75	74.740
372.11	76.148
372.47	75.427
372.83	77.137
373.19	78.238
373.55	77.470
373.91	76.288
374.27	79.323
374.63	77.982
374.99	77.452
375.35	78.157
375.71	78.551
376.07	76.113
376.42	78.492
376.78	79.303
377.14	78.911
377.50	76.949
377.86	79.248
378.22	79.921
378.58	80.132
378.94	79.175
379.30	78.185
379.66	78.233
380.02	78.258
380.38	79.517
380.74	78.682
381.09	78.653
381.45	80.508
381.81	79.464
382.17	78.567
382.53	79.816
382.89	78.255
383.25	79.772
383.61	79.784
383.97	79.207
384.32	79.806
384.68	80.779
385.04	78.612
385.40	79.361
385.76	77.989
386.12	77.888
386.48	78.995
386.83	81.040
387.19	78.736
387.55	81.218
387.91	80.810
388.27	79.974
388.62	80.764
388.98	80.471
389.34	78.985
389.70	80.897
390.06	80.198
390.42	81.068
390.77	80.550
391.13	79.310
391.49	81.604
391.85	79.508
392.20	81.056
392.56	79.109
392.92	80.581
393.28	77.858
393.64	81.064
393.99	78.961
394.35	79.429
394.71	79.073
395.07	79.111
395.42	78.286
395.78	79.839
396.14	79.813
396.50	78.655
396.85	78.387
397.21	79.754
397.57	78.868
397.92	80.280
398.28	80.576
398.64	78.349
399.00	78.003
399.35	78.605
399.71	78.263
400.07	78.876
400.42	78.974
400.78	79.527
401.14	77.967
401.49	77.889
401.85	79.175
402.21	77.855
402.57	78.236
402.92	80.212
403.28	77.568
403.63	77.885
403.99	77.675
404.35	76.433
404.70	77.454
405.06	78.115
405.42	76.187
405.77	76.219
406.13	76.225
406.49	78.297
406.84	77.210
407.20	74.783
407.55	77.756
407.91	77.273
408.27	76.795
408.62	76.077
408.98	77.413
409.34	74.456
409.69	76.722
410.05	76.295
410.40	76.301
410.76	75.654
411.11	74.855
411.47	76.327
411.83	75.596
412.18	75.851
412.54	74.321
412.89	75.000
413.25	75.235
413.60	74.171
413.96	74.628
414.31	74.697
414.67	76.435
415.03	75.104
415.38	75.000
415.74	75.084
416.09	73.673
416.45	74.735
416.80	73.574
417.16	72.496
417.51	73.907
417.87	75.923
418.22	73.864
418.58	75.052
418.93	73.630
419.29	73.134
419.64	76.099
420.00	73.281
420.35	73.949
420.71	73.431
421.06	74.238
421.42	73.149
421.77	74.787
422.12	72.239
422.48	73.330
422.83	73.617
423.19	72.294
423.54	73.671
423.90	72.991
424.25	74.018
424.61	73.548
424.96	71.990
425.31	74.577
425.67	72.848
426.02	72.733
426.38	72.394
426.73	72.960
427.09	73.605
427.44	72.284
427.79	73.700
428.15	72.162
428.50	71.231
428.85	72.996
429.21	72.684
429.56	70.773
429.92	70.525
430.27	70.560
430.62	70.903
430.98	68.673
431.33	71.858
431.68	70.788
432.04	72.037
432.39	71.004
432.74	68.817
433.10	71.559
433.45	71.374
433.80	69.821
434.16	70.196
434.51	69.231
434.86	70.091
435.22	69.325
435.57	71.570
435.92	69.164
436.28	69.801
436.63	71.258
436.98	70.556
437.34	73.448
437.69	70.679
438.04	71.154
438.39	70.888
438.75	70.523
439.10	70.357
439.45	71.951
439.81	69.778
440.16	70.810
440.51	69.331
440.86	69.823
441.22	68.553
441.57	68.547
441.92	70.072
442.27	70.686
442.63	70.429
442.98	72.188
443.33	68.919
443.68	69.994
444.03	69.485
444.39	68.922
444.74	69.605
445.09	70.779
445.44	69.038
445.79	70.334
446.15	69.913
446.50	69.289
446.85	69.802
447.20	68.162
447.55	67.481
447.91	68.136
448.26	69.377
448.61	69.789
448.96	69.072
449.31	68.415
449.66	68.281
450.02	68.580
450.37	67.740
450.72	68.103
451.07	70.468
451.42	68.379
451.77	67.276
452.12	66.855
452.47	68.360
452.83	67.808
453.18	69.345
453.53	69.562
453.88	68.347
454.23	67.859
454.58	67.755
454.93	67.643
455.28	67.753
455.63	67.576
455.98	67.893
456.34	66.577
456.69	69.059
457.04	66.535
457.39	64.981
457.74	66.751
458.09	65.961
458.44	67.075
458.79	66.667
459.14	66.011
459.49	66.433
459.84	67.360
460.19	66.166
460.54	64.457
460.89	65.706
461.24	65.649
461.59	65.489
461.94	64.892
462.29	64.035
462.64	66.783
462.99	65.917
463.34	64.176
463.69	66.187
464.04	66.196
464.39	65.145
464.74	63.984
465.09	64.952
465.44	63.947
465.79	63.418
466.14	63.067
466.49	64.188
466.84	63.268
467.19	61.988
467.54	61.870
467.89	62.378
468.24	63.194
468.59	62.893
468.94	61.870
469.29	63.391
469.64	62.217
469.99	62.509
470.34	62.730
470.68	62.231
471.03	61.022
471.38	63.276
471.73	61.555
472.08	62.705
472.43	61.895
472.78	61.204
473.13	63.018
473.48	63.485
473.83	62.351
474.17	60.640
474.52	62.760
474.87	60.480
475.22	61.626
475.57	60.752
475.92	60.318
476.27	60.338
476.61	59.161
476.96	61.114
477.31	60.502
477.66	59.326
478.01	60.565
478.36	59.656
478.70	59.380
479.05	60.128
479.40	60.862
479.75	60.236
480.10	58.874
480.45	59.791
480.79	59.834
481.14	59.093
481.49	59.126
481.84	59.343
482.19	58.293
482.53	57.745
482.88	59.075
483.23	58.844
483.58	57.723
483.92	57.940
484.27	58.180
484.62	57.709
484.97	57.425
485.31	55.994
485.66	57.071
486.01	56.134
486.36	57.337
486.70	56.671
487.05	56.426
487.40	56.280
487.75	55.940
488.09	55.107
488.44	55.976
488.79	55.505
489.13	56.567
489.48	55.433
489.83	55.062
490.17	56.165
490.52	55.497
490.87	56.429
491.22	55.966
491.56	55.287
491.91	55.974
492.26	56.451
492.60	55.561
492.95	55.749
493.30	56.404
493.64	55.426
493.99	55.390
494.34	55.449
494.68	54.014
495.03	54.361
495.37	54.384
495.72	54.852
496.07	54.615
496.41	54.496
496.76	54.537
497.11	54.801
497.45	54.847
497.80	53.790
498.14	54.541
498.49	54.778
498.84	53.249
499.18	53.036
499.53	54.777
499.87	54.378
500.22	53.662
500.56	53.951
500.91	53.173
501.26	53.018
501.60	53.109
501.95	54.401
502.29	54.284
502.64	53.310
502.98	52.751
503.33	51.623
503.67	52.986
504.02	53.371
504.36	54.186
504.71	53.138
505.06	52.812
505.40	53.619
505.75	52.923
506.09	52.925
506.44	53.648
506.78	53.105
507.13	52.552
507.47	53.186
507.82	52.902
508.16	52.673
508.51	54.048
508.85	52.857
509.19	52.770
509.54	52.521
509.88	52.647
510.23	52.809
510.57	53.152
510.92	53.061
511.26	53.188
511.61	52.797
511.95	52.632
512.30	52.464
512.64	52.258
512.98	53.633
513.33	51.934
513.67	51.677
514.02	52.764
514.36	50.949
514.70	52.338
515.05	51.646
515.39	53.388
515.74	52.632
516.08	51.789
516.42	53.201
516.77	52.050
517.11	52.232
517.46	52.342
517.80	53.095
518.14	51.992
518.49	54.334
518.83	53.178
519.17	52.571
519.52	52.592
519.86	52.882
520.20	52.293
520.55	52.611
520.89	52.767
521.23	52.839
521.58	50.926
521.92	51.869
522.26	52.509
522.61	52.491
522.95	52.192
523.29	51.889
523.64	51.628
523.98	52.285
524.32	52.323
524.66	52.753
525.01	52.646
525.35	51.915
525.69	50.929
526.04	52.784
526.38	53.324
526.72	52.292
527.06	52.883
527.41	52.941
527.75	53.051
528.09	52.334
528.43	51.028
528.78	51.642
529.12	51.986
529.46	50.631
529.80	50.987
530.15	51.494
530.49	51.464
530.83	51.772
531.17	51.271
531.51	51.106
531.86	51.331
532.20	50.722
532.54	50.935
532.88	51.127
533.22	50.503
533.57	50.069
533.91	50.723
534.25	51.460
534.59	52.201
534.93	50.571
535.27	50.236
535.62	49.764
535.96	50.523
536.30	51.357
536.64	50.858
536.98	50.442
537.32	50.595
537.66	49.194
538.01	49.116
538.35	48.800
538.69	50.460
539.03	50.541
539.37	49.318
539.71	52.029
540.05	50.941
540.39	49.455
540.73	49.304
541.07	49.853
541.42	49.537
541.76	50.288
542.10	49.785
542.44	50.650
542.78	48.460
543.12	48.592
543.46	49.329
543.80	48.821
544.14	49.176
544.48	49.404
544.82	48.758
545.16	49.130
545.50	50.218
545.84	49.817
546.18	50.487
546.52	49.500
546.86	49.350
547.20	49.470
547.54	48.901
547.88	48.504
548.22	49.297
548.56	48.837
548.90	48.281
549.24	49.196
549.58	48.286
549.92	49.098
550.26	48.494
550.60	50.198
550.94	48.889
551.28	49.106
551.62	49.140
551.96	48.562
552.30	48.140
552.64	47.784
552.98	47.920
553.32	47.727
553.66	48.255
554.00	49.035
554.34	47.578
554.68	46.491
555.02	48.651
555.36	47.975
555.69	46.887
556.03	47.598
556.37	47.412
556.71	47.813
557.05	47.734
557.39	49.398
557.73	46.855
558.07	48.592
558.41	47.087
558.75	47.469
559.08	49.191
559.42	48.328
559.76	47.936
560.10	48.329
560.44	47.189
560.78	47.333
561.12	48.760
561.45	46.726
561.79	47.210
562.13	47.368
562.47	47.477
562.81	47.612
563.15	46.692
563.48	46.816
563.82	46.725
564.16	46.009
564.50	46.705
564.84	46.208
565.17	47.496
565.51	47.572
565.85	46.408
566.19	47.042
566.52	49.176
566.86	46.585
567.20	46.906
567.54	47.479
567.88	46.117
568.21	46.073
568.55	46.010
568.89	46.429
569.23	45.432
569.56	46.069
569.90	46.638
570.24	44.878
570.57	44.620
570.91	45.924
571.25	45.661
571.59	45.049
571.92	43.907
572.26	43.690
572.60	44.355
572.93	44.368
573.27	43.900
573.61	44.011
573.95	44.102
574.28	44.193
574.62	42.984
574.96	43.833
575.29	43.005
575.63	43.635
575.97	43.548
576.30	43.204
576.64	43.633
576.98	43.958
577.31	43.485
577.65	43.997
577.98	43.530
578.32	43.767
578.66	43.264
578.99	43.858
579.33	42.726
579.67	42.827
580.00	43.302
580.34	43.137
580.67	43.515
581.01	42.914
581.35	43.357
581.68	43.251
582.02	42.917
582.35	43.367
582.69	43.933
583.02	43.116
583.36	42.861
583.70	43.567
584.03	42.543
584.37	43.277
584.70	43.603
585.04	43.176
585.37	43.189
585.71	42.372
586.04	43.734
586.38	43.748
586.72	42.655
587.05	43.094
587.39	42.722
587.72	42.762
588.06	42.837
588.39	43.003
588.73	42.817
589.06	42.603
589.40	43.400
589.73	43.156
590.07	42.818
590.40	42.705
590.73	44.065
591.07	42.294
591.40	43.262
591.74	42.631
592.07	43.362
592.41	43.768
592.74	43.119
593.08	42.562
593.41	42.715
593.75	42.602
594.08	43.261
594.41	43.670
594.75	42.522
595.08	42.657
595.42	42.546
595.75	42.424
596.09	43.034
596.42	42.495
596.75	43.045
597.09	42.957
597.42	41.858
597.75	42.871
598.09	42.182
598.42	42.404
598.76	42.942
599.09	42.605
599.42	41.778
599.76	42.526
600.09	42.665
600.42	41.523
600.76	42.109
601.09	41.843
601.42	41.868
601.76	41.964
602.09	41.810
602.42	42.293
602.76	41.536
603.09	42.124
603.42	42.888
603.76	41.838
604.09	42.314
604.42	42.465
604.76	42.446
605.09	41.852
605.42	41.564
605.75	40.566
606.09	43.422
606.42	42.476
606.75	42.052
607.09	42.304
607.42	42.267
607.75	41.139
608.08	41.534
608.42	42.192
608.75	42.321
609.08	40.737
609.41	42.768
609.75	41.706
610.08	41.344
610.41	40.865
610.74	41.203
611.07	41.248
611.41	41.649
611.74	41.458
612.07	41.462
612.40	42.786
612.73	42.130
613.07	41.632
613.40	42.611
613.73	42.325
614.06	41.218
614.39	41.945
614.72	41.913
615.06	41.676
615.39	41.455
615.72	41.153
616.05	42.551
616.38	41.934
616.71	41.542
617.05	40.892
617.38	40.968
617.71	42.260
618.04	43.233
618.37	41.138
618.70	43.342
619.03	41.842
619.36	42.489
619.69	40.669
620.03	41.953
620.36	42.177
620.69	42.424
621.02	41.964
621.35	42.553
621.68	40.684
622.01	41.800
622.34	40.955
622.67	43.170
623.00	42.752
623.33	41.654
623.66	40.797
623.99	42.982
624.32	42.017
624.65	41.016
624.99	41.875
625.32	41.390
625.65	41.553
625.98	42.750
626.31	41.558
626.64	42.072
626.97	42.831
627.30	43.056
627.63	43.070
627.96	42.458
628.29	41.683
628.62	41.340
628.95	42.027
629.28	42.459
629.61	42.529
629.94	42.739
630.26	42.992
630.59	43.560
630.92	40.885
631.25	42.011
631.58	42.326
631.91	43.508
632.24	43.195
632.57	42.687
632.90	43.296
633.23	44.000
