SpectraSuite Data File
++++++++++++++++++++++++++++++++++++
Date: Tue May 12 19:56:15 PDT 2015
User: schluterlab
Dark Spectrum Present: Yes
Reference Spectrum Present: Yes
Number of Sampled Component Spectra: 1
Spectrometers: USB2E3373
Integration Time (usec): 3000 (USB2E3373)
Spectra Averaged: 3 (USB2E3373)
Boxcar Smoothing: 0 (USB2E3373)
Correct for Electrical Dark: No (USB2E3373)
Strobe/Lamp Enabled: No (USB2E3373)
Correct for Detector Non-linearity: No (USB2E3373)
Correct for Stray Light: No (USB2E3373)
Number of Pixels in Processed Spectrum: 2048
>>>>>Begin Processed Spectral Data<<<<<
178.53	0.000
178.91	-130.000
179.29	-200.000
179.67	666.667
180.04	0.000
180.42	-460.000
180.80	-533.333
181.18	1050.000
181.56	-1200.000
181.94	450.000
182.31	2600.000
182.69	-128.571
183.07	0.000
183.45	241.667
183.83	380.000
184.20	400.000
184.58	1350.000
184.96	516.667
185.34	-500.000
185.72	-85.714
186.09	-333.333
186.47	-2100.000
186.85	-260.000
187.23	250.000
187.61	-214.286
187.98	-480.000
188.36	650.000
188.74	-350.000
189.12	-277.778
189.49	-190.000
189.87	425.000
190.25	233.333
190.63	800.000
191.00	680.000
191.38	-600.000
191.76	460.000
192.14	-314.286
192.51	-200.000
192.89	-360.000
193.27	-280.000
193.65	-633.333
194.02	-216.667
194.40	1700.000
194.78	-237.500
195.15	-200.000
195.53	466.667
195.91	300.000
196.29	-450.000
196.66	-300.000
197.04	-442.857
197.42	300.000
197.79	-225.000
198.17	-83.333
198.55	-400.000
198.92	-222.222
199.30	650.000
199.68	-325.000
200.05	-1450.000
200.43	-77.778
200.81	-166.667
201.18	433.333
201.56	-1000.000
201.94	-1300.000
202.31	-75.000
202.69	-155.556
203.07	-91.667
203.44	-550.000
203.82	0.000
204.19	375.000
204.57	-800.000
204.95	218.182
205.32	440.000
205.70	550.000
206.08	-1100.000
206.45	-120.000
206.83	3100.000
207.20	-166.667
207.58	-23.077
207.96	800.000
208.33	733.333
208.71	633.333
209.08	1200.000
209.46	-200.000
209.84	1033.333
210.21	-1000.000
210.59	350.000
210.96	366.667
211.34	-550.000
211.71	1500.000
212.09	-220.000
212.46	-300.000
212.84	-287.500
213.22	314.286
213.59	-200.000
213.97	0.000
214.34	-650.000
214.72	-1500.000
215.09	1250.000
215.47	-133.333
215.84	-175.000
216.22	-1300.000
216.59	2100.000
216.97	-133.333
217.34	-283.333
217.72	-61.111
218.09	475.000
218.47	-89.474
218.84	-275.000
219.22	-114.286
219.59	-200.000
219.97	-270.000
220.34	450.000
220.72	190.909
221.09	-1050.000
221.47	0.000
221.84	1150.000
222.22	-600.000
222.59	-500.000
222.97	-43.478
223.34	160.000
223.72	357.143
224.09	-266.667
224.46	261.538
224.84	-86.667
225.21	-650.000
225.59	-550.000
225.96	-30.000
226.34	500.000
226.71	260.000
227.08	-100.000
227.46	-142.857
227.83	-25.000
228.21	-1250.000
228.58	250.000
228.95	-78.947
229.33	-62.500
229.70	-466.667
230.08	-300.000
230.45	-700.000
230.82	-2100.000
231.20	-33.333
231.57	-480.000
231.95	-833.333
232.32	222.222
232.69	-1250.000
233.07	-37.500
233.44	-262.500
233.81	-22.581
234.19	-320.000
234.56	-66.667
234.93	-450.000
235.31	-29.630
235.68	-55.556
236.05	-80.769
236.43	-68.421
236.80	-81.818
237.17	-207.143
237.55	-135.000
237.92	-16.279
238.29	-58.065
238.67	-53.571
239.04	-8.571
239.41	-13.725
239.79	-30.000
240.16	-52.500
240.53	-31.034
240.91	-2.740
241.28	-2.817
241.65	4.687
242.02	-7.018
242.40	-13.333
242.77	-1.053
243.14	-5.882
243.51	2.151
243.89	-7.619
244.26	3.704
244.63	-5.102
245.00	-13.393
245.38	-4.202
245.75	-3.390
246.12	-0.781
246.49	-0.800
246.87	0.000
247.24	-4.225
247.61	5.298
247.98	5.056
248.36	-0.629
248.73	-3.977
249.10	6.111
249.47	2.083
249.84	9.137
250.22	4.167
250.59	6.180
250.96	5.000
251.33	8.491
251.70	8.716
252.08	10.390
252.45	4.898
252.82	5.063
253.19	9.728
253.56	13.333
253.94	3.252
254.31	8.993
254.68	11.806
255.05	13.907
255.42	9.091
255.79	10.927
256.16	9.375
256.54	12.121
256.91	10.577
257.28	8.442
257.65	5.246
258.02	8.108
258.39	12.689
258.76	8.869
259.14	7.353
259.51	12.958
259.88	13.545
260.25	7.386
260.62	8.146
260.99	9.192
261.36	8.621
261.73	8.800
262.10	12.262
262.47	9.091
262.85	10.797
263.22	11.022
263.59	10.188
263.96	10.966
264.33	9.704
264.70	10.074
265.07	9.606
265.44	14.286
265.81	15.422
266.18	12.412
266.55	12.619
266.92	12.723
267.29	10.889
267.66	8.636
268.03	12.258
268.40	9.382
268.77	10.468
269.14	11.345
269.51	13.122
269.88	10.256
270.25	8.017
270.62	12.395
270.99	10.737
271.36	11.479
271.73	10.833
272.10	10.581
272.47	10.200
272.84	10.828
273.21	11.273
273.58	11.633
273.95	13.546
274.32	11.605
274.69	12.524
275.06	13.508
275.43	10.600
275.80	13.193
276.17	11.265
276.54	13.498
276.91	13.628
277.28	13.733
277.65	10.397
278.02	12.689
278.39	11.797
278.76	12.663
279.13	13.775
279.50	12.455
279.87	11.321
280.23	11.293
280.60	10.954
280.97	12.478
281.34	12.034
281.71	8.526
282.08	10.197
282.45	10.935
282.82	11.785
283.19	10.606
283.56	15.017
283.92	12.954
284.29	12.183
284.66	11.150
285.03	9.434
285.40	11.833
285.77	13.465
286.14	10.618
286.51	10.289
286.87	12.642
287.24	9.936
287.61	12.191
287.98	12.833
288.35	12.248
288.72	11.927
289.08	9.906
289.45	10.608
289.82	10.714
290.19	10.000
290.56	11.288
290.93	10.192
291.29	11.631
291.66	11.798
292.03	11.621
292.40	10.360
292.77	11.808
293.13	8.957
293.50	11.019
293.87	9.293
294.24	10.955
294.60	10.246
294.97	10.388
295.34	10.959
295.71	8.460
296.08	9.290
296.44	12.253
296.81	7.891
297.18	10.608
297.55	10.050
297.91	11.041
298.28	8.312
298.65	8.538
299.02	11.097
299.38	7.398
299.75	10.425
300.12	10.312
300.48	9.507
300.85	9.535
301.22	8.293
301.59	9.854
301.95	9.512
302.32	9.964
302.69	7.253
303.05	8.383
303.42	9.300
303.79	8.764
304.15	8.381
304.52	9.162
304.89	8.117
305.25	8.372
305.62	8.182
305.99	7.391
306.35	7.606
306.72	9.259
307.09	8.161
307.45	8.630
307.82	8.751
308.19	9.351
308.55	8.544
308.92	9.534
309.29	7.845
309.65	9.598
310.02	8.595
310.38	9.275
310.75	9.221
311.12	8.850
311.48	9.353
311.85	9.119
312.22	9.814
312.58	8.459
312.95	9.959
313.31	9.440
313.68	9.434
314.05	11.321
314.41	8.743
314.78	10.854
315.14	11.166
315.51	10.626
315.87	11.426
316.24	11.474
316.61	11.650
316.97	10.588
317.34	10.144
317.70	12.045
318.07	11.765
318.43	11.248
318.80	12.477
319.16	10.718
319.53	13.774
319.89	12.405
320.26	13.766
320.62	13.760
320.99	14.898
321.35	14.427
321.72	14.747
322.08	15.743
322.45	14.793
322.81	16.453
323.18	16.203
323.54	18.199
323.91	16.888
324.27	16.876
324.64	17.713
325.00	16.742
325.37	18.255
325.73	18.248
326.10	19.615
326.46	19.764
326.83	19.261
327.19	20.611
327.56	22.458
327.92	21.181
328.29	21.595
328.65	23.635
329.01	21.468
329.38	23.783
329.74	23.863
330.11	22.181
330.47	23.929
330.84	22.086
331.20	24.030
331.56	23.113
331.93	23.696
332.29	25.162
332.66	24.684
333.02	26.184
333.38	26.287
333.75	25.435
334.11	24.955
334.48	23.882
334.84	24.225
335.20	25.694
335.57	26.158
335.93	25.488
336.29	26.782
336.66	26.412
337.02	26.745
337.38	25.566
337.75	25.909
338.11	25.980
338.47	26.184
338.84	25.414
339.20	25.390
339.56	25.815
339.93	24.775
340.29	25.748
340.65	25.753
341.02	26.661
341.38	24.801
341.74	26.512
342.11	25.376
342.47	26.399
342.83	26.279
343.20	26.172
343.56	26.311
343.92	26.772
344.28	23.585
344.65	25.771
345.01	24.826
345.37	26.239
345.73	25.754
346.10	25.583
346.46	24.676
346.82	25.489
347.19	26.409
347.55	25.170
347.91	25.061
348.27	25.948
348.63	25.583
349.00	27.212
349.36	25.556
349.72	26.190
350.08	25.941
350.45	25.712
350.81	25.434
351.17	24.547
351.53	25.684
351.89	23.575
352.26	24.065
352.62	24.530
352.98	25.523
353.34	24.728
353.70	24.938
354.07	25.865
354.43	25.292
354.79	24.508
355.15	24.859
355.51	26.161
355.87	25.396
356.24	27.042
356.60	25.042
356.96	25.118
357.32	25.432
357.68	24.741
358.04	25.203
358.40	25.859
358.77	26.024
359.13	25.944
359.49	24.560
359.85	25.100
360.21	24.425
360.57	25.439
360.93	25.099
361.29	25.156
361.66	25.868
362.02	25.510
362.38	25.486
362.74	26.749
363.10	24.133
363.46	24.981
363.82	25.115
364.18	25.132
364.54	25.802
364.90	25.407
365.26	25.410
365.62	24.981
365.98	25.862
366.35	26.399
366.71	25.392
367.07	26.642
367.43	25.054
367.79	23.983
368.15	23.944
368.51	26.442
368.87	25.551
369.23	25.360
369.59	24.926
369.95	24.292
370.31	25.682
370.67	25.564
371.03	26.161
371.39	25.680
371.75	24.666
372.11	25.481
372.47	25.019
372.83	25.347
373.19	25.904
373.55	24.701
373.91	25.000
374.27	25.975
374.63	26.510
374.99	23.719
375.35	25.254
375.71	24.821
376.07	23.746
376.42	25.934
376.78	25.366
377.14	25.768
377.50	24.555
377.86	24.930
378.22	25.429
378.58	26.316
378.94	24.361
379.30	24.710
379.66	25.608
380.02	25.683
380.38	25.191
380.74	25.482
381.09	25.095
381.45	24.889
381.81	25.191
382.17	24.169
382.53	25.247
382.89	24.310
383.25	25.048
383.61	25.111
383.97	24.886
384.32	25.290
384.68	25.543
385.04	24.889
385.40	25.304
385.76	25.806
386.12	24.488
386.48	25.506
386.83	24.292
387.19	25.479
387.55	24.223
387.91	23.925
388.27	24.504
388.62	24.611
388.98	25.254
389.34	24.789
389.70	24.808
390.06	26.073
390.42	24.206
390.77	25.084
391.13	24.984
391.49	24.663
391.85	24.817
392.20	25.083
392.56	24.165
392.92	23.933
393.28	23.639
393.64	25.269
393.99	24.286
394.35	24.075
394.71	24.305
395.07	24.469
395.42	24.762
395.78	24.530
396.14	24.051
396.50	25.938
396.85	24.521
397.21	23.157
397.57	23.371
397.92	24.873
398.28	24.400
398.64	23.619
399.00	24.318
399.35	24.150
399.71	23.772
400.07	24.212
400.42	24.679
400.78	23.289
401.14	24.242
401.49	23.610
401.85	23.111
402.21	24.048
402.57	23.181
402.92	24.037
403.28	23.797
403.63	24.103
403.99	23.382
404.35	23.376
404.70	22.103
405.06	23.683
405.42	23.552
405.77	23.068
406.13	22.820
406.49	23.849
406.84	23.350
407.20	23.358
407.55	23.514
407.91	22.448
408.27	23.537
408.62	22.251
408.98	23.745
409.34	23.111
409.69	23.612
410.05	22.474
410.40	23.057
410.76	24.097
411.11	22.689
411.47	23.946
411.83	22.601
412.18	23.037
412.54	22.380
412.89	21.438
413.25	22.571
413.60	23.788
413.96	22.783
414.31	23.136
414.67	23.093
415.03	23.582
415.38	23.329
415.74	21.357
416.09	22.743
416.45	23.001
416.80	22.323
417.16	22.638
417.51	21.929
417.87	23.393
418.22	22.594
418.58	23.290
418.93	22.502
419.29	22.252
419.64	23.695
420.00	22.724
420.35	23.478
420.71	22.727
421.06	24.075
421.42	22.271
421.77	22.838
422.12	21.796
422.48	22.844
422.83	22.249
423.19	22.059
423.54	22.236
423.90	22.868
424.25	22.477
424.61	21.871
424.96	22.236
425.31	22.464
425.67	22.242
426.02	23.416
426.38	22.008
426.73	22.617
427.09	22.915
427.44	22.531
427.79	23.205
428.15	22.575
428.50	22.802
428.85	22.963
429.21	22.833
429.56	21.934
429.92	22.715
430.27	21.707
430.62	22.715
430.98	22.622
431.33	22.581
431.68	22.812
432.04	23.072
432.39	23.113
432.74	22.644
433.10	22.438
433.45	23.306
433.80	22.857
434.16	22.900
434.51	23.356
434.86	22.356
435.22	22.468
435.57	22.757
435.92	22.105
436.28	22.852
436.63	23.494
436.98	21.790
437.34	23.353
437.69	22.778
438.04	22.596
438.39	22.846
438.75	22.277
439.10	23.155
439.45	23.813
439.81	22.921
440.16	23.315
440.51	22.677
440.86	23.548
441.22	22.275
441.57	22.393
441.92	22.750
442.27	23.600
442.63	22.912
442.98	24.144
443.33	23.443
443.68	22.629
444.03	23.454
444.39	23.894
444.74	23.183
445.09	23.022
445.44	23.149
445.79	23.679
446.15	23.557
446.50	23.655
446.85	24.092
447.20	23.578
447.55	23.851
447.91	23.104
448.26	24.273
448.61	22.900
448.96	23.300
449.31	22.845
449.66	22.881
450.02	23.669
450.37	23.147
450.72	23.160
451.07	22.347
451.42	23.847
451.77	22.762
452.12	23.997
452.47	22.629
452.83	23.599
453.18	23.430
453.53	24.428
453.88	24.378
454.23	24.026
454.58	24.347
454.93	23.229
455.28	22.675
455.63	23.327
455.98	24.365
456.34	21.902
456.69	24.306
457.04	24.213
457.39	22.909
457.74	24.399
458.09	23.335
458.44	23.544
458.79	23.145
459.14	23.912
459.49	24.395
459.84	23.841
460.19	24.140
460.54	23.232
460.89	24.059
461.24	24.026
461.59	24.101
461.94	24.721
462.29	23.935
462.64	22.632
462.99	24.003
463.34	25.055
463.69	24.554
464.04	23.477
464.39	23.794
464.74	23.945
465.09	23.537
465.44	23.815
465.79	23.285
466.14	23.389
466.49	24.093
466.84	24.079
467.19	23.457
467.54	22.745
467.89	23.318
468.24	23.611
468.59	24.215
468.94	23.268
469.29	24.152
469.64	25.237
469.99	24.225
470.34	23.267
470.68	23.615
471.03	23.358
471.38	22.812
471.73	25.509
472.08	24.413
472.43	24.274
472.78	24.003
473.13	24.842
473.48	25.450
473.83	24.505
474.17	23.682
474.52	24.648
474.87	23.737
475.22	23.571
475.57	23.972
475.92	24.275
476.27	24.473
476.61	24.586
476.96	25.311
477.31	23.801
477.66	23.881
478.01	23.661
478.36	23.438
478.70	24.676
479.05	23.854
479.40	24.489
479.75	24.678
480.10	24.134
480.45	24.555
480.79	24.442
481.14	24.987
481.49	25.090
481.84	24.192
482.19	23.073
482.53	24.461
482.88	25.267
483.23	24.573
483.58	24.950
483.92	24.372
484.27	23.814
484.62	24.752
484.97	24.385
485.31	24.401
485.66	22.722
486.01	22.190
486.36	22.141
486.70	22.495
487.05	22.888
487.40	22.443
487.75	22.474
488.09	23.089
488.44	23.267
488.79	23.586
489.13	23.483
489.48	23.807
489.83	23.902
490.17	24.051
490.52	23.805
490.87	24.975
491.22	24.951
491.56	24.506
491.91	24.749
492.26	25.548
492.60	24.847
492.95	24.179
493.30	25.144
493.64	24.848
493.99	24.589
494.34	25.545
494.68	24.232
495.03	24.290
495.37	24.683
495.72	24.736
496.07	24.544
496.41	23.913
496.76	23.973
497.11	24.815
497.45	24.912
497.80	24.611
498.14	24.868
498.49	24.880
498.84	24.686
499.18	24.286
499.53	26.012
499.87	24.936
500.22	24.468
500.56	24.804
500.91	26.272
501.26	24.777
501.60	24.771
501.95	25.077
502.29	24.320
502.64	24.191
502.98	24.533
503.33	23.814
503.67	24.451
504.02	24.923
504.36	24.345
504.71	25.479
505.06	24.853
505.40	25.469
505.75	24.645
506.09	25.027
506.44	25.268
506.78	24.625
507.13	25.190
507.47	25.596
507.82	24.777
508.16	25.668
508.51	25.875
508.85	25.549
509.19	25.233
509.54	25.326
509.88	25.259
510.23	25.899
510.57	25.270
510.92	24.717
511.26	25.273
511.61	24.943
511.95	25.217
512.30	25.971
512.64	25.279
512.98	26.816
513.33	25.850
513.67	25.808
514.02	25.962
514.36	25.386
514.70	26.655
515.05	26.098
515.39	26.223
515.74	25.877
516.08	25.047
516.42	26.663
516.77	26.460
517.11	24.893
517.46	26.171
517.80	27.824
518.14	27.071
518.49	27.296
518.83	26.978
519.17	26.478
519.52	26.234
519.86	26.536
520.20	27.261
520.55	26.305
520.89	27.530
521.23	27.722
521.58	26.720
521.92	26.302
522.26	27.629
522.61	27.986
522.95	26.644
523.29	27.800
523.64	27.001
523.98	26.142
524.32	27.609
524.66	27.396
525.01	27.423
525.35	26.607
525.69	28.011
526.04	27.766
526.38	27.347
526.72	28.194
527.06	28.411
527.41	27.923
527.75	27.495
528.09	27.581
528.43	28.632
528.78	26.555
529.12	27.329
529.46	27.375
529.80	28.182
530.15	27.102
530.49	27.615
530.83	27.332
531.17	27.260
531.51	27.052
531.86	27.521
532.20	26.263
532.54	28.345
532.88	26.036
533.22	28.305
533.57	27.379
533.91	27.323
534.25	27.359
534.59	27.166
534.93	27.199
535.27	26.532
535.62	26.131
535.96	26.518
536.30	26.583
536.64	27.182
536.98	27.581
537.32	27.827
537.66	27.419
538.01	26.657
538.35	27.855
538.69	26.539
539.03	27.181
539.37	26.131
539.71	26.522
540.05	26.845
540.39	27.015
540.73	27.473
541.07	26.765
541.42	26.942
541.76	27.122
542.10	27.044
542.44	26.879
542.78	25.953
543.12	26.282
543.46	27.049
543.80	26.590
544.14	26.882
544.48	26.175
544.82	26.189
545.16	26.522
545.50	27.875
545.84	27.213
546.18	27.341
546.52	26.826
546.86	26.855
547.20	26.515
547.54	26.535
547.88	25.855
548.22	26.090
548.56	27.343
548.90	25.825
549.24	26.974
549.58	28.018
549.92	26.842
550.26	27.259
550.60	27.518
550.94	26.984
551.28	27.317
551.62	27.518
551.96	26.837
552.30	25.891
552.64	26.371
552.98	26.226
553.32	26.439
553.66	27.011
554.00	26.950
554.34	26.797
554.68	27.193
555.02	26.587
555.36	26.291
555.69	26.672
556.03	26.977
556.37	26.407
556.71	25.716
557.05	26.016
557.39	26.185
557.73	27.830
558.07	27.465
558.41	26.417
558.75	25.892
559.08	28.085
559.42	26.923
559.76	27.296
560.10	26.895
560.44	26.049
560.78	26.972
561.12	26.071
561.45	26.488
561.79	25.624
562.13	26.390
562.47	26.835
562.81	24.716
563.15	25.475
563.48	25.169
563.82	25.691
564.16	25.399
564.50	26.003
564.84	26.364
565.17	25.751
565.51	25.968
565.85	24.930
566.19	26.096
566.52	25.735
566.86	25.478
567.20	25.349
567.54	25.718
567.88	24.515
568.21	24.267
568.55	24.165
568.89	23.901
569.23	23.695
569.56	23.908
569.90	22.655
570.24	22.262
570.57	21.934
570.91	22.635
571.25	21.901
571.59	22.557
571.92	21.085
572.26	20.950
572.60	21.552
572.93	21.644
573.27	21.415
573.61	21.046
573.95	21.301
574.28	20.331
574.62	20.266
574.96	20.313
575.29	20.341
575.63	20.069
575.97	20.282
576.30	20.735
576.64	19.818
576.98	19.685
577.31	20.599
577.65	20.177
577.98	19.747
578.32	20.082
578.66	19.361
578.99	20.705
579.33	19.790
579.67	20.709
580.00	20.093
580.34	20.717
580.67	19.888
581.01	19.726
581.35	19.861
581.68	19.856
582.02	19.167
582.35	19.747
582.69	19.763
583.02	19.573
583.36	19.651
583.70	20.214
584.03	20.173
584.37	20.668
584.70	20.113
585.04	19.892
585.37	19.652
585.71	19.637
586.04	20.119
586.38	20.212
586.72	19.723
587.05	20.852
587.39	20.500
587.72	19.922
588.06	20.185
588.39	20.479
588.73	20.237
589.06	20.362
589.40	20.662
589.73	20.755
590.07	20.441
590.40	21.352
590.73	21.449
591.07	21.169
591.40	21.060
591.74	21.922
592.07	21.538
592.41	21.321
592.74	21.006
593.08	20.661
593.41	20.466
593.75	20.694
594.08	20.915
594.41	20.723
594.75	20.634
595.08	20.647
595.42	21.029
595.75	20.606
596.09	21.017
596.42	21.142
596.75	21.727
597.09	20.756
597.42	21.305
597.75	20.966
598.09	21.348
598.42	20.729
598.76	21.129
599.09	20.840
599.42	19.670
599.76	21.302
600.09	20.838
600.42	20.664
600.76	20.092
601.09	20.353
601.42	20.008
601.76	20.008
602.09	20.654
602.42	20.712
602.76	20.986
603.09	20.453
603.42	20.954
603.76	19.849
604.09	21.303
604.42	21.168
604.76	21.086
605.09	20.406
605.42	20.474
605.75	20.375
606.09	21.200
606.42	20.472
606.75	21.581
607.09	21.082
607.42	21.432
607.75	20.248
608.08	21.094
608.42	21.726
608.75	20.660
609.08	20.091
609.41	21.669
609.75	22.170
610.08	20.465
610.41	20.712
610.74	21.335
611.07	21.576
611.41	21.092
611.74	20.892
612.07	21.317
612.40	21.170
612.73	21.991
613.07	21.550
613.40	21.047
613.73	21.249
614.06	20.902
614.39	22.320
614.72	21.251
615.06	21.642
615.39	22.402
615.72	21.053
616.05	20.928
616.38	20.403
616.71	20.958
617.05	20.980
617.38	21.484
617.71	21.946
618.04	21.945
618.37	21.452
618.70	22.622
619.03	22.480
619.36	22.607
619.69	22.162
620.03	23.341
620.36	23.810
620.69	22.469
621.02	22.169
621.35	23.489
621.68	23.942
622.01	23.797
622.34	23.786
622.67	22.091
623.00	23.260
623.33	23.386
623.66	23.506
623.99	22.488
624.32	23.034
624.65	23.281
624.99	22.422
625.32	22.354
625.65	23.219
625.98	23.167
626.31	22.857
626.64	22.703
626.97	24.081
627.30	24.630
627.63	23.256
627.96	24.674
628.29	25.143
628.62	24.845
628.95	26.188
629.28	26.756
629.61	24.765
629.94	25.934
630.26	24.268
630.59	26.178
630.92	23.920
631.25	25.698
631.58	25.581
631.91	24.715
632.24	25.207
632.57	26.992
