SpectraSuite Data File
++++++++++++++++++++++++++++++++++++
Date: Tue May 12 19:35:40 PDT 2015
User: schluterlab
Dark Spectrum Present: Yes
Reference Spectrum Present: Yes
Number of Sampled Component Spectra: 1
Spectrometers: USB2E3373
Integration Time (usec): 3000 (USB2E3373)
Spectra Averaged: 3 (USB2E3373)
Boxcar Smoothing: 0 (USB2E3373)
Correct for Electrical Dark: No (USB2E3373)
Strobe/Lamp Enabled: No (USB2E3373)
Correct for Detector Non-linearity: No (USB2E3373)
Correct for Stray Light: No (USB2E3373)
Number of Pixels in Processed Spectrum: 2048
>>>>>Begin Processed Spectral Data<<<<<
178.53	0.000
178.91	-110.000
179.29	-50.000
179.67	200.000
180.04	0.000
180.42	-60.000
180.80	-333.333
181.18	650.000
181.56	-150.000
181.94	183.333
182.31	1400.000
182.69	-42.857
183.07	0.000
183.45	241.667
183.83	180.000
184.20	266.667
184.58	350.000
184.96	316.667
185.34	33.333
185.72	28.571
186.09	33.333
186.47	-1100.000
186.85	100.000
187.23	125.000
187.61	-128.571
187.98	-60.000
188.36	-400.000
188.74	50.000
189.12	-100.000
189.49	-10.000
189.87	75.000
190.25	55.556
190.63	166.667
191.00	80.000
191.38	-33.333
191.76	360.000
192.14	14.286
192.51	-20.000
192.89	60.000
193.27	-120.000
193.65	-300.000
194.02	83.333
194.40	400.000
194.78	75.000
195.15	-157.143
195.53	400.000
195.91	140.000
196.29	-325.000
196.66	-100.000
197.04	-85.714
197.42	120.000
197.79	-12.500
198.17	-25.000
198.55	-100.000
198.92	-55.556
199.30	500.000
199.68	-100.000
200.05	-550.000
200.43	-5.556
200.81	-58.333
201.18	266.667
201.56	-400.000
201.94	-400.000
202.31	16.667
202.69	11.111
203.07	-33.333
203.44	-200.000
203.82	0.000
204.19	112.500
204.57	-300.000
204.95	81.818
205.32	120.000
205.70	350.000
206.08	200.000
206.45	160.000
206.83	1300.000
207.20	-133.333
207.58	0.000
207.96	66.667
208.33	333.333
208.71	266.667
209.08	100.000
209.46	-33.333
209.84	233.333
210.21	-333.333
210.59	-0.000
210.96	166.667
211.34	-150.000
211.71	900.000
212.09	160.000
212.46	-100.000
212.84	-62.500
213.22	-0.000
213.59	87.500
213.97	0.000
214.34	-250.000
214.72	-800.000
215.09	150.000
215.47	-26.667
215.84	75.000
216.22	-800.000
216.59	1100.000
216.97	33.333
217.34	-83.333
217.72	61.111
218.09	300.000
218.47	5.263
218.84	-12.500
219.22	-14.286
219.59	-60.000
219.97	-30.000
220.34	16.667
220.72	36.364
221.09	200.000
221.47	0.000
221.84	550.000
222.22	-250.000
222.59	-150.000
222.97	34.783
223.34	140.000
223.72	214.286
224.09	0.000
224.46	76.923
224.84	20.000
225.21	-100.000
225.59	25.000
225.96	45.000
226.34	200.000
226.71	80.000
227.08	-46.154
227.46	-71.429
227.83	-8.333
228.21	-900.000
228.58	-83.333
228.95	21.053
229.33	50.000
229.70	-66.667
230.08	-55.556
230.45	-500.000
230.82	-400.000
231.20	57.143
231.57	-140.000
231.95	-166.667
232.32	77.778
232.69	-350.000
233.07	81.250
233.44	-62.500
233.81	29.032
234.19	-120.000
234.56	33.333
234.93	-83.333
235.31	14.815
235.68	33.333
236.05	-19.231
236.43	0.000
236.80	59.091
237.17	-150.000
237.55	-20.000
237.92	34.884
238.29	12.903
238.67	50.000
239.04	22.857
239.41	13.725
239.79	10.000
240.16	12.500
240.53	15.517
240.91	19.178
241.28	32.394
241.65	20.313
242.02	17.544
242.40	10.667
242.77	27.368
243.14	34.118
243.51	20.430
243.89	2.857
244.26	37.963
244.63	19.388
245.00	8.036
245.38	10.924
245.75	22.881
246.12	25.000
246.49	23.200
246.87	14.754
247.24	11.972
247.61	29.801
247.98	26.404
248.36	22.642
248.73	19.886
249.10	24.444
249.47	19.271
249.84	21.320
250.22	21.354
250.59	17.416
250.96	23.182
251.33	21.698
251.70	23.853
252.08	29.870
252.45	22.041
252.82	25.316
253.19	25.292
253.56	26.275
253.94	24.390
254.31	28.417
254.68	20.833
255.05	27.483
255.42	21.455
255.79	28.477
256.16	27.083
256.54	24.545
256.91	28.526
257.28	27.597
257.65	22.295
258.02	27.327
258.39	24.471
258.76	25.076
259.14	23.235
259.51	29.296
259.88	26.225
260.25	18.466
260.62	20.787
260.99	24.513
261.36	25.862
261.73	26.133
262.10	29.155
262.47	27.273
262.85	26.221
263.22	24.462
263.59	23.861
263.96	25.587
264.33	24.528
264.70	23.833
265.07	23.399
265.44	27.635
265.81	26.747
266.18	25.761
266.55	25.000
266.92	28.125
267.29	24.889
267.66	20.909
268.03	23.871
268.40	26.087
268.77	25.612
269.14	25.420
269.51	23.529
269.88	27.137
270.25	22.785
270.62	25.000
270.99	25.263
271.36	22.296
271.73	22.917
272.10	25.311
272.47	22.200
272.84	22.293
273.21	23.591
273.58	20.816
273.95	25.299
274.32	26.692
274.69	26.614
275.06	26.642
275.43	23.800
275.80	26.004
276.17	23.913
276.54	26.996
276.91	25.144
277.28	27.079
277.65	25.709
278.02	25.758
278.39	28.312
278.76	26.257
279.13	23.256
279.50	26.534
279.87	24.528
280.23	24.590
280.60	22.261
280.97	23.199
281.34	22.203
281.71	24.512
282.08	24.687
282.45	24.162
282.82	23.737
283.19	24.579
283.56	25.085
283.92	24.961
284.29	25.212
284.66	24.779
285.03	20.926
285.40	25.000
285.77	24.466
286.14	24.247
286.51	23.151
286.87	22.853
287.24	20.192
287.61	23.920
287.98	25.039
288.35	24.031
288.72	24.771
289.08	22.484
289.45	22.621
289.82	20.186
290.19	20.455
290.56	21.274
290.93	20.827
291.29	23.972
291.66	21.910
292.03	24.390
292.40	19.712
292.77	20.554
293.13	21.880
293.50	20.661
293.87	22.885
294.24	21.208
294.60	21.038
294.97	20.360
295.34	18.493
295.71	19.417
296.08	19.262
296.44	20.158
296.81	19.664
297.18	21.345
297.55	19.221
297.91	20.051
298.28	19.693
298.65	17.464
299.02	20.345
299.38	19.515
299.75	19.949
300.12	20.504
300.48	19.601
300.85	18.215
301.22	19.591
301.59	19.221
301.95	20.976
302.32	19.563
302.69	19.144
303.05	19.008
303.42	19.324
303.79	18.315
304.15	17.780
304.52	17.095
304.89	18.602
305.25	19.266
305.62	17.727
305.99	19.261
306.35	19.799
306.72	18.192
307.09	18.498
307.45	18.123
307.82	19.317
308.19	20.022
308.55	18.038
308.92	18.432
309.29	19.038
309.65	19.917
310.02	17.296
310.38	19.083
310.75	18.750
311.12	18.616
311.48	20.041
311.85	19.554
312.22	19.008
312.58	18.228
312.95	17.967
313.31	18.977
313.68	18.967
314.05	20.159
314.41	19.253
314.78	18.492
315.14	20.470
315.51	20.556
315.87	20.410
316.24	19.980
316.61	20.097
316.97	19.412
317.34	20.287
317.70	20.261
318.07	20.829
318.43	20.983
318.80	19.490
319.16	20.037
319.53	20.943
319.89	21.023
320.26	20.846
320.62	22.190
320.99	22.653
321.35	22.332
321.72	22.424
322.08	22.574
322.45	22.880
322.81	24.631
323.18	22.723
323.54	24.076
323.91	22.296
324.27	22.083
324.64	22.962
325.00	24.295
325.37	24.730
325.73	24.088
326.10	23.993
326.46	24.751
326.83	25.682
327.19	26.114
327.56	26.525
327.92	25.434
328.29	26.344
328.65	27.213
329.01	26.697
329.38	27.640
329.74	28.598
330.11	26.934
330.47	28.119
330.84	28.383
331.20	27.634
331.56	26.509
331.93	28.454
332.29	28.030
332.66	27.848
333.02	27.484
333.38	28.585
333.75	28.088
334.11	29.385
334.48	28.712
334.84	27.981
335.20	26.410
335.57	30.336
335.93	28.372
336.29	29.068
336.66	28.324
337.02	29.193
337.38	28.868
337.75	29.364
338.11	29.991
338.47	30.362
338.84	29.834
339.20	29.698
339.56	28.425
339.93	28.108
340.29	30.734
340.65	29.498
341.02	28.432
341.38	29.214
341.74	30.516
342.11	29.708
342.47	30.070
342.83	30.269
343.20	29.266
343.56	28.497
343.92	29.396
344.28	28.473
344.65	29.281
345.01	28.746
345.37	28.120
345.73	29.027
346.10	28.954
346.46	29.336
346.82	29.482
347.19	28.848
347.55	31.293
347.91	28.665
348.27	28.981
348.63	30.251
349.00	31.219
349.36	30.173
349.72	30.788
350.08	30.442
350.45	30.431
350.81	30.388
351.17	30.478
351.53	29.952
351.89	29.361
352.26	29.837
352.62	30.417
352.98	30.711
353.34	30.493
353.70	29.218
354.07	30.643
354.43	31.302
354.79	30.246
355.15	29.540
355.51	31.296
355.87	31.141
356.24	32.435
356.60	30.301
356.96	30.648
357.32	32.181
357.68	31.424
358.04	31.280
358.40	31.997
358.77	31.084
359.13	31.406
359.49	31.120
359.85	32.294
360.21	31.642
360.57	33.174
360.93	32.621
361.29	31.620
361.66	32.413
362.02	33.909
362.38	33.411
362.74	32.898
363.10	32.127
363.46	32.731
363.82	32.695
364.18	33.157
364.54	33.817
364.90	32.667
365.26	34.352
365.62	34.444
365.98	34.483
366.35	34.720
366.71	34.503
367.07	35.277
367.43	34.152
367.79	32.849
368.15	35.582
368.51	35.730
368.87	34.361
369.23	35.882
369.59	34.485
369.95	34.575
370.31	35.000
370.67	34.887
371.03	36.765
371.39	35.725
371.75	34.770
372.11	35.037
372.47	35.115
372.83	36.377
373.19	35.316
373.55	36.078
373.91	36.212
374.27	36.865
374.63	35.420
374.99	35.871
375.35	35.631
375.71	36.442
376.07	36.325
376.42	36.791
376.78	36.167
377.14	36.522
377.50	36.731
377.86	36.560
378.22	36.922
378.58	36.842
378.94	36.935
379.30	36.165
379.66	36.044
380.02	37.190
380.38	37.023
380.74	38.285
381.09	37.802
381.45	37.079
381.81	37.755
382.17	37.459
382.53	38.001
382.89	38.679
383.25	36.525
383.61	37.381
383.97	38.272
384.32	36.387
384.68	37.420
385.04	35.710
385.40	37.700
385.76	37.255
386.12	37.756
386.48	36.530
386.83	37.788
387.19	38.250
387.55	37.370
387.91	38.131
388.27	38.260
388.62	39.313
388.98	38.613
389.34	38.126
389.70	38.077
390.06	38.812
390.42	38.742
390.77	39.034
391.13	38.452
391.49	39.016
391.85	38.323
392.20	38.614
392.56	36.739
392.92	39.023
393.28	38.001
393.64	39.392
393.99	38.506
394.35	37.638
394.71	39.007
395.07	39.191
395.42	37.587
395.78	38.038
396.14	39.374
396.50	38.292
396.85	39.590
397.21	37.193
397.57	37.788
397.92	38.359
398.28	39.089
398.64	37.143
399.00	38.421
399.35	36.342
399.71	37.844
400.07	36.875
400.42	38.013
400.78	37.428
401.14	37.184
401.49	38.101
401.85	37.714
402.21	37.563
402.57	35.544
402.92	37.649
403.28	36.866
403.63	37.179
403.99	36.328
404.35	35.414
404.70	35.845
405.06	37.074
405.42	36.630
405.77	35.850
406.13	36.679
406.49	35.899
406.84	37.671
407.20	35.688
407.55	36.540
407.91	35.664
408.27	37.301
408.62	35.884
408.98	36.100
409.34	35.403
409.69	35.050
410.05	35.751
410.40	35.260
410.76	36.052
411.11	35.553
411.47	36.054
411.83	35.608
412.18	36.126
412.54	36.611
412.89	34.197
413.25	35.423
413.60	36.607
413.96	35.210
414.31	34.863
414.67	36.259
415.03	36.445
415.38	35.446
415.74	35.863
416.09	35.768
416.45	36.023
416.80	36.092
417.16	35.966
417.51	36.294
417.87	36.662
418.22	36.765
418.58	36.835
418.93	35.783
419.29	36.296
419.64	38.118
420.00	36.542
420.35	38.167
420.71	37.388
421.06	37.962
421.42	37.641
421.77	37.576
422.12	37.507
422.48	38.492
422.83	38.298
423.19	38.118
423.54	38.424
423.90	38.072
424.25	39.275
424.61	38.710
424.96	37.899
425.31	39.795
425.67	38.848
426.02	39.006
426.38	39.640
426.73	39.751
427.09	39.527
427.44	39.630
427.79	41.770
428.15	40.520
428.50	41.457
428.85	40.924
429.21	41.841
429.56	40.608
429.92	40.508
430.27	40.427
430.62	41.806
430.98	41.429
431.33	41.324
431.68	41.028
432.04	41.715
432.39	41.474
432.74	41.619
433.10	41.844
433.45	42.242
433.80	42.262
434.16	42.348
434.51	42.754
434.86	43.444
435.22	43.481
435.57	43.931
435.92	42.477
436.28	43.524
436.63	44.246
436.98	45.556
437.34	45.425
437.69	45.000
438.04	45.192
438.39	45.366
438.75	44.492
439.10	45.833
439.45	46.406
439.81	46.095
440.16	46.939
440.51	45.415
440.86	46.717
441.22	45.265
441.57	46.724
441.92	47.211
442.27	47.886
442.63	47.968
442.98	49.389
443.33	49.647
443.68	48.364
444.03	47.835
444.39	47.840
444.74	50.258
445.09	49.646
445.44	49.155
445.79	50.162
446.15	49.388
446.50	50.318
446.85	50.055
447.20	49.726
447.55	49.855
447.91	51.558
448.26	50.861
448.61	51.057
448.96	51.567
449.31	50.030
449.66	50.424
450.02	50.592
450.37	51.397
450.72	51.346
451.07	52.011
451.42	52.306
451.77	51.450
452.12	51.880
452.47	52.846
452.83	52.864
453.18	52.465
453.53	52.841
453.88	54.435
454.23	52.588
454.58	53.394
454.93	52.044
455.28	53.428
455.63	52.827
455.98	53.109
456.34	53.182
456.69	53.419
457.04	52.953
457.39	53.371
457.74	53.161
458.09	53.080
458.44	53.709
458.79	53.180
459.14	52.713
459.49	54.013
459.84	53.389
460.19	53.971
460.54	52.525
460.89	53.000
461.24	54.481
461.59	54.069
461.94	53.780
462.29	53.195
462.64	53.343
462.99	55.040
463.34	53.333
463.69	55.693
464.04	55.741
464.39	54.341
464.74	53.602
465.09	54.277
465.44	53.809
465.79	53.670
466.14	54.177
466.49	54.015
466.84	54.177
467.19	53.151
467.54	53.515
467.89	54.409
468.24	54.293
468.59	54.712
468.94	54.943
469.29	54.948
469.64	55.653
469.99	53.785
470.34	53.395
470.68	54.154
471.03	54.891
471.38	56.171
471.73	54.506
472.08	55.943
472.43	56.777
472.78	54.532
473.13	55.018
473.48	56.017
473.83	56.143
474.17	56.104
474.52	56.330
474.87	55.682
475.22	55.972
475.57	55.112
475.92	55.770
476.27	56.058
476.61	55.260
476.96	56.432
477.31	55.765
477.66	56.188
478.01	56.622
478.36	56.619
478.70	56.338
479.05	56.181
479.40	55.113
479.75	57.095
480.10	56.006
480.45	57.120
480.79	55.942
481.14	56.879
481.49	54.961
481.84	55.000
482.19	54.878
482.53	54.951
482.88	55.770
483.23	54.824
483.58	55.644
483.92	55.829
484.27	55.663
484.62	55.964
484.97	56.151
485.31	54.447
485.66	54.320
486.01	53.005
486.36	53.838
486.70	54.346
487.05	54.723
487.40	53.180
487.75	52.734
488.09	52.726
488.44	53.678
488.79	54.893
489.13	55.445
489.48	54.682
489.83	55.479
490.17	55.556
490.52	55.210
490.87	57.171
491.22	54.339
491.56	56.818
491.91	55.572
492.26	57.471
492.60	55.561
492.95	56.366
493.30	55.881
493.64	55.781
493.99	55.852
494.34	57.780
494.68	55.203
495.03	55.071
495.37	56.057
495.72	55.854
496.07	54.970
496.41	55.188
496.76	55.158
497.11	57.361
497.45	57.408
497.80	55.867
498.14	57.181
498.49	55.793
498.84	55.608
499.18	55.371
499.53	56.386
499.87	56.170
500.22	55.740
500.56	56.777
500.91	57.105
501.26	56.693
501.60	55.861
501.95	56.141
502.29	58.184
502.64	56.247
502.98	55.427
503.33	56.066
503.67	56.304
504.02	56.742
504.36	55.419
504.71	56.915
505.06	56.615
505.40	58.016
505.75	55.924
506.09	57.259
506.44	58.101
506.78	57.762
507.13	57.492
507.47	57.285
507.82	58.817
508.16	58.018
508.51	58.698
508.85	58.956
509.19	57.323
509.54	58.754
509.88	58.918
510.23	58.146
510.57	58.433
510.92	58.787
511.26	60.310
511.61	59.874
511.95	59.919
512.30	60.000
512.64	58.944
512.98	60.484
513.33	59.027
513.67	59.940
514.02	59.796
514.36	59.786
514.70	59.866
515.05	61.098
515.39	61.481
515.74	60.589
516.08	61.205
516.42	62.088
516.77	60.745
517.11	62.018
517.46	62.648
517.80	64.391
518.14	61.923
518.49	62.807
518.83	64.008
519.17	62.404
519.52	62.898
519.86	64.725
520.20	63.248
520.55	64.099
520.89	64.710
521.23	63.527
521.58	62.500
521.92	62.951
522.26	64.674
522.61	65.392
522.95	64.863
523.29	64.440
523.64	64.858
523.98	64.382
524.32	65.926
524.66	66.553
525.01	65.292
525.35	65.390
525.69	64.281
526.04	67.865
526.38	66.141
526.72	67.153
527.06	68.425
527.41	65.202
527.75	67.911
528.09	65.983
528.43	65.698
528.78	67.365
529.12	65.753
529.46	65.648
529.80	65.623
530.15	66.782
530.49	65.481
530.83	66.450
531.17	67.302
531.51	66.738
531.86	66.317
532.20	65.152
532.54	66.619
532.88	65.891
533.22	67.170
533.57	65.655
533.91	67.447
534.25	67.346
534.59	67.538
534.93	65.950
535.27	65.051
535.62	66.172
535.96	66.504
536.30	66.249
536.64	66.237
536.98	68.510
537.32	67.708
537.66	66.569
538.01	68.115
538.35	67.127
538.69	66.737
539.03	66.186
539.37	66.116
539.71	66.522
540.05	67.004
540.39	66.667
540.73	67.253
541.07	68.015
541.42	66.215
541.76	66.403
542.10	66.212
542.44	67.558
542.78	66.422
543.12	65.415
543.46	68.182
543.80	65.690
544.14	66.165
544.48	65.754
544.82	66.217
545.16	68.841
545.50	68.122
545.84	67.813
546.18	68.240
546.52	68.332
546.86	68.477
547.20	65.909
547.54	66.111
547.88	66.311
548.22	66.596
548.56	67.512
548.90	65.404
549.24	67.544
549.58	66.468
549.92	67.519
550.26	68.571
550.60	68.596
550.94	69.127
551.28	68.211
551.62	69.124
551.96	67.572
552.30	68.062
552.64	66.416
552.98	66.122
553.32	66.364
553.66	67.527
554.00	69.035
554.34	68.984
554.68	67.624
555.02	67.778
555.36	67.832
555.69	65.488
556.03	66.297
556.37	67.592
556.71	67.798
557.05	67.188
557.39	68.273
557.73	66.745
558.07	66.823
558.41	67.598
558.75	67.801
559.08	71.064
559.42	70.151
559.76	68.576
560.10	68.052
560.44	66.271
560.78	66.041
561.12	66.717
561.45	67.039
561.79	64.170
562.13	66.271
562.47	67.737
562.81	66.869
563.15	66.388
563.48	65.693
563.82	65.866
564.16	66.909
564.50	67.120
564.84	65.911
565.17	66.381
565.51	66.643
565.85	65.915
566.19	65.623
566.52	67.599
566.86	66.325
567.20	66.068
567.54	65.412
567.88	64.927
568.21	64.361
568.55	63.045
568.89	63.791
569.23	63.052
569.56	61.793
569.90	62.355
570.24	61.584
570.57	60.196
570.91	60.699
571.25	60.537
571.59	59.836
571.92	58.729
572.26	58.254
572.60	59.108
572.93	58.743
573.27	58.306
573.61	58.032
573.95	58.784
574.28	58.014
574.62	57.042
574.96	57.471
575.29	56.531
575.63	56.979
575.97	56.314
576.30	57.750
576.64	56.064
576.98	56.735
577.31	57.201
577.65	57.393
577.98	56.404
578.32	56.447
578.66	56.340
578.99	57.606
579.33	56.456
579.67	55.816
580.00	55.815
580.34	56.812
580.67	56.816
581.01	56.687
581.35	56.149
581.68	55.679
582.02	56.042
582.35	56.765
582.69	56.917
583.02	56.711
583.36	55.961
583.70	56.956
584.03	56.900
584.37	56.637
584.70	57.617
585.04	56.447
585.37	56.300
585.71	57.301
586.04	58.079
586.38	58.077
586.72	57.963
587.05	57.734
587.39	56.934
587.72	58.016
588.06	58.424
588.39	58.165
588.73	58.869
589.06	57.891
589.40	58.254
589.73	58.452
590.07	58.188
590.40	58.798
590.73	59.892
591.07	59.957
591.40	59.890
591.74	60.215
592.07	59.599
592.41	60.778
592.74	60.418
593.08	59.316
593.41	58.759
593.75	59.656
594.08	60.350
594.41	59.533
594.75	59.867
595.08	59.369
595.42	58.430
595.75	58.826
596.09	59.888
596.42	60.254
596.75	61.091
597.09	59.328
597.42	59.784
597.75	60.741
598.09	60.019
598.42	59.489
598.76	60.200
599.09	59.538
599.42	58.104
599.76	59.396
600.09	60.380
600.42	57.383
600.76	58.391
601.09	57.686
601.42	58.092
601.76	58.685
602.09	58.944
602.42	59.705
602.76	58.421
603.09	59.443
603.42	59.753
603.76	58.749
604.09	59.398
604.42	59.124
604.76	59.607
605.09	59.140
605.42	60.332
605.75	58.474
606.09	59.600
606.42	59.055
606.75	59.325
607.09	60.308
607.42	58.238
607.75	58.724
608.08	59.869
608.42	59.748
608.75	59.680
609.08	58.556
609.41	58.528
609.75	58.399
610.08	58.656
610.41	59.695
610.74	58.948
611.07	59.175
611.41	58.512
611.74	60.174
612.07	59.431
612.40	59.833
612.73	59.838
613.07	60.364
613.40	59.747
613.73	59.450
614.06	59.133
614.39	60.691
614.72	59.858
615.06	59.127
615.39	59.873
615.72	58.063
616.05	59.594
616.38	60.617
616.71	60.075
617.05	59.548
617.38	59.032
617.71	60.418
618.04	60.972
618.37	59.908
618.70	61.345
619.03	62.219
619.36	60.457
619.69	61.198
620.03	62.700
620.36	61.073
620.69	59.719
621.02	62.470
621.35	62.894
621.68	63.726
622.01	61.319
622.34	63.065
622.67	60.877
623.00	61.589
623.33	60.866
623.66	62.869
623.99	60.766
624.32	61.557
624.65	60.000
624.99	60.078
625.32	61.058
625.65	62.130
625.98	63.167
626.31	61.645
626.64	61.441
626.97	63.419
627.30	62.500
627.63	62.884
627.96	62.011
628.29	63.576
628.62	64.124
628.95	64.308
629.28	63.636
629.61	64.995
629.94	64.523
630.26	64.749
630.59	62.932
630.92	61.328
631.25	64.358
631.58	66.512
631.91	64.692
632.24	64.024
632.57	65.993
632.90	67.036
633.23	66.452
633.56	63.774
