SpectraSuite Data File
++++++++++++++++++++++++++++++++++++
Date: Tue May 12 19:40:59 PDT 2015
User: schluterlab
Dark Spectrum Present: Yes
Reference Spectrum Present: Yes
Number of Sampled Component Spectra: 1
Spectrometers: USB2E3373
Integration Time (usec): 3000 (USB2E3373)
Spectra Averaged: 3 (USB2E3373)
Boxcar Smoothing: 0 (USB2E3373)
Correct for Electrical Dark: No (USB2E3373)
Strobe/Lamp Enabled: No (USB2E3373)
Correct for Detector Non-linearity: No (USB2E3373)
Correct for Stray Light: No (USB2E3373)
Number of Pixels in Processed Spectrum: 2048
>>>>>Begin Processed Spectral Data<<<<<
178.53	0.000
178.91	-20.000
179.29	16.667
179.67	200.000
180.04	0.000
180.42	20.000
180.80	-66.667
181.18	400.000
181.56	50.000
181.94	166.667
182.31	900.000
182.69	14.286
183.07	0.000
183.45	116.667
183.83	80.000
184.20	100.000
184.58	350.000
184.96	200.000
185.34	-233.333
185.72	-35.714
186.09	-100.000
186.47	-1500.000
186.85	40.000
187.23	133.333
187.61	-100.000
187.98	-200.000
188.36	350.000
188.74	-175.000
189.12	22.222
189.49	10.000
189.87	150.000
190.25	155.556
190.63	233.333
191.00	200.000
191.38	-333.333
191.76	260.000
192.14	28.571
192.51	-80.000
192.89	40.000
193.27	-40.000
193.65	-400.000
194.02	-150.000
194.40	600.000
194.78	-75.000
195.15	-57.143
195.53	300.000
195.91	360.000
196.29	-275.000
196.66	-66.667
197.04	-185.714
197.42	300.000
197.79	-62.500
198.17	8.333
198.55	200.000
198.92	-155.556
199.30	-100.000
199.68	50.000
200.05	-450.000
200.43	16.667
200.81	-83.333
201.18	216.667
201.56	-350.000
201.94	-1000.000
202.31	-16.667
202.69	77.778
203.07	58.333
203.44	-375.000
203.82	0.000
204.19	212.500
204.57	-266.667
204.95	81.818
205.32	100.000
205.70	250.000
206.08	-900.000
206.45	-120.000
206.83	1800.000
207.20	-166.667
207.58	-7.692
207.96	533.333
208.33	566.667
208.71	500.000
209.08	700.000
209.46	11.111
209.84	-33.333
210.21	-300.000
210.59	-450.000
210.96	211.111
211.34	-400.000
211.71	850.000
212.09	-220.000
212.46	-150.000
212.84	-50.000
213.22	128.571
213.59	-25.000
213.97	0.000
214.34	-250.000
214.72	-900.000
215.09	700.000
215.47	6.667
215.84	-100.000
216.22	-1000.000
216.59	800.000
216.97	58.333
217.34	-183.333
217.72	44.444
218.09	150.000
218.47	0.000
218.84	-75.000
219.22	21.429
219.59	-40.000
219.97	30.000
220.34	-50.000
220.72	172.727
221.09	-450.000
221.47	0.000
221.84	750.000
222.22	-150.000
222.59	-150.000
222.97	26.087
223.34	133.333
223.72	300.000
224.09	16.667
224.46	138.462
224.84	-66.667
225.21	0.000
225.59	-250.000
225.96	75.000
226.34	183.333
226.71	170.000
227.08	15.385
227.46	-57.143
227.83	-41.667
228.21	-550.000
228.58	216.667
228.95	31.579
229.33	37.500
229.70	-150.000
230.08	-111.111
230.45	-366.667
230.82	-1500.000
231.20	28.571
231.57	-200.000
231.95	-300.000
232.32	22.222
232.69	-150.000
233.07	68.750
233.44	-62.500
233.81	19.355
234.19	-220.000
234.56	-11.111
234.93	16.667
235.31	7.407
235.68	33.333
236.05	3.846
236.43	-15.789
236.80	18.182
237.17	21.429
237.55	0.000
237.92	18.605
238.29	54.839
238.67	42.857
239.04	34.286
239.41	35.294
239.79	44.000
240.16	32.500
240.53	32.759
240.91	43.836
241.28	35.211
241.65	60.937
242.02	49.123
242.40	37.333
242.77	41.053
243.14	61.176
243.51	37.634
243.89	31.429
244.26	52.778
244.63	55.102
245.00	41.964
245.38	34.454
245.75	48.305
246.12	46.094
246.49	44.000
246.87	42.623
247.24	44.366
247.61	47.020
247.98	46.629
248.36	49.686
248.73	46.591
249.10	48.333
249.47	47.917
249.84	47.716
250.22	46.354
250.59	51.124
250.96	48.182
251.33	53.774
251.70	54.128
252.08	53.680
252.45	49.388
252.82	44.726
253.19	52.529
253.56	52.549
253.94	50.407
254.31	51.439
254.68	53.472
255.05	50.993
255.42	51.636
255.79	52.649
256.16	54.861
256.54	53.636
256.91	55.128
257.28	48.052
257.65	46.230
258.02	52.853
258.39	56.193
258.76	53.517
259.14	47.647
259.51	54.366
259.88	54.755
260.25	49.432
260.62	47.753
260.99	52.368
261.36	52.299
261.73	47.200
262.10	56.403
262.47	58.127
262.85	53.213
263.22	52.957
263.59	55.764
263.96	53.003
264.33	53.908
264.70	50.860
265.07	54.187
265.44	52.693
265.81	54.458
266.18	53.396
266.55	55.000
266.92	52.679
267.29	52.000
267.66	49.545
268.03	52.258
268.40	51.487
268.77	51.225
269.14	52.101
269.51	54.751
269.88	51.923
270.25	52.110
270.62	50.840
270.99	50.737
271.36	51.876
271.73	51.458
272.10	52.905
272.47	50.600
272.84	46.709
273.21	50.731
273.58	50.408
273.95	51.793
274.32	51.451
274.69	51.859
275.06	52.908
275.43	51.600
275.80	52.772
276.17	52.767
276.54	52.662
276.91	53.743
277.28	54.932
277.65	51.229
278.02	51.326
278.39	51.361
278.76	53.818
279.13	52.952
279.50	54.152
279.87	50.189
280.23	50.820
280.60	50.353
280.97	51.494
281.34	49.153
281.71	46.004
282.08	48.479
282.45	48.677
282.82	50.168
283.19	50.673
283.56	51.024
283.92	49.289
284.29	52.284
284.66	49.912
285.03	46.827
285.40	51.000
285.77	53.366
286.14	49.128
286.51	49.518
286.87	48.947
287.24	49.679
287.61	47.068
287.98	50.391
288.35	48.527
288.72	47.706
289.08	42.767
289.45	47.582
289.82	46.118
290.19	47.121
290.56	46.744
290.93	46.529
291.29	46.809
291.66	44.242
292.03	45.481
292.40	44.317
292.77	43.440
293.13	44.934
293.50	42.149
293.87	42.857
294.24	44.382
294.60	42.760
294.97	42.936
295.34	40.685
295.71	40.777
296.08	40.847
296.44	43.215
296.81	40.880
297.18	41.915
297.55	40.829
297.91	40.736
298.28	39.642
298.65	41.527
299.02	40.444
299.38	38.903
299.75	39.254
300.12	40.647
300.48	39.437
300.85	37.897
301.22	37.740
301.59	39.538
301.95	39.390
302.32	38.032
302.69	39.239
303.05	39.433
303.42	39.130
303.79	37.303
304.15	38.845
304.52	37.430
304.89	39.233
305.25	37.844
305.62	37.045
305.99	36.730
306.35	37.248
306.72	37.908
307.09	36.888
307.45	35.922
307.82	37.247
308.19	38.614
308.55	37.553
308.92	36.441
309.29	36.192
309.65	35.294
310.02	34.801
310.38	37.100
310.75	36.475
311.12	36.419
311.48	38.232
311.85	36.069
312.22	36.364
312.58	36.153
312.95	37.372
313.31	36.775
313.68	36.246
314.05	37.934
314.41	36.149
314.78	37.186
315.14	37.414
315.51	35.551
315.87	37.402
316.24	36.597
316.61	36.893
316.97	37.647
317.34	37.895
317.70	35.761
318.07	37.030
318.43	36.862
318.80	36.612
319.16	37.838
319.53	36.698
319.89	35.417
320.26	36.971
320.62	37.500
320.99	37.143
321.35	37.352
321.72	38.485
322.08	37.426
322.45	38.955
322.81	37.833
323.18	35.954
323.54	37.251
323.91	36.812
324.27	36.162
324.64	37.113
325.00	37.580
325.37	37.410
325.73	35.766
326.10	36.165
326.46	36.446
326.83	37.643
327.19	37.467
327.56	37.931
327.92	37.240
328.29	36.559
328.65	38.701
329.01	37.706
329.38	36.547
329.74	35.933
330.11	37.092
330.47	36.685
330.84	36.748
331.20	37.153
331.56	36.604
331.93	34.584
332.29	35.153
332.66	36.528
333.02	36.769
333.38	36.121
333.75	35.956
334.11	34.991
334.48	35.510
334.84	35.493
335.20	36.437
335.57	37.148
335.93	36.651
336.29	36.106
336.66	36.430
337.02	36.355
337.38	35.943
337.75	37.000
338.11	36.098
338.47	36.583
338.84	35.820
339.20	35.655
339.56	35.974
339.93	35.405
340.29	36.718
340.65	36.530
341.02	34.898
341.38	35.922
341.74	36.388
342.11	35.986
342.47	34.615
342.83	34.692
343.20	36.958
343.56	35.052
343.92	36.045
344.28	35.763
344.65	36.216
345.01	37.282
345.37	36.581
345.73	35.573
346.10	37.424
346.46	35.462
346.82	37.128
347.19	37.679
347.55	37.075
347.91	37.428
348.27	37.405
348.63	37.165
349.00	36.728
349.36	37.263
349.72	36.700
350.08	37.725
350.45	36.859
350.81	37.407
351.17	36.656
351.53	36.795
351.89	38.342
352.26	37.154
352.62	35.977
352.98	37.573
353.34	37.093
353.70	37.037
354.07	37.727
354.43	37.229
354.79	35.492
355.15	37.127
355.51	37.490
355.87	37.802
356.24	37.827
356.60	36.811
356.96	36.651
357.32	37.942
357.68	37.550
358.04	35.900
358.40	38.462
358.77	36.867
359.13	36.867
359.49	35.760
359.85	37.090
360.21	36.479
360.57	36.842
360.93	37.688
361.29	37.617
361.66	36.199
362.02	38.226
362.38	38.151
362.74	37.048
363.10	36.727
363.46	37.171
363.82	37.366
364.18	36.715
364.54	37.939
364.90	37.778
365.26	36.811
365.62	37.245
365.98	37.781
366.35	37.746
366.71	37.267
367.07	37.860
367.43	36.101
367.79	36.119
368.15	36.249
368.51	37.603
368.87	36.858
369.23	36.942
369.59	36.544
369.95	36.513
370.31	37.727
370.67	37.218
371.03	37.384
371.39	38.369
371.75	36.181
372.11	37.037
372.47	35.635
372.83	37.400
373.19	37.877
373.55	37.275
373.91	35.985
374.27	38.926
374.63	36.966
374.99	35.578
375.35	36.502
375.71	36.155
376.07	37.102
376.42	36.929
376.78	36.307
377.14	37.919
377.50	37.688
377.86	37.674
378.22	37.913
378.58	38.355
378.94	38.834
379.30	37.580
379.66	36.236
380.02	35.855
380.38	37.977
380.74	37.166
381.09	37.484
381.45	36.825
381.81	36.224
382.17	38.958
382.53	38.067
382.89	36.498
383.25	36.081
383.61	36.300
383.97	37.622
384.32	37.097
384.68	38.378
385.04	36.155
385.40	35.655
385.76	37.065
386.12	37.228
386.48	36.921
386.83	37.459
387.19	36.590
387.55	36.528
387.91	37.695
388.27	36.404
388.62	37.047
388.98	37.277
389.34	36.890
389.70	37.756
390.06	37.030
390.42	37.323
390.77	38.364
391.13	37.411
391.49	38.073
391.85	36.926
392.20	37.492
392.56	37.066
392.92	38.033
393.28	36.984
393.64	37.049
393.99	36.364
394.35	37.703
394.71	38.079
395.07	38.329
395.42	37.079
395.78	37.702
396.14	38.641
396.50	38.875
396.85	37.079
397.21	36.093
397.57	38.315
397.92	37.532
398.28	37.950
398.64	36.000
399.00	37.086
399.35	36.811
399.71	36.946
400.07	36.566
400.42	37.436
400.78	36.468
401.14	37.626
401.49	37.976
401.85	37.778
402.21	37.373
402.57	35.158
402.92	38.446
403.28	36.736
403.63	37.115
403.99	36.856
404.35	36.242
404.70	37.049
405.06	37.632
405.42	37.215
405.77	36.385
406.13	36.559
406.49	36.341
406.84	38.418
407.20	37.299
407.55	37.141
407.91	37.133
408.27	37.434
408.62	36.334
408.98	37.516
409.34	37.516
409.69	36.656
410.05	35.751
410.40	36.480
410.76	36.986
411.11	35.294
411.47	36.327
411.83	36.768
412.18	37.958
412.54	37.128
412.89	36.658
413.25	37.492
413.60	36.480
413.96	37.411
414.31	36.265
414.67	36.935
415.03	37.068
415.38	36.351
415.74	36.199
416.09	36.664
416.45	37.084
416.80	35.744
417.16	36.883
417.51	36.919
417.87	37.688
418.22	37.032
418.58	36.144
418.93	37.524
419.29	36.906
419.64	37.363
420.00	36.477
420.35	36.660
420.71	36.172
421.06	36.275
421.42	36.826
421.77	38.490
422.12	36.680
422.48	37.179
422.83	35.441
423.19	36.882
423.54	36.591
423.90	37.021
424.25	36.979
424.61	36.581
424.96	36.057
425.31	37.923
425.67	36.061
426.02	36.708
426.38	36.744
426.73	36.012
427.09	36.179
427.44	36.481
427.79	36.696
428.15	35.384
428.50	36.872
428.85	35.856
429.21	36.402
429.56	35.912
429.92	36.344
430.27	36.053
430.62	36.777
430.98	35.680
431.33	37.152
431.68	36.214
432.04	36.939
432.39	35.116
432.74	35.737
433.10	37.235
433.45	36.542
433.80	36.964
434.16	34.925
434.51	36.511
434.86	35.227
435.22	35.914
435.57	37.203
435.92	35.789
436.28	35.305
436.63	37.269
436.98	35.802
437.34	36.532
437.69	35.494
438.04	36.178
438.39	37.141
438.75	35.323
439.10	36.964
439.45	37.227
439.81	36.063
440.16	36.240
440.51	35.688
440.86	35.985
441.22	35.259
441.57	36.296
441.92	35.947
442.27	37.429
442.63	36.343
442.98	36.858
443.33	36.722
443.68	35.607
444.03	36.546
444.39	36.231
444.74	37.836
445.09	37.131
445.44	35.277
445.79	36.030
446.15	36.851
446.50	37.131
446.85	37.019
447.20	36.160
447.55	35.893
447.91	36.743
448.26	36.914
448.61	36.495
448.96	37.079
449.31	36.468
449.66	34.867
450.02	36.154
450.37	36.756
450.72	35.847
451.07	36.124
451.42	36.693
451.77	36.003
452.12	36.090
452.47	35.976
452.83	36.862
453.18	36.057
453.53	37.622
453.88	36.311
454.23	36.997
454.58	37.010
454.93	35.559
455.28	36.253
455.63	36.257
455.98	36.675
456.34	35.968
456.69	35.816
457.04	35.236
457.39	35.830
457.74	35.588
458.09	35.594
458.44	37.032
458.79	35.453
459.14	36.553
459.49	36.433
459.84	35.196
460.19	36.273
460.54	35.101
460.89	35.294
461.24	37.013
461.59	36.656
461.94	36.358
462.29	35.025
462.64	35.585
462.99	36.041
463.34	35.311
463.69	37.517
464.04	35.728
464.39	35.820
464.74	34.848
465.09	35.434
465.44	35.153
465.79	35.680
466.14	35.740
466.49	36.169
466.84	35.934
467.19	35.283
467.54	34.947
467.89	35.075
468.24	34.848
468.59	35.209
468.94	35.306
469.29	35.502
469.64	35.594
469.99	34.751
470.34	33.168
470.68	34.538
471.03	34.526
471.38	34.854
471.73	34.956
472.08	35.231
472.43	35.201
472.78	33.285
473.13	35.789
473.48	35.201
473.83	35.931
474.17	33.556
474.52	35.164
474.87	34.091
475.22	34.689
475.57	33.843
475.92	34.565
476.27	34.237
476.61	33.629
476.96	34.914
477.31	34.018
477.66	34.515
478.01	33.843
478.36	32.722
478.70	35.099
479.05	32.850
479.40	33.665
479.75	34.492
480.10	34.416
480.45	34.188
480.79	33.679
481.14	34.317
481.49	33.830
481.84	34.697
482.19	34.146
482.53	33.480
482.88	34.215
483.23	34.673
483.58	33.812
483.92	34.724
484.27	33.833
484.62	34.371
484.97	34.315
485.31	34.532
485.66	34.882
486.01	34.664
486.36	35.683
486.70	35.468
487.05	34.469
487.40	34.181
487.75	34.240
488.09	33.271
488.44	34.406
488.79	33.410
489.13	33.624
489.48	33.790
489.83	33.842
490.17	34.130
490.52	32.218
490.87	34.026
491.22	32.890
491.56	32.856
491.91	33.333
492.26	33.758
492.60	33.265
492.95	33.419
493.30	33.194
493.64	33.266
493.99	34.240
494.34	34.161
494.68	33.152
495.03	32.505
495.37	33.401
495.72	33.070
496.07	33.671
496.41	32.658
496.76	32.521
497.11	33.038
497.45	33.199
497.80	32.606
498.14	32.154
498.49	32.835
498.84	31.551
499.18	32.019
499.53	33.022
499.87	33.794
500.22	32.104
500.56	32.810
500.91	32.774
501.26	33.071
501.60	33.028
501.95	33.060
502.29	33.556
502.64	31.857
502.98	32.812
503.33	32.152
503.67	32.414
504.02	33.146
504.36	31.844
504.71	31.755
505.06	31.655
505.40	34.048
505.75	32.438
506.09	32.719
506.44	33.584
506.78	32.441
507.13	31.650
507.47	31.634
507.82	31.808
508.16	32.238
508.51	32.604
508.85	32.527
509.19	32.584
509.54	31.671
509.88	31.415
510.23	31.742
510.57	31.743
510.92	32.143
511.26	31.189
511.61	31.792
511.95	32.389
512.30	32.000
512.64	32.375
512.98	31.955
513.33	30.832
513.67	30.599
514.02	30.649
514.36	30.724
514.70	31.512
515.05	32.134
515.39	31.556
515.74	31.266
516.08	30.508
516.42	31.200
516.77	31.925
517.11	30.887
517.46	33.104
517.80	32.036
518.14	32.891
518.49	31.630
518.83	31.388
519.17	30.398
519.52	31.605
519.86	32.426
520.20	31.146
520.55	30.809
520.89	32.254
521.23	31.062
521.58	30.952
521.92	30.841
522.26	31.684
522.61	31.331
522.95	30.616
523.29	30.634
523.64	30.529
523.98	29.906
524.32	32.997
524.66	31.543
525.01	31.890
525.35	31.053
525.69	30.557
526.04	32.699
526.38	30.021
526.72	32.917
527.06	31.857
527.41	31.396
527.75	31.515
528.09	31.188
528.43	30.971
528.78	30.468
529.12	30.822
529.46	31.362
529.80	31.586
530.15	30.855
530.49	30.474
530.83	31.092
531.17	29.873
531.51	30.193
531.86	30.462
532.20	30.231
532.54	30.360
532.88	31.855
533.22	31.466
533.57	31.931
533.91	32.691
534.25	31.500
534.59	31.843
534.93	30.087
535.27	31.785
535.62	31.398
535.96	31.333
536.30	31.733
536.64	32.189
536.98	32.227
537.32	29.911
537.66	31.085
538.01	31.517
538.35	30.982
538.69	30.998
539.03	32.084
539.37	30.294
539.71	32.681
540.05	30.825
540.39	32.099
540.73	31.136
541.07	30.588
541.42	31.504
541.76	31.007
542.10	31.492
542.44	32.009
542.78	29.545
543.12	30.181
543.46	30.700
543.80	30.379
544.14	31.039
544.48	30.596
544.82	30.731
545.16	30.725
545.50	31.587
545.84	31.236
546.18	31.835
546.52	30.822
546.86	31.370
547.20	31.136
547.54	30.629
547.88	30.199
548.22	31.294
548.56	31.219
548.90	31.228
549.24	31.213
549.58	31.669
549.92	30.677
550.26	31.197
550.60	31.086
550.94	30.794
551.28	30.163
551.62	31.040
551.96	30.112
552.30	30.078
552.64	30.729
552.98	30.238
553.32	30.758
553.66	30.121
554.00	30.811
554.34	31.484
554.68	29.745
555.02	29.921
555.36	29.388
555.69	29.977
556.03	30.007
556.37	29.407
556.71	30.090
557.05	30.469
557.39	30.281
557.73	29.324
558.07	29.421
558.41	28.651
558.75	30.373
559.08	30.809
559.42	30.518
559.76	30.244
560.10	31.866
560.44	30.325
560.78	30.503
561.12	30.128
561.45	30.655
561.79	29.883
562.13	30.986
562.47	29.587
562.81	30.326
563.15	29.430
563.48	29.588
563.82	30.131
564.16	29.681
564.50	29.298
564.84	30.971
565.17	30.830
565.51	31.738
565.85	30.775
566.19	29.367
566.52	31.039
566.86	30.533
567.20	30.805
567.54	30.951
567.88	31.068
568.21	31.243
568.55	30.617
568.89	31.703
569.23	31.576
569.56	31.954
569.90	32.248
570.24	31.994
570.57	32.543
570.91	32.606
571.25	32.851
571.59	32.721
571.92	31.907
572.26	31.626
572.60	32.008
572.93	32.253
573.27	31.603
573.61	32.621
573.95	32.447
574.28	32.386
574.62	32.238
574.96	32.203
575.29	31.673
575.63	31.946
575.97	31.418
576.30	32.736
576.64	32.001
576.98	32.462
577.31	32.487
577.65	33.142
577.98	31.966
578.32	32.461
578.66	32.370
578.99	32.726
579.33	31.399
579.67	31.455
580.00	31.724
580.34	31.978
580.67	32.223
581.01	31.606
581.35	32.428
581.68	32.140
582.02	32.424
582.35	32.615
582.69	33.043
583.02	32.262
583.36	32.116
583.70	32.401
584.03	31.886
584.37	32.287
584.70	31.603
585.04	31.440
585.37	31.996
585.71	33.082
586.04	32.289
586.38	32.634
586.72	31.704
587.05	32.121
587.39	32.099
587.72	32.453
588.06	32.436
588.39	31.814
588.73	31.793
589.06	31.763
589.40	32.313
589.73	32.049
590.07	31.514
590.40	31.514
590.73	32.112
591.07	31.169
591.40	31.293
591.74	30.924
592.07	31.184
592.41	31.818
592.74	32.723
593.08	32.344
593.41	32.053
593.75	31.648
594.08	31.927
594.41	32.065
594.75	31.676
595.08	31.788
595.42	31.543
595.75	32.083
596.09	31.865
596.42	31.459
596.75	31.727
597.09	30.597
597.42	30.643
597.75	31.473
598.09	31.039
598.42	30.715
598.76	31.375
599.09	31.176
599.42	30.685
599.76	31.385
600.09	31.712
600.42	30.859
600.76	31.139
601.09	31.608
601.42	30.837
601.76	30.722
602.09	31.295
602.42	31.090
602.76	31.283
603.09	31.201
603.42	31.175
603.76	31.011
604.09	31.078
604.42	31.945
604.76	31.036
605.09	30.184
605.42	31.090
605.75	30.059
606.09	30.533
606.42	30.446
606.75	31.217
607.09	31.576
607.42	31.023
607.75	30.028
608.08	31.478
608.42	30.844
608.75	30.965
609.08	29.884
609.41	31.467
609.75	30.384
610.08	29.716
610.41	30.789
610.74	30.384
611.07	30.619
611.41	29.872
611.74	31.066
612.07	30.636
612.40	30.306
612.73	29.514
613.07	30.593
613.40	29.730
613.73	30.241
614.06	30.035
614.39	31.517
614.72	30.401
615.06	30.827
615.39	29.561
615.72	30.347
616.05	30.377
616.38	29.300
616.71	29.602
617.05	29.334
617.38	31.161
617.71	30.568
618.04	30.880
618.37	29.562
618.70	29.620
619.03	30.529
619.36	30.339
619.69	29.082
620.03	30.664
620.36	29.705
620.69	29.120
621.02	29.612
621.35	29.447
621.68	29.343
622.01	29.857
622.34	28.559
622.67	29.174
623.00	29.238
623.33	28.898
623.66	29.721
623.99	29.107
624.32	28.991
624.65	28.281
624.99	28.828
625.32	28.673
625.65	28.423
625.98	29.500
626.31	28.571
626.64	29.459
626.97	29.779
627.30	27.593
627.63	27.349
627.96	27.933
628.29	28.298
628.62	28.969
628.95	28.828
629.28	26.756
629.61	28.631
629.94	27.593
630.26	29.184
630.59	27.644
630.92	26.449
631.25	28.715
631.58	25.581
631.91	27.904
632.24	28.166
632.57	29.489
632.90	27.675
633.23	28.387
