SpectraSuite Data File
++++++++++++++++++++++++++++++++++++
Date: Tue May 12 19:42:53 PDT 2015
User: schluterlab
Dark Spectrum Present: Yes
Reference Spectrum Present: Yes
Number of Sampled Component Spectra: 1
Spectrometers: USB2E3373
Integration Time (usec): 3000 (USB2E3373)
Spectra Averaged: 3 (USB2E3373)
Boxcar Smoothing: 0 (USB2E3373)
Correct for Electrical Dark: No (USB2E3373)
Strobe/Lamp Enabled: No (USB2E3373)
Correct for Detector Non-linearity: No (USB2E3373)
Correct for Stray Light: No (USB2E3373)
Number of Pixels in Processed Spectrum: 2048
>>>>>Begin Processed Spectral Data<<<<<
178.53	0.000
178.91	-60.000
179.29	-183.333
179.67	100.000
180.04	0.000
180.42	-260.000
180.80	-133.333
181.18	950.000
181.56	-300.000
181.94	200.000
182.31	1200.000
182.69	-85.714
183.07	0.000
183.45	158.333
183.83	340.000
184.20	50.000
184.58	550.000
184.96	200.000
185.34	-200.000
185.72	-28.571
186.09	-216.667
186.47	-1000.000
186.85	80.000
187.23	141.667
187.61	-128.571
187.98	-260.000
188.36	400.000
188.74	-100.000
189.12	-55.556
189.49	10.000
189.87	50.000
190.25	177.778
190.63	400.000
191.00	40.000
191.38	-200.000
191.76	380.000
192.14	14.286
192.51	-80.000
192.89	-140.000
193.27	-140.000
193.65	-66.667
194.02	-100.000
194.40	1700.000
194.78	-25.000
195.15	-242.857
195.53	33.333
195.91	220.000
196.29	-75.000
196.66	-366.667
197.04	-85.714
197.42	140.000
197.79	-50.000
198.17	-75.000
198.55	-200.000
198.92	-44.444
199.30	150.000
199.68	25.000
200.05	-850.000
200.43	-11.111
200.81	-58.333
201.18	250.000
201.56	-350.000
201.94	-400.000
202.31	-33.333
202.69	-33.333
203.07	-33.333
203.44	-350.000
203.82	0.000
204.19	237.500
204.57	-333.333
204.95	118.182
205.32	160.000
205.70	150.000
206.08	-400.000
206.45	40.000
206.83	1300.000
207.20	-55.556
207.58	15.385
207.96	100.000
208.33	400.000
208.71	266.667
209.08	450.000
209.46	-22.222
209.84	566.667
210.21	-500.000
210.59	50.000
210.96	155.556
211.34	-150.000
211.71	600.000
212.09	20.000
212.46	-250.000
212.84	-50.000
213.22	100.000
213.59	-100.000
213.97	0.000
214.34	-400.000
214.72	-800.000
215.09	350.000
215.47	-26.667
215.84	-87.500
216.22	-1300.000
216.59	1100.000
216.97	0.000
217.34	-116.667
217.72	-33.333
218.09	300.000
218.47	-36.842
218.84	-137.500
219.22	-57.143
219.59	-80.000
219.97	-70.000
220.34	166.667
220.72	54.545
221.09	-550.000
221.47	0.000
221.84	700.000
222.22	-150.000
222.59	-250.000
222.97	4.348
223.34	120.000
223.72	271.429
224.09	-266.667
224.46	161.538
224.84	33.333
225.21	-200.000
225.59	-150.000
225.96	10.000
226.34	183.333
226.71	180.000
227.08	-23.077
227.46	14.286
227.83	8.333
228.21	-150.000
228.58	83.333
228.95	-15.789
229.33	-12.500
229.70	-116.667
230.08	-88.889
230.45	-366.667
230.82	-1000.000
231.20	4.762
231.57	-320.000
231.95	-166.667
232.32	144.444
232.69	-700.000
233.07	25.000
233.44	-75.000
233.81	12.903
234.19	-180.000
234.56	-16.667
234.93	-166.667
235.31	-37.037
235.68	-3.704
236.05	-30.769
236.43	-36.842
236.80	-27.273
237.17	-71.429
237.55	-40.000
237.92	-16.279
238.29	-51.613
238.67	-50.000
239.04	5.714
239.41	-35.294
239.79	4.000
240.16	-15.000
240.53	-12.069
240.91	-4.110
241.28	-4.225
241.65	-6.250
242.02	-15.789
242.40	-8.000
242.77	1.053
243.14	-10.588
243.51	-11.828
243.89	-1.905
244.26	0.000
244.63	0.000
245.00	-10.714
245.38	-8.403
245.75	-2.542
246.12	6.250
246.49	-11.200
246.87	-4.098
247.24	-3.521
247.61	-4.636
247.98	1.685
248.36	-3.774
248.73	-0.568
249.10	-5.556
249.47	0.521
249.84	-1.015
250.22	-7.812
250.59	-6.742
250.96	1.818
251.33	4.245
251.70	0.917
252.08	4.762
252.45	2.041
252.82	-3.376
253.19	-0.778
253.56	3.922
253.94	-0.813
254.31	3.597
254.68	-1.389
255.05	2.980
255.42	0.727
255.79	1.987
256.16	2.778
256.54	3.636
256.91	4.167
257.28	0.325
257.65	-3.279
258.02	2.102
258.39	1.813
258.76	0.000
259.14	0.588
259.51	1.690
259.88	2.305
260.25	-2.273
260.62	-0.281
260.99	1.950
261.36	1.724
261.73	0.533
262.10	1.635
262.47	0.826
262.85	4.113
263.22	1.344
263.59	5.630
263.96	2.611
264.33	-3.235
264.70	0.000
265.07	1.478
265.44	2.810
265.81	5.060
266.18	1.171
266.55	0.952
266.92	3.125
267.29	0.000
267.66	-2.045
268.03	2.151
268.40	2.288
268.77	2.227
269.14	1.681
269.51	1.357
269.88	2.350
270.25	0.844
270.62	4.622
270.99	0.000
271.36	0.221
271.73	2.292
272.10	1.867
272.47	0.600
272.84	-1.486
273.21	0.418
273.58	2.041
273.95	1.992
274.32	4.255
274.69	2.348
275.06	1.313
275.43	0.200
275.80	0.000
276.17	-0.791
276.54	5.513
276.91	3.647
277.28	1.934
277.65	0.189
278.02	0.568
278.39	3.630
278.76	2.421
279.13	2.862
279.50	3.610
279.87	0.943
280.23	1.275
280.60	-0.353
280.97	2.109
281.34	1.695
281.71	-0.355
282.08	1.431
282.45	-0.705
282.82	1.347
283.19	1.515
283.56	2.048
283.92	3.633
284.29	2.369
284.66	1.062
285.03	-0.858
285.40	2.000
285.77	2.956
286.14	1.902
286.51	0.161
286.87	3.890
287.24	-1.442
287.61	1.080
287.98	5.634
288.35	3.101
288.72	2.141
289.08	0.314
289.45	1.872
289.82	1.863
290.19	1.364
290.56	2.026
290.93	1.477
291.29	3.121
291.66	2.809
292.03	2.439
292.40	3.597
292.77	1.312
293.13	1.322
293.50	1.653
293.87	1.803
294.24	3.371
294.60	3.279
294.97	1.247
295.34	2.466
295.71	1.110
296.08	1.503
296.44	2.503
296.81	1.552
297.18	1.552
297.55	3.769
297.91	1.904
298.28	2.430
298.65	1.035
299.02	3.576
299.38	1.786
299.75	2.574
300.12	2.158
300.48	3.521
300.85	1.100
301.22	3.365
301.59	3.163
301.95	2.927
302.32	2.916
302.69	1.070
303.05	2.715
303.42	4.348
303.79	2.022
304.15	3.284
304.52	3.911
304.89	2.368
305.25	4.128
305.62	2.955
305.99	3.135
306.35	3.132
306.72	3.377
307.09	2.938
307.45	4.207
307.82	3.522
308.19	3.740
308.55	4.536
308.92	3.919
309.29	4.079
309.65	4.334
310.02	3.669
310.38	4.051
310.75	4.816
311.12	3.459
311.48	5.858
311.85	4.863
312.22	5.062
312.58	4.632
312.95	4.825
313.31	4.720
313.68	5.859
314.05	5.760
314.41	5.501
314.78	5.126
315.14	6.562
315.51	7.746
315.87	7.910
316.24	7.319
316.61	7.087
316.97	7.451
317.34	6.890
317.70	8.683
318.07	7.425
318.43	8.696
318.80	9.836
319.16	8.760
319.53	9.151
319.89	10.890
320.26	11.603
320.62	11.725
320.99	13.367
321.35	13.043
321.72	15.152
322.08	13.762
322.45	13.807
322.81	15.172
323.18	15.340
323.54	16.209
323.91	15.180
324.27	15.140
324.64	18.088
325.00	17.561
325.37	19.245
325.73	18.522
326.10	20.228
326.46	20.943
326.83	22.691
327.19	22.096
327.56	23.607
327.92	24.306
328.29	24.194
328.65	25.047
329.01	25.321
329.38	26.722
329.74	27.577
330.11	26.188
330.47	26.257
330.84	28.008
331.20	29.298
331.56	26.792
331.93	27.813
332.29	29.140
332.66	29.747
333.02	30.548
333.38	29.871
333.75	30.101
334.11	28.933
334.48	28.891
334.84	30.986
335.20	30.260
335.57	31.971
335.93	31.535
336.29	30.713
336.66	31.876
337.02	30.644
337.38	31.604
337.75	31.818
338.11	33.546
338.47	34.262
338.84	32.136
339.20	32.172
339.56	32.712
339.93	31.982
340.29	31.550
340.65	33.425
341.02	33.570
341.38	32.392
341.74	33.630
342.11	33.510
342.47	32.430
342.83	31.917
343.20	34.041
343.56	33.829
343.92	34.121
344.28	33.019
344.65	33.562
345.01	33.275
345.37	34.872
345.73	31.697
346.10	35.609
346.46	33.046
346.82	34.664
347.19	33.726
347.55	34.269
347.91	34.316
348.27	34.878
348.63	33.016
349.00	36.060
349.36	35.120
349.72	33.990
350.08	33.797
350.45	33.767
350.81	34.847
351.17	34.679
351.53	33.333
351.89	34.801
352.26	33.740
352.62	34.914
352.98	34.561
353.34	35.923
353.70	35.144
354.07	35.750
354.43	35.058
354.79	34.098
355.15	34.221
355.51	35.534
355.87	35.137
356.24	37.173
356.60	35.726
356.96	35.150
357.32	35.556
357.68	35.879
358.04	35.332
358.40	35.188
358.77	34.297
359.13	35.341
359.49	35.520
359.85	35.492
360.21	34.972
360.57	34.370
360.93	36.025
361.29	35.592
361.66	34.937
362.02	36.264
362.38	35.742
362.74	36.895
363.10	35.671
363.46	35.666
363.82	36.753
364.18	36.185
364.54	36.260
364.90	36.593
365.26	36.960
365.62	35.731
365.98	37.631
366.35	37.368
366.71	35.922
367.07	36.753
367.43	36.606
367.79	35.683
368.15	35.285
368.51	38.052
368.87	38.693
369.23	38.153
369.59	36.103
369.95	35.991
370.31	37.121
370.67	37.368
371.03	36.533
371.39	38.142
371.75	37.221
372.11	37.481
372.47	36.080
372.83	36.669
373.19	38.027
373.55	37.799
373.91	37.273
374.27	39.073
374.63	37.261
374.99	36.457
375.35	37.518
375.71	37.877
376.07	36.961
376.42	36.584
376.78	36.794
377.14	37.430
377.50	37.209
377.86	37.256
378.22	37.318
378.58	38.355
378.94	38.114
379.30	36.937
379.66	37.836
380.02	37.508
380.38	37.214
380.74	37.725
381.09	37.294
381.45	38.349
381.81	36.798
382.17	37.264
382.53	38.790
382.89	37.781
383.25	37.540
383.61	36.936
383.97	38.012
384.32	37.871
384.68	37.548
385.04	36.728
385.40	37.891
385.76	38.646
386.12	37.426
386.48	37.378
386.83	37.920
387.19	38.123
387.55	37.889
387.91	37.321
388.27	38.196
388.62	37.889
388.98	37.913
389.34	38.126
389.70	36.923
390.06	39.274
390.42	37.661
390.77	38.498
391.13	38.061
391.49	38.410
391.85	37.525
392.20	38.020
392.56	37.132
392.92	38.157
393.28	37.582
393.64	38.822
393.99	37.727
394.35	38.287
394.71	37.483
395.07	37.732
395.42	37.143
395.78	37.231
396.14	37.175
396.50	38.422
396.85	37.145
397.21	36.546
397.57	37.788
397.92	37.659
398.28	37.890
398.64	37.270
399.00	37.609
399.35	37.691
399.71	36.527
400.07	37.183
400.42	37.821
400.78	37.556
401.14	36.932
401.49	36.602
401.85	38.095
402.21	37.246
402.57	36.059
402.92	37.118
403.28	37.841
403.63	37.244
403.99	35.865
404.35	35.350
404.70	37.555
405.06	37.632
405.42	36.695
405.77	36.147
406.13	35.484
406.49	36.215
406.84	37.049
407.20	35.564
407.55	36.339
407.91	35.734
408.27	36.303
408.62	35.241
408.98	37.323
409.34	36.876
409.69	34.783
410.05	36.075
410.40	35.003
410.76	35.056
411.11	35.682
411.47	35.578
411.83	34.965
412.18	35.406
412.54	35.252
412.89	34.715
413.25	36.050
413.60	35.395
413.96	34.628
414.31	34.990
414.67	35.044
415.03	34.647
415.38	34.749
415.74	34.856
416.09	35.286
416.45	34.961
416.80	34.840
417.16	34.133
417.51	35.253
417.87	36.115
418.22	35.227
418.58	35.107
418.93	34.881
419.29	35.007
419.64	37.019
420.00	35.691
420.35	34.589
420.71	35.403
421.06	34.848
421.42	35.320
421.77	36.175
422.12	34.436
422.48	35.180
422.83	35.441
423.19	34.176
423.54	34.881
423.90	34.302
424.25	35.650
424.61	34.710
424.96	34.644
425.31	35.205
425.67	34.424
426.02	34.658
426.38	34.234
426.73	33.769
427.09	33.946
427.44	34.012
427.79	34.468
428.15	33.798
428.50	35.490
428.85	33.419
429.21	34.967
429.56	34.309
429.92	34.613
430.27	34.667
430.62	33.802
430.98	33.100
431.33	34.149
431.68	34.409
432.04	33.774
432.39	34.225
432.74	33.713
433.10	33.960
433.45	33.819
433.80	33.988
434.16	33.659
434.51	33.556
434.86	33.716
435.22	33.993
435.57	34.763
435.92	32.570
436.28	33.126
436.63	34.168
436.98	34.074
437.34	34.421
437.69	33.951
438.04	33.894
438.39	34.987
438.75	34.092
439.10	34.762
439.45	34.917
439.81	33.016
440.16	34.199
440.51	33.581
440.86	34.470
441.22	33.711
441.57	33.390
441.92	34.456
442.27	33.943
442.63	33.916
442.98	34.230
443.33	33.843
443.68	32.890
444.03	34.021
444.39	33.732
444.74	33.429
445.09	33.353
445.44	33.411
445.79	34.628
446.15	33.469
446.50	33.256
446.85	34.048
447.20	34.354
447.55	32.752
447.91	33.862
448.26	33.947
448.61	33.776
448.96	33.412
449.31	33.936
449.66	32.446
450.02	33.846
450.37	34.751
450.72	34.171
451.07	33.223
451.42	34.519
451.77	32.282
452.12	33.271
452.47	32.249
452.83	33.313
453.18	33.153
453.53	34.422
453.88	33.504
454.23	32.843
454.58	33.812
454.93	32.561
455.28	32.994
455.63	33.463
455.98	33.376
456.34	32.284
456.69	32.566
457.04	32.480
457.39	31.773
457.74	33.312
458.09	31.923
458.44	31.760
458.79	31.625
459.14	32.499
459.49	32.484
459.84	31.926
460.19	32.833
460.54	31.250
460.89	31.529
461.24	31.558
461.59	31.483
461.94	32.413
462.29	31.830
462.64	32.730
462.99	32.777
463.34	32.674
463.69	32.442
464.04	31.944
464.39	32.219
464.74	31.343
465.09	31.897
465.44	31.254
465.79	30.866
466.14	31.205
466.49	31.172
466.84	31.757
467.19	30.994
467.54	29.576
467.89	31.221
468.24	30.997
468.59	31.414
468.94	29.859
469.29	30.796
469.64	31.218
469.99	30.570
470.34	30.764
470.68	30.231
471.03	31.022
471.38	31.563
471.73	31.613
472.08	31.032
472.43	30.775
472.78	31.182
473.13	31.158
473.48	31.120
473.83	31.242
474.17	29.553
474.52	31.212
474.87	30.808
475.22	32.274
475.57	30.670
475.92	29.847
476.27	30.018
476.61	30.437
476.96	30.765
477.31	29.737
477.66	29.924
478.01	30.665
478.36	30.086
478.70	30.423
479.05	29.367
479.40	28.413
479.75	30.230
480.10	30.574
480.45	30.314
480.79	29.632
481.14	28.993
481.49	29.306
481.84	29.899
482.19	29.366
482.53	29.118
482.88	29.283
483.23	29.196
483.58	28.663
483.92	29.447
484.27	29.526
484.62	29.939
484.97	29.569
485.31	28.809
485.66	28.314
486.01	28.139
486.36	27.920
486.70	27.754
487.05	28.179
487.40	28.193
487.75	28.142
488.09	27.193
488.44	28.006
488.79	27.905
489.13	27.847
489.48	27.253
489.83	28.387
490.17	28.504
490.52	28.776
490.87	28.487
491.22	28.600
491.56	27.619
491.91	27.861
492.26	28.608
492.60	28.214
492.95	28.285
493.30	28.176
493.64	27.535
493.99	27.823
494.34	28.485
494.68	28.048
495.03	27.231
495.37	27.927
495.72	28.165
496.07	28.195
496.41	26.532
496.76	26.695
497.11	27.474
497.45	27.323
497.80	27.674
498.14	27.033
498.49	28.297
498.84	27.044
499.18	27.452
499.53	27.414
499.87	27.189
500.22	27.169
500.56	27.839
500.91	27.530
501.26	26.982
501.60	27.013
501.95	26.510
502.29	27.142
502.64	26.829
502.98	26.805
503.33	26.810
503.67	27.208
504.02	27.222
504.36	26.451
504.71	26.064
505.06	26.727
505.40	27.828
505.75	26.751
506.09	26.598
506.44	27.039
506.78	26.981
507.13	26.873
507.47	27.756
507.82	26.507
508.16	26.615
508.51	27.516
508.85	27.088
509.19	26.001
509.54	26.346
509.88	26.352
510.23	26.685
510.57	27.087
510.92	27.324
511.26	26.077
511.61	26.370
511.95	26.721
512.30	27.072
512.64	26.452
512.98	26.344
513.33	25.791
513.67	26.228
514.02	25.661
514.36	25.623
514.70	27.019
515.05	27.256
515.39	26.349
515.74	26.065
516.08	27.809
516.42	26.911
516.77	26.335
517.11	25.627
517.46	26.171
517.80	26.611
518.14	26.755
518.49	26.003
518.83	27.108
519.17	26.607
519.52	26.483
519.86	26.219
520.20	25.732
520.55	27.480
520.89	26.316
521.23	26.186
521.58	26.124
521.92	25.100
522.26	26.186
522.61	25.939
522.95	25.205
523.29	25.843
523.64	25.102
523.98	25.403
524.32	26.397
524.66	26.037
525.01	26.186
525.35	26.060
525.69	25.120
526.04	26.145
526.38	25.771
526.72	25.903
527.06	26.020
527.41	25.372
527.75	24.767
528.09	26.733
528.43	26.223
528.78	24.948
529.12	25.274
529.46	25.116
529.80	24.779
530.15	26.129
530.49	25.314
530.83	24.946
531.17	25.353
531.51	24.982
531.86	25.700
532.20	24.387
532.54	24.964
532.88	25.091
533.22	24.210
533.57	24.414
533.91	24.295
534.25	23.897
534.59	24.897
534.93	23.774
535.27	25.522
535.62	24.510
535.96	24.913
536.30	24.217
536.64	24.392
536.98	25.147
537.32	24.926
537.66	24.267
538.01	24.521
538.35	23.855
538.69	23.567
539.03	23.432
539.37	23.546
539.71	24.638
540.05	24.385
540.39	23.893
540.73	25.348
541.07	24.632
541.42	23.949
541.76	24.460
542.10	24.677
542.44	24.277
542.78	23.094
543.12	23.249
543.46	23.100
543.80	24.160
544.14	23.226
544.48	24.140
544.82	22.924
545.16	23.696
545.50	24.090
545.84	25.238
546.18	23.596
546.52	23.367
546.86	23.718
547.20	23.712
547.54	23.275
547.88	23.291
548.22	23.347
548.56	23.115
548.90	23.298
549.24	23.173
549.58	24.292
549.92	23.985
550.26	23.398
550.60	23.315
550.94	23.968
551.28	23.902
551.62	23.751
551.96	22.764
552.30	22.791
552.64	22.915
552.98	22.437
553.32	23.030
553.66	23.596
554.00	23.398
554.34	23.594
554.68	22.967
555.02	23.016
555.36	22.716
555.69	21.906
556.03	22.764
556.37	22.806
556.71	22.021
557.05	21.406
557.39	22.892
557.73	21.855
558.07	22.457
558.41	22.267
558.75	22.158
559.08	23.489
559.42	23.244
559.76	22.409
560.10	23.553
560.44	21.932
560.78	22.464
561.12	20.736
561.45	22.173
561.79	22.247
562.13	22.165
562.47	21.789
562.81	22.062
563.15	22.129
563.48	21.498
563.82	22.489
564.16	21.553
564.50	21.275
564.84	22.679
565.17	21.102
565.51	21.956
565.85	21.408
566.19	21.921
566.52	21.577
566.86	22.473
567.20	21.690
567.54	21.634
567.88	20.449
568.21	21.395
568.55	20.600
568.89	20.549
569.23	20.934
569.56	20.690
569.90	21.028
570.24	20.370
570.57	20.956
570.91	20.378
571.25	20.523
571.59	20.787
571.92	19.535
572.26	19.654
572.60	19.564
572.93	20.334
573.27	19.663
573.61	19.715
573.95	19.745
574.28	19.559
574.62	19.197
574.96	19.609
575.29	18.973
575.63	19.215
575.97	19.591
576.30	19.260
576.64	19.294
576.98	19.499
577.31	19.279
577.65	19.554
577.98	19.049
578.32	19.266
578.66	18.787
578.99	19.266
579.33	19.049
579.67	19.040
580.00	18.821
580.34	19.268
580.67	18.616
581.01	19.004
581.35	18.335
581.68	18.601
582.02	18.712
582.35	18.934
582.69	19.012
583.02	18.623
583.36	18.827
583.70	18.881
584.03	18.614
584.37	19.012
584.70	18.383
585.04	18.762
585.37	18.630
585.71	18.077
586.04	18.488
586.38	19.014
586.72	18.870
587.05	18.959
587.39	18.605
587.72	18.783
588.06	19.120
588.39	18.639
588.73	18.832
589.06	17.727
589.40	19.113
589.73	18.736
590.07	18.583
590.40	19.415
590.73	19.200
591.07	19.048
591.40	18.365
591.74	19.076
592.07	18.959
592.41	19.353
592.74	18.960
593.08	18.407
593.41	18.341
593.75	18.874
594.08	18.198
594.41	18.802
594.75	18.716
595.08	18.816
595.42	18.551
595.75	18.636
596.09	18.575
596.42	18.605
596.75	19.091
597.09	18.797
597.42	17.644
597.75	18.668
598.09	18.118
598.42	18.930
598.76	17.532
599.09	18.655
599.42	17.742
599.76	18.086
600.09	18.308
600.42	17.852
600.76	17.706
601.09	18.314
601.42	17.915
601.76	17.695
602.09	17.512
602.42	18.628
602.76	18.063
603.09	17.755
603.42	18.143
603.76	17.667
604.09	17.920
604.42	17.991
604.76	17.252
605.09	17.855
605.42	18.389
605.75	17.588
606.09	18.578
606.42	17.892
606.75	18.028
607.09	17.910
607.42	17.990
607.75	17.906
608.08	18.195
608.42	18.186
608.75	17.659
609.08	17.163
609.41	17.989
609.75	17.957
610.08	18.140
610.41	17.405
610.74	17.644
611.07	17.821
611.41	17.398
611.74	17.791
612.07	18.080
612.40	18.050
612.73	17.477
613.07	17.616
613.40	17.309
613.73	16.781
614.06	17.330
614.39	18.219
614.72	17.414
615.06	18.312
615.39	18.072
615.72	17.525
616.05	17.217
616.38	17.023
616.71	17.475
617.05	17.337
617.38	18.258
617.71	17.701
618.04	17.674
618.37	16.743
618.70	17.527
619.03	17.476
619.36	18.262
619.69	17.418
620.03	17.468
620.36	17.914
620.69	17.147
621.02	18.290
621.35	17.532
621.68	17.462
622.01	17.469
622.34	17.588
622.67	17.960
623.00	18.428
623.33	18.425
623.66	17.928
623.99	17.225
624.32	17.474
624.65	17.187
624.99	17.578
625.32	17.615
625.65	16.894
625.98	18.917
626.31	17.489
626.64	18.378
626.97	18.382
627.30	18.148
627.63	18.140
627.96	17.225
628.29	17.017
628.62	18.557
628.95	17.107
629.28	18.595
629.61	17.346
629.94	18.672
630.26	17.050
630.59	18.639
630.92	17.176
631.25	17.877
631.58	17.791
631.91	17.312
632.24	18.225
632.57	16.766
632.90	18.819
633.23	18.452
633.56	17.736
633.89	18.338
634.22	17.692
634.55	17.477
634.88	18.608
635.20	17.945
635.53	19.274
635.86	19.293
636.19	18.827
636.52	17.385
