SpectraSuite Data File
++++++++++++++++++++++++++++++++++++
Date: Tue May 12 19:48:09 PDT 2015
User: schluterlab
Dark Spectrum Present: Yes
Reference Spectrum Present: Yes
Number of Sampled Component Spectra: 1
Spectrometers: USB2E3373
Integration Time (usec): 3000 (USB2E3373)
Spectra Averaged: 3 (USB2E3373)
Boxcar Smoothing: 0 (USB2E3373)
Correct for Electrical Dark: No (USB2E3373)
Strobe/Lamp Enabled: No (USB2E3373)
Correct for Detector Non-linearity: No (USB2E3373)
Correct for Stray Light: No (USB2E3373)
Number of Pixels in Processed Spectrum: 2048
>>>>>Begin Processed Spectral Data<<<<<
178.53	0.000
178.91	-130.000
179.29	-116.667
179.67	466.667
180.04	0.000
180.42	-360.000
180.80	-233.333
181.18	1150.000
181.56	-500.000
181.94	416.667
182.31	2500.000
182.69	14.286
183.07	0.000
183.45	200.000
183.83	460.000
184.20	266.667
184.58	1050.000
184.96	366.667
185.34	-166.667
185.72	-42.857
186.09	-150.000
186.47	-1100.000
186.85	-120.000
187.23	200.000
187.61	-157.143
187.98	-240.000
188.36	250.000
188.74	-425.000
189.12	-155.556
189.49	-180.000
189.87	200.000
190.25	155.556
190.63	633.333
191.00	420.000
191.38	-900.000
191.76	340.000
192.14	-57.143
192.51	-140.000
192.89	-40.000
193.27	-260.000
193.65	-633.333
194.02	-233.333
194.40	2100.000
194.78	-112.500
195.15	-242.857
195.53	566.667
195.91	480.000
196.29	-725.000
196.66	-233.333
197.04	-285.714
197.42	240.000
197.79	-187.500
198.17	-91.667
198.55	-900.000
198.92	-144.444
199.30	750.000
199.68	-425.000
200.05	-900.000
200.43	-33.333
200.81	-91.667
201.18	400.000
201.56	-600.000
201.94	-1500.000
202.31	-50.000
202.69	33.333
203.07	-50.000
203.44	-575.000
203.82	0.000
204.19	387.500
204.57	-466.667
204.95	236.364
205.32	340.000
205.70	250.000
206.08	-1000.000
206.45	-260.000
206.83	1600.000
207.20	-133.333
207.58	-76.923
207.96	700.000
208.33	666.667
208.71	700.000
209.08	1100.000
209.46	-88.889
209.84	800.000
210.21	-666.667
210.59	550.000
210.96	277.778
211.34	-375.000
211.71	1350.000
212.09	-100.000
212.46	-212.500
212.84	-75.000
213.22	85.714
213.59	-212.500
213.97	0.000
214.34	-750.000
214.72	-1400.000
215.09	650.000
215.47	-66.667
215.84	-187.500
216.22	-900.000
216.59	2300.000
216.97	-108.333
217.34	-66.667
217.72	-22.222
218.09	450.000
218.47	-47.368
218.84	-100.000
219.22	-42.857
219.59	-200.000
219.97	-150.000
220.34	216.667
220.72	181.818
221.09	-1200.000
221.47	0.000
221.84	650.000
222.22	-400.000
222.59	-400.000
222.97	-52.174
223.34	140.000
223.72	428.571
224.09	-183.333
224.46	238.462
224.84	-46.667
225.21	-750.000
225.59	-375.000
225.96	-20.000
226.34	316.667
226.71	280.000
227.08	-7.692
227.46	-228.571
227.83	-91.667
228.21	-900.000
228.58	366.667
228.95	-21.053
229.33	-6.250
229.70	-383.333
230.08	-200.000
230.45	-333.333
230.82	-1000.000
231.20	-42.857
231.57	-380.000
231.95	-500.000
232.32	211.111
232.69	-1150.000
233.07	6.250
233.44	-87.500
233.81	-9.677
234.19	-580.000
234.56	-88.889
234.93	-516.667
235.31	-22.222
235.68	-55.556
236.05	-26.923
236.43	-63.158
236.80	-45.455
237.17	-142.857
237.55	-130.000
237.92	-32.558
238.29	-41.935
238.67	-50.000
239.04	-8.571
239.41	-19.608
239.79	-22.000
240.16	-10.000
240.53	-36.207
240.91	-5.479
241.28	-22.535
241.65	-10.938
242.02	-17.544
242.40	-16.000
242.77	3.158
243.14	-1.176
243.51	0.000
243.89	-16.190
244.26	-8.333
244.63	-9.184
245.00	-9.821
245.38	-20.168
245.75	-9.322
246.12	-4.688
246.49	-20.000
246.87	-12.295
247.24	-7.746
247.61	-11.921
247.98	-8.989
248.36	-5.031
248.73	-8.523
249.10	-4.444
249.47	-7.812
249.84	-5.076
250.22	-10.938
250.59	-11.236
250.96	-5.909
251.33	-4.245
251.70	-3.211
252.08	-4.762
252.45	-6.939
252.82	-7.173
253.19	-1.946
253.56	-2.353
253.94	-10.163
254.31	1.799
254.68	-3.819
255.05	-1.987
255.42	-5.091
255.79	-2.318
256.16	-5.556
256.54	3.030
256.91	1.603
257.28	-2.922
257.65	-7.869
258.02	-2.703
258.39	-0.302
258.76	-0.612
259.14	-5.294
259.51	1.690
259.88	1.441
260.25	-3.125
260.62	-5.056
260.99	-3.064
261.36	-4.023
261.73	-1.600
262.10	-1.362
262.47	-2.204
262.85	-1.285
263.22	-4.301
263.59	-0.804
263.96	-1.828
264.33	-6.739
264.70	-1.966
265.07	-1.478
265.44	-0.937
265.81	2.410
266.18	-2.810
266.55	-1.190
266.92	-1.116
267.29	0.667
267.66	-2.273
268.03	0.430
268.40	-2.975
268.77	-2.673
269.14	-2.101
269.51	-4.299
269.88	-1.709
270.25	-2.743
270.62	0.630
270.99	-2.947
271.36	-3.974
271.73	-0.833
272.10	-2.697
272.47	-2.600
272.84	-3.822
273.21	-2.088
273.58	-2.041
273.95	-1.793
274.32	-1.354
274.69	-0.196
275.06	-1.313
275.43	-3.200
275.80	-0.956
276.17	-3.953
276.54	1.711
276.91	-2.495
277.28	-0.967
277.65	-5.293
278.02	-2.083
278.39	-0.544
278.76	-1.117
279.13	0.358
279.50	0.722
279.87	-1.887
280.23	-1.821
280.60	-4.417
280.97	-1.582
281.34	-2.542
281.71	-3.020
282.08	-1.968
282.45	-3.880
282.82	-2.525
283.19	-3.030
283.56	-1.706
283.92	-0.632
284.29	-0.846
284.66	-2.124
285.03	-2.230
285.40	-2.500
285.77	-1.314
286.14	-1.743
286.51	-2.894
286.87	-0.648
287.24	-3.686
287.61	-2.006
287.98	-0.313
288.35	-0.775
288.72	-0.306
289.08	-3.774
289.45	-2.028
289.82	-2.795
290.19	-1.061
290.56	-0.724
290.93	-0.886
291.29	-0.284
291.66	0.281
292.03	2.152
292.40	-0.288
292.77	-0.292
293.13	-2.203
293.50	-0.826
293.87	-2.219
294.24	-0.983
294.60	-0.137
294.97	-1.385
295.34	-1.507
295.71	-2.497
296.08	-0.820
296.44	-0.264
296.81	-1.940
297.18	0.906
297.55	0.754
297.91	0.381
298.28	-1.918
298.65	-2.587
299.02	0.123
299.38	-2.296
299.75	-0.386
300.12	0.480
300.48	-0.587
300.85	-2.323
301.22	0.240
301.59	-0.852
301.95	-0.122
302.32	-0.243
302.69	-1.902
303.05	-1.299
303.42	-0.242
303.79	-0.787
304.15	-0.227
304.52	-1.564
304.89	-1.466
305.25	-0.229
305.62	0.227
305.99	-0.672
306.35	-0.112
306.72	-0.218
307.09	-0.979
307.45	0.324
307.82	-0.640
308.19	1.320
308.55	0.211
308.92	-0.318
309.29	-0.209
309.65	-0.103
310.02	-0.839
310.38	0.640
310.75	0.205
311.12	0.407
311.48	1.028
311.85	0.000
312.22	0.826
312.58	-0.101
312.95	1.129
313.31	0.590
313.68	0.397
314.05	1.887
314.41	0.000
314.78	0.503
315.14	1.077
315.51	1.589
315.87	3.711
316.24	2.374
316.61	2.524
316.97	1.667
317.34	2.871
317.70	1.774
318.07	1.254
318.43	2.647
318.80	2.641
319.16	3.169
319.53	3.208
319.89	3.598
320.26	4.031
320.62	3.779
320.99	4.796
321.35	3.854
321.72	5.657
322.08	5.446
322.45	5.424
322.81	6.305
323.18	4.698
323.54	6.161
323.91	6.452
324.27	5.497
324.64	5.155
325.00	7.097
325.37	6.745
325.73	6.934
326.10	7.005
326.46	7.888
326.83	6.948
327.19	7.249
327.56	8.842
327.92	7.899
328.29	8.423
328.65	9.510
329.01	8.716
329.38	9.183
329.74	10.214
330.11	9.599
330.47	9.590
330.84	9.492
331.20	9.335
331.56	8.302
331.93	9.149
332.29	9.066
332.66	10.669
333.02	9.006
333.38	10.294
333.75	10.613
334.11	10.036
334.48	9.481
334.84	9.202
335.20	10.116
335.57	10.718
335.93	11.163
336.29	10.512
336.66	11.475
337.02	11.423
337.38	9.811
337.75	11.182
338.11	10.848
338.47	11.792
338.84	11.050
339.20	11.182
339.56	10.624
339.93	10.180
340.29	10.970
340.65	11.598
341.02	10.540
341.38	10.503
341.74	10.409
342.11	11.848
342.47	11.538
342.83	11.101
343.20	10.787
343.56	10.927
343.92	11.111
344.28	10.892
344.65	9.846
345.01	11.760
345.37	11.368
345.73	10.680
346.10	12.532
346.46	11.303
346.82	11.810
347.19	11.102
347.55	12.075
347.91	12.121
348.27	11.036
348.63	11.063
349.00	11.770
349.36	12.201
349.72	11.823
350.08	11.047
350.45	11.635
350.81	11.808
351.17	11.532
351.53	11.353
351.89	11.054
352.26	10.244
352.62	11.447
352.98	11.213
353.34	11.696
353.70	10.864
354.07	11.367
354.43	10.935
354.79	11.557
355.15	11.380
355.51	12.306
355.87	11.740
356.24	12.745
356.60	11.853
356.96	11.453
357.32	12.510
357.68	11.456
358.04	11.669
358.40	11.866
358.77	12.209
359.13	12.450
359.49	11.760
359.85	11.351
360.21	10.785
360.57	12.281
360.93	13.064
361.29	11.682
361.66	11.356
362.02	12.873
362.38	12.277
362.74	11.606
363.10	12.066
363.46	11.437
363.82	12.328
364.18	11.885
364.54	11.908
364.90	11.926
365.26	12.072
365.62	11.809
365.98	12.144
366.35	12.405
366.71	12.099
367.07	12.694
367.43	12.347
367.79	10.974
368.15	11.638
368.51	12.060
368.87	13.289
369.23	12.793
369.59	12.721
369.95	11.699
370.31	12.348
370.67	11.654
371.03	12.693
371.39	12.311
371.75	11.293
372.11	12.889
372.47	11.507
372.83	12.491
373.19	12.349
373.55	12.500
373.91	12.197
374.27	12.951
374.63	11.856
374.99	11.201
375.35	11.756
375.71	11.334
376.07	12.226
376.42	13.278
376.78	11.916
377.14	11.522
377.50	11.491
377.86	12.604
378.22	12.219
378.58	12.368
378.94	11.919
379.30	12.162
379.66	12.612
380.02	11.507
380.38	11.450
380.74	13.176
381.09	11.563
381.45	12.635
381.81	12.500
382.17	13.355
382.53	13.018
382.89	13.021
383.25	12.175
383.61	12.079
383.97	12.736
384.32	12.968
384.68	12.261
385.04	12.540
385.40	11.821
385.76	12.587
386.12	12.607
386.48	12.068
386.83	12.640
387.19	12.069
387.55	12.435
387.91	12.150
388.27	11.836
388.62	12.306
388.98	13.104
389.34	11.256
389.70	13.013
390.06	13.135
390.42	11.900
390.77	13.146
391.13	12.882
391.49	13.073
391.85	11.976
392.20	12.607
392.56	11.395
392.92	12.121
393.28	12.448
393.64	12.350
393.99	12.468
394.35	11.746
394.71	12.649
395.07	13.064
395.42	11.492
395.78	11.694
396.14	11.059
396.50	12.419
396.85	12.360
397.21	11.449
397.57	11.916
397.92	11.578
398.28	11.691
398.64	11.365
399.00	12.130
399.35	12.661
399.71	11.377
400.07	12.044
400.42	13.333
400.78	12.028
401.14	12.247
401.49	12.180
401.85	11.492
402.21	11.929
402.57	11.204
402.92	12.683
403.28	11.834
403.63	12.051
403.99	10.502
404.35	11.019
404.70	11.146
405.06	11.655
405.42	12.101
405.77	11.534
406.13	10.872
406.49	10.789
406.84	11.768
407.20	10.843
407.55	11.690
407.91	11.329
408.27	11.702
408.62	10.932
408.98	12.355
409.34	10.691
409.69	10.970
410.05	10.233
410.40	10.854
410.76	11.083
411.11	11.312
411.47	11.224
411.83	11.526
412.18	12.435
412.54	11.255
412.89	10.816
413.25	10.408
413.60	11.607
413.96	10.097
414.31	11.026
414.67	11.209
415.03	11.065
415.38	11.212
415.74	11.081
416.09	9.855
416.45	9.908
416.80	9.527
417.16	10.296
417.51	11.034
417.87	10.602
418.22	10.094
418.58	9.399
418.93	9.994
419.29	10.448
419.64	10.440
420.00	10.609
420.35	9.918
420.71	10.243
421.06	9.539
421.42	10.100
421.77	10.536
422.12	10.159
422.48	9.480
422.83	10.274
423.19	10.000
423.54	9.652
423.90	9.456
424.25	10.695
424.61	9.806
424.96	10.565
425.31	10.386
425.67	9.939
426.02	9.317
426.38	8.880
426.73	10.966
427.09	9.652
427.44	10.000
427.79	10.396
428.15	8.751
428.50	9.862
428.85	9.429
429.21	9.683
429.56	9.945
429.92	9.465
430.27	9.013
430.62	10.222
430.98	9.672
431.33	8.843
431.68	10.503
432.04	9.091
432.39	9.388
432.74	8.665
433.10	8.914
433.45	9.690
433.80	9.940
434.16	9.321
434.51	9.755
434.86	8.882
435.22	8.615
435.57	9.367
435.92	7.616
436.28	8.717
436.63	9.064
436.98	9.938
437.34	9.469
437.69	8.457
438.04	8.173
438.39	8.486
438.75	9.415
439.10	9.048
439.45	9.499
439.81	8.254
440.16	8.101
440.51	8.736
440.86	8.081
441.22	8.457
441.57	9.174
441.92	8.504
442.27	8.971
442.63	8.352
442.98	8.313
443.33	8.284
443.68	9.040
444.03	8.918
444.39	8.225
444.74	7.842
445.09	7.851
445.44	8.280
445.79	8.522
446.15	7.988
446.50	8.676
446.85	8.251
447.20	8.260
447.55	8.319
447.91	8.466
448.26	8.071
448.61	7.915
448.96	8.457
449.31	7.715
449.66	7.385
450.02	7.396
450.37	8.323
450.72	7.720
451.07	7.251
451.42	8.498
451.77	6.242
452.12	7.080
452.47	8.130
452.83	7.846
453.18	7.360
453.53	7.903
453.88	8.041
454.23	7.220
454.58	7.441
454.93	6.199
455.28	7.536
455.63	7.083
455.98	7.678
456.34	7.234
456.69	6.093
457.04	7.087
457.39	8.302
457.74	7.901
458.09	6.845
458.44	7.725
458.79	6.478
459.14	7.871
459.49	7.134
459.84	6.897
460.19	7.067
460.54	7.008
460.89	7.059
461.24	6.753
461.59	8.013
461.94	7.364
462.29	7.268
462.64	6.685
462.99	6.817
463.34	7.399
463.69	6.996
464.04	6.286
464.39	6.045
464.74	6.360
465.09	7.460
465.44	6.779
465.79	7.521
466.14	5.788
466.49	7.079
466.84	6.572
467.19	6.563
467.54	6.432
467.89	6.401
468.24	6.124
468.59	7.134
468.94	6.052
469.29	6.782
469.64	6.492
469.99	6.777
470.34	5.304
470.68	6.769
471.03	5.547
471.38	6.208
471.73	6.613
472.08	6.833
472.43	6.155
472.78	5.366
473.13	7.228
473.48	6.362
473.83	7.266
474.17	6.071
474.52	7.033
474.87	6.755
475.22	6.480
475.57	6.404
475.92	6.310
476.27	6.510
476.61	6.383
476.96	6.343
477.31	5.993
477.66	6.624
478.01	5.474
478.36	6.074
478.70	6.479
479.05	5.920
479.40	6.136
479.75	5.609
480.10	5.790
480.45	6.754
480.79	5.708
481.14	5.904
481.49	6.272
481.84	5.960
482.19	5.512
482.53	6.176
482.88	5.897
483.23	6.080
483.58	6.188
483.92	6.131
484.27	5.712
484.62	6.223
484.97	5.844
485.31	6.148
485.66	6.095
486.01	5.887
486.36	5.500
486.70	5.997
487.05	6.108
487.40	5.591
487.75	5.754
488.09	5.702
488.44	5.941
488.79	5.849
489.13	5.528
489.48	5.212
489.83	5.964
490.17	5.157
490.52	5.497
490.87	5.786
491.22	6.065
491.56	5.287
491.91	5.271
492.26	5.813
492.60	5.510
492.95	5.390
493.30	5.750
493.64	5.223
493.99	5.801
494.34	5.829
494.68	4.955
495.03	5.578
495.37	6.285
495.72	5.011
496.07	5.426
496.41	5.237
496.76	5.874
497.11	5.564
497.45	5.726
497.80	5.452
498.14	5.438
498.49	5.392
498.84	5.189
499.18	5.449
499.53	5.971
499.87	5.018
500.22	5.351
500.56	5.756
500.91	5.926
501.26	4.882
501.60	5.708
501.95	5.015
502.29	5.439
502.64	5.177
502.98	4.997
503.33	4.893
503.67	4.952
504.02	5.720
504.36	5.342
504.71	5.213
505.06	5.356
505.40	5.791
505.75	5.108
506.09	4.984
506.44	5.043
506.78	5.139
507.13	5.429
507.47	5.263
507.82	5.190
508.16	5.345
508.51	5.963
508.85	5.495
509.19	4.608
509.54	5.042
509.88	4.776
510.23	5.281
510.57	4.713
510.92	4.705
511.26	4.365
511.61	5.708
511.95	5.610
512.30	5.623
512.64	4.575
512.98	6.025
513.33	4.807
513.67	5.389
514.02	5.288
514.36	5.635
514.70	5.707
515.05	5.854
515.39	5.458
515.74	5.514
516.08	4.834
516.42	5.718
516.77	5.776
517.11	5.321
517.46	5.309
517.80	5.297
518.14	6.515
518.49	5.821
518.83	5.772
519.17	5.977
519.52	5.809
519.86	5.636
520.20	5.223
520.55	5.287
520.89	5.533
521.23	5.411
521.58	5.423
521.92	5.207
522.26	6.117
522.61	5.119
522.95	5.685
523.29	4.993
523.64	5.088
523.98	5.175
524.32	5.455
524.66	5.710
525.01	4.742
525.35	5.540
525.69	4.611
526.04	4.933
526.38	5.415
526.72	5.625
527.06	4.923
527.41	5.245
527.75	4.810
528.09	4.526
528.43	5.528
528.78	4.752
529.12	5.685
529.46	5.382
529.80	5.106
530.15	5.490
530.49	6.206
530.83	4.049
531.17	5.297
531.51	5.996
531.86	5.812
532.20	5.267
532.54	5.180
532.88	4.800
533.22	5.388
533.57	4.966
533.91	5.093
534.25	5.838
534.59	5.296
534.93	4.835
535.27	6.061
535.62	4.997
535.96	4.885
536.30	5.289
536.64	5.365
536.98	5.236
537.32	4.911
537.66	4.985
538.01	5.007
538.35	4.800
538.69	5.025
539.03	4.686
539.37	4.594
539.71	4.783
540.05	4.848
540.39	5.229
540.73	5.421
541.07	5.221
541.42	5.417
541.76	4.820
542.10	4.806
542.44	4.697
542.78	4.545
543.12	4.982
543.46	3.502
543.80	5.861
544.14	5.950
544.48	4.491
544.82	4.329
545.16	4.928
545.50	5.022
545.84	4.535
546.18	5.169
546.52	4.535
546.86	5.050
547.20	5.303
547.54	4.701
547.88	4.416
548.22	5.345
548.56	5.708
548.90	5.263
549.24	5.336
549.58	5.812
549.92	4.962
550.26	5.097
550.60	4.044
550.94	5.397
551.28	4.878
551.62	5.405
551.96	4.712
552.30	5.116
552.64	4.358
552.98	5.052
553.32	4.318
553.66	5.766
554.00	4.556
554.34	4.609
554.68	4.785
555.02	5.317
555.36	4.845
555.69	5.227
556.03	5.469
556.37	5.326
556.71	5.128
557.05	4.219
557.39	3.293
557.73	5.031
558.07	5.869
558.41	5.028
558.75	5.311
559.08	4.596
559.42	4.766
559.76	4.128
560.10	5.216
560.44	4.751
560.78	4.658
561.12	4.733
561.45	3.795
561.79	3.377
562.13	4.596
562.47	4.205
562.81	4.852
563.15	3.650
563.48	3.745
563.82	4.949
564.16	4.572
564.50	4.298
564.84	4.536
565.17	5.436
565.51	5.559
565.85	5.211
566.19	4.871
566.52	4.516
566.86	4.372
567.20	4.059
567.54	4.467
567.88	3.883
568.21	4.689
568.55	3.905
568.89	3.791
569.23	4.367
569.56	4.920
569.90	4.411
570.24	4.886
570.57	4.590
570.91	4.440
571.25	5.613
571.59	4.623
571.92	4.620
572.26	4.844
572.60	4.522
572.93	4.388
573.27	4.315
573.61	4.457
573.95	4.950
574.28	4.221
574.62	4.617
574.96	4.120
575.29	4.233
575.63	4.457
575.97	4.476
576.30	4.714
576.64	4.079
576.98	4.081
577.31	4.851
577.65	4.529
577.98	4.429
578.32	4.441
578.66	4.322
578.99	4.942
579.33	4.347
579.67	4.643
580.00	4.387
580.34	4.753
580.67	4.451
581.01	4.458
581.35	4.354
581.68	4.444
582.02	4.413
582.35	4.327
582.69	4.545
583.02	4.596
583.36	4.359
583.70	4.367
584.03	4.396
584.37	4.882
584.70	4.397
585.04	4.495
585.37	4.396
585.71	4.154
586.04	4.505
586.38	4.495
586.72	4.504
587.05	4.407
587.39	4.737
587.72	4.084
588.06	4.289
588.39	4.499
588.73	4.216
589.06	4.415
589.40	4.541
589.73	4.600
590.07	3.484
590.40	4.429
590.73	4.123
591.07	4.632
591.40	4.020
591.74	3.778
592.07	4.346
592.41	4.124
592.74	4.729
593.08	4.320
593.41	4.011
593.75	5.157
594.08	4.433
594.41	4.672
594.75	4.464
595.08	4.986
595.42	4.243
595.75	4.697
596.09	4.524
596.42	3.932
596.75	4.727
597.09	4.198
597.42	4.270
597.75	4.690
598.09	4.307
598.42	4.212
598.76	3.780
599.09	4.622
599.42	4.209
599.76	3.884
600.09	4.112
600.42	3.789
600.76	3.772
601.09	3.725
601.42	4.308
601.76	4.099
602.09	4.860
602.42	4.386
602.76	4.101
603.09	4.352
603.42	3.535
603.76	4.154
604.09	4.302
604.42	4.637
604.76	3.651
605.09	4.393
605.42	4.976
605.75	3.792
606.09	4.711
606.42	4.637
606.75	4.085
607.09	3.778
607.42	4.727
607.75	3.949
608.08	4.818
608.42	3.783
608.75	3.752
609.08	3.584
609.41	4.095
609.75	4.371
610.08	4.031
610.41	3.868
610.74	4.297
611.07	4.336
611.41	3.105
611.74	4.461
612.07	3.683
612.40	3.677
612.73	4.109
613.07	3.171
613.40	4.313
613.73	3.036
614.06	3.806
614.39	4.394
614.72	3.896
615.06	4.994
615.39	3.926
615.72	3.919
616.05	3.710
616.38	4.152
616.71	3.856
617.05	4.209
617.38	4.194
617.71	3.854
618.04	4.468
618.37	3.466
618.70	3.261
619.03	3.916
619.36	4.197
619.69	3.110
620.03	4.043
620.36	4.535
620.69	4.139
621.02	4.276
621.35	3.064
621.68	3.150
622.01	2.674
622.34	3.936
622.67	4.553
623.00	3.931
623.33	4.567
623.66	3.745
623.99	3.828
624.32	3.654
624.65	3.828
624.99	2.344
625.32	3.081
625.65	3.763
625.98	3.833
626.31	3.290
626.64	4.234
626.97	4.228
627.30	3.704
627.63	3.721
627.96	3.445
628.29	4.302
628.62	2.577
628.95	4.224
629.28	3.926
629.61	3.344
629.94	3.320
630.26	5.021
630.59	4.188
630.92	2.845
631.25	3.352
631.58	2.326
631.91	2.050
632.24	3.432
632.57	4.994
632.90	3.075
633.23	4.645
633.56	4.654
633.89	1.583
634.22	5.000
634.55	3.154
634.88	3.213
635.20	3.562
635.53	2.654
635.86	5.435
636.19	1.091
636.52	3.504
636.85	2.477
637.18	3.756
637.51	3.523
637.83	2.933
638.16	3.841
638.49	3.458
638.82	3.094
639.15	3.429
639.48	2.329
639.81	3.279
640.13	2.450
640.46	2.047
640.79	0.310
641.12	3.721
641.45	3.733
641.77	0.955
642.10	4.723
642.43	3.704
642.76	2.330
643.09	3.633
643.41	1.792
643.74	3.299
644.07	1.940
644.40	3.069
644.73	0.921
645.05	1.908
645.38	1.923
645.71	1.336
646.04	3.160
646.36	1.705
646.69	4.062
647.02	2.344
647.35	2.200
647.67	4.208
