SpectraSuite Data File
++++++++++++++++++++++++++++++++++++
Date: Tue May 12 20:00:31 PDT 2015
User: schluterlab
Dark Spectrum Present: Yes
Reference Spectrum Present: Yes
Number of Sampled Component Spectra: 1
Spectrometers: USB2E3373
Integration Time (usec): 3000 (USB2E3373)
Spectra Averaged: 3 (USB2E3373)
Boxcar Smoothing: 0 (USB2E3373)
Correct for Electrical Dark: No (USB2E3373)
Strobe/Lamp Enabled: No (USB2E3373)
Correct for Detector Non-linearity: No (USB2E3373)
Correct for Stray Light: No (USB2E3373)
Number of Pixels in Processed Spectrum: 2048
>>>>>Begin Processed Spectral Data<<<<<
178.53	0.000
178.91	-150.000
179.29	-216.667
179.67	400.000
180.04	0.000
180.42	-480.000
180.80	-900.000
181.18	1200.000
181.56	-900.000
181.94	416.667
182.31	2100.000
182.69	-171.429
183.07	0.000
183.45	283.333
183.83	360.000
184.20	366.667
184.58	1350.000
184.96	550.000
185.34	-800.000
185.72	-157.143
186.09	-233.333
186.47	-2200.000
186.85	-340.000
187.23	266.667
187.61	-285.714
187.98	-460.000
188.36	1100.000
188.74	-250.000
189.12	-244.444
189.49	-230.000
189.87	500.000
190.25	277.778
190.63	966.667
191.00	540.000
191.38	-800.000
191.76	540.000
192.14	-200.000
192.51	-170.000
192.89	-360.000
193.27	-460.000
193.65	-866.667
194.02	-333.333
194.40	2500.000
194.78	-212.500
195.15	-242.857
195.53	633.333
195.91	480.000
196.29	-625.000
196.66	-366.667
197.04	-271.429
197.42	160.000
197.79	-300.000
198.17	-141.667
198.55	-1600.000
198.92	-244.444
199.30	950.000
199.68	-625.000
200.05	-1400.000
200.43	-105.556
200.81	-175.000
201.18	500.000
201.56	-800.000
201.94	-2000.000
202.31	-141.667
202.69	-166.667
203.07	-100.000
203.44	-775.000
203.82	0.000
204.19	362.500
204.57	-733.333
204.95	190.909
205.32	320.000
205.70	525.000
206.08	-1900.000
206.45	-420.000
206.83	3000.000
207.20	-300.000
207.58	-84.615
207.96	900.000
208.33	1133.333
208.71	633.333
209.08	1200.000
209.46	-166.667
209.84	900.000
210.21	-466.667
210.59	550.000
210.96	322.222
211.34	-375.000
211.71	1950.000
212.09	-220.000
212.46	-162.500
212.84	-275.000
213.22	271.429
213.59	-287.500
213.97	0.000
214.34	-700.000
214.72	-1900.000
215.09	1200.000
215.47	-120.000
215.84	-237.500
216.22	-1800.000
216.59	2800.000
216.97	-150.000
217.34	-216.667
217.72	33.333
218.09	675.000
218.47	-121.053
218.84	-312.500
219.22	-150.000
219.59	-160.000
219.97	-200.000
220.34	466.667
220.72	254.545
221.09	-1450.000
221.47	0.000
221.84	1100.000
222.22	-475.000
222.59	-600.000
222.97	-69.565
223.34	186.667
223.72	400.000
224.09	-266.667
224.46	192.308
224.84	-120.000
225.21	-600.000
225.59	-550.000
225.96	-45.000
226.34	283.333
226.71	210.000
227.08	-130.769
227.46	-271.429
227.83	-125.000
228.21	-1200.000
228.58	400.000
228.95	-47.368
229.33	-62.500
229.70	-383.333
230.08	-144.444
230.45	-433.333
230.82	-2200.000
231.20	-76.190
231.57	-600.000
231.95	-800.000
232.32	222.222
232.69	-850.000
233.07	-118.750
233.44	-262.500
233.81	-22.581
234.19	-600.000
234.56	-122.222
234.93	-466.667
235.31	-40.741
235.68	-55.556
236.05	-88.462
236.43	-100.000
236.80	-95.455
237.17	-221.429
237.55	-130.000
237.92	-41.860
238.29	-80.645
238.67	-60.714
239.04	-54.286
239.41	-50.980
239.79	-40.000
240.16	-62.500
240.53	-39.655
240.91	-19.178
241.28	-29.577
241.65	-23.437
242.02	-52.632
242.40	-29.333
242.77	-18.947
243.14	-21.176
243.51	-18.280
243.89	-23.810
244.26	-19.444
244.63	-11.224
245.00	-28.571
245.38	-21.008
245.75	-25.424
246.12	-8.594
246.49	-24.000
246.87	-28.689
247.24	-26.761
247.61	-15.894
247.98	-7.303
248.36	-16.981
248.73	-10.795
249.10	-11.667
249.47	-8.333
249.84	-11.168
250.22	-11.458
250.59	-12.921
250.96	-7.727
251.33	-7.547
251.70	-13.303
252.08	-7.359
252.45	-11.429
252.82	-14.346
253.19	-6.615
253.56	-7.843
253.94	-11.382
254.31	-6.115
254.68	-5.903
255.05	-4.636
255.42	-8.364
255.79	-4.305
256.16	-7.986
256.54	-3.030
256.91	-2.885
257.28	-1.623
257.65	-9.180
258.02	-5.105
258.39	-4.834
258.76	-6.728
259.14	-7.353
259.51	-3.944
259.88	-6.340
260.25	-11.648
260.62	-6.180
260.99	-7.242
261.36	-8.621
261.73	-5.067
262.10	-6.812
262.47	-5.510
262.85	-4.627
263.22	-5.108
263.59	-4.290
263.96	-6.005
264.33	-9.164
264.70	-4.423
265.07	-6.158
265.44	-3.044
265.81	-4.096
266.18	-7.963
266.55	-4.286
266.92	-4.018
267.29	-2.889
267.66	-6.364
268.03	-4.946
268.40	-6.407
268.77	-6.013
269.14	-4.202
269.51	-6.335
269.88	-4.487
270.25	-4.430
270.62	-2.101
270.99	-4.421
271.36	-6.181
271.73	-2.083
272.10	-3.112
272.47	-3.800
272.84	-9.766
273.21	-5.637
273.58	-5.102
273.95	-2.789
274.32	-3.675
274.69	-0.978
275.06	-3.752
275.43	-6.000
275.80	-3.633
276.17	-4.941
276.54	-1.141
276.91	-3.071
277.28	-5.029
277.65	-6.238
278.02	-1.894
278.39	-1.815
278.76	-4.097
279.13	-1.610
279.50	-1.986
279.87	-5.660
280.23	-2.914
280.60	-5.654
280.97	-3.339
281.34	-1.525
281.71	-5.861
282.08	-3.936
282.45	-5.291
282.82	-4.545
283.19	-3.367
283.56	-3.242
283.92	-2.212
284.29	-3.553
284.66	-5.310
285.03	-5.489
285.40	-2.833
285.77	-3.448
286.14	-3.328
286.51	-3.376
286.87	-3.728
287.24	-4.487
287.61	-4.321
287.98	-2.034
288.35	-3.411
288.72	-2.599
289.08	-6.132
289.45	-3.120
289.82	-4.193
290.19	-3.636
290.56	-2.460
290.93	-2.363
291.29	-1.986
291.66	-2.107
292.03	-1.004
292.40	-3.022
292.77	-4.956
293.13	-5.286
293.50	-2.204
293.87	-2.080
294.24	-2.528
294.60	-2.596
294.97	-3.878
295.34	-4.110
295.71	-4.438
296.08	-3.415
296.44	-1.845
296.81	-4.269
297.18	-2.199
297.55	-3.015
297.91	-1.650
298.28	-3.708
298.65	-4.140
299.02	-2.219
299.38	-3.316
299.75	-3.475
300.12	-1.439
300.48	-2.347
300.85	-4.034
301.22	-2.644
301.59	-2.433
301.95	-3.293
302.32	-3.645
302.69	-2.735
303.05	-4.368
303.42	-2.536
303.79	-3.258
304.15	-1.246
304.52	-2.793
304.89	-3.044
305.25	-2.638
305.62	-2.841
305.99	-3.471
306.35	-3.020
306.72	-1.307
307.09	-2.829
307.45	-2.157
307.82	-2.668
308.19	-2.200
308.55	-1.793
308.92	-2.754
309.29	-1.987
309.65	-2.270
310.02	-1.572
310.38	-2.026
310.75	-0.922
311.12	-1.729
311.48	-1.439
311.85	-2.432
312.22	-2.686
312.58	-2.216
312.95	-2.567
313.31	-2.360
313.68	-2.085
314.05	-1.390
314.41	-2.947
314.78	-3.719
315.14	-2.155
315.51	-2.185
315.87	-2.051
316.24	-1.780
316.61	-1.650
316.97	-2.451
317.34	-1.531
317.70	-1.587
318.07	-2.989
318.43	-2.268
318.80	-2.186
319.16	-1.864
319.53	-2.075
319.89	-2.273
320.26	-2.065
320.62	-1.647
320.99	-2.449
321.35	-2.470
321.72	-0.707
322.08	-2.376
322.45	-1.677
322.81	-2.167
323.18	-2.013
323.54	-1.611
323.91	-1.898
324.27	-2.507
324.64	-2.905
325.00	-1.274
325.37	-2.068
325.73	-3.102
326.10	-1.401
326.46	-2.176
326.83	-2.551
327.19	-2.445
327.56	-0.884
327.92	-2.170
328.29	-1.613
328.65	-1.977
329.01	-1.835
329.38	-1.194
329.74	-1.857
330.11	-1.398
330.47	-2.048
330.84	-1.598
331.20	-2.218
331.56	-1.981
331.93	-1.738
332.29	-2.035
332.66	-2.080
333.02	-1.486
333.38	-1.379
333.75	-1.464
334.11	-1.537
334.48	-1.968
334.84	-2.160
335.20	-1.880
335.57	-0.727
335.93	-2.605
336.29	-1.645
336.66	-1.548
337.02	-1.632
337.38	-2.170
337.75	-0.636
338.11	-1.459
338.47	-2.043
338.84	-2.026
339.20	-1.925
339.56	-2.237
339.93	-1.441
340.29	-1.723
340.65	-1.826
341.02	-2.834
341.38	-1.853
341.74	-1.868
342.11	-1.680
342.47	-1.748
342.83	-1.908
343.20	-2.122
343.56	-2.535
343.92	-2.100
344.28	-2.573
344.65	-1.027
345.01	-2.003
345.37	-1.795
345.73	-2.239
346.10	-1.383
346.46	-2.761
346.82	-2.124
347.19	-2.019
347.55	-1.871
347.91	-2.129
348.27	-2.527
348.63	-1.815
349.00	-1.169
349.36	-0.824
349.72	-1.149
350.08	-1.555
350.45	-0.732
350.81	-2.064
351.17	-1.647
351.53	-1.288
351.89	-2.332
352.26	-2.520
352.62	-1.145
352.98	-1.423
353.34	-2.089
353.70	-2.222
354.07	-1.071
354.43	-2.671
354.79	-0.820
355.15	-1.614
355.51	-1.711
355.87	-1.998
356.24	-0.327
356.60	-1.836
356.96	-1.422
357.32	-0.247
357.68	-0.875
358.04	-2.026
358.40	-1.964
358.77	-1.928
359.13	-1.044
359.49	-2.240
359.85	-1.759
360.21	-1.665
360.57	-2.073
360.93	-1.663
361.29	-1.869
361.66	-1.893
362.02	-1.491
362.38	-1.166
362.74	-1.460
363.10	-1.961
363.46	-1.053
363.82	-1.225
364.18	-0.908
364.54	-2.366
364.90	-1.556
365.26	-1.416
365.62	-2.120
365.98	-0.900
366.35	-1.437
366.71	-1.419
367.07	-0.738
367.43	-1.300
367.79	-1.453
368.15	-1.483
368.51	-1.573
368.87	-1.248
369.23	-0.833
369.59	-1.176
369.95	-1.714
370.31	-1.894
370.67	-0.977
371.03	-1.238
371.39	-0.982
371.75	-1.412
372.11	-1.333
372.47	-2.079
372.83	-1.899
373.19	-1.581
373.55	-1.647
373.91	-1.742
374.27	-0.809
374.63	-1.031
374.99	-1.318
375.35	-1.887
375.71	-1.865
376.07	-0.848
376.42	-1.383
376.78	-1.672
377.14	-1.397
377.50	-1.573
377.86	-1.532
378.22	-0.859
378.58	-1.645
378.94	-0.720
379.30	-0.257
379.66	-1.216
380.02	-1.462
380.38	-0.445
380.74	-0.373
381.09	-1.652
381.45	-1.079
381.81	-1.276
382.17	-0.261
382.53	-1.446
382.89	-1.219
383.25	-0.888
383.61	-1.907
383.97	-1.429
384.32	-1.548
384.68	-0.064
385.04	-1.910
385.40	-1.661
385.76	-0.696
386.12	-1.254
386.48	-0.978
386.83	-1.448
387.19	-0.958
387.55	-1.813
387.91	-1.371
388.27	-1.919
388.62	-1.684
388.98	-1.336
389.34	-1.236
389.70	-0.769
390.06	-1.056
390.42	-1.420
390.77	-1.476
391.13	-1.496
391.49	-0.943
391.85	-1.530
392.20	-0.924
392.56	-1.703
392.92	-1.670
393.28	-1.077
393.64	-1.773
393.99	-1.558
394.35	-1.493
394.71	-1.060
395.07	-1.393
395.42	-2.032
395.78	-1.680
396.14	-1.666
396.50	-1.229
396.85	-1.124
397.21	-1.164
397.57	-1.909
397.92	-2.163
398.28	-1.319
398.64	-1.587
399.00	-0.754
399.35	-1.407
399.71	-1.317
400.07	-1.421
400.42	-0.897
400.78	-1.727
401.14	-0.821
401.49	-1.312
401.85	-0.825
402.21	0.063
402.57	-1.545
402.92	-1.527
403.28	-1.821
403.63	-0.833
403.99	-1.783
404.35	-1.465
404.70	-1.837
405.06	-2.232
405.42	-0.846
405.77	-1.189
406.13	-1.075
406.49	-1.830
406.84	-0.560
407.20	-1.487
407.55	-0.868
407.91	-2.448
408.27	-1.130
408.62	-1.736
408.98	-0.965
409.34	-0.576
409.69	-1.538
410.05	-1.684
410.40	-1.927
410.76	-1.308
411.11	-1.745
411.47	-1.156
411.83	-1.030
412.18	-1.505
412.54	-0.582
412.89	-1.101
413.25	-1.191
413.60	-1.084
413.96	-1.683
414.31	-2.040
414.67	-1.553
415.03	-2.144
415.38	-1.741
415.74	-0.806
416.09	-2.412
416.45	-1.345
416.80	-2.086
417.16	-2.257
417.51	-1.527
417.87	-1.094
418.22	-1.872
418.58	-1.382
418.93	-0.903
419.29	-1.832
419.64	-1.305
420.00	-1.244
420.35	-0.942
420.71	-1.152
421.06	-1.493
421.42	-0.753
421.77	-0.670
422.12	-1.299
422.48	-1.371
422.83	-1.094
423.19	-1.000
423.54	-2.260
423.90	-1.422
424.25	-1.027
424.61	-1.871
424.96	-1.351
425.31	-2.174
425.67	-1.697
426.02	-1.366
426.38	-1.931
426.73	-1.371
427.09	-1.970
427.44	-1.296
427.79	-0.743
428.15	-1.141
428.50	-0.817
428.85	-1.796
429.21	-0.956
429.56	-1.657
429.92	-1.082
430.27	-1.813
430.62	-1.136
430.98	-0.537
431.33	-1.613
431.68	-1.094
432.04	-0.978
432.39	-1.367
432.74	-1.075
433.10	-1.273
433.45	-1.773
433.80	-1.071
434.16	-1.151
434.51	-1.115
434.86	-1.631
435.22	-2.037
435.57	-0.923
435.92	-1.981
436.28	-0.809
436.63	-1.252
436.98	-1.543
437.34	-1.472
437.69	-1.420
438.04	-2.043
438.39	-1.958
438.75	-1.231
439.10	-0.833
439.45	-0.834
439.81	-1.333
440.16	-1.732
440.51	-1.611
440.86	-1.705
441.22	-1.310
441.57	-1.083
441.92	-1.601
442.27	-1.086
442.63	-1.129
442.98	-0.672
443.33	-1.234
443.68	-1.608
444.03	-0.979
444.39	-1.458
444.74	-1.603
445.09	-1.889
445.44	-0.991
445.79	-1.241
446.15	-1.516
446.50	-0.636
446.85	-1.265
447.20	-2.079
447.55	-1.222
447.91	-1.293
448.26	-0.534
448.61	-1.088
448.96	-0.887
449.31	-1.627
449.66	-1.755
450.02	-1.538
450.37	-0.486
450.72	-1.436
451.07	-2.044
451.42	-0.725
451.77	-2.018
452.12	-0.752
452.47	-2.168
452.83	-1.245
453.18	-2.228
453.53	-1.372
453.88	-1.532
454.23	-1.022
454.58	-1.175
454.93	-1.771
455.28	-1.494
455.63	-1.300
455.98	-0.635
456.34	-1.139
456.69	-1.828
457.04	-0.984
457.39	-0.687
457.74	-1.201
458.09	-1.556
458.44	-0.736
458.79	-2.120
459.14	-0.954
459.49	-1.210
459.84	-1.427
460.19	-0.750
460.54	-1.894
460.89	-1.235
461.24	-1.039
461.59	-0.946
461.94	-1.249
462.29	-1.003
462.64	-1.393
462.99	-1.088
463.34	-1.612
463.69	-1.578
464.04	-1.475
464.39	-1.222
464.74	-1.233
465.09	-0.386
465.44	-1.440
465.79	-1.384
466.14	-1.671
466.49	-0.476
466.84	-1.229
467.19	-0.975
467.54	-1.923
467.89	-0.261
468.24	-1.452
468.59	-0.982
468.94	-1.614
469.29	-0.969
469.64	-0.948
469.99	-1.514
470.34	-2.122
470.68	-1.231
471.03	-1.679
471.38	-1.795
471.73	-1.962
472.08	-1.352
472.43	-1.383
472.78	-2.756
473.13	-0.632
473.48	-2.144
473.83	-1.255
474.17	-1.734
474.52	-1.072
474.87	-1.263
475.22	-1.017
475.57	-1.293
475.92	-1.137
476.27	-1.025
476.61	-0.532
476.96	-1.423
477.31	-1.199
477.66	-0.697
478.01	-2.001
478.36	-1.719
478.70	-1.239
479.05	-1.915
479.40	-1.050
479.75	-1.514
480.10	-1.353
480.45	-0.785
480.79	-0.519
481.14	-1.265
481.49	-1.337
481.84	-1.869
482.19	-1.171
482.53	-0.882
482.88	-1.627
483.23	-0.804
483.58	-1.337
483.92	-0.804
484.27	-0.678
484.62	-0.943
484.97	-1.054
485.31	-0.619
485.66	-0.592
486.01	-0.288
486.36	-0.470
486.70	-0.554
487.05	-0.681
487.40	-0.636
487.75	-0.687
488.09	-0.909
488.44	-0.743
488.79	-0.420
489.13	-1.164
489.48	-0.928
489.83	-0.416
490.17	-0.891
490.52	-1.673
490.87	-0.346
491.22	-0.641
491.56	-1.038
491.91	-0.904
492.26	-0.816
492.60	-0.816
492.95	-1.027
493.30	-1.202
493.64	-0.913
493.99	-1.232
494.34	-0.963
494.68	-1.734
495.03	-1.420
495.37	-0.912
495.72	-1.319
496.07	-1.217
496.41	-1.581
496.76	-1.051
497.11	-1.083
497.45	-0.201
497.80	-0.156
498.14	-1.109
498.49	-1.068
498.84	-1.363
499.18	-1.245
499.53	-0.935
499.87	-1.229
500.22	-1.039
500.56	-0.157
500.91	-0.839
501.26	-1.522
501.60	-0.714
501.95	-1.177
502.29	-0.718
502.64	-1.045
502.98	-1.716
503.33	-0.799
503.67	-0.715
504.02	-1.073
504.36	-1.695
504.71	-1.011
505.06	-1.071
505.40	-1.126
505.75	-1.159
506.09	-0.596
506.44	-0.912
506.78	-1.660
507.13	-1.194
507.47	-1.274
507.82	-1.507
508.16	-1.615
508.51	-0.602
508.85	-1.648
509.19	-0.987
509.54	-0.680
509.88	-2.301
510.23	-1.292
510.57	-1.022
510.92	-1.531
511.26	-2.183
511.61	-0.856
511.95	-1.446
512.30	-1.043
512.64	-1.408
512.98	-0.650
513.33	-2.286
513.67	-1.976
514.02	-1.923
514.36	-0.949
514.70	-0.486
515.05	-1.402
515.39	-1.882
515.74	-1.566
516.08	-1.632
516.42	-1.616
516.77	-1.615
517.11	-1.101
517.46	-1.686
517.80	-1.532
518.14	-0.380
518.49	-1.423
518.83	-1.297
519.17	-1.093
519.52	-1.312
519.86	-1.013
520.20	-1.401
520.55	-0.261
520.89	-1.484
521.23	-1.202
521.58	-1.455
521.92	-1.402
522.26	-0.687
522.61	-1.229
522.95	-0.616
523.29	-1.147
523.64	-1.832
523.98	-1.680
524.32	-0.808
524.66	-1.428
525.01	-1.375
525.35	-1.710
525.69	-1.858
526.04	-0.987
526.38	-1.165
526.72	-1.181
527.06	-2.250
527.41	-1.630
527.75	-1.723
528.09	-1.768
528.43	-1.276
528.78	-1.887
529.12	-2.055
529.46	-0.731
529.80	-1.974
530.15	-0.973
530.49	-0.697
530.83	-2.748
531.17	-1.130
531.51	-1.642
531.86	-0.700
532.20	-1.876
532.54	-1.871
532.88	-2.327
533.22	-1.724
533.57	-1.793
533.91	-1.789
534.25	-1.561
534.59	-1.994
534.93	-1.478
535.27	-1.145
535.62	-1.350
535.96	-2.373
536.30	-1.949
536.64	-1.144
536.98	-1.844
537.32	-1.786
537.66	-1.393
538.01	-1.546
538.35	-1.382
538.69	-2.052
539.03	-1.154
539.37	-1.866
539.71	-1.594
540.05	-1.592
540.39	-1.598
540.73	-1.026
541.07	-2.206
541.42	-0.713
541.76	-1.367
542.10	-1.076
542.44	-0.939
542.78	-2.199
543.12	-2.527
543.46	-1.118
543.80	-0.715
544.14	-1.362
544.48	-1.474
544.82	-1.703
545.16	-1.087
545.50	-1.456
545.84	-0.366
546.18	-1.723
546.52	-1.307
546.86	-1.607
547.20	-1.667
547.54	-1.971
547.88	-1.425
548.22	-1.758
548.56	-1.339
548.90	-0.632
549.24	-0.950
549.58	-1.118
549.92	-0.526
550.26	-1.004
550.60	-1.190
550.94	-1.667
551.28	-0.894
551.62	-1.474
551.96	-1.997
552.30	-2.093
552.64	-1.052
552.98	-0.966
553.32	-2.197
553.66	-1.290
554.00	-1.699
554.34	-0.859
554.68	-2.233
555.02	-2.143
555.36	-1.986
555.69	-1.537
556.03	-1.035
556.37	-1.800
556.71	-1.357
557.05	-2.266
557.39	-1.285
557.73	-1.336
558.07	-1.330
558.41	-1.756
558.75	-1.577
559.08	-1.617
559.42	-2.090
559.76	-2.190
560.10	-1.304
560.44	-1.821
560.78	-1.127
561.12	-2.479
561.45	-1.860
561.79	-2.203
562.13	-1.853
562.47	-1.835
562.81	-1.137
563.15	-1.977
563.48	-1.798
563.82	-1.820
564.16	-1.959
564.50	-1.791
564.84	-0.992
565.17	-1.502
565.51	-1.126
565.85	-0.634
566.19	-1.461
566.52	-1.505
566.86	-0.751
567.20	-2.129
567.54	-1.595
567.88	-2.002
568.21	-0.938
568.55	-1.302
568.89	-2.198
569.23	-1.205
569.56	-0.874
569.90	-1.113
570.24	-0.433
570.57	-0.941
570.91	-0.728
571.25	-0.379
571.59	-0.295
571.92	-0.589
572.26	-0.679
572.60	-0.706
572.93	-0.851
573.27	-0.909
573.61	-0.464
573.95	-0.424
574.28	-1.021
574.62	-0.339
574.96	-0.808
575.29	-0.568
575.63	-0.774
575.97	-0.718
576.30	-0.434
576.64	-0.744
576.98	-0.880
577.31	-0.356
577.65	-0.383
577.98	-0.524
578.32	-0.493
578.66	-0.551
578.99	-0.384
579.33	-0.409
579.67	-0.391
580.00	-0.545
580.34	-0.229
580.67	-0.407
581.01	-0.473
581.35	-0.314
581.68	-0.391
582.02	-0.455
582.35	-0.416
582.69	-0.415
583.02	-0.583
583.36	-0.566
583.70	-0.549
584.03	-0.779
584.37	-0.314
584.70	-0.709
585.04	-0.485
585.37	-0.664
585.71	-0.352
586.04	-0.518
586.38	-0.599
586.72	-1.030
587.05	-0.385
587.39	-0.431
587.72	-0.472
588.06	-0.505
588.39	-0.672
588.73	-0.750
589.06	-0.758
589.40	-0.563
589.73	-0.561
590.07	-1.045
590.40	-1.226
590.73	-0.666
591.07	-0.823
591.40	-0.685
591.74	-1.539
592.07	-1.289
592.41	-1.359
592.74	-0.980
593.08	-0.488
593.41	-0.994
593.75	-0.101
594.08	-0.715
594.41	-0.603
594.75	-0.940
595.08	-0.312
595.42	-0.638
595.75	-0.492
596.09	-0.921
596.42	-1.226
596.75	-0.227
597.09	-0.560
597.42	-1.595
597.75	-0.516
598.09	-0.468
598.42	-0.899
598.76	-0.956
599.09	-0.336
599.42	-0.826
599.76	-0.902
600.09	-0.712
600.42	-0.742
600.76	-0.770
601.09	-0.471
601.42	-0.684
601.76	-0.812
602.09	-0.754
602.42	-1.129
602.76	-0.916
603.09	-1.131
603.42	-0.468
603.76	-1.301
604.09	-0.710
604.42	-0.343
604.76	-1.004
605.09	-1.417
605.42	-0.995
605.75	-1.416
606.09	-0.933
606.42	-1.137
606.75	-0.622
607.09	-0.606
607.42	-0.688
607.75	-1.240
608.08	-0.795
608.42	-1.309
608.75	-1.401
609.08	-1.969
609.41	-0.518
609.75	-1.685
610.08	-1.809
610.41	-0.662
610.74	-0.809
611.07	-1.375
611.41	-2.088
611.74	-1.360
612.07	-1.618
612.40	-0.390
612.73	-1.505
613.07	-1.409
613.40	-1.553
613.73	-1.890
614.06	-2.049
614.39	-0.762
614.72	-1.181
615.06	-0.344
615.39	-1.039
615.72	-1.568
616.05	-1.623
616.38	-1.542
616.71	-1.617
617.05	-1.131
617.38	-1.742
617.71	-1.110
618.04	-1.248
618.37	-1.177
618.70	-1.698
619.03	-0.943
619.36	-1.178
619.69	-1.477
620.03	-2.212
620.36	-2.041
620.69	-1.478
621.02	-1.504
621.35	-1.787
621.68	-2.160
622.01	-1.693
622.34	-2.261
622.67	-1.686
623.00	-2.048
623.33	-1.260
623.66	-1.514
623.99	-1.834
624.32	-2.065
624.65	-1.719
624.99	-2.813
625.32	-1.738
625.65	-1.521
625.98	-0.083
626.31	-2.944
626.64	-2.973
626.97	-1.195
627.30	-2.685
627.63	-2.419
627.96	-2.328
628.29	-1.912
628.62	-2.577
628.95	-2.323
629.28	-2.169
629.61	-1.985
629.94	-1.452
