SpectraSuite Data File
++++++++++++++++++++++++++++++++++++
Date: Tue May 12 19:58:06 PDT 2015
User: schluterlab
Dark Spectrum Present: Yes
Reference Spectrum Present: Yes
Number of Sampled Component Spectra: 1
Spectrometers: USB2E3373
Integration Time (usec): 3000 (USB2E3373)
Spectra Averaged: 3 (USB2E3373)
Boxcar Smoothing: 0 (USB2E3373)
Correct for Electrical Dark: No (USB2E3373)
Strobe/Lamp Enabled: No (USB2E3373)
Correct for Detector Non-linearity: No (USB2E3373)
Correct for Stray Light: No (USB2E3373)
Number of Pixels in Processed Spectrum: 2048
>>>>>Begin Processed Spectral Data<<<<<
178.53	0.000
178.91	-80.000
179.29	-183.333
179.67	700.000
180.04	0.000
180.42	-320.000
180.80	-700.000
181.18	1250.000
181.56	-950.000
181.94	450.000
182.31	1800.000
182.69	-200.000
183.07	0.000
183.45	266.667
183.83	340.000
184.20	316.667
184.58	900.000
184.96	333.333
185.34	-633.333
185.72	-107.143
186.09	-216.667
186.47	-2200.000
186.85	-220.000
187.23	258.333
187.61	-142.857
187.98	-540.000
188.36	850.000
188.74	-225.000
189.12	-144.444
189.49	-200.000
189.87	275.000
190.25	200.000
190.63	733.333
191.00	260.000
191.38	-300.000
191.76	440.000
192.14	-85.714
192.51	-210.000
192.89	-420.000
193.27	-300.000
193.65	-500.000
194.02	-200.000
194.40	1700.000
194.78	-112.500
195.15	-357.143
195.53	333.333
195.91	600.000
196.29	-375.000
196.66	-200.000
197.04	-242.857
197.42	220.000
197.79	-187.500
198.17	-108.333
198.55	-1200.000
198.92	-266.667
199.30	750.000
199.68	-525.000
200.05	-1500.000
200.43	-100.000
200.81	-208.333
201.18	416.667
201.56	-800.000
201.94	-2000.000
202.31	-116.667
202.69	-88.889
203.07	-58.333
203.44	-450.000
203.82	0.000
204.19	337.500
204.57	-566.667
204.95	300.000
205.32	400.000
205.70	650.000
206.08	-2300.000
206.45	-240.000
206.83	2700.000
207.20	-200.000
207.58	-23.077
207.96	733.333
208.33	966.667
208.71	933.333
209.08	1300.000
209.46	-77.778
209.84	733.333
210.21	-466.667
210.59	650.000
210.96	322.222
211.34	-500.000
211.71	1000.000
212.09	-120.000
212.46	-137.500
212.84	-187.500
213.22	314.286
213.59	-262.500
213.97	0.000
214.34	-900.000
214.72	-1700.000
215.09	1600.000
215.47	-86.667
215.84	-187.500
216.22	-1400.000
216.59	2000.000
216.97	-58.333
217.34	-166.667
217.72	-55.556
218.09	600.000
218.47	-63.158
218.84	-187.500
219.22	-57.143
219.59	-190.000
219.97	-80.000
220.34	333.333
220.72	181.818
221.09	-900.000
221.47	0.000
221.84	800.000
222.22	-525.000
222.59	-400.000
222.97	-43.478
223.34	193.333
223.72	385.714
224.09	-183.333
224.46	207.692
224.84	-26.667
225.21	-550.000
225.59	-225.000
225.96	10.000
226.34	366.667
226.71	260.000
227.08	-69.231
227.46	-200.000
227.83	-41.667
228.21	-1200.000
228.58	250.000
228.95	-89.474
229.33	-6.250
229.70	-183.333
230.08	-77.778
230.45	-900.000
230.82	-2200.000
231.20	-52.381
231.57	-480.000
231.95	-366.667
232.32	155.556
232.69	-750.000
233.07	-100.000
233.44	-100.000
233.81	-6.452
234.19	-320.000
234.56	-44.444
234.93	-250.000
235.31	3.704
235.68	-3.704
236.05	-69.231
236.43	-84.211
236.80	-13.636
237.17	-221.429
237.55	-60.000
237.92	4.651
238.29	-38.710
238.67	-17.857
239.04	-11.429
239.41	-7.843
239.79	12.000
240.16	12.500
240.53	-3.448
240.91	12.329
241.28	-2.817
241.65	15.625
242.02	-1.754
242.40	-4.000
242.77	17.895
243.14	17.647
243.51	18.280
243.89	13.333
244.26	13.889
244.63	6.122
245.00	3.571
245.38	12.605
245.75	21.186
246.12	21.875
246.49	13.600
246.87	16.393
247.24	13.380
247.61	17.881
247.98	18.539
248.36	22.013
248.73	20.455
249.10	20.556
249.47	24.479
249.84	15.736
250.22	21.875
250.59	20.787
250.96	25.455
251.33	32.075
251.70	23.853
252.08	24.675
252.45	22.857
252.82	23.207
253.19	23.735
253.56	25.098
253.94	29.268
254.31	27.338
254.68	22.569
255.05	27.815
255.42	25.091
255.79	26.490
256.16	21.875
256.54	25.455
256.91	24.038
257.28	27.273
257.65	22.295
258.02	27.928
258.39	26.888
258.76	24.465
259.14	25.000
259.51	28.169
259.88	27.378
260.25	27.841
260.62	20.225
260.99	27.298
261.36	25.000
261.73	30.400
262.10	28.065
262.47	25.069
262.85	29.563
263.22	27.419
263.59	26.005
263.96	29.243
264.33	25.606
264.70	29.238
265.07	26.601
265.44	27.400
265.81	30.120
266.18	25.527
266.55	26.905
266.92	26.116
267.29	30.222
267.66	26.818
268.03	27.742
268.40	27.689
268.77	28.508
269.14	26.681
269.51	26.923
269.88	28.632
270.25	28.059
270.62	27.941
270.99	26.737
271.36	26.711
271.73	26.250
272.10	26.141
272.47	27.000
272.84	23.992
273.21	27.975
273.58	26.939
273.95	29.482
274.32	26.112
274.69	27.397
275.06	28.330
275.43	25.200
275.80	27.342
276.17	26.680
276.54	28.137
276.91	28.407
277.28	28.433
277.65	25.898
278.02	24.811
278.39	29.583
278.76	29.236
279.13	25.939
279.50	25.812
279.87	26.792
280.23	24.954
280.60	24.382
280.97	24.956
281.34	27.119
281.71	25.044
282.08	27.013
282.45	27.513
282.82	26.936
283.19	24.916
283.56	28.157
283.92	25.592
284.29	24.535
284.66	24.956
285.03	22.642
285.40	26.667
285.77	27.750
286.14	24.406
286.51	25.723
286.87	24.635
287.24	24.199
287.61	25.154
287.98	27.230
288.35	25.581
288.72	25.994
289.08	23.270
289.45	25.429
289.82	22.981
290.19	23.939
290.56	25.326
290.93	24.520
291.29	23.830
291.66	24.438
292.03	24.964
292.40	23.453
292.77	22.886
293.13	23.495
293.50	23.140
293.87	23.024
294.24	22.051
294.60	22.404
294.97	20.499
295.34	22.466
295.71	22.191
296.08	20.902
296.44	23.188
296.81	19.405
297.18	21.604
297.55	20.101
297.91	21.320
298.28	20.460
298.65	21.345
299.02	19.852
299.38	20.791
299.75	22.394
300.12	19.904
300.48	20.423
300.85	20.049
301.22	20.313
301.59	21.411
301.95	20.000
302.32	18.104
302.69	19.025
303.05	21.370
303.42	19.444
303.79	18.764
304.15	20.725
304.52	20.223
304.89	18.377
305.25	19.266
305.62	20.568
305.99	18.925
306.35	20.470
306.72	20.370
307.09	18.716
307.45	20.173
307.82	19.530
308.19	20.682
308.55	19.304
308.92	20.657
309.29	19.770
309.65	19.298
310.02	19.706
310.38	20.789
310.75	19.877
311.12	19.634
311.48	21.377
311.85	18.541
312.22	19.318
312.58	18.731
312.95	19.405
313.31	20.354
313.68	18.669
314.05	20.258
314.41	19.843
314.78	21.407
315.14	21.352
315.51	20.755
315.87	21.289
316.24	22.057
316.61	20.971
316.97	20.980
317.34	20.766
317.70	21.289
318.07	21.119
318.43	21.550
318.80	21.767
319.16	20.130
319.53	23.113
319.89	23.674
320.26	23.697
320.62	23.643
320.99	24.796
321.35	24.111
321.72	25.253
322.08	24.752
322.45	25.542
322.81	27.094
323.18	27.804
323.54	27.393
323.91	25.901
324.27	26.037
324.64	27.554
325.00	27.480
325.37	29.047
325.73	28.923
326.10	30.998
326.46	30.281
326.83	32.278
327.19	31.004
327.56	33.510
327.92	31.944
328.29	32.616
328.65	34.652
329.01	33.486
329.38	34.986
329.74	34.912
330.11	34.949
330.47	35.382
330.84	34.492
331.20	36.506
331.56	34.906
331.93	35.407
332.29	35.060
332.66	35.443
333.02	37.883
333.38	37.684
333.75	37.694
334.11	37.613
334.48	36.225
334.84	38.592
335.20	36.974
335.57	38.874
335.93	38.326
336.29	38.483
336.66	39.162
337.02	38.894
337.38	37.642
337.75	38.909
338.11	39.745
338.47	40.204
338.84	38.950
339.20	39.322
339.56	38.677
339.93	39.550
340.29	40.707
340.65	39.087
341.02	39.770
341.38	39.541
341.74	40.747
342.11	39.523
342.47	37.150
342.83	38.595
343.20	40.141
343.56	40.647
343.92	40.332
344.28	39.794
344.65	38.955
345.01	41.376
345.37	39.487
345.73	39.621
346.10	39.758
346.46	39.431
346.82	41.037
347.19	39.781
347.55	41.497
347.91	39.885
348.27	41.955
348.63	40.795
349.00	41.402
349.36	40.313
349.72	40.066
350.08	39.689
350.45	40.195
350.81	40.793
351.17	39.127
351.53	38.567
351.89	41.883
352.26	40.732
352.62	40.883
352.98	40.921
353.34	42.356
353.70	40.905
354.07	41.763
354.43	40.818
354.79	40.984
355.15	41.001
355.51	42.624
355.87	42.465
356.24	43.464
356.60	42.487
356.96	42.575
357.32	42.058
357.68	42.323
358.04	42.220
358.40	42.717
358.77	42.169
359.13	42.731
359.49	42.560
359.85	42.686
360.21	42.347
360.57	41.786
360.93	43.072
361.29	43.302
361.66	43.297
362.02	44.505
362.38	43.046
362.74	45.657
363.10	42.685
363.46	43.868
363.82	43.415
364.18	45.117
364.54	44.122
364.90	44.370
365.26	43.443
365.62	43.679
365.98	45.577
366.35	46.369
366.71	45.332
367.07	45.092
367.43	44.549
367.79	45.712
368.15	46.998
368.51	45.019
368.87	46.476
369.23	46.934
369.59	46.471
369.95	44.188
370.31	45.152
370.67	46.842
371.03	46.130
371.39	47.356
371.75	46.211
372.11	46.593
372.47	46.102
372.83	47.480
373.19	49.021
373.55	46.557
373.91	48.258
374.27	48.712
374.63	47.202
374.99	48.536
375.35	49.057
375.71	48.637
376.07	47.986
376.42	48.824
376.78	48.641
377.14	48.813
377.50	50.342
377.86	50.905
378.22	50.066
378.58	49.934
378.94	50.557
379.30	49.163
379.66	50.000
380.02	48.887
380.38	50.382
380.74	50.963
381.09	50.000
381.45	52.571
381.81	51.913
382.17	51.596
382.53	51.677
382.89	51.379
383.25	52.188
383.61	52.066
383.97	52.372
384.32	52.774
384.68	53.193
385.04	51.687
385.40	51.310
385.76	52.435
386.12	53.597
386.48	52.838
386.83	52.864
387.19	53.257
387.55	52.267
387.91	52.773
388.27	55.534
388.62	54.339
388.98	52.735
389.34	53.155
389.70	53.654
390.06	54.587
390.42	54.564
390.77	56.070
391.13	53.806
391.49	55.728
391.85	55.156
392.20	55.776
392.56	54.158
392.92	55.659
393.28	55.117
393.64	55.035
393.99	55.065
394.35	55.224
394.71	56.424
395.07	55.769
395.42	55.937
395.78	56.116
396.14	55.963
396.50	56.145
396.85	56.907
397.21	55.757
397.57	56.682
397.92	57.316
398.28	56.894
398.64	56.317
399.00	55.311
399.35	55.627
399.71	57.246
400.07	56.516
400.42	56.731
400.78	58.413
401.14	58.081
401.49	57.714
401.85	58.794
402.21	57.234
402.57	57.308
402.92	58.632
403.28	57.347
403.63	57.885
403.99	58.653
404.35	56.624
404.70	57.885
405.06	58.896
405.42	58.816
405.77	58.323
406.13	58.483
406.49	58.801
406.84	59.153
407.20	57.931
407.55	59.252
407.91	59.930
408.27	59.242
408.62	58.842
408.98	61.519
409.34	58.579
409.69	59.398
410.05	59.845
410.40	59.666
410.76	60.274
411.11	60.698
411.47	59.456
411.83	58.918
412.18	60.144
412.54	60.091
412.89	60.168
413.25	59.749
413.60	59.566
413.96	60.583
414.31	60.102
414.67	61.985
415.03	61.203
415.38	60.376
415.74	60.510
416.09	60.028
416.45	60.439
416.80	60.292
417.16	60.860
417.51	60.583
417.87	62.244
418.22	61.564
418.58	61.368
418.93	61.638
419.29	62.619
419.64	63.805
420.00	62.213
420.35	62.524
420.71	62.868
421.06	63.335
421.42	61.731
421.77	62.789
422.12	62.788
422.48	62.878
422.83	63.100
423.19	62.765
423.54	62.309
423.90	63.782
424.25	63.927
424.61	64.129
424.96	62.531
425.31	63.466
425.67	64.182
426.02	63.975
426.38	62.291
426.73	63.614
427.09	63.953
427.44	62.469
427.79	65.718
428.15	63.348
428.50	64.698
428.85	62.861
429.21	64.614
429.56	62.762
429.92	64.035
430.27	63.307
430.62	62.845
430.98	61.902
431.33	64.405
431.68	64.059
432.04	65.247
432.39	63.220
432.74	62.808
433.10	63.675
433.45	64.028
433.80	65.179
434.16	64.499
434.51	64.326
434.86	64.834
435.22	64.144
435.57	65.633
435.92	65.077
436.28	64.259
436.63	65.832
436.98	66.605
437.34	66.539
437.69	64.012
438.04	65.204
438.39	67.493
438.75	65.477
439.10	65.298
439.45	66.881
439.81	65.079
440.16	67.285
440.51	64.932
440.86	65.783
441.22	65.039
441.57	66.382
441.92	66.593
442.27	67.486
442.63	66.648
442.98	68.276
443.33	65.100
443.68	64.559
444.03	65.515
444.39	66.320
444.74	66.228
445.09	66.588
445.44	65.015
445.79	66.667
446.15	66.356
446.50	65.992
446.85	66.502
447.20	65.536
447.55	66.085
447.91	66.902
448.26	66.469
448.61	67.190
448.96	65.760
449.31	67.390
449.66	66.586
450.02	65.917
450.37	67.375
450.72	68.103
451.07	67.699
451.42	68.577
451.77	66.709
452.12	66.103
452.47	67.751
452.83	67.870
453.18	68.062
453.53	67.472
453.88	68.347
454.23	67.220
454.58	67.950
454.93	66.008
455.28	66.395
455.63	67.836
455.98	66.942
456.34	67.783
456.69	67.705
457.04	66.798
457.39	66.854
457.74	67.383
458.09	66.397
458.44	66.278
458.79	67.491
459.14	66.905
459.49	67.516
459.84	66.052
460.19	67.292
460.54	65.278
460.89	66.765
461.24	68.052
461.59	68.454
461.94	66.206
462.29	65.414
462.64	68.245
462.99	67.948
463.34	68.132
463.69	68.176
464.04	68.634
464.39	69.325
464.74	67.164
465.09	68.232
465.44	66.527
465.79	67.208
466.14	66.348
466.49	66.984
466.84	66.646
467.19	67.381
467.54	64.920
467.89	67.211
468.24	65.972
468.59	66.230
468.94	68.931
469.29	68.304
469.64	69.292
469.99	67.844
470.34	65.842
470.68	67.692
471.03	68.686
471.38	67.988
471.73	67.805
472.08	67.260
472.43	69.848
472.78	68.600
473.13	67.789
473.48	67.704
473.83	68.692
474.17	67.178
474.52	67.783
474.87	68.119
475.22	70.712
475.57	68.508
475.92	68.391
476.27	68.294
476.61	68.440
476.96	68.287
477.31	69.349
477.66	68.972
478.01	69.099
478.36	68.080
478.70	68.338
479.05	68.950
479.40	68.657
479.75	69.770
480.10	68.939
480.45	69.267
480.79	68.345
481.14	68.635
481.49	68.432
481.84	69.596
482.19	68.780
482.53	67.010
482.88	68.378
483.23	68.492
483.58	68.515
483.92	67.186
484.27	68.925
484.62	68.505
484.97	68.761
485.31	65.661
485.66	65.917
486.01	63.730
486.36	64.352
486.70	65.566
487.05	65.917
487.40	65.236
487.75	65.703
488.09	63.753
488.44	65.311
488.79	65.826
489.13	67.373
489.48	66.608
489.83	67.129
490.17	68.636
490.52	66.683
490.87	68.744
491.22	68.146
491.56	68.429
491.91	67.871
492.26	70.321
492.60	69.031
492.95	68.429
493.30	71.040
493.64	68.357
493.99	68.994
494.34	70.096
494.68	69.177
495.03	67.647
495.37	69.488
495.72	68.513
496.07	68.103
496.41	68.281
496.76	68.099
497.11	68.390
497.45	69.513
497.80	69.782
498.14	69.430
498.49	69.407
498.84	68.449
499.18	69.227
499.53	69.938
499.87	69.739
500.22	69.610
500.56	69.754
500.91	68.904
501.26	69.449
501.60	68.502
501.95	69.140
502.29	69.472
502.64	67.446
502.98	68.854
503.33	67.449
503.67	69.270
504.02	69.356
504.36	70.313
504.71	69.628
505.06	70.434
505.40	72.440
505.75	68.615
506.09	71.073
506.44	71.030
506.78	70.450
507.13	70.250
507.47	71.911
507.82	72.098
508.16	70.880
508.51	71.389
508.85	73.132
509.19	71.640
509.54	73.541
509.88	72.440
510.23	72.697
510.57	72.686
510.92	73.526
511.26	72.430
511.61	73.288
511.95	74.089
512.30	73.507
512.64	72.669
512.98	73.774
513.33	73.916
513.67	73.653
514.02	74.639
514.36	74.318
514.70	75.896
515.05	76.341
515.39	77.164
515.74	76.692
516.08	76.208
516.42	76.880
516.77	77.081
517.11	77.003
517.46	77.889
517.80	79.898
518.14	77.166
518.49	78.396
518.83	78.405
519.17	79.820
519.52	77.514
519.86	80.051
520.20	78.408
520.55	79.504
520.89	81.174
521.23	79.626
521.58	78.042
521.92	79.973
522.26	82.955
522.61	82.048
522.95	81.712
523.29	80.702
523.64	82.361
523.98	79.570
524.32	80.943
524.66	81.441
525.01	82.612
525.35	82.695
525.69	82.175
526.04	83.580
526.38	83.687
526.72	83.819
527.06	84.880
527.41	83.629
527.75	84.996
528.09	83.380
528.43	83.558
528.78	82.949
529.12	83.699
529.46	82.126
529.80	82.641
530.15	85.546
530.49	83.821
530.83	85.973
531.17	82.274
531.51	85.082
531.86	83.754
532.20	83.550
532.54	84.101
532.88	86.327
533.22	84.626
533.57	83.655
533.91	85.134
534.25	83.503
534.59	85.213
534.93	84.083
535.27	82.559
535.62	82.782
535.96	84.438
536.30	83.368
536.64	84.549
536.98	85.029
537.32	84.673
537.66	84.751
538.01	83.726
538.35	85.600
538.69	84.713
539.03	83.922
539.37	84.925
539.71	85.507
540.05	85.166
540.39	84.314
540.73	84.469
541.07	85.147
541.42	85.103
541.76	84.748
542.10	83.716
542.44	84.249
542.78	83.944
543.12	85.126
543.46	85.395
543.80	83.989
544.14	85.161
544.48	82.947
544.82	83.605
545.16	86.449
545.50	85.444
545.84	84.418
546.18	86.891
546.52	84.627
546.86	85.616
547.20	85.606
547.54	84.837
547.88	83.476
548.22	84.248
548.56	82.805
548.90	82.035
549.24	84.722
549.58	84.277
549.92	83.308
550.26	85.792
550.60	85.964
550.94	87.063
551.28	84.228
551.62	89.271
551.96	85.383
552.30	84.729
552.64	84.748
552.98	82.392
553.32	83.182
553.66	81.715
554.00	84.479
554.34	85.859
554.68	85.726
555.02	85.238
555.36	84.273
555.69	83.474
556.03	82.114
556.37	83.121
556.71	85.294
557.05	84.531
557.39	83.614
557.73	83.569
558.07	83.646
558.41	84.278
558.75	86.556
559.08	88.681
559.42	85.702
559.76	84.078
560.10	84.841
560.44	83.690
560.78	83.321
561.12	85.274
561.45	84.524
561.79	82.452
562.13	83.173
562.47	84.633
562.81	82.183
563.15	82.053
563.48	81.573
563.82	83.552
564.16	81.277
564.50	82.593
564.84	82.353
565.17	83.047
565.51	81.633
565.85	81.690
566.19	82.394
566.52	83.297
566.86	81.421
567.20	80.971
567.54	82.259
567.88	80.704
568.21	80.422
568.55	78.325
568.89	77.527
569.23	77.359
569.56	75.770
569.90	76.959
570.24	75.493
570.57	75.019
570.91	74.563
571.25	74.001
571.59	73.672
571.92	71.938
572.26	72.046
572.60	72.450
572.93	72.168
573.27	71.155
573.61	72.114
573.95	70.806
574.28	70.345
574.62	69.692
574.96	70.404
575.29	69.824
575.63	69.843
575.97	69.190
576.30	70.763
576.64	69.487
576.98	69.672
577.31	69.901
577.65	69.446
577.98	68.841
578.32	69.492
578.66	68.203
578.99	69.698
579.33	69.062
579.67	68.727
580.00	67.913
580.34	69.243
580.67	68.362
581.01	68.468
581.35	67.415
581.68	68.272
582.02	67.633
582.35	68.103
582.69	69.051
583.02	68.300
583.36	67.766
583.70	69.168
584.03	67.835
584.37	69.912
584.70	69.333
585.04	67.591
585.37	68.311
585.71	67.900
586.04	69.239
586.38	68.946
586.72	69.296
587.05	69.743
587.39	68.475
587.72	68.380
588.06	69.078
588.39	69.822
588.73	69.363
589.06	70.016
589.40	68.919
589.73	70.381
590.07	69.261
590.40	69.830
590.73	71.845
591.07	70.952
591.40	70.580
591.74	71.549
592.07	71.490
592.41	71.884
592.74	70.771
593.08	68.745
593.41	69.763
593.75	69.498
594.08	70.218
594.41	70.347
594.75	70.478
595.08	69.614
595.42	68.419
595.75	68.636
596.09	70.216
596.42	70.613
596.75	69.955
597.09	70.989
597.42	70.530
597.75	71.248
598.09	70.365
598.42	70.847
598.76	69.672
599.09	68.613
599.42	67.467
599.76	69.125
600.09	70.146
600.42	68.242
600.76	68.129
601.09	68.627
601.42	67.673
601.76	68.385
602.09	69.166
602.42	69.040
602.76	69.852
603.09	69.974
603.42	69.250
603.76	69.576
604.09	69.215
604.42	69.257
604.76	70.698
605.09	70.477
605.42	70.948
605.75	69.301
606.09	69.200
606.42	68.941
606.75	69.361
607.09	70.849
607.42	69.436
607.75	68.733
608.08	70.253
608.42	69.981
608.75	70.685
609.08	69.662
609.41	70.192
609.75	70.669
610.08	69.457
610.41	69.466
610.74	70.425
611.07	70.122
611.41	69.058
611.74	68.988
612.07	70.033
612.40	70.529
612.73	70.544
613.07	71.169
613.40	71.248
613.73	69.874
614.06	69.906
614.39	72.349
614.72	70.425
615.06	70.494
615.39	69.400
615.72	68.253
616.05	71.246
616.38	70.522
616.71	70.833
617.05	70.101
617.38	70.065
617.71	71.522
618.04	72.536
618.37	72.531
618.70	72.690
619.03	74.619
619.36	74.300
619.69	74.339
620.03	73.684
620.36	73.923
620.69	73.023
621.02	73.634
621.35	75.234
621.68	76.328
622.01	76.381
622.34	72.613
622.67	74.705
623.00	74.857
623.33	73.543
623.66	74.343
623.99	74.721
624.32	73.153
624.65	73.438
624.99	73.906
625.32	74.013
625.65	72.218
625.98	75.167
626.31	74.026
626.64	75.946
626.97	76.838
627.30	74.722
627.63	77.023
627.96	75.698
628.29	76.099
628.62	76.701
628.95	76.980
629.28	77.686
629.61	77.847
629.94	77.490
630.26	77.929
630.59	76.859
630.92	74.499
631.25	78.324
