SpectraSuite Data File
++++++++++++++++++++++++++++++++++++
Date: Tue May 12 19:40:26 PDT 2015
User: schluterlab
Dark Spectrum Present: Yes
Reference Spectrum Present: Yes
Number of Sampled Component Spectra: 1
Spectrometers: USB2E3373
Integration Time (usec): 3000 (USB2E3373)
Spectra Averaged: 3 (USB2E3373)
Boxcar Smoothing: 0 (USB2E3373)
Correct for Electrical Dark: No (USB2E3373)
Strobe/Lamp Enabled: No (USB2E3373)
Correct for Detector Non-linearity: No (USB2E3373)
Correct for Stray Light: No (USB2E3373)
Number of Pixels in Processed Spectrum: 2048
>>>>>Begin Processed Spectral Data<<<<<
178.53	0.000
178.91	-130.000
179.29	-50.000
179.67	500.000
180.04	0.000
180.42	0.000
180.80	-300.000
181.18	500.000
181.56	-500.000
181.94	200.000
182.31	1000.000
182.69	85.714
183.07	0.000
183.45	166.667
183.83	80.000
184.20	350.000
184.58	500.000
184.96	66.667
185.34	66.667
185.72	57.143
186.09	-33.333
186.47	-1400.000
186.85	-40.000
187.23	83.333
187.61	-171.429
187.98	60.000
188.36	350.000
188.74	-125.000
189.12	-122.222
189.49	-90.000
189.87	125.000
190.25	100.000
190.63	566.667
191.00	180.000
191.38	-266.667
191.76	320.000
192.14	-228.571
192.51	-80.000
192.89	20.000
193.27	-120.000
193.65	-66.667
194.02	-50.000
194.40	500.000
194.78	-100.000
195.15	-157.143
195.53	133.333
195.91	200.000
196.29	-175.000
196.66	-100.000
197.04	14.286
197.42	80.000
197.79	-137.500
198.17	-25.000
198.55	400.000
198.92	-66.667
199.30	200.000
199.68	-200.000
200.05	-900.000
200.43	-61.111
200.81	-108.333
201.18	300.000
201.56	-450.000
201.94	-700.000
202.31	8.333
202.69	77.778
203.07	-41.667
203.44	-100.000
203.82	0.000
204.19	187.500
204.57	-400.000
204.95	63.636
205.32	100.000
205.70	300.000
206.08	-1100.000
206.45	40.000
206.83	900.000
207.20	-44.444
207.58	-46.154
207.96	100.000
208.33	566.667
208.71	266.667
209.08	300.000
209.46	11.111
209.84	466.667
210.21	-333.333
210.59	100.000
210.96	244.444
211.34	-550.000
211.71	550.000
212.09	100.000
212.46	-12.500
212.84	-162.500
213.22	128.571
213.59	-25.000
213.97	0.000
214.34	-600.000
214.72	200.000
215.09	50.000
215.47	-6.667
215.84	-50.000
216.22	-800.000
216.59	1400.000
216.97	-25.000
217.34	116.667
217.72	50.000
218.09	275.000
218.47	-5.263
218.84	-150.000
219.22	-14.286
219.59	-70.000
219.97	-40.000
220.34	183.333
220.72	18.182
221.09	-900.000
221.47	0.000
221.84	250.000
222.22	-75.000
222.59	-75.000
222.97	-13.043
223.34	53.333
223.72	257.143
224.09	-166.667
224.46	130.769
224.84	-60.000
225.21	-350.000
225.59	-175.000
225.96	0.000
226.34	333.333
226.71	170.000
227.08	-30.769
227.46	57.143
227.83	41.667
228.21	-950.000
228.58	133.333
228.95	-5.263
229.33	37.500
229.70	-150.000
230.08	33.333
230.45	33.333
230.82	-1600.000
231.20	19.048
231.57	-280.000
231.95	-433.333
232.32	133.333
232.69	-350.000
233.07	-37.500
233.44	-62.500
233.81	12.903
234.19	-360.000
234.56	0.000
234.93	-233.333
235.31	25.926
235.68	-3.704
236.05	7.692
236.43	-31.579
236.80	4.545
237.17	-78.571
237.55	-45.000
237.92	4.651
238.29	-22.581
238.67	3.571
239.04	5.714
239.41	7.843
239.79	14.000
240.16	-7.500
240.53	13.793
240.91	9.589
241.28	-5.634
241.65	-1.563
242.02	-1.754
242.40	-6.667
242.77	16.842
243.14	20.000
243.51	6.452
243.89	-1.905
244.26	10.185
244.63	9.184
245.00	-4.464
245.38	3.361
245.75	2.542
246.12	9.375
246.49	8.000
246.87	4.918
247.24	1.408
247.61	9.272
247.98	11.798
248.36	6.289
248.73	8.523
249.10	6.111
249.47	6.250
249.84	7.614
250.22	1.042
250.59	8.427
250.96	2.273
251.33	14.151
251.70	6.422
252.08	12.121
252.45	16.327
252.82	5.485
253.19	8.560
253.56	13.725
253.94	11.382
254.31	16.906
254.68	9.722
255.05	12.914
255.42	10.545
255.79	10.596
256.16	12.153
256.54	12.727
256.91	15.705
257.28	10.714
257.65	7.541
258.02	14.414
258.39	12.387
258.76	9.480
259.14	6.765
259.51	13.521
259.88	13.256
260.25	11.080
260.62	10.112
260.99	11.421
261.36	9.770
261.73	9.600
262.10	13.624
262.47	12.672
262.85	10.540
263.22	9.140
263.59	10.992
263.96	10.705
264.33	7.547
264.70	10.811
265.07	10.345
265.44	13.817
265.81	12.771
266.18	11.475
266.55	11.429
266.92	11.607
267.29	13.111
267.66	7.045
268.03	12.903
268.40	10.984
268.77	13.586
269.14	9.874
269.51	10.860
269.88	12.179
270.25	10.759
270.62	12.395
270.99	12.000
271.36	11.700
271.73	12.083
272.10	10.581
272.47	9.200
272.84	10.191
273.21	11.482
273.58	10.000
273.95	10.558
274.32	10.445
274.69	14.481
275.06	12.383
275.43	9.800
275.80	14.532
276.17	10.079
276.54	12.357
276.91	10.365
277.28	12.186
277.65	10.775
278.02	13.068
278.39	12.704
278.76	11.732
279.13	12.165
279.50	10.830
279.87	12.264
280.23	10.200
280.60	10.777
280.97	11.775
281.34	10.000
281.71	9.947
282.08	12.343
282.45	10.935
282.82	9.764
283.19	11.448
283.56	12.799
283.92	12.796
284.29	13.029
284.66	11.327
285.03	9.605
285.40	12.333
285.77	11.002
286.14	11.886
286.51	11.897
286.87	11.831
287.24	9.135
287.61	10.648
287.98	11.894
288.35	11.473
288.72	13.150
289.08	11.321
289.45	10.920
289.82	10.714
290.19	9.697
290.56	10.564
290.93	11.226
291.29	11.064
291.66	9.972
292.03	11.334
292.40	11.799
292.77	10.350
293.13	12.335
293.50	9.917
293.87	9.431
294.24	9.410
294.60	10.519
294.97	9.003
295.34	10.274
295.71	9.570
296.08	10.519
296.44	10.277
296.81	8.926
297.18	9.185
297.55	10.050
297.91	10.406
298.28	9.335
298.65	8.797
299.02	10.481
299.38	9.311
299.75	9.138
300.12	9.832
300.48	9.624
300.85	7.946
301.22	10.096
301.59	8.637
301.95	8.537
302.32	9.478
302.69	8.086
303.05	8.855
303.42	8.333
303.79	7.978
304.15	8.041
304.52	8.380
304.89	8.906
305.25	8.601
305.62	9.091
305.99	8.063
306.35	7.942
306.72	9.695
307.09	8.379
307.45	7.012
307.82	9.072
308.19	9.791
308.55	8.439
308.92	7.945
309.29	7.636
309.65	8.566
310.02	8.910
310.38	8.209
310.75	7.787
311.12	7.325
311.48	8.839
311.85	8.004
312.22	8.678
312.58	8.862
312.95	8.727
313.31	8.161
313.68	7.944
314.05	9.235
314.41	8.153
314.78	7.538
315.14	8.913
315.51	9.533
315.87	9.277
316.24	9.199
316.61	7.767
316.97	7.745
317.34	8.517
317.70	8.217
318.07	6.654
318.43	9.168
318.80	8.197
319.16	8.388
319.53	8.396
319.89	8.807
320.26	8.948
320.62	9.593
320.99	8.469
321.35	9.684
321.72	9.394
322.08	9.505
322.45	8.284
322.81	9.458
323.18	8.917
323.54	8.815
323.91	7.400
324.27	7.907
324.64	7.404
325.00	7.461
325.37	9.712
325.73	6.843
326.10	8.144
326.46	7.797
326.83	7.828
327.19	8.734
327.56	8.842
327.92	8.333
328.29	9.946
328.65	8.098
329.01	8.624
329.38	7.254
329.74	8.821
330.11	7.922
330.47	8.101
330.84	8.271
331.20	9.057
331.56	7.830
331.93	6.679
332.29	7.863
332.66	7.957
333.02	8.821
333.38	7.996
333.75	8.783
334.11	8.499
334.48	8.229
334.84	7.324
335.20	9.132
335.57	8.992
335.93	8.186
336.29	8.592
336.66	8.197
337.02	8.885
337.38	7.264
337.75	9.091
338.11	9.572
338.47	8.821
338.84	8.379
339.20	8.799
339.56	7.269
339.93	8.108
340.29	8.613
340.65	7.945
341.02	7.795
341.38	8.208
341.74	8.541
342.11	7.427
342.47	9.003
342.83	8.846
343.20	8.134
343.56	7.780
343.92	8.574
344.28	7.461
344.65	7.791
345.01	7.927
345.37	8.632
345.73	8.010
346.10	8.816
346.46	7.161
346.82	8.156
347.19	7.401
347.55	8.759
347.91	7.617
348.27	8.509
348.63	7.692
349.00	8.932
349.36	8.656
349.72	8.210
350.08	8.347
350.45	9.357
350.81	9.496
351.17	7.990
351.53	8.052
351.89	7.945
352.26	8.699
352.62	9.485
352.98	8.954
353.34	9.273
353.70	8.807
354.07	9.226
354.43	8.013
354.79	8.934
355.15	7.506
355.51	8.802
355.87	9.992
356.24	10.539
356.60	8.347
356.96	8.610
357.32	8.971
357.68	9.228
358.04	8.914
358.40	9.656
358.77	9.317
359.13	8.835
359.49	8.240
359.85	9.432
360.21	9.120
360.57	8.373
360.93	8.868
361.29	8.178
361.66	8.360
362.02	9.576
362.38	10.101
362.74	9.301
363.10	8.371
363.46	8.653
363.82	9.035
364.18	9.235
364.54	9.084
364.90	8.296
365.26	9.091
365.62	8.706
365.98	9.445
366.35	8.623
366.71	8.962
367.07	8.930
367.43	8.592
367.79	8.212
368.15	8.599
368.51	9.139
368.87	9.471
369.23	9.235
369.59	9.779
369.95	7.824
370.31	9.242
370.67	9.549
371.03	8.514
371.39	8.912
371.75	9.584
372.11	8.741
372.47	9.057
372.83	7.889
373.19	8.810
373.55	9.581
373.91	8.106
374.27	9.492
374.63	8.984
374.99	8.126
375.35	7.765
375.71	8.465
376.07	9.187
376.42	8.299
376.78	7.666
377.14	8.170
377.50	8.687
377.86	8.774
378.22	9.181
378.58	8.947
378.94	9.758
379.30	8.301
379.66	8.643
380.02	8.328
380.38	8.079
380.74	8.204
381.09	8.895
381.45	8.762
381.81	8.737
382.17	8.534
382.53	9.073
382.89	8.018
383.25	8.307
383.61	8.328
383.97	8.057
384.32	8.903
384.68	9.579
385.04	8.721
385.40	8.498
385.76	8.982
386.12	8.515
386.48	8.937
386.83	7.966
387.19	9.323
387.55	7.578
387.91	8.287
388.27	8.509
388.62	7.578
388.98	8.779
389.34	8.003
389.70	8.654
390.06	8.911
390.42	8.519
390.77	7.914
391.13	9.174
391.49	8.288
391.85	8.782
392.20	8.317
392.56	7.728
392.92	8.844
393.28	8.498
393.64	8.550
393.99	7.662
394.35	8.306
394.71	7.881
395.07	9.284
395.42	8.254
395.78	8.132
396.14	7.129
396.50	8.603
396.85	9.253
397.21	7.633
397.57	7.966
397.92	8.588
398.28	7.974
398.64	8.317
399.00	9.054
399.35	8.499
399.71	7.904
400.07	8.030
400.42	8.462
400.78	8.061
401.14	8.460
401.49	7.995
401.85	8.889
402.21	7.931
402.57	7.083
402.92	9.230
403.28	9.233
403.63	9.038
403.99	8.653
404.35	8.726
404.70	8.550
405.06	7.936
405.42	8.068
405.77	8.621
406.13	8.781
406.49	7.382
406.84	9.340
407.20	8.426
407.55	8.884
407.91	7.832
408.27	8.245
408.62	8.682
408.98	9.459
409.34	8.515
409.69	8.027
410.05	8.290
410.40	8.606
410.76	8.717
411.11	7.046
411.47	8.095
411.83	8.178
412.18	8.770
412.54	8.603
412.89	7.707
413.25	8.464
413.60	8.610
413.96	8.091
414.31	7.266
414.67	9.183
415.03	8.299
415.38	8.635
415.74	9.469
416.09	8.822
416.45	9.130
416.80	7.093
417.16	8.815
417.51	8.536
417.87	9.234
418.22	9.158
418.58	8.362
418.93	8.833
419.29	8.345
419.64	8.654
420.00	8.317
420.35	9.040
420.71	9.219
421.06	9.215
421.42	8.407
421.77	9.135
422.12	8.506
422.48	8.966
422.83	9.301
423.19	8.941
423.54	8.613
423.90	8.714
424.25	8.701
424.61	8.710
424.96	9.029
425.31	7.669
425.67	8.485
426.02	8.758
426.38	8.172
426.73	8.910
427.09	8.864
427.44	8.457
427.79	9.158
428.15	8.878
428.50	9.045
428.85	8.980
429.21	9.205
429.56	8.674
429.92	8.599
430.27	7.893
430.62	8.924
430.98	9.027
431.33	8.843
431.68	8.917
432.04	8.803
432.39	7.962
432.74	9.045
433.10	9.400
433.45	8.613
433.80	9.464
434.16	8.861
434.51	9.197
434.86	8.218
435.22	7.858
435.57	8.443
435.92	7.554
436.28	8.593
436.63	9.362
436.98	8.765
437.34	9.341
437.69	8.210
438.04	8.173
438.39	8.747
438.75	8.431
439.10	9.821
439.45	9.820
439.81	8.635
440.16	7.730
440.51	8.674
440.86	9.091
441.22	9.113
441.57	9.288
441.92	8.780
442.27	8.743
442.63	9.368
442.98	9.108
443.33	8.931
443.68	8.708
444.03	9.330
444.39	8.798
444.74	9.273
445.09	9.150
445.44	8.746
445.79	9.331
446.15	8.455
446.50	8.618
446.85	9.791
447.20	7.987
447.55	9.366
447.91	9.347
448.26	9.021
448.61	8.822
448.96	9.048
449.31	9.403
449.66	9.019
450.02	7.870
450.37	8.748
450.72	9.037
451.07	8.701
451.42	8.959
451.77	8.449
452.12	8.960
452.47	8.604
452.83	9.714
453.18	8.710
453.53	10.059
453.88	9.700
454.23	9.649
454.58	9.269
454.93	8.447
455.28	8.961
455.63	9.487
455.98	9.962
456.34	9.310
456.69	8.395
457.04	8.530
457.39	9.613
457.74	9.229
458.09	8.587
458.44	9.258
458.79	8.304
459.14	9.362
459.49	10.382
459.84	9.810
460.19	9.381
460.54	8.838
460.89	8.941
461.24	9.610
461.59	10.221
461.94	9.599
462.29	9.461
462.64	10.097
462.99	9.137
463.34	9.890
463.69	9.877
464.04	9.686
464.39	9.003
464.74	9.669
465.09	10.161
465.44	8.998
465.79	9.326
466.14	9.427
466.49	10.291
466.84	8.968
467.19	9.032
467.54	9.085
467.89	9.406
468.24	9.154
468.59	9.097
468.94	9.146
469.29	9.758
469.64	9.482
469.99	9.445
470.34	8.699
470.68	10.231
471.03	9.270
471.38	8.751
471.73	9.884
472.08	10.320
472.43	10.097
472.78	9.282
473.13	10.386
473.48	10.581
473.83	11.162
474.17	9.873
474.52	10.717
474.87	9.848
475.22	10.419
475.57	9.812
475.92	9.323
476.27	10.187
476.61	9.811
476.96	10.136
477.31	10.788
477.66	10.575
478.01	9.005
478.36	9.570
478.70	10.085
479.05	9.692
479.40	9.453
479.75	9.254
480.10	9.848
480.45	10.209
480.79	10.016
481.14	9.331
481.49	9.923
481.84	10.051
482.19	10.049
482.53	10.294
482.88	9.456
483.23	10.050
483.58	10.297
483.92	9.899
484.27	10.165
484.62	9.665
484.97	9.666
485.31	10.286
485.66	9.172
486.01	9.345
486.36	9.104
486.70	9.098
487.05	9.105
487.40	9.194
487.75	9.362
488.09	9.524
488.44	9.477
488.79	9.709
489.13	9.892
489.48	10.071
489.83	9.524
490.17	10.314
490.52	10.373
490.87	10.040
491.22	10.602
491.56	10.128
491.91	10.141
492.26	11.525
492.60	10.765
492.95	10.062
493.30	10.298
493.64	9.787
493.99	10.318
494.34	10.846
494.68	10.059
495.03	10.193
495.37	9.782
495.72	10.127
496.07	11.004
496.41	10.277
496.76	10.602
497.11	10.635
497.45	10.547
497.80	10.488
498.14	10.929
498.49	10.838
498.84	10.220
499.18	10.379
499.53	10.800
499.87	10.753
500.22	10.909
500.56	10.675
500.91	11.379
501.26	10.341
501.60	11.111
501.95	9.980
502.29	10.159
502.64	10.403
502.98	10.399
503.33	10.035
503.67	10.056
504.02	10.827
504.36	10.272
504.71	11.436
505.06	10.873
505.40	11.153
505.75	10.479
506.09	10.780
506.44	10.730
506.78	10.974
507.13	11.021
507.47	11.191
507.82	9.654
508.16	11.136
508.51	11.214
508.85	10.879
509.19	11.794
509.54	11.501
509.88	10.069
510.23	11.461
510.57	10.789
510.92	11.054
511.26	11.086
511.61	11.073
511.95	11.799
512.30	11.246
512.64	11.378
512.98	11.813
513.33	10.375
513.67	10.958
514.02	10.036
514.36	11.151
514.70	11.840
515.05	11.890
515.39	11.794
515.74	11.090
516.08	11.174
516.42	11.560
516.77	10.994
517.11	11.315
517.46	11.430
517.80	10.976
518.14	12.524
518.49	11.772
518.83	12.062
519.17	11.697
519.52	11.993
519.86	11.526
520.20	11.210
520.55	11.619
520.89	12.551
521.23	12.625
521.58	11.971
521.92	11.883
522.26	12.440
522.61	12.287
522.95	12.260
523.29	11.538
523.64	11.669
523.98	11.828
524.32	13.064
524.66	11.353
525.01	12.715
525.35	11.491
525.69	12.182
526.04	12.685
526.38	12.817
526.72	12.014
527.06	12.447
527.41	12.119
527.75	12.204
528.09	11.669
528.43	12.544
528.78	12.369
529.12	11.986
529.46	11.894
529.80	12.389
530.15	12.370
530.49	13.319
530.83	11.352
531.17	12.359
531.51	11.920
531.86	12.815
532.20	11.688
532.54	12.590
532.88	12.655
533.22	12.787
533.57	11.931
533.91	12.044
534.25	12.220
534.59	12.311
534.93	11.820
535.27	12.929
535.62	12.424
535.96	11.793
536.30	13.500
536.64	13.305
536.98	11.357
537.32	12.054
537.66	11.730
538.01	12.445
538.35	12.000
538.69	11.253
539.03	12.906
539.37	12.276
539.71	13.333
540.05	12.301
540.39	13.072
540.73	13.260
541.07	12.941
541.42	12.188
541.76	13.165
542.10	11.693
542.44	13.439
542.78	12.170
543.12	11.191
543.46	13.189
543.80	12.366
544.14	13.620
544.48	12.070
544.82	12.420
545.16	12.029
545.50	12.737
545.84	13.606
546.18	13.333
546.52	12.452
546.86	12.471
547.20	13.258
547.54	12.964
547.88	12.536
548.22	11.744
548.56	12.333
548.90	12.491
549.24	12.500
549.58	12.891
549.92	12.857
550.26	13.514
550.60	13.402
550.94	12.222
551.28	13.496
551.62	12.940
551.96	13.658
552.30	12.481
552.64	12.772
552.98	12.704
553.32	12.121
553.66	13.354
554.00	12.432
554.34	12.891
554.68	12.998
555.02	13.095
555.36	11.994
555.69	11.914
556.03	12.860
556.37	12.903
556.71	12.594
557.05	12.344
557.39	13.012
557.73	13.443
558.07	13.067
558.41	12.530
558.75	13.361
559.08	13.702
559.42	13.127
559.76	13.142
560.10	12.388
560.44	11.481
560.78	12.472
561.12	12.246
561.45	11.979
561.79	12.628
562.13	12.676
562.47	13.150
562.81	12.282
563.15	12.015
563.48	12.060
563.82	12.082
564.16	12.192
564.50	12.393
564.84	13.749
565.17	11.874
565.51	12.315
565.85	13.099
566.19	12.109
566.52	12.688
566.86	13.251
567.20	13.240
567.54	11.615
567.88	11.529
568.21	11.723
568.55	11.828
568.89	11.429
569.23	11.948
569.56	11.448
569.90	10.878
570.24	11.742
570.57	11.099
570.91	11.099
571.25	11.605
571.59	11.148
571.92	11.101
572.26	10.707
572.60	10.680
572.93	10.642
573.27	10.545
573.61	11.018
573.95	10.382
574.28	10.041
574.62	10.146
574.96	10.352
575.29	10.170
575.63	10.115
575.97	10.390
576.30	10.758
576.64	10.226
576.98	10.323
577.31	10.262
577.65	10.185
577.98	10.364
578.32	10.513
578.66	10.209
578.99	10.845
579.33	10.202
579.67	10.329
580.00	10.177
580.34	10.676
580.67	10.427
581.01	11.009
581.35	10.301
581.68	10.000
582.02	10.095
582.35	10.261
582.69	10.277
583.02	10.423
583.36	10.344
583.70	10.591
584.03	10.490
584.37	10.933
584.70	10.638
585.04	10.417
585.37	10.146
585.71	10.096
586.04	10.513
586.38	10.624
586.72	10.598
587.05	10.825
587.39	10.996
587.72	10.586
588.06	10.737
588.39	10.780
588.73	10.962
589.06	11.005
589.40	11.052
589.73	11.182
590.07	10.608
590.40	11.032
590.73	11.912
591.07	11.212
591.40	10.964
591.74	11.381
592.07	11.939
592.41	11.293
592.74	11.547
593.08	11.082
593.41	10.490
593.75	11.392
594.08	10.797
594.41	11.153
594.75	11.355
595.08	10.791
595.42	11.453
595.75	11.250
596.09	10.809
596.42	10.951
596.75	11.773
597.09	11.194
597.42	10.746
597.75	11.961
598.09	11.142
598.42	11.973
598.76	10.565
599.09	11.639
599.42	11.094
599.76	10.867
600.09	10.676
600.42	10.742
600.76	11.085
601.09	11.176
601.42	11.272
601.76	11.161
602.09	11.395
602.42	11.463
602.76	11.606
603.09	10.879
603.42	11.797
603.76	10.449
604.09	11.278
604.42	11.464
604.76	10.589
605.09	11.479
605.42	11.801
605.75	11.238
606.09	11.733
606.42	11.330
606.75	11.767
607.09	11.427
607.42	11.703
607.75	11.387
608.08	11.366
608.42	11.009
608.75	10.955
609.08	11.156
609.41	12.390
609.75	11.164
610.08	11.421
610.41	11.094
610.74	12.083
611.07	11.370
611.41	11.242
611.74	11.643
612.07	11.775
612.40	11.699
612.73	11.574
613.07	11.450
613.40	11.616
613.73	11.741
614.06	11.358
614.39	11.482
614.72	11.924
615.06	12.457
615.39	11.316
615.72	11.478
616.05	11.594
616.38	11.803
616.71	12.002
617.05	12.186
617.38	11.935
617.71	11.365
618.04	12.943
618.37	11.511
618.70	12.908
619.03	11.893
619.36	12.371
619.69	10.964
620.03	12.586
620.36	11.640
620.69	11.678
621.02	11.481
621.35	11.915
621.68	14.041
622.01	12.923
622.34	12.982
622.67	13.153
623.00	13.104
623.33	12.283
623.66	13.068
623.99	13.078
624.32	13.026
624.65	11.328
624.99	12.500
625.32	12.164
625.65	11.449
625.98	13.250
626.31	11.861
626.64	13.063
626.97	13.971
627.30	12.685
627.63	14.233
627.96	12.384
628.29	14.340
628.62	14.330
628.95	14.044
629.28	13.430
629.61	14.629
629.94	13.071
630.26	14.435
630.59	13.298
630.92	13.277
631.25	13.184
631.58	13.605
631.91	13.667
632.24	13.728
632.57	14.625
632.90	14.022
633.23	14.065
633.56	14.340
633.89	13.456
634.22	15.641
634.55	14.192
634.88	15.529
635.20	14.658
635.53	16.201
635.86	16.712
636.19	13.506
636.52	16.577
636.85	12.777
637.18	15.026
637.51	13.415
637.83	14.665
638.16	15.078
638.49	16.138
638.82	15.331
639.15	13.571
639.48	12.518
639.81	14.903
640.13	14.395
640.46	13.386
640.79	14.109
641.12	15.194
641.45	16.641
641.77	13.376
642.10	15.798
642.43	16.330
642.76	17.025
643.09	16.609
643.41	13.262
643.74	15.625
644.07	13.933
644.40	13.899
644.73	14.365
645.05	15.649
645.38	14.231
