SpectraSuite Data File
++++++++++++++++++++++++++++++++++++
Date: Tue May 12 19:48:20 PDT 2015
User: schluterlab
Dark Spectrum Present: Yes
Reference Spectrum Present: Yes
Number of Sampled Component Spectra: 1
Spectrometers: USB2E3373
Integration Time (usec): 3000 (USB2E3373)
Spectra Averaged: 3 (USB2E3373)
Boxcar Smoothing: 0 (USB2E3373)
Correct for Electrical Dark: No (USB2E3373)
Strobe/Lamp Enabled: No (USB2E3373)
Correct for Detector Non-linearity: No (USB2E3373)
Correct for Stray Light: No (USB2E3373)
Number of Pixels in Processed Spectrum: 2048
>>>>>Begin Processed Spectral Data<<<<<
178.53	0.000
178.91	-130.000
179.29	-216.667
179.67	433.333
180.04	0.000
180.42	-200.000
180.80	-633.333
181.18	1350.000
181.56	-350.000
181.94	383.333
182.31	1900.000
182.69	-142.857
183.07	0.000
183.45	208.333
183.83	380.000
184.20	350.000
184.58	1450.000
184.96	366.667
185.34	-500.000
185.72	-92.857
186.09	-283.333
186.47	-2000.000
186.85	-160.000
187.23	133.333
187.61	-157.143
187.98	-360.000
188.36	750.000
188.74	-275.000
189.12	-77.778
189.49	-70.000
189.87	400.000
190.25	300.000
190.63	333.333
191.00	420.000
191.38	-466.667
191.76	400.000
192.14	-200.000
192.51	-90.000
192.89	-140.000
193.27	-240.000
193.65	-366.667
194.02	-216.667
194.40	1100.000
194.78	-125.000
195.15	-185.714
195.53	466.667
195.91	420.000
196.29	-500.000
196.66	-466.667
197.04	-257.143
197.42	200.000
197.79	-225.000
198.17	-83.333
198.55	0.000
198.92	-188.889
199.30	400.000
199.68	-400.000
200.05	-300.000
200.43	-83.333
200.81	-158.333
201.18	233.333
201.56	-850.000
201.94	-1200.000
202.31	-33.333
202.69	-22.222
203.07	-83.333
203.44	-425.000
203.82	0.000
204.19	300.000
204.57	-533.333
204.95	100.000
205.32	360.000
205.70	175.000
206.08	-700.000
206.45	-200.000
206.83	1700.000
207.20	-188.889
207.58	-53.846
207.96	600.000
208.33	666.667
208.71	433.333
209.08	750.000
209.46	-111.111
209.84	666.667
210.21	-733.333
210.59	700.000
210.96	222.222
211.34	-275.000
211.71	500.000
212.09	40.000
212.46	-62.500
212.84	-250.000
213.22	157.143
213.59	-87.500
213.97	0.000
214.34	-550.000
214.72	-1500.000
215.09	600.000
215.47	-73.333
215.84	-75.000
216.22	-1000.000
216.59	1700.000
216.97	-116.667
217.34	-200.000
217.72	22.222
218.09	525.000
218.47	-26.316
218.84	-175.000
219.22	7.143
219.59	-50.000
219.97	-150.000
220.34	333.333
220.72	18.182
221.09	-1350.000
221.47	0.000
221.84	1050.000
222.22	-275.000
222.59	-325.000
222.97	-30.435
223.34	186.667
223.72	357.143
224.09	-183.333
224.46	169.231
224.84	33.333
225.21	-350.000
225.59	-175.000
225.96	20.000
226.34	383.333
226.71	140.000
227.08	-153.846
227.46	-114.286
227.83	-33.333
228.21	-550.000
228.58	350.000
228.95	-15.789
229.33	-75.000
229.70	-200.000
230.08	-144.444
230.45	-400.000
230.82	-1600.000
231.20	-19.048
231.57	-440.000
231.95	-833.333
232.32	211.111
232.69	-1050.000
233.07	-6.250
233.44	-112.500
233.81	29.032
234.19	-200.000
234.56	-77.778
234.93	-100.000
235.31	3.704
235.68	14.815
236.05	-30.769
236.43	-47.368
236.80	-54.545
237.17	-157.143
237.55	-85.000
237.92	-13.953
238.29	-6.452
238.67	-14.286
239.04	17.143
239.41	13.725
239.79	12.000
240.16	-10.000
240.53	-15.517
240.91	6.849
241.28	-11.268
241.65	0.000
242.02	3.509
242.40	10.667
242.77	16.842
243.14	11.765
243.51	11.828
243.89	7.619
244.26	18.519
244.63	5.102
245.00	8.929
245.38	-0.840
245.75	13.559
246.12	16.406
246.49	10.400
246.87	17.213
247.24	11.972
247.61	16.556
247.98	16.292
248.36	6.289
248.73	16.477
249.10	13.333
249.47	12.500
249.84	10.152
250.22	9.896
250.59	14.045
250.96	18.636
251.33	18.396
251.70	18.807
252.08	19.048
252.45	15.510
252.82	16.456
253.19	18.288
253.56	19.608
253.94	17.480
254.31	21.942
254.68	21.181
255.05	22.517
255.42	17.818
255.79	24.503
256.16	15.972
256.54	21.212
256.91	21.795
257.28	18.182
257.65	12.787
258.02	20.120
258.39	19.637
258.76	20.183
259.14	16.765
259.51	24.225
259.88	21.902
260.25	17.614
260.62	18.539
260.99	18.942
261.36	20.977
261.73	25.067
262.10	22.616
262.47	19.835
262.85	22.622
263.22	19.624
263.59	22.520
263.96	19.060
264.33	18.329
264.70	22.850
265.07	20.443
265.44	22.951
265.81	22.169
266.18	22.248
266.55	20.476
266.92	21.652
267.29	20.444
267.66	19.318
268.03	21.505
268.40	21.053
268.77	20.713
269.14	19.538
269.51	21.719
269.88	19.658
270.25	21.519
270.62	24.370
270.99	20.421
271.36	19.647
271.73	22.500
272.10	20.332
272.47	19.600
272.84	20.382
273.21	17.537
273.58	19.592
273.95	19.522
274.32	21.277
274.69	23.092
275.06	22.326
275.43	21.400
275.80	21.606
276.17	20.949
276.54	23.384
276.91	21.881
277.28	23.985
277.65	20.605
278.02	21.023
278.39	23.412
278.76	21.974
279.13	22.004
279.50	20.939
279.87	20.000
280.23	19.672
280.60	19.611
280.97	22.496
281.34	20.339
281.71	20.604
282.08	20.751
282.45	20.282
282.82	21.044
283.19	19.360
283.56	22.526
283.92	21.485
284.29	23.350
284.66	19.646
285.03	18.868
285.40	21.667
285.77	21.346
286.14	20.285
286.51	20.579
286.87	20.583
287.24	20.673
287.61	20.679
287.98	22.066
288.35	21.705
288.72	22.630
289.08	19.340
289.45	20.125
289.82	20.652
290.19	18.636
290.56	19.392
290.93	20.236
291.29	20.284
291.66	19.803
292.03	19.369
292.40	19.856
292.77	19.534
293.13	18.502
293.50	17.493
293.87	19.695
294.24	19.382
294.60	20.082
294.97	17.036
295.34	19.863
295.71	17.198
296.08	19.809
296.44	20.553
296.81	17.335
297.18	20.699
297.55	18.467
297.91	18.782
298.28	16.496
298.65	16.559
299.02	18.002
299.38	17.730
299.75	18.275
300.12	17.866
300.48	17.840
300.85	15.770
301.22	18.870
301.59	15.937
301.95	17.317
302.32	16.768
302.69	15.696
303.05	17.001
303.42	16.304
303.79	16.404
304.15	18.686
304.52	16.648
304.89	17.024
305.25	17.431
305.62	16.705
305.99	17.021
306.35	16.667
306.72	17.429
307.09	16.104
307.45	16.397
307.82	17.182
308.19	16.942
308.55	17.300
308.92	18.114
309.29	17.259
309.65	17.234
310.02	16.981
310.38	16.418
310.75	16.598
311.12	17.803
311.48	18.088
311.85	16.109
312.22	18.698
312.58	17.221
312.95	17.146
313.31	18.977
313.68	17.875
314.05	18.967
314.41	18.075
314.78	16.884
315.14	19.785
315.51	19.067
315.87	19.531
316.24	19.585
316.61	20.485
316.97	20.588
317.34	21.531
317.70	20.355
318.07	20.733
318.43	21.645
318.80	21.403
319.16	21.156
319.53	23.113
319.89	21.780
320.26	24.287
320.62	24.419
320.99	25.918
321.35	26.186
321.72	26.970
322.08	25.743
322.45	28.205
322.81	27.586
323.18	28.667
323.54	28.057
323.91	29.412
324.27	28.351
324.64	29.053
325.00	29.663
325.37	30.845
325.73	30.292
326.10	31.874
326.46	32.820
326.83	33.597
327.19	35.109
327.56	36.516
327.92	35.069
328.29	36.470
328.65	38.041
329.01	37.064
329.38	37.557
329.74	38.626
330.11	37.558
330.47	38.175
330.84	38.440
331.20	39.094
331.56	40.189
331.93	40.439
332.29	39.500
332.66	42.224
333.02	42.433
333.38	42.647
333.75	39.890
334.11	41.591
334.48	40.161
334.84	40.845
335.20	41.003
335.57	43.324
335.93	41.302
336.29	42.505
336.66	42.350
337.02	42.430
337.38	44.151
337.75	42.182
338.11	45.123
338.47	43.640
338.84	43.370
339.20	44.088
339.56	44.082
339.93	44.144
340.29	43.880
340.65	45.388
341.02	44.198
341.38	44.925
341.74	44.217
342.11	44.562
342.47	43.881
342.83	45.013
343.20	47.038
343.56	45.367
343.92	44.969
344.28	44.254
344.65	45.976
345.01	46.254
345.37	46.581
345.73	46.512
346.10	47.018
346.46	46.506
346.82	47.664
347.19	46.426
347.55	47.534
347.91	46.929
348.27	47.094
348.63	47.710
349.00	47.913
349.36	47.650
349.72	48.933
350.08	47.218
350.45	48.657
350.81	48.307
351.17	49.259
351.53	48.068
351.89	51.295
352.26	48.049
352.62	50.123
352.98	49.874
353.34	49.958
353.70	48.971
354.07	49.506
354.43	50.000
354.79	50.656
355.15	50.282
355.51	50.367
355.87	52.706
356.24	52.941
356.60	51.836
356.96	50.711
357.32	52.428
357.68	51.870
358.04	53.809
358.40	52.291
358.77	52.289
359.13	53.333
359.49	51.520
359.85	54.117
360.21	54.401
360.57	54.625
360.93	54.394
361.29	53.037
361.66	53.549
362.02	56.593
362.38	56.333
362.74	56.418
363.10	55.279
363.46	54.477
363.82	55.972
364.18	56.321
364.54	56.641
364.90	57.407
365.26	56.259
365.62	57.532
365.98	58.696
366.35	58.699
366.71	57.506
367.07	58.303
367.43	56.390
367.79	58.430
368.15	58.488
368.51	59.026
368.87	59.838
369.23	59.198
369.59	58.529
369.95	59.985
370.31	61.364
370.67	60.977
371.03	60.604
371.39	60.876
371.75	58.692
372.11	60.148
372.47	60.653
372.83	63.185
373.19	61.973
373.55	62.500
373.91	61.439
374.27	63.503
374.63	61.561
374.99	63.543
375.35	62.627
375.71	62.410
376.07	62.756
376.42	64.039
376.78	63.902
377.14	63.408
377.50	62.996
377.86	64.554
378.22	63.540
378.58	65.263
378.94	64.309
379.30	64.028
379.66	65.429
380.02	64.908
380.38	65.776
380.74	64.823
381.09	65.502
381.45	65.968
381.81	65.753
382.17	65.863
382.53	67.916
382.89	66.132
383.25	65.758
383.61	67.769
383.97	66.862
384.32	66.129
384.68	66.411
385.04	66.836
385.40	65.879
385.76	65.971
386.12	66.601
386.48	66.928
386.83	67.676
387.19	66.922
387.55	66.839
387.91	67.539
388.27	67.946
388.62	68.070
388.98	69.211
389.34	67.014
389.70	69.808
390.06	68.779
390.42	69.101
390.77	68.612
391.13	68.380
391.49	69.744
391.85	68.929
392.20	69.505
392.56	68.500
392.92	70.006
393.28	68.821
393.64	69.474
393.99	68.701
394.35	69.890
394.71	69.934
395.07	68.966
395.42	69.460
395.78	68.884
396.14	69.221
396.50	67.788
396.85	66.755
397.21	69.211
397.57	69.717
397.92	69.529
398.28	71.103
398.64	68.952
399.00	68.253
399.35	69.988
399.71	70.000
400.07	67.881
400.42	68.910
400.78	69.674
401.14	68.056
401.49	68.457
401.85	70.032
402.21	69.416
402.57	68.191
402.92	69.256
403.28	68.531
403.63	66.923
403.99	67.107
404.35	67.898
404.70	68.778
405.06	69.498
405.42	68.380
405.77	67.479
406.13	67.682
406.49	68.770
406.84	67.995
407.20	67.286
407.55	69.272
407.91	68.951
408.27	69.415
408.62	67.010
408.98	68.211
409.34	67.093
409.69	66.154
410.05	67.552
410.40	65.960
410.76	67.123
411.11	67.679
411.47	67.959
411.83	66.452
412.18	67.343
412.54	66.947
412.89	67.422
413.25	68.589
413.60	68.495
413.96	66.214
414.31	65.456
414.67	68.265
415.03	67.566
415.38	67.549
415.74	67.092
416.09	66.919
416.45	67.374
416.80	66.968
417.16	66.714
417.51	68.633
417.87	68.536
418.22	66.845
418.58	67.726
418.93	66.344
419.29	67.096
419.64	69.643
420.00	65.815
420.35	67.043
420.71	67.029
421.06	67.813
421.42	66.499
421.77	66.991
422.12	65.800
422.48	66.476
422.83	66.565
423.19	66.824
423.54	67.013
423.90	67.058
424.25	67.674
424.61	67.677
424.96	65.295
425.31	67.089
425.67	67.879
426.02	66.646
426.38	66.023
426.73	65.607
427.09	65.857
427.44	65.926
427.79	66.646
428.15	65.187
428.50	67.023
428.85	66.004
429.21	68.081
429.56	66.243
429.92	65.116
430.27	64.907
430.62	66.144
430.98	64.428
431.33	66.129
431.68	65.864
432.04	67.261
432.39	64.468
432.74	64.832
433.10	65.979
433.45	66.181
433.80	66.190
434.16	64.442
434.51	65.385
434.86	66.344
435.22	64.726
435.57	67.480
435.92	63.963
436.28	65.068
436.63	65.891
436.98	66.481
437.34	67.370
437.69	65.185
438.04	66.887
438.39	67.102
438.75	64.738
439.10	65.714
439.45	66.816
439.81	65.016
440.16	65.925
440.51	64.622
440.86	65.530
441.22	65.456
441.57	65.470
441.92	65.986
442.27	65.600
442.63	65.858
442.98	66.137
443.33	65.100
443.68	64.282
444.03	63.969
444.39	65.018
444.74	65.770
445.09	66.352
445.44	64.431
445.79	66.505
446.15	66.006
446.50	64.951
446.85	65.457
447.20	64.606
447.55	64.282
447.91	66.079
448.26	65.638
448.61	65.740
448.96	65.169
449.31	64.497
449.66	63.741
450.02	65.740
450.37	64.277
450.72	64.512
451.07	65.524
451.42	65.152
451.77	63.997
452.12	64.599
452.47	65.176
452.83	63.948
453.18	64.416
453.53	64.925
453.88	64.454
454.23	64.537
454.58	65.666
454.93	64.305
455.28	62.933
455.63	64.652
455.98	64.530
456.34	63.563
456.69	64.387
457.04	62.927
457.39	63.233
457.74	63.906
458.09	62.539
458.44	62.477
458.79	62.780
459.14	62.731
459.49	62.739
459.84	63.199
460.19	63.852
460.54	62.184
460.89	62.000
461.24	63.506
461.59	63.596
461.94	63.577
462.29	61.529
462.64	62.604
462.99	63.452
463.34	63.004
463.69	62.140
464.04	61.963
464.39	62.122
464.74	60.675
465.09	62.765
465.44	60.648
465.79	60.830
466.14	61.635
466.49	60.619
466.84	61.241
467.19	60.689
467.54	60.013
467.89	60.287
468.24	59.659
468.59	59.555
468.94	60.995
469.29	60.000
469.64	60.977
469.99	60.923
470.34	60.679
470.68	60.846
471.03	60.365
471.38	60.808
471.73	60.683
472.08	61.495
472.43	60.235
472.78	60.334
473.13	59.930
473.48	60.927
473.83	59.577
474.17	58.839
474.52	59.344
474.87	60.164
475.22	58.196
475.57	59.224
475.92	58.329
476.27	59.433
476.61	58.452
476.96	59.632
477.31	58.904
477.66	58.338
478.01	56.563
478.36	58.395
478.70	58.761
479.05	58.677
479.40	58.098
479.75	58.833
480.10	57.738
480.45	58.743
480.79	58.537
481.14	57.617
481.49	58.098
481.84	58.333
482.19	57.854
482.53	56.912
482.88	57.143
483.23	57.688
483.58	56.386
483.92	55.829
484.27	57.599
484.62	56.483
484.97	56.019
485.31	54.834
485.66	53.521
486.01	52.820
486.36	52.794
486.70	54.733
487.05	54.723
487.40	53.339
487.75	53.307
488.09	52.256
488.44	52.511
488.79	53.287
489.13	53.658
489.48	53.799
489.83	54.600
490.17	54.805
490.52	54.493
490.87	54.995
491.22	54.882
491.56	53.804
491.91	54.418
492.26	54.972
492.60	54.490
492.95	54.415
493.30	54.940
493.64	53.600
493.99	54.415
494.34	54.536
494.68	53.617
495.03	53.144
495.37	53.218
495.72	54.378
496.07	52.738
496.41	53.063
496.76	52.865
497.11	53.225
497.45	53.039
497.80	54.102
498.14	53.485
498.49	52.109
498.84	51.834
499.18	51.998
499.53	53.634
499.87	52.330
500.22	52.883
500.56	53.898
500.91	52.753
501.26	52.336
501.60	51.835
501.95	51.842
502.29	52.899
502.64	51.220
502.98	50.681
503.33	50.824
503.67	51.812
504.02	51.277
504.36	51.721
504.71	51.170
505.06	51.152
505.40	50.938
505.75	51.553
506.09	51.354
506.44	51.824
506.78	51.285
507.13	50.380
507.47	51.136
507.82	51.563
508.16	50.557
508.51	52.133
508.85	51.319
509.19	50.741
509.54	51.785
509.88	50.173
510.23	51.292
510.57	51.051
510.92	50.794
511.26	50.316
511.61	51.313
511.95	50.318
512.30	50.667
512.64	50.205
512.98	50.207
513.33	49.648
513.67	50.299
514.02	50.481
514.36	50.712
514.70	50.759
515.05	50.183
515.39	50.188
515.74	51.316
516.08	51.099
516.42	51.274
516.77	50.000
517.11	50.520
517.46	50.906
517.80	50.798
518.14	50.727
518.49	51.294
518.83	50.324
519.17	50.321
519.52	50.156
519.86	51.172
520.20	49.299
520.55	50.457
520.89	50.000
521.23	50.367
521.58	50.595
521.92	49.466
522.26	51.203
522.61	49.625
522.95	50.548
523.29	49.865
523.64	48.779
523.98	50.202
524.32	49.899
524.66	49.762
525.01	50.309
525.35	49.726
525.69	48.383
526.04	50.106
526.38	49.486
526.72	49.583
527.06	49.297
527.41	49.398
527.75	49.318
528.09	47.808
528.43	48.831
528.78	48.218
529.12	47.877
529.46	46.844
529.80	48.536
530.15	49.618
530.49	48.605
530.83	48.518
531.17	47.669
531.51	48.180
531.86	48.739
532.20	46.681
532.54	48.417
532.88	47.418
533.22	47.557
533.57	46.759
533.91	47.281
534.25	47.115
534.59	48.006
534.93	47.011
535.27	46.263
535.62	46.590
535.96	47.104
536.30	46.486
536.64	46.209
536.98	45.059
537.32	46.949
537.66	45.528
538.01	46.539
538.35	45.091
538.69	45.506
539.03	46.071
539.37	45.441
539.71	45.942
540.05	46.020
540.39	45.461
540.73	46.081
541.07	45.368
541.42	43.977
541.76	44.820
542.10	44.692
542.44	45.087
542.78	44.135
543.12	43.177
543.46	43.741
543.80	44.246
544.14	44.875
544.48	44.842
544.82	43.435
545.16	45.580
545.50	45.051
545.84	44.550
546.18	44.944
546.52	44.658
546.86	44.836
547.20	43.409
547.54	43.745
547.88	42.023
548.22	43.671
548.56	43.622
548.90	43.930
549.24	45.249
549.58	43.368
549.92	44.286
550.26	43.475
550.60	43.537
550.94	42.381
551.28	44.878
551.62	44.390
551.96	43.690
552.30	42.558
552.64	42.900
552.98	42.273
553.32	42.197
553.66	42.868
554.00	44.015
554.34	42.500
554.68	43.541
555.02	41.905
555.36	41.859
555.69	41.891
556.03	40.650
556.37	41.185
556.71	41.176
557.05	40.312
557.39	41.928
557.73	43.160
558.07	42.723
558.41	40.702
558.75	42.324
559.08	43.064
559.42	41.472
559.76	41.870
560.10	42.217
560.44	40.855
560.78	42.149
561.12	41.623
561.45	40.625
561.79	39.868
562.13	40.919
562.47	41.208
562.81	42.077
563.15	39.087
563.48	38.876
563.82	40.539
564.16	40.276
564.50	39.685
564.84	40.255
565.17	41.202
565.51	41.027
565.85	40.563
566.19	39.527
566.52	41.004
566.86	40.710
567.20	40.386
567.54	39.375
567.88	39.381
568.21	39.508
568.55	38.314
568.89	38.846
569.23	37.851
569.56	38.805
569.90	37.473
570.24	37.116
570.57	36.757
570.91	38.100
571.25	36.983
571.59	36.820
571.92	35.907
572.26	35.915
572.60	35.728
572.93	35.691
573.27	35.626
573.61	35.407
573.95	34.993
574.28	35.366
574.62	35.237
574.96	34.889
575.29	34.899
575.63	35.255
575.97	34.043
576.30	34.789
576.64	34.895
576.98	34.276
577.31	34.315
577.65	35.394
577.98	34.519
578.32	34.284
578.66	34.179
578.99	35.221
579.33	34.492
579.67	34.481
580.00	33.385
580.34	33.477
580.67	33.723
581.01	33.773
581.35	34.022
581.68	33.704
582.02	34.053
582.35	34.165
582.69	34.684
583.02	34.074
583.36	33.318
583.70	33.944
584.03	33.612
584.37	34.513
584.70	33.418
585.04	32.624
585.37	33.197
585.71	33.031
586.04	33.972
586.38	33.860
586.72	33.618
587.05	34.339
587.39	33.793
587.72	33.398
588.06	33.810
588.39	34.385
588.73	34.229
589.06	33.476
589.40	33.826
589.73	33.695
590.07	33.333
590.40	33.175
590.73	34.277
591.07	33.853
591.40	34.171
591.74	33.396
592.07	33.333
592.41	33.083
592.74	34.427
593.08	33.171
593.41	34.042
593.75	33.873
594.08	33.822
594.41	33.986
594.75	33.790
595.08	33.346
595.42	33.421
595.75	32.917
596.09	33.747
596.42	32.939
596.75	34.000
597.09	33.256
597.42	32.379
597.75	32.974
598.09	33.146
598.42	32.892
598.76	32.878
599.09	32.731
599.42	32.730
599.76	33.386
600.09	33.412
600.42	31.953
600.76	33.064
601.09	32.078
601.42	32.246
601.76	33.198
602.09	32.593
602.42	32.914
602.76	32.679
603.09	32.507
603.42	32.496
603.76	30.969
604.09	32.456
604.42	31.988
604.76	32.542
605.09	31.885
605.42	32.227
605.75	31.795
606.09	33.289
606.42	32.327
606.75	31.883
607.09	33.256
607.42	32.446
607.75	32.231
608.08	32.086
608.42	31.668
608.75	32.566
609.08	30.136
609.41	33.333
609.75	32.807
610.08	31.990
610.41	33.028
610.74	31.951
611.07	32.311
611.41	31.531
611.74	31.393
612.07	32.254
612.40	31.532
612.73	32.581
613.07	31.944
613.40	31.512
613.73	31.329
614.06	31.206
614.39	32.748
614.72	31.877
615.06	32.262
615.39	31.871
615.72	30.907
616.05	32.000
616.38	32.503
616.71	29.913
617.05	31.156
617.38	31.097
617.71	32.528
618.04	32.457
618.37	32.309
618.70	32.677
619.03	32.632
619.36	32.990
619.69	30.793
620.03	31.579
620.36	33.258
620.69	31.633
621.02	32.304
621.35	31.745
621.68	33.663
622.01	30.660
622.34	30.988
622.67	32.040
623.00	31.859
623.33	32.441
623.66	33.227
623.99	32.297
624.32	31.612
624.65	32.031
624.99	30.859
625.32	31.438
625.65	31.545
625.98	31.833
626.31	31.255
626.64	32.432
626.97	32.353
627.30	31.759
627.63	31.907
627.96	31.564
628.29	32.122
628.62	32.371
628.95	31.573
629.28	32.645
629.61	31.870
629.94	32.365
630.26	32.008
630.59	33.403
630.92	30.032
631.25	32.626
631.58	32.093
631.91	31.207
