SpectraSuite Data File
++++++++++++++++++++++++++++++++++++
Date: Tue May 12 19:36:06 PDT 2015
User: schluterlab
Dark Spectrum Present: Yes
Reference Spectrum Present: Yes
Number of Sampled Component Spectra: 1
Spectrometers: USB2E3373
Integration Time (usec): 3000 (USB2E3373)
Spectra Averaged: 3 (USB2E3373)
Boxcar Smoothing: 0 (USB2E3373)
Correct for Electrical Dark: No (USB2E3373)
Strobe/Lamp Enabled: No (USB2E3373)
Correct for Detector Non-linearity: No (USB2E3373)
Correct for Stray Light: No (USB2E3373)
Number of Pixels in Processed Spectrum: 2048
>>>>>Begin Processed Spectral Data<<<<<
178.53	0.000
178.91	10.000
179.29	-133.333
179.67	300.000
180.04	0.000
180.42	-20.000
180.80	-333.333
181.18	350.000
181.56	-150.000
181.94	116.667
182.31	1200.000
182.69	-157.143
183.07	0.000
183.45	233.333
183.83	140.000
184.20	316.667
184.58	1050.000
184.96	333.333
185.34	-166.667
185.72	-14.286
186.09	66.667
186.47	-1000.000
186.85	-120.000
187.23	100.000
187.61	-228.571
187.98	-240.000
188.36	600.000
188.74	0.000
189.12	22.222
189.49	-70.000
189.87	175.000
190.25	177.778
190.63	133.333
191.00	100.000
191.38	166.667
191.76	320.000
192.14	-142.857
192.51	10.000
192.89	40.000
193.27	-60.000
193.65	-33.333
194.02	50.000
194.40	1500.000
194.78	-12.500
195.15	-242.857
195.53	366.667
195.91	240.000
196.29	-450.000
196.66	200.000
197.04	-228.571
197.42	-120.000
197.79	-75.000
198.17	8.333
198.55	-100.000
198.92	-66.667
199.30	500.000
199.68	-225.000
200.05	-700.000
200.43	-27.778
200.81	-66.667
201.18	266.667
201.56	-350.000
201.94	200.000
202.31	-33.333
202.69	-55.556
203.07	-108.333
203.44	-250.000
203.82	0.000
204.19	112.500
204.57	66.667
204.95	100.000
205.32	240.000
205.70	200.000
206.08	500.000
206.45	-40.000
206.83	2200.000
207.20	-22.222
207.58	61.538
207.96	100.000
208.33	333.333
208.71	166.667
209.08	700.000
209.46	-11.111
209.84	233.333
210.21	-233.333
210.59	-250.000
210.96	233.333
211.34	-175.000
211.71	600.000
212.09	0.000
212.46	-100.000
212.84	-87.500
213.22	128.571
213.59	-25.000
213.97	0.000
214.34	-200.000
214.72	-400.000
215.09	500.000
215.47	-33.333
215.84	-50.000
216.22	-900.000
216.59	1100.000
216.97	-50.000
217.34	-50.000
217.72	11.111
218.09	325.000
218.47	-26.316
218.84	-100.000
219.22	14.286
219.59	-50.000
219.97	-60.000
220.34	200.000
220.72	81.818
221.09	-450.000
221.47	0.000
221.84	450.000
222.22	0.000
222.59	-200.000
222.97	30.435
223.34	126.667
223.72	285.714
224.09	-150.000
224.46	200.000
224.84	-33.333
225.21	-200.000
225.59	-75.000
225.96	50.000
226.34	200.000
226.71	240.000
227.08	-15.385
227.46	-85.714
227.83	16.667
228.21	-200.000
228.58	133.333
228.95	21.053
229.33	18.750
229.70	116.667
230.08	-33.333
230.45	233.333
230.82	-100.000
231.20	52.381
231.57	-40.000
231.95	-200.000
232.32	33.333
232.69	-650.000
233.07	18.750
233.44	-125.000
233.81	64.516
234.19	-80.000
234.56	11.111
234.93	-66.667
235.31	7.407
235.68	33.333
236.05	-11.538
236.43	26.316
236.80	54.545
237.17	50.000
237.55	15.000
237.92	46.512
238.29	22.581
238.67	35.714
239.04	71.429
239.41	31.373
239.79	56.000
240.16	25.000
240.53	32.759
240.91	38.356
241.28	16.901
241.65	48.438
242.02	50.877
242.40	41.333
242.77	54.737
243.14	54.118
243.51	39.785
243.89	33.333
244.26	37.963
244.63	47.959
245.00	38.393
245.38	36.975
245.75	45.763
246.12	48.437
246.49	46.400
246.87	38.525
247.24	42.254
247.61	39.073
247.98	36.517
248.36	45.283
248.73	40.341
249.10	46.667
249.47	47.396
249.84	43.147
250.22	43.750
250.59	42.697
250.96	44.091
251.33	48.585
251.70	43.119
252.08	43.723
252.45	42.857
252.82	45.992
253.19	45.525
253.56	44.314
253.94	45.528
254.31	46.763
254.68	44.444
255.05	46.689
255.42	42.545
255.79	49.669
256.16	44.097
256.54	43.030
256.91	43.910
257.28	40.909
257.65	45.574
258.02	47.748
258.39	45.619
258.76	41.590
259.14	40.882
259.51	45.070
259.88	48.991
260.25	46.591
260.62	47.191
260.99	46.240
261.36	43.966
261.73	48.533
262.10	46.049
262.47	52.893
262.85	45.758
263.22	45.968
263.59	44.772
263.96	48.042
264.33	44.205
264.70	44.717
265.07	47.044
265.44	45.199
265.81	47.470
266.18	45.433
266.55	45.476
266.92	48.661
267.29	45.778
267.66	44.545
268.03	45.161
268.40	46.911
268.77	40.535
269.14	41.807
269.51	45.701
269.88	48.504
270.25	43.671
270.62	47.479
270.99	43.579
271.36	47.682
271.73	46.042
272.10	46.058
272.47	43.600
272.84	43.524
273.21	44.676
273.58	40.612
273.95	45.020
274.32	44.874
274.69	45.010
275.06	45.966
275.43	44.600
275.80	42.065
276.17	46.443
276.54	47.148
276.91	48.944
277.28	47.389
277.65	44.991
278.02	46.023
278.39	46.279
278.76	46.182
279.13	45.081
279.50	45.126
279.87	42.264
280.23	44.809
280.60	42.756
280.97	44.640
281.34	42.034
281.71	44.050
282.08	43.470
282.45	44.974
282.82	43.434
283.19	42.088
283.56	46.075
283.92	40.916
284.29	42.470
284.66	45.133
285.03	41.681
285.40	43.000
285.77	42.857
286.14	40.412
286.51	41.318
286.87	41.329
287.24	41.987
287.61	41.667
287.98	43.349
288.35	40.930
288.72	42.813
289.08	40.252
289.45	40.562
289.82	38.665
290.19	40.455
290.56	41.389
290.93	41.064
291.29	40.709
291.66	38.202
292.03	39.311
292.40	38.561
292.77	38.630
293.13	39.648
293.50	39.532
293.87	37.587
294.24	37.921
294.60	38.525
294.97	35.457
295.34	35.205
295.71	34.951
296.08	35.792
296.44	35.837
296.81	35.317
297.18	34.929
297.55	34.548
297.91	34.518
298.28	35.678
298.65	33.765
299.02	35.635
299.38	36.480
299.75	34.878
300.12	33.573
300.48	33.803
300.85	33.130
301.22	33.173
301.59	33.090
301.95	33.659
302.32	32.199
302.69	32.105
303.05	31.995
303.42	34.783
303.79	31.573
304.15	32.050
304.52	31.061
304.89	31.229
305.25	33.601
305.62	32.273
305.99	30.907
306.35	33.669
306.72	32.353
307.09	31.991
307.45	30.960
307.82	29.669
308.19	33.003
308.55	33.017
308.92	31.886
309.29	29.916
309.65	32.301
310.02	33.019
310.38	30.917
310.75	31.865
311.12	31.333
311.48	32.682
311.85	31.003
312.22	32.645
312.58	30.111
312.95	31.622
313.31	32.547
313.68	30.884
314.05	33.267
314.41	32.122
314.78	31.859
315.14	30.167
315.51	32.175
315.87	32.715
316.24	32.047
316.61	32.718
316.97	32.941
317.34	32.632
317.70	32.493
318.07	32.883
318.43	32.987
318.80	32.605
319.16	32.712
319.53	34.340
319.89	33.523
320.26	32.842
320.62	33.140
320.99	34.490
321.35	32.806
321.72	34.444
322.08	34.653
322.45	34.813
322.81	36.355
323.18	35.187
323.54	36.019
323.91	36.812
324.27	35.873
324.64	35.895
325.00	36.215
325.37	38.040
325.73	36.405
326.10	36.778
326.46	37.262
326.83	38.434
327.19	38.079
327.56	39.965
327.92	38.628
328.29	39.247
328.65	40.772
329.01	39.541
329.38	39.945
329.74	40.854
330.11	38.583
330.47	40.782
330.84	39.286
331.20	41.405
331.56	39.057
331.93	39.524
332.29	40.611
332.66	41.230
333.02	41.876
333.38	42.188
333.75	40.988
334.11	41.230
334.48	40.250
334.84	40.563
335.20	41.271
335.57	42.598
335.93	42.698
336.29	41.590
336.66	41.985
337.02	42.339
337.38	41.415
337.75	42.182
338.11	42.571
338.47	41.318
338.84	42.726
339.20	44.088
339.56	43.896
339.93	43.243
340.29	43.790
340.65	42.283
341.02	42.161
341.38	43.248
341.74	43.772
342.11	43.855
342.47	42.045
342.83	41.977
343.20	43.148
343.56	42.133
343.92	43.570
344.28	41.509
344.65	42.723
345.01	43.380
345.37	42.564
345.73	42.291
346.10	43.993
346.46	43.486
346.82	43.246
347.19	42.725
347.55	43.622
347.91	43.079
348.27	42.713
348.63	43.907
349.00	44.407
349.36	44.600
349.72	43.350
350.08	44.190
350.45	43.613
350.81	44.096
351.17	43.163
351.53	42.754
351.89	44.646
352.26	43.821
352.62	43.827
352.98	46.192
353.34	45.948
353.70	43.951
354.07	45.058
354.43	44.491
354.79	44.918
355.15	44.068
355.51	44.825
355.87	46.211
356.24	45.752
356.60	45.492
356.96	45.419
357.32	45.350
357.68	44.869
358.04	45.138
358.40	46.563
358.77	45.060
359.13	46.265
359.49	45.680
359.85	46.523
360.21	44.964
360.57	47.528
360.93	46.714
361.29	46.573
361.66	45.662
362.02	48.509
362.38	46.775
362.74	47.271
363.10	44.872
363.46	46.275
363.82	46.554
364.18	46.480
364.54	45.878
364.90	48.148
365.26	48.137
365.62	48.145
365.98	48.726
366.35	47.882
366.71	48.768
367.07	47.085
367.43	47.220
367.79	47.238
368.15	47.739
368.51	47.041
368.87	47.430
369.23	48.827
369.59	47.941
369.95	48.137
370.31	48.106
370.67	48.797
371.03	48.762
371.39	50.151
371.75	49.331
372.11	48.741
372.47	49.072
372.83	49.014
373.19	49.398
373.55	49.626
373.91	49.242
374.27	50.331
374.63	50.368
374.99	48.755
375.35	49.492
375.71	48.565
376.07	49.965
376.42	48.548
376.78	48.920
377.14	49.930
377.50	49.111
377.86	49.930
378.22	49.339
378.58	50.789
378.94	49.967
379.30	48.198
379.66	49.872
380.02	50.095
380.38	50.382
380.74	49.782
381.09	49.682
381.45	50.159
381.81	50.510
382.17	50.293
382.53	50.493
382.89	49.391
383.25	50.349
383.61	50.668
383.97	50.617
384.32	49.871
384.68	51.596
385.04	48.504
385.40	49.840
385.76	50.980
386.12	49.901
386.48	49.641
386.83	49.045
387.19	50.575
387.55	52.979
387.91	49.720
388.27	50.032
388.62	49.935
388.98	51.209
389.34	49.642
389.70	50.192
390.06	50.429
390.42	50.169
390.77	50.704
391.13	50.748
391.49	51.415
391.85	50.566
392.20	51.683
392.56	49.574
392.92	50.402
393.28	50.209
393.64	51.678
393.99	50.260
394.35	50.422
394.71	50.000
395.07	50.597
395.42	50.476
395.78	50.806
396.14	50.300
396.50	50.453
396.85	51.091
397.21	49.030
397.57	50.494
397.92	49.936
398.28	51.439
398.64	49.143
399.00	49.449
399.35	50.996
399.71	48.503
400.07	49.969
400.42	49.744
400.78	49.840
401.14	48.927
401.49	49.469
401.85	49.714
402.21	50.317
402.57	48.551
402.92	50.066
403.28	49.155
403.63	48.590
403.99	48.481
404.35	48.917
404.70	49.335
405.06	48.295
405.42	48.536
405.77	48.930
406.13	48.746
406.49	48.517
406.84	48.879
407.20	48.203
407.55	49.365
407.91	48.182
408.27	49.535
408.62	48.103
408.98	48.649
409.34	48.207
409.69	47.425
410.05	46.956
410.40	48.298
410.76	48.257
411.11	47.447
411.47	48.844
411.83	47.714
412.18	47.644
412.54	48.060
412.89	47.021
413.25	48.652
413.60	47.577
413.96	47.702
414.31	46.845
414.67	50.101
415.03	47.994
415.38	47.841
415.74	48.019
416.09	48.243
416.45	48.408
416.80	47.983
417.16	47.743
417.51	48.508
417.87	48.153
418.22	47.861
418.58	47.823
418.93	48.098
419.29	48.168
419.64	50.000
420.00	47.675
420.35	46.704
420.71	47.503
421.06	49.059
421.42	47.742
421.77	50.122
422.12	47.076
422.48	48.030
422.83	48.571
423.19	47.941
423.54	47.954
423.90	48.455
424.25	48.640
424.61	48.000
424.96	48.403
425.31	48.370
425.67	47.394
426.02	48.758
426.38	47.362
426.73	48.037
427.09	48.851
427.44	48.148
427.79	49.010
428.15	48.256
428.50	47.802
428.85	48.942
429.21	48.715
429.56	48.177
429.92	48.080
430.27	47.200
430.62	48.134
430.98	46.265
431.33	48.443
431.68	48.578
432.04	49.194
432.39	48.663
432.74	48.134
433.10	48.514
433.45	49.335
433.80	48.690
434.16	47.986
434.51	48.885
434.86	48.822
435.22	48.370
435.57	49.604
435.92	47.430
436.28	47.634
436.63	49.851
436.98	48.704
437.34	49.776
437.69	48.272
438.04	49.099
438.39	49.021
438.75	48.862
439.10	48.452
439.45	49.743
439.81	50.349
440.16	48.732
440.51	48.513
440.86	49.937
441.22	48.303
441.57	49.345
441.92	49.034
442.27	48.514
442.63	47.743
442.98	50.306
443.33	49.530
443.68	49.307
444.03	48.041
444.39	48.829
444.74	48.483
445.09	49.292
445.44	47.813
445.79	49.299
446.15	49.271
446.50	48.872
446.85	47.910
447.20	48.195
447.55	48.051
447.91	48.383
448.26	50.148
448.61	48.640
448.96	47.842
449.31	49.488
449.66	48.608
450.02	48.343
450.37	48.603
450.72	48.055
451.07	49.374
451.42	49.144
451.77	47.478
452.12	47.619
452.47	50.407
452.83	49.564
453.18	48.616
453.53	48.726
453.88	49.011
454.23	48.179
454.58	49.608
454.93	48.229
455.28	48.201
455.63	48.668
455.98	48.604
456.34	48.895
456.69	48.477
457.04	47.113
457.39	48.127
457.74	47.977
458.09	48.164
458.44	48.804
458.79	47.291
459.14	47.346
459.49	49.172
459.84	47.325
460.19	47.467
460.54	47.348
460.89	47.412
461.24	47.727
461.59	48.454
461.94	46.811
462.29	47.932
462.64	48.189
462.99	47.861
463.34	47.179
463.69	48.560
464.04	48.749
464.39	47.267
464.74	47.826
465.09	48.039
465.44	47.031
465.79	45.427
466.14	46.838
466.49	47.055
466.84	46.622
467.19	47.303
467.54	45.292
467.89	46.114
468.24	46.970
468.59	45.550
468.94	47.276
469.29	46.851
469.64	47.338
469.99	46.359
470.34	46.110
470.68	46.692
471.03	45.985
471.38	46.821
471.73	47.238
472.08	47.117
472.43	47.165
472.78	47.861
473.13	45.965
473.48	46.611
473.83	46.697
474.17	45.297
474.52	47.287
474.87	46.402
475.22	46.125
475.57	45.417
475.92	45.821
476.27	46.233
476.61	44.622
476.96	46.354
477.31	46.005
477.66	45.904
478.01	46.086
478.36	44.470
478.70	46.479
479.05	44.631
479.40	45.716
479.75	45.373
480.10	45.184
480.45	44.921
480.79	45.823
481.14	45.177
481.49	44.936
481.84	45.000
482.19	44.537
482.53	44.510
482.88	45.196
483.23	44.724
483.58	44.010
483.92	43.668
484.27	44.869
484.62	43.894
484.97	44.244
485.31	42.846
485.66	40.888
486.01	41.499
486.36	40.836
486.70	41.594
487.05	42.121
487.40	42.024
487.75	42.141
488.09	41.855
488.44	42.397
488.79	42.125
489.13	43.267
489.48	43.154
489.83	42.349
490.17	43.272
490.52	43.977
490.87	43.966
491.22	44.724
491.56	43.132
491.91	43.173
492.26	45.589
492.60	44.133
492.95	44.405
493.30	44.276
493.64	43.915
493.99	43.737
494.34	43.943
494.68	43.558
495.03	42.901
495.37	42.676
495.72	44.198
496.07	43.864
496.41	44.071
496.76	43.410
497.11	43.378
497.45	43.395
497.80	44.133
498.14	43.031
498.49	44.367
498.84	42.977
499.18	42.916
499.53	43.406
499.87	43.164
500.22	43.896
500.56	43.642
500.91	43.786
501.26	43.097
501.60	42.915
501.95	43.501
502.29	42.637
502.64	41.961
502.98	41.898
503.33	42.237
503.67	42.726
504.02	42.850
504.36	42.270
504.71	43.191
505.06	42.421
505.40	43.217
505.75	41.180
506.09	42.470
506.44	43.509
506.78	43.522
507.13	42.291
507.47	43.380
507.82	42.969
508.16	43.430
508.51	43.873
508.85	43.132
509.19	42.512
509.54	42.720
509.88	42.635
510.23	43.989
510.57	43.441
510.92	43.537
511.26	43.883
511.61	43.094
511.95	42.799
512.30	44.116
512.64	42.874
512.98	43.001
513.33	42.028
513.67	41.976
514.02	43.990
514.36	43.832
514.70	43.109
515.05	43.415
515.39	43.350
515.74	43.797
516.08	44.444
516.42	44.127
516.77	44.037
517.11	43.058
517.46	44.222
517.80	45.820
518.14	44.023
518.49	43.920
518.83	45.136
519.17	43.252
519.52	44.097
519.86	43.952
520.20	44.904
520.55	44.386
520.89	46.019
521.23	46.293
521.58	43.519
521.92	44.393
522.26	44.192
522.61	44.710
522.95	44.658
523.29	43.995
523.64	44.166
523.98	43.817
524.32	44.714
524.66	45.071
525.01	45.636
525.35	44.186
525.69	44.873
526.04	44.891
526.38	44.414
526.72	44.583
527.06	44.444
527.41	44.366
527.75	45.226
528.09	43.989
528.43	44.366
528.78	43.746
529.12	44.384
529.46	42.990
529.80	43.295
530.15	44.962
530.49	45.955
530.83	44.902
531.17	43.715
531.51	44.397
531.86	43.908
532.20	42.713
532.54	43.453
532.88	43.418
533.22	43.319
533.57	41.724
533.91	43.703
534.25	44.399
534.59	45.598
534.93	42.848
535.27	43.098
535.62	42.336
535.96	43.126
536.30	42.658
536.64	42.990
536.98	43.215
537.32	44.271
537.66	42.082
538.01	43.004
538.35	43.636
538.69	42.180
539.03	44.196
539.37	43.575
539.71	42.899
540.05	44.573
540.39	41.903
540.73	43.663
541.07	43.676
541.42	42.837
541.76	42.806
542.10	42.755
542.44	43.280
542.78	41.569
543.12	41.011
543.46	43.964
543.80	42.959
544.14	42.796
544.48	41.754
544.82	42.725
545.16	41.522
545.50	42.649
545.84	43.307
546.18	42.697
546.52	43.659
546.86	43.535
547.20	43.485
547.54	43.215
547.88	40.883
548.22	40.999
548.56	42.213
548.90	41.965
549.24	42.325
549.58	42.548
549.92	43.008
550.26	43.089
550.60	43.695
550.94	43.492
551.28	44.472
551.62	42.998
551.96	42.332
552.30	43.101
552.64	42.224
552.98	41.679
553.32	41.288
553.66	43.020
554.00	42.703
554.34	42.422
554.68	43.222
555.02	42.698
555.36	41.461
555.69	41.814
556.03	41.020
556.37	41.110
556.71	42.383
557.05	42.422
557.39	42.249
557.73	42.453
558.07	42.645
558.41	40.942
558.75	41.577
559.08	42.979
559.42	42.809
559.76	42.460
560.10	42.461
560.44	41.647
560.78	42.299
561.12	42.149
561.45	41.443
561.79	40.822
562.13	40.549
562.47	40.443
562.81	40.940
563.15	41.065
563.48	40.449
563.82	41.339
564.16	40.856
564.50	40.043
564.84	41.247
565.17	41.130
565.51	42.224
565.85	40.845
566.19	41.406
566.52	41.075
566.86	40.847
567.20	40.719
567.54	40.204
567.88	38.835
568.21	40.504
568.55	38.879
568.89	39.231
569.23	37.902
569.56	38.299
569.90	38.415
570.24	37.155
570.57	36.832
570.91	36.245
571.25	36.570
571.59	36.459
571.92	35.504
572.26	35.668
572.60	35.600
572.93	36.248
573.27	35.918
573.61	35.655
573.95	34.795
574.28	35.228
574.62	34.246
574.96	34.707
575.29	34.615
575.63	34.107
575.97	35.065
576.30	34.673
576.64	34.647
576.98	34.676
577.31	34.620
577.65	34.939
577.98	34.192
578.32	34.306
578.66	33.804
578.99	34.933
579.33	33.904
579.67	34.794
580.00	34.320
580.34	34.647
580.67	33.850
581.01	33.898
581.35	34.066
581.68	33.416
582.02	33.428
582.35	34.108
582.69	33.992
583.02	34.268
583.36	34.543
583.70	34.231
584.03	34.919
584.37	35.313
584.70	34.525
585.04	34.293
585.37	34.296
585.71	34.240
586.04	34.956
586.38	35.031
586.72	34.795
587.05	34.576
587.39	34.482
587.72	34.482
588.06	34.567
588.39	35.115
588.73	34.229
589.06	34.267
589.40	35.727
589.73	36.275
590.07	34.921
590.40	35.864
590.73	36.318
591.07	36.017
591.40	36.135
591.74	36.567
592.07	36.724
592.41	35.848
592.74	36.515
593.08	35.199
593.41	34.385
593.75	35.288
594.08	35.967
594.41	35.494
594.75	35.552
595.08	35.528
595.42	35.561
595.75	35.227
596.09	35.188
596.42	35.814
596.75	36.727
597.09	36.054
597.42	35.054
597.75	36.023
598.09	35.768
598.42	35.873
598.76	35.701
599.09	35.462
599.42	34.264
599.76	34.719
600.09	35.587
600.42	34.531
600.76	35.104
601.09	34.510
601.42	34.581
601.76	34.943
602.09	35.610
602.42	35.519
602.76	35.777
603.09	35.553
603.42	35.903
603.76	35.124
604.09	36.132
604.42	36.410
604.76	36.102
605.09	35.853
605.42	36.019
605.75	35.496
606.09	35.778
606.42	34.821
606.75	35.968
607.09	36.287
607.42	36.026
607.75	35.170
608.08	35.828
608.42	34.918
608.75	36.018
609.08	35.336
609.41	36.703
609.75	35.703
610.08	34.987
610.41	35.471
610.74	35.592
611.07	35.167
611.41	34.904
611.74	36.072
612.07	36.719
612.40	35.543
612.73	36.690
613.07	36.935
613.40	34.905
613.73	34.880
614.06	36.183
614.39	37.551
614.72	37.131
615.06	36.051
615.39	36.085
615.72	36.506
616.05	34.551
616.38	35.587
616.71	35.323
617.05	35.930
617.38	36.323
617.71	36.904
618.04	37.845
618.37	36.887
618.70	36.549
619.03	38.289
619.36	38.439
619.69	37.014
620.03	38.291
620.36	38.020
620.69	37.694
621.02	38.005
621.35	38.638
621.68	38.794
622.01	39.840
622.34	38.275
622.67	38.196
623.00	38.411
623.33	37.480
623.66	38.725
623.99	37.799
624.32	37.728
624.65	37.813
624.99	38.359
625.32	38.626
625.65	36.349
625.98	37.583
626.31	38.874
626.64	40.360
626.97	40.165
627.30	38.611
627.63	40.093
627.96	39.013
628.29	39.388
628.62	39.794
628.95	40.866
629.28	39.463
629.61	40.857
629.94	40.249
630.26	40.900
630.59	41.152
630.92	37.935
631.25	40.000
631.58	41.047
631.91	39.863
632.24	38.935
632.57	39.001
632.90	44.403
633.23	41.419
