SpectraSuite Data File
++++++++++++++++++++++++++++++++++++
Date: Tue May 12 19:45:13 PDT 2015
User: schluterlab
Dark Spectrum Present: Yes
Reference Spectrum Present: Yes
Number of Sampled Component Spectra: 1
Spectrometers: USB2E3373
Integration Time (usec): 3000 (USB2E3373)
Spectra Averaged: 3 (USB2E3373)
Boxcar Smoothing: 0 (USB2E3373)
Correct for Electrical Dark: No (USB2E3373)
Strobe/Lamp Enabled: No (USB2E3373)
Correct for Detector Non-linearity: No (USB2E3373)
Correct for Stray Light: No (USB2E3373)
Number of Pixels in Processed Spectrum: 2048
>>>>>Begin Processed Spectral Data<<<<<
178.53	0.000
178.91	-90.000
179.29	-166.667
179.67	633.333
180.04	0.000
180.42	-120.000
180.80	-166.667
181.18	600.000
181.56	-450.000
181.94	216.667
182.31	1000.000
182.69	14.286
183.07	0.000
183.45	141.667
183.83	300.000
184.20	216.667
184.58	450.000
184.96	366.667
185.34	-266.667
185.72	-7.143
186.09	-83.333
186.47	-1000.000
186.85	80.000
187.23	191.667
187.61	-200.000
187.98	-120.000
188.36	300.000
188.74	-250.000
189.12	-111.111
189.49	-80.000
189.87	300.000
190.25	144.444
190.63	566.667
191.00	140.000
191.38	-500.000
191.76	280.000
192.14	-42.857
192.51	-90.000
192.89	-40.000
193.27	20.000
193.65	-300.000
194.02	-66.667
194.40	1100.000
194.78	-112.500
195.15	-214.286
195.53	200.000
195.91	320.000
196.29	-325.000
196.66	-333.333
197.04	-142.857
197.42	180.000
197.79	-150.000
198.17	-25.000
198.55	0.000
198.92	-144.444
199.30	550.000
199.68	-200.000
200.05	-800.000
200.43	-66.667
200.81	-116.667
201.18	383.333
201.56	-250.000
201.94	-1400.000
202.31	-33.333
202.69	77.778
203.07	-91.667
203.44	-375.000
203.82	0.000
204.19	237.500
204.57	-433.333
204.95	154.545
205.32	220.000
205.70	325.000
206.08	-900.000
206.45	-60.000
206.83	1800.000
207.20	-111.111
207.58	-23.077
207.96	433.333
208.33	666.667
208.71	433.333
209.08	450.000
209.46	33.333
209.84	700.000
210.21	-600.000
210.59	250.000
210.96	122.222
211.34	-300.000
211.71	900.000
212.09	40.000
212.46	-137.500
212.84	-200.000
213.22	114.286
213.59	50.000
213.97	0.000
214.34	100.000
214.72	-1100.000
215.09	900.000
215.47	20.000
215.84	-112.500
216.22	-800.000
216.59	1200.000
216.97	-50.000
217.34	-16.667
217.72	72.222
218.09	450.000
218.47	-15.789
218.84	-150.000
219.22	-14.286
219.59	-240.000
219.97	-230.000
220.34	183.333
220.72	154.545
221.09	-1000.000
221.47	0.000
221.84	650.000
222.22	-125.000
222.59	-400.000
222.97	-4.348
223.34	106.667
223.72	314.286
224.09	-166.667
224.46	107.692
224.84	-20.000
225.21	-250.000
225.59	-300.000
225.96	-5.000
226.34	200.000
226.71	260.000
227.08	-53.846
227.46	71.429
227.83	-33.333
228.21	-850.000
228.58	266.667
228.95	-10.526
229.33	0.000
229.70	-283.333
230.08	-44.444
230.45	-566.667
230.82	-1300.000
231.20	-4.762
231.57	-260.000
231.95	-333.333
232.32	133.333
232.69	-500.000
233.07	62.500
233.44	-75.000
233.81	51.613
234.19	-200.000
234.56	-38.889
234.93	-166.667
235.31	18.519
235.68	-3.704
236.05	-34.615
236.43	-47.368
236.80	-18.182
237.17	-92.857
237.55	-50.000
237.92	27.907
238.29	-6.452
238.67	7.143
239.04	42.857
239.41	13.725
239.79	28.000
240.16	7.500
240.53	-17.241
240.91	17.808
241.28	12.676
241.65	29.688
242.02	-10.526
242.40	25.333
242.77	22.105
243.14	35.294
243.51	23.656
243.89	15.238
244.26	23.148
244.63	23.469
245.00	15.179
245.38	21.008
245.75	18.644
246.12	27.344
246.49	28.800
246.87	21.311
247.24	21.127
247.61	31.788
247.98	23.596
248.36	33.962
248.73	28.977
249.10	26.667
249.47	33.854
249.84	28.426
250.22	28.646
250.59	24.719
250.96	31.364
251.33	33.962
251.70	33.945
252.08	30.303
252.45	26.939
252.82	27.004
253.19	30.350
253.56	31.373
253.94	31.301
254.31	35.612
254.68	32.986
255.05	32.450
255.42	26.909
255.79	36.424
256.16	34.722
256.54	34.545
256.91	28.846
257.28	28.571
257.65	28.197
258.02	32.733
258.39	32.024
258.76	30.275
259.14	30.882
259.51	34.085
259.88	34.582
260.25	28.409
260.62	29.775
260.99	31.755
261.36	31.322
261.73	28.533
262.10	31.063
262.47	34.711
262.85	33.419
263.22	32.258
263.59	35.389
263.96	32.115
264.33	26.685
264.70	27.764
265.07	30.788
265.44	31.850
265.81	36.145
266.18	28.337
266.55	34.762
266.92	31.696
267.29	31.556
267.66	29.773
268.03	32.043
268.40	30.892
268.77	30.735
269.14	31.092
269.51	29.864
269.88	33.761
270.25	30.591
270.62	35.084
270.99	29.684
271.36	33.113
271.73	31.875
272.10	35.477
272.47	29.000
272.84	30.573
273.21	30.271
273.58	29.592
273.95	29.482
274.32	31.721
274.69	31.898
275.06	32.833
275.43	31.600
275.80	30.210
276.17	31.423
276.54	32.129
276.91	33.973
277.28	33.462
277.65	32.892
278.02	30.682
278.39	32.305
278.76	30.540
279.13	31.843
279.50	31.408
279.87	31.132
280.23	30.965
280.60	28.975
280.97	31.459
281.34	31.017
281.71	30.906
282.08	30.233
282.45	32.275
282.82	30.303
283.19	29.630
283.56	31.058
283.92	30.648
284.29	31.980
284.66	31.150
285.03	25.214
285.40	32.000
285.77	30.542
286.14	28.843
286.51	28.457
286.87	30.308
287.24	27.083
287.61	29.475
287.98	30.360
288.35	28.837
288.72	28.746
289.08	27.201
289.45	29.953
289.82	26.708
290.19	28.333
290.56	28.944
290.93	27.326
291.29	27.801
291.66	27.107
292.03	28.981
292.40	27.626
292.77	26.822
293.13	26.872
293.50	27.410
293.87	27.462
294.24	25.843
294.60	28.005
294.97	24.654
295.34	24.247
295.71	25.243
296.08	22.268
296.44	25.428
296.81	21.345
297.18	26.261
297.55	25.754
297.91	25.000
298.28	24.169
298.65	24.062
299.02	24.168
299.38	23.342
299.75	24.324
300.12	23.621
300.48	22.770
300.85	23.961
301.22	23.558
301.59	24.331
301.95	25.122
302.32	23.694
302.69	21.760
303.05	21.960
303.42	22.705
303.79	21.461
304.15	24.349
304.52	22.682
304.89	21.984
305.25	22.706
305.62	24.318
305.99	22.172
306.35	21.477
306.72	24.292
307.09	21.763
307.45	22.438
307.82	22.519
308.19	23.762
308.55	22.152
308.92	22.564
309.29	22.071
309.65	21.878
310.02	22.013
310.38	22.921
310.75	22.131
311.12	21.872
311.48	23.741
311.85	20.669
312.22	22.831
312.58	21.652
312.95	21.663
313.31	21.731
313.68	20.258
314.05	22.046
314.41	22.102
314.78	21.106
315.14	23.115
315.51	22.244
315.87	23.242
316.24	22.750
316.61	23.689
316.97	23.333
317.34	22.967
317.70	23.623
318.07	22.565
318.43	23.062
318.80	22.222
319.16	23.113
319.53	23.679
319.89	25.189
320.26	25.172
320.62	24.903
320.99	26.429
321.35	25.198
321.72	26.263
322.08	25.545
322.45	24.556
322.81	28.177
323.18	27.133
323.54	27.678
323.91	27.419
324.27	28.447
324.64	27.554
325.00	27.298
325.37	28.417
325.73	27.555
326.10	28.984
326.46	28.921
326.83	29.464
327.19	29.607
327.56	30.592
327.92	30.642
328.29	28.405
328.65	31.638
329.01	31.284
329.38	31.864
329.74	31.662
330.11	31.314
330.47	31.285
330.84	31.203
331.20	32.348
331.56	31.509
331.93	32.296
332.29	32.192
332.66	32.278
333.02	33.519
333.38	32.904
333.75	32.296
334.11	31.736
334.48	33.542
334.84	31.831
335.20	31.065
335.57	32.516
335.93	33.674
336.29	32.907
336.66	32.332
337.02	32.910
337.38	32.547
337.75	33.909
338.11	33.181
338.47	33.705
338.84	32.320
339.20	34.647
339.56	33.271
339.93	34.054
340.29	34.451
340.65	34.429
341.02	33.127
341.38	34.157
341.74	35.320
342.11	33.599
342.47	32.955
342.83	34.779
343.20	35.102
343.56	34.353
343.92	34.821
344.28	33.962
344.65	34.846
345.01	35.192
345.37	34.359
345.73	33.678
346.10	34.831
346.46	34.426
346.82	33.900
347.19	34.483
347.55	35.459
347.91	34.971
348.27	33.951
348.63	35.436
349.00	35.559
349.36	35.779
349.72	35.386
350.08	36.170
350.45	35.069
350.81	35.260
351.17	35.008
351.53	34.380
351.89	36.356
352.26	34.309
352.62	35.732
352.98	37.071
353.34	36.424
353.70	35.802
354.07	35.997
354.43	35.726
354.79	36.475
355.15	36.885
355.51	36.756
355.87	36.886
356.24	37.827
356.60	37.145
356.96	37.520
357.32	39.671
357.68	38.107
358.04	37.358
358.40	37.234
358.77	36.546
359.13	38.394
359.49	36.080
359.85	38.689
360.21	37.193
360.57	39.234
360.93	38.242
361.29	38.474
361.66	37.855
362.02	39.168
362.38	39.472
362.74	39.124
363.10	38.763
363.46	39.202
363.82	40.352
364.18	39.591
364.54	39.924
364.90	39.333
365.26	39.940
365.62	39.364
365.98	40.780
366.35	40.393
366.71	39.432
367.07	40.295
367.43	39.495
367.79	40.334
368.15	41.883
368.51	40.599
368.87	40.455
369.23	40.045
369.59	40.294
369.95	40.387
370.31	41.136
370.67	41.579
371.03	41.099
371.39	42.674
371.75	41.159
372.11	40.444
372.47	41.722
372.83	42.586
373.19	42.696
373.55	41.243
373.91	41.591
374.27	42.311
374.63	41.826
374.99	41.142
375.35	42.743
375.71	42.898
376.07	41.837
376.42	42.808
376.78	43.415
377.14	43.017
377.50	43.092
377.86	43.802
378.22	42.933
378.58	43.882
378.94	43.680
379.30	43.565
379.66	43.214
380.02	43.611
380.38	44.784
380.74	43.754
381.09	43.520
381.45	43.746
381.81	43.750
382.17	45.016
382.53	45.365
382.89	43.874
383.25	44.769
383.61	44.565
383.97	44.185
384.32	45.419
384.68	43.423
385.04	45.130
385.40	44.665
385.76	45.351
386.12	45.149
386.48	45.662
386.83	44.832
387.19	45.594
387.55	45.402
387.91	44.798
388.27	45.489
388.62	46.179
388.98	46.501
389.34	46.975
389.70	46.090
390.06	46.997
390.42	46.383
390.77	45.875
391.13	47.040
391.49	47.776
391.85	46.906
392.20	46.931
392.56	46.234
392.92	47.310
393.28	46.798
393.64	47.498
393.99	47.208
394.35	46.398
394.71	46.954
395.07	47.149
395.42	46.159
395.78	47.648
396.14	47.568
396.50	48.189
396.85	46.927
397.21	45.990
397.57	46.675
397.92	47.837
398.28	48.261
398.64	46.540
399.00	47.591
399.35	47.479
399.71	47.246
400.07	47.128
400.42	47.564
400.78	47.153
401.14	47.601
401.49	48.657
401.85	47.429
402.21	47.398
402.57	46.813
402.92	47.278
403.28	47.399
403.63	47.115
403.99	48.085
404.35	46.433
404.70	47.372
405.06	48.543
405.42	48.276
405.77	47.325
406.13	48.088
406.49	47.192
406.84	46.887
407.20	47.646
407.55	48.363
407.91	47.692
408.27	48.205
408.62	47.588
408.98	47.619
409.34	48.271
409.69	46.957
410.05	47.733
410.40	48.491
410.76	48.194
411.11	47.641
411.47	46.395
411.83	45.911
412.18	47.382
412.54	47.607
412.89	46.762
413.25	46.458
413.60	48.916
413.96	47.443
414.31	46.654
414.67	48.481
415.03	47.787
415.38	47.772
415.74	47.011
416.09	46.520
416.45	47.488
416.80	45.758
417.16	47.038
417.51	47.120
417.87	48.837
418.22	46.725
418.58	46.717
418.93	47.518
419.29	48.168
419.64	47.459
420.00	48.068
420.35	47.207
420.71	46.415
421.06	46.723
421.42	47.365
421.77	46.894
422.12	47.076
422.48	47.744
422.83	47.052
423.19	46.941
423.54	46.732
423.90	48.146
424.25	46.767
424.61	48.581
424.96	47.174
425.31	47.524
425.67	47.091
426.02	47.640
426.38	46.268
426.73	46.106
427.09	47.669
427.44	46.914
427.79	48.144
428.15	46.925
428.50	47.613
428.85	46.825
429.21	46.922
429.56	47.238
429.92	45.917
430.27	46.240
430.62	46.728
430.98	45.191
431.33	47.108
431.68	47.210
432.04	46.778
432.39	44.920
432.74	45.225
433.10	46.270
433.45	47.372
433.80	46.548
434.16	45.857
434.51	44.983
434.86	46.828
435.22	46.333
435.57	47.164
435.92	45.697
436.28	44.645
436.63	46.094
436.98	46.914
437.34	46.257
437.69	46.173
438.04	45.913
438.39	46.149
438.75	44.862
439.10	45.952
439.45	46.855
439.81	45.841
440.16	45.826
440.51	44.734
440.86	45.391
441.22	44.431
441.57	44.615
441.92	45.113
442.27	45.657
442.63	45.147
442.98	44.621
443.33	43.537
443.68	44.481
444.03	45.000
444.39	45.133
444.74	45.106
445.09	45.868
445.44	42.799
445.79	45.685
446.15	44.898
446.50	44.303
446.85	44.774
447.20	44.420
447.55	44.852
447.91	44.386
448.26	44.214
448.61	44.109
448.96	43.347
449.31	44.304
449.66	42.070
450.02	43.432
450.37	43.742
450.72	43.926
451.07	44.364
451.42	43.610
451.77	43.253
452.12	41.479
452.47	45.054
452.83	44.521
453.18	43.889
453.53	43.370
453.88	43.778
454.23	43.770
454.58	43.734
454.93	41.757
455.28	41.480
455.63	41.715
455.98	43.718
456.34	42.867
456.69	42.722
457.04	42.585
457.39	42.322
457.74	41.593
458.09	41.942
458.44	42.796
458.79	40.989
459.14	42.397
459.49	41.401
459.84	42.390
460.19	42.589
460.54	40.088
460.89	41.529
461.24	42.468
461.59	41.956
461.94	41.223
462.29	41.040
462.64	40.669
462.99	40.029
463.34	41.392
463.69	41.084
464.04	40.411
464.39	40.514
464.74	40.363
465.09	39.486
465.44	40.192
465.79	40.012
466.14	39.737
466.49	40.214
466.84	39.742
467.19	39.571
467.54	38.992
467.89	40.170
468.24	39.078
468.59	38.351
468.94	38.870
469.29	39.585
469.64	39.971
469.99	38.645
470.34	38.190
470.68	40.000
471.03	37.372
471.38	38.818
471.73	37.500
472.08	38.292
472.43	37.759
472.78	37.128
473.13	37.895
473.48	37.690
473.83	37.781
474.17	36.624
474.52	38.178
474.87	37.184
475.22	38.437
475.57	37.250
475.92	36.725
476.27	36.227
476.61	37.175
476.96	38.115
477.31	38.299
477.66	37.013
478.01	36.963
478.36	36.332
478.70	37.521
479.05	36.216
479.40	36.484
479.75	36.399
480.10	35.768
480.45	36.545
480.79	36.326
481.14	36.690
481.49	36.247
481.84	36.869
482.19	35.756
482.53	35.784
482.88	36.502
483.23	35.578
483.58	34.950
483.92	34.975
484.27	36.108
484.62	36.492
484.97	34.930
485.31	34.571
485.66	34.882
486.01	35.117
486.36	35.405
486.70	35.763
487.05	35.695
487.40	35.268
487.75	35.042
488.09	33.647
488.44	33.840
488.79	34.251
489.13	33.416
489.48	34.187
489.83	33.703
490.17	34.271
490.52	33.222
490.87	33.581
491.22	33.185
491.56	33.498
491.91	34.839
492.26	34.829
492.60	34.337
492.95	33.162
493.30	32.985
493.64	32.860
493.99	33.368
494.34	33.452
494.68	33.003
495.03	31.846
495.37	32.083
495.72	32.911
496.07	32.809
496.41	32.955
496.76	32.760
497.11	32.939
497.45	32.898
497.80	32.347
498.14	31.626
498.49	32.301
498.84	30.922
499.18	32.382
499.53	33.333
499.87	31.848
500.22	32.208
500.56	32.862
500.91	32.354
501.26	31.024
501.60	31.804
501.95	32.497
502.29	32.376
502.64	31.359
502.98	31.348
503.33	30.504
503.67	30.883
504.02	31.307
504.36	30.868
504.71	30.957
505.06	30.102
505.40	31.689
505.75	30.437
506.09	31.419
506.44	30.526
506.78	31.156
507.13	30.945
507.47	31.967
507.82	30.190
508.16	31.292
508.51	31.236
508.85	31.099
509.19	30.335
509.54	31.048
509.88	30.610
510.23	29.775
510.57	29.813
510.92	29.875
511.26	29.351
511.61	31.450
511.95	29.960
512.30	29.739
512.64	29.326
512.98	30.538
513.33	30.246
513.67	29.641
514.02	28.846
514.36	30.190
514.70	29.690
515.05	28.902
515.39	29.799
515.74	29.762
516.08	29.692
516.42	29.894
516.77	30.000
517.11	29.602
517.46	29.357
517.80	29.611
518.14	29.981
518.49	29.948
518.83	29.118
519.17	28.856
519.52	29.357
519.86	29.576
520.20	29.108
520.55	30.091
520.89	30.094
521.23	29.392
521.58	28.042
521.92	28.171
522.26	29.278
522.61	29.488
522.95	28.699
523.29	28.543
523.64	28.765
523.98	28.696
524.32	28.620
524.66	29.232
525.01	28.591
525.35	28.249
525.69	28.080
526.04	28.823
526.38	28.855
526.72	28.264
527.06	28.833
527.41	28.561
527.75	27.925
528.09	27.723
528.43	27.073
528.78	28.442
529.12	27.466
529.46	27.641
529.80	28.046
530.15	29.187
530.49	28.382
530.83	28.055
531.17	27.401
531.51	28.194
531.86	28.361
532.20	27.201
532.54	27.338
532.88	27.345
533.22	28.592
533.57	27.172
533.91	28.217
534.25	28.853
534.59	28.748
534.93	26.998
535.27	27.879
535.62	28.427
535.96	28.332
536.30	27.418
536.64	27.182
536.98	28.024
537.32	27.158
537.66	26.686
538.01	27.393
538.35	27.127
538.69	27.459
539.03	26.965
539.37	27.207
539.71	27.899
540.05	28.437
540.39	26.652
540.73	27.399
541.07	26.250
541.42	27.014
541.76	27.554
542.10	27.188
542.44	27.962
542.78	26.540
543.12	25.199
543.46	27.273
543.80	26.733
544.14	27.168
544.48	26.737
544.82	25.905
545.16	27.464
545.50	27.802
545.84	26.774
546.18	26.667
546.52	25.980
546.86	25.784
547.20	26.439
547.54	25.474
547.88	26.638
548.22	26.231
548.56	26.991
548.90	26.316
549.24	26.170
549.58	25.633
549.92	25.714
550.26	26.564
550.60	26.487
550.94	26.111
551.28	26.098
551.62	26.372
551.96	27.157
552.30	25.814
552.64	26.071
552.98	25.780
553.32	25.606
553.66	26.404
554.00	25.560
554.34	26.641
554.68	25.120
555.02	26.508
555.36	25.576
555.69	25.288
556.03	26.460
556.37	25.206
556.71	25.038
557.05	25.469
557.39	25.622
557.73	25.943
558.07	26.604
558.41	24.421
558.75	25.975
559.08	26.213
559.42	25.084
559.76	24.937
560.10	25.917
560.44	25.257
560.78	25.695
561.12	25.319
561.45	25.744
561.79	24.963
562.13	24.166
562.47	25.229
562.81	24.943
563.15	24.106
563.48	25.318
563.82	25.619
564.16	25.617
564.50	25.143
564.84	25.514
565.17	25.393
565.51	25.053
565.85	25.070
566.19	25.261
566.52	26.380
566.86	25.683
567.20	25.216
567.54	25.590
567.88	24.818
568.21	26.319
568.55	25.127
568.89	26.429
569.23	25.402
569.56	25.977
569.90	25.824
570.24	26.478
570.57	26.448
570.91	26.747
571.25	26.894
571.59	26.623
571.92	25.767
572.26	25.918
572.60	26.106
572.93	26.686
573.27	25.665
573.61	26.153
573.95	25.799
574.28	26.207
574.62	25.952
574.96	25.815
575.29	26.020
575.63	25.887
575.97	25.394
576.30	26.113
576.64	25.937
576.98	25.980
577.31	26.086
577.65	26.408
577.98	26.031
578.32	25.939
578.66	25.733
578.99	26.272
579.33	25.799
579.67	25.691
580.00	26.298
580.34	26.106
580.67	25.814
581.01	25.604
581.35	25.583
581.68	25.638
582.02	26.174
582.35	25.888
582.69	26.008
583.02	26.068
583.36	25.566
583.70	25.654
584.03	26.016
584.37	26.006
584.70	25.730
585.04	25.384
585.37	25.581
585.71	25.755
586.04	25.842
586.38	26.151
586.72	25.375
587.05	25.614
587.39	25.294
587.72	25.896
588.06	25.736
588.39	26.001
588.73	25.453
589.06	25.535
589.40	25.801
589.73	25.654
590.07	25.281
590.40	24.951
590.73	25.823
591.07	24.719
591.40	25.126
591.74	24.953
592.07	25.310
592.41	25.211
592.74	25.522
593.08	25.094
593.41	25.574
593.75	25.817
594.08	25.849
594.41	24.943
594.75	25.450
595.08	25.438
595.42	24.709
595.75	25.568
596.09	25.020
596.42	25.877
596.75	25.500
597.09	24.720
597.42	24.730
597.75	25.610
598.09	24.953
598.42	24.752
598.76	24.636
599.09	24.622
599.42	24.508
599.76	25.539
600.09	25.623
600.42	25.117
600.76	24.750
601.09	24.353
601.42	24.436
601.76	24.229
602.09	24.885
602.42	24.924
602.76	25.131
603.09	24.891
603.42	24.787
603.76	24.801
604.09	25.355
604.42	25.290
604.76	25.057
605.09	24.516
605.42	24.645
605.75	24.075
606.09	25.156
606.42	25.022
606.75	25.666
607.09	25.000
607.42	24.782
607.75	24.793
608.08	24.930
608.42	25.267
608.75	25.013
609.08	23.372
609.41	24.987
609.75	24.223
610.08	24.444
610.41	24.377
610.74	24.267
611.07	24.802
611.41	24.036
611.74	24.374
612.07	23.940
612.40	24.401
612.73	24.421
613.07	24.251
613.40	25.244
613.73	23.540
614.06	23.419
614.39	24.370
614.72	23.967
615.06	24.225
615.39	23.383
615.72	23.292
616.05	24.058
616.38	24.496
616.71	23.507
617.05	24.183
617.38	24.645
617.71	24.233
618.04	24.376
618.37	23.676
618.70	24.592
619.03	23.858
619.36	23.638
619.69	22.162
620.03	24.027
620.36	23.885
620.69	23.060
621.02	22.724
621.35	24.000
621.68	23.762
622.01	22.906
622.34	23.786
622.67	23.946
623.00	23.587
623.33	23.622
623.66	25.020
623.99	23.684
624.32	23.511
624.65	23.047
624.99	23.359
625.32	23.302
625.65	23.058
625.98	24.083
626.31	22.771
626.64	22.973
626.97	24.081
627.30	23.056
627.63	23.907
627.96	23.650
628.29	22.753
628.62	23.711
628.95	22.070
629.28	22.727
629.61	22.362
629.94	23.651
630.26	21.862
630.59	23.665
630.92	21.707
631.25	20.894
631.58	22.326
631.91	21.754
632.24	22.130
