SpectraSuite Data File
++++++++++++++++++++++++++++++++++++
Date: Tue May 12 19:35:43 PDT 2015
User: schluterlab
Dark Spectrum Present: Yes
Reference Spectrum Present: Yes
Number of Sampled Component Spectra: 1
Spectrometers: USB2E3373
Integration Time (usec): 3000 (USB2E3373)
Spectra Averaged: 3 (USB2E3373)
Boxcar Smoothing: 0 (USB2E3373)
Correct for Electrical Dark: No (USB2E3373)
Strobe/Lamp Enabled: No (USB2E3373)
Correct for Detector Non-linearity: No (USB2E3373)
Correct for Stray Light: No (USB2E3373)
Number of Pixels in Processed Spectrum: 2048
>>>>>Begin Processed Spectral Data<<<<<
178.53	0.000
178.91	-50.000
179.29	-116.667
179.67	33.333
180.04	0.000
180.42	-80.000
180.80	-133.333
181.18	100.000
181.56	-200.000
181.94	233.333
182.31	1300.000
182.69	71.429
183.07	0.000
183.45	91.667
183.83	300.000
184.20	316.667
184.58	100.000
184.96	216.667
185.34	-300.000
185.72	28.571
186.09	-200.000
186.47	0.000
186.85	40.000
187.23	116.667
187.61	-71.429
187.98	-460.000
188.36	250.000
188.74	-100.000
189.12	-44.444
189.49	-10.000
189.87	225.000
190.25	155.556
190.63	366.667
191.00	160.000
191.38	-166.667
191.76	340.000
192.14	-157.143
192.51	20.000
192.89	-60.000
193.27	-240.000
193.65	33.333
194.02	0.000
194.40	900.000
194.78	0.000
195.15	-157.143
195.53	-33.333
195.91	160.000
196.29	-325.000
196.66	300.000
197.04	-157.143
197.42	120.000
197.79	-12.500
198.17	-66.667
198.55	0.000
198.92	-200.000
199.30	400.000
199.68	-125.000
200.05	-800.000
200.43	-33.333
200.81	-100.000
201.18	266.667
201.56	-450.000
201.94	-800.000
202.31	25.000
202.69	133.333
203.07	25.000
203.44	-375.000
203.82	0.000
204.19	212.500
204.57	-333.333
204.95	36.364
205.32	-60.000
205.70	225.000
206.08	-400.000
206.45	-20.000
206.83	1600.000
207.20	-55.556
207.58	-23.077
207.96	333.333
208.33	533.333
208.71	33.333
209.08	450.000
209.46	22.222
209.84	133.333
210.21	-366.667
210.59	100.000
210.96	122.222
211.34	-25.000
211.71	600.000
212.09	40.000
212.46	-137.500
212.84	-37.500
213.22	85.714
213.59	25.000
213.97	0.000
214.34	-350.000
214.72	-800.000
215.09	100.000
215.47	0.000
215.84	-112.500
216.22	-900.000
216.59	400.000
216.97	-16.667
217.34	66.667
217.72	50.000
218.09	300.000
218.47	21.053
218.84	-200.000
219.22	-28.571
219.59	-90.000
219.97	-30.000
220.34	166.667
220.72	36.364
221.09	-950.000
221.47	0.000
221.84	-50.000
222.22	-225.000
222.59	-325.000
222.97	21.739
223.34	73.333
223.72	142.857
224.09	0.000
224.46	76.923
224.84	6.667
225.21	150.000
225.59	-150.000
225.96	70.000
226.34	250.000
226.71	200.000
227.08	23.077
227.46	-14.286
227.83	-41.667
228.21	-50.000
228.58	300.000
228.95	52.632
229.33	31.250
229.70	-133.333
230.08	-66.667
230.45	-233.333
230.82	-100.000
231.20	-4.762
231.57	-120.000
231.95	-200.000
232.32	122.222
232.69	-700.000
233.07	31.250
233.44	0.000
233.81	19.355
234.19	-260.000
234.56	22.222
234.93	-33.333
235.31	51.852
235.68	14.815
236.05	-3.846
236.43	-21.053
236.80	-27.273
237.17	-64.286
237.55	-75.000
237.92	16.279
238.29	-3.226
238.67	-39.286
239.04	0.000
239.41	-1.961
239.79	14.000
240.16	-10.000
240.53	-6.897
240.91	8.219
241.28	1.408
241.65	10.938
242.02	-12.281
242.40	10.667
242.77	15.789
243.14	8.235
243.51	2.151
243.89	-1.905
244.26	9.259
244.63	1.020
245.00	-1.786
245.38	0.840
245.75	1.695
246.12	4.688
246.49	1.600
246.87	-4.098
247.24	0.704
247.61	0.000
247.98	3.933
248.36	1.258
248.73	-1.136
249.10	6.667
249.47	3.125
249.84	5.076
250.22	3.646
250.59	-5.056
250.96	0.000
251.33	6.132
251.70	2.294
252.08	5.195
252.45	5.714
252.82	-2.110
253.19	4.280
253.56	9.412
253.94	0.813
254.31	9.712
254.68	5.208
255.05	8.940
255.42	5.818
255.79	9.603
256.16	5.208
256.54	10.000
256.91	7.372
257.28	9.416
257.65	4.590
258.02	6.306
258.39	7.251
258.76	6.422
259.14	5.294
259.51	10.141
259.88	8.934
260.25	4.830
260.62	5.337
260.99	6.685
261.36	6.034
261.73	8.000
262.10	7.357
262.47	7.163
262.85	9.512
263.22	6.720
263.59	7.507
263.96	6.527
264.33	2.965
264.70	3.440
265.07	8.621
265.44	8.431
265.81	8.193
266.18	6.557
266.55	7.143
266.92	7.813
267.29	5.556
267.66	5.455
268.03	8.172
268.40	7.094
268.77	7.795
269.14	6.933
269.51	5.204
269.88	6.624
270.25	4.641
270.62	7.773
270.99	8.000
271.36	4.636
271.73	5.625
272.10	6.846
272.47	6.400
272.84	3.822
273.21	5.846
273.58	7.347
273.95	8.765
274.32	6.576
274.69	7.828
275.06	7.505
275.43	4.800
275.80	8.031
276.17	5.138
276.54	6.654
276.91	7.678
277.28	8.124
277.65	4.726
278.02	4.167
278.39	8.893
278.76	7.821
279.13	8.229
279.50	8.845
279.87	7.736
280.23	6.193
280.60	6.537
280.97	4.921
281.34	5.593
281.71	4.440
282.08	5.546
282.45	5.644
282.82	5.387
283.19	7.912
283.56	8.362
283.92	7.109
284.29	7.953
284.66	6.018
285.03	6.518
285.40	7.000
285.77	5.911
286.14	5.388
286.51	5.305
286.87	7.455
287.24	5.769
287.61	4.784
287.98	10.172
288.35	6.202
288.72	6.422
289.08	4.088
289.45	5.460
289.82	3.727
290.19	6.970
290.56	6.657
290.93	6.056
291.29	5.674
291.66	7.022
292.03	8.178
292.40	6.619
292.77	4.373
293.13	5.727
293.50	6.336
293.87	6.519
294.24	6.180
294.60	6.831
294.97	5.125
295.34	5.479
295.71	5.409
296.08	5.874
296.44	6.324
296.81	5.951
297.18	6.856
297.55	4.899
297.91	5.711
298.28	4.476
298.65	5.951
299.02	7.152
299.38	5.867
299.75	5.663
300.12	5.875
300.48	6.221
300.85	4.034
301.22	6.250
301.59	5.474
301.95	5.610
302.32	6.318
302.69	4.756
303.05	4.841
303.42	4.106
303.79	4.157
304.15	4.757
304.52	5.810
304.89	5.186
305.25	5.734
305.62	5.341
305.99	4.703
306.35	5.145
306.72	6.100
307.09	4.570
307.45	5.609
307.82	4.696
308.19	4.070
308.55	5.696
308.92	4.449
309.29	4.079
309.65	6.192
310.02	5.136
310.38	5.330
310.75	5.943
311.12	4.476
311.48	5.755
311.85	5.167
312.22	5.165
312.58	4.834
312.95	5.236
313.31	4.228
313.68	5.164
314.05	5.859
314.41	4.420
314.78	4.724
315.14	4.995
315.51	5.462
315.87	6.348
316.24	5.638
316.61	6.117
316.97	5.686
317.34	6.316
317.70	5.976
318.07	4.822
318.43	6.900
318.80	7.195
319.16	5.033
319.53	6.509
319.89	5.777
320.26	6.195
320.62	6.589
320.99	7.653
321.35	7.115
321.72	8.283
322.08	7.228
322.45	9.172
322.81	8.079
323.18	8.150
323.54	8.910
323.91	8.065
324.27	6.847
324.64	7.779
325.00	8.007
325.37	8.813
325.73	8.485
326.10	9.895
326.46	9.157
326.83	9.587
327.19	8.472
327.56	10.610
327.92	9.983
328.29	10.125
328.65	12.241
329.01	10.826
329.38	11.203
329.74	10.678
330.11	10.624
330.47	11.173
330.84	10.620
331.20	10.906
331.56	11.132
331.93	11.711
332.29	10.453
332.66	11.844
333.02	12.163
333.38	12.500
333.75	11.345
334.11	11.121
334.48	12.791
334.84	12.113
335.20	11.907
335.57	12.534
335.93	12.093
336.29	11.426
336.66	11.749
337.02	11.967
337.38	11.604
337.75	12.182
338.11	13.491
338.47	13.092
338.84	11.602
339.20	13.382
339.56	11.650
339.93	14.234
340.29	12.874
340.65	12.603
341.02	12.578
341.38	12.004
341.74	13.345
342.11	11.760
342.47	12.937
342.83	13.183
343.20	13.970
343.56	13.112
343.92	12.861
344.28	11.835
344.65	12.671
345.01	13.153
345.37	12.735
345.73	12.575
346.10	13.397
346.46	12.166
346.82	13.169
347.19	12.195
347.55	12.925
347.91	12.776
348.27	13.985
348.63	13.397
349.00	13.606
349.36	13.932
349.72	13.465
350.08	14.403
350.45	13.670
350.81	13.460
351.17	12.438
351.53	13.527
351.89	12.867
352.26	12.602
352.62	13.737
352.98	14.142
353.34	13.617
353.70	13.909
354.07	13.921
354.43	14.524
354.79	13.852
355.15	14.044
355.51	14.588
355.87	14.238
356.24	15.605
356.60	13.022
356.96	13.665
357.32	14.239
357.68	13.842
358.04	14.587
358.40	15.794
358.77	13.896
359.13	14.779
359.49	14.000
359.85	14.708
360.21	14.830
360.57	14.593
360.93	15.202
361.29	14.564
361.66	14.590
362.02	15.149
362.38	15.540
362.74	15.450
363.10	15.158
363.46	16.253
363.82	16.233
364.18	15.594
364.54	15.954
364.90	14.889
365.26	16.244
365.62	16.200
365.98	15.742
366.35	16.036
366.71	16.804
367.07	16.015
367.43	15.957
367.79	15.698
368.15	16.605
368.51	17.378
368.87	17.621
369.23	17.411
369.59	16.838
369.95	15.723
370.31	16.515
370.67	17.218
371.03	16.099
371.39	17.372
371.75	16.790
372.11	17.333
372.47	16.927
372.83	18.992
373.19	18.675
373.55	17.365
373.91	17.879
374.27	18.322
374.63	18.336
374.99	18.302
375.35	17.852
375.71	18.293
376.07	18.163
376.42	19.640
376.78	18.815
377.14	19.553
377.50	19.083
377.86	19.708
378.22	19.287
378.58	20.461
378.94	19.384
379.30	19.305
379.66	19.974
380.02	20.407
380.38	20.547
380.74	19.702
381.09	20.076
381.45	20.762
381.81	20.281
382.17	20.586
382.53	21.302
382.89	20.462
383.25	20.609
383.61	20.470
383.97	21.962
384.32	21.548
384.68	21.967
385.04	21.260
385.40	21.342
385.76	22.201
386.12	22.178
386.48	21.983
386.83	21.856
387.19	22.542
387.55	21.762
387.91	21.620
388.27	22.073
388.62	23.251
388.98	21.883
389.34	22.056
389.70	23.333
390.06	23.498
390.42	24.070
390.77	23.877
391.13	24.593
391.49	23.652
391.85	23.886
392.20	24.752
392.56	24.296
392.92	23.933
393.28	24.596
393.64	23.179
393.99	23.442
394.35	24.270
394.71	24.503
395.07	24.536
395.42	24.317
395.78	25.134
396.14	24.650
396.50	25.744
396.85	25.446
397.21	24.968
397.57	23.897
397.92	25.254
398.28	25.779
398.64	25.016
399.00	25.885
399.35	25.440
399.71	25.868
400.07	26.560
400.42	26.218
400.78	26.168
401.14	25.884
401.49	26.109
401.85	27.175
402.21	26.269
402.57	25.757
402.92	26.959
403.28	27.048
403.63	27.051
403.99	25.892
404.35	26.688
404.70	27.739
405.06	27.154
405.42	27.001
405.77	26.813
406.13	27.300
406.49	26.940
406.84	27.895
407.20	27.447
407.55	28.390
407.91	26.364
408.27	27.261
408.62	27.010
408.98	27.799
409.34	27.785
409.69	27.759
410.05	26.749
410.40	28.003
410.76	28.082
411.11	27.473
411.47	28.639
411.83	27.366
412.18	28.207
412.54	28.655
412.89	28.368
413.25	28.589
413.60	28.954
413.96	28.673
414.31	28.426
414.67	29.507
415.03	28.631
415.38	29.248
415.74	29.281
416.09	29.635
416.45	29.016
416.80	28.025
417.16	29.408
417.51	29.840
417.87	31.122
418.22	30.816
418.58	30.062
418.93	30.754
419.29	30.529
419.64	31.525
420.00	31.631
420.35	31.262
420.71	32.266
421.06	30.824
421.42	31.430
421.77	32.217
422.12	31.660
422.48	32.667
422.83	32.766
423.19	32.471
423.54	32.743
423.90	32.695
424.25	33.474
424.61	33.677
424.96	33.231
425.31	34.481
425.67	34.000
426.02	34.099
426.38	34.427
426.73	34.704
427.09	34.143
427.44	35.370
427.79	35.520
428.15	35.384
428.50	36.244
428.85	34.124
429.21	35.744
429.56	35.856
429.92	34.938
430.27	34.507
430.62	36.344
430.98	36.378
431.33	35.984
431.68	36.761
432.04	37.802
432.39	36.720
432.74	37.002
433.10	37.477
433.45	38.315
433.80	37.798
434.16	37.514
434.51	37.570
434.86	38.127
435.22	37.078
435.57	40.303
435.92	37.647
436.28	38.481
436.63	38.462
436.98	38.519
437.34	40.755
437.69	39.383
438.04	38.101
438.39	39.360
438.75	40.123
439.10	40.893
439.45	40.822
439.81	39.873
440.16	40.754
440.51	40.087
440.86	40.657
441.22	39.845
441.57	40.399
441.92	41.303
442.27	41.486
442.63	42.043
442.98	41.932
443.33	41.246
443.68	41.320
444.03	41.546
444.39	40.864
444.74	41.385
445.09	42.739
445.44	40.700
445.79	42.826
446.15	42.274
446.50	42.684
446.85	41.914
447.20	41.740
447.55	40.896
447.91	42.916
448.26	43.027
448.61	44.290
448.96	41.336
449.31	42.254
449.66	41.283
450.02	42.189
450.37	43.196
450.72	43.686
451.07	42.584
451.42	43.939
451.77	41.425
452.12	43.358
452.47	43.360
452.83	43.773
453.18	43.619
453.53	44.546
453.88	43.586
454.23	43.706
454.58	44.191
454.93	43.188
455.28	44.467
455.63	43.535
455.98	43.591
456.34	44.340
456.69	43.737
457.04	44.423
457.39	43.695
457.74	43.047
458.09	42.999
458.44	45.310
458.79	44.346
459.14	44.246
459.49	44.013
459.84	44.649
460.19	43.965
460.54	43.182
460.89	43.235
461.24	44.610
461.59	45.174
461.94	44.905
462.29	44.424
462.64	44.568
462.99	45.758
463.34	44.469
463.69	46.159
464.04	44.772
464.39	45.209
464.74	44.517
465.09	44.759
465.44	43.851
465.79	45.006
466.14	44.332
466.49	43.902
466.84	44.287
467.19	43.600
467.54	42.971
467.89	45.330
468.24	43.750
468.59	43.717
468.94	44.855
469.29	45.675
469.64	45.879
469.99	44.773
470.34	43.989
470.68	45.923
471.03	45.766
471.38	46.447
471.73	45.712
472.08	45.053
472.43	45.920
472.78	45.105
473.13	46.175
473.48	45.920
473.83	44.650
474.17	44.096
474.52	44.943
474.87	46.338
475.22	45.489
475.57	45.182
475.92	44.571
476.27	45.811
476.61	47.163
476.96	45.643
477.31	45.776
477.66	45.671
478.01	46.675
478.36	44.928
478.70	45.352
479.05	45.270
479.40	43.836
479.75	45.934
480.10	45.022
480.45	45.550
480.79	45.874
481.14	45.915
481.49	45.141
481.84	46.010
482.19	43.854
482.53	45.735
482.88	45.653
483.23	45.779
483.58	45.644
483.92	45.327
484.27	45.450
484.62	46.393
484.97	45.123
485.31	44.702
485.66	43.757
486.01	42.548
486.36	42.559
486.70	42.997
487.05	42.598
487.40	43.005
487.75	42.972
488.09	43.233
488.44	43.529
488.79	43.884
489.13	44.140
489.48	44.832
489.83	44.244
490.17	44.820
490.52	43.738
490.87	46.142
491.22	45.611
491.56	45.109
491.91	44.930
492.26	46.048
492.60	45.765
492.95	44.661
493.30	45.949
493.64	45.183
493.99	46.201
494.34	46.275
494.68	45.342
495.03	43.813
495.37	45.109
495.72	46.361
496.07	44.980
496.41	44.269
496.76	45.129
497.11	45.741
497.45	45.103
497.80	46.521
498.14	45.090
498.49	45.275
498.84	45.021
499.18	44.318
499.53	45.067
499.87	46.032
500.22	44.987
500.56	46.311
500.91	45.988
501.26	45.407
501.60	46.636
501.95	44.780
502.29	45.357
502.64	44.450
502.98	45.533
503.33	44.284
503.67	45.278
504.02	46.016
504.36	45.660
504.71	45.426
505.06	46.438
505.40	46.434
505.75	45.024
506.09	46.587
506.44	46.835
506.78	46.627
507.13	46.145
507.47	46.039
507.82	45.982
508.16	46.437
508.51	46.280
508.85	47.308
509.19	47.120
509.54	48.329
509.88	48.159
510.23	47.416
510.57	46.621
510.92	46.712
511.26	46.870
511.61	47.374
511.95	47.715
512.30	48.348
512.64	47.449
512.98	48.671
513.33	46.542
513.67	47.964
514.02	49.099
514.36	47.450
514.70	48.695
515.05	49.512
515.39	48.745
515.74	50.188
516.08	49.592
516.42	48.602
516.77	50.435
517.11	48.379
517.46	50.406
517.80	50.734
518.14	49.336
518.49	51.100
518.83	51.427
519.17	50.643
519.52	49.969
519.86	50.475
520.20	49.809
520.55	51.240
520.89	51.957
521.23	50.367
521.58	51.786
521.92	51.469
522.26	51.615
522.61	52.901
522.95	51.507
523.29	51.889
523.64	51.628
523.98	51.411
524.32	52.256
524.66	52.549
525.01	51.753
525.35	52.326
525.69	51.755
526.04	52.361
526.38	53.393
526.72	53.611
527.06	53.727
527.41	52.303
527.75	52.907
528.09	52.687
528.43	52.020
528.78	52.690
529.12	52.397
529.46	53.023
529.80	51.055
530.15	53.231
530.49	52.929
530.83	52.639
531.17	51.836
531.51	52.962
531.86	51.681
532.20	51.082
532.54	53.597
532.88	52.000
533.22	52.945
533.57	52.138
533.91	51.686
534.25	51.731
534.59	52.751
534.93	52.451
535.27	52.727
535.62	52.262
535.96	53.105
536.30	52.262
536.64	52.504
536.98	53.024
537.32	53.125
537.66	52.859
538.01	51.988
538.35	53.091
538.69	50.672
539.03	52.199
539.37	51.400
539.71	52.101
540.05	52.822
540.39	51.779
540.73	52.527
541.07	53.529
541.42	52.245
541.76	51.942
542.10	51.793
542.44	51.879
542.78	51.320
543.12	50.469
543.46	52.459
543.80	51.108
544.14	53.190
544.48	51.158
544.82	50.674
545.16	51.377
545.50	51.456
545.84	52.231
546.18	52.434
546.52	52.575
546.86	51.645
547.20	51.667
547.54	50.644
547.88	50.855
548.22	49.789
548.56	50.951
548.90	50.667
549.24	52.558
549.58	52.161
549.92	51.128
550.26	50.811
550.60	53.053
550.94	53.333
551.28	52.602
551.62	54.545
551.96	51.358
552.30	50.543
552.64	49.437
552.98	51.263
553.32	52.273
553.66	51.062
554.00	51.197
554.34	52.500
554.68	50.718
555.02	50.714
555.36	51.231
555.69	51.115
556.03	49.224
556.37	50.113
556.71	50.905
557.05	51.641
557.39	53.173
557.73	50.865
558.07	51.565
558.41	50.918
558.75	52.199
559.08	52.085
559.42	52.007
559.76	50.800
560.10	51.834
560.44	49.485
560.78	51.089
561.12	50.338
561.45	49.926
561.79	49.339
562.13	50.556
562.47	50.535
562.81	49.204
563.15	48.593
563.48	48.390
563.82	49.636
564.16	48.766
564.50	49.427
564.84	49.114
565.17	49.785
565.51	48.628
565.85	49.085
566.19	47.947
566.52	48.961
566.86	47.814
567.20	48.769
567.54	48.819
567.88	46.723
568.21	46.952
568.55	46.406
568.89	46.538
569.23	45.382
569.56	43.770
569.90	43.726
570.24	43.381
570.57	42.814
570.91	43.122
571.25	43.457
571.59	42.623
571.92	41.705
572.26	40.759
572.60	41.950
572.93	41.356
573.27	40.655
573.61	41.535
573.95	41.018
574.28	40.690
574.62	39.906
574.96	40.365
575.29	39.623
575.63	39.578
575.97	39.458
576.30	39.907
576.64	39.030
576.98	39.744
577.31	39.573
577.65	38.749
577.98	38.730
578.32	38.275
578.66	39.052
578.99	39.083
579.33	39.069
579.67	39.124
580.00	38.915
580.34	38.688
580.67	38.708
581.01	38.804
581.35	38.016
581.68	38.292
582.02	37.992
582.35	37.925
582.69	38.300
583.02	38.088
583.36	38.007
583.70	39.095
584.03	38.759
584.37	39.595
584.70	38.780
585.04	38.412
585.37	38.768
585.71	38.394
586.04	39.202
586.38	38.981
586.72	39.123
587.05	39.071
587.39	38.587
587.72	38.483
588.06	38.352
588.39	39.118
588.73	39.819
589.06	38.880
589.40	39.388
589.73	39.454
590.07	39.721
590.40	39.699
590.73	40.233
591.07	40.303
591.40	40.749
591.74	40.112
592.07	40.926
592.41	40.862
592.74	40.861
593.08	38.993
593.41	39.458
593.75	39.366
594.08	39.292
594.41	38.772
594.75	39.037
595.08	38.917
595.42	39.129
595.75	39.091
596.09	39.191
596.42	39.027
596.75	40.182
597.09	39.459
597.42	38.573
597.75	40.666
598.09	39.139
598.42	39.754
598.76	39.299
599.09	38.824
599.42	37.333
599.76	37.897
600.09	39.027
600.42	37.344
600.76	38.029
601.09	38.392
601.42	38.164
601.76	37.825
602.09	38.793
602.42	40.122
602.76	38.656
603.09	38.294
603.42	38.927
603.76	38.607
604.09	38.137
604.42	38.128
604.76	38.749
605.09	38.073
605.42	38.104
605.75	37.917
606.09	38.089
606.42	38.408
606.75	37.833
607.09	37.966
607.42	37.311
607.75	37.236
608.08	37.746
608.42	37.148
608.75	37.969
609.08	36.547
609.41	38.258
609.75	39.179
610.08	37.726
610.41	38.473
610.74	37.614
611.07	37.969
611.41	38.009
611.74	37.758
612.07	37.946
612.40	38.942
612.73	37.847
613.07	37.581
613.40	38.413
613.73	38.545
614.06	37.881
614.39	39.602
614.72	38.076
615.06	39.437
615.39	37.529
615.72	37.626
616.05	37.043
616.38	38.197
616.71	37.873
617.05	37.877
617.38	37.742
617.71	38.668
618.04	38.371
618.37	38.129
618.70	38.451
619.03	39.449
619.36	39.912
619.69	39.813
620.03	39.283
620.36	39.531
620.69	37.842
621.02	38.163
621.35	39.574
621.68	41.044
622.01	39.750
622.34	39.196
622.67	39.713
623.00	40.541
623.33	39.449
623.66	40.478
623.99	38.836
624.32	39.158
624.65	38.281
624.99	38.750
625.32	38.389
625.65	37.550
625.98	39.917
626.31	39.134
626.64	40.721
626.97	41.636
627.30	40.648
627.63	40.651
627.96	39.572
628.29	39.866
628.62	41.856
628.95	40.232
629.28	39.463
629.61	40.543
629.94	41.494
630.26	41.213
630.59	42.723
630.92	40.464
631.25	40.335
631.58	41.977
631.91	41.230
632.24	43.314
632.57	42.331
632.90	44.403
633.23	44.258
633.56	42.138
633.89	43.668
634.22	42.308
634.55	44.021
634.88	42.169
635.20	43.973
635.53	44.553
635.86	43.750
636.19	42.156
636.52	42.992
636.85	40.287
637.18	41.839
637.51	41.734
637.83	43.436
638.16	44.381
