SpectraSuite Data File
++++++++++++++++++++++++++++++++++++
Date: Tue May 12 19:37:38 PDT 2015
User: schluterlab
Dark Spectrum Present: Yes
Reference Spectrum Present: Yes
Number of Sampled Component Spectra: 1
Spectrometers: USB2E3373
Integration Time (usec): 3000 (USB2E3373)
Spectra Averaged: 3 (USB2E3373)
Boxcar Smoothing: 0 (USB2E3373)
Correct for Electrical Dark: No (USB2E3373)
Strobe/Lamp Enabled: No (USB2E3373)
Correct for Detector Non-linearity: No (USB2E3373)
Correct for Stray Light: No (USB2E3373)
Number of Pixels in Processed Spectrum: 2048
>>>>>Begin Processed Spectral Data<<<<<
178.53	0.000
178.91	-40.000
179.29	-100.000
179.67	233.333
180.04	0.000
180.42	-20.000
180.80	-333.333
181.18	800.000
181.56	100.000
181.94	183.333
182.31	1000.000
182.69	-100.000
183.07	0.000
183.45	166.667
183.83	520.000
184.20	416.667
184.58	750.000
184.96	100.000
185.34	-200.000
185.72	14.286
186.09	-33.333
186.47	-1100.000
186.85	-280.000
187.23	108.333
187.61	-185.714
187.98	-300.000
188.36	300.000
188.74	-125.000
189.12	-44.444
189.49	-90.000
189.87	300.000
190.25	111.111
190.63	300.000
191.00	40.000
191.38	-266.667
191.76	400.000
192.14	-14.286
192.51	-60.000
192.89	-120.000
193.27	-40.000
193.65	-300.000
194.02	-66.667
194.40	1100.000
194.78	-25.000
195.15	-271.429
195.53	266.667
195.91	300.000
196.29	-525.000
196.66	-333.333
197.04	-57.143
197.42	80.000
197.79	-225.000
198.17	-91.667
198.55	-600.000
198.92	-155.556
199.30	700.000
199.68	-225.000
200.05	-1100.000
200.43	-44.444
200.81	-91.667
201.18	266.667
201.56	-350.000
201.94	-900.000
202.31	-75.000
202.69	33.333
203.07	16.667
203.44	-300.000
203.82	0.000
204.19	175.000
204.57	-333.333
204.95	81.818
205.32	200.000
205.70	100.000
206.08	-500.000
206.45	-260.000
206.83	1800.000
207.20	-122.222
207.58	-69.231
207.96	333.333
208.33	600.000
208.71	500.000
209.08	400.000
209.46	-11.111
209.84	633.333
210.21	-500.000
210.59	100.000
210.96	200.000
211.34	-50.000
211.71	1150.000
212.09	-40.000
212.46	-150.000
212.84	-62.500
213.22	100.000
213.59	25.000
213.97	0.000
214.34	-100.000
214.72	-800.000
215.09	850.000
215.47	6.667
215.84	-50.000
216.22	-1300.000
216.59	200.000
216.97	-83.333
217.34	-83.333
217.72	16.667
218.09	400.000
218.47	-42.105
218.84	-25.000
219.22	28.571
219.59	0.000
219.97	-100.000
220.34	133.333
220.72	118.182
221.09	-950.000
221.47	0.000
221.84	400.000
222.22	-400.000
222.59	-350.000
222.97	4.348
223.34	126.667
223.72	371.429
224.09	-216.667
224.46	84.615
224.84	-53.333
225.21	-450.000
225.59	25.000
225.96	45.000
226.34	150.000
226.71	170.000
227.08	-61.538
227.46	-114.286
227.83	16.667
228.21	-1050.000
228.58	316.667
228.95	-31.579
229.33	-31.250
229.70	-266.667
230.08	-177.778
230.45	-200.000
230.82	-2200.000
231.20	-19.048
231.57	-120.000
231.95	-333.333
232.32	122.222
232.69	-400.000
233.07	68.750
233.44	-25.000
233.81	12.903
234.19	-380.000
234.56	-11.111
234.93	-133.333
235.31	11.111
235.68	-25.926
236.05	-23.077
236.43	-68.421
236.80	-36.364
237.17	-64.286
237.55	-70.000
237.92	-6.977
238.29	0.000
238.67	-14.286
239.04	8.571
239.41	-1.961
239.79	6.000
240.16	-40.000
240.53	-10.345
240.91	-8.219
241.28	-9.859
241.65	-12.500
242.02	-12.281
242.40	-14.667
242.77	-6.316
243.14	-7.059
243.51	-10.753
243.89	-11.429
244.26	-7.407
244.63	-2.041
245.00	-8.036
245.38	-5.882
245.75	-6.780
246.12	0.781
246.49	-5.600
246.87	-4.098
247.24	-14.789
247.61	0.000
247.98	-1.685
248.36	-5.031
248.73	-1.705
249.10	-6.111
249.47	-3.125
249.84	-2.030
250.22	-5.729
250.59	-7.303
250.96	-4.091
251.33	0.943
251.70	-2.752
252.08	-1.732
252.45	-1.633
252.82	-10.127
253.19	-1.946
253.56	0.784
253.94	-2.439
254.31	5.755
254.68	-0.694
255.05	2.318
255.42	-4.364
255.79	0.662
256.16	-1.389
256.54	5.152
256.91	2.885
257.28	1.948
257.65	-5.902
258.02	1.802
258.39	1.208
258.76	-0.612
259.14	-0.588
259.51	3.944
259.88	6.052
260.25	-0.284
260.62	0.281
260.99	-0.836
261.36	-2.299
261.73	-0.267
262.10	3.270
262.47	1.102
262.85	2.057
263.22	-1.882
263.59	3.217
263.96	-2.350
264.33	-4.852
264.70	2.703
265.07	-1.478
265.44	2.108
265.81	4.819
266.18	-0.234
266.55	0.238
266.92	3.348
267.29	-0.222
267.66	-2.045
268.03	1.720
268.40	0.686
268.77	-1.336
269.14	0.000
269.51	-0.452
269.88	0.427
270.25	-0.422
270.62	1.471
270.99	0.000
271.36	-2.428
271.73	2.083
272.10	3.320
272.47	0.400
272.84	-2.760
273.21	0.418
273.58	0.204
273.95	1.594
274.32	1.934
274.69	2.153
275.06	0.750
275.43	-0.400
275.80	3.824
276.17	-1.581
276.54	3.802
276.91	1.536
277.28	0.387
277.65	-0.378
278.02	0.568
278.39	1.996
278.76	1.490
279.13	4.830
279.50	1.264
279.87	1.698
280.23	1.821
280.60	0.177
280.97	-0.879
281.34	1.864
281.71	-1.066
282.08	0.179
282.45	-1.411
282.82	-0.168
283.19	0.000
283.56	-0.171
283.92	2.054
284.29	2.538
284.66	-0.708
285.03	-1.887
285.40	0.000
285.77	0.821
286.14	0.000
286.51	1.125
286.87	1.459
287.24	0.160
287.61	-0.309
287.98	2.347
288.35	1.395
288.72	2.141
289.08	0.157
289.45	2.652
289.82	-0.776
290.19	0.606
290.56	1.881
290.93	1.625
291.29	0.709
291.66	2.388
292.03	2.009
292.40	3.453
292.77	0.146
293.13	1.909
293.50	0.551
293.87	1.248
294.24	0.000
294.60	1.503
294.97	0.831
295.34	1.370
295.71	1.248
296.08	0.683
296.44	1.976
296.81	1.035
297.18	2.329
297.55	1.256
297.91	1.650
298.28	1.279
298.65	0.259
299.02	1.110
299.38	0.510
299.75	1.544
300.12	2.038
300.48	2.230
300.85	-1.100
301.22	1.563
301.59	0.487
301.95	0.976
302.32	0.851
302.69	0.595
303.05	-0.236
303.42	0.604
303.79	-0.112
304.15	1.359
304.52	1.006
304.89	-0.451
305.25	-0.229
305.62	2.500
305.99	-0.336
306.35	1.007
306.72	1.089
307.09	0.544
307.45	0.539
307.82	1.387
308.19	1.650
308.55	0.316
308.92	0.530
309.29	0.523
309.65	0.619
310.02	0.943
310.38	0.640
310.75	0.717
311.12	1.526
311.48	1.850
311.85	1.216
312.22	1.550
312.58	0.504
312.95	1.643
313.31	0.787
313.68	0.794
314.05	1.589
314.41	0.982
314.78	-0.603
315.14	0.979
315.51	2.483
315.87	2.148
316.24	1.286
316.61	1.068
316.97	0.392
317.34	0.383
317.70	0.000
318.07	-0.482
318.43	0.851
318.80	1.730
319.16	0.186
319.53	1.415
319.89	1.136
320.26	2.163
320.62	0.872
320.99	1.939
321.35	1.779
321.72	3.030
322.08	2.574
322.45	1.874
322.81	1.281
323.18	2.780
323.54	2.275
323.91	1.803
324.27	1.254
324.64	1.874
325.00	1.820
325.37	2.338
325.73	0.182
326.10	1.926
326.46	2.539
326.83	2.199
327.19	2.183
327.56	2.918
327.92	1.389
328.29	1.882
328.65	2.072
329.01	2.294
329.38	1.653
329.74	2.786
330.11	3.355
330.47	2.700
330.84	1.974
331.20	1.848
331.56	1.698
331.93	1.098
332.29	1.758
332.66	2.803
333.02	3.064
333.38	3.585
333.75	2.836
334.11	2.351
334.48	2.504
334.84	1.596
335.20	1.253
335.57	2.725
335.93	2.047
336.29	2.468
336.66	2.732
337.02	3.173
337.38	1.226
337.75	3.727
338.11	2.917
338.47	1.578
338.84	3.039
339.20	3.116
339.56	2.516
339.93	1.441
340.29	2.992
340.65	2.922
341.02	2.126
341.38	2.295
341.74	2.936
342.11	1.768
342.47	1.923
342.83	2.862
343.20	1.857
343.56	2.535
343.92	2.275
344.28	1.801
344.65	2.397
345.01	1.481
345.37	2.479
345.73	2.239
346.10	2.766
346.46	1.812
346.82	1.274
347.19	2.439
347.55	2.466
347.91	1.310
348.27	2.864
348.63	3.284
349.00	3.255
349.36	2.721
349.72	2.709
350.08	2.455
350.45	2.766
350.81	2.642
351.17	2.142
351.53	3.221
351.89	1.123
352.26	1.545
352.62	2.289
352.98	1.841
353.34	2.089
353.70	1.317
354.07	2.801
354.43	0.835
354.79	1.885
355.15	1.856
355.51	2.608
355.87	2.498
356.24	3.431
356.60	1.586
356.96	2.686
357.32	2.305
357.68	2.784
358.04	2.512
358.40	3.519
358.77	2.892
359.13	2.249
359.49	0.800
359.85	2.878
360.21	1.824
360.57	2.153
360.93	1.821
361.29	2.025
361.66	2.366
362.02	2.590
362.38	3.885
362.74	2.229
363.10	2.036
363.46	2.182
363.82	1.608
364.18	1.817
364.54	2.290
364.90	0.889
365.26	1.416
365.62	1.741
365.98	2.624
366.35	2.118
366.71	2.240
367.07	2.657
367.43	2.094
367.79	1.817
368.15	1.927
368.51	2.022
368.87	2.790
369.23	2.952
369.59	2.132
369.95	1.118
370.31	1.894
370.67	2.707
371.03	2.399
371.39	2.039
371.75	1.857
372.11	1.926
372.47	2.673
372.83	1.753
373.19	2.485
373.55	2.769
373.91	2.803
374.27	2.575
374.63	2.430
374.99	1.464
375.35	1.451
375.71	2.511
376.07	2.332
376.42	1.798
376.78	1.672
377.14	2.095
377.50	2.189
377.86	2.298
378.22	2.114
378.58	2.434
378.94	2.685
379.30	2.059
379.66	2.817
380.02	2.161
380.38	1.972
380.74	2.424
381.09	1.779
381.45	2.349
381.81	2.487
382.17	2.541
382.53	1.972
382.89	2.117
383.25	2.219
383.61	1.271
383.97	2.209
384.32	2.129
384.68	2.810
385.04	2.292
385.40	1.725
385.76	2.530
386.12	2.046
386.48	2.348
386.83	1.909
387.19	2.618
387.55	1.619
387.91	1.931
388.27	1.727
388.62	1.425
388.98	2.226
389.34	1.106
389.70	2.372
390.06	2.244
390.42	2.028
390.77	2.683
391.13	2.407
391.49	2.763
391.85	2.262
392.20	2.310
392.56	1.572
392.92	2.474
393.28	2.753
393.64	1.520
393.99	1.429
394.35	2.012
394.71	1.921
395.07	2.520
395.42	1.778
395.78	1.075
396.14	1.066
396.50	2.393
396.85	1.586
397.21	0.970
397.57	1.185
397.92	2.354
398.28	2.038
398.64	1.968
399.00	2.380
399.35	1.993
399.71	2.635
400.07	2.532
400.42	3.013
400.78	1.919
401.14	2.715
401.49	1.999
401.85	2.476
402.21	2.855
402.57	1.803
402.92	1.859
403.28	2.666
403.63	2.628
403.99	2.246
404.35	1.720
404.70	2.217
405.06	2.170
405.42	1.757
405.77	2.259
406.13	1.852
406.49	1.009
406.84	2.927
407.20	2.169
407.55	2.538
407.91	1.678
408.27	3.391
408.62	1.994
408.98	3.024
409.34	1.665
409.69	2.341
410.05	2.137
410.40	1.413
410.76	2.366
411.11	1.875
411.47	2.245
411.83	2.254
412.18	2.356
412.54	2.264
412.89	1.619
413.25	3.197
413.60	1.977
413.96	1.812
414.31	1.912
414.67	2.228
415.03	2.420
415.38	1.880
415.74	2.418
416.09	2.136
416.45	1.840
416.80	2.017
417.16	2.045
417.51	2.706
417.87	2.394
418.22	2.206
418.58	1.382
418.93	2.450
419.29	2.035
419.64	1.992
420.00	2.489
420.35	2.323
420.71	1.921
421.06	2.401
421.42	2.823
421.77	2.680
422.12	2.126
422.48	2.970
422.83	2.067
423.19	3.118
423.54	1.649
423.90	2.349
424.25	2.961
424.61	1.871
424.96	2.518
425.31	1.449
425.67	2.667
426.02	2.050
426.38	2.059
426.73	1.931
427.09	2.101
427.44	2.222
427.79	3.094
428.15	2.536
428.50	3.015
428.85	3.079
429.21	3.228
429.56	2.320
429.92	2.758
430.27	2.400
430.62	3.569
430.98	2.311
431.33	2.280
431.68	2.133
432.04	2.992
432.39	2.377
432.74	3.099
433.10	2.122
433.45	2.027
433.80	3.869
434.16	2.762
434.51	2.620
434.86	2.598
435.22	2.270
435.57	2.507
435.92	1.300
436.28	2.491
436.63	2.862
436.98	2.840
437.34	2.943
437.69	2.593
438.04	1.923
438.39	1.371
438.75	2.646
439.10	3.810
439.45	3.145
439.81	2.349
440.16	2.412
440.51	3.222
440.86	2.588
441.22	3.276
441.57	2.849
441.92	2.319
442.27	2.686
442.63	3.104
442.98	2.812
443.33	2.526
443.68	3.439
444.03	3.144
444.39	1.926
444.74	2.519
445.09	2.243
445.44	2.507
445.79	3.020
446.15	2.974
446.50	2.834
446.85	3.025
447.20	2.352
447.55	3.316
447.91	3.057
448.26	3.442
448.61	2.900
448.96	3.016
449.31	2.411
449.66	3.208
450.02	2.899
450.37	3.038
450.72	2.753
451.07	2.373
451.42	3.096
451.77	2.459
452.12	2.882
452.47	2.642
452.83	2.615
453.18	3.174
453.53	3.984
453.88	2.553
454.23	3.578
454.58	3.068
454.93	2.929
455.28	2.648
455.63	2.209
455.98	3.363
456.34	2.813
456.69	3.182
457.04	3.084
457.39	2.684
457.74	2.971
458.09	2.551
458.44	3.372
458.79	2.297
459.14	3.339
459.49	3.121
459.84	3.329
460.19	3.565
460.54	2.336
460.89	3.176
461.24	3.182
461.59	3.407
461.94	3.090
462.29	3.008
462.64	2.507
462.99	3.698
463.34	3.150
463.69	3.772
464.04	3.143
464.39	2.637
464.74	3.180
465.09	3.987
465.44	3.059
465.79	2.828
466.14	2.387
466.49	3.510
466.84	3.133
467.19	3.249
467.54	3.050
467.89	3.005
468.24	2.841
468.59	3.272
468.94	3.295
469.29	3.599
469.64	3.793
469.99	2.812
470.34	1.980
470.68	2.923
471.03	3.358
471.38	3.515
471.73	2.907
472.08	2.989
472.43	2.766
472.78	2.611
473.13	3.579
473.48	2.559
473.83	4.029
474.17	3.002
474.52	3.416
474.87	3.788
475.22	3.748
475.57	3.525
475.92	3.184
476.27	3.376
476.61	3.369
476.96	3.794
477.31	3.253
477.66	4.009
478.01	2.707
478.36	3.610
478.70	3.380
479.05	3.018
479.40	2.985
479.75	3.646
480.10	3.788
480.45	3.560
480.79	3.269
481.14	3.743
481.49	3.496
481.84	3.081
482.19	2.927
482.53	4.265
482.88	3.050
483.23	3.216
483.58	2.871
483.92	3.317
484.27	3.775
484.62	4.008
484.97	3.647
485.31	3.403
485.66	3.047
486.01	3.499
486.36	3.429
486.70	3.266
487.05	3.588
487.40	2.994
487.75	3.435
488.09	3.289
488.44	3.465
488.79	4.167
489.13	3.200
489.48	3.224
489.83	3.560
490.17	3.938
490.52	3.059
490.87	3.215
491.22	3.895
491.56	4.051
491.91	3.263
492.26	3.876
492.60	3.878
492.95	3.285
493.30	3.555
493.64	3.803
493.99	3.080
494.34	3.903
494.68	3.370
495.03	2.688
495.37	3.649
495.72	3.112
496.07	4.057
496.41	2.866
496.76	3.438
497.11	3.200
497.45	4.119
497.80	3.634
498.14	3.696
498.49	3.951
498.84	3.197
499.18	3.996
499.53	3.894
499.87	3.891
500.22	3.740
500.56	3.820
500.91	4.457
501.26	3.832
501.60	4.027
501.95	3.838
502.29	3.797
502.64	3.534
502.98	3.786
503.33	3.645
503.67	3.522
504.02	3.984
504.36	3.441
504.71	3.936
505.06	3.696
505.40	4.129
505.75	3.791
506.09	4.334
506.44	4.560
506.78	3.373
507.13	3.855
507.47	4.100
507.82	2.679
508.16	3.619
508.51	4.376
508.85	3.462
509.19	3.785
509.54	3.513
509.88	3.049
510.23	4.157
510.57	3.350
510.92	4.082
511.26	3.389
511.61	4.566
511.95	3.759
512.30	4.174
512.64	4.223
512.98	4.430
513.33	3.869
513.67	3.353
514.02	3.726
514.36	4.508
514.70	4.614
515.05	4.085
515.39	4.015
515.74	4.323
516.08	3.390
516.42	3.978
516.77	4.472
517.11	2.936
517.46	4.310
517.80	4.084
518.14	5.250
518.49	3.752
518.83	4.215
519.17	4.563
519.52	4.122
519.86	4.117
520.20	4.140
520.55	3.721
520.89	4.993
521.23	4.342
521.58	4.167
521.92	4.539
522.26	4.261
522.61	4.300
522.95	4.041
523.29	4.251
523.64	3.867
523.98	4.301
524.32	4.377
524.66	4.487
525.01	4.742
525.35	4.583
525.69	5.024
526.04	4.510
526.38	5.072
526.72	5.417
527.06	3.938
527.41	3.827
527.75	4.307
528.09	4.597
528.43	4.465
528.78	3.774
529.12	4.384
529.46	4.452
529.80	4.152
530.15	4.587
530.49	5.509
530.83	3.905
531.17	4.873
531.51	4.996
531.86	4.622
532.20	3.968
532.54	5.396
532.88	4.800
533.22	3.807
533.57	4.966
533.91	4.955
534.25	4.956
534.59	4.746
534.93	4.164
535.27	4.108
535.62	4.862
535.96	4.606
536.30	5.219
536.64	5.365
536.98	5.752
537.32	5.357
537.66	5.059
538.01	5.081
538.35	4.509
538.69	4.529
539.03	5.119
539.37	4.379
539.71	4.420
540.05	5.137
540.39	5.156
540.73	5.421
541.07	4.338
541.42	4.704
541.76	4.317
542.10	4.950
542.44	5.491
542.78	4.912
543.12	4.116
543.46	4.769
543.80	5.289
544.14	5.018
544.48	5.053
544.82	4.897
545.16	4.855
545.50	5.313
545.84	6.657
546.18	4.869
546.52	5.227
546.86	3.826
547.20	5.303
547.54	4.701
547.88	5.556
548.22	4.712
548.56	5.638
548.90	5.614
549.24	6.213
549.58	6.408
549.92	5.564
550.26	5.328
550.60	5.393
550.94	4.683
551.28	5.447
551.62	5.733
551.96	5.192
552.30	5.039
552.64	5.184
552.98	6.241
553.32	4.621
553.66	5.690
554.00	5.097
554.34	4.922
554.68	3.987
555.02	5.317
555.36	4.527
555.69	5.995
556.03	5.469
556.37	4.276
556.71	6.109
557.05	4.688
557.39	4.578
557.73	5.975
558.07	5.869
558.41	4.469
558.75	5.145
559.08	6.043
559.42	5.268
559.76	5.981
560.10	5.705
560.44	5.463
560.78	5.259
561.12	4.508
561.45	5.060
561.79	5.066
562.13	5.263
562.47	4.893
562.81	5.534
563.15	5.171
563.48	5.019
563.82	5.240
564.16	4.499
564.50	5.802
564.84	6.378
565.17	5.722
565.51	6.404
565.85	5.493
566.19	5.846
566.52	5.161
566.86	4.986
567.20	5.722
567.54	5.616
567.88	5.218
568.21	5.041
568.55	5.320
568.89	4.725
569.23	5.371
569.56	5.517
569.90	4.797
570.24	5.477
570.57	5.493
570.91	5.313
571.25	6.026
571.59	5.279
571.92	5.240
572.26	5.430
572.60	5.324
572.93	5.108
573.27	4.964
573.61	5.757
573.95	5.205
574.28	5.241
574.62	5.086
574.96	5.007
575.29	4.930
575.63	4.911
575.97	5.333
576.30	5.176
576.64	5.017
576.98	4.935
577.31	5.410
577.65	5.344
577.98	5.237
578.32	5.213
578.66	5.028
578.99	5.326
579.33	5.012
579.67	5.164
580.00	5.062
580.34	5.465
580.67	5.163
581.01	5.405
581.35	5.341
581.68	4.918
582.02	5.341
582.35	5.385
582.69	5.237
583.02	5.114
583.36	5.231
583.70	4.995
584.03	5.342
584.37	5.681
584.70	5.589
585.04	5.410
585.37	5.392
585.71	5.539
586.04	5.515
586.38	5.257
586.72	5.004
587.05	5.856
587.39	5.656
587.72	5.363
588.06	5.691
588.39	5.638
588.73	5.340
589.06	5.338
589.40	5.913
589.73	5.423
590.07	5.381
590.40	5.892
590.73	5.706
591.07	5.844
591.40	6.213
591.74	5.690
592.07	6.256
592.41	6.748
592.74	5.922
593.08	5.522
593.41	5.554
593.75	5.898
594.08	5.434
594.41	5.275
594.75	5.756
595.08	6.116
595.42	6.008
595.75	5.833
596.09	6.445
596.42	5.581
596.75	6.273
597.09	5.504
597.42	5.584
597.75	6.051
598.09	6.367
598.42	5.301
598.76	6.284
599.09	5.588
599.42	5.350
599.76	5.885
600.09	5.971
600.42	5.977
600.76	5.658
601.09	5.882
601.42	5.676
601.76	5.560
602.09	5.907
602.42	5.775
602.76	5.279
603.09	6.223
603.42	5.835
603.76	5.413
604.09	6.099
604.42	5.925
604.76	5.979
605.09	5.527
605.42	5.687
605.75	5.482
606.09	6.267
606.42	5.599
606.75	6.128
607.09	6.483
607.42	6.150
607.75	5.647
608.08	6.080
608.42	5.820
608.75	5.853
609.08	5.098
609.41	6.739
609.75	5.582
610.08	5.065
610.41	6.107
610.74	5.511
611.07	6.399
611.41	5.032
611.74	5.930
612.07	5.859
612.40	6.852
612.73	6.134
613.07	5.872
613.40	5.520
613.73	5.727
614.06	5.211
614.39	6.210
614.72	6.139
615.06	7.003
615.39	4.965
615.72	5.935
616.05	5.507
616.38	5.813
616.71	5.970
617.05	6.344
617.38	5.742
617.71	6.009
618.04	6.242
618.37	6.344
618.70	6.114
619.03	6.019
619.36	6.996
619.69	5.288
620.03	6.255
620.36	6.349
620.69	6.356
621.02	6.334
621.35	6.213
621.68	6.301
622.01	5.971
622.34	7.454
622.67	6.155
623.00	5.242
623.33	7.480
623.66	7.251
623.99	6.459
624.32	5.719
624.65	6.016
624.99	5.781
625.32	6.240
625.65	5.845
625.98	7.667
626.31	5.281
626.64	6.667
626.97	6.893
627.30	5.833
627.63	6.791
627.96	6.983
628.29	7.457
628.62	6.289
628.95	6.969
629.28	5.579
629.61	8.046
629.94	7.365
630.26	7.113
630.59	8.272
630.92	6.849
631.25	5.810
631.58	5.930
631.91	5.239
632.24	6.391
632.57	8.680
632.90	9.348
633.23	7.484
633.56	5.912
633.89	6.860
634.22	6.795
634.55	6.045
634.88	8.032
635.20	7.260
635.53	9.078
635.86	8.152
636.19	6.276
636.52	7.817
636.85	5.085
637.18	7.772
637.51	7.046
637.83	7.682
638.16	7.112
638.49	7.061
638.82	7.032
639.15	6.857
639.48	5.095
639.81	5.663
640.13	7.044
640.46	7.244
640.79	4.186
641.12	8.992
641.45	7.309
641.77	5.573
642.10	8.306
642.43	6.902
642.76	8.423
643.09	6.228
643.41	6.452
643.74	7.118
644.07	6.526
644.40	6.859
644.73	7.366
645.05	5.344
645.38	6.538
645.71	7.824
646.04	7.621
646.36	7.197
646.69	5.416
647.02	8.984
647.35	7.400
647.67	9.218
648.00	6.796
648.33	5.973
648.66	5.937
648.98	9.153
649.31	7.057
649.64	7.401
649.96	5.743
650.29	5.664
650.62	6.308
650.94	7.209
651.27	7.322
651.60	8.222
651.92	6.489
652.25	3.824
652.58	5.206
652.90	6.050
653.23	4.205
653.56	8.160
653.88	6.387
654.21	5.482
654.54	5.629
654.86	6.115
655.19	5.645
655.52	5.902
655.84	6.014
656.17	5.769
656.49	7.877
656.82	9.175
