SpectraSuite Data File
++++++++++++++++++++++++++++++++++++
Date: Tue May 12 19:45:10 PDT 2015
User: schluterlab
Dark Spectrum Present: Yes
Reference Spectrum Present: Yes
Number of Sampled Component Spectra: 1
Spectrometers: USB2E3373
Integration Time (usec): 3000 (USB2E3373)
Spectra Averaged: 3 (USB2E3373)
Boxcar Smoothing: 0 (USB2E3373)
Correct for Electrical Dark: No (USB2E3373)
Strobe/Lamp Enabled: No (USB2E3373)
Correct for Detector Non-linearity: No (USB2E3373)
Correct for Stray Light: No (USB2E3373)
Number of Pixels in Processed Spectrum: 2048
>>>>>Begin Processed Spectral Data<<<<<
178.53	0.000
178.91	-110.000
179.29	-83.333
179.67	200.000
180.04	0.000
180.42	-180.000
180.80	-166.667
181.18	850.000
181.56	-200.000
181.94	233.333
182.31	1300.000
182.69	-100.000
183.07	0.000
183.45	208.333
183.83	420.000
184.20	166.667
184.58	550.000
184.96	300.000
185.34	-200.000
185.72	-28.571
186.09	-150.000
186.47	-1300.000
186.85	-60.000
187.23	183.333
187.61	-214.286
187.98	-340.000
188.36	450.000
188.74	0.000
189.12	-122.222
189.49	-50.000
189.87	150.000
190.25	33.333
190.63	233.333
191.00	440.000
191.38	-466.667
191.76	380.000
192.14	0.000
192.51	-60.000
192.89	-160.000
193.27	-480.000
193.65	-400.000
194.02	-83.333
194.40	1500.000
194.78	-125.000
195.15	-85.714
195.53	500.000
195.91	220.000
196.29	-350.000
196.66	-333.333
197.04	-128.571
197.42	300.000
197.79	-125.000
198.17	-158.333
198.55	-600.000
198.92	-144.444
199.30	450.000
199.68	-325.000
200.05	-900.000
200.43	-61.111
200.81	-83.333
201.18	466.667
201.56	-650.000
201.94	-1900.000
202.31	-91.667
202.69	22.222
203.07	33.333
203.44	-350.000
203.82	0.000
204.19	200.000
204.57	-300.000
204.95	90.909
205.32	340.000
205.70	475.000
206.08	-200.000
206.45	20.000
206.83	2700.000
207.20	-77.778
207.58	30.769
207.96	633.333
208.33	500.000
208.71	600.000
209.08	650.000
209.46	0.000
209.84	500.000
210.21	-200.000
210.59	200.000
210.96	233.333
211.34	-175.000
211.71	1050.000
212.09	-100.000
212.46	-150.000
212.84	-50.000
213.22	42.857
213.59	-75.000
213.97	0.000
214.34	-100.000
214.72	-700.000
215.09	400.000
215.47	26.667
215.84	-87.500
216.22	-200.000
216.59	900.000
216.97	50.000
217.34	-33.333
217.72	-16.667
218.09	250.000
218.47	-57.895
218.84	-200.000
219.22	7.143
219.59	-90.000
219.97	-30.000
220.34	266.667
220.72	90.909
221.09	-900.000
221.47	0.000
221.84	400.000
222.22	-100.000
222.59	-475.000
222.97	-4.348
223.34	173.333
223.72	285.714
224.09	-200.000
224.46	130.769
224.84	-60.000
225.21	-300.000
225.59	-300.000
225.96	60.000
226.34	316.667
226.71	260.000
227.08	-7.692
227.46	-128.571
227.83	-33.333
228.21	-800.000
228.58	116.667
228.95	-15.789
229.33	-43.750
229.70	-100.000
230.08	-111.111
230.45	-333.333
230.82	-1300.000
231.20	-47.619
231.57	-240.000
231.95	-533.333
232.32	100.000
232.69	-500.000
233.07	0.000
233.44	-75.000
233.81	29.032
234.19	-20.000
234.56	-16.667
234.93	-50.000
235.31	25.926
235.68	-14.815
236.05	-15.385
236.43	-52.632
236.80	18.182
237.17	0.000
237.55	-5.000
237.92	16.279
238.29	19.355
238.67	32.143
239.04	34.286
239.41	15.686
239.79	14.000
240.16	52.500
240.53	31.034
240.91	19.178
241.28	18.310
241.65	35.937
242.02	43.860
242.40	26.667
242.77	28.421
243.14	32.941
243.51	39.785
243.89	26.667
244.26	37.963
244.63	39.796
245.00	29.464
245.38	33.613
245.75	26.271
246.12	42.188
246.49	36.000
246.87	34.426
247.24	28.169
247.61	36.424
247.98	34.831
248.36	33.333
248.73	32.386
249.10	37.222
249.47	40.625
249.84	39.086
250.22	38.021
250.59	38.764
250.96	40.000
251.33	42.925
251.70	40.826
252.08	42.857
252.45	35.102
252.82	37.553
253.19	40.467
253.56	38.431
253.94	37.398
254.31	42.806
254.68	40.972
255.05	40.397
255.42	40.000
255.79	42.715
256.16	44.792
256.54	38.182
256.91	40.064
257.28	44.805
257.65	38.361
258.02	40.841
258.39	46.526
258.76	35.474
259.14	39.118
259.51	44.507
259.88	45.533
260.25	38.352
260.62	39.326
260.99	40.947
261.36	41.954
261.73	41.333
262.10	43.597
262.47	42.975
262.85	46.015
263.22	40.323
263.59	43.432
263.96	40.992
264.33	36.927
264.70	40.295
265.07	41.626
265.44	40.515
265.81	43.373
266.18	43.560
266.55	43.571
266.92	44.643
267.29	40.889
267.66	38.636
268.03	45.806
268.40	44.394
268.77	42.539
269.14	42.857
269.51	43.439
269.88	43.590
270.25	42.194
270.62	42.857
270.99	42.526
271.36	40.618
271.73	42.917
272.10	42.116
272.47	40.000
272.84	38.641
273.21	39.248
273.58	38.571
273.95	41.036
274.32	41.199
274.69	39.922
275.06	41.651
275.43	38.800
275.80	42.639
276.17	39.921
276.54	42.966
276.91	43.954
277.28	42.747
277.65	40.643
278.02	43.561
278.39	41.561
278.76	43.575
279.13	43.292
279.50	41.155
279.87	41.321
280.23	40.801
280.60	38.339
280.97	38.489
281.34	43.220
281.71	38.899
282.08	40.250
282.45	39.859
282.82	38.721
283.19	40.236
283.56	39.249
283.92	38.705
284.29	41.286
284.66	40.354
285.03	38.250
285.40	40.667
285.77	41.051
286.14	38.035
286.51	39.871
286.87	38.898
287.24	38.462
287.61	40.123
287.98	40.845
288.35	40.465
288.72	41.131
289.08	36.164
289.45	37.910
289.82	35.559
290.19	35.606
290.56	35.166
290.93	37.518
291.29	35.745
291.66	37.640
292.03	36.442
292.40	36.403
292.77	36.006
293.13	34.802
293.50	34.986
293.87	35.645
294.24	36.376
294.60	34.973
294.97	33.657
295.34	35.753
295.71	32.455
296.08	32.240
296.44	34.519
296.81	32.083
297.18	33.894
297.55	33.040
297.91	31.980
298.28	32.481
298.65	31.048
299.02	31.689
299.38	30.867
299.75	32.432
300.12	31.055
300.48	30.986
300.85	31.174
301.22	31.490
301.59	31.387
301.95	30.854
302.32	31.470
302.69	31.391
303.05	30.933
303.42	31.884
303.79	29.326
304.15	29.785
304.52	30.838
304.89	29.651
305.25	31.766
305.62	30.455
305.99	29.675
306.35	29.195
306.72	32.026
307.09	28.400
307.45	30.636
307.82	29.136
308.19	30.473
308.55	29.430
308.92	29.661
309.29	31.276
309.65	29.205
310.02	27.987
310.38	29.638
310.75	28.381
311.12	29.298
311.48	30.319
311.85	28.977
312.22	29.649
312.58	28.600
312.95	28.953
313.31	27.925
313.68	28.500
314.05	30.387
314.41	28.782
314.78	28.744
315.14	29.579
315.51	29.196
315.87	30.273
316.24	28.882
316.61	30.291
316.97	29.608
317.34	30.622
317.70	28.665
318.07	28.158
318.43	29.301
318.80	28.780
319.16	28.611
319.53	29.717
319.89	30.682
320.26	28.220
320.62	30.039
320.99	31.633
321.35	29.348
321.72	32.121
322.08	29.109
322.45	31.657
322.81	31.429
323.18	30.201
323.54	30.047
323.91	30.835
324.27	30.183
324.64	31.022
325.00	31.301
325.37	31.745
325.73	30.292
326.10	30.123
326.46	31.097
326.83	31.574
327.19	31.266
327.56	33.599
327.92	30.903
328.29	31.183
328.65	32.203
329.01	31.376
329.38	32.415
329.74	32.312
330.11	31.780
330.47	32.216
330.84	32.331
331.20	31.978
331.56	31.604
331.93	31.107
332.29	30.897
332.66	31.826
333.02	31.105
333.38	33.640
333.75	32.205
334.11	32.278
334.48	31.038
334.84	32.676
335.20	28.827
335.57	31.608
335.93	32.093
336.29	31.901
336.66	31.512
337.02	30.734
337.38	31.415
337.75	32.455
338.11	31.449
338.47	31.941
338.84	32.044
339.20	30.431
339.56	31.314
339.93	31.712
340.29	31.097
340.65	31.598
341.02	30.469
341.38	30.627
341.74	31.584
342.11	30.681
342.47	30.594
342.83	30.009
343.20	30.858
343.56	28.846
343.92	32.021
344.28	30.532
344.65	30.651
345.01	30.401
345.37	31.453
345.73	29.974
346.10	31.634
346.46	30.112
346.82	30.076
347.19	30.193
347.55	30.272
347.91	29.566
348.27	31.171
348.63	30.510
349.00	31.302
349.36	29.843
349.72	30.131
350.08	29.542
350.45	30.594
350.81	29.893
351.17	28.089
351.53	29.066
351.89	30.484
352.26	28.049
352.62	30.172
352.98	30.042
353.34	30.409
353.70	28.724
354.07	29.736
354.43	30.050
354.79	28.525
355.15	30.508
355.51	29.666
355.87	30.558
356.24	30.801
356.60	29.549
356.96	29.226
357.32	29.877
357.68	28.719
358.04	28.930
358.40	29.951
358.77	28.916
359.13	29.398
359.49	28.240
359.85	29.896
360.21	28.628
360.57	29.346
360.93	30.245
361.29	29.751
361.66	28.549
362.02	29.042
362.38	30.070
362.74	29.669
363.10	28.808
363.46	29.044
363.82	28.101
364.18	29.372
364.54	28.779
364.90	28.148
365.26	28.316
365.62	28.615
365.98	29.685
366.35	28.971
366.71	28.529
367.07	29.594
367.43	29.097
367.79	28.198
368.15	29.726
368.51	28.539
368.87	29.369
369.23	29.826
369.59	29.412
369.95	26.900
370.31	27.727
370.67	28.271
371.03	28.715
371.39	28.776
371.75	28.009
372.11	28.815
372.47	28.137
372.83	27.757
373.19	27.937
373.55	28.668
373.91	28.636
374.27	29.728
374.63	28.277
374.99	28.477
375.35	27.431
375.71	28.551
376.07	27.986
376.42	28.907
376.78	28.362
377.14	27.584
377.50	28.523
377.86	28.412
378.22	28.732
378.58	29.276
378.94	28.618
379.30	28.250
379.66	28.937
380.02	28.989
380.38	29.071
380.74	27.968
381.09	27.637
381.45	29.206
381.81	27.934
382.17	28.469
382.53	29.126
382.89	28.416
383.25	26.886
383.61	26.828
383.97	28.265
384.32	27.419
384.68	28.927
385.04	27.880
385.40	27.348
385.76	27.704
386.12	28.779
386.48	28.050
386.83	27.255
387.19	27.842
387.55	27.332
387.91	28.224
388.27	27.511
388.62	28.497
388.98	28.753
389.34	27.846
389.70	27.692
390.06	27.723
390.42	27.789
390.77	27.834
391.13	28.822
391.49	28.774
391.85	28.543
392.20	28.779
392.56	27.374
392.92	27.767
393.28	27.110
393.64	27.296
393.99	28.052
394.35	26.995
394.71	28.477
395.07	28.714
395.42	27.302
395.78	27.621
396.14	27.382
396.50	28.137
396.85	27.363
397.21	26.843
397.57	28.242
397.92	27.672
398.28	27.878
398.64	27.365
399.00	27.336
399.35	28.429
399.71	27.545
400.07	27.363
400.42	28.013
400.78	27.639
401.14	27.652
401.49	27.358
401.85	27.365
402.21	27.602
402.57	26.336
402.92	27.756
403.28	27.698
403.63	27.308
403.99	27.015
404.35	26.752
404.70	27.232
405.06	27.650
405.42	27.586
405.77	26.397
406.13	26.583
406.49	26.372
406.84	27.397
407.20	26.580
407.55	27.655
407.91	25.944
408.27	26.928
408.62	26.238
408.98	28.121
409.34	26.248
409.69	27.090
410.05	25.259
410.40	26.911
410.76	27.646
411.11	26.632
411.47	26.395
411.83	26.594
412.18	26.243
412.54	25.485
412.89	26.554
413.25	26.708
413.60	27.551
413.96	25.631
414.31	26.322
414.67	26.671
415.03	26.003
415.38	25.557
415.74	25.923
416.09	25.982
416.45	26.893
416.80	25.869
417.16	26.375
417.51	26.301
417.87	27.086
418.22	25.869
418.58	26.814
418.93	26.241
419.29	25.645
419.64	27.335
420.00	26.916
420.35	26.177
420.71	26.569
421.06	26.671
421.42	26.349
421.77	26.918
422.12	25.694
422.48	25.300
422.83	25.775
423.19	26.059
423.54	25.168
423.90	25.649
424.25	26.284
424.61	26.581
424.96	26.229
425.31	26.389
425.67	25.758
426.02	25.590
426.38	25.740
426.73	25.421
427.09	26.330
427.44	25.617
427.79	26.300
428.15	26.126
428.50	25.628
428.85	26.427
429.21	26.599
429.56	25.470
429.92	26.447
430.27	24.960
430.62	26.988
430.98	25.363
431.33	26.196
431.68	25.985
432.04	26.007
432.39	24.955
432.74	26.059
433.10	26.016
433.45	25.459
433.80	25.655
434.16	24.799
434.51	25.307
434.86	26.465
435.22	26.484
435.57	27.704
435.92	25.263
436.28	25.093
436.63	25.283
436.98	24.938
437.34	26.488
437.69	25.864
438.04	25.300
438.39	25.457
438.75	25.354
439.10	26.369
439.45	26.059
439.81	25.397
440.16	25.912
440.51	25.031
440.86	24.558
441.22	25.730
441.57	25.413
441.92	25.014
442.27	25.657
442.63	25.339
442.98	26.711
443.33	25.441
443.68	24.681
444.03	25.206
444.39	24.883
444.74	25.472
445.09	27.155
445.44	25.831
445.79	26.160
446.15	25.831
446.50	25.275
446.85	25.743
447.20	25.711
447.55	25.480
447.91	25.632
448.26	26.350
448.61	26.465
448.96	26.257
449.31	25.256
449.66	25.363
450.02	25.385
450.37	25.091
450.72	25.673
451.07	25.379
451.42	26.285
451.77	24.464
452.12	25.063
452.47	25.271
452.83	25.592
453.18	25.186
453.53	26.388
453.88	25.080
454.23	25.815
454.58	26.501
454.93	24.728
455.28	25.458
455.63	24.756
455.98	25.952
456.34	25.251
456.69	25.322
457.04	25.722
457.39	25.843
457.74	25.411
458.09	25.016
458.44	25.812
458.79	25.206
459.14	25.820
459.49	26.242
459.84	25.743
460.19	25.078
460.54	25.253
460.89	25.235
461.24	25.714
461.59	25.741
461.94	25.838
462.29	24.937
462.64	25.627
462.99	25.961
463.34	25.568
463.69	25.446
464.04	25.337
464.39	24.759
464.74	25.762
465.09	26.495
465.44	24.175
465.79	25.211
466.14	25.239
466.49	26.353
466.84	25.553
467.19	24.821
467.54	23.740
467.89	24.494
468.24	23.611
468.59	24.673
468.94	25.420
469.29	25.260
469.64	25.456
469.99	24.153
470.34	23.197
470.68	24.769
471.03	23.285
471.38	23.635
471.73	25.363
472.08	24.769
472.43	25.035
472.78	24.511
473.13	24.982
473.48	25.380
473.83	24.571
474.17	23.816
474.52	24.113
474.87	24.684
475.22	25.095
475.57	24.148
475.92	24.105
476.27	24.111
476.61	24.586
476.96	24.778
477.31	23.858
477.66	25.276
478.01	23.602
478.36	24.069
478.70	25.127
479.05	23.796
479.40	23.936
479.75	23.948
480.10	24.405
480.45	25.288
480.79	24.390
481.14	23.933
481.49	24.267
481.84	25.152
482.19	24.146
482.53	25.147
482.88	24.403
483.23	24.171
483.58	24.208
483.92	24.724
484.27	24.105
484.62	24.847
484.97	23.770
485.31	24.633
485.66	26.124
486.01	26.410
486.36	27.189
486.70	27.035
487.05	25.681
487.40	25.225
487.75	24.563
488.09	24.499
488.44	23.904
488.79	24.235
489.13	24.106
489.48	24.470
489.83	23.856
490.17	24.098
490.52	23.662
490.87	24.283
491.22	24.310
491.56	23.567
491.91	23.494
492.26	24.222
492.60	24.082
492.95	23.203
493.30	23.941
493.64	23.073
493.99	23.973
494.34	24.531
494.68	22.745
495.03	23.073
495.37	23.923
495.72	23.576
496.07	24.189
496.41	23.617
496.76	23.400
497.11	23.437
497.45	24.962
497.80	23.936
498.14	23.231
498.49	22.531
498.84	23.061
499.18	22.937
499.53	22.949
499.87	23.656
500.22	22.390
500.56	23.077
500.91	23.859
501.26	23.360
501.60	24.006
501.95	23.900
502.29	24.115
502.64	23.096
502.98	23.624
503.33	23.215
503.67	23.788
504.02	23.442
504.36	23.215
504.71	22.447
505.06	24.103
505.40	23.271
505.75	22.959
506.09	22.914
506.44	23.230
506.78	23.073
507.13	23.018
507.47	23.269
507.82	22.377
508.16	22.105
508.51	23.742
508.85	23.571
509.19	22.436
509.54	23.286
509.88	22.670
510.23	23.034
510.57	22.601
510.92	22.846
511.26	22.631
511.61	23.002
511.95	21.978
512.30	22.087
512.64	22.757
512.98	22.859
513.33	21.805
513.67	21.377
514.02	21.935
514.36	22.776
514.70	22.647
515.05	22.439
515.39	22.334
515.74	21.617
516.08	22.285
516.42	22.871
516.77	21.925
517.11	22.385
517.46	21.861
517.80	23.229
518.14	22.138
518.49	22.639
518.83	22.309
519.17	22.301
519.52	21.674
519.86	22.673
520.20	21.465
520.55	21.802
520.89	21.930
521.23	21.309
521.58	22.487
521.92	21.362
522.26	20.825
522.61	22.253
522.95	21.233
523.29	22.065
523.64	21.235
523.98	21.371
524.32	22.155
524.66	21.958
525.01	21.306
525.35	21.546
525.69	21.335
526.04	21.987
526.38	21.659
526.72	22.431
527.06	20.956
527.41	21.758
527.75	21.393
528.09	20.934
528.43	21.120
528.78	21.034
529.12	22.260
529.46	21.993
529.80	21.852
530.15	22.099
530.49	22.176
530.83	20.752
531.17	22.105
531.51	21.199
531.86	22.059
532.20	20.563
532.54	21.439
532.88	21.018
533.22	21.767
533.57	22.000
533.91	21.542
534.25	22.471
534.59	21.733
534.93	21.625
535.27	22.626
535.62	21.877
535.96	21.563
536.30	21.781
536.64	21.602
536.98	21.681
537.32	21.131
537.66	20.455
538.01	21.208
538.35	20.727
538.69	21.373
539.03	21.846
539.37	21.034
539.71	23.188
540.05	22.431
540.39	22.367
540.73	22.491
541.07	23.162
541.42	21.882
541.76	22.302
542.10	21.090
542.44	22.543
542.78	21.554
543.12	20.650
543.46	22.280
543.80	22.230
544.14	22.222
544.48	21.193
544.82	21.576
545.16	21.957
545.50	21.761
545.84	22.385
546.18	21.648
546.52	22.060
546.86	21.347
547.20	22.424
547.54	22.138
547.88	21.154
548.22	22.504
548.56	22.551
548.90	22.246
549.24	23.099
549.58	22.355
549.92	21.654
550.26	23.089
550.60	22.522
550.94	20.635
551.28	21.463
551.62	22.113
551.96	20.847
552.30	21.240
552.64	22.014
552.98	22.065
553.32	21.136
553.66	20.865
554.00	22.780
554.34	22.031
554.68	20.734
555.02	21.349
555.36	20.095
555.69	20.984
556.03	22.321
556.37	21.455
556.71	21.946
557.05	22.266
557.39	20.482
557.73	20.283
558.07	21.205
558.41	19.633
558.75	21.660
559.08	21.617
559.42	20.736
559.76	21.567
560.10	22.249
560.44	20.903
560.78	22.539
561.12	22.314
561.45	21.577
561.79	20.631
562.13	21.127
562.47	21.407
562.81	22.214
563.15	20.456
563.48	20.674
563.82	21.907
564.16	21.771
564.50	21.848
564.84	23.104
565.17	21.531
565.51	21.323
565.85	22.324
566.19	22.686
566.52	22.581
566.86	22.678
567.20	22.888
567.54	22.974
567.88	22.209
568.21	23.388
568.55	23.543
568.89	23.516
569.23	23.143
569.56	24.598
569.90	24.454
570.24	23.956
570.57	24.831
570.91	25.036
571.25	25.585
571.59	25.475
571.92	24.651
572.26	25.147
572.60	24.695
572.93	24.656
573.27	24.789
573.61	24.482
573.95	24.526
574.28	24.938
574.62	24.152
574.96	25.007
575.29	25.090
575.63	24.473
575.97	24.344
576.30	24.725
576.64	24.311
576.98	25.313
577.31	25.248
577.65	25.042
577.98	25.551
578.32	25.660
578.66	25.116
578.99	25.840
579.33	25.185
579.67	25.013
580.00	24.974
580.34	25.572
580.67	25.025
581.01	25.330
581.35	25.494
581.68	25.267
582.02	25.436
582.35	26.039
582.69	26.067
583.02	25.291
583.36	25.118
583.70	25.262
584.03	24.736
584.37	25.293
584.70	25.220
585.04	24.872
585.37	25.173
585.71	25.252
586.04	25.686
586.38	25.388
586.72	25.110
587.05	25.762
587.39	24.950
587.72	25.313
588.06	25.484
588.39	25.884
588.73	25.515
589.06	24.580
589.40	25.484
589.73	24.383
590.07	24.700
590.40	23.962
590.73	25.364
591.07	24.372
591.40	24.166
591.74	24.160
592.07	23.687
592.41	24.274
592.74	24.542
593.08	25.394
593.41	25.094
593.75	25.447
594.08	25.134
594.41	24.604
594.75	24.863
595.08	24.971
595.42	25.160
595.75	25.038
596.09	24.860
596.42	24.609
596.75	24.636
597.09	24.067
597.42	24.449
597.75	25.047
598.09	23.830
598.42	24.846
598.76	23.816
599.09	25.420
599.42	24.705
599.76	24.794
600.09	24.792
600.42	24.961
600.76	24.519
601.09	24.941
601.42	24.799
601.76	25.000
602.09	24.424
602.42	24.446
602.76	24.651
603.09	24.500
603.42	24.787
603.76	25.304
604.09	25.313
604.42	24.302
604.76	24.053
605.09	24.374
605.42	24.645
605.75	23.709
606.09	24.844
606.42	24.978
606.75	25.400
607.09	25.187
607.42	25.057
607.75	24.472
608.08	25.164
608.42	25.218
608.75	24.262
609.08	23.271
609.41	25.091
609.75	25.066
610.08	23.669
610.41	24.835
610.74	24.317
611.07	24.379
611.41	23.608
611.74	24.810
612.07	24.107
612.40	25.237
612.73	23.553
613.07	24.897
613.40	24.267
613.73	23.482
614.06	23.829
614.39	24.019
614.72	23.790
615.06	23.938
615.39	24.134
615.72	23.796
616.05	23.246
616.38	23.369
616.71	22.886
617.05	23.807
617.38	22.903
617.71	23.645
618.04	23.916
618.37	23.414
618.70	23.166
619.03	24.075
619.36	23.564
619.69	22.473
620.03	22.960
620.36	22.751
620.69	23.725
621.02	22.328
621.35	23.149
621.68	23.582
622.01	22.816
622.34	23.116
622.67	22.175
623.00	22.768
623.33	22.283
623.66	23.347
623.99	22.568
624.32	23.034
624.65	22.656
624.99	22.578
625.32	22.749
625.65	23.299
625.98	23.583
626.31	22.771
626.64	23.784
626.97	23.897
627.30	23.426
627.63	22.326
627.96	21.229
628.29	23.709
628.62	21.340
628.95	22.914
629.28	21.591
629.61	21.839
629.94	21.784
630.26	22.908
630.59	22.827
630.92	20.759
631.25	21.899
631.58	20.930
631.91	19.932
632.24	21.893
632.57	22.592
