SpectraSuite Data File
++++++++++++++++++++++++++++++++++++
Date: Tue May 12 19:44:22 PDT 2015
User: schluterlab
Dark Spectrum Present: Yes
Reference Spectrum Present: Yes
Number of Sampled Component Spectra: 1
Spectrometers: USB2E3373
Integration Time (usec): 3000 (USB2E3373)
Spectra Averaged: 3 (USB2E3373)
Boxcar Smoothing: 0 (USB2E3373)
Correct for Electrical Dark: No (USB2E3373)
Strobe/Lamp Enabled: No (USB2E3373)
Correct for Detector Non-linearity: No (USB2E3373)
Correct for Stray Light: No (USB2E3373)
Number of Pixels in Processed Spectrum: 2048
>>>>>Begin Processed Spectral Data<<<<<
178.53	0.000
178.91	-50.000
179.29	-133.333
179.67	500.000
180.04	0.000
180.42	-20.000
180.80	-333.333
181.18	1150.000
181.56	50.000
181.94	116.667
182.31	1500.000
182.69	114.286
183.07	0.000
183.45	158.333
183.83	120.000
184.20	233.333
184.58	-100.000
184.96	200.000
185.34	-233.333
185.72	-35.714
186.09	-216.667
186.47	-600.000
186.85	40.000
187.23	133.333
187.61	-71.429
187.98	-280.000
188.36	50.000
188.74	-50.000
189.12	-33.333
189.49	-20.000
189.87	175.000
190.25	177.778
190.63	433.333
191.00	320.000
191.38	-200.000
191.76	400.000
192.14	-100.000
192.51	30.000
192.89	-80.000
193.27	-180.000
193.65	-433.333
194.02	-350.000
194.40	700.000
194.78	0.000
195.15	-171.429
195.53	333.333
195.91	360.000
196.29	-225.000
196.66	-133.333
197.04	-214.286
197.42	-120.000
197.79	-162.500
198.17	8.333
198.55	200.000
198.92	-77.778
199.30	400.000
199.68	-275.000
200.05	-1200.000
200.43	33.333
200.81	-75.000
201.18	250.000
201.56	-250.000
201.94	-1900.000
202.31	-141.667
202.69	-11.111
203.07	-33.333
203.44	-375.000
203.82	0.000
204.19	337.500
204.57	-533.333
204.95	127.273
205.32	300.000
205.70	250.000
206.08	-1000.000
206.45	-100.000
206.83	2500.000
207.20	-11.111
207.58	23.077
207.96	200.000
208.33	666.667
208.71	566.667
209.08	500.000
209.46	44.444
209.84	566.667
210.21	-166.667
210.59	100.000
210.96	144.444
211.34	-50.000
211.71	800.000
212.09	-20.000
212.46	-75.000
212.84	-162.500
213.22	185.714
213.59	-175.000
213.97	0.000
214.34	-350.000
214.72	-100.000
215.09	150.000
215.47	33.333
215.84	-125.000
216.22	-800.000
216.59	300.000
216.97	-25.000
217.34	-216.667
217.72	0.000
218.09	100.000
218.47	-15.789
218.84	-262.500
219.22	7.143
219.59	-70.000
219.97	-10.000
220.34	216.667
220.72	145.455
221.09	-800.000
221.47	0.000
221.84	300.000
222.22	-325.000
222.59	-75.000
222.97	-30.435
223.34	146.667
223.72	357.143
224.09	-216.667
224.46	207.692
224.84	-13.333
225.21	-500.000
225.59	-550.000
225.96	45.000
226.34	283.333
226.71	260.000
227.08	-84.615
227.46	-142.857
227.83	-91.667
228.21	-900.000
228.58	216.667
228.95	-42.105
229.33	31.250
229.70	-133.333
230.08	-133.333
230.45	-300.000
230.82	-1300.000
231.20	-14.286
231.57	-220.000
231.95	-533.333
232.32	200.000
232.69	-600.000
233.07	0.000
233.44	-100.000
233.81	-3.226
234.19	-260.000
234.56	-16.667
234.93	-283.333
235.31	-7.407
235.68	-40.741
236.05	-19.231
236.43	-57.895
236.80	-45.455
237.17	-157.143
237.55	-75.000
237.92	0.000
238.29	12.903
238.67	-7.143
239.04	-20.000
239.41	-7.843
239.79	-12.000
240.16	-7.500
240.53	-3.448
240.91	-9.589
241.28	2.817
241.65	-12.500
242.02	-5.263
242.40	-14.667
242.77	-6.316
243.14	-1.176
243.51	2.151
243.89	-15.238
244.26	-4.630
244.63	-7.143
245.00	-15.179
245.38	-14.286
245.75	-3.390
246.12	0.000
246.49	-2.400
246.87	-16.393
247.24	-2.817
247.61	-2.649
247.98	-4.494
248.36	-6.289
248.73	-0.568
249.10	-6.111
249.47	-2.083
249.84	2.030
250.22	-0.521
250.59	-6.742
250.96	-0.455
251.33	0.000
251.70	-2.752
252.08	1.299
252.45	-5.306
252.82	-7.595
253.19	-1.556
253.56	1.961
253.94	-1.626
254.31	4.676
254.68	1.736
255.05	-0.993
255.42	-0.364
255.79	3.974
256.16	-3.819
256.54	2.727
256.91	1.923
257.28	0.000
257.65	-2.951
258.02	-0.300
258.39	3.021
258.76	-1.835
259.14	-3.235
259.51	2.254
259.88	-0.288
260.25	-3.693
260.62	-0.562
260.99	-0.836
261.36	-1.437
261.73	1.067
262.10	-0.272
262.47	-3.581
262.85	3.599
263.22	-1.344
263.59	0.000
263.96	-1.305
264.33	-2.695
264.70	-1.474
265.07	-0.739
265.44	-0.468
265.81	4.819
266.18	1.171
266.55	-0.952
266.92	2.455
267.29	0.000
267.66	-2.727
268.03	1.505
268.40	0.000
268.77	-3.341
269.14	-1.261
269.51	-0.452
269.88	-0.641
270.25	0.422
270.62	2.731
270.99	0.000
271.36	-1.766
271.73	-0.625
272.10	1.452
272.47	-0.200
272.84	-2.760
273.21	-3.340
273.58	1.020
273.95	1.992
274.32	1.354
274.69	-0.587
275.06	0.563
275.43	-0.800
275.80	1.721
276.17	0.000
276.54	1.901
276.91	1.344
277.28	1.547
277.65	-1.701
278.02	0.189
278.39	3.267
278.76	-0.745
279.13	2.326
279.50	1.264
279.87	1.132
280.23	0.729
280.60	-0.530
280.97	0.351
281.34	0.000
281.71	-0.710
282.08	0.894
282.45	0.176
282.82	0.000
283.19	0.673
283.56	1.536
283.92	0.790
284.29	1.015
284.66	-0.531
285.03	-1.201
285.40	1.000
285.77	1.314
286.14	0.792
286.51	0.643
286.87	0.324
287.24	-2.244
287.61	-0.463
287.98	2.347
288.35	0.775
288.72	0.459
289.08	-1.258
289.45	-0.468
289.82	-0.776
290.19	-1.212
290.56	1.302
290.93	-0.443
291.29	1.277
291.66	0.983
292.03	2.296
292.40	2.014
292.77	0.146
293.13	-1.468
293.50	-0.275
293.87	0.555
294.24	0.843
294.60	0.546
294.97	0.000
295.34	0.685
295.71	-0.832
296.08	-0.273
296.44	1.581
296.81	-0.388
297.18	1.682
297.55	0.251
297.91	2.030
298.28	0.128
298.65	0.906
299.02	0.863
299.38	0.128
299.75	1.030
300.12	1.319
300.48	1.056
300.85	-0.489
301.22	0.841
301.59	0.000
301.95	0.732
302.32	1.701
302.69	-0.476
303.05	0.118
303.42	1.208
303.79	0.674
304.15	0.566
304.52	0.782
304.89	-0.113
305.25	1.147
305.62	1.136
305.99	0.336
306.35	-0.112
306.72	1.198
307.09	-0.218
307.45	0.755
307.82	1.494
308.19	0.880
308.55	0.633
308.92	0.636
309.29	0.105
309.65	0.310
310.02	1.677
310.38	0.213
310.75	0.205
311.12	-0.203
311.48	1.233
311.85	-0.304
312.22	1.033
312.58	0.504
312.95	0.513
313.31	-0.098
313.68	0.596
314.05	1.390
314.41	0.884
314.78	-0.905
315.14	1.665
315.51	2.185
315.87	0.977
316.24	0.396
316.61	0.583
316.97	0.980
317.34	0.670
317.70	0.373
318.07	-0.096
318.43	0.945
318.80	1.730
319.16	-0.373
319.53	1.132
319.89	0.473
320.26	1.180
320.62	0.872
320.99	1.837
321.35	1.285
321.72	1.616
322.08	2.178
322.45	1.381
322.81	1.970
323.18	1.055
323.54	1.611
323.91	1.423
324.27	0.289
324.64	0.281
325.00	1.001
325.37	2.248
325.73	0.182
326.10	1.489
326.46	1.632
326.83	1.935
327.19	1.659
327.56	2.122
327.92	0.955
328.29	1.703
328.65	1.601
329.01	1.009
329.38	2.112
329.74	2.600
330.11	1.771
330.47	2.235
330.84	1.598
331.20	1.941
331.56	0.755
331.93	1.738
332.29	1.018
332.66	3.255
333.02	2.507
333.38	2.941
333.75	1.738
334.11	2.260
334.48	2.594
334.84	1.221
335.20	1.522
335.57	3.361
335.93	2.140
336.29	1.463
336.66	2.277
337.02	2.267
337.38	2.075
337.75	3.364
338.11	2.826
338.47	2.136
338.84	2.394
339.20	2.475
339.56	1.212
339.93	2.613
340.29	3.445
340.65	1.279
341.02	2.126
341.38	2.295
341.74	2.491
342.11	2.653
342.47	1.311
342.83	2.342
343.20	1.857
343.56	1.224
343.92	2.712
344.28	1.887
344.65	2.483
345.01	2.439
345.37	2.393
345.73	2.067
346.10	2.334
346.46	1.294
346.82	1.954
347.19	2.523
347.55	1.956
347.91	1.720
348.27	1.853
348.63	1.037
349.00	3.255
349.36	2.391
349.72	2.135
350.08	1.637
350.45	2.929
350.81	2.230
351.17	2.389
351.53	1.932
351.89	1.554
352.26	0.976
352.62	2.126
352.98	1.088
353.34	1.754
353.70	1.893
354.07	2.059
354.43	0.167
354.79	1.721
355.15	1.372
355.51	2.200
355.87	1.249
356.24	3.513
356.60	1.669
356.96	1.896
357.32	2.551
357.68	2.546
358.04	2.269
358.40	1.964
358.77	2.410
359.13	2.570
359.49	1.120
359.85	1.998
360.21	1.983
360.57	1.435
360.93	1.742
361.29	1.246
361.66	1.814
362.02	1.334
362.38	2.020
362.74	1.384
363.10	1.735
363.46	2.333
363.82	1.608
364.18	1.741
364.54	1.908
364.90	0.889
365.26	2.086
365.62	1.741
365.98	2.249
366.35	1.589
366.71	2.689
367.07	3.247
367.43	1.733
367.79	1.090
368.15	1.779
368.51	2.097
368.87	2.570
369.23	2.044
369.59	1.912
369.95	1.639
370.31	1.136
370.67	2.105
371.03	1.935
371.39	1.511
371.75	1.412
372.11	2.148
372.47	1.856
372.83	2.045
373.19	1.205
373.55	1.946
373.91	1.742
374.27	1.545
374.63	2.504
374.99	1.245
375.35	0.798
375.71	1.291
376.07	1.484
376.42	1.798
376.78	1.603
377.14	1.327
377.50	1.778
377.86	2.089
378.22	1.915
378.58	1.645
378.94	2.161
379.30	1.737
379.66	1.985
380.02	1.844
380.38	1.336
380.74	2.175
381.09	1.970
381.45	1.397
381.81	2.232
382.17	2.476
382.53	1.709
382.89	1.347
383.25	1.902
383.61	1.081
383.97	1.624
384.32	2.065
384.68	2.299
385.04	1.082
385.40	1.981
385.76	2.720
386.12	1.782
386.48	1.370
386.83	0.724
387.19	1.596
387.55	1.360
387.91	1.246
388.27	1.280
388.62	2.073
388.98	1.781
389.34	1.236
389.70	1.603
390.06	1.782
390.42	1.420
390.77	1.945
391.13	2.537
391.49	2.291
391.85	1.464
392.20	1.716
392.56	1.310
392.92	1.732
393.28	2.095
393.64	1.710
393.99	1.039
394.35	1.103
394.71	1.788
395.07	2.255
395.42	1.333
395.78	1.882
396.14	0.400
396.50	1.682
396.85	1.785
397.21	1.358
397.57	1.448
397.92	1.718
398.28	1.679
398.64	1.016
399.00	2.612
399.35	1.583
399.71	2.156
400.07	2.162
400.42	2.564
400.78	2.687
401.14	1.957
401.49	1.562
401.85	1.524
402.21	2.030
402.57	0.258
402.92	2.058
403.28	1.886
403.63	2.115
403.99	1.519
404.35	1.720
404.70	1.647
405.06	1.736
405.42	2.017
405.77	1.784
406.13	1.434
406.49	0.820
406.84	2.304
407.20	2.045
407.55	2.472
407.91	1.678
408.27	2.261
408.62	1.415
408.98	2.638
409.34	1.152
409.69	2.007
410.05	1.619
410.40	0.899
410.76	1.370
411.11	1.487
411.47	1.293
411.83	1.288
412.18	2.029
412.54	1.552
412.89	0.972
413.25	1.630
413.60	2.423
413.96	1.877
414.31	1.211
414.67	2.566
415.03	2.420
415.38	1.532
415.74	2.686
416.09	0.965
416.45	1.557
416.80	1.460
417.16	1.763
417.51	2.082
417.87	2.189
418.22	1.671
418.58	2.142
418.93	2.128
419.29	2.103
419.64	1.786
420.00	2.096
420.35	1.695
420.71	2.113
421.06	1.622
421.42	1.694
421.77	2.436
422.12	1.772
422.48	2.170
422.83	2.310
423.19	2.235
423.54	1.527
423.90	1.236
424.25	1.631
424.61	1.548
424.96	2.150
425.31	1.570
425.67	1.697
426.02	1.118
426.38	1.030
426.73	1.246
427.09	1.182
427.44	1.790
427.79	2.166
428.15	2.156
428.50	2.764
428.85	1.475
429.21	1.913
429.56	2.376
429.92	2.109
430.27	1.707
430.62	2.055
430.98	2.257
431.33	2.169
431.68	2.243
432.04	1.956
432.39	1.842
432.74	2.087
433.10	1.516
433.45	1.710
433.80	2.679
434.16	2.301
434.51	1.895
434.86	1.631
435.22	2.328
435.57	1.979
435.92	0.805
436.28	1.183
436.63	2.504
436.98	1.914
437.34	2.111
437.69	1.914
438.04	1.442
438.39	1.958
438.75	1.846
439.10	2.381
439.45	1.284
439.81	2.349
440.16	1.793
440.51	1.797
440.86	1.578
441.22	2.085
441.57	2.564
441.92	1.712
442.27	2.457
442.63	2.088
442.98	2.262
443.33	1.880
443.68	1.775
444.03	2.320
444.39	2.082
444.74	1.660
445.09	1.063
445.44	1.924
445.79	2.265
446.15	1.633
446.50	2.487
446.85	2.035
447.20	1.915
447.55	1.629
447.91	2.352
448.26	2.374
448.61	1.994
448.96	2.661
449.31	1.447
449.66	1.877
450.02	1.657
450.37	2.187
450.72	2.394
451.07	0.923
451.42	2.306
451.77	1.261
452.12	1.692
452.47	1.016
452.83	1.370
453.18	2.431
453.53	3.005
453.88	2.297
454.23	2.684
454.58	2.611
454.93	1.703
455.28	1.358
455.63	2.664
455.98	1.840
456.34	2.679
456.69	1.151
457.04	2.362
457.39	2.122
457.74	1.770
458.09	2.676
458.44	2.330
458.79	1.649
459.14	2.027
459.49	1.592
459.84	2.497
460.19	2.814
460.54	1.515
460.89	1.941
461.24	1.818
461.59	2.271
461.94	1.381
462.29	1.880
462.64	1.811
462.99	2.030
463.34	2.198
463.69	2.126
464.04	1.604
464.39	2.444
464.74	1.622
465.09	2.186
465.44	1.620
465.79	2.166
466.14	1.492
466.49	2.558
466.84	2.457
467.19	2.794
467.54	2.321
467.89	1.829
468.24	1.894
468.59	2.487
468.94	1.816
469.29	2.145
469.64	2.334
469.99	2.307
470.34	1.485
470.68	1.769
471.03	1.971
471.38	1.870
471.73	1.672
472.08	2.918
472.43	2.144
472.78	0.943
473.13	2.877
473.48	2.282
473.83	2.312
474.17	1.668
474.52	2.009
474.87	2.904
475.22	1.906
475.57	2.174
475.92	1.933
476.27	1.929
476.61	3.310
476.96	2.608
477.31	2.112
477.66	2.557
478.01	1.295
478.36	2.235
478.70	2.592
479.05	2.089
479.40	1.824
479.75	1.907
480.10	2.056
480.45	2.147
480.79	2.128
481.14	1.687
481.49	2.468
481.84	2.222
482.19	1.659
482.53	2.402
482.88	1.729
483.23	2.161
483.58	2.178
483.92	2.663
484.27	2.372
484.62	2.593
484.97	2.373
485.31	2.784
485.66	2.249
486.01	2.388
486.36	2.228
486.70	2.141
487.05	2.316
487.40	2.040
487.75	2.462
488.09	2.287
488.44	2.086
488.79	2.752
489.13	2.037
489.48	2.518
489.83	2.219
490.17	2.063
490.52	2.486
490.87	2.127
491.22	2.811
491.56	2.273
491.91	1.606
492.26	1.938
492.60	1.786
492.95	2.413
493.30	1.934
493.64	2.333
493.99	2.669
494.34	2.534
494.68	2.428
495.03	1.978
495.37	2.331
495.72	2.637
496.07	2.282
496.41	1.581
496.76	2.101
497.11	2.363
497.45	2.160
497.80	1.506
498.14	2.059
498.49	2.082
498.84	2.358
499.18	1.972
499.53	2.336
499.87	2.304
500.22	1.974
500.56	2.512
500.91	2.622
501.26	2.205
501.60	2.345
501.95	2.252
502.29	2.668
502.64	2.190
502.98	2.171
503.33	2.197
503.67	2.501
504.02	2.707
504.36	2.054
504.71	2.128
505.06	2.196
505.40	3.485
505.75	2.528
506.09	2.275
506.44	2.521
506.78	1.927
507.13	2.117
507.47	2.715
507.82	1.339
508.16	2.283
508.51	2.954
508.85	3.187
509.19	1.755
509.54	2.040
509.88	1.438
510.23	2.247
510.57	1.704
510.92	2.211
511.26	2.183
511.61	2.568
511.95	2.198
512.30	2.145
512.64	2.053
512.98	2.953
513.33	1.172
513.67	2.156
514.02	1.202
514.36	2.728
514.70	3.097
515.05	2.378
515.39	1.631
515.74	2.632
516.08	1.695
516.42	2.051
516.77	2.981
517.11	2.202
517.46	2.498
517.80	2.106
518.14	3.352
518.49	2.199
518.83	2.140
519.17	2.571
519.52	3.123
519.86	2.407
520.20	2.102
520.55	3.329
520.89	3.171
521.23	2.472
521.58	2.712
521.92	2.136
522.26	2.680
522.61	2.799
522.95	2.123
523.29	3.036
523.64	2.171
523.98	2.151
524.32	2.492
524.66	2.447
525.01	1.924
525.35	2.326
525.69	2.959
526.04	2.185
526.38	1.988
526.72	3.264
527.06	2.250
527.41	2.268
527.75	2.728
528.09	2.122
528.43	2.551
528.78	1.607
529.12	3.151
529.46	2.924
529.80	2.042
530.15	3.197
530.49	3.975
530.83	2.531
531.17	1.766
531.51	3.498
531.86	3.151
532.20	1.876
532.54	3.453
532.88	2.036
533.22	3.161
533.57	3.310
533.91	2.615
534.25	2.987
534.59	2.751
534.93	2.082
535.27	3.636
535.62	2.633
535.96	2.861
536.30	2.644
536.64	3.433
536.98	2.360
537.32	2.232
537.66	3.079
538.01	2.651
538.35	2.836
538.69	2.406
539.03	2.523
539.37	1.579
539.71	3.261
540.05	2.677
540.39	2.324
540.73	3.810
541.07	2.794
541.42	2.994
541.76	3.022
542.10	2.726
542.44	3.468
542.78	2.199
543.12	2.310
543.46	3.279
543.80	3.717
544.14	3.297
544.48	2.947
544.82	2.342
545.16	2.319
545.50	2.911
545.84	4.243
546.18	2.697
546.52	3.151
546.86	2.295
547.20	3.182
547.54	3.033
547.88	1.638
548.22	3.094
548.56	3.101
548.90	3.930
549.24	2.924
549.58	3.726
549.92	3.609
550.26	3.629
550.60	2.458
550.94	2.302
551.28	3.171
551.62	2.867
551.96	2.875
552.30	2.093
552.64	2.630
552.98	2.526
553.32	2.803
553.66	3.794
554.00	3.166
554.34	3.594
554.68	2.552
555.02	2.540
555.36	2.145
555.69	2.537
556.03	3.695
556.37	3.301
556.71	3.318
557.05	2.500
557.39	2.811
557.73	2.830
558.07	3.912
558.41	1.437
558.75	2.905
559.08	1.532
559.42	1.839
559.76	3.117
560.10	3.260
560.44	2.454
560.78	2.554
561.12	3.306
561.45	2.455
561.79	2.129
562.13	2.520
562.47	1.911
562.81	3.108
563.15	2.890
563.48	1.723
563.82	3.639
564.16	2.467
564.50	2.865
564.84	3.189
565.17	3.577
565.51	3.659
565.85	3.028
566.19	3.340
566.52	2.581
566.86	3.962
567.20	2.595
567.54	2.234
567.88	2.549
568.21	3.400
568.55	3.735
568.89	1.868
569.23	2.912
569.56	2.851
569.90	2.612
570.24	3.034
570.57	2.897
570.91	3.275
571.25	3.375
571.59	3.082
571.92	3.132
572.26	2.993
572.60	2.694
572.93	3.274
573.27	2.693
573.61	3.002
573.95	2.999
574.28	2.621
574.62	3.052
574.96	2.790
575.29	2.994
575.63	2.802
575.97	2.680
576.30	3.152
576.64	2.729
576.98	2.587
577.31	2.769
577.65	2.852
577.98	2.989
578.32	3.111
578.66	2.624
578.99	3.047
579.33	3.017
579.67	2.921
580.00	3.063
580.34	3.228
580.67	3.077
581.01	3.064
581.35	2.850
581.68	2.942
582.02	2.803
582.35	2.910
582.69	2.964
583.02	2.892
583.36	2.804
583.70	2.877
584.03	2.838
584.37	3.568
584.70	2.723
585.04	2.880
585.37	2.786
585.71	2.845
586.04	3.004
586.38	3.024
586.72	2.738
587.05	3.313
587.39	3.158
587.72	2.834
588.06	3.084
588.39	2.980
588.73	2.655
589.06	2.834
589.40	3.449
589.73	2.842
590.07	2.594
590.40	3.045
590.73	3.165
591.07	2.987
591.40	2.467
591.74	3.358
592.07	2.818
592.41	2.858
592.74	3.196
593.08	2.742
593.41	2.983
593.75	3.674
594.08	3.039
594.41	2.751
594.75	3.171
595.08	3.116
595.42	3.079
595.75	3.523
596.09	2.682
596.42	3.129
596.75	3.500
597.09	3.172
597.42	3.144
597.75	2.767
598.09	3.090
598.42	2.887
598.76	2.732
599.09	3.445
599.42	2.754
599.76	3.335
600.09	3.045
600.42	2.969
600.76	2.964
601.09	3.137
601.42	2.697
601.76	2.963
602.09	3.310
602.42	3.343
602.76	3.578
603.09	3.177
603.42	3.407
603.76	2.560
604.09	3.091
604.42	3.564
604.76	2.921
605.09	2.834
605.42	3.602
605.75	2.832
606.09	3.111
606.42	2.318
606.75	3.375
607.09	3.405
607.42	3.534
607.75	2.709
608.08	3.414
608.42	3.443
608.75	2.551
609.08	2.373
609.41	3.214
609.75	3.633
610.08	2.171
610.41	3.155
610.74	2.932
611.07	3.596
611.41	2.463
611.74	3.264
612.07	2.511
612.40	3.510
612.73	2.951
613.07	3.464
613.40	3.220
613.73	2.119
614.06	3.044
614.39	3.222
614.72	2.479
615.06	3.444
615.39	3.176
615.72	3.135
616.05	2.841
616.38	2.669
616.71	3.296
617.05	2.701
617.38	4.065
617.71	3.070
618.04	2.957
618.37	3.139
618.70	3.057
619.03	3.698
619.36	3.387
619.69	2.177
620.03	3.051
620.36	3.326
620.69	4.065
621.02	2.534
621.35	2.809
621.68	2.160
622.01	2.406
622.34	3.350
622.67	2.782
623.00	3.194
623.33	3.228
623.66	3.347
623.99	3.030
624.32	2.780
624.65	2.734
624.99	1.875
625.32	2.686
625.65	2.962
625.98	4.083
626.31	2.684
626.64	3.333
626.97	3.768
627.30	2.963
627.63	3.349
627.96	3.166
628.29	3.633
628.62	2.577
628.95	2.851
629.28	3.926
629.61	2.612
629.94	2.801
630.26	3.138
630.59	5.236
630.92	0.527
631.25	2.011
631.58	1.279
631.91	3.189
632.24	3.905
632.57	2.973
632.90	4.674
633.23	3.484
633.56	3.774
633.89	2.111
634.22	5.128
634.55	2.497
634.88	3.347
635.20	3.699
635.53	3.911
635.86	3.804
636.19	3.411
636.52	2.965
636.85	1.173
637.18	3.627
637.51	3.252
637.83	2.654
638.16	2.276
638.49	2.738
638.82	1.969
639.15	3.143
639.48	3.639
639.81	2.385
640.13	1.991
640.46	2.520
640.79	2.481
641.12	4.341
641.45	4.044
641.77	0.796
642.10	4.235
642.43	2.189
642.76	3.226
643.09	1.211
643.41	0.358
643.74	2.257
644.07	1.411
644.40	3.430
644.73	2.762
645.05	1.527
645.38	1.154
645.71	0.763
646.04	4.833
646.36	2.462
646.69	2.901
647.02	4.883
647.35	4.800
647.67	5.210
648.00	4.272
648.33	1.349
648.66	3.340
648.98	4.237
649.31	4.475
649.64	1.893
649.96	2.027
650.29	0.000
650.62	4.824
650.94	4.991
651.27	2.312
651.60	0.191
651.92	2.863
652.25	0.191
652.58	1.975
652.90	2.491
653.23	0.731
653.56	2.778
653.88	3.650
654.21	0.945
654.54	3.377
654.86	3.957
655.19	3.226
655.52	2.450
655.84	3.087
656.17	2.939
