SpectraSuite Data File
++++++++++++++++++++++++++++++++++++
Date: Tue May 12 19:47:58 PDT 2015
User: schluterlab
Dark Spectrum Present: Yes
Reference Spectrum Present: Yes
Number of Sampled Component Spectra: 1
Spectrometers: USB2E3373
Integration Time (usec): 3000 (USB2E3373)
Spectra Averaged: 3 (USB2E3373)
Boxcar Smoothing: 0 (USB2E3373)
Correct for Electrical Dark: No (USB2E3373)
Strobe/Lamp Enabled: No (USB2E3373)
Correct for Detector Non-linearity: No (USB2E3373)
Correct for Stray Light: No (USB2E3373)
Number of Pixels in Processed Spectrum: 2048
>>>>>Begin Processed Spectral Data<<<<<
178.53	0.000
178.91	-40.000
179.29	-283.333
179.67	433.333
180.04	0.000
180.42	-60.000
180.80	-266.667
181.18	1100.000
181.56	-700.000
181.94	216.667
182.31	1400.000
182.69	-157.143
183.07	0.000
183.45	233.333
183.83	340.000
184.20	216.667
184.58	750.000
184.96	233.333
185.34	-466.667
185.72	-64.286
186.09	-16.667
186.47	-1200.000
186.85	80.000
187.23	125.000
187.61	-157.143
187.98	-220.000
188.36	650.000
188.74	-225.000
189.12	-133.333
189.49	-150.000
189.87	300.000
190.25	255.556
190.63	600.000
191.00	260.000
191.38	-566.667
191.76	320.000
192.14	-128.571
192.51	-40.000
192.89	-160.000
193.27	-100.000
193.65	-400.000
194.02	-183.333
194.40	400.000
194.78	-87.500
195.15	-257.143
195.53	166.667
195.91	220.000
196.29	-575.000
196.66	-400.000
197.04	-200.000
197.42	180.000
197.79	-237.500
198.17	-75.000
198.55	-400.000
198.92	-188.889
199.30	450.000
199.68	-275.000
200.05	-1100.000
200.43	-61.111
200.81	-158.333
201.18	250.000
201.56	-450.000
201.94	-2200.000
202.31	-150.000
202.69	0.000
203.07	-100.000
203.44	-425.000
203.82	0.000
204.19	212.500
204.57	-533.333
204.95	163.636
205.32	160.000
205.70	475.000
206.08	-900.000
206.45	-180.000
206.83	2700.000
207.20	-177.778
207.58	-15.385
207.96	633.333
208.33	800.000
208.71	666.667
209.08	300.000
209.46	-111.111
209.84	500.000
210.21	-700.000
210.59	600.000
210.96	177.778
211.34	-400.000
211.71	1150.000
212.09	-40.000
212.46	-175.000
212.84	-200.000
213.22	114.286
213.59	-212.500
213.97	0.000
214.34	-400.000
214.72	-1700.000
215.09	550.000
215.47	-53.333
215.84	-75.000
216.22	-2100.000
216.59	2200.000
216.97	-100.000
217.34	-233.333
217.72	5.556
218.09	275.000
218.47	-42.105
218.84	-162.500
219.22	-28.571
219.59	-110.000
219.97	-190.000
220.34	366.667
220.72	236.364
221.09	-950.000
221.47	0.000
221.84	500.000
222.22	-325.000
222.59	-250.000
222.97	-8.696
223.34	180.000
223.72	328.571
224.09	-183.333
224.46	253.846
224.84	-40.000
225.21	-550.000
225.59	-450.000
225.96	0.000
226.34	333.333
226.71	240.000
227.08	-92.308
227.46	-214.286
227.83	-50.000
228.21	-1150.000
228.58	400.000
228.95	-31.579
229.33	6.250
229.70	-366.667
230.08	-288.889
230.45	-733.333
230.82	-1700.000
231.20	-28.571
231.57	-620.000
231.95	-33.333
232.32	144.444
232.69	-1150.000
233.07	-25.000
233.44	-75.000
233.81	-6.452
234.19	-360.000
234.56	-50.000
234.93	-250.000
235.31	18.519
235.68	-29.630
236.05	-53.846
236.43	-21.053
236.80	-50.000
237.17	-100.000
237.55	-100.000
237.92	-16.279
238.29	-58.065
238.67	-82.143
239.04	-14.286
239.41	-27.451
239.79	0.000
240.16	-10.000
240.53	-12.069
240.91	1.370
241.28	7.042
241.65	-6.250
242.02	-14.035
242.40	-4.000
242.77	1.053
243.14	-3.529
243.51	1.075
243.89	-7.619
244.26	-0.926
244.63	-5.102
245.00	-10.714
245.38	-15.126
245.75	-5.085
246.12	3.125
246.49	-9.600
246.87	-4.098
247.24	-9.859
247.61	-11.258
247.98	1.124
248.36	-4.403
248.73	1.136
249.10	-3.333
249.47	1.042
249.84	-1.523
250.22	-4.688
250.59	-7.865
250.96	3.636
251.33	0.943
251.70	-0.459
252.08	6.494
252.45	2.041
252.82	-0.422
253.19	3.891
253.56	3.137
253.94	0.000
254.31	6.115
254.68	2.778
255.05	8.940
255.42	1.818
255.79	6.623
256.16	2.431
256.54	7.273
256.91	6.410
257.28	6.169
257.65	1.967
258.02	4.204
258.39	7.251
258.76	3.058
259.14	-0.294
259.51	5.915
259.88	5.187
260.25	0.284
260.62	1.124
260.99	6.128
261.36	3.448
261.73	3.467
262.10	6.267
262.47	4.132
262.85	6.427
263.22	3.226
263.59	5.094
263.96	4.178
264.33	0.270
264.70	3.686
265.07	3.448
265.44	4.450
265.81	9.639
266.18	6.089
266.55	3.095
266.92	6.696
267.29	3.333
267.66	1.591
268.03	6.452
268.40	4.119
268.77	4.232
269.14	4.832
269.51	2.941
269.88	6.838
270.25	3.165
270.62	7.773
270.99	4.000
271.36	2.649
271.73	4.583
272.10	5.602
272.47	4.600
272.84	2.548
273.21	1.461
273.58	2.245
273.95	4.781
274.32	6.963
274.69	4.697
275.06	4.315
275.43	4.200
275.80	4.780
276.17	3.953
276.54	3.802
276.91	5.950
277.28	4.062
277.65	4.159
278.02	6.250
278.39	7.804
278.76	7.263
279.13	5.725
279.50	5.235
279.87	6.415
280.23	5.464
280.60	3.357
280.97	4.569
281.34	5.424
281.71	2.487
282.08	4.830
282.45	4.586
282.82	3.704
283.19	5.892
283.56	5.802
283.92	6.161
284.29	5.245
284.66	3.186
285.03	2.230
285.40	4.833
285.77	6.897
286.14	6.656
286.51	4.019
286.87	4.700
287.24	3.205
287.61	5.710
287.98	6.260
288.35	5.581
288.72	5.963
289.08	4.403
289.45	4.680
289.82	4.814
290.19	5.152
290.56	4.776
290.93	5.318
291.29	6.241
291.66	4.494
292.03	7.174
292.40	4.892
292.77	5.102
293.13	3.818
293.50	4.821
293.87	5.687
294.24	5.197
294.60	5.191
294.97	4.571
295.34	4.932
295.71	4.300
296.08	3.825
296.44	5.007
296.81	4.916
297.18	4.787
297.55	5.151
297.91	5.076
298.28	4.859
298.65	4.140
299.02	4.809
299.38	3.699
299.75	5.019
300.12	4.556
300.48	5.282
300.85	4.523
301.22	4.087
301.59	5.474
301.95	4.268
302.32	3.645
302.69	3.329
303.05	5.077
303.42	5.676
303.79	4.831
304.15	5.323
304.52	6.034
304.89	4.284
305.25	4.472
305.62	4.886
305.99	3.471
306.35	4.139
306.72	5.773
307.09	2.829
307.45	5.825
307.82	5.550
308.19	5.391
308.55	4.747
308.92	5.297
309.29	5.753
309.65	5.470
310.02	5.031
310.38	6.503
310.75	6.352
311.12	4.680
311.48	6.475
311.85	6.079
312.22	6.198
312.58	6.244
312.95	5.749
313.31	6.391
313.68	6.852
314.05	7.746
314.41	7.171
314.78	8.040
315.14	6.660
315.51	6.852
315.87	8.398
316.24	8.704
316.61	6.796
316.97	7.941
317.34	7.943
317.70	8.683
318.07	7.715
318.43	9.641
318.80	8.561
319.16	8.015
319.53	8.868
319.89	9.754
320.26	8.850
320.62	10.078
320.99	11.531
321.35	10.474
321.72	10.202
322.08	12.178
322.45	11.243
322.81	12.808
323.18	12.368
323.54	10.711
323.91	11.575
324.27	10.800
324.64	12.090
325.00	12.830
325.37	13.759
325.73	11.405
326.10	13.310
326.46	13.146
326.83	14.600
327.19	15.546
327.56	14.677
327.92	15.017
328.29	15.323
328.65	16.196
329.01	16.697
329.38	16.070
329.74	17.549
330.11	17.241
330.47	17.970
330.84	17.387
331.20	18.115
331.56	16.321
331.93	17.566
332.29	17.391
332.66	17.993
333.02	18.013
333.38	19.577
333.75	18.664
334.11	17.902
334.48	17.621
334.84	17.934
335.20	17.816
335.57	18.710
335.93	18.326
336.29	18.190
336.66	18.488
337.02	18.948
337.38	17.453
337.75	19.455
338.11	18.870
338.47	19.499
338.84	19.061
339.20	19.340
339.56	18.826
339.93	18.198
340.29	19.946
340.65	18.447
341.02	17.626
341.38	18.005
341.74	18.594
342.11	17.683
342.47	18.794
342.83	17.953
343.20	17.772
343.56	18.444
343.92	19.423
344.28	18.439
344.65	18.493
345.01	17.944
345.37	19.231
345.73	18.260
346.10	18.842
346.46	18.119
346.82	18.267
347.19	17.914
347.55	19.048
347.91	17.527
348.27	17.944
348.63	17.545
349.00	19.282
349.36	19.126
349.72	18.391
350.08	19.067
350.45	17.901
350.81	18.580
351.17	17.133
351.53	17.552
351.89	17.617
352.26	17.480
352.62	18.070
352.98	17.908
353.34	18.129
353.70	17.449
354.07	18.369
354.43	17.696
354.79	18.115
355.15	17.191
355.51	18.337
355.87	17.236
356.24	19.199
356.60	17.195
356.96	17.773
357.32	17.202
357.68	18.059
358.04	17.261
358.40	17.921
358.77	16.787
359.13	18.153
359.49	17.680
359.85	19.105
360.21	17.288
360.57	17.624
360.93	18.290
361.29	18.069
361.66	17.271
362.02	17.425
362.38	17.793
362.74	19.293
363.10	18.024
363.46	18.811
363.82	18.377
364.18	18.017
364.54	18.015
364.90	18.222
365.26	17.362
365.62	18.017
365.98	17.316
366.35	18.306
366.71	18.447
367.07	18.450
367.43	16.895
367.79	18.459
368.15	17.346
368.51	17.303
368.87	18.282
369.23	18.168
369.59	17.941
369.95	16.766
370.31	15.909
370.67	18.647
371.03	18.576
371.39	16.692
371.75	17.905
372.11	17.407
372.47	17.149
372.83	18.846
373.19	17.470
373.55	17.290
373.91	17.197
374.27	18.102
374.63	17.305
374.99	17.496
375.35	16.546
375.71	17.862
376.07	17.032
376.42	17.981
376.78	16.934
377.14	17.737
377.50	17.237
377.86	18.524
378.22	17.834
378.58	17.171
378.94	17.485
379.30	17.503
379.66	17.542
380.02	17.546
380.38	17.112
380.74	17.775
381.09	17.217
381.45	18.286
381.81	17.793
382.17	18.111
382.53	17.160
382.89	17.896
383.25	18.516
383.61	16.402
383.97	17.219
384.32	17.484
384.68	17.561
385.04	15.850
385.40	16.613
385.76	17.015
386.12	17.030
386.48	16.960
386.83	16.590
387.19	16.922
387.55	16.256
387.91	15.888
388.27	16.123
388.62	16.386
388.98	17.176
389.34	17.241
389.70	16.218
390.06	17.162
390.42	17.241
390.77	17.840
391.13	16.786
391.49	16.173
391.85	16.633
392.20	17.162
392.56	16.045
392.92	17.007
393.28	16.756
393.64	16.973
393.99	15.649
394.35	16.418
394.71	15.960
395.07	17.507
395.42	16.571
395.78	16.129
396.14	15.323
396.50	16.171
396.85	15.202
397.21	15.395
397.57	15.932
397.92	16.539
398.28	16.547
398.64	15.810
399.00	15.961
399.35	16.999
399.71	15.689
400.07	16.306
400.42	16.667
400.78	15.931
401.14	15.593
401.49	15.678
401.85	16.444
402.21	16.117
402.57	15.647
402.92	15.737
403.28	15.410
403.63	15.513
403.99	14.795
404.35	16.115
404.70	15.643
405.06	15.499
405.42	15.745
405.77	15.042
406.13	14.875
406.49	14.511
406.84	15.629
407.20	14.808
407.55	15.898
407.91	15.035
408.27	15.160
408.62	15.113
408.98	16.023
409.34	14.853
409.69	14.247
410.05	14.961
410.40	14.322
410.76	14.944
411.11	14.221
411.47	15.306
411.83	14.939
412.18	14.987
412.54	15.201
412.89	13.925
413.25	15.486
413.60	15.242
413.96	14.951
414.31	14.595
414.67	15.395
415.03	14.177
415.38	14.276
415.74	14.036
416.09	14.955
416.45	14.367
416.80	13.282
417.16	15.374
417.51	14.781
417.87	14.979
418.22	14.773
418.58	14.513
418.93	14.507
419.29	14.315
419.64	15.041
420.00	14.669
420.35	15.254
420.71	14.725
421.06	14.925
421.42	15.056
421.77	15.713
422.12	14.471
422.48	14.563
422.83	15.198
423.19	14.706
423.54	14.294
423.90	14.833
424.25	15.650
424.61	14.903
424.96	15.295
425.31	15.459
425.67	14.727
426.02	13.727
426.38	14.607
426.73	14.953
427.09	14.445
427.44	15.432
427.79	15.532
428.15	14.965
428.50	14.761
428.85	15.266
429.21	16.198
429.56	14.807
429.92	15.846
430.27	14.827
430.62	15.414
430.98	15.314
431.33	15.628
431.68	14.661
432.04	15.190
432.39	14.676
432.74	15.370
433.10	14.615
433.45	15.389
433.80	15.655
434.16	15.995
434.51	14.771
434.86	14.924
435.22	15.774
435.57	15.303
435.92	14.613
436.28	16.002
436.63	14.729
436.98	14.877
437.34	15.867
437.69	15.617
438.04	15.084
438.39	15.862
438.75	16.062
439.10	16.488
439.45	16.303
439.81	16.127
440.16	15.646
440.51	15.675
440.86	15.783
441.22	15.068
441.57	15.783
441.92	15.792
442.27	16.171
442.63	15.745
442.98	16.626
443.33	15.629
443.68	15.141
444.03	16.031
444.39	15.877
444.74	15.913
445.09	16.116
445.44	15.685
445.79	16.559
446.15	15.394
446.50	15.905
446.85	16.502
447.20	15.700
447.55	15.823
447.91	15.932
448.26	16.142
448.61	15.831
448.96	16.440
449.31	15.732
449.66	15.799
450.02	15.680
450.37	16.100
450.72	16.338
451.07	15.359
451.42	16.798
451.77	15.700
452.12	16.165
452.47	15.583
452.83	16.438
453.18	16.003
453.53	16.852
453.88	15.890
454.23	16.613
454.58	16.580
454.93	15.736
455.28	15.818
455.63	15.789
455.98	16.688
456.34	16.075
456.69	15.640
457.04	16.142
457.39	16.230
457.74	17.067
458.09	15.930
458.44	16.677
458.79	16.019
459.14	15.921
459.49	15.924
459.84	14.982
460.19	16.886
460.54	15.215
460.89	15.294
461.24	15.909
461.59	16.404
461.94	14.924
462.29	15.664
462.64	15.877
462.99	15.809
463.34	16.557
463.69	15.844
464.04	16.228
464.39	15.949
464.74	16.548
465.09	16.334
465.44	15.297
465.79	16.005
466.14	15.692
466.49	16.657
466.84	16.155
467.19	16.699
467.54	15.915
467.89	16.068
468.24	15.909
468.59	15.641
468.94	16.409
469.29	16.194
469.64	16.265
469.99	15.501
470.34	15.134
470.68	15.615
471.03	16.058
471.38	15.258
471.73	17.297
472.08	17.367
472.43	16.598
472.78	14.866
473.13	16.351
473.48	16.183
473.83	16.579
474.17	16.211
474.52	16.276
474.87	16.540
475.22	16.582
475.57	15.452
475.92	15.179
476.27	16.034
476.61	16.076
476.96	16.064
477.31	15.868
477.66	16.444
478.01	15.185
478.36	15.587
478.70	15.944
479.05	16.309
479.40	16.307
479.75	16.153
480.10	16.613
480.45	15.602
480.79	15.672
481.14	16.183
481.49	15.681
481.84	15.909
482.19	15.659
482.53	15.441
482.88	15.913
483.23	15.276
483.58	15.842
483.92	16.131
484.27	16.118
484.62	16.407
484.97	15.554
485.31	15.236
485.66	14.497
486.01	14.286
486.36	14.465
486.70	14.708
487.05	14.623
487.40	14.494
487.75	15.059
488.09	14.254
488.44	14.887
488.79	15.214
489.13	15.420
489.48	15.636
489.83	15.349
490.17	15.565
490.52	15.535
490.87	16.370
491.22	15.582
491.56	15.464
491.91	15.663
492.26	16.522
492.60	16.224
492.95	16.016
493.30	15.525
493.64	15.112
493.99	16.068
494.34	15.966
494.68	14.866
495.03	15.264
495.37	15.560
495.72	15.559
496.07	15.467
496.41	15.267
496.76	15.855
497.11	16.199
497.45	16.323
497.80	15.836
498.14	15.628
498.49	15.590
498.84	15.409
499.18	14.842
499.53	15.369
499.87	14.951
500.22	14.857
500.56	15.803
500.91	16.466
501.26	16.273
501.60	16.412
501.95	15.353
502.29	15.136
502.64	15.231
502.98	15.295
503.33	15.177
503.67	16.029
504.02	15.986
504.36	14.946
504.71	15.160
505.06	15.265
505.40	16.139
505.75	15.534
506.09	16.089
506.44	15.343
506.78	15.043
507.13	15.309
507.47	15.845
507.82	15.569
508.16	16.091
508.51	16.466
508.85	15.659
509.19	16.018
509.54	16.261
509.88	16.053
510.23	15.112
510.57	15.616
510.92	16.043
511.26	15.221
511.61	15.753
511.95	15.442
512.30	15.652
512.64	15.660
512.98	15.889
513.33	15.358
513.67	15.030
514.02	15.685
514.36	15.421
514.70	16.818
515.05	15.976
515.39	15.997
515.74	15.288
516.08	15.568
516.42	16.346
516.77	15.714
517.11	15.474
517.46	16.052
517.80	16.656
518.14	16.445
518.49	16.494
518.83	15.953
519.17	16.260
519.52	16.115
519.86	15.959
520.20	16.051
520.55	16.841
520.89	16.262
521.23	16.700
521.58	15.939
521.92	16.021
522.26	16.082
522.61	15.973
522.95	15.411
523.29	15.655
523.64	15.875
523.98	15.188
524.32	16.094
524.66	15.976
525.01	15.876
525.35	16.142
525.69	15.829
526.04	15.856
526.38	16.038
526.72	15.833
527.06	15.893
527.41	15.379
527.75	16.080
528.09	15.134
528.43	16.159
528.78	15.164
529.12	15.411
529.46	15.282
529.80	15.725
530.15	15.219
530.49	16.248
530.83	14.823
531.17	14.760
531.51	16.417
531.86	16.036
532.20	15.368
532.54	15.683
532.88	15.055
533.22	15.589
533.57	14.000
533.91	15.898
534.25	15.818
534.59	14.718
534.93	15.447
535.27	15.084
535.62	14.990
535.96	15.143
536.30	15.658
536.64	15.665
536.98	15.487
537.32	15.327
537.66	16.056
538.01	14.875
538.35	15.055
538.69	15.145
539.03	15.573
539.37	15.147
539.71	15.145
540.05	15.268
540.39	14.524
540.73	14.945
541.07	15.882
541.42	15.467
541.76	15.324
542.10	14.993
542.44	14.957
542.78	14.003
543.12	14.152
543.46	14.903
543.80	15.225
544.14	15.556
544.48	14.947
544.82	15.117
545.16	14.638
545.50	15.939
545.84	15.728
546.18	16.105
546.52	16.141
546.86	14.767
547.20	15.227
547.54	14.253
547.88	14.886
548.22	15.190
548.56	15.574
548.90	15.649
549.24	15.497
549.58	15.052
549.92	14.812
550.26	15.598
550.60	15.543
550.94	15.397
551.28	15.528
551.62	15.397
551.96	15.016
552.30	14.264
552.64	15.177
552.98	14.933
553.32	15.000
553.66	15.023
554.00	15.290
554.34	15.234
554.68	14.274
555.02	15.159
555.36	13.662
555.69	14.604
556.03	15.373
556.37	15.079
556.71	15.535
557.05	14.844
557.39	15.663
557.73	16.038
558.07	15.962
558.41	15.164
558.75	15.021
559.08	15.574
559.42	16.304
559.76	14.238
560.10	15.403
560.44	14.806
560.78	14.651
561.12	14.125
561.45	15.253
561.79	14.758
562.13	14.678
562.47	14.297
562.81	14.860
563.15	14.981
563.48	12.959
563.82	15.502
564.16	14.078
564.50	14.756
564.84	14.458
565.17	15.021
565.51	15.412
565.85	14.085
566.19	14.753
566.52	14.839
566.86	15.096
567.20	13.706
567.54	13.529
567.88	13.653
568.21	13.482
568.55	12.903
568.89	13.407
569.23	12.902
569.56	12.828
569.90	12.891
570.24	13.554
570.57	12.566
570.91	13.137
571.25	13.051
571.59	12.492
571.92	11.783
572.26	11.632
572.60	12.316
572.93	12.541
573.27	12.070
573.61	12.071
573.95	11.938
574.28	11.421
574.62	11.320
574.96	11.343
575.29	11.848
575.63	11.342
575.97	11.882
576.30	11.712
576.64	11.549
576.98	11.256
577.31	11.354
577.65	11.335
577.98	11.455
578.32	11.328
578.66	11.092
578.99	11.996
579.33	11.506
579.67	11.502
580.00	11.552
580.34	11.947
580.67	11.699
581.01	11.656
581.35	11.602
581.68	11.255
582.02	11.250
582.35	11.640
582.69	11.482
583.02	11.243
583.36	11.640
583.70	11.454
584.03	11.686
584.37	11.790
584.70	11.716
585.04	11.548
585.37	11.551
585.71	11.556
586.04	11.730
586.38	12.340
586.72	11.834
587.05	12.067
587.39	12.059
587.72	11.698
588.06	12.027
588.39	11.452
588.73	11.743
589.06	12.092
589.40	12.284
589.73	12.453
590.07	11.537
590.40	11.981
590.73	12.995
591.07	12.468
591.40	13.065
591.74	12.174
592.07	12.369
592.41	12.559
592.74	12.740
593.08	12.509
593.41	12.410
593.75	12.909
594.08	12.585
594.41	12.849
594.75	12.294
595.08	12.232
595.42	12.655
595.75	12.614
596.09	12.130
596.42	12.178
596.75	12.455
597.09	12.826
597.42	13.092
597.75	13.508
598.09	12.921
598.42	13.015
598.76	12.978
599.09	12.311
599.42	12.234
599.76	12.358
600.09	12.416
600.42	12.578
600.76	12.202
601.09	12.863
601.42	12.279
601.76	12.216
602.09	12.861
602.42	12.766
602.76	12.653
603.09	13.142
603.42	12.649
603.76	12.757
604.09	12.197
604.42	12.881
604.76	11.821
605.09	11.904
605.42	12.938
605.75	12.563
606.09	13.022
606.42	12.073
606.75	13.632
607.09	12.687
607.42	12.666
607.75	12.443
608.08	12.067
608.42	13.094
608.75	12.506
609.08	12.065
609.41	13.634
609.75	12.902
610.08	13.282
610.41	13.028
610.74	12.588
611.07	12.639
611.41	13.009
611.74	13.221
612.07	13.393
612.40	12.981
612.73	12.905
613.07	12.977
613.40	14.031
613.73	13.058
614.06	12.295
614.39	13.415
614.72	12.515
615.06	13.949
615.39	13.453
615.72	12.542
616.05	12.754
616.38	12.693
616.71	12.749
617.05	13.317
617.38	13.032
617.71	12.606
618.04	13.469
618.37	12.688
618.70	13.519
619.03	15.083
619.36	14.359
619.69	12.442
620.03	14.340
620.36	13.605
620.69	13.525
621.02	13.539
621.35	14.638
621.68	14.671
622.01	15.152
622.34	14.405
622.67	13.828
623.00	14.087
623.33	13.858
623.66	14.422
623.99	14.514
624.32	13.662
624.65	12.500
624.99	12.109
625.32	13.428
625.65	12.890
625.98	14.917
626.31	14.372
626.64	14.505
626.97	15.441
627.30	15.093
627.63	14.512
627.96	15.270
628.29	14.532
628.62	14.433
628.95	14.044
629.28	14.773
629.61	15.674
629.94	14.730
630.26	15.690
630.59	15.707
630.92	13.172
631.25	15.084
631.58	13.605
631.91	13.781
632.24	15.976
632.57	16.290
632.90	17.466
633.23	17.161
633.56	15.346
633.89	13.325
634.22	15.769
634.55	15.112
634.88	16.332
635.20	16.164
635.53	16.061
635.86	18.886
