SpectraSuite Data File
++++++++++++++++++++++++++++++++++++
Date: Tue May 12 19:38:26 PDT 2015
User: schluterlab
Dark Spectrum Present: Yes
Reference Spectrum Present: Yes
Number of Sampled Component Spectra: 1
Spectrometers: USB2E3373
Integration Time (usec): 3000 (USB2E3373)
Spectra Averaged: 3 (USB2E3373)
Boxcar Smoothing: 0 (USB2E3373)
Correct for Electrical Dark: No (USB2E3373)
Strobe/Lamp Enabled: No (USB2E3373)
Correct for Detector Non-linearity: No (USB2E3373)
Correct for Stray Light: No (USB2E3373)
Number of Pixels in Processed Spectrum: 2048
>>>>>Begin Processed Spectral Data<<<<<
178.53	0.000
178.91	-10.000
179.29	-233.333
179.67	300.000
180.04	0.000
180.42	-60.000
180.80	-100.000
181.18	750.000
181.56	-300.000
181.94	316.667
182.31	1600.000
182.69	-85.714
183.07	0.000
183.45	175.000
183.83	340.000
184.20	133.333
184.58	300.000
184.96	116.667
185.34	-400.000
185.72	0.000
186.09	-83.333
186.47	-1400.000
186.85	20.000
187.23	166.667
187.61	-57.143
187.98	-240.000
188.36	650.000
188.74	-100.000
189.12	-44.444
189.49	-90.000
189.87	75.000
190.25	111.111
190.63	233.333
191.00	60.000
191.38	-466.667
191.76	240.000
192.14	71.429
192.51	-90.000
192.89	40.000
193.27	-260.000
193.65	-233.333
194.02	-100.000
194.40	700.000
194.78	-237.500
195.15	-171.429
195.53	333.333
195.91	340.000
196.29	-200.000
196.66	-133.333
197.04	-114.286
197.42	240.000
197.79	-150.000
198.17	-16.667
198.55	-900.000
198.92	-122.222
199.30	850.000
199.68	-275.000
200.05	-600.000
200.43	0.000
200.81	-58.333
201.18	366.667
201.56	-100.000
201.94	-1300.000
202.31	0.000
202.69	11.111
203.07	-75.000
203.44	-150.000
203.82	0.000
204.19	212.500
204.57	-66.667
204.95	109.091
205.32	280.000
205.70	50.000
206.08	-400.000
206.45	-260.000
206.83	1500.000
207.20	-88.889
207.58	53.846
207.96	433.333
208.33	533.333
208.71	333.333
209.08	950.000
209.46	88.889
209.84	533.333
210.21	-166.667
210.59	300.000
210.96	155.556
211.34	-100.000
211.71	900.000
212.09	60.000
212.46	-75.000
212.84	-75.000
213.22	171.429
213.59	-87.500
213.97	0.000
214.34	-450.000
214.72	-500.000
215.09	150.000
215.47	-6.667
215.84	-62.500
216.22	-1000.000
216.59	1400.000
216.97	-75.000
217.34	-33.333
217.72	22.222
218.09	550.000
218.47	-47.368
218.84	-137.500
219.22	28.571
219.59	-40.000
219.97	-170.000
220.34	266.667
220.72	72.727
221.09	-700.000
221.47	0.000
221.84	850.000
222.22	-350.000
222.59	-325.000
222.97	4.348
223.34	160.000
223.72	314.286
224.09	-83.333
224.46	130.769
224.84	-26.667
225.21	-600.000
225.59	-225.000
225.96	80.000
226.34	266.667
226.71	170.000
227.08	7.692
227.46	171.429
227.83	-100.000
228.21	-800.000
228.58	283.333
228.95	-21.053
229.33	6.250
229.70	0.000
230.08	-66.667
230.45	-333.333
230.82	-1600.000
231.20	-9.524
231.57	-300.000
231.95	-300.000
232.32	55.556
232.69	-900.000
233.07	6.250
233.44	-100.000
233.81	35.484
234.19	-320.000
234.56	-27.778
234.93	-200.000
235.31	11.111
235.68	-14.815
236.05	-19.231
236.43	-31.579
236.80	-18.182
237.17	-57.143
237.55	-50.000
237.92	25.581
238.29	-3.226
238.67	-10.714
239.04	5.714
239.41	-3.922
239.79	0.000
240.16	7.500
240.53	-1.724
240.91	12.329
241.28	8.451
241.65	9.375
242.02	3.509
242.40	12.000
242.77	9.474
243.14	21.176
243.51	12.903
243.89	2.857
244.26	18.519
244.63	19.388
245.00	5.357
245.38	9.244
245.75	10.169
246.12	9.375
246.49	-1.600
246.87	15.574
247.24	2.817
247.61	9.272
247.98	15.169
248.36	10.063
248.73	15.909
249.10	12.222
249.47	15.625
249.84	10.660
250.22	16.146
250.59	15.169
250.96	12.727
251.33	18.868
251.70	13.761
252.08	21.212
252.45	8.163
252.82	10.970
253.19	16.732
253.56	18.824
253.94	14.634
254.31	21.583
254.68	16.667
255.05	19.536
255.42	12.727
255.79	20.861
256.16	17.014
256.54	15.455
256.91	16.987
257.28	18.831
257.65	13.115
258.02	18.018
258.39	19.033
258.76	14.679
259.14	12.941
259.51	19.718
259.88	17.003
260.25	18.182
260.62	14.607
260.99	17.270
261.36	16.954
261.73	19.733
262.10	16.076
262.47	18.457
262.85	17.738
263.22	14.516
263.59	17.158
263.96	15.666
264.33	15.364
264.70	16.216
265.07	15.025
265.44	15.691
265.81	20.000
266.18	15.457
266.55	15.952
266.92	16.518
267.29	17.333
267.66	12.955
268.03	16.559
268.40	19.680
268.77	16.258
269.14	15.126
269.51	16.742
269.88	14.530
270.25	15.612
270.62	16.807
270.99	14.737
271.36	15.894
271.73	16.875
272.10	18.257
272.47	17.600
272.84	15.711
273.21	16.701
273.58	15.102
273.95	15.737
274.32	17.988
274.69	16.830
275.06	17.636
275.43	14.200
275.80	14.914
276.17	14.822
276.54	15.779
276.91	16.699
277.28	15.474
277.65	16.068
278.02	19.129
278.39	19.056
278.76	15.829
279.13	20.215
279.50	14.982
279.87	17.170
280.23	16.758
280.60	12.544
280.97	16.872
281.34	14.576
281.71	14.565
282.08	18.605
282.45	16.402
282.82	15.488
283.19	15.488
283.56	17.065
283.92	17.220
284.29	14.721
284.66	15.929
285.03	13.551
285.40	17.333
285.77	18.062
286.14	15.531
286.51	14.791
286.87	14.263
287.24	13.301
287.61	15.432
287.98	17.058
288.35	14.884
288.72	15.749
289.08	12.579
289.45	16.069
289.82	14.752
290.19	14.848
290.56	16.064
290.93	16.248
291.29	13.617
291.66	14.888
292.03	16.643
292.40	15.540
292.77	12.974
293.13	14.831
293.50	14.050
293.87	14.424
294.24	14.045
294.60	15.710
294.97	13.712
295.34	12.466
295.71	13.870
296.08	13.388
296.44	14.097
296.81	13.195
297.18	15.524
297.55	12.312
297.91	12.056
298.28	12.020
298.65	12.678
299.02	12.207
299.38	13.010
299.75	14.286
300.12	13.189
300.48	14.085
300.85	11.614
301.22	12.019
301.59	12.409
301.95	13.171
302.32	11.422
302.69	11.534
303.05	11.688
303.42	11.353
303.79	11.348
304.15	12.797
304.52	12.402
304.89	12.401
305.25	12.041
305.62	11.818
305.99	11.646
306.35	11.521
306.72	13.508
307.09	11.208
307.45	11.650
307.82	12.060
308.19	12.541
308.55	13.186
308.92	11.547
309.29	12.971
309.65	12.590
310.02	12.474
310.38	12.580
310.75	12.193
311.12	13.123
311.48	13.052
311.85	10.942
312.22	12.293
312.58	12.689
312.95	13.244
313.31	11.406
313.68	12.016
314.05	13.108
314.41	12.868
314.78	11.759
315.14	13.614
315.51	13.605
315.87	13.086
316.24	12.859
316.61	12.816
316.97	12.059
317.34	13.014
317.70	11.858
318.07	12.825
318.43	13.800
318.80	12.386
319.16	12.488
319.53	13.962
319.89	12.784
320.26	12.881
320.62	13.760
320.99	15.000
321.35	13.538
321.72	15.354
322.08	14.356
322.45	15.286
322.81	13.793
323.18	13.423
323.54	14.408
323.91	13.852
324.27	14.368
324.64	14.152
325.00	13.194
325.37	15.018
325.73	14.507
326.10	14.011
326.46	13.327
326.83	13.896
327.19	14.585
327.56	14.058
327.92	13.194
328.29	13.351
328.65	14.124
329.01	13.303
329.38	13.866
329.74	15.413
330.11	13.979
330.47	14.711
330.84	13.440
331.20	14.972
331.56	13.868
331.93	13.632
332.29	13.784
332.66	14.828
333.02	15.042
333.38	14.706
333.75	13.907
334.11	13.562
334.48	13.953
334.84	13.052
335.20	13.429
335.57	15.804
335.93	13.674
336.29	14.534
336.66	12.933
337.02	14.687
337.38	14.623
337.75	14.364
338.11	15.132
338.47	14.578
338.84	13.536
339.20	13.841
339.56	13.607
339.93	12.883
340.29	14.143
340.65	14.155
341.02	13.109
341.38	13.504
341.74	12.989
342.11	13.882
342.47	13.287
342.83	14.484
343.20	13.705
343.56	13.199
343.92	12.948
344.28	12.007
344.65	14.127
345.01	11.585
345.37	14.615
345.73	12.403
346.10	13.397
346.46	12.166
346.82	12.319
347.19	14.382
347.55	13.776
347.91	12.940
348.27	14.575
348.63	12.878
349.00	13.773
349.36	13.932
349.72	13.629
350.08	13.257
350.45	12.612
350.81	13.377
351.17	12.768
351.53	12.560
351.89	12.090
352.26	13.089
352.62	13.246
352.98	13.138
353.34	12.364
353.70	13.086
354.07	12.356
354.43	13.773
354.79	13.033
355.15	12.752
355.51	12.958
355.87	13.072
356.24	13.399
356.60	13.439
356.96	12.875
357.32	12.593
357.68	13.524
358.04	12.966
358.40	14.812
358.77	13.253
359.13	12.851
359.49	13.280
359.85	12.550
360.21	12.292
360.57	12.360
360.93	13.222
361.29	11.916
361.66	12.697
362.02	13.187
362.38	13.287
362.74	13.528
363.10	12.066
363.46	12.716
363.82	12.787
364.18	13.172
364.54	12.672
364.90	11.852
365.26	13.338
365.62	12.869
365.98	12.369
366.35	13.086
366.71	13.518
367.07	12.841
367.43	12.563
367.79	11.628
368.15	11.490
368.51	12.434
368.87	13.950
369.23	12.793
369.59	13.676
369.95	12.146
370.31	11.742
370.67	13.008
371.03	11.765
371.39	13.595
371.75	12.927
372.11	12.889
372.47	12.695
372.83	13.587
373.19	12.801
373.55	12.575
373.91	12.273
374.27	12.951
374.63	12.666
374.99	12.738
375.35	13.135
375.71	13.271
376.07	12.862
376.42	13.416
376.78	13.728
377.14	12.709
377.50	12.654
377.86	12.953
378.22	12.483
378.58	13.355
378.94	12.639
379.30	12.613
379.66	12.356
380.02	12.460
380.38	12.595
380.74	12.119
381.09	12.643
381.45	13.270
381.81	12.436
382.17	13.681
382.53	12.295
382.89	12.636
383.25	12.429
383.61	12.142
383.97	13.190
384.32	13.097
384.68	13.474
385.04	12.285
385.40	12.843
385.76	13.030
386.12	12.277
386.48	11.872
386.83	12.706
387.19	12.835
387.55	12.370
387.91	12.087
388.27	12.860
388.62	12.306
388.98	13.168
389.34	11.711
389.70	12.821
390.06	12.607
390.42	13.185
390.77	13.280
391.13	12.752
391.49	12.332
391.85	12.908
392.20	12.541
392.56	11.591
392.92	13.296
393.28	12.807
393.64	12.286
393.99	11.753
394.35	11.681
394.71	12.053
395.07	12.334
395.42	11.810
395.78	11.895
396.14	11.925
396.50	12.549
396.85	13.219
397.21	11.449
397.57	11.916
397.92	12.659
398.28	11.811
398.64	12.889
399.00	12.826
399.35	12.544
399.71	12.216
400.07	12.724
400.42	13.846
400.78	12.668
401.14	12.184
401.49	12.492
401.85	12.635
402.21	13.261
402.57	11.011
402.92	12.351
403.28	12.354
403.63	12.628
403.99	12.351
404.35	12.357
404.70	12.096
405.06	12.027
405.42	12.817
405.77	12.426
406.13	11.051
406.49	11.293
406.84	13.263
407.20	12.887
407.55	12.558
407.91	11.608
408.27	11.636
408.62	11.511
408.98	13.385
409.34	11.844
409.69	12.174
410.05	12.500
410.40	11.368
410.76	12.453
411.11	11.054
411.47	12.585
411.83	11.848
412.18	12.500
412.54	11.902
412.89	11.399
413.25	11.787
413.60	11.926
413.96	11.586
414.31	11.663
414.67	12.829
415.03	12.932
415.38	11.978
415.74	11.820
416.09	11.923
416.45	11.253
416.80	11.127
417.16	12.906
417.51	12.977
417.87	12.654
418.22	12.233
418.58	11.679
418.93	12.121
419.29	11.194
419.64	12.431
420.00	11.329
420.35	11.990
420.71	12.292
421.06	11.811
421.42	12.171
421.77	12.119
422.12	11.991
422.48	12.450
422.83	11.915
423.19	12.882
423.54	11.973
423.90	11.434
424.25	11.903
424.61	11.484
424.96	11.855
425.31	12.258
425.67	12.424
426.02	11.429
426.38	11.647
426.73	12.773
427.09	12.738
427.44	11.111
427.79	13.304
428.15	11.921
428.50	12.374
428.85	12.123
429.21	12.791
429.56	11.823
429.92	12.277
430.27	11.733
430.62	11.682
430.98	12.090
431.33	12.291
431.68	11.761
432.04	12.946
432.39	12.002
432.74	11.954
433.10	11.947
433.45	12.350
433.80	12.024
434.16	12.255
434.51	12.709
434.86	12.205
435.22	12.107
435.57	12.533
435.92	11.084
436.28	12.017
436.63	12.045
436.98	11.667
437.34	12.284
437.69	12.037
438.04	12.260
438.39	12.337
438.75	11.262
439.10	12.679
439.45	12.773
439.81	12.317
440.16	12.121
440.51	12.268
440.86	11.932
441.22	12.031
441.57	12.707
441.92	12.148
442.27	12.743
442.63	12.472
442.98	12.714
443.33	13.161
443.68	12.313
444.03	11.856
444.39	12.546
444.74	12.421
445.09	12.338
445.44	12.420
445.79	12.460
446.15	11.953
446.50	12.782
446.85	12.486
447.20	12.363
447.55	12.682
447.91	13.110
448.26	13.175
448.61	12.689
448.96	12.537
449.31	12.236
449.66	11.501
450.02	12.130
450.37	12.272
450.72	12.089
451.07	11.800
451.42	12.121
451.77	12.169
452.12	11.967
452.47	12.737
452.83	13.138
453.18	13.302
453.53	13.651
453.88	13.146
454.23	14.058
454.58	12.924
454.93	12.466
455.28	12.899
455.63	12.995
455.98	13.769
456.34	11.587
456.69	11.578
457.04	12.139
457.39	12.859
457.74	12.832
458.09	12.383
458.44	12.508
458.79	11.661
459.14	13.178
459.49	12.994
459.84	13.674
460.19	13.446
460.54	12.437
460.89	12.353
461.24	12.987
461.59	14.069
461.94	12.689
462.29	12.281
462.64	13.301
462.99	13.125
463.34	13.700
463.69	12.757
464.04	12.765
464.39	12.669
464.74	12.979
465.09	13.441
465.44	13.257
465.79	12.515
466.14	12.232
466.49	13.385
466.84	13.022
467.19	12.801
467.54	12.599
467.89	13.847
468.24	13.321
468.59	12.631
468.94	12.441
469.29	14.187
469.64	13.858
469.99	13.338
470.34	11.810
470.68	13.615
471.03	12.628
471.38	13.239
471.73	14.680
472.08	13.594
472.43	13.693
472.78	13.706
473.13	13.965
473.48	13.762
473.83	13.342
474.17	13.542
474.52	13.061
474.87	13.952
475.22	14.104
475.57	13.278
475.92	12.848
476.27	13.261
476.61	13.889
476.96	14.404
477.31	13.299
477.66	14.120
478.01	12.890
478.36	13.352
478.70	14.028
479.05	14.219
479.40	13.599
479.75	13.236
480.10	13.799
480.45	14.031
480.79	13.648
481.14	14.338
481.49	13.573
481.84	13.990
482.19	13.366
482.53	13.922
482.88	13.421
483.23	14.070
483.58	12.772
483.92	13.216
484.27	13.553
484.62	14.333
484.97	13.401
485.31	12.645
485.66	12.574
486.01	12.289
486.36	12.219
486.70	12.567
487.05	12.693
487.40	13.037
487.75	13.055
488.09	13.127
488.44	12.977
488.79	13.685
489.13	13.633
489.48	13.560
489.83	13.870
490.17	14.252
490.52	13.480
490.87	14.491
491.22	14.645
491.56	13.636
491.91	14.157
492.26	14.125
492.60	14.031
492.95	13.963
493.30	14.271
493.64	14.047
493.99	14.322
494.34	13.938
494.68	13.726
495.03	13.742
495.37	14.546
495.72	14.241
496.07	13.641
496.41	13.340
496.76	13.133
497.11	14.426
497.45	13.712
497.80	14.330
498.14	13.728
498.49	13.988
498.84	13.627
499.18	13.804
499.53	14.434
499.87	14.337
500.22	13.974
500.56	14.861
500.91	14.893
501.26	14.383
501.60	14.526
501.95	14.023
502.29	13.956
502.64	13.738
502.98	14.185
503.33	13.829
503.67	13.731
504.02	15.066
504.36	14.022
504.71	14.202
505.06	14.462
505.40	14.424
505.75	14.903
506.09	14.193
506.44	14.700
506.78	14.133
507.13	14.604
507.47	15.402
507.82	13.672
508.16	13.808
508.51	14.880
508.85	14.780
509.19	13.823
509.54	14.448
509.88	13.867
510.23	15.337
510.57	14.424
510.92	14.966
511.26	14.589
511.61	14.954
511.95	15.269
512.30	15.420
512.64	14.839
512.98	15.298
513.33	14.889
513.67	14.671
514.02	15.745
514.36	14.947
514.70	15.665
515.05	15.366
515.39	14.868
515.74	15.602
516.08	14.564
516.42	15.227
516.77	15.404
517.11	14.985
517.46	16.115
517.80	14.678
518.14	16.256
518.49	15.589
518.83	16.342
519.17	16.195
519.52	15.740
519.86	16.276
520.20	15.478
520.55	16.514
520.89	15.655
521.23	15.097
521.58	16.138
521.92	16.155
522.26	17.388
522.61	16.314
522.95	16.575
523.29	15.992
523.64	15.400
523.98	15.860
524.32	15.960
524.66	16.723
525.01	15.326
525.35	16.553
525.69	15.072
526.04	16.279
526.38	15.627
526.72	16.667
527.06	16.385
527.41	16.867
527.75	17.085
528.09	16.478
528.43	15.450
528.78	15.234
529.12	15.479
529.46	15.880
529.80	15.589
530.15	16.400
530.49	16.527
530.83	15.618
531.17	15.960
531.51	16.060
531.86	16.246
532.20	15.657
532.54	16.547
532.88	16.291
533.22	17.170
533.57	15.655
533.91	16.586
534.25	17.244
534.59	16.575
534.93	15.178
535.27	15.825
535.62	16.610
535.96	15.352
536.30	15.449
536.64	16.595
536.98	16.003
537.32	16.964
537.66	16.202
538.01	16.716
538.35	16.364
538.69	16.207
539.03	16.006
539.37	16.224
539.71	15.000
540.05	16.353
540.39	16.267
540.73	16.484
541.07	16.618
541.42	16.251
541.76	16.403
542.10	16.428
542.44	16.402
542.78	14.736
543.12	14.296
543.46	16.021
543.80	16.440
544.14	15.842
544.48	16.561
544.82	16.395
545.16	16.594
545.50	17.176
545.84	17.264
546.18	15.955
546.52	16.526
546.86	15.991
547.20	16.970
547.54	16.755
547.88	16.524
548.22	15.120
548.56	16.772
548.90	16.281
549.24	15.789
549.58	16.170
549.92	16.692
550.26	16.680
550.60	16.495
550.94	16.270
551.28	16.667
551.62	15.725
551.96	16.214
552.30	15.891
552.64	15.928
552.98	17.013
553.32	16.136
553.66	16.085
554.00	16.602
554.34	16.797
554.68	16.427
555.02	16.349
555.36	15.647
555.69	16.987
556.03	16.038
556.37	15.454
556.71	16.365
557.05	17.187
557.39	16.707
557.73	16.981
558.07	16.980
558.41	15.962
558.75	16.432
559.08	16.170
559.42	16.472
559.76	16.175
560.10	17.522
560.44	17.181
560.78	16.003
561.12	16.304
561.45	16.220
561.79	15.639
562.13	15.567
562.47	14.832
562.81	16.300
563.15	15.741
563.48	15.206
563.82	16.667
564.16	15.893
564.50	15.903
564.84	16.867
565.17	16.309
565.51	16.186
565.85	16.268
566.19	16.980
566.52	16.416
566.86	16.325
567.20	15.369
567.54	15.380
567.88	15.777
568.21	16.178
568.55	15.507
568.89	15.165
569.23	15.010
569.56	14.989
569.90	14.775
570.24	14.106
570.57	14.033
570.91	14.265
571.25	14.807
571.59	13.934
571.92	13.860
572.26	13.823
572.60	13.502
572.93	13.720
573.27	13.011
573.61	13.742
573.95	13.607
574.28	13.159
574.62	13.432
574.96	13.455
575.29	13.836
575.63	13.451
575.97	13.346
576.30	13.794
576.64	13.534
576.98	13.524
577.31	13.741
577.65	13.491
577.98	13.506
578.32	13.388
578.66	12.966
578.99	13.628
579.33	13.526
579.67	13.276
580.00	13.292
580.34	13.498
580.67	13.606
581.01	13.300
581.35	13.285
581.68	13.045
582.02	13.049
582.35	12.944
582.69	13.043
583.02	12.926
583.36	13.195
583.70	13.546
584.03	13.077
584.37	13.845
584.70	13.589
585.04	13.297
585.37	13.621
585.71	13.343
586.04	13.516
586.38	13.539
586.72	13.541
587.05	14.049
587.39	13.695
587.72	13.365
588.06	13.737
588.39	13.468
588.73	13.991
589.06	13.575
589.40	14.326
589.73	14.510
590.07	13.899
590.40	13.800
590.73	14.494
591.07	14.805
591.40	14.984
591.74	14.459
592.07	14.518
592.41	14.480
592.74	14.487
593.08	13.937
593.41	13.884
593.75	14.324
594.08	14.015
594.41	13.941
594.75	13.861
595.08	14.336
595.42	14.382
595.75	14.167
596.09	13.411
596.42	14.080
596.75	14.591
597.09	14.366
597.42	14.641
597.75	14.916
598.09	14.092
598.42	14.813
598.76	14.572
599.09	14.286
599.42	13.965
599.76	14.555
600.09	13.919
600.42	13.789
600.76	13.202
601.09	14.275
601.42	14.050
601.76	13.636
602.09	14.663
602.42	14.459
602.76	15.009
603.09	14.839
603.42	14.779
603.76	13.974
604.09	14.286
604.42	14.641
604.76	14.194
605.09	14.738
605.42	15.118
605.75	14.344
606.09	14.267
606.42	13.955
606.75	14.609
607.09	14.785
607.42	15.145
607.75	14.004
608.08	15.014
608.42	14.840
608.75	14.257
609.08	14.235
609.41	15.345
609.75	14.903
610.08	14.367
610.41	14.351
610.74	14.408
611.07	14.754
611.41	13.865
611.74	15.071
612.07	14.900
612.40	15.599
612.73	14.931
613.07	14.328
613.40	15.641
613.73	14.433
614.06	14.871
614.39	15.290
614.72	14.345
615.06	15.385
615.39	16.051
615.72	14.110
616.05	14.841
616.38	14.591
616.71	14.677
617.05	15.327
617.38	14.129
617.71	15.219
618.04	15.177
618.37	14.716
618.70	15.421
619.03	16.026
619.36	15.832
619.69	15.397
620.03	15.789
620.36	16.251
620.69	15.817
621.02	15.598
621.35	16.936
621.68	16.022
622.01	15.954
622.34	15.410
622.67	17.201
623.00	15.643
623.33	16.299
623.66	16.016
623.99	16.826
624.32	15.409
624.65	15.859
624.99	15.312
625.32	15.561
625.65	15.372
625.98	18.333
626.31	15.065
626.64	16.667
626.97	17.187
627.30	17.407
627.63	17.209
627.96	16.015
628.29	17.495
628.62	17.526
628.95	18.057
629.28	16.529
629.61	17.868
629.94	17.012
630.26	17.782
630.59	18.639
630.92	16.333
631.25	18.659
631.58	16.047
631.91	17.768
632.24	17.278
632.57	19.738
632.90	19.311
633.23	19.484
