SpectraSuite Data File
++++++++++++++++++++++++++++++++++++
Date: Tue May 12 19:53:34 PDT 2015
User: schluterlab
Dark Spectrum Present: Yes
Reference Spectrum Present: Yes
Number of Sampled Component Spectra: 1
Spectrometers: USB2E3373
Integration Time (usec): 3000 (USB2E3373)
Spectra Averaged: 3 (USB2E3373)
Boxcar Smoothing: 0 (USB2E3373)
Correct for Electrical Dark: No (USB2E3373)
Strobe/Lamp Enabled: No (USB2E3373)
Correct for Detector Non-linearity: No (USB2E3373)
Correct for Stray Light: No (USB2E3373)
Number of Pixels in Processed Spectrum: 2048
>>>>>Begin Processed Spectral Data<<<<<
178.53	0.000
178.91	-50.000
179.29	-366.667
179.67	600.000
180.04	0.000
180.42	-360.000
180.80	-800.000
181.18	1150.000
181.56	-500.000
181.94	250.000
182.31	2200.000
182.69	-185.714
183.07	0.000
183.45	175.000
183.83	360.000
184.20	250.000
184.58	1100.000
184.96	366.667
185.34	-566.667
185.72	-128.571
186.09	-216.667
186.47	-1100.000
186.85	-280.000
187.23	183.333
187.61	-171.429
187.98	-360.000
188.36	1300.000
188.74	-450.000
189.12	-166.667
189.49	-130.000
189.87	400.000
190.25	255.556
190.63	633.333
191.00	380.000
191.38	-566.667
191.76	460.000
192.14	-71.429
192.51	-150.000
192.89	-280.000
193.27	-60.000
193.65	-500.000
194.02	-250.000
194.40	1700.000
194.78	-187.500
195.15	-200.000
195.53	233.333
195.91	400.000
196.29	-575.000
196.66	-433.333
197.04	-342.857
197.42	220.000
197.79	-325.000
198.17	-125.000
198.55	-2000.000
198.92	-166.667
199.30	900.000
199.68	-300.000
200.05	-1100.000
200.43	-33.333
200.81	-125.000
201.18	400.000
201.56	-650.000
201.94	-2000.000
202.31	-100.000
202.69	-77.778
203.07	-50.000
203.44	-800.000
203.82	0.000
204.19	437.500
204.57	-766.667
204.95	190.909
205.32	380.000
205.70	575.000
206.08	-1200.000
206.45	-140.000
206.83	1600.000
207.20	-200.000
207.58	-61.538
207.96	633.333
208.33	1033.333
208.71	633.333
209.08	1400.000
209.46	-122.222
209.84	633.333
210.21	-666.667
210.59	900.000
210.96	222.222
211.34	-375.000
211.71	1200.000
212.09	-160.000
212.46	-275.000
212.84	-175.000
213.22	257.143
213.59	-162.500
213.97	0.000
214.34	-500.000
214.72	-2300.000
215.09	750.000
215.47	-53.333
215.84	-187.500
216.22	-1600.000
216.59	2500.000
216.97	-58.333
217.34	-200.000
217.72	-11.111
218.09	475.000
218.47	-94.737
218.84	-150.000
219.22	-21.429
219.59	-270.000
219.97	-170.000
220.34	316.667
220.72	136.364
221.09	-1300.000
221.47	0.000
221.84	1250.000
222.22	-350.000
222.59	-675.000
222.97	13.043
223.34	160.000
223.72	471.429
224.09	-366.667
224.46	161.538
224.84	-53.333
225.21	-650.000
225.59	-275.000
225.96	-30.000
226.34	316.667
226.71	260.000
227.08	-153.846
227.46	-214.286
227.83	-108.333
228.21	-1150.000
228.58	316.667
228.95	-78.947
229.33	-56.250
229.70	-333.333
230.08	-200.000
230.45	-700.000
230.82	-2000.000
231.20	-66.667
231.57	-260.000
231.95	-766.667
232.32	222.222
232.69	-1250.000
233.07	-106.250
233.44	-300.000
233.81	-9.677
234.19	-440.000
234.56	-55.556
234.93	-366.667
235.31	-18.519
235.68	-44.444
236.05	-65.385
236.43	-100.000
236.80	-40.909
237.17	-235.714
237.55	-95.000
237.92	-20.930
238.29	-9.677
238.67	-46.429
239.04	-14.286
239.41	-25.490
239.79	-12.000
240.16	-5.000
240.53	-24.138
240.91	-16.438
241.28	-23.944
241.65	-15.625
242.02	-33.333
242.40	-18.667
242.77	-4.211
243.14	1.176
243.51	2.151
243.89	-2.857
244.26	0.000
244.63	-4.082
245.00	-10.714
245.38	-7.563
245.75	-1.695
246.12	-3.906
246.49	-1.600
246.87	-3.279
247.24	-9.859
247.61	0.662
247.98	1.685
248.36	-3.774
248.73	0.568
249.10	1.667
249.47	2.604
249.84	6.599
250.22	2.083
250.59	2.809
250.96	5.000
251.33	11.321
251.70	5.046
252.08	8.225
252.45	1.633
252.82	3.797
253.19	5.837
253.56	6.275
253.94	4.472
254.31	7.194
254.68	5.556
255.05	10.596
255.42	4.364
255.79	10.927
256.16	4.167
256.54	9.091
256.91	7.692
257.28	6.169
257.65	5.902
258.02	6.006
258.39	9.668
258.76	7.339
259.14	7.647
259.51	6.761
259.88	9.222
260.25	8.523
260.62	3.933
260.99	8.914
261.36	4.310
261.73	9.333
262.10	8.719
262.47	9.642
262.85	9.769
263.22	8.602
263.59	9.920
263.96	5.483
264.33	5.391
264.70	8.354
265.07	5.911
265.44	11.241
265.81	12.289
266.18	8.899
266.55	7.619
266.92	7.813
267.29	10.667
267.66	3.864
268.03	9.247
268.40	8.696
268.77	8.463
269.14	8.193
269.51	8.371
269.88	10.043
270.25	8.017
270.62	10.084
270.99	7.368
271.36	4.636
271.73	7.500
272.10	9.129
272.47	10.400
272.84	6.369
273.21	6.263
273.58	6.939
273.95	6.972
274.32	10.058
274.69	9.198
275.06	9.193
275.43	6.600
275.80	8.031
276.17	6.522
276.54	9.696
276.91	9.021
277.28	8.897
277.65	7.750
278.02	8.523
278.39	11.252
278.76	6.890
279.13	8.050
279.50	6.679
279.87	7.358
280.23	10.200
280.60	7.774
280.97	9.666
281.34	8.983
281.71	7.993
282.08	8.229
282.45	7.231
282.82	7.744
283.19	7.239
283.56	9.727
283.92	9.005
284.29	8.460
284.66	9.735
285.03	5.660
285.40	8.500
285.77	10.345
286.14	7.132
286.51	6.431
286.87	9.562
287.24	6.891
287.61	9.722
287.98	10.642
288.35	7.752
288.72	8.410
289.08	6.447
289.45	7.332
289.82	5.901
290.19	5.758
290.56	8.249
290.93	7.238
291.29	9.362
291.66	9.410
292.03	8.752
292.40	9.209
292.77	9.038
293.13	7.930
293.50	8.402
293.87	7.490
294.24	8.989
294.60	8.333
294.97	7.341
295.34	6.849
295.71	5.548
296.08	7.104
296.44	7.905
296.81	6.598
297.18	7.503
297.55	7.412
297.91	7.868
298.28	7.033
298.65	5.951
299.02	8.138
299.38	5.230
299.75	8.108
300.12	6.954
300.48	7.864
300.85	7.090
301.22	7.091
301.59	7.664
301.95	7.317
302.32	5.832
302.69	6.540
303.05	6.021
303.42	7.126
303.79	5.955
304.15	8.720
304.52	7.486
304.89	6.539
305.25	6.766
305.62	6.705
305.99	5.823
306.35	7.494
306.72	8.170
307.09	5.985
307.45	7.983
307.82	7.791
308.19	7.921
308.55	8.017
308.92	6.992
309.29	8.264
309.65	8.050
310.02	8.595
310.38	8.422
310.75	8.914
311.12	7.325
311.48	9.250
311.85	8.308
312.22	8.471
312.58	9.567
312.95	9.035
313.31	8.850
313.68	9.235
314.05	10.427
314.41	10.216
314.78	8.442
315.14	10.578
315.51	11.321
315.87	12.109
316.24	11.672
316.61	11.845
316.97	12.157
317.34	11.962
317.70	11.391
318.07	12.729
318.43	12.854
318.80	13.206
319.16	12.395
319.53	14.340
319.89	13.636
320.26	15.733
320.62	16.473
320.99	17.041
321.35	16.107
321.72	17.778
322.08	18.614
322.45	17.751
322.81	18.325
323.18	18.504
323.54	19.810
323.91	19.545
324.27	21.504
324.64	20.712
325.00	22.111
325.37	22.572
325.73	21.989
326.10	22.417
326.46	23.300
326.83	24.450
327.19	26.812
327.56	27.144
327.92	25.955
328.29	27.061
328.65	29.002
329.01	30.459
329.38	29.660
329.74	30.362
330.11	28.145
330.47	30.726
330.84	31.767
331.20	30.407
331.56	30.943
331.93	31.199
332.29	31.545
332.66	31.646
333.02	32.033
333.38	32.077
333.75	32.113
334.11	31.736
334.48	32.826
334.84	33.052
335.20	33.124
335.57	34.696
335.93	33.581
336.29	33.729
336.66	31.694
337.02	33.182
337.38	34.434
337.75	34.364
338.11	34.913
338.47	34.076
338.84	33.057
339.20	34.372
339.56	34.762
339.93	33.784
340.29	34.361
340.65	35.251
341.02	34.721
341.38	34.245
341.74	36.032
342.11	35.190
342.47	33.741
342.83	34.085
343.20	34.836
343.56	36.014
343.92	35.433
344.28	34.477
344.65	35.445
345.01	35.453
345.37	34.701
345.73	35.314
346.10	36.560
346.46	35.462
346.82	35.174
347.19	34.399
347.55	35.629
347.91	35.217
348.27	35.299
348.63	36.646
349.00	36.394
349.36	36.274
349.72	35.878
350.08	35.843
350.45	35.232
350.81	36.086
351.17	35.091
351.53	36.071
351.89	35.924
352.26	34.959
352.62	36.549
352.98	37.238
353.34	36.174
353.70	35.885
354.07	36.491
354.43	35.559
354.79	36.475
355.15	36.239
355.51	37.164
355.87	37.968
356.24	37.418
356.60	37.229
356.96	36.651
357.32	36.132
357.68	37.629
358.04	36.872
358.40	37.152
358.77	37.751
359.13	37.349
359.49	35.920
359.85	38.050
360.21	36.875
360.57	36.922
360.93	38.876
361.29	36.215
361.66	37.224
362.02	37.912
362.38	38.695
362.74	36.972
363.10	37.934
363.46	38.450
363.82	38.208
364.18	37.245
364.54	37.939
364.90	37.481
365.26	37.332
365.62	38.531
365.98	38.306
366.35	38.729
366.71	38.237
367.07	38.672
367.43	37.906
367.79	37.137
368.15	38.399
368.51	39.326
368.87	38.693
369.23	39.667
369.59	39.485
369.95	38.227
370.31	38.409
370.67	39.023
371.03	37.693
371.39	39.350
371.75	37.296
372.11	38.889
372.47	39.272
372.83	39.372
373.19	39.232
373.55	39.222
373.91	38.561
374.27	41.133
374.63	38.881
374.99	38.507
375.35	38.970
375.71	39.383
376.07	39.505
376.42	40.318
376.78	40.209
377.14	39.176
377.50	39.603
377.86	40.251
378.22	39.630
378.58	39.737
378.94	39.293
379.30	39.125
379.66	40.013
380.02	39.733
380.38	40.776
380.74	39.155
381.09	40.089
381.45	40.381
381.81	40.179
382.17	39.088
382.53	40.302
382.89	40.026
383.25	39.949
383.61	39.924
383.97	40.091
384.32	39.290
384.68	40.421
385.04	39.975
385.40	40.447
385.76	40.101
386.12	38.680
386.48	39.008
386.83	40.224
387.19	41.188
387.55	40.350
387.91	40.062
388.27	39.795
388.62	40.091
388.98	39.885
389.34	39.753
389.70	40.192
390.06	40.066
390.42	41.853
390.77	40.443
391.13	39.623
391.49	40.768
391.85	40.253
392.20	39.934
392.56	39.031
392.92	40.507
393.28	39.557
393.64	39.265
393.99	39.870
394.35	39.195
394.71	38.940
395.07	38.992
395.42	39.937
395.78	39.315
396.14	39.174
396.50	39.715
396.85	40.185
397.21	38.810
397.57	38.841
397.92	39.440
398.28	38.789
398.64	38.921
399.00	38.712
399.35	38.980
399.71	38.802
400.07	38.666
400.42	39.295
400.78	39.219
401.14	39.205
401.49	38.851
401.85	39.302
402.21	39.340
402.57	37.798
402.92	38.712
403.28	38.492
403.63	38.013
403.99	38.375
404.35	37.516
404.70	39.645
405.06	39.244
405.42	37.345
405.77	37.277
406.13	37.873
406.49	37.476
406.84	38.107
407.20	38.352
407.55	38.277
407.91	36.434
408.27	37.899
408.62	36.849
408.98	37.516
409.34	36.492
409.69	37.124
410.05	37.435
410.40	36.673
410.76	38.356
411.11	37.944
411.47	37.143
411.83	36.510
412.18	37.500
412.54	38.422
412.89	37.047
413.25	36.803
413.60	37.946
413.96	36.893
414.31	36.265
414.67	38.960
415.03	37.344
415.38	37.465
415.74	38.079
416.09	36.458
416.45	37.650
416.80	35.814
417.16	37.447
417.51	38.099
417.87	37.141
418.22	36.965
418.58	38.424
418.93	37.395
419.29	37.110
419.64	39.560
420.00	38.048
420.35	37.163
420.71	37.644
421.06	38.352
421.42	37.641
421.77	38.977
422.12	37.153
422.48	38.321
422.83	38.359
423.19	38.588
423.54	38.119
423.90	38.133
424.25	38.671
424.61	40.194
424.96	39.189
425.31	39.493
425.67	37.697
426.02	38.137
426.38	38.417
426.73	38.193
427.09	39.330
427.44	39.259
427.79	40.718
428.15	38.935
428.50	40.201
428.85	40.026
429.21	39.570
429.56	39.669
429.92	39.264
430.27	39.520
430.62	39.102
430.98	39.065
431.33	38.710
431.68	40.263
432.04	39.356
432.39	39.750
432.74	39.532
433.10	40.691
433.45	40.279
433.80	40.298
434.16	39.931
434.51	40.245
434.86	39.758
435.22	39.872
435.57	41.293
435.92	39.257
436.28	39.539
436.63	40.131
436.98	40.741
437.34	41.459
437.69	41.235
438.04	40.024
438.39	40.666
438.75	41.231
439.10	42.024
439.45	42.041
439.81	40.000
440.16	41.373
440.51	41.264
440.86	41.225
441.22	41.751
441.57	40.057
441.92	41.745
442.27	41.371
442.63	41.817
442.98	42.359
443.33	41.011
443.68	42.762
444.03	40.876
444.39	42.322
444.74	41.385
445.09	42.562
445.44	40.700
445.79	41.963
446.15	43.207
446.50	41.238
446.85	41.089
447.20	41.138
447.55	42.001
447.91	41.329
448.26	41.128
448.61	42.356
448.96	41.928
449.31	41.471
449.66	41.162
450.02	41.124
450.37	42.163
450.72	42.430
451.07	41.859
451.42	41.700
451.77	41.551
452.12	41.917
452.47	42.344
452.83	42.092
453.18	42.269
453.53	44.219
453.88	42.821
454.23	42.428
454.58	42.755
454.93	42.234
455.28	42.566
455.63	41.650
455.98	43.147
456.34	41.393
456.69	43.331
457.04	42.717
457.39	42.322
457.74	41.719
458.09	41.879
458.44	41.631
458.79	41.814
459.14	41.264
459.49	42.484
459.84	42.152
460.19	42.089
460.54	42.298
460.89	41.471
461.24	42.078
461.59	42.839
461.94	42.801
462.29	41.792
462.64	43.106
462.99	43.075
463.34	40.586
463.69	43.553
464.04	42.335
464.39	41.994
464.74	41.921
465.09	42.251
465.44	41.572
465.79	40.854
466.14	40.453
466.49	41.939
466.84	40.848
467.19	40.611
467.54	40.915
467.89	41.084
468.24	42.172
468.59	40.510
468.94	41.560
469.29	41.799
469.64	42.815
469.99	40.880
470.34	41.655
470.68	42.615
471.03	42.409
471.38	42.708
471.73	42.297
472.08	42.420
472.43	43.499
472.78	41.987
473.13	41.404
473.48	43.015
473.83	41.546
474.17	40.160
474.52	41.996
474.87	42.298
475.22	42.122
475.57	41.011
475.92	41.273
476.27	40.205
476.61	41.962
476.96	41.553
477.31	41.838
477.66	42.243
478.01	41.789
478.36	42.464
478.70	42.873
479.05	41.265
479.40	41.404
479.75	42.681
480.10	41.342
480.45	41.466
480.79	40.893
481.14	41.170
481.49	41.388
481.84	42.273
482.19	40.195
482.53	40.735
482.88	40.824
483.23	40.905
483.58	41.188
483.92	40.804
484.27	41.239
484.62	40.028
484.97	40.158
485.31	39.598
485.66	38.136
486.01	37.196
486.36	38.085
486.70	38.402
487.05	39.351
487.40	39.216
487.75	38.076
488.09	38.628
488.44	38.543
488.79	39.373
489.13	39.692
489.48	40.018
489.83	40.407
490.17	39.756
490.52	40.010
490.87	39.812
491.22	40.878
491.56	40.563
491.91	39.659
492.26	41.407
492.60	41.020
492.95	39.887
493.30	40.042
493.64	40.416
493.99	41.478
494.34	40.598
494.68	40.089
495.03	38.895
495.37	39.686
495.72	40.084
496.07	40.112
496.41	38.735
496.76	39.446
497.11	39.389
497.45	40.131
497.80	40.498
498.14	39.335
498.49	39.776
498.84	39.518
499.18	39.128
499.53	40.187
499.87	39.836
500.22	39.636
500.56	40.241
500.91	40.325
501.26	39.843
501.60	39.551
501.95	39.458
502.29	39.867
502.64	38.875
502.98	39.525
503.33	39.041
503.67	38.948
504.02	39.122
504.36	38.726
504.71	39.149
505.06	39.422
505.40	39.678
505.75	39.758
506.09	39.762
506.44	39.002
506.78	39.507
507.13	40.119
507.47	39.889
507.82	39.230
508.16	39.532
508.51	40.153
508.85	38.462
509.19	38.782
509.54	39.717
509.88	39.356
510.23	40.056
510.57	38.785
510.92	39.909
511.26	38.713
511.61	39.155
511.95	39.734
512.30	39.594
512.64	38.827
512.98	40.224
513.33	38.277
513.67	38.323
514.02	38.822
514.36	40.036
514.70	39.587
515.05	39.146
515.39	39.398
515.74	39.035
516.08	39.422
516.42	39.652
516.77	39.441
517.11	39.327
517.46	39.850
517.80	40.651
518.14	39.595
518.49	40.103
518.83	39.364
519.17	40.103
519.52	38.726
519.86	40.785
520.20	38.471
520.55	39.491
520.89	40.418
521.23	40.347
521.58	40.146
521.92	39.386
522.26	39.588
522.61	40.000
522.95	38.699
523.29	38.799
523.64	39.281
523.98	39.046
524.32	39.933
524.66	39.633
525.01	39.931
525.35	39.193
525.69	40.330
526.04	41.297
526.38	40.439
526.72	39.236
527.06	40.647
527.41	39.617
527.75	39.340
528.09	36.846
528.43	39.192
528.78	37.945
529.12	37.945
529.46	38.140
529.80	39.619
530.15	38.707
530.49	38.842
530.83	38.684
531.17	38.277
531.51	38.330
531.86	37.675
532.20	38.889
532.54	39.424
532.88	38.036
533.22	39.799
533.57	36.828
533.91	37.715
534.25	37.610
534.59	37.483
534.93	36.400
535.27	38.653
535.62	36.462
535.96	38.311
536.30	38.065
536.64	37.554
536.98	37.242
537.32	37.277
537.66	37.683
538.01	37.187
538.35	37.527
538.69	35.740
539.03	36.554
539.37	36.253
539.71	36.014
540.05	37.048
540.39	36.601
540.73	38.168
541.07	36.544
541.42	37.277
541.76	35.036
542.10	37.088
542.44	36.488
542.78	35.777
543.12	36.679
543.46	36.513
543.80	36.812
544.14	36.416
544.48	36.351
544.82	35.273
545.16	36.957
545.50	36.317
545.84	35.845
546.18	35.506
546.52	35.895
546.86	36.190
547.20	35.758
547.54	35.633
547.88	35.043
548.22	35.654
548.56	34.743
548.90	35.228
549.24	36.550
549.58	35.693
549.92	35.414
550.26	36.062
550.60	36.082
550.94	37.143
551.28	36.504
551.62	37.183
551.96	35.304
552.30	33.333
552.64	34.861
552.98	36.256
553.32	34.318
553.66	35.129
554.00	35.212
554.34	35.703
554.68	35.885
555.02	35.635
555.36	35.504
555.69	33.513
556.03	34.590
556.37	34.809
556.71	34.615
557.05	34.609
557.39	35.261
557.73	35.299
558.07	35.133
558.41	34.078
558.75	36.515
559.08	36.000
559.42	36.371
559.76	34.962
560.10	35.778
560.44	34.838
560.78	34.786
561.12	34.410
561.45	34.821
561.79	33.480
562.13	35.360
562.47	34.480
562.81	34.193
563.15	33.004
563.48	33.109
563.82	32.533
564.16	33.164
564.50	32.665
564.84	32.884
565.17	34.192
565.51	33.498
565.85	33.592
566.19	33.890
566.52	34.122
566.86	34.290
567.20	33.200
567.54	32.802
567.88	32.282
568.21	32.649
568.55	32.371
568.89	30.385
569.23	31.727
569.56	30.575
569.90	29.336
570.24	29.827
570.57	29.082
570.91	30.277
571.25	30.062
571.59	29.541
571.92	28.434
572.26	28.325
572.60	28.544
572.93	28.389
573.27	28.553
573.61	28.412
573.95	27.496
574.28	27.724
574.62	26.787
574.96	27.718
575.29	26.846
575.63	27.275
575.97	27.135
576.30	27.559
576.64	27.095
576.98	27.554
577.31	27.330
577.65	26.863
577.98	26.729
578.32	26.818
578.66	26.858
578.99	27.471
579.33	26.694
579.67	26.969
580.00	26.895
580.34	27.351
580.67	27.111
581.01	26.650
581.35	26.167
581.68	26.008
582.02	26.136
582.35	26.361
582.69	26.759
583.02	26.694
583.36	26.390
583.70	27.327
584.03	26.628
584.37	26.691
584.70	27.121
585.04	25.976
585.37	26.783
585.71	26.158
586.04	26.825
586.38	26.451
586.72	27.083
587.05	26.767
587.39	27.160
587.72	26.896
588.06	26.801
588.39	27.111
588.73	26.765
589.06	27.315
589.40	27.561
589.73	27.263
590.07	27.410
590.40	27.481
590.73	28.446
591.07	27.489
591.40	27.912
591.74	27.799
592.07	27.937
592.41	28.538
592.74	27.823
593.08	26.672
593.41	26.774
593.75	27.570
594.08	27.887
594.41	27.091
594.75	27.330
595.08	27.503
595.42	27.150
595.75	27.008
596.09	26.902
596.42	28.118
596.75	27.455
597.09	27.659
597.42	26.983
597.75	28.096
598.09	27.341
598.42	27.970
598.76	27.231
599.09	27.143
599.42	26.593
599.76	27.540
600.09	26.414
600.42	26.836
600.76	26.212
601.09	26.235
601.42	26.449
601.76	26.380
602.09	26.435
602.42	27.356
602.76	27.836
603.09	27.328
603.42	26.831
603.76	26.941
604.09	27.527
604.42	27.050
604.76	27.932
605.09	26.641
605.42	27.251
605.75	25.582
606.09	26.844
606.42	26.334
606.75	27.043
607.09	26.866
607.42	26.526
607.75	27.043
608.08	26.941
608.42	26.770
608.75	26.363
609.08	26.451
609.41	27.890
609.75	27.857
610.08	25.840
610.41	25.954
610.74	26.744
611.07	25.754
611.41	25.749
611.74	27.203
612.07	27.567
612.40	27.521
612.73	26.910
613.07	27.598
613.40	27.200
613.73	27.320
614.06	26.932
614.39	27.299
614.72	26.978
615.06	27.612
615.39	27.425
615.72	27.212
616.05	26.087
616.38	26.987
616.71	27.612
617.05	26.508
617.38	26.839
617.71	27.694
618.04	27.267
618.37	26.815
618.70	28.668
619.03	27.049
619.36	28.203
619.69	26.750
620.03	27.384
620.36	28.118
620.69	27.790
621.02	28.029
621.35	29.277
621.68	28.083
622.01	28.431
622.34	28.476
622.67	29.680
623.00	27.928
623.33	28.268
623.66	28.606
623.99	27.273
624.32	27.720
624.65	27.187
624.99	27.266
625.32	27.883
625.65	27.622
625.98	30.000
626.31	28.225
626.64	28.739
626.97	30.239
627.30	29.630
627.63	29.395
627.96	27.374
628.29	29.446
628.62	31.443
628.95	30.201
629.28	29.545
629.61	28.736
629.94	31.535
630.26	29.812
630.59	30.262
630.92	29.505
631.25	30.056
631.58	30.465
631.91	29.385
632.24	31.124
632.57	31.034
632.90	31.488
633.23	31.097
633.56	30.063
633.89	30.211
634.22	30.513
634.55	30.880
