SpectraSuite Data File
++++++++++++++++++++++++++++++++++++
Date: Tue May 12 19:53:49 PDT 2015
User: schluterlab
Dark Spectrum Present: Yes
Reference Spectrum Present: Yes
Number of Sampled Component Spectra: 1
Spectrometers: USB2E3373
Integration Time (usec): 3000 (USB2E3373)
Spectra Averaged: 3 (USB2E3373)
Boxcar Smoothing: 0 (USB2E3373)
Correct for Electrical Dark: No (USB2E3373)
Strobe/Lamp Enabled: No (USB2E3373)
Correct for Detector Non-linearity: No (USB2E3373)
Correct for Stray Light: No (USB2E3373)
Number of Pixels in Processed Spectrum: 2048
>>>>>Begin Processed Spectral Data<<<<<
178.53	0.000
178.91	-100.000
179.29	-183.333
179.67	566.667
180.04	0.000
180.42	-220.000
180.80	-466.667
181.18	1150.000
181.56	-950.000
181.94	533.333
182.31	1700.000
182.69	-314.286
183.07	0.000
183.45	308.333
183.83	480.000
184.20	350.000
184.58	900.000
184.96	333.333
185.34	-733.333
185.72	-128.571
186.09	-333.333
186.47	-2200.000
186.85	-120.000
187.23	241.667
187.61	-314.286
187.98	-220.000
188.36	750.000
188.74	-450.000
189.12	-122.222
189.49	-110.000
189.87	525.000
190.25	211.111
190.63	666.667
191.00	420.000
191.38	-400.000
191.76	540.000
192.14	-57.143
192.51	-220.000
192.89	-280.000
193.27	-360.000
193.65	-1033.333
194.02	-233.333
194.40	1300.000
194.78	-225.000
195.15	-300.000
195.53	566.667
195.91	480.000
196.29	-600.000
196.66	-300.000
197.04	-257.143
197.42	200.000
197.79	-250.000
198.17	-125.000
198.55	300.000
198.92	-155.556
199.30	900.000
199.68	-175.000
200.05	-1100.000
200.43	-77.778
200.81	-175.000
201.18	416.667
201.56	-1450.000
201.94	-2100.000
202.31	-116.667
202.69	-122.222
203.07	-175.000
203.44	-425.000
203.82	0.000
204.19	212.500
204.57	-633.333
204.95	181.818
205.32	320.000
205.70	500.000
206.08	-1500.000
206.45	-100.000
206.83	2700.000
207.20	-166.667
207.58	-46.154
207.96	400.000
208.33	1000.000
208.71	766.667
209.08	1400.000
209.46	-22.222
209.84	566.667
210.21	-666.667
210.59	1300.000
210.96	300.000
211.34	-425.000
211.71	850.000
212.09	-320.000
212.46	-237.500
212.84	-225.000
213.22	300.000
213.59	-125.000
213.97	0.000
214.34	-850.000
214.72	-2000.000
215.09	1100.000
215.47	-60.000
215.84	-150.000
216.22	-1600.000
216.59	2200.000
216.97	-33.333
217.34	-366.667
217.72	-38.889
218.09	650.000
218.47	-52.632
218.84	-175.000
219.22	-85.714
219.59	-170.000
219.97	-150.000
220.34	283.333
220.72	136.364
221.09	-950.000
221.47	0.000
221.84	950.000
222.22	-500.000
222.59	-575.000
222.97	-39.130
223.34	213.333
223.72	342.857
224.09	-300.000
224.46	192.308
224.84	-93.333
225.21	-800.000
225.59	-575.000
225.96	-15.000
226.34	300.000
226.71	190.000
227.08	-123.077
227.46	-271.429
227.83	-41.667
228.21	-1050.000
228.58	466.667
228.95	-78.947
229.33	-31.250
229.70	-233.333
230.08	-300.000
230.45	-666.667
230.82	-2200.000
231.20	-47.619
231.57	-420.000
231.95	-600.000
232.32	255.556
232.69	-850.000
233.07	-43.750
233.44	-212.500
233.81	25.806
234.19	-320.000
234.56	-50.000
234.93	-216.667
235.31	0.000
235.68	-14.815
236.05	-46.154
236.43	-47.368
236.80	-50.000
237.17	-85.714
237.55	-45.000
237.92	20.930
238.29	-29.032
238.67	3.571
239.04	34.286
239.41	39.216
239.79	42.000
240.16	17.500
240.53	5.172
240.91	27.397
241.28	14.085
241.65	42.187
242.02	29.825
242.40	29.333
242.77	27.368
243.14	36.471
243.51	38.710
243.89	26.667
244.26	37.963
244.63	35.714
245.00	22.321
245.38	28.571
245.75	34.746
246.12	46.094
246.49	36.000
246.87	41.803
247.24	32.394
247.61	40.397
247.98	43.258
248.36	41.509
248.73	40.341
249.10	44.444
249.47	41.667
249.84	34.010
250.22	44.792
250.59	41.011
250.96	41.818
251.33	51.887
251.70	47.248
252.08	48.485
252.45	40.816
252.82	46.414
253.19	50.195
253.56	50.588
253.94	44.715
254.31	47.122
254.68	44.792
255.05	49.669
255.42	46.182
255.79	48.013
256.16	48.611
256.54	45.758
256.91	49.679
257.28	46.753
257.65	41.967
258.02	48.348
258.39	50.453
258.76	48.624
259.14	43.824
259.51	48.169
259.88	52.161
260.25	45.455
260.62	43.820
260.99	48.468
261.36	48.276
261.73	44.000
262.10	49.591
262.47	51.515
262.85	49.357
263.22	47.043
263.59	49.598
263.96	49.347
264.33	46.361
264.70	49.386
265.07	46.798
265.44	48.946
265.81	49.639
266.18	48.712
266.55	48.571
266.92	51.116
267.29	49.778
267.66	48.182
268.03	47.957
268.40	52.174
268.77	48.998
269.14	46.639
269.51	45.928
269.88	49.573
270.25	44.937
270.62	49.160
270.99	47.789
271.36	48.344
271.73	51.042
272.10	50.207
272.47	49.200
272.84	44.161
273.21	47.599
273.58	45.918
273.95	49.602
274.32	48.743
274.69	50.881
275.06	48.030
275.43	47.000
275.80	49.140
276.17	46.640
276.54	50.570
276.91	50.672
277.28	49.130
277.65	45.936
278.02	46.970
278.39	48.276
278.76	49.348
279.13	48.479
279.50	48.014
279.87	47.358
280.23	48.087
280.60	46.466
280.97	48.155
281.34	47.458
281.71	43.339
282.08	47.406
282.45	48.854
282.82	44.949
283.19	48.316
283.56	48.294
283.92	46.130
284.29	48.223
284.66	48.142
285.03	42.367
285.40	47.333
285.77	49.589
286.14	46.593
286.51	43.087
286.87	44.246
287.24	45.513
287.61	45.216
287.98	45.853
288.35	45.426
288.72	43.884
289.08	43.082
289.45	43.214
289.82	42.857
290.19	43.485
290.56	42.981
290.93	43.279
291.29	42.837
291.66	41.994
292.03	43.185
292.40	43.453
292.77	43.586
293.13	40.822
293.50	40.634
293.87	40.083
294.24	39.185
294.60	40.301
294.97	38.089
295.34	39.589
295.71	38.696
296.08	37.978
296.44	37.945
296.81	36.999
297.18	39.845
297.55	37.186
297.91	38.071
298.28	37.852
298.65	37.128
299.02	37.608
299.38	36.352
299.75	37.838
300.12	35.372
300.48	35.681
300.85	34.841
301.22	36.418
301.59	36.618
301.95	37.683
302.32	36.330
302.69	35.791
303.05	34.357
303.42	38.889
303.79	36.067
304.15	37.486
304.52	35.307
304.89	34.498
305.25	36.239
305.62	35.682
305.99	34.490
306.35	36.130
306.72	36.275
307.09	34.929
307.45	35.275
307.82	35.539
308.19	36.634
308.55	36.287
308.92	34.216
309.29	35.356
309.65	35.604
310.02	34.172
310.38	36.141
310.75	35.963
311.12	36.012
311.48	36.691
311.85	34.954
312.22	36.570
312.58	36.254
312.95	37.269
313.31	36.382
313.68	37.239
314.05	38.133
314.41	38.114
314.78	37.186
315.14	37.806
315.51	38.530
315.87	38.477
316.24	39.367
316.61	40.194
316.97	41.078
317.34	40.478
317.70	39.776
318.07	40.116
318.43	39.414
318.80	39.709
319.16	40.075
319.53	41.038
319.89	41.667
320.26	43.756
320.62	42.248
320.99	42.551
321.35	42.984
321.72	43.939
322.08	45.248
322.45	43.195
322.81	44.532
323.18	45.062
323.54	46.256
323.91	44.782
324.27	45.419
324.64	47.235
325.00	46.679
325.37	48.471
325.73	47.263
326.10	47.110
326.46	48.504
326.83	48.285
327.19	46.725
327.56	51.194
327.92	47.656
328.29	47.849
328.65	50.753
329.01	48.349
329.38	49.587
329.74	51.253
330.11	48.462
330.47	50.838
330.84	50.282
331.20	50.185
331.56	51.132
331.93	50.595
332.29	51.156
332.66	50.723
333.02	50.975
333.38	52.114
333.75	51.876
334.11	51.718
334.48	51.342
334.84	50.235
335.20	49.597
335.57	52.952
335.93	52.279
336.29	52.011
336.66	51.821
337.02	50.861
337.38	52.925
337.75	52.545
338.11	53.145
338.47	53.203
338.84	52.394
339.20	51.787
339.56	52.190
339.93	50.541
340.29	53.218
340.65	50.959
341.02	51.550
341.38	52.868
341.74	53.826
342.11	53.316
342.47	52.535
342.83	52.298
343.20	52.785
343.56	53.059
343.92	51.444
344.28	51.973
344.65	54.024
345.01	53.746
345.37	53.504
345.73	53.144
346.10	53.846
346.46	53.408
346.82	54.460
347.19	52.817
347.55	54.167
347.91	52.662
348.27	52.570
348.63	53.500
349.00	54.508
349.36	53.504
349.72	53.202
350.08	53.519
350.45	53.377
350.81	52.601
351.17	53.048
351.53	52.738
351.89	55.268
352.26	51.057
352.62	54.047
352.98	53.222
353.34	55.221
353.70	52.016
354.07	52.965
354.43	53.673
354.79	52.951
355.15	52.704
355.51	54.360
355.87	53.789
356.24	52.859
356.60	54.090
356.96	51.264
357.32	53.992
357.68	53.302
358.04	52.350
358.40	54.664
358.77	51.888
359.13	53.655
359.49	53.200
359.85	53.637
360.21	53.291
360.57	53.270
360.93	54.315
361.29	53.037
361.66	52.366
362.02	54.082
362.38	54.157
362.74	53.574
363.10	52.564
363.46	54.251
363.82	52.986
364.18	52.687
364.54	54.275
364.90	54.074
365.26	53.353
365.62	53.520
365.98	53.823
366.35	54.085
366.71	54.220
367.07	52.768
367.43	52.491
367.79	52.544
368.15	54.781
368.51	54.532
368.87	53.304
369.23	54.126
369.59	53.309
369.95	53.279
370.31	54.394
370.67	52.331
371.03	53.947
371.39	54.683
371.75	52.526
372.11	53.630
372.47	53.081
372.83	53.543
373.19	54.217
373.55	52.246
373.91	54.167
374.27	55.188
374.63	53.903
374.99	53.075
375.35	53.628
375.71	54.735
376.07	52.367
376.42	53.181
376.78	53.589
377.14	53.492
377.50	54.036
377.86	54.457
378.22	53.765
378.58	54.934
378.94	54.158
379.30	52.960
379.66	53.265
380.02	52.575
380.38	55.662
380.74	54.568
381.09	53.304
381.45	55.048
381.81	54.911
382.17	53.811
382.53	55.095
382.89	54.394
383.25	54.153
383.61	54.291
383.97	54.776
384.32	53.548
384.68	53.640
385.04	53.787
385.40	52.843
385.76	54.143
386.12	53.201
386.48	54.012
386.83	55.036
387.19	54.725
387.55	54.404
387.91	52.336
388.27	53.487
388.62	54.404
388.98	53.690
389.34	52.960
389.70	53.782
390.06	54.587
390.42	53.482
390.77	55.265
391.13	53.351
391.49	53.976
391.85	54.424
392.20	53.861
392.56	52.652
392.92	53.803
393.28	53.441
393.64	54.022
393.99	53.961
394.35	53.407
394.71	52.980
395.07	52.056
395.42	52.317
395.78	52.487
396.14	53.698
396.50	52.587
396.85	52.743
397.21	51.682
397.57	52.995
397.92	53.562
398.28	54.317
398.64	52.317
399.00	53.163
399.35	53.283
399.71	52.335
400.07	52.440
400.42	53.141
400.78	52.847
401.14	53.346
401.49	53.841
401.85	53.079
402.21	52.348
402.57	52.994
402.92	53.519
403.28	52.211
403.63	50.769
403.99	51.123
404.35	51.338
404.70	51.932
405.06	51.829
405.42	51.789
405.77	50.892
406.13	52.031
406.49	52.240
406.84	52.366
407.20	52.354
407.55	51.703
407.91	51.189
408.27	52.128
408.62	52.540
408.98	52.381
409.34	51.088
409.69	49.431
410.05	50.842
410.40	51.060
410.76	50.249
411.11	51.002
411.47	50.816
411.83	50.161
412.18	51.047
412.54	50.194
412.89	49.223
413.25	50.784
413.60	50.383
413.96	51.003
414.31	50.605
414.67	51.857
415.03	49.585
415.38	50.696
415.74	48.959
416.09	49.070
416.45	50.672
416.80	51.113
417.16	49.718
417.51	50.243
417.87	51.163
418.22	49.332
418.58	49.482
418.93	49.387
419.29	48.779
419.64	51.030
420.00	49.902
420.35	50.220
420.71	49.424
421.06	49.708
421.42	48.306
421.77	49.756
422.12	49.380
422.48	49.572
422.83	49.240
423.19	49.412
423.54	48.259
423.90	49.258
424.25	49.063
424.61	49.032
424.96	48.157
425.31	48.490
425.67	47.939
426.02	48.820
426.38	48.906
426.73	49.097
427.09	48.194
427.44	47.716
427.79	49.196
428.15	47.749
428.50	48.618
428.85	47.017
429.21	47.878
429.56	46.796
429.92	46.566
430.27	46.507
430.62	46.566
430.98	47.125
431.33	48.109
431.68	47.976
432.04	47.641
432.39	46.227
432.74	46.426
433.10	47.362
433.45	46.928
433.80	45.833
434.16	46.203
434.51	45.764
434.86	46.949
435.22	46.217
435.57	48.087
435.92	44.768
436.28	44.583
436.63	46.213
436.98	46.358
437.34	47.793
437.69	45.864
438.04	45.733
438.39	45.953
438.75	44.492
439.10	47.083
439.45	47.240
439.81	45.333
440.16	45.640
440.51	44.919
440.86	46.528
441.22	45.146
441.57	44.274
441.92	46.273
442.27	46.629
442.63	45.937
442.98	46.394
443.33	45.417
443.68	45.147
444.03	44.227
444.39	44.404
444.74	44.877
445.09	46.635
445.44	44.548
445.79	44.876
446.15	45.656
446.50	44.303
446.85	44.059
447.20	44.256
447.55	43.630
447.91	44.797
448.26	44.688
448.61	44.955
448.96	44.766
449.31	43.822
449.66	43.826
450.02	43.669
450.37	44.168
450.72	42.908
451.07	43.968
451.42	44.005
451.77	42.686
452.12	43.108
452.47	44.444
452.83	43.960
453.18	44.092
453.53	45.199
453.88	44.033
454.23	43.195
454.58	43.407
454.93	43.188
455.28	43.109
455.63	42.820
455.98	44.797
456.34	43.537
456.69	42.993
457.04	42.913
457.39	43.633
457.74	43.932
458.09	42.626
458.44	42.918
458.79	41.755
459.14	42.874
459.49	42.484
459.84	42.509
460.19	43.340
460.54	41.035
460.89	42.353
461.24	41.948
461.59	43.659
461.94	42.801
462.29	41.792
462.64	41.852
462.99	42.422
463.34	41.538
463.69	41.701
464.04	41.950
464.39	42.701
464.74	41.142
465.09	41.029
465.44	40.972
465.79	41.396
466.14	42.243
466.49	41.106
466.84	41.278
467.19	41.326
467.54	39.987
467.89	41.150
468.24	40.972
468.59	41.296
468.94	42.636
469.29	41.315
469.64	41.284
469.99	40.735
470.34	39.392
470.68	39.923
471.03	41.168
471.38	41.960
471.73	40.407
472.08	39.573
472.43	40.111
472.78	40.464
473.13	41.053
473.48	41.010
473.83	40.555
474.17	39.226
474.52	39.786
474.87	41.098
475.22	40.788
475.57	39.659
475.92	40.136
476.27	40.084
476.61	40.544
476.96	40.190
477.31	39.669
477.66	40.674
478.01	39.200
478.36	39.255
478.70	40.225
479.05	39.524
479.40	39.801
479.75	40.045
480.10	40.530
480.45	41.257
480.79	39.024
481.14	39.958
481.49	38.920
481.84	40.556
482.19	39.756
482.53	38.676
482.88	39.908
483.23	39.698
483.58	40.396
483.92	38.945
484.27	39.739
484.62	39.321
484.97	37.873
485.31	38.128
485.66	38.018
486.01	36.991
486.36	38.068
486.70	38.550
487.05	38.828
487.40	38.500
487.75	38.248
488.09	37.939
488.44	38.083
488.79	37.959
489.13	38.321
489.48	38.472
489.83	38.835
490.17	39.709
490.52	38.719
490.87	39.763
491.22	39.250
491.56	38.340
491.91	38.353
492.26	39.164
492.60	39.796
492.95	38.809
493.30	39.728
493.64	38.793
493.99	39.476
494.34	40.041
494.68	37.810
495.03	37.982
495.37	38.317
495.72	39.557
496.07	38.590
496.41	37.253
496.76	38.539
497.11	39.094
497.45	39.478
497.80	38.681
498.14	39.546
498.49	38.815
498.84	38.784
499.18	38.817
499.53	38.837
499.87	37.890
500.22	38.909
500.56	39.403
500.91	39.643
501.26	39.318
501.60	37.971
501.95	38.792
502.29	39.507
502.64	37.880
502.98	38.920
503.33	38.293
503.67	38.897
504.02	37.845
504.36	38.469
504.71	38.032
505.06	39.368
505.40	39.035
505.75	38.810
506.09	37.866
506.44	39.753
506.78	37.206
507.13	38.979
507.47	39.003
507.82	37.891
508.16	39.310
508.51	39.114
508.85	39.011
509.19	37.795
509.54	38.867
509.88	38.895
510.23	37.753
510.57	38.671
510.92	38.435
511.26	38.541
511.61	38.584
511.95	38.635
512.30	38.667
512.64	39.062
512.98	39.338
513.33	37.632
513.67	37.605
514.02	38.762
514.36	38.790
514.70	38.616
515.05	38.902
515.39	39.021
515.74	39.474
516.08	39.171
516.42	38.968
516.77	39.565
517.11	38.410
517.46	38.788
517.80	39.247
518.14	39.342
518.49	40.492
518.83	39.494
519.17	39.332
519.52	40.100
519.86	40.532
520.20	38.217
520.55	38.251
520.89	40.486
521.23	39.947
521.58	38.492
521.92	38.785
522.26	38.625
522.61	39.795
522.95	39.589
523.29	39.001
523.64	39.484
523.98	38.575
524.32	40.202
524.66	40.653
525.01	40.069
525.35	39.672
525.69	38.679
526.04	40.451
526.38	40.096
526.72	38.333
527.06	38.889
527.41	40.397
527.75	39.411
528.09	40.028
528.43	39.830
528.78	39.553
529.12	39.384
529.46	38.339
529.80	38.938
530.15	39.889
530.49	40.098
530.83	39.913
531.17	40.466
531.51	40.186
531.86	38.445
532.20	39.033
532.54	39.640
532.88	38.255
533.22	38.362
533.57	38.207
533.91	39.573
534.25	38.561
534.59	38.652
534.93	38.818
535.27	38.721
535.62	38.217
535.96	39.567
536.30	38.900
536.64	38.197
536.98	39.749
537.32	38.988
537.66	38.490
538.01	39.175
538.35	38.327
538.69	37.226
539.03	39.077
539.37	38.981
539.71	39.203
540.05	38.350
540.39	39.216
540.73	38.095
541.07	38.235
541.42	38.346
541.76	39.209
542.10	37.661
542.44	39.379
542.78	38.123
543.12	37.617
543.46	38.152
543.80	38.027
544.14	38.351
544.48	38.175
544.82	38.396
545.16	38.116
545.50	39.374
545.84	39.429
546.18	39.176
546.52	38.355
546.86	37.873
547.20	39.242
547.54	38.362
547.88	37.607
548.22	38.608
548.56	38.055
548.90	37.474
549.24	38.962
549.58	39.493
549.92	37.594
550.26	39.382
550.60	39.651
550.94	39.603
551.28	38.130
551.62	38.575
551.96	38.099
552.30	38.450
552.64	38.693
552.98	38.039
553.32	38.864
553.66	37.102
554.00	38.533
554.34	39.219
554.68	39.474
555.02	38.492
555.36	38.284
555.69	38.201
556.03	36.807
556.37	37.809
556.71	38.462
557.05	38.047
557.39	38.635
557.73	37.500
558.07	38.419
558.41	37.829
558.75	37.925
559.08	39.149
559.42	38.043
559.76	38.669
560.10	38.549
560.44	38.084
560.78	38.542
561.12	37.716
561.45	38.244
561.79	36.931
562.13	37.361
562.47	38.303
562.81	36.770
563.15	36.502
563.48	35.131
563.82	37.555
564.16	37.954
564.50	36.461
564.84	37.845
565.17	37.053
565.51	37.509
565.85	37.324
566.19	38.413
566.52	38.566
566.86	38.388
567.20	37.392
567.54	37.524
567.88	36.772
568.21	36.753
568.55	37.408
568.89	36.429
569.23	36.446
569.56	35.356
569.90	36.617
570.24	36.367
570.57	36.005
570.91	36.354
571.25	35.021
571.59	35.574
571.92	35.535
572.26	34.712
572.60	35.022
572.93	34.545
573.27	34.620
573.61	35.097
573.95	34.003
574.28	34.676
574.62	34.611
574.96	34.263
575.29	33.660
575.63	34.107
575.97	34.208
576.30	34.384
576.64	33.545
576.98	33.689
577.31	34.417
577.65	34.220
577.98	33.559
578.32	33.770
578.66	34.487
578.99	34.693
579.33	34.237
579.67	33.542
580.00	33.879
580.34	33.960
580.67	33.774
581.01	33.499
581.35	33.505
581.68	33.848
582.02	33.826
582.35	33.844
582.69	33.814
583.02	34.161
583.36	33.836
583.70	34.205
584.03	34.140
584.37	35.056
584.70	33.816
585.04	33.567
585.37	33.606
585.71	33.963
586.04	34.102
586.38	34.405
586.72	34.295
587.05	33.718
587.39	33.879
587.72	34.176
588.06	33.922
588.39	34.502
588.73	33.260
589.06	34.003
589.40	34.706
589.73	34.817
590.07	33.682
590.40	35.271
590.73	34.736
591.07	34.156
591.40	34.810
591.74	33.955
592.07	35.339
592.41	34.630
592.74	35.279
593.08	33.734
593.41	34.282
593.75	33.974
594.08	34.609
594.41	34.401
594.75	34.338
595.08	34.203
595.42	34.059
595.75	34.242
596.09	34.508
596.42	34.799
596.75	35.091
597.09	34.142
597.42	34.162
597.75	34.006
598.09	33.755
598.42	34.453
598.76	34.472
599.09	33.739
599.42	33.910
599.76	34.484
600.09	34.757
600.42	33.164
600.76	34.565
601.09	33.451
601.42	34.058
601.76	34.050
602.09	33.515
602.42	33.956
602.76	33.944
603.09	34.900
603.42	34.796
603.76	34.159
604.09	34.586
604.42	34.736
604.76	33.820
605.09	34.341
605.42	34.834
605.75	33.851
606.09	34.311
606.42	34.427
606.75	34.236
607.09	34.981
607.42	33.731
607.75	33.976
608.08	34.565
608.42	34.675
608.75	34.867
609.08	33.872
609.41	34.785
609.75	35.176
610.08	34.212
610.41	34.656
610.74	34.732
611.07	34.691
611.41	34.743
611.74	34.766
612.07	34.710
612.40	33.928
612.73	34.780
613.07	34.469
613.40	34.445
613.73	34.765
614.06	34.426
614.39	34.271
614.72	35.065
615.06	34.902
615.39	34.527
615.72	34.211
616.05	34.725
616.38	33.215
616.71	33.582
617.05	34.171
617.38	34.323
617.71	34.553
618.04	36.202
618.37	35.056
618.70	35.870
619.03	35.751
619.36	35.788
619.69	35.614
620.03	36.613
620.36	35.147
620.69	35.107
621.02	35.867
621.35	35.660
621.68	36.904
622.01	36.631
622.34	35.595
622.67	35.750
623.00	35.627
623.33	35.354
623.66	36.972
623.99	36.922
624.32	35.663
624.65	35.547
624.99	35.703
625.32	35.545
625.65	34.187
625.98	36.917
626.31	34.545
626.64	36.306
626.97	38.235
627.30	35.741
627.63	35.442
627.96	36.406
628.29	36.042
628.62	35.670
628.95	35.797
629.28	35.640
629.61	36.782
629.94	36.722
630.26	37.343
630.59	36.440
630.92	34.879
631.25	35.642
