SpectraSuite Data File
++++++++++++++++++++++++++++++++++++
Date: Tue May 12 19:50:53 PDT 2015
User: schluterlab
Dark Spectrum Present: Yes
Reference Spectrum Present: Yes
Number of Sampled Component Spectra: 1
Spectrometers: USB2E3373
Integration Time (usec): 3000 (USB2E3373)
Spectra Averaged: 3 (USB2E3373)
Boxcar Smoothing: 0 (USB2E3373)
Correct for Electrical Dark: No (USB2E3373)
Strobe/Lamp Enabled: No (USB2E3373)
Correct for Detector Non-linearity: No (USB2E3373)
Correct for Stray Light: No (USB2E3373)
Number of Pixels in Processed Spectrum: 2048
>>>>>Begin Processed Spectral Data<<<<<
178.53	0.000
178.91	-30.000
179.29	-166.667
179.67	500.000
180.04	0.000
180.42	-420.000
180.80	-466.667
181.18	1250.000
181.56	-450.000
181.94	366.667
182.31	2800.000
182.69	-57.143
183.07	0.000
183.45	291.667
183.83	440.000
184.20	350.000
184.58	1150.000
184.96	383.333
185.34	-433.333
185.72	-100.000
186.09	-166.667
186.47	-1700.000
186.85	-240.000
187.23	175.000
187.61	-185.714
187.98	-400.000
188.36	1300.000
188.74	-425.000
189.12	-88.889
189.49	-190.000
189.87	525.000
190.25	166.667
190.63	633.333
191.00	260.000
191.38	-400.000
191.76	500.000
192.14	-200.000
192.51	-70.000
192.89	-100.000
193.27	-260.000
193.65	-466.667
194.02	-183.333
194.40	1000.000
194.78	-162.500
195.15	-285.714
195.53	800.000
195.91	400.000
196.29	-600.000
196.66	-466.667
197.04	-457.143
197.42	360.000
197.79	-400.000
198.17	-233.333
198.55	-1500.000
198.92	-211.111
199.30	800.000
199.68	-300.000
200.05	-1250.000
200.43	-66.667
200.81	-75.000
201.18	366.667
201.56	-1050.000
201.94	-1600.000
202.31	-133.333
202.69	-177.778
203.07	-66.667
203.44	-475.000
203.82	0.000
204.19	325.000
204.57	-866.667
204.95	218.182
205.32	320.000
205.70	625.000
206.08	-1100.000
206.45	-280.000
206.83	2600.000
207.20	-333.333
207.58	-69.231
207.96	366.667
208.33	1333.333
208.71	866.667
209.08	750.000
209.46	-177.778
209.84	733.333
210.21	-633.333
210.59	500.000
210.96	244.444
211.34	-375.000
211.71	2050.000
212.09	-280.000
212.46	-275.000
212.84	-225.000
213.22	242.857
213.59	-150.000
213.97	0.000
214.34	-1350.000
214.72	-700.000
215.09	1100.000
215.47	-146.667
215.84	-150.000
216.22	-2200.000
216.59	2200.000
216.97	-83.333
217.34	-383.333
217.72	-72.222
218.09	650.000
218.47	-78.947
218.84	-112.500
219.22	-42.857
219.59	-100.000
219.97	-180.000
220.34	466.667
220.72	190.909
221.09	-1200.000
221.47	0.000
221.84	900.000
222.22	-600.000
222.59	-625.000
222.97	-73.913
223.34	220.000
223.72	457.143
224.09	-316.667
224.46	261.538
224.84	-40.000
225.21	-1000.000
225.59	-500.000
225.96	-30.000
226.34	383.333
226.71	320.000
227.08	-146.154
227.46	-142.857
227.83	-108.333
228.21	-900.000
228.58	416.667
228.95	-36.842
229.33	-87.500
229.70	-316.667
230.08	-233.333
230.45	-833.333
230.82	-2500.000
231.20	-61.905
231.57	-540.000
231.95	-333.333
232.32	211.111
232.69	-800.000
233.07	-37.500
233.44	-162.500
233.81	-29.032
234.19	-580.000
234.56	-83.333
234.93	-400.000
235.31	-33.333
235.68	-44.444
236.05	-88.462
236.43	-121.053
236.80	-68.182
237.17	-192.857
237.55	-120.000
237.92	-6.977
238.29	-22.581
238.67	-50.000
239.04	-40.000
239.41	-17.647
239.79	-18.000
240.16	-57.500
240.53	-48.276
240.91	-24.658
241.28	-8.451
241.65	-32.812
242.02	-43.860
242.40	-24.000
242.77	-5.263
243.14	-7.059
243.51	-9.677
243.89	-19.048
244.26	-10.185
244.63	-10.204
245.00	-19.643
245.38	-21.849
245.75	-5.932
246.12	-10.156
246.49	-21.600
246.87	-16.393
247.24	-16.901
247.61	-10.596
247.98	-3.371
248.36	-5.660
248.73	-9.091
249.10	-8.333
249.47	-6.771
249.84	-10.660
250.22	-11.458
250.59	-11.798
250.96	-8.636
251.33	-5.660
251.70	-2.752
252.08	-2.165
252.45	-8.571
252.82	-7.595
253.19	-5.447
253.56	-6.275
253.94	-6.504
254.31	-0.719
254.68	-2.778
255.05	0.662
255.42	-5.091
255.79	-0.331
256.16	-3.125
256.54	-0.303
256.91	0.962
257.28	-3.896
257.65	-7.869
258.02	-2.402
258.39	-2.115
258.76	-3.364
259.14	-7.941
259.51	0.282
259.88	-0.576
260.25	-4.545
260.62	-5.618
260.99	-2.228
261.36	-6.609
261.73	-2.400
262.10	-3.542
262.47	-3.306
262.85	-2.057
263.22	-3.495
263.59	-2.949
263.96	-5.222
264.33	-7.547
264.70	-3.931
265.07	-4.433
265.44	-1.171
265.81	0.241
266.18	-3.981
266.55	-2.857
266.92	-0.893
267.29	-1.333
267.66	-2.955
268.03	-1.290
268.40	-4.348
268.77	-2.450
269.14	-2.101
269.51	-1.584
269.88	-3.846
270.25	-3.376
270.62	0.000
270.99	-2.737
271.36	-5.298
271.73	-2.917
272.10	-2.282
272.47	-3.800
272.84	-4.671
273.21	-4.593
273.58	-2.857
273.95	-0.398
274.32	0.193
274.69	-0.978
275.06	-1.501
275.43	-4.400
275.80	-4.398
276.17	-4.348
276.54	-2.662
276.91	-0.960
277.28	-3.868
277.65	-2.268
278.02	-1.515
278.39	-0.726
278.76	-2.235
279.13	-1.073
279.50	0.361
279.87	-2.075
280.23	-2.004
280.60	-3.357
280.97	-1.582
281.34	-2.881
281.71	-3.197
282.08	-2.504
282.45	-1.411
282.82	-3.030
283.19	0.168
283.56	1.365
283.92	-0.474
284.29	-2.200
284.66	-1.416
285.03	-5.489
285.40	-1.500
285.77	-2.791
286.14	-0.634
286.51	-2.733
286.87	-0.972
287.24	-2.083
287.61	-2.932
287.98	1.095
288.35	-1.395
288.72	-0.917
289.08	-2.516
289.45	-2.340
289.82	-2.795
290.19	-2.121
290.56	-0.289
290.93	-3.545
291.29	-1.135
291.66	-0.281
292.03	-0.717
292.40	0.144
292.77	-3.353
293.13	-2.790
293.50	-2.066
293.87	-1.526
294.24	-1.685
294.60	0.546
294.97	-2.216
295.34	-1.370
295.71	-3.329
296.08	-1.230
296.44	-0.395
296.81	-2.070
297.18	-2.458
297.55	-2.387
297.91	-1.142
298.28	-1.790
298.65	-0.388
299.02	-0.493
299.38	-2.423
299.75	-0.386
300.12	-1.918
300.48	-1.056
300.85	-2.567
301.22	-0.120
301.59	-1.095
301.95	-1.463
302.32	-1.458
302.69	-2.259
303.05	-1.535
303.42	-1.691
303.79	-2.809
304.15	-0.680
304.52	-1.229
304.89	-1.466
305.25	-1.950
305.62	0.000
305.99	-2.464
306.35	-2.573
306.72	-0.436
307.09	-1.959
307.45	-0.971
307.82	-0.747
308.19	-0.330
308.55	-1.688
308.92	-1.165
309.29	-0.941
309.65	-1.342
310.02	-0.314
310.38	0.000
310.75	-0.820
311.12	-0.712
311.48	0.103
311.85	-1.621
312.22	-1.653
312.58	-1.309
312.95	0.513
313.31	-0.492
313.68	-1.589
314.05	-0.397
314.41	-1.277
314.78	-2.111
315.14	-1.175
315.51	-0.497
315.87	0.293
316.24	-0.396
316.61	-0.971
316.97	0.000
317.34	-0.383
317.70	-0.280
318.07	-1.446
318.43	-0.756
318.80	-0.911
319.16	-2.423
319.53	0.566
319.89	-0.568
320.26	0.000
320.62	0.678
320.99	0.408
321.35	-0.296
321.72	1.919
322.08	0.693
322.45	0.789
322.81	1.084
323.18	0.384
323.54	0.853
323.91	0.380
324.27	-0.482
324.64	-0.469
325.00	-0.091
325.37	1.619
325.73	0.274
326.10	0.788
326.46	0.453
326.83	0.616
327.19	0.873
327.56	0.973
327.92	-1.215
328.29	0.896
328.65	1.130
329.01	0.826
329.38	1.469
329.74	2.043
330.11	0.280
330.47	0.372
330.84	0.658
331.20	0.832
331.56	0.283
331.93	0.823
332.29	0.463
332.66	1.447
333.02	0.743
333.38	2.114
333.75	0.000
334.11	0.633
334.48	-0.268
334.84	-0.469
335.20	0.537
335.57	1.635
335.93	0.186
336.29	1.280
336.66	0.820
337.02	1.904
337.38	0.755
337.75	0.727
338.11	1.003
338.47	0.743
338.84	0.921
339.20	1.467
339.56	1.212
339.93	0.811
340.29	0.725
340.65	1.005
341.02	0.974
341.38	1.147
341.74	1.690
342.11	0.796
342.47	0.787
342.83	0.520
343.20	1.415
343.56	0.437
343.92	1.750
344.28	-0.257
344.65	0.514
345.01	1.132
345.37	1.624
345.73	0.431
346.10	0.778
346.46	0.604
346.82	-0.255
347.19	1.598
347.55	1.531
347.91	-0.246
348.27	0.253
348.63	0.605
349.00	1.503
349.36	1.401
349.72	1.149
350.08	1.391
350.45	1.383
350.81	0.991
351.17	-0.082
351.53	1.127
351.89	0.086
352.26	0.081
352.62	1.308
352.98	1.339
353.34	1.170
353.70	0.576
354.07	0.741
354.43	0.334
354.79	1.148
355.15	0.969
355.51	1.467
355.87	0.583
356.24	3.023
356.60	0.250
356.96	1.106
357.32	0.988
357.68	1.432
358.04	1.378
358.40	0.573
358.77	0.562
359.13	1.124
359.49	-0.320
359.85	0.879
360.21	1.427
360.57	0.239
360.93	0.792
361.29	0.935
361.66	0.079
362.02	1.020
362.38	1.088
362.74	0.538
363.10	0.679
363.46	0.903
363.82	1.225
364.18	1.287
364.54	0.305
364.90	0.815
365.26	0.745
365.62	-0.379
365.98	0.825
366.35	0.227
366.71	2.016
367.07	0.959
367.43	0.144
367.79	0.654
368.15	0.964
368.51	0.674
368.87	0.514
369.23	0.833
369.59	0.441
369.95	0.224
370.31	-0.152
370.67	1.053
371.03	0.774
371.39	1.511
371.75	0.297
372.11	0.444
372.47	0.297
372.83	1.607
373.19	0.979
373.55	0.449
373.91	0.152
374.27	1.177
374.63	0.147
374.99	-0.220
375.35	0.290
375.71	0.574
376.07	0.353
376.42	0.968
376.78	0.279
377.14	1.047
377.50	0.547
377.86	1.045
378.22	1.519
378.58	0.461
378.94	0.720
379.30	0.386
379.66	1.088
380.02	1.017
380.38	0.891
380.74	0.994
381.09	0.254
381.45	1.016
381.81	0.446
382.17	0.977
382.53	0.000
382.89	0.385
383.25	1.078
383.61	-0.064
383.97	0.780
384.32	1.290
384.68	1.149
385.04	0.382
385.40	0.447
385.76	0.822
386.12	0.594
386.48	0.391
386.83	0.263
387.19	1.149
387.55	-0.259
387.91	0.685
388.27	0.064
388.62	-0.065
388.98	0.382
389.34	0.195
389.70	0.577
390.06	0.792
390.42	0.068
390.77	0.402
391.13	0.781
391.49	1.280
391.85	1.397
392.20	0.660
392.56	0.262
392.92	1.113
393.28	1.257
393.64	-0.253
393.99	-0.260
394.35	0.000
394.71	0.132
395.07	0.398
395.42	0.952
395.78	-0.067
396.14	0.400
396.50	0.906
396.85	0.661
397.21	0.906
397.57	0.197
397.92	0.254
398.28	0.180
398.64	0.381
399.00	0.871
399.35	1.055
399.71	0.838
400.07	1.112
400.42	0.897
400.78	1.663
401.14	1.010
401.49	0.500
401.85	0.762
402.21	0.444
402.57	-0.129
402.92	0.664
403.28	0.390
403.63	0.833
403.99	0.528
404.35	0.191
404.70	0.950
405.06	-0.372
405.42	0.651
405.77	0.595
406.13	0.358
406.49	-0.442
406.84	0.934
407.20	0.991
407.55	0.668
407.91	0.070
408.27	0.665
408.62	-0.193
408.98	1.609
409.34	0.896
409.69	0.000
410.05	0.130
410.40	-0.193
410.76	0.374
411.11	0.517
411.47	0.952
411.83	0.580
412.18	0.327
412.54	0.712
412.89	-0.065
413.25	1.379
413.60	0.638
413.96	0.129
414.31	0.319
414.67	1.215
415.03	0.830
415.38	0.348
415.74	0.873
416.09	0.000
416.45	0.212
416.80	0.139
417.16	0.987
417.51	1.041
417.87	0.821
418.22	1.136
418.58	0.760
418.93	0.967
419.29	0.475
419.64	0.549
420.00	1.048
420.35	0.816
420.71	0.320
421.06	0.260
421.42	1.443
421.77	1.401
422.12	0.768
422.48	1.142
422.83	1.033
423.19	0.941
423.54	0.244
423.90	0.618
424.25	1.027
424.61	0.839
424.96	0.983
425.31	0.604
425.67	0.121
426.02	0.497
426.38	0.064
426.73	0.312
427.09	0.263
427.44	0.494
427.79	0.928
428.15	0.888
428.50	0.942
428.85	0.449
429.21	1.195
429.56	0.608
429.92	0.919
430.27	0.480
430.62	1.190
430.98	1.934
431.33	0.278
431.68	0.821
432.04	1.036
432.39	0.297
432.74	0.886
433.10	0.485
433.45	0.507
433.80	1.131
434.16	0.690
434.51	1.226
434.86	1.269
435.22	0.407
435.57	0.858
435.92	0.310
436.28	1.121
436.63	1.133
436.98	0.864
437.34	0.064
437.69	0.309
438.04	0.361
438.39	1.240
438.75	0.985
439.10	1.607
439.45	1.348
439.81	0.508
440.16	0.495
440.51	0.620
440.86	0.758
441.22	1.132
441.57	1.368
441.92	0.387
442.27	1.371
442.63	1.129
442.98	1.284
443.33	1.880
443.68	0.832
444.03	1.186
444.39	0.989
444.74	0.687
445.09	-0.059
445.44	1.166
445.79	1.241
446.15	1.224
446.50	1.041
446.85	0.990
447.20	0.492
447.55	0.989
447.91	1.293
448.26	1.306
448.61	0.785
448.96	0.946
449.31	0.362
449.66	1.211
450.02	0.888
450.37	0.668
450.72	0.658
451.07	0.461
451.42	1.713
451.77	0.252
452.12	0.940
452.47	0.203
452.83	0.747
453.18	0.405
453.53	1.372
453.88	1.276
454.23	0.831
454.58	1.240
454.93	-0.204
455.28	1.222
455.63	0.910
455.98	1.332
456.34	0.871
456.69	0.000
457.04	1.115
457.39	0.375
457.74	0.442
458.09	0.000
458.44	0.613
458.79	-0.294
459.14	1.312
459.49	0.701
459.84	0.713
460.19	1.376
460.54	0.316
460.89	0.765
461.24	1.039
461.59	1.577
461.94	1.578
462.29	0.501
462.64	0.836
462.99	1.015
463.34	1.245
463.69	0.686
464.04	1.026
464.39	0.386
464.74	0.973
465.09	1.865
465.44	1.380
465.79	0.963
466.14	1.014
466.49	1.428
466.84	1.474
467.19	1.429
467.54	0.464
467.89	1.176
468.24	0.884
468.59	0.916
468.94	0.740
469.29	1.384
469.64	1.240
469.99	1.298
470.34	0.424
470.68	0.462
471.03	0.584
471.38	0.449
471.73	1.017
472.08	1.068
472.43	0.692
472.78	0.073
473.13	1.263
473.48	1.107
473.83	1.519
474.17	0.200
474.52	1.474
474.87	0.758
475.22	1.144
475.57	1.058
475.92	0.796
476.27	1.627
476.61	1.123
476.96	1.245
477.31	0.970
477.66	1.453
478.01	-0.059
478.36	1.032
478.70	1.296
479.05	-0.116
479.40	0.719
479.75	0.673
480.10	1.299
480.45	1.728
480.79	1.194
481.14	1.054
481.49	0.925
481.84	0.606
482.19	0.927
482.53	1.667
482.88	0.813
483.23	1.005
483.58	1.634
483.92	1.457
484.27	1.065
484.62	1.744
484.97	1.142
485.31	1.469
485.66	1.302
486.01	1.770
486.36	1.480
486.70	1.845
487.05	1.726
487.40	1.404
487.75	1.546
488.09	1.316
488.44	1.627
488.79	1.338
489.13	1.039
489.48	1.413
489.83	1.341
490.17	1.453
490.52	1.195
490.87	1.286
491.22	1.183
491.56	0.889
491.91	0.853
492.26	1.122
492.60	1.276
492.95	0.821
493.30	1.568
493.64	1.927
493.99	1.694
494.34	1.571
494.68	1.338
495.03	0.304
495.37	1.521
495.72	1.266
496.07	1.521
496.41	1.136
496.76	1.003
497.11	1.034
497.45	1.708
497.80	1.817
498.14	1.373
498.49	0.587
498.84	0.629
499.18	1.453
499.53	1.506
499.87	0.768
500.22	0.935
500.56	1.675
500.91	1.521
501.26	0.997
501.60	1.478
501.95	1.279
502.29	1.334
502.64	1.045
502.98	0.858
503.33	1.548
503.67	1.429
504.02	1.481
504.36	1.181
504.71	0.904
505.06	1.071
505.40	1.287
505.75	1.685
506.09	1.517
506.44	1.180
506.78	0.642
507.13	1.140
507.47	1.274
507.82	1.004
508.16	1.281
508.51	1.860
508.85	0.879
509.19	1.755
509.54	0.623
509.88	0.058
510.23	1.180
510.57	0.681
510.92	1.247
511.26	0.862
511.61	1.484
511.95	1.215
512.30	1.565
512.64	0.938
512.98	1.536
513.33	0.234
513.67	0.479
514.02	1.142
514.36	1.364
514.70	1.093
515.05	1.890
515.39	0.439
515.74	1.065
516.08	1.193
516.42	1.119
516.77	1.304
517.11	0.612
517.46	1.249
517.80	1.659
518.14	2.593
518.49	0.582
518.83	1.167
519.17	1.542
519.52	1.374
519.86	2.090
520.20	1.019
520.55	1.697
520.89	1.687
521.23	1.202
521.58	0.463
521.92	1.068
522.26	0.893
522.61	2.184
522.95	1.507
523.29	0.877
523.64	0.407
523.98	0.806
524.32	1.751
524.66	1.224
525.01	0.825
525.35	1.436
525.69	1.101
526.04	2.607
526.38	1.576
526.72	1.250
527.06	1.125
527.41	0.709
527.75	1.077
528.09	1.839
528.43	1.488
528.78	0.349
529.12	0.685
529.46	1.130
529.80	0.545
530.15	1.668
530.49	1.534
530.83	0.072
531.17	1.554
531.51	1.142
531.86	1.821
532.20	1.227
532.54	1.583
532.88	0.873
533.22	0.862
533.57	1.103
533.91	0.895
534.25	1.358
534.59	1.307
534.93	0.873
535.27	0.741
535.62	1.756
535.96	1.535
536.30	1.740
536.64	1.788
536.98	1.254
537.32	1.562
537.66	0.880
538.01	1.105
538.35	1.382
538.69	0.991
539.03	1.081
539.37	1.292
539.71	1.377
540.05	0.579
540.39	1.162
540.73	1.685
541.07	1.618
541.42	0.641
541.76	1.151
542.10	1.363
542.44	1.662
542.78	0.733
543.12	0.289
543.46	1.490
543.80	1.501
544.14	1.290
544.48	1.684
544.82	1.136
545.16	1.377
545.50	1.528
545.84	2.560
546.18	0.899
546.52	1.230
546.86	1.530
547.20	1.439
547.54	1.289
547.88	1.068
548.22	1.406
548.56	1.550
548.90	0.982
549.24	1.389
549.58	1.714
549.92	1.429
550.26	2.085
550.60	0.317
550.94	2.143
551.28	0.894
551.62	1.474
551.96	0.958
552.30	0.388
552.64	1.052
552.98	1.412
553.32	1.439
553.66	0.835
554.00	1.004
554.34	1.641
554.68	0.877
555.02	1.032
555.36	0.953
555.69	0.307
556.03	1.552
556.37	1.125
556.71	1.961
557.05	0.000
557.39	1.124
557.73	1.101
558.07	2.113
558.41	1.437
558.75	1.577
559.08	0.936
559.42	1.003
559.76	0.421
560.10	1.385
560.44	0.317
560.78	1.803
561.12	0.977
561.45	0.818
561.79	1.468
562.13	1.038
562.47	0.994
562.81	1.440
563.15	0.380
563.48	0.375
563.82	1.164
564.16	0.871
564.50	0.860
564.84	2.055
565.17	1.788
565.51	2.322
565.85	0.915
566.19	2.018
566.52	1.434
566.86	1.503
567.20	0.998
567.54	0.702
567.88	0.303
568.21	1.876
568.55	0.849
568.89	0.440
569.23	1.255
569.56	1.563
569.90	0.985
570.24	1.970
570.57	1.467
570.91	1.674
571.25	1.687
571.59	1.770
571.92	1.922
572.26	1.543
572.60	1.636
572.93	1.801
573.27	1.882
573.61	1.888
573.95	1.528
574.28	1.407
574.62	2.034
574.96	1.825
575.29	1.626
575.63	1.655
575.97	1.796
576.30	1.677
576.64	1.571
576.98	1.787
577.31	1.676
577.65	1.558
577.98	2.095
578.32	1.802
578.66	1.588
578.99	2.015
579.33	1.764
579.67	1.930
580.00	1.791
580.34	1.856
580.67	2.111
581.01	2.017
581.35	1.863
581.68	1.811
582.02	1.818
582.35	1.946
582.69	1.759
583.02	1.942
583.36	1.720
583.70	1.752
584.03	1.809
584.37	2.084
584.70	1.674
585.04	1.669
585.37	1.789
585.71	1.888
586.04	1.838
586.38	1.716
586.72	1.590
587.05	1.982
587.39	1.866
587.72	1.889
588.06	2.215
588.39	1.665
588.73	1.468
589.06	1.845
589.40	1.971
589.73	1.645
590.07	1.239
590.40	1.542
590.73	2.082
591.07	1.861
591.40	1.462
591.74	1.632
592.07	1.815
592.41	1.312
592.74	1.576
593.08	1.578
593.41	2.091
593.75	1.921
594.08	1.859
594.41	1.733
594.75	1.840
595.08	1.831
595.42	1.652
595.75	1.439
596.09	1.641
596.42	1.691
596.75	2.045
597.09	1.493
597.42	1.408
597.75	2.392
598.09	1.779
598.42	1.893
598.76	1.275
599.09	1.849
599.42	1.770
599.76	1.334
600.09	1.779
600.42	1.836
600.76	1.655
601.09	1.961
601.42	1.932
601.76	1.502
602.09	1.508
602.42	1.780
602.76	1.745
603.09	1.349
603.42	2.002
603.76	1.175
604.09	2.130
604.42	2.319
604.76	1.232
605.09	1.275
605.42	1.517
605.75	1.325
606.09	1.422
606.42	1.575
606.75	1.909
607.09	1.726
607.42	2.203
607.75	1.791
608.08	1.871
608.42	1.891
608.75	1.101
609.08	0.606
609.41	2.125
609.75	1.053
610.08	1.602
610.41	1.832
610.74	1.466
611.07	1.058
611.41	0.910
611.74	0.871
612.07	1.953
612.40	1.950
612.73	0.637
613.07	1.644
613.40	2.128
613.73	1.031
614.06	1.112
614.39	1.523
614.72	1.240
615.06	2.067
615.39	1.848
615.72	1.232
616.05	1.739
616.38	1.542
616.71	0.871
617.05	1.005
617.38	1.355
617.71	1.372
618.04	1.380
618.37	1.177
618.70	1.630
619.03	1.523
619.36	1.767
619.69	0.855
620.03	1.220
620.36	1.965
620.69	1.330
621.02	0.871
621.35	0.766
621.68	0.270
622.01	0.446
622.34	1.173
622.67	1.096
623.00	1.474
623.33	1.654
623.66	1.355
623.99	0.159
624.32	1.589
624.65	1.406
624.99	0.859
625.32	1.501
625.65	0.881
625.98	1.833
626.31	1.039
626.64	0.811
626.97	1.930
627.30	0.463
627.63	1.767
627.96	0.466
628.29	0.478
628.62	0.928
628.95	0.950
629.28	2.066
629.61	0.731
629.94	0.934
630.26	1.255
630.59	1.780
630.92	-1.897
631.25	-0.670
631.58	0.581
631.91	-0.114
632.24	0.710
632.57	1.546
632.90	1.353
633.23	1.032
633.56	-0.503
633.89	-1.055
634.22	1.667
634.55	-0.657
634.88	1.473
635.20	0.822
635.53	1.676
635.86	1.223
636.19	0.819
636.52	1.213
636.85	-0.130
637.18	0.648
637.51	1.220
637.83	-0.419
638.16	0.284
638.49	0.720
638.82	-0.844
639.15	0.000
639.48	-0.582
639.81	0.745
640.13	-0.613
640.46	-0.630
640.79	-0.465
641.12	0.620
641.45	0.311
641.77	0.159
642.10	0.000
642.43	0.168
642.76	-0.896
643.09	-0.865
643.41	1.434
643.74	-0.174
644.07	-2.469
644.40	-0.181
644.73	-0.184
645.05	0.382
645.38	-0.962
645.71	-0.191
646.04	0.743
646.36	-2.273
646.69	1.161
647.02	2.148
647.35	1.000
647.67	4.008
648.00	1.748
648.33	0.000
648.66	-1.299
648.98	1.186
649.31	-0.516
649.64	-0.516
649.96	0.676
650.29	-1.239
650.62	0.371
