SpectraSuite Data File
++++++++++++++++++++++++++++++++++++
Date: Tue May 12 19:42:49 PDT 2015
User: schluterlab
Dark Spectrum Present: Yes
Reference Spectrum Present: Yes
Number of Sampled Component Spectra: 1
Spectrometers: USB2E3373
Integration Time (usec): 3000 (USB2E3373)
Spectra Averaged: 3 (USB2E3373)
Boxcar Smoothing: 0 (USB2E3373)
Correct for Electrical Dark: No (USB2E3373)
Strobe/Lamp Enabled: No (USB2E3373)
Correct for Detector Non-linearity: No (USB2E3373)
Correct for Stray Light: No (USB2E3373)
Number of Pixels in Processed Spectrum: 2048
>>>>>Begin Processed Spectral Data<<<<<
178.53	0.000
178.91	20.000
179.29	0.000
179.67	133.333
180.04	0.000
180.42	-140.000
180.80	-133.333
181.18	700.000
181.56	-650.000
181.94	166.667
182.31	1200.000
182.69	-85.714
183.07	0.000
183.45	216.667
183.83	300.000
184.20	366.667
184.58	-0.000
184.96	250.000
185.34	-200.000
185.72	-64.286
186.09	-150.000
186.47	-1200.000
186.85	-20.000
187.23	108.333
187.61	-128.571
187.98	-220.000
188.36	500.000
188.74	-425.000
189.12	-122.222
189.49	-80.000
189.87	25.000
190.25	177.778
190.63	100.000
191.00	220.000
191.38	-233.333
191.76	280.000
192.14	-100.000
192.51	-160.000
192.89	0.000
193.27	-100.000
193.65	-233.333
194.02	-50.000
194.40	500.000
194.78	-12.500
195.15	-157.143
195.53	466.667
195.91	40.000
196.29	-275.000
196.66	-266.667
197.04	-128.571
197.42	80.000
197.79	12.500
198.17	-25.000
198.55	-100.000
198.92	44.444
199.30	450.000
199.68	0.000
200.05	-500.000
200.43	0.000
200.81	25.000
201.18	116.667
201.56	-550.000
201.94	-1100.000
202.31	-41.667
202.69	55.556
203.07	-41.667
203.44	-300.000
203.82	0.000
204.19	212.500
204.57	-33.333
204.95	118.182
205.32	140.000
205.70	475.000
206.08	-500.000
206.45	-20.000
206.83	1400.000
207.20	-100.000
207.58	-30.769
207.96	200.000
208.33	566.667
208.71	400.000
209.08	550.000
209.46	-44.444
209.84	433.333
210.21	-66.667
210.59	300.000
210.96	111.111
211.34	-75.000
211.71	850.000
212.09	-120.000
212.46	-75.000
212.84	-125.000
213.22	14.286
213.59	12.500
213.97	0.000
214.34	-550.000
214.72	-900.000
215.09	950.000
215.47	-53.333
215.84	-50.000
216.22	-300.000
216.59	800.000
216.97	0.000
217.34	-50.000
217.72	38.889
218.09	400.000
218.47	15.789
218.84	-137.500
219.22	-14.286
219.59	-130.000
219.97	-50.000
220.34	133.333
220.72	109.091
221.09	-800.000
221.47	0.000
221.84	450.000
222.22	-375.000
222.59	-100.000
222.97	4.348
223.34	133.333
223.72	228.571
224.09	116.667
224.46	38.462
224.84	0.000
225.21	100.000
225.59	-325.000
225.96	35.000
226.34	216.667
226.71	240.000
227.08	30.769
227.46	-85.714
227.83	-8.333
228.21	-550.000
228.58	216.667
228.95	21.053
229.33	-12.500
229.70	-250.000
230.08	-77.778
230.45	-466.667
230.82	-1000.000
231.20	4.762
231.57	-40.000
231.95	-500.000
232.32	100.000
232.69	-400.000
233.07	12.500
233.44	-75.000
233.81	-22.581
234.19	-220.000
234.56	-50.000
234.93	-100.000
235.31	22.222
235.68	-7.407
236.05	-57.692
236.43	-10.526
236.80	-22.727
237.17	21.429
237.55	-50.000
237.92	9.302
238.29	-6.452
238.67	-10.714
239.04	-2.857
239.41	-3.922
239.79	-4.000
240.16	25.000
240.53	-1.724
240.91	6.849
241.28	8.451
241.65	9.375
242.02	-5.263
242.40	-5.333
242.77	13.684
243.14	15.294
243.51	4.301
243.89	-1.905
244.26	0.926
244.63	13.265
245.00	2.679
245.38	-2.521
245.75	10.169
246.12	6.250
246.49	0.000
246.87	2.459
247.24	1.408
247.61	10.596
247.98	6.180
248.36	10.063
248.73	8.523
249.10	7.778
249.47	8.854
249.84	-2.030
250.22	5.729
250.59	6.180
250.96	11.818
251.33	9.434
251.70	11.468
252.08	10.390
252.45	8.980
252.82	4.219
253.19	9.728
253.56	10.588
253.94	9.350
254.31	17.986
254.68	10.417
255.05	13.907
255.42	6.182
255.79	13.576
256.16	12.153
256.54	12.727
256.91	15.385
257.28	9.091
257.65	6.557
258.02	10.811
258.39	11.782
258.76	9.786
259.14	8.824
259.51	11.268
259.88	10.951
260.25	10.227
260.62	10.112
260.99	12.256
261.36	7.471
261.73	10.400
262.10	12.534
262.47	7.989
262.85	11.054
263.22	9.677
263.59	10.724
263.96	6.266
264.33	7.008
264.70	9.828
265.07	10.099
265.44	10.539
265.81	11.807
266.18	10.773
266.55	8.810
266.92	9.821
267.29	9.333
267.66	8.182
268.03	11.613
268.40	10.297
268.77	9.354
269.14	8.193
269.51	10.407
269.88	9.188
270.25	7.806
270.62	12.185
270.99	8.421
271.36	5.960
271.73	9.583
272.10	11.826
272.47	10.600
272.84	8.280
273.21	8.559
273.58	6.735
273.95	9.960
274.32	10.251
274.69	8.806
275.06	10.882
275.43	7.800
275.80	10.899
276.17	7.708
276.54	11.787
276.91	10.557
277.28	9.284
277.65	9.830
278.02	10.227
278.39	11.615
278.76	11.359
279.13	11.449
279.50	11.733
279.87	12.830
280.23	9.472
280.60	7.244
280.97	10.369
281.34	8.814
281.71	9.769
282.08	11.986
282.45	7.937
282.82	10.438
283.19	10.269
283.56	9.215
283.92	9.795
284.29	9.137
284.66	9.381
285.03	8.062
285.40	10.500
285.77	11.494
286.14	8.716
286.51	9.807
286.87	9.887
287.24	9.455
287.61	8.025
287.98	11.424
288.35	10.543
288.72	9.174
289.08	8.019
289.45	8.424
289.82	10.248
290.19	10.758
290.56	11.288
290.93	9.306
291.29	9.362
291.66	9.270
292.03	10.473
292.40	9.784
292.77	7.872
293.13	8.664
293.50	8.815
293.87	9.154
294.24	8.146
294.60	9.699
294.97	9.280
295.34	8.904
295.71	7.212
296.08	8.333
296.44	9.091
296.81	8.668
297.18	10.867
297.55	8.040
297.91	9.391
298.28	8.568
298.65	7.762
299.02	10.727
299.38	8.546
299.75	8.880
300.12	9.233
300.48	8.803
300.85	7.702
301.22	9.976
301.59	9.124
301.95	9.878
302.32	9.113
302.69	6.778
303.05	7.556
303.42	8.937
303.79	6.629
304.15	8.267
304.52	8.492
304.89	7.892
305.25	9.977
305.62	9.205
305.99	9.406
306.35	8.837
306.72	9.477
307.09	8.596
307.45	8.738
307.82	9.498
308.19	9.791
308.55	10.654
308.92	9.004
309.29	10.356
309.65	9.598
310.02	9.748
310.38	10.341
310.75	10.143
311.12	9.766
311.48	10.894
311.85	10.740
312.22	10.124
312.58	10.272
312.95	10.986
313.31	10.718
313.68	11.023
314.05	12.910
314.41	12.967
314.78	10.854
315.14	12.733
315.51	14.101
315.87	13.770
316.24	14.342
316.61	15.534
316.97	13.725
317.34	14.928
317.70	15.219
318.07	15.526
318.43	15.974
318.80	17.851
319.16	16.775
319.53	17.264
319.89	19.129
320.26	18.977
320.62	21.221
320.99	21.837
321.35	21.640
321.72	23.838
322.08	23.069
322.45	23.669
322.81	26.700
323.18	27.421
323.54	27.962
323.91	28.748
324.27	29.122
324.64	30.928
325.00	31.392
325.37	33.993
325.73	33.850
326.10	36.165
326.46	39.166
326.83	38.171
327.19	40.349
327.56	40.495
327.92	41.406
328.29	42.832
328.65	45.480
329.01	45.321
329.38	45.914
329.74	47.447
330.11	47.437
330.47	49.255
330.84	50.188
331.20	50.739
331.56	49.811
331.93	51.510
332.29	53.932
332.66	54.340
333.02	52.646
333.38	55.607
333.75	54.986
334.11	57.233
334.48	54.204
334.84	56.150
335.20	57.475
335.57	58.220
335.93	59.907
336.29	59.963
336.66	58.106
337.02	59.021
337.38	58.208
337.75	58.818
338.11	59.161
338.47	61.003
338.84	62.431
339.20	61.503
339.56	61.976
339.93	61.802
340.29	60.743
340.65	63.288
341.02	61.736
341.38	63.019
341.74	63.790
342.11	62.069
342.47	63.112
342.83	63.400
343.20	63.926
343.56	63.986
343.92	64.829
344.28	63.722
344.65	63.442
345.01	62.979
345.37	63.846
345.73	63.910
346.10	66.811
346.46	64.625
346.82	64.571
347.19	66.274
347.55	67.602
347.91	66.257
348.27	65.965
348.63	69.144
349.00	67.947
349.36	67.848
349.72	67.323
350.08	65.630
350.45	64.849
350.81	67.795
351.17	65.651
351.53	66.264
351.89	70.207
352.26	66.829
352.62	67.948
352.98	68.536
353.34	70.092
353.70	68.395
354.07	69.522
354.43	69.115
354.79	69.426
355.15	68.200
355.51	70.090
355.87	70.358
356.24	71.242
356.60	71.452
356.96	69.589
357.32	71.111
357.68	70.883
358.04	70.097
358.40	70.622
358.77	70.522
359.13	71.727
359.49	70.640
359.85	71.543
360.21	68.676
360.57	72.568
360.93	73.555
361.29	71.573
361.66	71.451
362.02	73.705
362.38	75.214
362.74	73.405
363.10	72.021
363.46	73.815
363.82	73.507
364.18	73.581
364.54	74.351
364.90	73.778
365.26	74.292
365.62	74.413
365.98	74.138
366.35	76.248
366.71	74.533
367.07	75.498
367.43	73.718
367.79	75.073
368.15	75.167
368.51	75.655
368.87	77.239
369.23	76.306
369.59	75.882
369.95	74.590
370.31	76.515
370.67	76.917
371.03	76.858
371.39	77.115
371.75	74.814
372.11	76.519
372.47	75.872
372.83	77.575
373.19	77.334
373.55	77.096
373.91	78.712
374.27	78.440
374.63	77.467
374.99	77.965
375.35	78.084
375.71	77.834
376.07	77.102
376.42	77.178
376.78	78.118
377.14	77.095
377.50	78.523
377.86	77.507
378.22	79.194
378.58	79.145
378.94	78.913
379.30	79.022
379.66	78.425
380.02	78.703
380.38	80.280
380.74	79.304
381.09	80.623
381.45	80.063
381.81	79.018
382.17	78.371
382.53	80.408
382.89	79.410
383.25	78.630
383.61	79.657
383.97	80.247
384.32	79.677
384.68	78.544
385.04	79.758
385.40	79.169
385.76	78.115
386.12	79.868
386.48	79.191
386.83	79.658
387.19	81.098
387.55	79.858
387.91	79.315
388.27	80.166
388.62	81.023
388.98	79.008
389.34	78.595
389.70	79.808
390.06	81.122
390.42	80.460
390.77	80.952
391.13	80.416
391.49	80.593
391.85	80.373
392.20	82.046
392.56	78.324
392.92	79.963
393.28	78.995
393.64	81.507
393.99	78.701
394.35	82.284
394.71	81.457
395.07	80.106
395.42	79.238
395.78	81.116
396.14	80.546
396.50	80.854
396.85	79.643
397.21	78.913
397.57	80.843
397.92	81.234
398.28	81.355
398.64	80.381
399.00	79.048
399.35	80.481
399.71	78.982
400.07	80.667
400.42	80.321
400.78	80.550
401.14	81.503
401.49	79.200
401.85	80.952
402.21	80.774
402.57	80.039
402.92	81.673
403.28	79.779
403.63	79.551
403.99	79.590
404.35	78.089
404.70	79.607
405.06	80.657
405.42	79.961
405.77	78.478
406.13	79.450
406.49	80.189
406.84	79.826
407.20	78.377
407.55	79.025
407.91	80.140
408.27	79.521
408.62	77.749
408.98	79.279
409.34	78.745
409.69	78.060
410.05	78.562
410.40	77.906
410.76	79.826
411.11	78.345
411.47	80.476
411.83	78.429
412.18	79.058
412.54	77.943
412.89	78.238
413.25	78.809
413.60	78.444
413.96	77.087
414.31	77.948
414.67	79.203
415.03	78.492
415.38	78.134
415.74	76.897
416.09	78.773
416.45	79.689
416.80	76.843
417.16	78.984
417.51	77.724
417.87	79.070
418.22	78.008
418.58	79.889
418.93	78.079
419.29	78.494
419.64	80.495
420.00	79.044
420.35	78.908
420.71	78.425
421.06	79.494
421.42	77.604
421.77	77.954
422.12	77.496
422.48	77.841
422.83	77.872
423.19	76.882
423.54	77.276
423.90	77.318
424.25	79.698
424.61	77.806
424.96	79.177
425.31	78.382
425.67	77.576
426.02	78.509
426.38	77.349
426.73	77.259
427.09	77.741
427.44	77.654
427.79	78.527
428.15	77.933
428.50	77.889
428.85	76.395
429.21	78.840
429.56	77.845
429.92	77.177
430.27	75.787
430.62	76.852
430.98	75.766
431.33	78.921
431.68	77.626
432.04	79.056
432.39	76.173
432.74	77.736
433.10	77.683
433.45	79.037
433.80	78.155
434.16	77.848
434.51	77.480
434.86	79.215
435.22	77.066
435.57	79.617
435.92	75.666
436.28	76.961
436.63	77.340
436.98	79.383
437.34	78.631
437.69	79.938
438.04	78.305
438.39	80.222
438.75	76.738
439.10	79.048
439.45	79.012
439.81	79.048
440.16	79.035
440.51	78.872
440.86	80.303
441.22	77.308
441.57	78.575
441.92	79.404
442.27	78.686
442.63	79.571
442.98	79.951
443.33	77.908
443.68	79.867
444.03	77.938
444.39	78.813
444.74	79.679
445.09	80.401
445.44	79.009
445.79	80.475
446.15	79.184
446.50	79.699
446.85	79.043
447.20	78.009
447.55	77.080
447.91	78.836
448.26	80.593
448.61	79.758
448.96	80.071
449.31	79.747
449.66	78.995
450.02	79.704
450.37	80.559
450.72	78.755
451.07	81.015
451.42	80.632
451.77	79.382
452.12	78.321
452.47	79.201
452.83	81.071
453.18	81.229
453.53	81.254
453.88	79.898
454.23	81.086
454.58	81.005
454.93	80.041
455.28	80.652
455.63	78.817
455.98	80.964
456.34	78.902
456.69	81.246
457.04	79.921
457.39	80.150
457.74	80.847
458.09	79.154
458.44	80.871
458.79	79.623
459.14	78.951
459.49	80.828
459.84	80.083
460.19	79.612
460.54	77.399
460.89	79.529
461.24	78.312
461.59	80.442
461.94	79.816
462.29	78.571
462.64	78.621
462.99	81.726
463.34	79.414
463.69	79.835
464.04	79.987
464.39	79.743
464.74	78.780
465.09	77.814
465.44	78.284
465.79	77.497
466.14	77.625
466.49	78.108
466.84	76.966
467.19	76.803
467.54	76.061
467.89	77.727
468.24	77.210
468.59	76.963
468.94	78.144
469.29	79.377
469.64	78.410
469.99	78.082
470.34	78.076
470.68	78.692
471.03	75.912
471.38	79.506
471.73	78.198
472.08	78.363
472.43	78.423
472.78	78.245
473.13	77.965
473.48	78.147
473.83	78.930
474.17	78.052
474.52	78.299
474.87	77.841
475.22	79.288
475.57	77.027
475.92	77.487
476.27	75.889
476.61	76.891
476.96	77.475
477.31	77.740
477.66	77.397
478.01	79.105
478.36	77.249
478.70	78.479
479.05	77.133
479.40	77.446
479.75	77.510
480.10	77.489
480.45	78.220
480.79	75.714
481.14	76.331
481.49	76.247
481.84	76.566
482.19	76.195
482.53	75.833
482.88	77.326
483.23	76.432
483.58	75.941
483.92	75.327
484.27	76.476
484.62	75.436
484.97	74.692
485.31	74.749
485.66	74.260
486.01	72.273
486.36	72.341
486.70	72.615
487.05	73.547
487.40	73.529
487.75	72.688
488.09	72.776
488.44	73.091
488.79	72.706
489.13	73.774
489.48	73.542
489.83	74.434
490.17	74.871
490.52	74.044
490.87	75.865
491.22	75.247
491.56	74.308
491.91	74.347
492.26	76.492
492.60	75.612
492.95	74.743
493.30	75.327
493.64	75.406
493.99	75.719
494.34	75.317
494.68	75.719
495.03	74.341
495.37	74.303
495.72	76.002
496.07	74.189
496.41	73.864
496.76	72.636
497.11	73.658
497.45	74.787
497.80	73.988
498.14	74.023
498.49	75.921
498.84	73.899
499.18	74.728
499.53	73.416
499.87	73.579
500.22	74.338
500.56	74.254
500.91	76.036
501.26	73.648
501.60	73.649
501.95	74.565
502.29	74.654
502.64	71.976
502.98	73.044
503.33	72.441
503.67	73.405
504.02	74.311
504.36	73.549
504.71	74.255
505.06	73.648
505.40	72.815
505.75	71.827
506.09	74.052
506.44	74.678
506.78	73.394
507.13	73.018
507.47	74.072
507.82	71.987
508.16	74.109
508.51	74.015
508.85	74.176
509.19	74.547
509.54	73.654
509.88	73.475
510.23	73.708
510.57	74.957
510.92	74.490
511.26	73.119
511.61	73.687
511.95	72.065
512.30	73.623
512.64	72.493
512.98	74.070
513.33	71.923
513.67	72.635
514.02	74.099
514.36	73.606
514.70	74.681
515.05	74.329
515.39	74.780
515.74	74.937
516.08	74.827
516.42	75.886
516.77	74.161
517.11	73.089
517.46	73.142
517.80	75.941
518.14	74.826
518.49	76.132
518.83	76.783
519.17	74.165
519.52	74.453
519.86	74.731
520.20	73.376
520.55	75.000
520.89	76.518
521.23	75.084
521.58	73.677
521.92	74.499
522.26	75.601
522.61	75.973
522.95	74.110
523.29	74.426
523.64	74.830
523.98	73.790
524.32	75.960
524.66	75.935
525.01	76.014
525.35	74.077
525.69	74.054
526.04	75.828
526.38	74.503
526.72	76.597
527.06	76.371
527.41	75.124
527.75	77.315
528.09	73.762
528.43	74.699
528.78	75.681
529.12	73.836
529.46	74.551
529.80	73.383
530.15	74.357
530.49	73.919
530.83	75.199
531.17	74.294
531.51	75.232
531.86	73.529
532.20	73.665
532.54	74.820
532.88	72.945
533.22	72.414
533.57	73.241
533.91	74.398
534.25	73.863
534.59	74.897
534.93	72.868
535.27	71.515
535.62	72.451
535.96	72.296
536.30	72.373
536.64	73.319
536.98	73.525
537.32	74.628
537.66	73.534
538.01	73.490
538.35	72.945
538.69	71.267
539.03	71.233
539.37	71.931
539.71	73.188
540.05	73.082
540.39	71.968
540.73	73.700
541.07	72.426
541.42	72.559
541.76	72.014
542.10	72.310
542.44	72.110
542.78	70.968
543.12	69.964
543.46	73.025
543.80	71.122
544.14	71.613
544.48	71.789
544.82	71.043
545.16	73.478
545.50	71.834
545.84	70.666
546.18	71.910
546.52	73.174
546.86	72.226
547.20	72.500
547.54	70.887
547.88	70.085
548.22	71.238
548.56	71.177
548.90	69.474
549.24	69.737
549.58	71.833
549.92	69.774
550.26	72.124
550.60	72.958
550.94	72.381
551.28	71.138
551.62	72.400
551.96	71.166
552.30	71.550
552.64	70.023
552.98	70.877
553.32	70.076
553.66	70.941
554.00	72.046
554.34	72.031
554.68	73.206
555.02	70.952
555.36	70.770
555.69	67.948
556.03	68.514
556.37	69.617
556.71	70.588
557.05	70.547
557.39	69.799
557.73	71.541
558.07	69.405
558.41	69.433
558.75	71.867
559.08	70.979
559.42	71.906
559.76	71.356
560.10	70.823
560.44	69.596
560.78	70.098
561.12	68.745
561.45	70.685
561.79	68.649
562.13	70.126
562.47	69.878
562.81	69.674
563.15	68.897
563.48	68.764
563.82	66.958
564.16	66.763
564.50	69.198
564.84	67.399
565.17	67.239
565.51	69.317
565.85	68.099
566.19	67.989
566.52	69.964
566.86	67.350
567.20	68.530
567.54	67.900
567.88	66.141
568.21	65.826
568.55	65.761
568.89	66.429
569.23	65.663
569.56	64.874
569.90	64.154
570.24	63.593
570.57	63.017
570.91	62.009
571.25	62.603
571.59	61.410
571.92	60.124
572.26	60.475
572.60	60.712
572.93	61.035
573.27	60.091
573.61	60.910
573.95	60.905
574.28	59.117
574.62	58.477
574.96	59.739
575.29	58.802
575.63	58.660
575.97	58.718
576.30	59.370
576.64	59.068
576.98	59.589
577.31	58.827
577.65	59.478
577.98	57.735
578.32	57.799
578.66	58.545
578.99	59.069
579.33	58.093
579.67	58.242
580.00	58.204
580.34	58.007
580.67	58.164
581.01	58.730
581.35	56.777
581.68	57.531
582.02	57.102
582.35	56.878
582.69	57.312
583.02	57.812
583.36	57.493
583.70	58.525
584.03	58.097
584.37	57.950
584.70	58.383
585.04	56.958
585.37	56.402
585.71	57.654
586.04	57.069
586.38	57.968
586.72	57.168
587.05	58.030
587.39	57.537
587.72	57.877
588.06	57.920
588.39	58.253
588.73	58.214
589.06	57.825
589.40	58.465
589.73	58.527
590.07	58.420
590.40	58.007
590.73	59.142
591.07	58.918
591.40	59.388
591.74	59.701
592.07	59.360
592.41	60.778
592.74	59.991
593.08	58.340
593.41	58.108
593.75	57.836
594.08	57.883
594.41	58.252
594.75	58.379
595.08	57.694
595.42	57.379
595.75	57.879
596.09	58.527
596.42	58.478
596.75	60.045
597.09	58.722
597.42	58.329
597.75	59.475
598.09	57.772
598.42	58.495
598.76	58.880
599.09	57.521
599.42	55.862
599.76	57.513
600.09	57.968
600.42	56.563
600.76	57.044
601.09	57.451
601.42	57.206
601.76	57.468
602.09	57.143
602.42	58.228
602.76	56.850
603.09	58.660
603.42	58.773
603.76	57.616
604.09	57.853
604.42	56.720
604.76	58.466
605.09	56.967
605.42	58.815
605.75	56.601
606.09	58.311
606.42	57.655
606.75	57.638
607.09	58.349
607.42	57.962
607.75	57.025
608.08	56.829
608.42	57.856
608.75	58.329
609.08	55.830
609.41	58.009
609.75	57.715
610.08	56.537
610.41	58.015
610.74	57.078
611.07	58.382
611.41	58.458
611.74	58.705
612.07	57.924
612.40	56.602
612.73	57.928
613.07	58.544
613.40	57.332
613.73	57.789
614.06	58.958
614.39	57.001
614.72	58.146
615.06	57.635
615.39	56.755
615.72	57.503
616.05	56.232
616.38	57.177
616.71	57.152
617.05	56.595
617.38	57.548
617.71	59.046
618.04	59.198
618.37	59.058
618.70	58.492
619.03	60.044
619.36	59.057
619.69	60.886
620.03	61.098
620.36	59.637
620.69	59.054
621.02	59.937
621.35	61.532
621.68	61.836
622.01	62.210
622.34	61.223
622.67	60.708
623.00	61.671
623.33	60.787
623.66	61.594
623.99	59.330
624.32	59.174
624.65	58.203
624.99	58.281
625.32	59.163
625.65	59.247
625.98	60.417
626.31	60.000
626.64	59.550
626.97	62.500
627.30	60.926
627.63	61.302
627.96	62.011
628.29	62.620
628.62	62.474
628.95	61.985
629.28	62.810
629.61	62.591
629.94	61.722
630.26	63.389
630.59	62.827
630.92	61.328
631.25	63.687
631.58	63.023
631.91	63.212
632.24	64.615
632.57	64.566
632.90	67.159
633.23	66.452
633.56	63.899
633.89	65.831
634.22	66.154
634.55	64.258
634.88	64.659
635.20	66.986
635.53	67.877
