SpectraSuite Data File
++++++++++++++++++++++++++++++++++++
Date: Tue May 12 19:38:13 PDT 2015
User: schluterlab
Dark Spectrum Present: Yes
Reference Spectrum Present: Yes
Number of Sampled Component Spectra: 1
Spectrometers: USB2E3373
Integration Time (usec): 3000 (USB2E3373)
Spectra Averaged: 3 (USB2E3373)
Boxcar Smoothing: 0 (USB2E3373)
Correct for Electrical Dark: No (USB2E3373)
Strobe/Lamp Enabled: No (USB2E3373)
Correct for Detector Non-linearity: No (USB2E3373)
Correct for Stray Light: No (USB2E3373)
Number of Pixels in Processed Spectrum: 2048
>>>>>Begin Processed Spectral Data<<<<<
178.53	0.000
178.91	-90.000
179.29	-166.667
179.67	33.333
180.04	0.000
180.42	-160.000
180.80	-366.667
181.18	650.000
181.56	-300.000
181.94	316.667
182.31	800.000
182.69	-28.571
183.07	0.000
183.45	166.667
183.83	180.000
184.20	266.667
184.58	750.000
184.96	233.333
185.34	-333.333
185.72	64.286
186.09	-83.333
186.47	0.000
186.85	40.000
187.23	133.333
187.61	-171.429
187.98	-140.000
188.36	400.000
188.74	-225.000
189.12	0.000
189.49	-70.000
189.87	25.000
190.25	100.000
190.63	533.333
191.00	80.000
191.38	-333.333
191.76	160.000
192.14	-28.571
192.51	10.000
192.89	280.000
193.27	-220.000
193.65	-166.667
194.02	-33.333
194.40	200.000
194.78	-62.500
195.15	-271.429
195.53	233.333
195.91	120.000
196.29	-125.000
196.66	0.000
197.04	-42.857
197.42	200.000
197.79	-50.000
198.17	-66.667
198.55	400.000
198.92	-155.556
199.30	300.000
199.68	-50.000
200.05	-450.000
200.43	-33.333
200.81	-25.000
201.18	216.667
201.56	-100.000
201.94	-1100.000
202.31	-50.000
202.69	133.333
203.07	-75.000
203.44	-325.000
203.82	0.000
204.19	175.000
204.57	-400.000
204.95	109.091
205.32	100.000
205.70	250.000
206.08	-300.000
206.45	-120.000
206.83	1300.000
207.20	-122.222
207.58	46.154
207.96	333.333
208.33	533.333
208.71	266.667
209.08	250.000
209.46	77.778
209.84	333.333
210.21	-300.000
210.59	50.000
210.96	255.556
211.34	-225.000
211.71	800.000
212.09	100.000
212.46	-12.500
212.84	0.000
213.22	71.429
213.59	-100.000
213.97	0.000
214.34	-250.000
214.72	-1000.000
215.09	-150.000
215.47	26.667
215.84	50.000
216.22	-1100.000
216.59	500.000
216.97	50.000
217.34	116.667
217.72	77.778
218.09	75.000
218.47	-42.105
218.84	-50.000
219.22	14.286
219.59	0.000
219.97	-20.000
220.34	150.000
220.72	154.545
221.09	-700.000
221.47	0.000
221.84	600.000
222.22	-375.000
222.59	75.000
222.97	-34.783
223.34	106.667
223.72	328.571
224.09	-150.000
224.46	123.077
224.84	-33.333
225.21	-100.000
225.59	-200.000
225.96	15.000
226.34	166.667
226.71	220.000
227.08	15.385
227.46	-42.857
227.83	-41.667
228.21	150.000
228.58	-66.667
228.95	10.526
229.33	6.250
229.70	-150.000
230.08	-88.889
230.45	-500.000
230.82	200.000
231.20	-4.762
231.57	-280.000
231.95	33.333
232.32	166.667
232.69	350.000
233.07	100.000
233.44	-137.500
233.81	45.161
234.19	-320.000
234.56	-11.111
234.93	-66.667
235.31	18.519
235.68	7.407
236.05	38.462
236.43	31.579
236.80	-22.727
237.17	-21.429
237.55	-15.000
237.92	51.163
238.29	16.129
238.67	35.714
239.04	8.571
239.41	27.451
239.79	20.000
240.16	12.500
240.53	8.621
240.91	13.699
241.28	5.634
241.65	46.875
242.02	5.263
242.40	32.000
242.77	36.842
243.14	31.765
243.51	26.882
243.89	25.714
244.26	34.259
244.63	22.449
245.00	21.429
245.38	19.328
245.75	29.661
246.12	31.250
246.49	24.000
246.87	34.426
247.24	22.535
247.61	23.841
247.98	28.652
248.36	33.962
248.73	28.977
249.10	22.778
249.47	25.521
249.84	27.411
250.22	23.958
250.59	35.393
250.96	30.455
251.33	30.189
251.70	29.358
252.08	32.468
252.45	30.204
252.82	24.473
253.19	24.514
253.56	29.412
253.94	30.081
254.31	34.532
254.68	29.861
255.05	29.801
255.42	32.000
255.79	33.775
256.16	26.389
256.54	29.697
256.91	29.808
257.28	31.169
257.65	29.836
258.02	31.832
258.39	29.305
258.76	32.722
259.14	28.529
259.51	30.704
259.88	33.141
260.25	29.261
260.62	26.966
260.99	31.476
261.36	29.598
261.73	28.533
262.10	33.515
262.47	28.926
262.85	33.676
263.22	29.839
263.59	30.831
263.96	28.198
264.33	26.685
264.70	30.958
265.07	31.773
265.44	29.508
265.81	36.627
266.18	28.571
266.55	31.429
266.92	32.366
267.29	30.444
267.66	28.182
268.03	30.968
268.40	32.952
268.77	31.849
269.14	30.252
269.51	28.959
269.88	30.556
270.25	30.591
270.62	31.092
270.99	32.632
271.36	29.581
271.73	27.917
272.10	33.195
272.47	30.600
272.84	28.875
273.21	31.106
273.58	28.367
273.95	29.681
274.32	30.174
274.69	30.333
275.06	30.769
275.43	28.000
275.80	31.166
276.17	29.051
276.54	29.278
276.91	32.630
277.28	29.400
277.65	28.355
278.02	30.114
278.39	28.857
278.76	29.981
279.13	31.485
279.50	29.783
279.87	27.547
280.23	30.419
280.60	27.208
280.97	27.768
281.34	28.305
281.71	26.998
282.08	25.760
282.45	28.042
282.82	28.620
283.19	31.313
283.56	31.741
283.92	28.278
284.29	28.934
284.66	30.088
285.03	24.871
285.40	27.500
285.77	28.736
286.14	27.892
286.51	28.296
286.87	27.553
287.24	28.526
287.61	27.006
287.98	29.264
288.35	26.512
288.72	28.440
289.08	25.472
289.45	26.365
289.82	25.621
290.19	26.667
290.56	28.220
290.93	24.815
291.29	26.241
291.66	25.421
292.03	26.542
292.40	26.619
292.77	25.510
293.13	25.110
293.50	26.860
293.87	25.381
294.24	24.579
294.60	25.546
294.97	24.377
295.34	22.466
295.71	23.856
296.08	22.951
296.44	24.769
296.81	23.286
297.18	24.709
297.55	22.613
297.91	23.477
298.28	23.529
298.65	22.122
299.02	22.195
299.38	22.194
299.75	23.681
300.12	22.422
300.48	23.592
300.85	22.127
301.22	23.438
301.59	23.114
301.95	23.659
302.32	21.385
302.69	20.809
303.05	23.495
303.42	22.585
303.79	22.022
304.15	22.877
304.52	21.229
304.89	23.224
305.25	22.821
305.62	22.386
305.99	21.165
306.35	22.819
306.72	22.658
307.09	21.654
307.45	20.928
307.82	21.345
308.19	22.442
308.55	22.890
308.92	21.822
309.29	21.862
309.65	23.323
310.02	21.803
310.38	23.134
310.75	23.258
311.12	22.686
311.48	22.097
311.85	21.783
312.22	22.934
312.58	23.766
312.95	23.511
313.31	23.206
313.68	22.344
314.05	26.514
314.41	23.870
314.78	24.422
315.14	24.878
315.51	25.621
315.87	25.293
316.24	25.420
316.61	26.990
316.97	26.765
317.34	26.316
317.70	25.490
318.07	27.580
318.43	27.127
318.80	28.415
319.16	27.120
319.53	30.189
319.89	29.261
320.26	31.170
320.62	31.298
320.99	31.735
321.35	32.708
321.72	32.727
322.08	34.851
322.45	35.602
322.81	35.468
323.18	35.858
323.54	36.398
323.91	36.907
324.27	38.187
324.64	39.269
325.00	40.673
325.37	43.435
325.73	42.609
326.10	42.382
326.46	45.784
326.83	47.054
327.19	48.297
327.56	50.752
327.92	49.566
328.29	49.731
328.65	52.637
329.01	52.936
329.38	54.454
329.74	53.482
330.11	53.029
330.47	56.238
330.84	54.887
331.20	57.579
331.56	57.358
331.93	57.731
332.29	57.909
332.66	58.409
333.02	58.310
333.38	59.467
333.75	59.744
334.11	61.302
334.48	59.481
334.84	61.127
335.20	59.534
335.57	62.398
335.93	62.047
336.29	62.066
336.66	63.115
337.02	62.194
337.38	63.585
337.75	65.182
338.11	62.625
338.47	63.788
338.84	62.983
339.20	62.786
339.56	64.026
339.93	64.054
340.29	62.829
340.65	64.110
341.02	64.482
341.38	62.930
341.74	64.680
342.11	64.810
342.47	64.248
342.83	63.140
343.20	65.252
343.56	64.073
343.92	64.654
344.28	62.178
344.65	65.925
345.01	63.937
345.37	62.735
345.73	64.686
346.10	65.428
346.46	64.280
346.82	64.911
347.19	64.087
347.55	66.412
347.91	64.373
348.27	65.712
348.63	65.169
349.00	66.694
349.36	64.880
349.72	66.010
350.08	63.748
350.45	64.117
350.81	64.988
351.17	65.404
351.53	62.641
351.89	65.630
352.26	63.902
352.62	64.513
352.98	67.364
353.34	64.996
353.70	65.679
354.07	67.051
354.43	65.860
354.79	65.902
355.15	64.407
355.51	66.911
355.87	66.611
356.24	66.830
356.60	67.195
356.96	64.771
357.32	66.996
357.68	65.473
358.04	67.099
358.40	65.630
358.77	66.426
359.13	66.345
359.49	66.000
359.85	67.626
360.21	65.266
360.57	66.427
360.93	67.775
361.29	66.667
361.66	64.826
362.02	67.111
362.38	68.687
362.74	67.948
363.10	67.119
363.46	66.591
363.82	66.922
364.18	68.660
364.54	67.328
364.90	68.000
365.26	67.809
365.62	68.736
365.98	68.366
366.35	68.306
366.71	68.484
367.07	68.339
367.43	67.726
367.79	65.988
368.15	68.050
368.51	69.813
368.87	70.558
369.23	68.812
369.59	69.191
369.95	68.256
370.31	68.864
370.67	67.820
371.03	69.272
371.39	70.091
371.75	68.425
372.11	68.667
372.47	66.741
372.83	69.759
373.19	68.675
373.55	68.413
373.91	68.258
374.27	70.125
374.63	68.557
374.99	69.034
375.35	69.231
375.71	68.508
376.07	68.834
376.42	69.917
376.78	71.010
377.14	67.947
377.50	69.357
377.86	68.733
378.22	70.674
378.58	69.276
378.94	69.614
379.30	68.533
379.66	68.630
380.02	69.803
380.38	69.529
380.74	69.049
381.09	68.869
381.45	70.286
381.81	69.834
382.17	69.577
382.53	70.480
382.89	70.558
383.25	68.358
383.61	69.167
383.97	70.045
384.32	68.194
384.68	70.051
385.04	70.210
385.40	68.498
385.76	68.248
386.12	69.043
386.48	69.798
386.83	69.717
387.19	68.327
387.55	68.847
387.91	69.034
388.27	68.074
388.62	69.301
388.98	68.003
389.34	68.445
389.70	69.295
390.06	67.921
390.42	69.777
390.77	68.947
391.13	69.486
391.49	70.553
391.85	69.261
392.20	69.307
392.56	67.583
392.92	68.398
393.28	67.624
393.64	69.094
393.99	69.026
394.35	68.462
394.71	68.742
395.07	68.899
395.42	67.937
395.78	68.616
396.14	69.087
396.50	68.629
396.85	67.812
397.21	68.176
397.57	68.400
397.92	68.702
398.28	68.585
398.64	67.683
399.00	66.976
399.35	67.233
399.71	65.988
400.07	66.893
400.42	68.397
400.78	68.266
401.14	66.604
401.49	67.270
401.85	67.492
402.21	67.893
402.57	65.422
402.92	69.456
403.28	68.531
403.63	66.474
403.99	65.786
404.35	66.879
404.70	65.674
405.06	67.018
405.42	66.818
405.77	67.479
406.13	65.950
406.49	66.940
406.84	66.127
407.20	66.047
407.55	65.865
407.91	66.294
408.27	66.489
408.62	64.695
408.98	66.345
409.34	66.453
409.69	65.619
410.05	65.997
410.40	64.611
410.76	65.442
411.11	64.835
411.47	66.599
411.83	64.778
412.18	64.202
412.54	65.783
412.89	64.961
413.25	66.019
413.60	65.370
413.96	65.049
414.31	63.799
414.67	67.387
415.03	64.592
415.38	66.504
415.74	64.070
416.09	65.196
416.45	65.747
416.80	64.882
417.16	65.092
417.51	66.065
417.87	65.321
418.22	65.241
418.58	65.515
418.93	64.217
419.29	64.790
419.64	67.033
420.00	66.143
420.35	65.474
420.71	64.597
421.06	66.905
421.42	66.499
421.77	66.443
422.12	64.678
422.48	64.592
422.83	64.742
423.19	65.235
423.54	65.608
423.90	65.328
424.25	66.586
424.61	66.129
424.96	64.681
425.31	66.787
425.67	65.939
426.02	66.335
426.38	65.251
426.73	66.231
427.09	66.382
427.44	66.728
427.79	66.955
428.15	66.202
428.50	67.023
428.85	65.619
429.21	67.244
429.56	65.746
429.92	65.657
430.27	65.173
430.62	66.306
430.98	65.234
431.33	67.186
431.68	66.083
432.04	66.456
432.39	64.765
432.74	64.769
433.10	67.859
433.45	67.384
433.80	67.321
434.16	66.743
434.51	66.332
434.86	66.647
435.22	67.055
435.57	68.865
435.92	66.006
436.28	65.504
436.63	66.369
436.98	67.222
437.34	68.074
437.69	67.469
438.04	67.368
438.39	68.407
438.75	68.308
439.10	68.631
439.45	69.769
439.81	69.079
440.16	68.831
440.51	67.720
440.86	68.624
441.22	67.659
441.57	67.749
441.92	69.133
442.27	68.000
442.63	68.228
442.98	71.027
443.33	68.390
443.68	68.774
444.03	67.784
444.39	67.517
444.74	67.315
445.09	69.953
445.44	68.222
445.79	68.770
446.15	67.930
446.50	68.248
446.85	69.692
447.20	67.615
447.55	66.899
447.91	69.018
448.26	69.258
448.61	68.218
448.96	67.357
449.31	68.174
449.66	68.281
450.02	67.278
450.37	68.530
450.72	67.624
451.07	69.809
451.42	69.763
451.77	67.528
452.12	68.170
452.47	68.835
452.83	69.676
453.18	69.142
453.53	69.693
453.88	69.432
454.23	69.521
454.58	70.561
454.93	68.460
455.28	71.215
455.63	69.721
455.98	69.543
456.34	71.467
456.69	70.481
457.04	69.357
457.39	69.663
457.74	70.417
458.09	68.575
458.44	69.957
458.79	68.492
459.14	68.217
459.49	68.981
459.84	69.501
460.19	69.231
460.54	67.551
460.89	68.000
461.24	68.831
461.59	70.095
461.94	69.231
462.29	70.489
462.64	69.638
462.99	72.516
463.34	69.304
463.69	70.302
464.04	69.981
464.39	70.868
464.74	67.943
465.09	68.553
465.44	69.766
465.79	69.073
466.14	68.019
466.49	68.531
466.84	68.182
467.19	68.551
467.54	67.175
467.89	70.216
468.24	68.813
468.59	67.736
468.94	69.805
469.29	69.619
469.64	71.043
469.99	68.854
470.34	67.751
470.68	69.846
471.03	69.197
471.38	69.783
471.73	69.404
472.08	70.463
472.43	70.124
472.78	69.253
473.13	68.912
473.48	69.364
473.83	69.287
474.17	68.112
474.52	69.993
474.87	68.497
475.22	69.504
475.57	69.330
475.92	68.846
476.27	68.716
476.61	68.853
476.96	70.124
477.31	68.607
477.66	69.146
478.01	69.688
478.36	68.481
478.70	70.423
479.05	69.762
479.40	68.380
479.75	69.994
480.10	69.102
480.45	69.895
480.79	69.175
481.14	70.005
481.49	69.203
481.84	70.101
482.19	69.317
482.53	68.971
482.88	69.649
483.23	69.698
483.58	68.614
483.92	68.543
484.27	68.925
484.62	68.694
484.97	68.366
485.31	67.556
485.66	67.633
486.01	64.780
486.36	64.787
486.70	65.455
487.05	66.303
487.40	66.508
487.75	65.159
488.09	65.539
488.44	67.716
488.79	66.705
489.13	68.329
489.48	68.330
489.83	68.100
490.17	69.480
490.52	68.021
490.87	68.645
491.22	68.738
491.56	68.676
491.91	69.026
492.26	69.964
492.60	69.643
492.95	69.045
493.30	69.838
493.64	69.523
493.99	70.483
494.34	69.742
494.68	68.434
495.03	68.256
495.37	68.474
495.72	68.882
496.07	69.320
496.41	68.923
496.76	67.431
497.11	69.522
497.45	69.864
497.80	69.211
498.14	69.588
498.49	69.728
498.84	69.078
499.18	68.812
499.53	69.574
499.87	68.510
500.22	70.182
500.56	69.388
500.91	69.324
501.26	69.501
501.60	68.349
501.95	68.680
502.29	70.139
502.64	67.546
502.98	68.854
503.33	67.898
503.67	67.534
504.02	69.714
504.36	67.488
504.71	68.511
505.06	68.666
505.40	68.204
505.75	68.931
506.09	69.502
506.44	69.313
506.78	69.004
507.13	70.033
507.47	70.859
507.82	68.583
508.16	69.766
508.51	69.858
508.85	69.341
509.19	69.775
509.54	70.482
509.88	69.850
510.23	69.551
510.57	69.392
510.92	70.181
511.26	69.558
511.61	70.148
511.95	71.602
512.30	70.203
512.64	68.680
512.98	70.939
513.33	68.699
513.67	68.683
514.02	70.913
514.36	70.819
514.70	71.888
515.05	71.585
515.39	71.518
515.74	69.549
516.08	71.375
516.42	71.287
516.77	70.807
517.11	71.376
517.46	71.643
517.80	72.942
518.14	70.462
518.49	72.510
518.83	72.698
519.17	71.272
519.52	71.081
519.86	73.211
520.20	70.828
520.55	73.629
520.89	73.414
521.23	71.610
521.58	72.487
521.92	73.231
522.26	73.746
522.61	73.311
522.95	73.836
523.29	72.874
523.64	73.677
523.98	71.573
524.32	73.603
524.66	72.536
525.01	73.333
525.35	74.282
525.69	73.228
526.04	75.053
526.38	73.681
526.72	73.681
527.06	73.277
527.41	73.707
527.75	74.300
528.09	72.419
528.43	72.218
528.78	73.235
529.12	72.123
529.46	72.625
529.80	72.907
530.15	73.176
530.49	73.640
530.83	72.379
531.17	72.669
531.51	73.519
531.86	71.919
532.20	71.573
532.54	71.367
532.88	74.182
533.22	74.138
533.57	71.034
533.91	73.434
534.25	71.215
534.59	73.521
534.93	70.584
535.27	72.054
535.62	71.236
535.96	71.947
536.30	72.164
536.64	74.106
536.98	74.558
537.32	73.289
537.66	70.601
538.01	73.711
538.35	71.782
538.69	72.045
539.03	70.656
539.37	70.854
539.71	73.043
540.05	72.287
540.39	71.314
540.73	72.527
541.07	70.956
541.42	70.777
541.76	72.014
542.10	71.879
542.44	71.171
542.78	70.748
543.12	70.181
543.46	70.864
543.80	69.764
544.14	71.685
544.48	71.509
544.82	71.256
545.16	72.464
545.50	72.052
545.84	71.690
546.18	71.685
546.52	72.175
546.86	71.844
547.20	72.576
547.54	70.432
547.88	70.014
548.22	69.269
548.56	71.388
548.90	69.474
549.24	71.053
549.58	71.311
549.92	71.053
550.26	70.116
550.60	72.879
550.94	72.381
551.28	71.545
551.62	74.283
551.96	72.444
552.30	70.698
552.64	71.600
552.98	70.505
553.32	70.000
553.66	70.865
554.00	72.819
554.34	70.781
554.68	71.372
555.02	70.317
555.36	70.294
555.69	70.561
556.03	68.514
556.37	69.617
556.71	69.382
557.05	71.172
557.39	70.522
557.73	70.283
558.07	71.440
558.41	71.349
558.75	71.950
559.08	71.489
559.42	71.990
559.76	72.367
560.10	73.350
560.44	69.755
560.78	70.548
561.12	70.173
561.45	71.429
561.79	67.621
562.13	70.645
562.47	71.407
562.81	68.613
563.15	69.430
563.48	68.240
563.82	68.850
564.16	67.054
564.50	67.693
564.84	67.753
565.17	68.884
565.51	68.473
565.85	66.972
566.19	69.589
566.52	70.323
566.86	67.350
567.20	67.665
567.54	67.581
567.88	65.716
568.21	65.944
568.55	64.686
568.89	65.989
569.23	64.960
569.56	63.862
569.90	63.469
570.24	63.318
570.57	62.942
570.91	62.009
571.25	61.501
571.59	61.180
571.92	59.938
572.26	60.012
572.60	60.423
572.93	60.609
573.27	59.572
573.61	59.734
573.95	59.321
574.28	58.869
574.62	58.346
574.96	59.140
575.29	58.183
575.63	57.860
575.97	57.999
576.30	58.618
576.64	58.324
576.98	58.736
577.31	58.725
577.65	58.711
577.98	57.146
578.32	57.241
578.66	56.560
578.99	58.325
579.33	57.453
579.67	57.564
580.00	57.710
580.34	57.321
580.67	57.121
581.01	57.933
581.35	55.969
581.68	56.646
582.02	56.383
582.35	56.311
582.69	56.482
583.02	57.078
583.36	56.857
583.70	57.714
584.03	57.095
584.37	57.865
584.70	57.730
585.04	56.501
585.37	56.913
585.71	56.470
586.04	57.147
586.38	57.641
586.72	57.904
587.05	58.001
587.39	56.675
587.72	57.099
588.06	57.023
588.39	58.136
588.73	58.276
589.06	58.122
589.40	58.325
589.73	58.452
590.07	57.724
590.40	58.244
590.73	59.142
591.07	58.658
591.40	59.114
591.74	58.162
592.07	59.026
592.41	59.372
592.74	58.884
593.08	57.062
593.41	57.971
593.75	57.162
594.08	57.133
594.41	57.310
594.75	57.713
595.08	58.278
595.42	56.215
595.75	57.197
596.09	57.926
596.42	57.674
596.75	59.364
597.09	57.929
597.42	57.485
597.75	59.146
598.09	57.818
598.42	57.974
598.76	57.696
599.09	57.185
599.42	55.822
599.76	57.160
600.09	57.256
600.42	56.523
600.76	55.466
601.09	56.980
601.42	55.958
601.76	56.656
602.09	56.933
602.42	57.751
602.76	57.504
603.09	56.789
603.42	57.922
603.76	57.700
604.09	57.018
604.42	57.235
604.76	57.052
605.09	56.967
605.42	56.256
605.75	57.469
606.09	57.822
606.42	56.868
606.75	56.661
607.09	58.302
607.42	57.733
607.75	55.647
608.08	57.203
608.42	57.371
608.75	56.928
609.08	56.588
609.41	58.735
609.75	57.135
610.08	55.969
610.41	57.303
610.74	57.179
611.07	57.324
611.41	57.173
611.74	57.835
612.07	57.031
612.40	56.880
612.73	57.812
613.07	57.663
613.40	58.194
613.73	57.560
614.06	56.909
614.39	58.875
614.72	57.615
615.06	58.037
615.39	56.351
615.72	56.831
616.05	57.275
616.38	56.880
616.71	56.281
617.05	57.852
617.38	57.677
617.71	59.308
618.04	59.067
618.37	59.843
618.70	59.239
619.03	60.696
619.36	59.573
619.69	58.631
620.03	61.327
620.36	60.847
620.69	59.645
621.02	59.541
621.35	60.681
621.68	62.016
622.01	61.141
622.34	60.218
622.67	59.865
623.00	59.951
623.33	60.079
623.66	61.195
623.99	59.410
624.32	59.968
624.65	58.359
624.99	58.672
625.32	59.005
625.65	58.207
625.98	60.333
626.31	58.615
626.64	60.721
626.97	61.673
627.30	62.130
627.63	60.372
627.96	61.359
628.29	61.568
628.62	61.237
628.95	61.246
629.28	61.260
629.61	63.218
629.94	63.382
630.26	61.088
630.59	62.723
630.92	60.485
631.25	63.352
631.58	63.605
631.91	63.895
632.24	65.680
632.57	65.517
632.90	67.405
633.23	66.194
