SpectraSuite Data File
++++++++++++++++++++++++++++++++++++
Date: Tue May 12 19:59:43 PDT 2015
User: schluterlab
Dark Spectrum Present: Yes
Reference Spectrum Present: Yes
Number of Sampled Component Spectra: 1
Spectrometers: USB2E3373
Integration Time (usec): 3000 (USB2E3373)
Spectra Averaged: 3 (USB2E3373)
Boxcar Smoothing: 0 (USB2E3373)
Correct for Electrical Dark: No (USB2E3373)
Strobe/Lamp Enabled: No (USB2E3373)
Correct for Detector Non-linearity: No (USB2E3373)
Correct for Stray Light: No (USB2E3373)
Number of Pixels in Processed Spectrum: 2048
>>>>>Begin Processed Spectral Data<<<<<
178.53	0.000
178.91	-140.000
179.29	-166.667
179.67	500.000
180.04	0.000
180.42	-320.000
180.80	-633.333
181.18	1000.000
181.56	-800.000
181.94	250.000
182.31	1900.000
182.69	-185.714
183.07	0.000
183.45	216.667
183.83	460.000
184.20	300.000
184.58	1000.000
184.96	483.333
185.34	-400.000
185.72	-107.143
186.09	-183.333
186.47	-2000.000
186.85	-340.000
187.23	175.000
187.61	-285.714
187.98	-460.000
188.36	700.000
188.74	-600.000
189.12	-177.778
189.49	-140.000
189.87	600.000
190.25	255.556
190.63	833.333
191.00	500.000
191.38	-533.333
191.76	540.000
192.14	-185.714
192.51	-150.000
192.89	-260.000
193.27	-280.000
193.65	-466.667
194.02	-350.000
194.40	1300.000
194.78	-175.000
195.15	-385.714
195.53	333.333
195.91	360.000
196.29	-700.000
196.66	-466.667
197.04	-257.143
197.42	180.000
197.79	-325.000
198.17	-133.333
198.55	-1100.000
198.92	-266.667
199.30	800.000
199.68	-450.000
200.05	-1500.000
200.43	-77.778
200.81	-141.667
201.18	500.000
201.56	-1000.000
201.94	-1600.000
202.31	-108.333
202.69	-211.111
203.07	-166.667
203.44	-575.000
203.82	0.000
204.19	462.500
204.57	-800.000
204.95	154.545
205.32	500.000
205.70	525.000
206.08	-1600.000
206.45	-200.000
206.83	1700.000
207.20	-111.111
207.58	-92.308
207.96	600.000
208.33	933.333
208.71	733.333
209.08	750.000
209.46	-66.667
209.84	733.333
210.21	-1000.000
210.59	850.000
210.96	288.889
211.34	-525.000
211.71	1450.000
212.09	-300.000
212.46	-350.000
212.84	-262.500
213.22	228.571
213.59	-150.000
213.97	0.000
214.34	-650.000
214.72	-2500.000
215.09	1150.000
215.47	-120.000
215.84	-237.500
216.22	-3100.000
216.59	1000.000
216.97	-91.667
217.34	-383.333
217.72	5.556
218.09	575.000
218.47	-100.000
218.84	-212.500
219.22	-64.286
219.59	-140.000
219.97	-100.000
220.34	333.333
220.72	163.636
221.09	-1150.000
221.47	0.000
221.84	550.000
222.22	-475.000
222.59	-475.000
222.97	-56.522
223.34	180.000
223.72	457.143
224.09	-300.000
224.46	169.231
224.84	-126.667
225.21	-650.000
225.59	-525.000
225.96	-25.000
226.34	616.667
226.71	310.000
227.08	-161.538
227.46	-271.429
227.83	-183.333
228.21	-1400.000
228.58	500.000
228.95	-73.684
229.33	-100.000
229.70	-450.000
230.08	-288.889
230.45	-666.667
230.82	-3200.000
231.20	-66.667
231.57	-500.000
231.95	-633.333
232.32	200.000
232.69	-1300.000
233.07	-25.000
233.44	-187.500
233.81	-19.355
234.19	-520.000
234.56	-77.778
234.93	-316.667
235.31	-48.148
235.68	-74.074
236.05	-84.615
236.43	-157.895
236.80	-100.000
237.17	-207.143
237.55	-150.000
237.92	-18.605
238.29	-41.935
238.67	-53.571
239.04	-54.286
239.41	-31.373
239.79	-28.000
240.16	-42.500
240.53	-37.931
240.91	-16.438
241.28	-32.394
241.65	-26.562
242.02	-42.105
242.40	-28.000
242.77	-18.947
243.14	-20.000
243.51	-20.430
243.89	-18.095
244.26	-15.741
244.63	-10.204
245.00	-19.643
245.38	-23.529
245.75	-21.186
246.12	-14.844
246.49	-16.800
246.87	-16.393
247.24	-15.493
247.61	-11.921
247.98	-6.742
248.36	-15.094
248.73	-11.932
249.10	-13.889
249.47	-9.375
249.84	-8.122
250.22	-15.104
250.59	-10.112
250.96	-2.727
251.33	-4.717
251.70	-2.752
252.08	-3.463
252.45	-5.306
252.82	-12.236
253.19	-5.447
253.56	-5.490
253.94	-8.130
254.31	-2.158
254.68	-5.556
255.05	-1.656
255.42	-4.727
255.79	-1.987
256.16	-7.292
256.54	-2.121
256.91	-0.962
257.28	-2.597
257.65	-6.557
258.02	-0.901
258.39	-4.532
258.76	-2.446
259.14	-6.765
259.51	-1.127
259.88	-0.865
260.25	-5.114
260.62	-1.966
260.99	-1.393
261.36	-5.747
261.73	-4.800
262.10	-1.907
262.47	-4.408
262.85	-2.314
263.22	-4.301
263.59	-1.609
263.96	-6.266
264.33	-5.660
264.70	-3.440
265.07	-5.665
265.44	-1.639
265.81	-1.687
266.18	-0.937
266.55	-4.762
266.92	0.223
267.29	-2.444
267.66	-4.091
268.03	-0.430
268.40	-2.746
268.77	-0.891
269.14	-1.681
269.51	-2.941
269.88	-2.350
270.25	-2.532
270.62	-0.210
270.99	-2.526
271.36	-3.532
271.73	-1.667
272.10	-1.245
272.47	-3.600
272.84	-4.883
273.21	-3.340
273.58	-2.245
273.95	-2.789
274.32	-0.387
274.69	-0.391
275.06	-1.313
275.43	-3.600
275.80	-1.338
276.17	-1.976
276.54	1.331
276.91	0.000
277.28	-1.934
277.65	-2.457
278.02	-3.977
278.39	-0.544
278.76	-1.304
279.13	-0.358
279.50	-1.083
279.87	-1.509
280.23	-0.729
280.60	-2.827
280.97	-2.460
281.34	-2.373
281.71	-3.197
282.08	-2.147
282.45	-2.998
282.82	-2.357
283.19	-1.347
283.56	0.000
283.92	-1.422
284.29	-2.369
284.66	-2.655
285.03	-4.117
285.40	-1.667
285.77	-1.806
286.14	-1.268
286.51	-2.894
286.87	-0.972
287.24	-2.885
287.61	-1.235
287.98	-0.156
288.35	-1.085
288.72	-1.070
289.08	-4.245
289.45	-0.312
289.82	-3.106
290.19	-1.515
290.56	-0.434
290.93	-1.477
291.29	-1.135
291.66	0.281
292.03	1.148
292.40	-1.007
292.77	-1.603
293.13	-2.496
293.50	-1.928
293.87	-1.387
294.24	-1.685
294.60	-0.410
294.97	-1.385
295.34	-1.781
295.71	-2.080
296.08	-0.820
296.44	0.000
296.81	-3.105
297.18	-0.129
297.55	-1.131
297.91	-0.381
298.28	-0.895
298.65	-0.388
299.02	-0.493
299.38	-1.913
299.75	-0.901
300.12	-0.360
300.48	-0.469
300.85	-2.934
301.22	-0.361
301.59	-0.608
301.95	-0.488
302.32	-1.944
302.69	-2.259
303.05	-2.243
303.42	-0.604
303.79	-1.685
304.15	-0.340
304.52	-0.782
304.89	-0.564
305.25	-1.147
305.62	-0.114
305.99	-1.904
306.35	-1.902
306.72	0.109
307.09	-1.197
307.45	-0.108
307.82	-0.961
308.19	-0.550
308.55	-0.738
308.92	-1.801
309.29	-0.837
309.65	-0.929
310.02	-0.629
310.38	-0.853
310.75	-0.102
311.12	-0.102
311.48	-0.103
311.85	-2.026
312.22	-1.860
312.58	0.201
312.95	0.411
313.31	0.000
313.68	-1.490
314.05	-0.099
314.41	-0.982
314.78	-1.809
315.14	0.098
315.51	0.199
315.87	0.000
316.24	0.297
316.61	-0.388
316.97	-1.373
317.34	-1.053
317.70	0.373
318.07	-0.964
318.43	-0.189
318.80	-0.091
319.16	-1.678
319.53	-0.377
319.89	0.758
320.26	0.492
320.62	0.388
320.99	-0.408
321.35	0.198
321.72	1.111
322.08	1.089
322.45	-0.493
322.81	1.084
323.18	0.959
323.54	0.758
323.91	0.664
324.27	0.193
324.64	1.125
325.00	0.273
325.37	0.809
325.73	0.456
326.10	1.138
326.46	1.451
326.83	0.967
327.19	1.135
327.56	2.122
327.92	0.521
328.29	0.896
328.65	1.130
329.01	2.569
329.38	1.286
329.74	2.971
330.11	1.305
330.47	2.235
330.84	2.068
331.20	1.571
331.56	0.094
331.93	0.823
332.29	1.850
332.66	2.532
333.02	1.857
333.38	1.471
333.75	1.098
334.11	0.723
334.48	0.984
334.84	0.563
335.20	1.611
335.57	2.452
335.93	1.116
336.29	1.463
336.66	1.366
337.02	2.357
337.38	1.132
337.75	2.364
338.11	1.732
338.47	1.578
338.84	2.118
339.20	2.566
339.56	1.678
339.93	0.901
340.29	2.176
340.65	0.731
341.02	0.974
341.38	1.324
341.74	2.135
342.11	1.503
342.47	2.273
342.83	1.041
343.20	1.238
343.56	1.748
343.92	1.575
344.28	1.286
344.65	1.969
345.01	1.394
345.37	1.966
345.73	1.034
346.10	1.296
346.46	0.604
346.82	1.105
347.19	1.346
347.55	1.786
347.91	1.065
348.27	1.095
348.63	0.864
349.00	2.170
349.36	2.061
349.72	1.314
350.08	2.291
350.45	1.871
350.81	0.743
351.17	1.895
351.53	1.208
351.89	0.518
352.26	0.894
352.62	2.371
352.98	2.092
353.34	0.919
353.70	0.576
354.07	0.906
354.43	0.835
354.79	0.984
355.15	1.211
355.51	0.896
355.87	1.665
356.24	2.288
356.60	0.417
356.96	1.027
357.32	2.469
357.68	1.750
358.04	0.891
358.40	0.900
358.77	2.008
359.13	1.687
359.49	0.320
359.85	1.759
360.21	1.031
360.57	1.515
360.93	0.633
361.29	1.168
361.66	1.025
362.02	0.863
362.38	1.554
362.74	0.999
363.10	0.754
363.46	1.204
363.82	1.455
364.18	1.665
364.54	0.687
364.90	1.037
365.26	1.192
365.62	1.287
365.98	1.574
366.35	1.059
366.71	1.494
367.07	1.697
367.43	1.588
367.79	0.000
368.15	1.038
368.51	1.873
368.87	2.129
369.23	1.741
369.59	1.029
369.95	0.298
370.31	1.136
370.67	2.632
371.03	1.316
371.39	1.208
371.75	0.817
372.11	1.556
372.47	1.114
372.83	1.023
373.19	1.581
373.55	1.647
373.91	0.833
374.27	1.472
374.63	1.178
374.99	0.366
375.35	1.306
375.71	1.435
376.07	1.484
376.42	1.660
376.78	0.418
377.14	1.397
377.50	0.684
377.86	1.602
378.22	1.057
378.58	1.842
378.94	1.179
379.30	1.287
379.66	1.601
380.02	0.445
380.38	0.827
380.74	1.678
381.09	1.525
381.45	2.032
381.81	2.360
382.17	1.889
382.53	0.986
382.89	1.347
383.25	2.029
383.61	1.208
383.97	0.975
384.32	1.419
384.68	1.533
385.04	0.573
385.40	1.150
385.76	0.822
386.12	1.584
386.48	1.500
386.83	0.922
387.19	2.043
387.55	0.777
387.91	1.433
388.27	0.640
388.62	1.036
388.98	1.399
389.34	0.651
389.70	0.769
390.06	1.320
390.42	1.014
390.77	1.476
391.13	1.236
391.49	1.146
391.85	1.730
392.20	1.386
392.56	1.310
392.92	1.113
393.28	1.855
393.64	0.063
393.99	0.714
394.35	1.233
394.71	1.192
395.07	0.862
395.42	0.889
395.78	0.806
396.14	0.466
396.50	1.552
396.85	1.454
397.21	0.841
397.57	0.461
397.92	0.636
398.28	1.139
398.64	0.635
399.00	1.625
399.35	1.290
399.71	1.138
400.07	1.668
400.42	1.987
400.78	1.344
401.14	1.515
401.49	0.999
401.85	2.032
402.21	1.586
402.57	0.386
402.92	0.797
403.28	1.495
403.63	1.859
403.99	0.462
404.35	0.892
404.70	1.710
405.06	1.364
405.42	1.301
405.77	1.486
406.13	1.254
406.49	0.568
406.84	1.494
407.20	1.301
407.55	1.670
407.91	0.490
408.27	0.864
408.62	0.965
408.98	1.995
409.34	1.985
409.69	1.538
410.05	1.231
410.40	0.514
410.76	1.245
411.11	0.776
411.47	1.088
411.83	1.159
412.18	1.243
412.54	1.035
412.89	0.907
413.25	1.630
413.60	1.084
413.96	1.165
414.31	0.892
414.67	1.958
415.03	1.936
415.38	1.114
415.74	1.410
416.09	0.276
416.45	0.778
416.80	0.487
417.16	2.327
417.51	1.666
417.87	0.752
418.22	0.535
418.58	0.691
418.93	1.225
419.29	1.357
419.64	1.236
420.00	1.572
420.35	1.820
420.71	0.768
421.06	0.909
421.42	1.192
421.77	2.132
422.12	1.122
422.48	1.828
422.83	1.337
423.19	2.059
423.54	1.100
423.90	1.298
424.25	2.236
424.61	1.290
424.96	1.044
425.31	1.510
425.67	1.152
426.02	0.683
426.38	0.644
426.73	1.807
427.09	1.248
427.44	1.296
427.79	1.918
428.15	1.585
428.50	1.696
428.85	1.347
429.21	2.152
429.56	1.381
429.92	1.406
430.27	1.067
430.62	2.109
430.98	1.773
431.33	1.835
431.68	1.204
432.04	2.014
432.39	1.545
432.74	1.834
433.10	1.455
433.45	1.457
433.80	2.083
434.16	1.841
434.51	2.453
434.86	1.631
435.22	1.804
435.57	2.111
435.92	0.557
436.28	1.494
436.63	1.610
436.98	1.605
437.34	1.152
437.69	0.926
438.04	0.601
438.39	0.065
438.75	1.169
439.10	1.964
439.45	1.797
439.81	1.841
440.16	1.484
440.51	1.363
440.86	1.199
441.22	1.489
441.57	2.564
441.92	1.380
442.27	2.571
442.63	1.637
442.98	1.773
443.33	2.526
443.68	2.385
444.03	2.320
444.39	1.301
444.74	2.003
445.09	2.184
445.44	1.458
445.79	1.888
446.15	1.633
446.50	2.487
446.85	2.420
447.20	1.313
447.55	1.920
447.91	2.410
448.26	2.374
448.61	2.296
448.96	1.538
449.31	1.447
449.66	1.211
450.02	1.598
450.37	2.673
450.72	1.975
451.07	1.450
451.42	3.228
451.77	1.576
452.12	2.068
452.47	1.965
452.83	2.989
453.18	2.363
453.53	2.874
453.88	2.297
454.23	2.620
454.58	2.676
454.93	1.635
455.28	2.037
455.63	2.729
455.98	2.094
456.34	1.808
456.69	1.490
457.04	1.969
457.39	2.122
457.74	1.896
458.09	1.805
458.44	2.330
458.79	1.767
459.14	2.564
459.49	1.975
459.84	2.616
460.19	3.440
460.54	2.462
460.89	2.235
461.24	2.727
461.59	2.587
461.94	2.696
462.29	2.318
462.64	2.019
462.99	2.030
463.34	2.930
463.69	2.606
464.04	2.373
464.39	2.508
464.74	2.012
465.09	3.215
465.44	2.699
465.79	1.986
466.14	1.909
466.49	2.558
466.84	2.088
467.19	2.794
467.54	1.724
467.89	2.417
468.24	2.525
468.59	1.898
468.94	2.555
469.29	2.837
469.64	2.626
469.99	2.235
470.34	1.768
470.68	2.231
471.03	1.898
471.38	2.244
471.73	3.270
472.08	3.274
472.43	2.766
472.78	1.668
473.13	3.158
473.48	2.559
473.83	2.774
474.17	2.201
474.52	3.081
474.87	3.093
475.22	3.240
475.57	2.644
475.92	2.331
476.27	3.617
476.61	3.132
476.96	3.260
477.31	2.397
477.66	3.196
478.01	1.707
478.36	2.579
478.70	3.211
479.05	1.915
479.40	2.819
479.75	2.860
480.10	2.814
480.45	3.194
480.79	3.425
481.14	2.741
481.49	2.931
481.84	2.879
482.19	2.585
482.53	3.088
482.88	2.593
483.23	2.864
483.58	3.119
483.92	2.513
484.27	3.291
484.62	3.395
484.97	3.032
485.31	3.248
485.66	3.136
486.01	3.417
486.36	3.621
486.70	3.229
487.05	3.270
487.40	3.180
487.75	3.350
488.09	2.945
488.44	3.324
488.79	3.479
489.13	2.369
489.48	3.048
489.83	3.098
490.17	3.188
490.52	3.394
490.87	2.671
491.22	3.156
491.56	3.656
491.91	2.912
492.26	2.958
492.60	2.653
492.95	2.977
493.30	2.875
493.64	2.890
493.99	2.618
494.34	3.244
494.68	2.577
495.03	2.637
495.37	3.548
495.72	2.848
496.07	3.296
496.41	2.520
496.76	3.056
497.11	2.806
497.45	3.968
497.80	3.167
498.14	2.851
498.49	3.150
498.84	2.463
499.18	3.269
499.53	3.323
499.87	2.765
500.22	2.805
500.56	3.192
500.91	4.143
501.26	2.940
501.60	3.568
501.95	3.019
502.29	2.514
502.64	3.036
502.98	2.928
503.33	3.095
503.67	2.808
504.02	2.911
504.36	3.287
504.71	2.713
505.06	3.107
505.40	3.164
505.75	2.949
506.09	3.629
506.44	3.273
506.78	2.677
507.13	3.149
507.47	2.992
507.82	2.344
508.16	3.062
508.51	3.665
508.85	3.242
509.19	3.072
509.54	3.173
509.88	2.129
510.23	3.315
510.57	2.783
510.92	2.948
511.26	3.446
511.61	3.425
511.95	3.065
512.30	2.725
512.64	2.874
512.98	3.662
513.33	2.931
513.67	1.198
514.02	2.704
514.36	3.440
514.70	3.279
515.05	2.988
515.39	3.262
515.74	3.195
516.08	3.453
516.42	3.232
516.77	3.106
517.11	2.630
517.46	3.560
517.80	3.127
518.14	3.922
518.49	3.622
518.83	3.113
519.17	3.535
519.52	4.185
519.86	3.673
520.20	2.548
520.55	3.982
520.89	3.576
521.23	3.407
521.58	2.910
521.92	3.338
522.26	3.230
522.61	2.935
522.95	3.288
523.29	3.779
523.64	3.053
523.98	2.823
524.32	3.973
524.66	3.263
525.01	3.368
525.35	3.215
525.69	3.372
526.04	3.594
526.38	3.016
526.72	3.958
527.06	3.094
527.41	3.047
527.75	3.446
528.09	3.182
528.43	3.402
528.78	2.166
529.12	3.493
529.46	3.522
529.80	3.404
530.15	4.378
530.49	3.487
530.83	3.254
531.17	3.249
531.51	3.926
531.86	4.342
532.20	3.896
532.54	3.741
532.88	3.200
533.22	4.454
533.57	3.379
533.91	4.129
534.25	3.259
534.59	3.508
534.93	3.559
535.27	3.232
535.62	3.241
535.96	3.140
536.30	3.410
536.64	4.721
536.98	3.466
537.32	3.199
537.66	3.886
538.01	3.535
538.35	4.364
538.69	3.114
539.03	3.605
539.37	2.441
539.71	3.478
540.05	2.750
540.39	3.776
540.73	3.810
541.07	2.941
541.42	3.991
541.76	3.957
542.10	4.448
542.44	3.396
542.78	2.786
543.12	2.744
543.46	3.800
543.80	5.218
544.14	4.588
544.48	3.509
544.82	3.194
545.16	4.420
545.50	4.148
545.84	4.389
546.18	3.820
546.52	3.689
546.86	3.366
547.20	3.939
547.54	4.701
547.88	3.561
548.22	3.797
548.56	4.440
548.90	3.789
549.24	3.363
549.58	4.396
549.92	4.286
550.26	4.556
550.60	3.569
550.94	3.651
551.28	3.821
551.62	3.849
551.96	3.754
552.30	3.953
552.64	4.207
552.98	4.681
553.32	3.561
553.66	4.325
554.00	4.093
554.34	4.063
554.68	4.147
555.02	3.492
555.36	3.495
555.69	3.382
556.03	4.287
556.37	4.351
556.71	4.600
557.05	3.672
557.39	3.614
557.73	4.167
558.07	5.321
558.41	3.591
558.75	3.983
559.08	3.745
559.42	4.431
559.76	4.212
560.10	4.075
560.44	3.721
560.78	4.057
561.12	2.855
561.45	4.167
561.79	3.231
562.13	4.596
562.47	4.052
562.81	3.639
563.15	3.194
563.48	4.345
563.82	5.022
564.16	3.846
564.50	4.226
564.84	4.181
565.17	4.220
565.51	4.363
565.85	4.155
566.19	4.036
566.52	4.516
566.86	4.986
567.20	4.192
567.54	4.403
567.88	3.701
568.21	4.572
568.55	4.810
568.89	4.011
569.23	4.267
569.56	4.506
569.90	4.540
570.24	5.004
570.57	4.740
570.91	4.876
571.25	5.406
571.59	5.016
571.92	4.837
572.26	4.844
572.60	4.522
572.93	4.650
573.27	5.094
573.61	5.014
573.95	4.866
574.28	4.524
574.62	4.825
574.96	4.537
575.29	4.440
575.63	4.644
575.97	4.559
576.30	5.032
576.64	4.576
576.98	4.508
577.31	5.055
577.65	4.936
577.98	4.844
578.32	4.892
578.66	4.542
578.99	5.182
579.33	4.577
579.67	5.190
580.00	4.855
580.34	5.008
580.67	5.341
581.01	4.732
581.35	5.206
581.68	4.877
582.02	4.943
582.35	5.159
582.69	5.336
583.02	4.791
583.36	4.760
583.70	5.178
584.03	4.535
584.37	5.338
584.70	4.851
585.04	4.630
585.37	4.932
585.71	4.909
586.04	5.101
586.38	5.203
586.72	5.063
587.05	5.531
587.39	5.484
587.72	5.335
588.06	5.186
588.39	5.259
588.73	4.934
589.06	4.843
589.40	5.174
589.73	5.497
590.07	4.684
590.40	5.061
590.73	5.206
591.07	4.935
591.40	4.888
591.74	5.131
592.07	5.205
592.41	4.592
592.74	4.772
593.08	4.884
593.41	5.622
593.75	6.100
594.08	5.113
594.41	5.011
594.75	5.090
595.08	5.571
595.42	5.370
595.75	5.303
596.09	4.884
596.42	5.412
596.75	5.182
597.09	5.224
597.42	4.880
597.75	5.394
598.09	6.273
598.42	5.395
598.76	4.645
599.09	5.588
599.42	4.917
599.76	5.100
600.09	5.615
600.42	5.391
600.76	5.235
601.09	5.529
601.42	5.435
601.76	5.317
602.09	5.949
602.42	5.428
602.76	5.454
603.09	5.788
603.42	5.366
603.76	4.574
604.09	5.973
604.42	4.981
604.76	4.838
605.09	4.582
605.42	5.687
605.75	5.573
606.09	5.733
606.42	5.468
606.75	5.462
607.09	5.504
607.42	5.645
607.75	5.510
608.08	5.426
608.42	5.092
608.75	5.453
609.08	4.644
609.41	5.858
609.75	5.371
610.08	5.168
610.41	5.089
610.74	5.662
611.07	5.553
611.41	4.336
611.74	5.223
612.07	5.469
612.40	5.738
612.73	5.613
613.07	5.226
613.40	5.520
613.73	5.326
614.06	4.625
614.39	5.565
614.72	4.309
615.06	5.052
615.39	5.427
615.72	5.431
616.05	5.449
616.38	5.042
616.71	5.410
617.05	4.837
617.38	4.968
617.71	5.879
618.04	5.585
618.37	5.494
618.70	5.231
619.03	5.874
619.36	6.186
619.69	3.966
620.03	5.416
620.36	5.896
620.69	4.952
621.02	5.226
621.35	4.511
621.68	2.790
622.01	5.080
622.34	5.946
622.67	5.059
623.00	5.242
623.33	5.906
623.66	5.259
623.99	4.625
624.32	5.322
624.65	4.375
624.99	4.766
625.32	5.371
625.65	5.524
625.98	5.750
626.31	4.329
626.64	5.315
626.97	6.618
627.30	4.907
627.63	4.093
627.96	5.773
628.29	5.545
628.62	5.155
628.95	5.491
629.28	6.302
629.61	5.643
629.94	5.394
630.26	6.381
630.59	6.283
630.92	4.320
631.25	4.022
631.58	3.605
631.91	4.328
632.24	5.562
632.57	5.826
632.90	5.166
633.23	5.032
633.56	4.906
633.89	3.298
634.22	5.256
634.55	3.679
634.88	4.953
635.20	6.849
635.53	4.888
635.86	4.348
636.19	4.911
636.52	4.447
636.85	3.520
637.18	6.477
637.51	5.014
637.83	4.469
638.16	5.121
638.49	6.916
638.82	5.767
639.15	4.000
639.48	4.658
639.81	5.514
640.13	4.900
640.46	2.992
640.79	2.791
641.12	4.496
641.45	5.443
641.77	4.936
642.10	4.886
642.43	5.387
642.76	4.301
643.09	3.633
643.41	3.763
643.74	4.167
644.07	2.293
644.40	3.791
644.73	5.341
645.05	4.962
645.38	3.269
645.71	3.053
646.04	4.833
646.36	2.083
646.69	4.836
647.02	7.422
647.35	4.800
647.67	6.212
648.00	6.796
648.33	2.505
648.66	4.267
648.98	6.271
649.31	5.336
649.64	6.024
649.96	4.561
650.29	3.894
650.62	3.896
650.94	5.730
651.27	1.349
651.60	1.912
