SpectraSuite Data File
++++++++++++++++++++++++++++++++++++
Date: Tue May 12 19:48:04 PDT 2015
User: schluterlab
Dark Spectrum Present: Yes
Reference Spectrum Present: Yes
Number of Sampled Component Spectra: 1
Spectrometers: USB2E3373
Integration Time (usec): 3000 (USB2E3373)
Spectra Averaged: 3 (USB2E3373)
Boxcar Smoothing: 0 (USB2E3373)
Correct for Electrical Dark: No (USB2E3373)
Strobe/Lamp Enabled: No (USB2E3373)
Correct for Detector Non-linearity: No (USB2E3373)
Correct for Stray Light: No (USB2E3373)
Number of Pixels in Processed Spectrum: 2048
>>>>>Begin Processed Spectral Data<<<<<
178.53	0.000
178.91	-40.000
179.29	-116.667
179.67	466.667
180.04	0.000
180.42	-240.000
180.80	-200.000
181.18	800.000
181.56	-200.000
181.94	283.333
182.31	1700.000
182.69	-71.429
183.07	0.000
183.45	208.333
183.83	380.000
184.20	50.000
184.58	450.000
184.96	316.667
185.34	-366.667
185.72	-57.143
186.09	-150.000
186.47	-1200.000
186.85	-220.000
187.23	158.333
187.61	-228.571
187.98	-240.000
188.36	900.000
188.74	-150.000
189.12	-33.333
189.49	-190.000
189.87	375.000
190.25	222.222
190.63	500.000
191.00	260.000
191.38	-566.667
191.76	420.000
192.14	-157.143
192.51	-160.000
192.89	-20.000
193.27	-40.000
193.65	-266.667
194.02	-183.333
194.40	1800.000
194.78	-287.500
195.15	-171.429
195.53	433.333
195.91	340.000
196.29	-250.000
196.66	-266.667
197.04	-171.429
197.42	220.000
197.79	-175.000
198.17	-75.000
198.55	-1500.000
198.92	-55.556
199.30	850.000
199.68	-150.000
200.05	-750.000
200.43	-27.778
200.81	-125.000
201.18	550.000
201.56	-500.000
201.94	-800.000
202.31	-41.667
202.69	-88.889
203.07	-75.000
203.44	-325.000
203.82	0.000
204.19	287.500
204.57	-466.667
204.95	154.545
205.32	300.000
205.70	450.000
206.08	-200.000
206.45	-100.000
206.83	1300.000
207.20	-155.556
207.58	-38.462
207.96	600.000
208.33	800.000
208.71	500.000
209.08	700.000
209.46	-88.889
209.84	566.667
210.21	-400.000
210.59	400.000
210.96	277.778
211.34	-425.000
211.71	700.000
212.09	-200.000
212.46	-100.000
212.84	-87.500
213.22	71.429
213.59	-137.500
213.97	0.000
214.34	-200.000
214.72	-300.000
215.09	550.000
215.47	-13.333
215.84	-187.500
216.22	-1400.000
216.59	1400.000
216.97	-58.333
217.34	-216.667
217.72	16.667
218.09	425.000
218.47	-100.000
218.84	-125.000
219.22	-57.143
219.59	-170.000
219.97	-50.000
220.34	233.333
220.72	81.818
221.09	-1400.000
221.47	0.000
221.84	250.000
222.22	-325.000
222.59	-375.000
222.97	-52.174
223.34	180.000
223.72	414.286
224.09	-183.333
224.46	146.154
224.84	-26.667
225.21	-250.000
225.59	-300.000
225.96	20.000
226.34	200.000
226.71	210.000
227.08	-61.538
227.46	14.286
227.83	-75.000
228.21	-400.000
228.58	233.333
228.95	5.263
229.33	12.500
229.70	-133.333
230.08	-233.333
230.45	-633.333
230.82	-1600.000
231.20	19.048
231.57	-260.000
231.95	-566.667
232.32	188.889
232.69	-1000.000
233.07	0.000
233.44	-200.000
233.81	3.226
234.19	-440.000
234.56	-33.333
234.93	-300.000
235.31	-22.222
235.68	-40.741
236.05	-23.077
236.43	-78.947
236.80	-27.273
237.17	-200.000
237.55	-70.000
237.92	4.651
238.29	-25.806
238.67	-25.000
239.04	25.714
239.41	-9.804
239.79	10.000
240.16	-7.500
240.53	-18.966
240.91	8.219
241.28	-12.676
241.65	15.625
242.02	-7.018
242.40	-9.333
242.77	2.105
243.14	4.706
243.51	4.301
243.89	0.952
244.26	0.000
244.63	7.143
245.00	-3.571
245.38	-1.681
245.75	0.847
246.12	6.250
246.49	2.400
246.87	4.918
247.24	3.521
247.61	5.960
247.98	8.989
248.36	3.145
248.73	5.682
249.10	6.667
249.47	5.208
249.84	2.538
250.22	0.521
250.59	6.180
250.96	10.455
251.33	6.132
251.70	8.257
252.08	9.957
252.45	6.531
252.82	2.954
253.19	7.004
253.56	10.196
253.94	4.065
254.31	12.950
254.68	8.333
255.05	12.583
255.42	10.909
255.79	11.589
256.16	8.333
256.54	12.121
256.91	13.462
257.28	11.039
257.65	5.902
258.02	9.309
258.39	11.178
258.76	8.563
259.14	7.353
259.51	7.887
259.88	13.256
260.25	9.943
260.62	5.899
260.99	5.014
261.36	8.621
261.73	9.600
262.10	12.534
262.47	9.642
262.85	11.054
263.22	8.065
263.59	14.209
263.96	10.966
264.33	9.164
264.70	10.319
265.07	8.867
265.44	12.178
265.81	13.012
266.18	8.665
266.55	12.143
266.92	14.286
267.29	11.778
267.66	8.182
268.03	12.258
268.40	10.526
268.77	11.581
269.14	10.504
269.51	11.086
269.88	12.607
270.25	11.814
270.62	14.286
270.99	9.684
271.36	11.479
271.73	10.208
272.10	12.241
272.47	11.200
272.84	9.342
273.21	9.395
273.58	9.796
273.95	11.554
274.32	11.992
274.69	11.350
275.06	12.383
275.43	9.200
275.80	13.767
276.17	10.277
276.54	13.688
276.91	11.900
277.28	10.832
277.65	9.263
278.02	12.121
278.39	13.975
278.76	11.732
279.13	14.490
279.50	12.816
279.87	10.755
280.23	10.929
280.60	11.131
280.97	13.357
281.34	10.847
281.71	8.171
282.08	11.270
282.45	10.053
282.82	11.616
283.19	11.111
283.56	11.604
283.92	11.374
284.29	9.306
284.66	11.858
285.03	8.748
285.40	12.500
285.77	10.837
286.14	10.460
286.51	10.611
286.87	10.211
287.24	11.378
287.61	11.420
287.98	12.833
288.35	11.628
288.72	11.621
289.08	8.648
289.45	10.452
289.82	10.248
290.19	11.667
290.56	11.288
290.93	10.931
291.29	11.348
291.66	9.831
292.03	11.765
292.40	11.942
292.77	10.496
293.13	11.013
293.50	10.331
293.87	10.957
294.24	11.938
294.60	11.475
294.97	7.895
295.34	9.178
295.71	9.015
296.08	9.153
296.44	10.672
296.81	7.891
297.18	10.996
297.55	10.302
297.91	8.883
298.28	9.335
298.65	8.926
299.02	9.618
299.38	8.929
299.75	9.138
300.12	10.911
300.48	9.742
300.85	8.313
301.22	8.894
301.59	10.462
301.95	10.000
302.32	9.842
302.69	8.205
303.05	9.799
303.42	9.058
303.79	8.427
304.15	8.834
304.52	10.391
304.89	8.681
305.25	9.404
305.62	8.864
305.99	8.399
306.35	9.508
306.72	9.477
307.09	9.249
307.45	9.169
307.82	9.285
308.19	11.221
308.55	9.810
308.92	9.428
309.29	9.100
309.65	8.978
310.02	9.224
310.38	9.915
310.75	9.119
311.12	8.850
311.48	11.100
311.85	7.903
312.22	9.298
312.58	9.164
312.95	10.986
313.31	10.521
313.68	10.328
314.05	10.626
314.41	9.627
314.78	10.452
315.14	10.970
315.51	10.725
315.87	10.840
316.24	11.177
316.61	14.175
316.97	13.824
317.34	11.388
317.70	13.165
318.07	10.897
318.43	13.894
318.80	13.934
319.16	12.488
319.53	14.057
319.89	14.394
320.26	15.143
320.62	14.050
320.99	15.612
321.35	16.107
321.72	17.879
322.08	18.119
322.45	16.075
322.81	17.734
323.18	17.546
323.54	19.810
323.91	19.829
324.27	18.226
324.64	18.088
325.00	20.655
325.37	21.223
325.73	20.620
326.10	22.504
326.46	22.484
326.83	24.626
327.19	24.367
327.56	26.525
327.92	25.521
328.29	26.434
328.65	27.778
329.01	27.982
329.38	27.640
329.74	28.691
330.11	29.077
330.47	29.236
330.84	28.571
331.20	29.020
331.56	29.717
331.93	30.650
332.29	31.637
332.66	31.646
333.02	32.312
333.38	32.077
333.75	33.303
334.11	32.550
334.48	32.826
334.84	31.549
335.20	32.319
335.57	33.697
335.93	33.674
336.29	34.004
336.66	33.789
337.02	33.998
337.38	34.528
337.75	34.636
338.11	33.546
338.47	34.540
338.84	34.162
339.20	34.464
339.56	34.390
339.93	34.595
340.29	34.723
340.65	34.703
341.02	34.367
341.38	35.216
341.74	35.498
342.11	34.836
342.47	33.916
342.83	34.432
343.20	35.544
343.56	33.741
343.92	36.220
344.28	34.391
344.65	35.017
345.01	34.582
345.37	33.675
345.73	35.056
346.10	34.918
346.46	34.167
346.82	35.769
347.19	33.810
347.55	36.139
347.91	34.152
348.27	35.552
348.63	34.831
349.00	35.810
349.36	35.367
349.72	35.386
350.08	34.124
350.45	35.557
350.81	35.343
351.17	34.761
351.53	33.414
351.89	35.751
352.26	33.902
352.62	35.078
352.98	35.565
353.34	35.171
353.70	33.827
354.07	35.255
354.43	34.808
354.79	35.246
355.15	34.060
355.51	35.860
355.87	35.720
356.24	36.601
356.60	34.891
356.96	35.229
357.32	35.638
357.68	34.765
358.04	34.198
358.40	35.925
358.77	35.582
359.13	34.940
359.49	34.560
359.85	35.492
360.21	34.259
360.57	34.928
360.93	36.184
361.29	35.748
361.66	34.700
362.02	35.322
362.38	34.654
362.74	35.511
363.10	34.389
363.46	34.612
363.82	34.074
364.18	35.201
364.54	34.427
364.90	34.370
365.26	35.469
365.62	35.352
365.98	34.933
366.35	34.871
366.71	34.653
367.07	34.686
367.43	35.379
367.79	33.721
368.15	34.099
368.51	34.607
368.87	36.417
369.23	35.958
369.59	35.735
369.95	34.203
370.31	34.470
370.67	35.865
371.03	35.062
371.39	35.121
371.75	35.067
372.11	34.148
372.47	36.006
372.83	36.085
373.19	35.693
373.55	34.506
373.91	35.000
374.27	36.203
374.63	35.346
374.99	34.187
375.35	34.543
375.71	35.796
376.07	35.124
376.42	35.062
376.78	35.331
377.14	35.894
377.50	35.226
377.86	35.167
378.22	35.733
378.58	36.184
378.94	35.822
379.30	34.041
379.66	35.211
380.02	34.202
380.38	34.097
380.74	36.296
381.09	35.769
381.45	35.556
381.81	34.885
382.17	35.505
382.53	36.160
382.89	35.856
383.25	34.940
383.61	35.855
383.97	35.478
384.32	35.742
384.68	35.249
385.04	34.564
385.40	34.569
385.76	35.104
386.12	35.050
386.48	34.768
386.83	35.681
387.19	35.057
387.55	35.622
387.91	34.766
388.27	35.765
388.62	35.104
388.98	36.069
389.34	35.068
389.70	35.449
390.06	35.908
390.42	35.091
390.77	36.016
391.13	34.938
391.49	36.860
391.85	35.662
392.20	36.502
392.56	35.429
392.92	36.178
393.28	34.411
393.64	36.162
393.99	35.455
394.35	36.665
394.71	35.232
395.07	34.416
395.42	34.794
395.78	34.745
396.14	34.910
396.50	34.864
396.85	33.840
397.21	35.511
397.57	34.496
397.92	35.305
398.28	36.451
398.64	34.540
399.00	35.229
399.35	34.525
399.71	35.509
400.07	35.763
400.42	35.833
400.78	36.084
401.14	35.606
401.49	34.853
401.85	34.921
402.21	35.850
402.57	33.290
402.92	36.587
403.28	34.980
403.63	35.577
403.99	35.205
404.35	34.841
404.70	35.465
405.06	34.036
405.42	35.198
405.77	35.196
406.13	34.886
406.49	34.700
406.84	35.305
407.20	35.254
407.55	34.603
407.91	35.524
408.27	35.505
408.62	34.727
408.98	35.972
409.34	34.699
409.69	34.515
410.05	34.391
410.40	33.462
410.76	34.869
411.11	34.648
411.47	35.782
411.83	33.806
412.18	35.013
412.54	35.123
412.89	35.039
413.25	33.918
413.60	34.503
413.96	35.016
414.31	34.608
414.67	36.327
415.03	35.131
415.38	33.914
415.74	34.251
416.09	34.045
416.45	35.386
416.80	34.840
417.16	35.049
417.51	34.629
417.87	35.363
418.22	33.489
418.58	34.140
418.93	34.429
419.29	34.532
419.64	36.401
420.00	34.840
420.35	35.719
420.71	35.275
421.06	35.367
421.42	35.320
421.77	35.323
422.12	33.373
422.48	34.323
422.83	34.711
423.19	33.941
423.54	33.842
423.90	34.487
424.25	35.347
424.61	34.452
424.96	35.012
425.31	33.877
425.67	34.788
426.02	34.534
426.38	34.749
426.73	35.452
427.09	35.194
427.44	35.741
427.79	36.077
428.15	34.115
428.50	36.118
428.85	35.215
429.21	35.804
429.56	35.746
429.92	35.208
430.27	34.827
430.62	34.776
430.98	34.068
431.33	35.206
431.68	35.066
432.04	34.925
432.39	33.809
432.74	35.737
433.10	35.779
433.45	34.769
433.80	34.940
434.16	35.616
434.51	34.727
434.86	34.985
435.22	34.866
435.57	35.950
435.92	33.746
436.28	35.679
436.63	35.599
436.98	36.173
437.34	35.701
437.69	35.926
438.04	34.856
438.39	36.292
438.75	34.954
439.10	35.774
439.45	37.548
439.81	35.937
440.16	34.941
440.51	34.944
440.86	35.732
441.22	34.425
441.57	35.157
441.92	35.505
442.27	34.686
442.63	34.989
442.98	35.330
443.33	35.664
443.68	34.554
444.03	35.206
444.39	35.034
444.74	35.260
445.09	35.773
445.44	35.102
445.79	36.192
446.15	35.394
446.50	35.859
446.85	35.369
447.20	34.683
447.55	35.253
447.91	35.920
448.26	36.202
448.61	35.529
448.96	35.778
449.31	35.142
449.66	34.201
450.02	34.556
450.37	36.027
450.72	35.069
451.07	35.926
451.42	36.430
451.77	34.363
452.12	36.028
452.47	35.298
452.83	34.184
453.18	35.246
453.53	36.904
453.88	37.652
454.23	35.719
454.58	37.272
454.93	35.286
455.28	35.981
455.63	36.647
455.98	36.104
456.34	35.633
456.69	36.967
457.04	34.646
457.39	35.893
457.74	36.599
458.09	35.408
458.44	36.113
458.79	35.395
459.14	35.480
459.49	36.561
459.84	36.385
460.19	35.647
460.54	35.038
460.89	34.353
461.24	36.429
461.59	35.836
461.94	36.358
462.29	34.962
462.64	35.724
462.99	36.258
463.34	36.044
463.69	37.243
464.04	36.690
464.39	36.463
464.74	35.886
465.09	35.756
465.44	35.153
465.79	35.921
466.14	35.322
466.49	36.109
466.84	34.828
467.19	34.893
467.54	33.952
467.89	36.381
468.24	35.164
468.59	35.537
468.94	36.449
469.29	37.232
469.64	35.959
469.99	35.328
470.34	35.007
470.68	36.154
471.03	35.474
471.38	37.023
471.73	37.500
472.08	36.157
472.43	37.898
472.78	35.968
473.13	37.193
473.48	37.137
473.83	37.186
474.17	35.023
474.52	37.508
474.87	36.679
475.22	36.404
475.57	35.605
475.92	35.645
476.27	34.720
476.61	36.111
476.96	36.455
477.31	36.073
477.66	36.258
478.01	37.022
478.36	36.562
478.70	36.563
479.05	36.332
479.40	35.600
479.75	38.026
480.10	36.418
480.45	36.859
480.79	35.703
481.14	35.793
481.49	36.504
481.84	36.313
482.19	35.854
482.53	35.588
482.88	35.841
483.23	36.080
483.58	36.139
483.92	36.583
484.27	35.673
484.62	35.832
484.97	35.018
485.31	34.841
485.66	33.047
486.01	31.433
486.36	32.045
486.70	32.294
487.05	33.492
487.40	33.333
487.75	33.381
488.09	33.083
488.44	33.451
488.79	34.633
489.13	34.414
489.48	35.380
489.83	35.136
490.17	36.053
490.52	35.612
490.87	36.499
491.22	36.637
491.56	36.364
491.91	36.145
492.26	36.563
492.60	36.837
492.95	36.704
493.30	36.017
493.64	35.396
493.99	36.037
494.34	36.442
494.68	35.927
495.03	35.497
495.37	35.580
495.72	36.129
496.07	36.460
496.41	35.919
496.76	35.435
497.11	35.943
497.45	36.966
497.80	36.033
498.14	37.276
498.49	35.985
498.84	35.587
499.18	35.651
499.53	36.552
499.87	36.354
500.22	36.156
500.56	37.153
500.91	37.441
501.26	35.223
501.60	35.984
501.95	36.080
502.29	36.326
502.64	34.694
502.98	35.437
503.33	34.898
503.67	35.835
504.02	36.313
504.36	36.107
504.71	36.170
505.06	36.315
505.40	36.729
505.75	34.966
506.09	36.620
506.44	36.749
506.78	36.081
507.13	35.831
507.47	37.230
507.82	35.826
508.16	36.860
508.51	36.761
508.85	36.538
509.19	36.423
509.54	37.167
509.88	36.824
510.23	37.191
510.57	37.252
510.92	37.302
511.26	36.071
511.61	37.272
511.95	36.553
512.30	36.290
512.64	36.774
512.98	37.626
513.33	36.284
513.67	36.766
514.02	36.959
514.36	36.951
514.70	37.280
515.05	36.402
515.39	37.767
515.74	37.343
516.08	37.100
516.42	37.415
516.77	36.894
517.11	36.636
517.46	37.539
517.80	39.247
518.14	36.686
518.49	37.840
518.83	37.549
519.17	36.954
519.52	37.726
519.86	37.175
520.20	37.516
520.55	37.206
520.89	38.596
521.23	37.475
521.58	36.706
521.92	37.917
522.26	38.282
522.61	37.816
522.95	37.808
523.29	38.529
523.64	38.128
523.98	37.500
524.32	38.384
524.66	38.477
525.01	38.488
525.35	37.551
525.69	36.752
526.04	38.901
526.38	39.822
526.72	38.264
527.06	38.397
527.41	37.704
527.75	38.047
528.09	37.765
528.43	37.208
528.78	37.526
529.12	36.986
529.46	37.940
529.80	36.896
530.15	37.804
530.49	38.842
530.83	37.021
531.17	37.359
531.51	37.830
531.86	37.605
532.20	36.941
532.54	38.417
532.88	37.382
533.22	38.290
533.57	36.759
533.91	36.683
534.25	37.542
534.59	37.414
534.93	35.930
535.27	35.219
535.62	35.449
535.96	36.706
536.30	36.326
536.64	36.409
536.98	37.242
537.32	37.798
537.66	36.657
538.01	36.745
538.35	36.800
538.69	36.730
539.03	36.193
539.37	36.181
539.71	36.377
540.05	36.469
540.39	35.294
540.73	36.190
541.07	37.206
541.42	35.068
541.76	35.252
542.10	35.653
542.44	34.176
542.78	36.804
543.12	34.152
543.46	36.513
543.80	34.596
544.14	36.703
544.48	34.386
544.82	35.557
545.16	37.174
545.50	35.953
545.84	36.211
546.18	36.404
546.52	36.357
546.86	36.649
547.20	35.682
547.54	34.951
547.88	34.330
548.22	35.443
548.56	36.082
548.90	35.579
549.24	35.673
549.58	36.811
549.92	35.263
550.26	36.371
550.60	35.210
550.94	37.222
551.28	36.667
551.62	37.592
551.96	35.783
552.30	36.124
552.64	35.162
552.98	34.993
553.32	35.455
553.66	36.343
554.00	35.676
554.34	36.250
554.68	36.284
555.02	36.270
555.36	36.060
555.69	34.896
556.03	33.629
556.37	34.809
556.71	34.842
557.05	36.406
557.39	36.225
557.73	35.613
558.07	35.524
558.41	35.754
558.75	35.851
559.08	37.021
559.42	35.786
559.76	35.383
560.10	36.349
560.44	35.709
560.78	34.936
561.12	35.387
561.45	34.152
561.79	33.774
562.13	34.692
562.47	34.709
562.81	35.102
563.15	34.525
563.48	34.082
563.82	33.624
564.16	33.672
564.50	33.668
564.84	34.940
565.17	34.835
565.51	34.412
565.85	33.662
566.19	34.447
566.52	34.480
566.86	33.675
567.20	33.599
567.54	32.482
567.88	32.706
568.21	32.298
568.55	32.088
568.89	32.637
569.23	29.920
569.56	30.115
569.90	29.636
570.24	28.920
570.57	28.555
570.91	28.857
571.25	28.650
571.59	27.934
571.92	27.256
572.26	27.399
572.60	28.319
572.93	27.570
573.27	26.801
573.61	27.391
573.95	26.846
574.28	26.400
574.62	26.056
574.96	26.232
575.29	25.942
575.63	26.128
575.97	26.085
576.30	26.171
576.64	26.158
576.98	26.140
577.31	26.111
577.65	25.929
577.98	25.529
578.32	25.424
578.66	25.402
578.99	26.176
579.33	26.106
579.67	25.848
580.00	25.909
580.34	25.674
580.67	25.992
581.01	25.903
581.35	24.865
581.68	24.650
582.02	24.905
582.35	25.038
582.69	25.138
583.02	25.421
583.36	25.118
583.70	25.471
584.03	25.598
584.37	25.921
584.70	25.305
585.04	25.222
585.37	24.994
585.71	25.554
586.04	25.738
586.38	25.797
586.72	25.552
587.05	25.998
587.39	25.036
587.72	25.424
588.06	25.484
588.39	25.592
588.73	25.890
589.06	26.129
589.40	26.223
589.73	26.664
590.07	26.520
590.40	27.204
590.73	27.530
591.07	27.273
591.40	27.273
591.74	27.425
592.07	28.223
592.41	27.648
592.74	27.184
593.08	26.935
593.41	25.814
593.75	26.559
594.08	27.029
594.41	26.564
594.75	26.468
595.08	26.607
595.42	26.098
595.75	26.061
596.09	26.421
596.42	26.300
596.75	27.591
597.09	26.493
597.42	26.795
597.75	27.486
598.09	26.873
598.42	27.260
598.76	26.821
599.09	26.387
599.42	25.649
599.76	25.736
600.09	26.335
600.42	24.844
600.76	25.982
601.09	25.529
601.42	25.403
601.76	25.649
602.09	26.644
602.42	27.225
602.76	27.312
603.09	26.980
603.42	26.746
603.76	25.976
604.09	26.734
604.42	26.750
604.76	26.654
605.09	26.878
605.42	26.967
605.75	26.131
606.09	27.067
606.42	26.159
606.75	26.332
607.09	26.866
607.42	26.939
607.75	26.860
608.08	26.427
608.42	26.576
608.75	26.113
609.08	26.098
609.41	27.424
609.75	27.699
610.08	26.667
610.41	26.819
610.74	26.542
611.07	26.970
611.41	26.606
611.74	27.203
612.07	27.455
612.40	27.019
612.73	27.604
613.07	26.835
613.40	27.832
613.73	27.377
614.06	27.459
614.39	27.885
614.72	28.394
615.06	27.210
615.39	27.771
615.72	26.708
616.05	26.609
616.38	26.453
616.71	27.861
617.05	27.324
617.38	27.935
617.71	28.282
618.04	28.844
618.37	27.992
618.70	29.959
619.03	30.022
619.36	30.191
619.69	29.705
620.03	29.901
620.36	29.630
620.69	29.120
621.02	28.741
621.35	30.553
621.68	31.233
622.01	30.036
622.34	29.229
622.67	29.680
623.00	29.812
623.33	29.528
623.66	29.323
623.99	29.585
624.32	29.547
624.65	28.516
624.99	28.047
625.32	29.858
625.65	29.944
625.98	30.833
626.31	29.091
626.64	30.811
626.97	32.169
627.30	30.926
627.63	32.186
627.96	31.750
628.29	30.784
628.62	31.546
628.95	32.207
629.28	32.128
629.61	33.229
629.94	33.091
630.26	32.218
630.59	32.984
630.92	31.191
631.25	32.961
631.58	32.907
631.91	32.916
632.24	33.018
632.57	35.196
632.90	33.210
633.23	36.645
633.56	32.075
633.89	33.377
