SpectraSuite Data File
++++++++++++++++++++++++++++++++++++
Date: Tue May 12 19:56:02 PDT 2015
User: schluterlab
Dark Spectrum Present: Yes
Reference Spectrum Present: Yes
Number of Sampled Component Spectra: 1
Spectrometers: USB2E3373
Integration Time (usec): 3000 (USB2E3373)
Spectra Averaged: 3 (USB2E3373)
Boxcar Smoothing: 0 (USB2E3373)
Correct for Electrical Dark: No (USB2E3373)
Strobe/Lamp Enabled: No (USB2E3373)
Correct for Detector Non-linearity: No (USB2E3373)
Correct for Stray Light: No (USB2E3373)
Number of Pixels in Processed Spectrum: 2048
>>>>>Begin Processed Spectral Data<<<<<
178.53	0.000
178.91	-120.000
179.29	-200.000
179.67	600.000
180.04	0.000
180.42	-260.000
180.80	-600.000
181.18	1000.000
181.56	-400.000
181.94	300.000
182.31	2500.000
182.69	-185.714
183.07	0.000
183.45	291.667
183.83	320.000
184.20	100.000
184.58	1300.000
184.96	533.333
185.34	-433.333
185.72	-114.286
186.09	-333.333
186.47	-2200.000
186.85	-220.000
187.23	266.667
187.61	-357.143
187.98	-440.000
188.36	500.000
188.74	-350.000
189.12	-255.556
189.49	-120.000
189.87	325.000
190.25	222.222
190.63	600.000
191.00	360.000
191.38	-466.667
191.76	460.000
192.14	-242.857
192.51	-170.000
192.89	-240.000
193.27	-400.000
193.65	-533.333
194.02	-350.000
194.40	900.000
194.78	-175.000
195.15	-328.571
195.53	666.667
195.91	500.000
196.29	-500.000
196.66	-300.000
197.04	-300.000
197.42	100.000
197.79	-225.000
198.17	-58.333
198.55	-1500.000
198.92	-177.778
199.30	900.000
199.68	-500.000
200.05	-1200.000
200.43	-66.667
200.81	-141.667
201.18	433.333
201.56	-700.000
201.94	-1700.000
202.31	-125.000
202.69	11.111
203.07	-158.333
203.44	-425.000
203.82	0.000
204.19	362.500
204.57	-366.667
204.95	190.909
205.32	560.000
205.70	550.000
206.08	-1200.000
206.45	-500.000
206.83	2500.000
207.20	-188.889
207.58	-61.538
207.96	433.333
208.33	900.000
208.71	733.333
209.08	1200.000
209.46	-66.667
209.84	733.333
210.21	-800.000
210.59	1100.000
210.96	277.778
211.34	-425.000
211.71	1250.000
212.09	-260.000
212.46	-337.500
212.84	-162.500
213.22	114.286
213.59	-187.500
213.97	0.000
214.34	-1000.000
214.72	-1700.000
215.09	1100.000
215.47	-133.333
215.84	-175.000
216.22	-2300.000
216.59	1100.000
216.97	-108.333
217.34	-150.000
217.72	-50.000
218.09	400.000
218.47	-136.842
218.84	-262.500
219.22	-42.857
219.59	-250.000
219.97	-170.000
220.34	200.000
220.72	209.091
221.09	-1250.000
221.47	0.000
221.84	1250.000
222.22	-350.000
222.59	-350.000
222.97	-65.217
223.34	240.000
223.72	371.429
224.09	-200.000
224.46	230.769
224.84	-126.667
225.21	-500.000
225.59	-625.000
225.96	-5.000
226.34	400.000
226.71	280.000
227.08	-92.308
227.46	-171.429
227.83	-133.333
228.21	-1150.000
228.58	283.333
228.95	-15.789
229.33	-12.500
229.70	-250.000
230.08	-144.444
230.45	-566.667
230.82	-2400.000
231.20	-76.190
231.57	-540.000
231.95	-1200.000
232.32	311.111
232.69	-900.000
233.07	-37.500
233.44	-175.000
233.81	-3.226
234.19	-540.000
234.56	-94.444
234.93	-283.333
235.31	-51.852
235.68	-25.926
236.05	-46.154
236.43	-110.526
236.80	-63.636
237.17	-157.143
237.55	-75.000
237.92	-2.326
238.29	-41.935
238.67	-10.714
239.04	-31.429
239.41	-21.569
239.79	-24.000
240.16	-35.000
240.53	-15.517
240.91	-4.110
241.28	-14.085
241.65	-6.250
242.02	-17.544
242.40	-24.000
242.77	4.211
243.14	0.000
243.51	-5.376
243.89	-10.476
244.26	4.630
244.63	2.041
245.00	-7.143
245.38	-13.445
245.75	4.237
246.12	6.250
246.49	-2.400
246.87	-6.557
247.24	-10.563
247.61	4.636
247.98	-1.124
248.36	4.403
248.73	-1.136
249.10	-2.222
249.47	9.896
249.84	-2.538
250.22	1.042
250.59	-4.494
250.96	3.636
251.33	9.906
251.70	5.963
252.08	2.165
252.45	5.306
252.82	1.688
253.19	4.669
253.56	7.059
253.94	3.252
254.31	11.151
254.68	2.431
255.05	7.285
255.42	5.818
255.79	6.954
256.16	7.986
256.54	10.909
256.91	10.256
257.28	8.442
257.65	6.557
258.02	7.207
258.39	9.668
258.76	7.034
259.14	7.353
259.51	10.704
259.88	8.069
260.25	5.398
260.62	3.090
260.99	5.571
261.36	8.333
261.73	10.133
262.10	10.082
262.47	7.989
262.85	10.283
263.22	8.065
263.59	7.239
263.96	9.922
264.33	4.043
264.70	8.108
265.07	7.882
265.44	8.665
265.81	10.120
266.18	8.197
266.55	8.095
266.92	9.821
267.29	8.000
267.66	4.545
268.03	9.032
268.40	7.094
268.77	4.677
269.14	9.034
269.51	6.109
269.88	7.479
270.25	7.595
270.62	9.664
270.99	8.632
271.36	6.402
271.73	8.125
272.10	8.091
272.47	6.600
272.84	6.582
273.21	7.307
273.58	7.755
273.95	11.155
274.32	10.445
274.69	11.350
275.06	9.944
275.43	7.200
275.80	9.560
276.17	5.929
276.54	10.837
276.91	10.557
277.28	9.478
277.65	6.238
278.02	8.523
278.39	9.982
278.76	9.125
279.13	11.091
279.50	8.845
279.87	9.434
280.23	9.836
280.60	8.304
280.97	10.193
281.34	9.322
281.71	7.815
282.08	8.945
282.45	8.466
282.82	9.428
283.19	9.933
283.56	7.167
283.92	9.163
284.29	9.814
284.66	9.735
285.03	6.175
285.40	10.000
285.77	10.673
286.14	9.033
286.51	8.199
286.87	8.590
287.24	8.013
287.61	8.951
287.98	10.172
288.35	7.752
288.72	8.716
289.08	6.447
289.45	9.516
289.82	6.988
290.19	7.727
290.56	8.104
290.93	7.976
291.29	9.362
291.66	8.427
292.03	9.039
292.40	9.353
292.77	7.580
293.13	8.076
293.50	10.055
293.87	8.877
294.24	7.444
294.60	9.290
294.97	6.925
295.34	7.534
295.71	7.767
296.08	7.650
296.44	8.300
296.81	7.633
297.18	7.374
297.55	7.286
297.91	5.964
298.28	5.115
298.65	6.598
299.02	7.522
299.38	6.888
299.75	7.465
300.12	7.914
300.48	7.864
300.85	6.112
301.22	7.572
301.59	7.421
301.95	6.829
302.32	4.860
302.69	6.064
303.05	6.494
303.42	6.280
303.79	6.180
304.15	7.135
304.52	6.034
304.89	5.411
305.25	7.339
305.62	7.159
305.99	6.831
306.35	7.494
306.72	7.298
307.09	5.332
307.45	5.717
307.82	6.937
308.19	7.591
308.55	6.224
308.92	5.720
309.29	6.695
309.65	7.224
310.02	6.499
310.38	7.356
310.75	6.967
311.12	7.426
311.48	7.091
311.85	5.775
312.22	6.405
312.58	6.445
312.95	8.111
313.31	7.080
313.68	6.256
314.05	7.448
314.41	5.108
314.78	5.729
315.14	7.346
315.51	7.051
315.87	7.422
316.24	6.627
316.61	7.573
316.97	6.863
317.34	8.038
317.70	5.976
318.07	6.172
318.43	7.278
318.80	7.195
319.16	6.337
319.53	6.698
319.89	7.292
320.26	7.768
320.62	7.655
320.99	8.367
321.35	6.621
321.72	8.485
322.08	7.426
322.45	8.185
322.81	8.079
323.18	8.821
323.54	8.341
323.91	8.065
324.27	6.943
324.64	7.310
325.00	8.826
325.37	10.072
325.73	7.847
326.10	9.282
326.46	9.973
326.83	9.938
327.19	9.869
327.56	11.494
327.92	10.764
328.29	10.932
328.65	11.676
329.01	11.009
329.38	12.397
329.74	12.628
330.11	11.836
330.47	12.197
330.84	12.124
331.20	11.738
331.56	11.132
331.93	13.175
332.29	12.211
332.66	13.291
333.02	13.370
333.38	13.603
333.75	12.534
334.11	12.749
334.48	13.506
334.84	13.709
335.20	12.713
335.57	14.532
335.93	14.047
336.29	14.168
336.66	13.752
337.02	14.687
337.38	15.000
337.75	15.000
338.11	14.768
338.47	15.042
338.84	15.285
339.20	14.757
339.56	14.818
339.93	15.045
340.29	15.594
340.65	15.616
341.02	14.969
341.38	15.093
341.74	15.836
342.11	15.650
342.47	14.598
342.83	15.004
343.20	15.385
343.56	16.346
343.92	15.573
344.28	14.237
344.65	14.726
345.01	15.331
345.37	16.838
345.73	15.418
346.10	15.557
346.46	14.927
346.82	15.718
347.19	16.569
347.55	15.561
347.91	15.315
348.27	15.333
348.63	16.508
349.00	17.028
349.36	16.570
349.72	15.517
350.08	16.039
350.45	16.680
350.81	15.442
351.17	15.815
351.53	15.539
351.89	15.717
352.26	15.772
352.62	17.089
352.98	16.318
353.34	16.040
353.70	15.473
354.07	16.145
354.43	15.609
354.79	15.328
355.15	16.465
355.51	16.381
355.87	17.485
356.24	17.157
356.60	16.778
356.96	16.904
357.32	17.613
357.68	17.343
358.04	17.261
358.40	17.430
358.77	17.028
359.13	16.546
359.49	16.160
359.85	18.145
360.21	17.526
360.57	16.986
360.93	16.865
361.29	17.212
361.66	15.773
362.02	17.504
362.38	17.638
362.74	18.140
363.10	17.722
363.46	17.607
363.82	17.458
364.18	16.805
364.54	18.321
364.90	17.111
365.26	17.884
365.62	16.957
365.98	18.741
366.35	17.322
366.71	17.774
367.07	19.041
367.43	17.690
367.79	18.023
368.15	18.087
368.51	18.502
368.87	18.722
369.23	18.395
369.59	18.603
369.95	17.139
370.31	18.409
370.67	17.895
371.03	19.505
371.39	19.713
371.75	19.242
372.11	18.370
372.47	19.228
372.83	19.869
373.19	19.729
373.55	18.862
373.91	19.621
374.27	20.456
374.63	19.661
374.99	19.180
375.35	19.594
375.71	19.871
376.07	19.647
376.42	19.779
376.78	19.443
377.14	20.112
377.50	19.494
377.86	20.961
378.22	20.277
378.58	20.263
378.94	21.284
379.30	20.206
379.66	20.487
380.02	20.470
380.38	21.056
380.74	21.504
381.09	21.410
381.45	20.762
381.81	21.429
382.17	22.476
382.53	22.025
382.89	21.552
383.25	21.053
383.61	21.488
383.97	22.482
384.32	22.774
384.68	21.839
385.04	21.961
385.40	22.492
385.76	21.822
386.12	21.584
386.48	22.309
386.83	21.856
387.19	22.478
387.55	22.409
387.91	22.118
388.27	23.161
388.62	23.705
388.98	23.537
389.34	22.446
389.70	22.500
390.06	23.564
390.42	23.867
390.77	24.681
391.13	23.097
391.49	23.652
391.85	23.553
392.20	23.828
392.56	23.183
392.92	24.242
393.28	23.758
393.64	23.306
393.99	23.442
394.35	23.297
394.71	24.636
395.07	24.337
395.42	24.952
395.78	24.059
396.14	25.050
396.50	24.450
396.85	23.728
397.21	24.515
397.57	24.819
397.92	24.046
398.28	25.060
398.64	25.079
399.00	26.059
399.35	24.795
399.71	25.030
400.07	25.201
400.42	25.705
400.78	25.336
401.14	24.432
401.49	24.672
401.85	25.651
402.21	25.127
402.57	24.211
402.92	24.967
403.28	25.423
403.63	26.026
403.99	24.637
404.35	25.541
404.70	24.383
405.06	25.046
405.42	26.155
405.77	24.673
406.13	24.791
406.49	25.615
406.84	26.339
407.20	25.774
407.55	24.582
407.91	25.524
408.27	25.931
408.62	25.788
408.98	26.190
409.34	25.608
409.69	25.284
410.05	25.583
410.40	25.112
410.76	26.152
411.11	25.533
411.47	25.646
411.83	25.306
412.18	26.309
412.54	26.003
412.89	25.777
413.25	26.270
413.60	26.212
413.96	25.307
414.31	25.239
414.67	27.009
415.03	27.109
415.38	27.019
415.74	27.737
416.09	25.224
416.45	25.690
416.80	25.661
417.16	26.728
417.51	26.093
417.87	28.112
418.22	26.805
418.58	27.091
418.93	26.564
419.29	26.730
419.64	27.747
420.00	28.225
420.35	27.621
420.71	26.376
421.06	27.320
421.42	27.604
421.77	28.197
422.12	27.702
422.48	28.155
422.83	27.903
423.19	28.235
423.54	28.161
423.90	27.936
424.25	28.278
424.61	27.871
424.96	28.440
425.31	28.140
425.67	28.061
426.02	28.882
426.38	28.121
426.73	28.723
427.09	29.022
427.44	28.827
427.79	29.455
428.15	28.852
428.50	29.334
428.85	28.608
429.21	29.588
429.56	28.343
429.92	28.718
430.27	28.533
430.62	28.935
430.98	28.855
431.33	29.588
431.68	28.665
432.04	28.596
432.39	28.699
432.74	29.159
433.10	29.958
433.45	30.716
433.80	30.476
434.16	29.804
434.51	29.989
434.86	29.849
435.22	29.802
435.57	31.135
435.92	30.031
436.28	30.075
436.63	29.994
436.98	30.741
437.34	31.670
437.69	30.741
438.04	30.589
438.39	30.548
438.75	30.277
439.10	31.905
439.45	31.772
439.81	30.921
440.16	31.664
440.51	32.094
440.86	31.944
441.22	31.388
441.57	31.453
441.92	32.413
442.27	32.343
442.63	32.054
442.98	32.335
443.33	33.255
443.68	31.669
444.03	32.010
444.39	31.963
444.74	32.685
445.09	32.822
445.44	32.128
445.79	32.956
446.15	33.061
446.50	32.504
446.85	33.168
447.20	32.385
447.55	31.995
447.91	33.098
448.26	34.362
448.61	31.964
448.96	32.052
449.31	33.273
449.66	32.869
450.02	33.136
450.37	32.868
450.72	32.316
451.07	33.685
451.42	34.124
451.77	31.526
452.12	33.083
452.47	32.995
452.83	32.877
453.18	32.816
453.53	34.095
453.88	33.631
454.23	33.227
454.58	32.833
454.93	32.698
455.28	33.944
455.63	33.983
455.98	34.074
456.34	33.088
456.69	33.446
457.04	33.793
457.39	33.833
457.74	33.944
458.09	33.914
458.44	33.906
458.79	32.980
459.14	33.393
459.49	34.713
459.84	34.483
460.19	33.208
460.54	32.702
460.89	33.176
461.24	34.805
461.59	33.628
461.94	33.136
462.29	33.647
462.64	34.331
462.99	33.212
463.34	33.626
463.69	33.882
464.04	33.675
464.39	33.891
464.74	32.836
465.09	34.727
465.44	33.773
465.79	34.236
466.14	33.055
466.49	33.789
466.84	33.477
467.19	32.749
467.54	32.162
467.89	33.312
468.24	33.460
468.59	33.704
468.94	34.028
469.29	35.017
469.64	34.063
469.99	33.742
470.34	33.805
470.68	33.077
471.03	33.431
471.38	35.602
471.73	34.012
472.08	35.089
472.43	34.993
472.78	34.228
473.13	34.877
473.48	33.817
473.83	34.346
474.17	34.223
474.52	34.963
474.87	34.280
475.22	34.435
475.57	34.665
475.92	34.736
476.27	34.780
476.61	34.693
476.96	35.388
477.31	34.932
477.66	35.212
478.01	35.079
478.36	34.327
478.70	35.380
479.05	35.636
479.40	34.384
479.75	35.334
480.10	35.227
480.45	35.026
480.79	35.080
481.14	35.372
481.49	35.219
481.84	35.354
482.19	34.829
482.53	34.314
482.88	34.825
483.23	35.126
483.58	34.604
483.92	34.271
484.27	34.705
484.62	35.266
484.97	34.798
485.31	34.223
485.66	32.899
486.01	32.730
486.36	33.299
486.70	33.844
487.05	34.173
487.40	33.996
487.75	33.868
488.09	32.707
488.44	33.062
488.79	32.645
489.13	33.375
489.48	33.392
489.83	33.241
490.17	34.693
490.52	33.891
490.87	34.669
491.22	34.566
491.56	33.893
491.91	33.835
492.26	34.778
492.60	34.592
492.95	35.780
493.30	35.755
493.64	33.570
493.99	34.497
494.34	35.073
494.68	34.044
495.03	34.483
495.37	34.516
495.72	35.338
496.07	34.939
496.41	34.140
496.76	33.859
497.11	34.810
497.45	35.158
497.80	34.839
498.14	34.794
498.49	34.597
498.84	33.753
499.18	34.821
499.53	34.995
499.87	35.228
500.22	34.649
500.56	35.322
500.91	35.658
501.26	35.013
501.60	33.894
501.95	35.363
502.29	34.992
502.64	33.798
502.98	34.023
503.33	35.097
503.67	35.222
504.02	35.802
504.36	34.206
504.71	35.319
505.06	35.726
505.40	36.568
505.75	35.545
506.09	34.345
506.44	36.159
506.78	34.208
507.13	35.233
507.47	36.066
507.82	34.933
508.16	35.412
508.51	36.980
508.85	35.879
509.19	35.436
509.54	35.467
509.88	36.018
510.23	36.180
510.57	36.684
510.92	35.431
511.26	36.703
511.61	36.244
511.95	36.322
512.30	37.101
512.64	37.009
512.98	36.562
513.33	35.522
513.67	36.527
514.02	36.659
514.36	36.180
514.70	37.341
515.05	37.988
515.39	38.331
515.74	38.346
516.08	37.853
516.42	38.222
516.77	38.137
517.11	36.942
517.46	37.726
517.80	38.928
518.14	39.785
518.49	38.551
518.83	38.067
519.17	37.982
519.52	37.851
519.86	38.505
520.20	38.726
520.55	39.687
520.89	38.462
521.23	39.746
521.58	37.368
521.92	38.518
522.26	39.450
522.61	39.044
522.95	38.493
523.29	39.271
523.64	38.263
523.98	40.457
524.32	39.461
524.66	39.837
525.01	39.381
525.35	37.893
525.69	39.298
526.04	39.958
526.38	39.342
526.72	40.278
527.06	40.295
527.41	40.326
527.75	39.627
528.09	40.806
528.43	38.979
528.78	39.553
529.12	39.863
529.46	39.468
529.80	38.734
530.15	39.402
530.49	40.167
530.83	39.262
531.17	39.336
531.51	39.900
531.86	39.916
532.20	39.466
532.54	39.353
532.88	40.145
533.22	41.810
533.57	38.069
533.91	39.780
534.25	39.036
534.59	39.065
534.93	39.557
535.27	39.125
535.62	39.905
535.96	38.939
536.30	38.692
536.64	38.913
536.98	39.233
537.32	39.509
537.66	39.589
538.01	39.249
538.35	39.782
538.69	38.924
539.03	38.933
539.37	38.622
539.71	39.058
540.05	39.291
540.39	37.545
540.73	39.487
541.07	39.926
541.42	39.130
541.76	38.417
542.10	37.518
542.44	39.884
542.78	37.977
543.12	36.823
543.46	38.897
543.80	37.956
544.14	39.427
544.48	38.877
544.82	39.461
545.16	38.623
545.50	40.029
545.84	38.844
546.18	39.551
546.52	40.354
546.86	38.791
547.20	38.182
547.54	37.453
547.88	37.322
548.22	38.397
548.56	39.253
548.90	38.105
549.24	38.377
549.58	38.227
549.92	38.120
550.26	39.846
550.60	39.255
550.94	38.254
551.28	39.268
551.62	39.558
551.96	39.137
552.30	38.062
552.64	38.092
552.98	38.633
553.32	37.348
553.66	38.695
554.00	37.143
554.34	39.063
554.68	38.278
555.02	38.571
555.36	37.569
555.69	37.279
556.03	38.433
556.37	37.884
556.71	38.914
557.05	39.531
557.39	38.956
557.73	38.365
558.07	38.263
558.41	37.749
558.75	38.921
559.08	39.489
559.42	37.960
559.76	39.343
560.10	39.364
560.44	38.005
560.78	37.491
561.12	37.115
561.45	37.872
561.79	37.372
562.13	36.990
562.47	37.232
562.81	37.832
563.15	36.654
563.48	35.056
563.82	37.482
564.16	36.720
564.50	35.960
564.84	36.641
565.17	37.697
565.51	35.961
565.85	36.620
566.19	36.465
566.52	37.061
566.86	35.997
567.20	36.128
567.54	35.737
567.88	34.345
568.21	35.932
568.55	34.748
568.89	35.275
569.23	34.488
569.56	34.575
569.90	33.490
570.24	33.215
570.57	33.860
570.91	32.933
571.25	33.196
571.59	33.443
571.92	31.597
572.26	32.181
572.60	31.976
572.93	31.893
573.27	31.570
573.61	31.879
573.95	31.768
574.28	32.028
574.62	31.325
574.96	30.795
575.29	30.666
575.63	31.278
575.97	30.727
576.30	31.348
576.64	30.127
576.98	31.048
577.31	30.505
577.65	30.601
577.98	30.482
578.32	30.251
578.66	30.496
578.99	30.758
579.33	30.734
579.67	30.569
580.00	30.400
580.34	30.249
580.67	30.748
581.01	29.963
581.35	30.004
581.68	29.856
582.02	29.432
582.35	30.045
582.69	30.217
583.02	29.909
583.36	30.207
583.70	30.518
584.03	30.579
584.37	30.517
584.70	29.957
585.04	29.960
585.37	30.514
585.71	29.985
586.04	30.502
586.38	30.537
586.72	30.321
587.05	30.701
587.39	30.405
587.72	30.036
588.06	31.091
588.39	30.821
588.73	29.950
589.06	30.577
589.40	31.221
589.73	31.152
590.07	31.010
590.40	31.198
590.73	31.362
591.07	31.212
591.40	31.064
591.74	31.530
592.07	30.946
592.41	31.959
592.74	30.805
593.08	30.766
593.41	30.751
593.75	30.772
594.08	30.997
594.41	30.520
594.75	30.579
595.08	30.425
595.42	30.755
595.75	30.795
596.09	30.865
596.42	30.655
596.75	31.273
597.09	31.017
597.42	31.018
597.75	31.191
598.09	30.384
598.42	30.715
598.76	31.239
599.09	30.798
599.42	29.662
599.76	30.326
600.09	30.842
600.42	29.531
600.76	29.523
601.09	29.608
601.42	29.871
601.76	29.708
602.09	30.499
602.42	30.743
602.76	29.974
603.09	30.548
603.42	30.111
603.76	29.836
604.09	29.866
604.42	30.399
604.76	30.032
605.09	30.373
605.42	30.237
605.75	29.237
606.09	30.800
606.42	29.178
606.75	29.440
607.09	30.644
607.42	30.381
607.75	29.155
608.08	30.355
608.42	30.698
608.75	29.565
609.08	28.470
609.41	29.549
609.75	29.963
610.08	29.406
610.41	30.178
610.74	29.929
611.07	30.037
611.41	29.390
611.74	28.781
612.07	29.855
612.40	29.972
612.73	30.266
613.07	29.888
613.40	29.615
613.73	29.152
614.06	28.747
614.39	29.936
614.72	28.689
615.06	30.023
615.39	28.060
615.72	29.787
616.05	28.928
616.38	29.359
616.71	29.353
617.05	29.523
617.38	28.903
617.71	30.046
618.04	29.501
618.37	29.235
618.70	30.978
619.03	30.457
619.36	30.928
619.69	29.782
620.03	29.672
620.36	29.932
620.69	30.155
621.02	30.087
621.35	31.064
621.68	31.863
622.01	31.640
622.34	30.653
622.67	29.680
623.00	30.467
623.33	29.843
623.66	31.235
623.99	28.947
624.32	30.818
624.65	30.000
624.99	30.078
625.32	31.359
625.65	30.024
625.98	32.167
626.31	29.351
626.64	30.721
626.97	32.353
627.30	30.185
627.63	31.163
627.96	31.006
628.29	31.262
628.62	29.691
628.95	31.362
629.28	30.682
629.61	31.034
629.94	31.432
630.26	32.218
630.59	31.832
630.92	29.715
631.25	31.173
631.58	31.744
631.91	30.979
632.24	32.071
632.57	32.105
632.90	31.857
633.23	33.677
633.56	31.698
633.89	31.794
634.22	33.590
634.55	32.063
634.88	34.538
635.20	34.384
