SpectraSuite Data File
++++++++++++++++++++++++++++++++++++
Date: Tue May 12 19:44:30 PDT 2015
User: schluterlab
Dark Spectrum Present: Yes
Reference Spectrum Present: Yes
Number of Sampled Component Spectra: 1
Spectrometers: USB2E3373
Integration Time (usec): 3000 (USB2E3373)
Spectra Averaged: 3 (USB2E3373)
Boxcar Smoothing: 0 (USB2E3373)
Correct for Electrical Dark: No (USB2E3373)
Strobe/Lamp Enabled: No (USB2E3373)
Correct for Detector Non-linearity: No (USB2E3373)
Correct for Stray Light: No (USB2E3373)
Number of Pixels in Processed Spectrum: 2048
>>>>>Begin Processed Spectral Data<<<<<
178.53	0.000
178.91	-120.000
179.29	-233.333
179.67	366.667
180.04	0.000
180.42	-200.000
180.80	233.333
181.18	1000.000
181.56	0.000
181.94	200.000
182.31	1600.000
182.69	-14.286
183.07	0.000
183.45	183.333
183.83	180.000
184.20	133.333
184.58	850.000
184.96	233.333
185.34	-33.333
185.72	-14.286
186.09	-166.667
186.47	-600.000
186.85	40.000
187.23	158.333
187.61	-85.714
187.98	-260.000
188.36	450.000
188.74	-250.000
189.12	-11.111
189.49	-70.000
189.87	425.000
190.25	166.667
190.63	533.333
191.00	360.000
191.38	-200.000
191.76	220.000
192.14	42.857
192.51	-100.000
192.89	-80.000
193.27	-80.000
193.65	-100.000
194.02	-166.667
194.40	300.000
194.78	-112.500
195.15	-200.000
195.53	66.667
195.91	200.000
196.29	-250.000
196.66	-500.000
197.04	-28.571
197.42	160.000
197.79	-250.000
198.17	-66.667
198.55	500.000
198.92	-155.556
199.30	1050.000
199.68	-150.000
200.05	-250.000
200.43	-61.111
200.81	-41.667
201.18	250.000
201.56	-650.000
201.94	-500.000
202.31	-16.667
202.69	-100.000
203.07	-50.000
203.44	-550.000
203.82	0.000
204.19	150.000
204.57	-533.333
204.95	63.636
205.32	360.000
205.70	175.000
206.08	-600.000
206.45	-20.000
206.83	1800.000
207.20	-155.556
207.58	7.692
207.96	200.000
208.33	666.667
208.71	366.667
209.08	400.000
209.46	-111.111
209.84	400.000
210.21	-666.667
210.59	350.000
210.96	177.778
211.34	-325.000
211.71	600.000
212.09	-100.000
212.46	-150.000
212.84	-112.500
213.22	142.857
213.59	-100.000
213.97	0.000
214.34	-500.000
214.72	-500.000
215.09	100.000
215.47	13.333
215.84	-62.500
216.22	-500.000
216.59	1100.000
216.97	-75.000
217.34	-116.667
217.72	55.556
218.09	425.000
218.47	15.789
218.84	-100.000
219.22	14.286
219.59	-140.000
219.97	-70.000
220.34	233.333
220.72	36.364
221.09	-350.000
221.47	0.000
221.84	-50.000
222.22	-300.000
222.59	-500.000
222.97	-26.087
223.34	73.333
223.72	271.429
224.09	-166.667
224.46	153.846
224.84	-60.000
225.21	-650.000
225.59	-275.000
225.96	35.000
226.34	266.667
226.71	240.000
227.08	-100.000
227.46	-171.429
227.83	-41.667
228.21	-550.000
228.58	200.000
228.95	-5.263
229.33	12.500
229.70	-116.667
230.08	-55.556
230.45	-600.000
230.82	-2600.000
231.20	-14.286
231.57	-360.000
231.95	-533.333
232.32	155.556
232.69	-750.000
233.07	0.000
233.44	-150.000
233.81	48.387
234.19	-400.000
234.56	-83.333
234.93	-283.333
235.31	-18.519
235.68	-11.111
236.05	-23.077
236.43	-68.421
236.80	-40.909
237.17	-85.714
237.55	-65.000
237.92	-11.628
238.29	-22.581
238.67	-3.571
239.04	14.286
239.41	1.961
239.79	2.000
240.16	-7.500
240.53	-3.448
240.91	-1.370
241.28	1.408
241.65	17.187
242.02	1.754
242.40	-10.667
242.77	5.263
243.14	11.765
243.51	12.903
243.89	0.000
244.26	8.333
244.63	13.265
245.00	3.571
245.38	-0.840
245.75	10.169
246.12	3.906
246.49	2.400
246.87	3.279
247.24	4.930
247.61	5.298
247.98	10.112
248.36	7.547
248.73	5.682
249.10	6.111
249.47	8.854
249.84	15.228
250.22	5.208
250.59	10.674
250.96	6.818
251.33	11.321
251.70	8.257
252.08	11.688
252.45	7.755
252.82	4.641
253.19	8.949
253.56	13.725
253.94	7.724
254.31	13.309
254.68	9.375
255.05	17.219
255.42	10.182
255.79	16.556
256.16	5.556
256.54	10.303
256.91	7.692
257.28	9.416
257.65	10.492
258.02	14.114
258.39	11.178
258.76	12.232
259.14	9.412
259.51	14.366
259.88	16.138
260.25	7.386
260.62	9.270
260.99	9.471
261.36	11.494
261.73	13.067
262.10	10.899
262.47	12.397
262.85	11.054
263.22	8.602
263.59	9.920
263.96	9.138
264.33	7.008
264.70	9.582
265.07	12.315
265.44	14.052
265.81	15.663
266.18	12.646
266.55	10.000
266.92	12.277
267.29	13.111
267.66	10.000
268.03	10.753
268.40	11.442
268.77	10.913
269.14	12.815
269.51	10.407
269.88	10.897
270.25	9.072
270.62	11.134
270.99	9.895
271.36	10.155
271.73	11.875
272.10	12.448
272.47	10.400
272.84	9.554
273.21	10.230
273.58	10.612
273.95	8.964
274.32	11.992
274.69	11.546
275.06	11.257
275.43	11.600
275.80	13.002
276.17	9.289
276.54	11.217
276.91	11.132
277.28	11.799
277.65	10.208
278.02	12.500
278.39	12.886
278.76	10.242
279.13	11.807
279.50	10.650
279.87	12.075
280.23	13.115
280.60	9.717
280.97	11.424
281.34	10.678
281.71	8.703
282.08	11.091
282.45	10.406
282.82	10.943
283.19	11.953
283.56	12.799
283.92	9.953
284.29	11.337
284.66	9.381
285.03	8.748
285.40	10.333
285.77	11.166
286.14	9.826
286.51	9.325
286.87	11.831
287.24	8.654
287.61	9.259
287.98	10.172
288.35	11.938
288.72	9.786
289.08	9.434
289.45	9.360
289.82	10.248
290.19	8.485
290.56	10.275
290.93	10.192
291.29	9.787
291.66	10.955
292.03	10.473
292.40	10.360
292.77	9.038
293.13	8.811
293.50	9.091
293.87	10.402
294.24	9.691
294.60	9.290
294.97	7.202
295.34	8.904
295.71	8.322
296.08	9.153
296.44	10.013
296.81	7.891
297.18	7.891
297.55	8.794
297.91	9.264
298.28	8.312
298.65	8.409
299.02	8.755
299.38	8.291
299.75	7.593
300.12	9.712
300.48	8.451
300.85	7.090
301.22	7.812
301.59	8.759
301.95	8.049
302.32	8.141
302.69	7.848
303.05	9.445
303.42	8.213
303.79	7.978
304.15	9.060
304.52	9.385
304.89	8.681
305.25	7.569
305.62	7.727
305.99	7.615
306.35	7.718
306.72	8.061
307.09	7.835
307.45	7.767
307.82	9.072
308.19	8.251
308.55	8.122
308.92	6.674
309.29	8.264
309.65	7.327
310.02	8.176
310.38	7.676
310.75	7.582
311.12	7.731
311.48	8.119
311.85	7.194
312.22	7.955
312.58	7.049
312.95	7.495
313.31	7.670
313.68	7.349
314.05	7.349
314.41	7.269
314.78	6.533
315.14	7.444
315.51	7.646
315.87	8.398
316.24	8.408
316.61	9.320
316.97	6.373
317.34	7.464
317.70	5.882
318.07	8.390
318.43	8.790
318.80	7.468
319.16	6.337
319.53	8.491
319.89	8.144
320.26	8.260
320.62	8.624
320.99	8.061
321.35	8.004
321.72	8.889
322.08	8.218
322.45	6.805
322.81	9.261
323.18	8.150
323.54	9.573
323.91	8.065
324.27	9.065
324.64	7.966
325.00	8.644
325.37	9.532
325.73	7.755
326.10	9.807
326.46	9.066
326.83	8.355
327.19	7.860
327.56	9.019
327.92	8.247
328.29	9.229
328.65	9.416
329.01	8.807
329.38	9.917
329.74	9.099
330.11	8.947
330.47	9.032
330.84	8.365
331.20	9.889
331.56	8.396
331.93	8.600
332.29	9.436
332.66	9.855
333.02	9.192
333.38	10.294
333.75	9.698
334.11	8.951
334.48	8.855
334.84	8.638
335.20	9.490
335.57	9.809
335.93	9.023
336.29	9.689
336.66	9.290
337.02	9.338
337.38	9.340
337.75	9.818
338.11	9.845
338.47	8.449
338.84	8.840
339.20	10.357
339.56	8.481
339.93	9.910
340.29	8.885
340.65	9.954
341.02	7.706
341.38	9.179
341.74	9.698
342.11	9.107
342.47	8.741
342.83	9.193
343.20	9.903
343.56	8.479
343.92	8.661
344.28	8.148
344.65	8.390
345.01	8.624
345.37	9.060
345.73	9.216
346.10	8.384
346.46	7.248
346.82	9.601
347.19	8.410
347.55	9.779
347.91	8.190
348.27	9.183
348.63	8.989
349.00	9.015
349.36	9.398
349.72	9.195
350.08	9.329
350.45	9.276
350.81	8.423
351.17	7.661
351.53	7.890
351.89	7.858
352.26	7.317
352.62	9.076
352.98	8.787
353.34	7.602
353.70	8.230
354.07	8.155
354.43	7.596
354.79	8.770
355.15	7.587
355.51	8.313
355.87	8.993
356.24	9.559
356.60	7.262
356.96	8.610
357.32	9.300
357.68	8.751
358.04	7.942
358.40	9.002
358.77	8.996
359.13	8.434
359.49	7.520
359.85	8.393
360.21	8.168
360.57	8.373
360.93	9.422
361.29	7.477
361.66	8.281
362.02	8.085
362.38	8.858
362.74	8.378
363.10	8.446
363.46	9.029
363.82	9.035
364.18	8.327
364.54	8.321
364.90	8.370
365.26	8.048
365.62	7.419
365.98	8.096
366.35	8.094
366.71	7.991
367.07	8.708
367.43	7.653
367.79	7.413
368.15	7.858
368.51	8.614
368.87	8.664
369.23	7.494
369.59	8.603
369.95	7.004
370.31	7.955
370.67	8.647
371.03	8.978
371.39	8.157
371.75	8.172
372.11	7.852
372.47	7.275
372.83	8.839
373.19	8.584
373.55	7.635
373.91	8.030
374.27	7.726
374.63	8.174
374.99	7.833
375.35	7.112
375.71	8.034
376.07	8.410
376.42	8.714
376.78	7.596
377.14	7.542
377.50	8.276
377.86	8.078
378.22	8.587
378.58	8.026
378.94	8.251
379.30	8.108
379.66	8.515
380.02	8.455
380.38	7.634
380.74	7.831
381.09	7.052
381.45	8.063
381.81	7.717
382.17	8.274
382.53	8.087
382.89	7.505
383.25	8.307
383.61	7.819
383.97	7.602
384.32	8.774
384.68	7.727
385.04	7.575
385.40	7.604
385.76	7.274
386.12	7.195
386.48	7.241
386.83	7.702
387.19	7.599
387.55	7.448
387.91	7.664
388.27	7.678
388.62	7.642
388.98	8.524
389.34	7.417
389.70	7.885
390.06	7.789
390.42	7.099
390.77	7.981
391.13	7.287
391.49	7.615
391.85	7.651
392.20	8.317
392.56	7.007
392.92	7.978
393.28	8.259
393.64	7.600
393.99	7.403
394.35	7.333
394.71	7.881
395.07	8.156
395.42	6.921
395.78	7.661
396.14	7.262
396.50	7.309
396.85	7.336
397.21	6.986
397.57	7.242
397.92	7.188
398.28	7.914
398.64	6.794
399.00	7.719
399.35	7.210
399.71	8.323
400.07	7.844
400.42	8.397
400.78	7.294
401.14	8.081
401.49	7.620
401.85	7.619
402.21	7.614
402.57	6.890
402.92	8.234
403.28	7.932
403.63	8.782
403.99	7.662
404.35	7.580
404.70	7.473
405.06	6.758
405.42	8.458
405.77	7.372
406.13	7.467
406.49	7.508
406.84	8.406
407.20	7.125
407.55	7.749
407.91	7.762
408.27	8.511
408.62	6.817
408.98	8.623
409.34	8.067
409.69	7.157
410.05	7.772
410.40	6.615
410.76	7.659
411.11	8.209
411.47	7.755
411.83	7.920
412.18	8.246
412.54	8.797
412.89	7.513
413.25	7.586
413.60	8.099
413.96	7.573
414.31	6.628
414.67	8.913
415.03	7.884
415.38	8.287
415.74	7.925
416.09	6.616
416.45	7.360
416.80	7.371
417.16	7.757
417.51	7.287
417.87	9.097
418.22	7.821
418.58	7.878
418.93	8.382
419.29	7.870
419.64	8.379
420.00	7.269
420.35	7.031
420.71	8.195
421.06	7.008
421.42	7.905
421.77	8.161
422.12	8.092
422.48	8.738
422.83	7.477
423.19	8.353
423.54	7.514
423.90	7.911
424.25	8.640
424.61	8.000
424.96	7.985
425.31	7.065
425.67	7.212
426.02	7.267
426.38	7.207
426.73	7.726
427.09	7.748
427.44	8.272
427.79	8.168
428.15	7.546
428.50	7.726
428.85	8.531
429.21	8.906
429.56	7.624
429.92	7.518
430.27	6.880
430.62	8.004
430.98	8.490
431.33	8.176
431.68	7.659
432.04	8.400
432.39	8.437
432.74	8.982
433.10	7.702
433.45	8.043
433.80	8.393
434.16	8.170
434.51	8.361
434.86	7.795
435.22	8.789
435.57	8.773
435.92	6.440
436.28	7.721
436.63	8.646
436.98	7.716
437.34	8.509
437.69	7.593
438.04	7.512
438.39	8.290
438.75	7.508
439.10	9.524
439.45	8.601
439.81	8.127
440.16	7.854
440.51	7.745
440.86	8.523
441.22	7.981
441.57	7.977
441.92	8.393
442.27	8.514
442.63	7.506
442.98	8.557
443.33	8.578
443.68	7.709
444.03	8.093
444.39	7.860
444.74	8.815
445.09	8.264
445.44	8.047
445.79	8.684
446.15	8.746
446.50	8.386
446.85	7.976
447.20	7.987
447.55	8.202
447.91	8.760
448.26	8.961
448.61	7.855
448.96	8.575
449.31	8.198
449.66	8.475
450.02	7.515
450.37	9.052
450.72	7.840
451.07	7.910
451.42	7.971
451.77	8.008
452.12	8.396
452.47	8.198
452.83	8.842
453.18	8.305
453.53	9.079
453.88	8.168
454.23	8.882
454.58	8.681
454.93	7.629
455.28	8.893
455.63	8.317
455.98	8.566
456.34	8.908
456.69	8.734
457.04	8.005
457.39	8.801
457.74	8.028
458.09	9.334
458.44	9.135
458.79	8.363
459.14	8.229
459.49	9.490
459.84	8.859
460.19	8.505
460.54	7.828
460.89	8.353
461.24	8.117
461.59	9.211
461.94	8.679
462.29	8.521
462.64	9.192
462.99	8.557
463.34	8.425
463.69	9.396
464.04	8.403
464.39	9.196
464.74	9.020
465.09	9.453
465.44	7.858
465.79	9.025
466.14	8.473
466.49	9.637
466.84	9.029
467.19	8.707
467.54	8.355
467.89	9.602
468.24	7.765
468.59	9.228
468.94	8.877
469.29	8.720
469.64	9.847
469.99	8.796
470.34	8.274
470.68	7.538
471.03	8.467
471.38	9.125
471.73	9.520
472.08	9.537
472.43	8.990
472.78	7.614
473.13	8.561
473.48	9.959
473.83	8.851
474.17	8.873
474.52	9.846
474.87	9.280
475.22	9.593
475.57	9.342
475.92	9.437
476.27	9.584
476.61	9.574
476.96	8.951
477.31	9.132
477.66	9.704
478.01	9.182
478.36	9.341
478.70	10.141
479.05	8.532
479.40	8.734
479.75	9.815
480.10	9.848
480.45	9.110
480.79	9.289
481.14	9.541
481.49	9.717
481.84	9.343
482.19	9.220
482.53	9.902
482.88	9.049
483.23	9.196
483.58	9.604
483.92	9.899
484.27	9.342
484.62	9.099
484.97	9.051
485.31	9.126
485.66	8.462
486.01	8.213
486.36	8.129
486.70	8.470
487.05	8.992
487.40	8.930
487.75	9.705
488.09	9.461
488.44	8.876
488.79	9.251
489.13	8.978
489.48	9.187
489.83	9.894
490.17	9.376
490.52	9.560
490.87	9.397
491.22	10.700
491.56	9.387
491.91	9.739
492.26	10.097
492.60	9.949
492.95	9.856
493.30	9.618
493.64	9.787
493.99	10.164
494.34	9.326
494.68	9.415
495.03	9.686
495.37	10.086
495.72	9.757
496.07	10.142
496.41	9.239
496.76	8.978
497.11	9.453
497.45	10.296
497.80	10.021
498.14	10.296
498.49	10.198
498.84	9.486
499.18	9.549
499.53	9.969
499.87	9.524
500.22	9.922
500.56	10.727
500.91	10.802
501.26	9.711
501.60	9.837
501.95	9.672
502.29	9.954
502.64	9.856
502.98	9.389
503.33	9.486
503.67	9.903
504.02	10.623
504.36	9.605
504.71	9.840
505.06	9.695
505.40	10.724
505.75	9.426
506.09	9.859
506.44	10.622
506.78	10.225
507.13	10.749
507.47	10.914
507.82	10.435
508.16	9.967
508.51	10.996
508.85	10.385
509.19	9.874
509.54	10.482
509.88	10.529
510.23	9.213
510.57	10.051
510.92	10.431
511.26	10.396
511.61	11.073
511.95	10.064
512.30	11.188
512.64	10.088
512.98	11.459
513.33	9.672
513.67	10.539
514.02	10.096
514.36	10.380
514.70	11.415
515.05	10.183
515.39	10.853
515.74	10.526
516.08	10.421
516.42	11.436
516.77	10.435
517.11	11.009
517.46	11.493
517.80	11.232
518.14	10.753
518.49	11.125
518.83	11.219
519.17	11.247
519.52	10.931
519.86	11.336
520.20	9.936
520.55	11.619
520.89	11.673
521.23	11.356
521.58	11.442
521.92	11.949
522.26	11.203
522.61	11.263
522.95	11.233
523.29	10.864
523.64	11.194
523.98	11.089
524.32	12.256
524.66	12.033
525.01	11.478
525.35	11.286
525.69	12.113
526.04	10.994
526.38	11.035
526.72	12.292
527.06	11.603
527.41	11.056
527.75	10.481
528.09	11.457
528.43	11.481
528.78	10.692
529.12	11.164
529.46	12.159
529.80	10.960
530.15	11.397
530.49	11.855
530.83	10.123
531.17	12.429
531.51	12.562
531.86	12.465
532.20	11.255
532.54	12.374
532.88	11.127
533.22	11.566
533.57	12.138
533.91	12.388
534.25	11.745
534.59	11.486
534.93	11.954
535.27	11.852
535.62	11.411
535.96	12.282
536.30	11.343
536.64	11.803
536.98	11.431
537.32	11.533
537.66	11.584
538.01	12.003
538.35	12.873
538.69	10.474
539.03	12.473
539.37	11.845
539.71	11.739
540.05	12.156
540.39	11.256
540.73	12.308
541.07	11.471
541.42	12.117
541.76	11.727
542.10	12.123
542.44	12.139
542.78	10.191
543.12	11.047
543.46	11.475
543.80	12.080
544.14	12.330
544.48	11.649
544.82	11.143
545.16	11.667
545.50	12.227
545.84	13.021
546.18	12.135
546.52	12.145
546.86	11.171
547.20	12.879
547.54	11.145
547.88	12.108
548.22	11.885
548.56	12.262
548.90	11.930
549.24	12.061
549.58	12.891
549.92	12.481
550.26	12.124
550.60	11.578
550.94	12.540
551.28	12.195
551.62	12.203
551.96	12.380
552.30	10.775
552.64	11.345
552.98	11.813
553.32	11.970
553.66	12.291
554.00	11.429
554.34	13.125
554.68	11.962
555.02	11.508
555.36	11.994
555.69	10.838
556.03	11.973
556.37	12.228
556.71	11.614
557.05	12.578
557.39	11.807
557.73	12.264
558.07	13.067
558.41	11.333
558.75	12.531
559.08	12.851
559.42	13.127
559.76	11.457
560.10	12.714
560.44	11.085
560.78	11.270
561.12	11.270
561.45	11.161
561.79	10.866
562.13	12.898
562.47	12.309
562.81	11.979
563.15	11.103
563.48	10.712
563.82	12.154
564.16	11.829
564.50	11.533
564.84	11.977
565.17	11.159
565.51	12.104
565.85	11.761
566.19	11.761
566.52	11.971
566.86	11.885
567.20	11.311
567.54	10.849
567.88	9.830
568.21	11.020
568.55	11.205
568.89	10.769
569.23	10.191
569.56	10.713
569.90	10.021
570.24	10.284
570.57	9.744
570.91	10.298
571.25	10.090
571.59	10.295
571.92	9.705
572.26	9.596
572.60	9.525
572.93	9.299
573.27	9.280
573.61	9.533
573.95	9.109
574.28	9.131
574.62	9.390
574.96	9.126
575.29	9.164
575.63	8.807
575.97	9.091
576.30	9.746
576.64	9.344
576.98	9.229
577.31	9.195
577.65	8.914
577.98	9.055
578.32	8.582
578.66	8.908
578.99	9.693
579.33	9.384
579.67	9.442
580.00	9.709
580.34	9.253
580.67	9.385
581.01	9.215
581.35	8.820
581.68	8.807
582.02	8.674
582.35	8.844
582.69	8.933
583.02	9.085
583.36	9.378
583.70	9.859
584.03	9.154
584.37	9.735
584.70	9.333
585.04	8.964
585.37	9.072
585.71	8.912
586.04	9.425
586.38	9.344
586.72	9.037
587.05	9.879
587.39	9.618
587.72	9.391
588.06	9.560
588.39	9.144
588.73	9.275
589.06	9.819
589.40	9.996
589.73	10.172
590.07	9.175
590.40	9.885
590.73	9.913
591.07	9.610
591.40	9.868
591.74	10.215
592.07	10.220
592.41	10.216
592.74	9.885
593.08	9.654
593.41	9.702
593.75	9.976
594.08	9.868
594.41	9.872
594.75	9.984
595.08	9.817
595.42	10.101
595.75	10.038
596.09	9.408
596.42	9.302
596.75	10.545
597.09	10.448
597.42	9.385
597.75	10.084
598.09	10.440
598.42	9.938
598.76	9.791
599.09	10.252
599.42	9.363
599.76	9.612
600.09	10.241
600.42	9.414
600.76	9.238
601.09	9.412
601.42	10.427
601.76	9.700
602.09	9.887
602.42	10.291
602.76	10.253
603.09	9.922
603.42	9.881
603.76	9.778
604.09	9.691
604.42	10.176
604.76	10.041
605.09	9.636
605.42	10.095
605.75	9.548
606.09	10.400
606.42	9.886
606.75	10.613
607.09	10.121
607.42	10.188
607.75	9.320
608.08	10.243
608.42	10.281
608.75	9.955
609.08	9.490
609.41	10.783
609.75	9.847
610.08	10.181
610.41	9.975
610.74	9.960
611.07	10.471
611.41	9.636
611.74	10.065
612.07	9.766
612.40	11.031
612.73	10.069
613.07	11.039
613.40	10.523
613.73	10.367
614.06	10.480
614.39	10.955
614.72	9.976
615.06	10.792
615.39	10.162
615.72	9.798
616.05	9.623
616.38	10.558
616.71	10.261
617.05	10.741
617.38	10.452
617.71	10.255
618.04	10.447
618.37	10.595
618.70	10.054
619.03	12.255
619.36	11.856
619.69	10.575
620.03	10.908
620.36	11.716
620.69	11.382
621.02	10.926
621.35	11.234
621.68	10.261
622.01	10.963
622.34	11.223
622.67	12.142
623.00	11.548
623.33	11.654
623.66	12.032
623.99	11.005
624.32	10.485
624.65	10.469
624.99	10.703
625.32	12.243
625.65	11.369
625.98	12.500
626.31	11.255
626.64	11.802
626.97	11.949
627.30	11.667
627.63	11.442
627.96	11.080
628.29	12.046
628.62	11.237
628.95	12.355
629.28	11.570
629.61	12.121
629.94	13.071
630.26	12.448
630.59	14.241
630.92	12.013
631.25	11.844
631.58	11.163
631.91	12.187
632.24	12.426
632.57	12.723
632.90	13.776
633.23	13.935
633.56	13.208
633.89	12.533
634.22	13.462
634.55	12.352
634.88	13.387
635.20	13.699
635.53	13.268
635.86	12.500
636.19	12.824
636.52	14.016
636.85	11.343
637.18	14.378
637.51	12.331
637.83	12.709
638.16	13.798
638.49	14.841
638.82	14.768
639.15	12.714
639.48	10.189
639.81	12.519
640.13	12.098
640.46	14.646
640.79	12.713
641.12	14.419
641.45	13.375
641.77	11.783
642.10	14.169
642.43	14.646
642.76	12.545
643.09	14.014
643.41	12.903
643.74	13.889
644.07	12.522
644.40	14.079
644.73	12.155
645.05	14.504
645.38	14.038
645.71	13.931
646.04	14.126
646.36	13.447
646.69	16.634
647.02	18.359
647.35	15.600
647.67	17.635
648.00	16.893
648.33	15.029
