SpectraSuite Data File
++++++++++++++++++++++++++++++++++++
Date: Tue May 12 19:40:22 PDT 2015
User: schluterlab
Dark Spectrum Present: Yes
Reference Spectrum Present: Yes
Number of Sampled Component Spectra: 1
Spectrometers: USB2E3373
Integration Time (usec): 3000 (USB2E3373)
Spectra Averaged: 3 (USB2E3373)
Boxcar Smoothing: 0 (USB2E3373)
Correct for Electrical Dark: No (USB2E3373)
Strobe/Lamp Enabled: No (USB2E3373)
Correct for Detector Non-linearity: No (USB2E3373)
Correct for Stray Light: No (USB2E3373)
Number of Pixels in Processed Spectrum: 2048
>>>>>Begin Processed Spectral Data<<<<<
178.53	0.000
178.91	-100.000
179.29	-250.000
179.67	466.667
180.04	0.000
180.42	-20.000
180.80	-66.667
181.18	600.000
181.56	-650.000
181.94	216.667
182.31	2200.000
182.69	-114.286
183.07	0.000
183.45	108.333
183.83	180.000
184.20	66.667
184.58	550.000
184.96	350.000
185.34	-133.333
185.72	-14.286
186.09	150.000
186.47	-500.000
186.85	100.000
187.23	116.667
187.61	-71.429
187.98	-20.000
188.36	450.000
188.74	-75.000
189.12	-22.222
189.49	-90.000
189.87	300.000
190.25	88.889
190.63	533.333
191.00	80.000
191.38	-266.667
191.76	280.000
192.14	42.857
192.51	20.000
192.89	-20.000
193.27	-60.000
193.65	-333.333
194.02	-133.333
194.40	-0.000
194.78	-162.500
195.15	-342.857
195.53	133.333
195.91	360.000
196.29	-275.000
196.66	-200.000
197.04	-228.571
197.42	80.000
197.79	-125.000
198.17	0.000
198.55	300.000
198.92	-44.444
199.30	100.000
199.68	-300.000
200.05	-300.000
200.43	-11.111
200.81	0.000
201.18	100.000
201.56	-300.000
201.94	-300.000
202.31	-41.667
202.69	88.889
203.07	-25.000
203.44	-275.000
203.82	0.000
204.19	237.500
204.57	33.333
204.95	145.455
205.32	160.000
205.70	200.000
206.08	-200.000
206.45	-40.000
206.83	1500.000
207.20	-155.556
207.58	-7.692
207.96	266.667
208.33	233.333
208.71	266.667
209.08	600.000
209.46	-55.556
209.84	366.667
210.21	100.000
210.59	250.000
210.96	133.333
211.34	-275.000
211.71	850.000
212.09	40.000
212.46	12.500
212.84	-125.000
213.22	-14.286
213.59	75.000
213.97	0.000
214.34	-300.000
214.72	-1300.000
215.09	700.000
215.47	0.000
215.84	-25.000
216.22	-1700.000
216.59	1300.000
216.97	-33.333
217.34	-133.333
217.72	38.889
218.09	525.000
218.47	-5.263
218.84	-125.000
219.22	71.429
219.59	-50.000
219.97	-190.000
220.34	116.667
220.72	118.182
221.09	-850.000
221.47	0.000
221.84	-0.000
222.22	-275.000
222.59	-275.000
222.97	34.783
223.34	73.333
223.72	285.714
224.09	0.000
224.46	115.385
224.84	0.000
225.21	-400.000
225.59	-125.000
225.96	75.000
226.34	116.667
226.71	120.000
227.08	-53.846
227.46	-42.857
227.83	-8.333
228.21	-900.000
228.58	33.333
228.95	0.000
229.33	-25.000
229.70	-116.667
230.08	-55.556
230.45	-433.333
230.82	-1600.000
231.20	23.810
231.57	-80.000
231.95	-100.000
232.32	155.556
232.69	-300.000
233.07	106.250
233.44	-12.500
233.81	19.355
234.19	-140.000
234.56	5.556
234.93	-116.667
235.31	22.222
235.68	-14.815
236.05	-3.846
236.43	-36.842
236.80	36.364
237.17	-71.429
237.55	-25.000
237.92	20.930
238.29	9.677
238.67	35.714
239.04	28.571
239.41	25.490
239.79	14.000
240.16	22.500
240.53	-6.897
240.91	26.027
241.28	7.042
241.65	20.313
242.02	17.544
242.40	34.667
242.77	13.684
243.14	29.412
243.51	17.204
243.89	16.190
244.26	31.481
244.63	23.469
245.00	13.393
245.38	13.445
245.75	21.186
246.12	28.125
246.49	14.400
246.87	19.672
247.24	12.676
247.61	28.477
247.98	24.719
248.36	27.673
248.73	18.750
249.10	18.333
249.47	25.000
249.84	26.904
250.22	19.271
250.59	17.416
250.96	26.364
251.33	21.698
251.70	20.183
252.08	26.407
252.45	20.000
252.82	19.409
253.19	26.070
253.56	22.745
253.94	22.764
254.31	28.417
254.68	24.653
255.05	25.166
255.42	21.455
255.79	26.490
256.16	24.653
256.54	25.152
256.91	26.603
257.28	21.104
257.65	21.967
258.02	27.027
258.39	27.492
258.76	24.465
259.14	24.706
259.51	30.423
259.88	29.683
260.25	21.307
260.62	21.348
260.99	25.627
261.36	22.414
261.73	24.533
262.10	25.613
262.47	26.446
262.85	25.450
263.22	24.462
263.59	26.273
263.96	25.326
264.33	23.181
264.70	20.885
265.07	25.369
265.44	25.527
265.81	27.470
266.18	24.824
266.55	22.381
266.92	24.554
267.29	22.222
267.66	24.773
268.03	24.946
268.40	21.510
268.77	24.053
269.14	24.580
269.51	21.719
269.88	24.145
270.25	23.840
270.62	26.050
270.99	23.158
271.36	24.283
271.73	26.042
272.10	23.237
272.47	22.400
272.84	24.416
273.21	21.294
273.58	21.837
273.95	24.303
274.32	23.211
274.69	23.483
275.06	23.265
275.43	21.600
275.80	23.327
276.17	22.727
276.54	26.426
276.91	23.992
277.28	24.758
277.65	24.197
278.02	23.295
278.39	24.682
278.76	25.698
279.13	22.361
279.50	24.910
279.87	24.906
280.23	24.044
280.60	22.968
280.97	23.726
281.34	23.390
281.71	20.071
282.08	24.687
282.45	21.340
282.82	23.232
283.19	22.222
283.56	24.403
283.92	23.065
284.29	24.027
284.66	22.655
285.03	21.098
285.40	22.833
285.77	24.466
286.14	23.930
286.51	21.383
286.87	22.204
287.24	19.071
287.61	22.377
287.98	25.039
288.35	21.085
288.72	23.700
289.08	20.126
289.45	20.593
289.82	21.118
290.19	21.061
290.56	20.695
290.93	21.713
291.29	20.142
291.66	21.067
292.03	22.382
292.40	20.719
292.77	20.408
293.13	19.530
293.50	21.212
293.87	19.556
294.24	19.242
294.60	20.765
294.97	17.729
295.34	17.808
295.71	18.724
296.08	19.399
296.44	20.422
296.81	18.370
297.18	20.181
297.55	18.844
297.91	18.147
298.28	17.391
298.65	18.241
299.02	17.879
299.38	16.582
299.75	18.662
300.12	17.506
300.48	18.075
300.85	16.870
301.22	17.308
301.59	18.127
301.95	17.805
302.32	16.768
302.69	14.982
303.05	17.119
303.42	18.599
303.79	16.742
304.15	17.214
304.52	17.542
304.89	17.136
305.25	16.972
305.62	16.818
305.99	16.125
306.35	17.338
306.72	17.538
307.09	16.322
307.45	18.015
307.82	17.289
308.19	18.042
308.55	16.772
308.92	18.008
309.29	15.272
309.65	17.544
310.02	16.981
310.38	16.418
310.75	16.291
311.12	16.684
311.48	17.163
311.85	15.198
312.22	16.219
312.58	14.904
312.95	16.119
313.31	15.831
313.68	16.485
314.05	17.676
314.41	16.110
314.78	15.678
315.14	16.552
315.51	16.187
315.87	16.113
316.24	17.804
316.61	16.505
316.97	15.784
317.34	17.033
317.70	16.246
318.07	15.622
318.43	16.163
318.80	15.574
319.16	15.657
319.53	16.415
319.89	15.720
320.26	17.011
320.62	16.376
320.99	16.429
321.35	15.711
321.72	15.758
322.08	16.733
322.45	15.483
322.81	16.650
323.18	16.683
323.54	16.967
323.91	15.655
324.27	15.622
324.64	15.276
325.00	16.106
325.37	15.737
325.73	15.420
326.10	15.762
326.46	16.682
326.83	15.128
327.19	16.943
327.56	16.888
327.92	14.844
328.29	16.039
328.65	17.232
329.01	16.055
329.38	16.529
329.74	16.063
330.11	14.911
330.47	15.549
330.84	14.380
331.20	15.619
331.56	14.151
331.93	14.273
332.29	14.524
332.66	16.546
333.02	15.042
333.38	16.176
333.75	15.096
334.11	15.371
334.48	15.474
334.84	14.742
335.20	15.130
335.57	15.622
335.93	14.698
336.29	16.271
336.66	14.390
337.02	15.956
337.38	15.943
337.75	16.000
338.11	16.591
338.47	15.135
338.84	14.365
339.20	14.849
339.56	15.471
339.93	14.234
340.29	15.141
340.65	15.890
341.02	15.058
341.38	14.475
341.74	15.214
342.11	15.119
342.47	14.685
342.83	14.137
343.20	14.943
343.56	14.248
343.92	15.223
344.28	14.065
344.65	14.726
345.01	14.199
345.37	16.154
345.73	13.867
346.10	14.347
346.46	14.495
346.82	14.698
347.19	14.718
347.55	15.646
347.91	15.152
348.27	15.333
348.63	16.422
349.00	15.693
349.36	15.746
349.72	16.667
350.08	16.203
350.45	15.867
350.81	15.772
351.17	14.909
351.53	14.976
351.89	14.767
352.26	15.772
352.62	15.454
352.98	15.649
353.34	15.455
353.70	15.309
354.07	16.145
354.43	15.609
354.79	15.984
355.15	15.335
355.51	16.137
355.87	16.486
356.24	15.686
356.60	15.943
356.96	15.956
357.32	16.708
357.68	15.990
358.04	16.207
358.40	16.121
358.77	15.341
359.13	16.225
359.49	15.120
359.85	16.147
360.21	16.019
360.57	14.912
360.93	16.548
361.29	15.966
361.66	16.088
362.02	16.797
362.38	16.317
362.74	16.065
363.10	15.385
363.46	15.952
363.82	15.391
364.18	14.989
364.54	15.802
364.90	15.704
365.26	16.692
365.62	14.913
365.98	15.742
366.35	16.339
366.71	16.206
367.07	15.941
367.43	15.668
367.79	15.334
368.15	15.345
368.51	16.929
368.87	15.198
369.23	15.746
369.59	16.618
369.95	14.829
370.31	15.379
370.67	15.038
371.03	16.409
371.39	15.408
371.75	14.487
372.11	14.963
372.47	15.442
372.83	16.070
373.19	15.361
373.55	14.521
373.91	15.076
374.27	16.336
374.63	16.274
374.99	14.934
375.35	15.385
375.71	15.710
376.07	15.760
376.42	16.252
376.78	14.495
377.14	15.712
377.50	14.843
377.86	15.111
378.22	15.984
378.58	15.724
378.94	16.568
379.30	14.607
379.66	15.877
380.02	15.257
380.38	15.776
380.74	16.035
381.09	14.867
381.45	16.127
381.81	15.497
382.17	15.635
382.53	15.713
382.89	15.138
383.25	15.599
383.61	14.050
383.97	15.270
384.32	14.581
384.68	15.709
385.04	14.195
385.40	16.166
385.76	14.485
386.12	14.983
386.48	14.677
386.83	14.944
387.19	15.070
387.55	15.026
387.91	14.579
388.27	15.355
388.62	14.508
388.98	15.140
389.34	15.224
389.70	15.064
390.06	15.314
390.42	15.281
390.77	14.487
391.13	15.290
391.49	16.038
391.85	15.702
392.20	16.106
392.56	14.145
392.92	14.842
393.28	15.500
393.64	14.820
393.99	15.065
394.35	14.147
394.71	14.437
395.07	15.053
395.42	14.032
395.78	14.919
396.14	14.923
396.50	15.071
396.85	14.276
397.21	15.006
397.57	15.339
397.92	15.204
398.28	15.228
398.64	14.667
399.00	15.786
399.35	15.885
399.71	14.910
400.07	15.503
400.42	14.936
400.78	15.035
401.14	14.836
401.49	15.053
401.85	15.683
402.21	14.340
402.57	14.746
402.92	15.073
403.28	15.150
403.63	15.705
403.99	14.465
404.35	14.013
404.70	14.440
405.06	15.127
405.42	15.355
405.77	14.982
406.13	15.114
406.49	14.069
406.84	15.504
407.20	14.622
407.55	15.631
407.91	14.545
408.27	14.096
408.62	15.434
408.98	15.573
409.34	15.237
409.69	15.318
410.05	14.313
410.40	14.772
410.76	15.816
411.11	14.803
411.47	14.354
411.83	15.518
412.18	14.921
412.54	15.395
412.89	14.054
413.25	15.172
413.60	14.987
413.96	14.239
414.31	14.914
414.67	15.057
415.03	15.422
415.38	15.460
415.74	14.574
416.09	14.473
416.45	14.791
416.80	13.978
417.16	14.528
417.51	14.712
417.87	16.279
418.22	14.572
418.58	14.858
418.93	15.990
419.29	14.858
419.64	15.865
420.00	14.800
420.35	15.694
420.71	14.597
421.06	15.055
421.42	15.558
421.77	15.530
422.12	15.416
422.48	14.563
422.83	14.590
423.19	15.647
423.54	14.417
423.90	15.328
424.25	16.073
424.61	15.419
424.96	15.479
425.31	14.614
425.67	15.515
426.02	15.342
426.38	14.414
426.73	15.452
427.09	15.036
427.44	14.568
427.79	16.275
428.15	14.838
428.50	15.201
428.85	15.779
429.21	16.557
429.56	15.359
429.92	15.576
430.27	14.667
430.62	14.819
430.98	15.690
431.33	15.628
431.68	14.880
432.04	15.708
432.39	14.557
432.74	15.813
433.10	15.706
433.45	15.389
433.80	15.893
434.16	15.305
434.51	16.332
434.86	14.985
435.22	15.483
435.57	16.161
435.92	13.808
436.28	15.193
436.63	16.041
436.98	15.185
437.34	15.227
437.69	15.617
438.04	14.663
438.39	14.883
438.75	14.954
439.10	15.714
439.45	15.661
439.81	15.492
440.16	14.966
440.51	15.675
440.86	15.909
441.22	15.188
441.57	15.840
441.92	15.351
442.27	15.143
442.63	16.140
442.98	15.465
443.33	16.334
443.68	15.530
444.03	15.361
444.39	14.888
444.74	16.256
445.09	17.001
445.44	14.927
445.79	15.750
446.15	15.977
446.50	16.541
446.85	15.842
447.20	15.427
447.55	15.009
447.91	16.226
448.26	15.727
448.61	15.831
448.96	15.612
449.31	15.853
449.66	14.952
450.02	15.562
450.37	17.132
450.72	16.158
451.07	15.227
451.42	16.271
451.77	15.069
452.12	15.288
452.47	14.837
452.83	16.314
453.18	16.340
453.53	17.048
453.88	16.337
454.23	16.869
454.58	16.449
454.93	15.531
455.28	16.293
455.63	17.089
455.98	15.546
456.34	16.611
456.69	15.708
457.04	15.617
457.39	16.292
457.74	15.803
458.09	15.370
458.44	15.819
458.79	15.371
459.14	16.696
459.49	16.624
459.84	16.468
460.19	15.760
460.54	16.162
460.89	15.353
461.24	16.364
461.59	16.972
461.94	16.174
462.29	16.416
462.64	16.435
462.99	16.679
463.34	16.557
463.69	17.010
464.04	16.677
464.39	17.042
464.74	16.807
465.09	16.656
465.44	15.957
465.79	16.125
466.14	16.229
466.49	16.300
466.84	15.909
467.19	16.634
467.54	15.915
467.89	17.505
468.24	16.288
468.59	17.670
468.94	16.409
469.29	16.955
469.64	17.797
469.99	16.655
470.34	16.124
470.68	16.769
471.03	16.350
471.38	17.876
471.73	17.442
472.08	16.868
472.43	18.396
472.78	15.954
473.13	17.404
473.48	16.805
473.83	17.569
474.17	17.145
474.52	16.879
474.87	17.992
475.22	17.853
475.57	16.392
475.92	16.714
476.27	16.938
476.61	16.785
476.96	16.538
477.31	17.009
477.66	17.199
478.01	16.539
478.36	17.192
478.70	17.070
479.05	16.657
479.40	16.086
479.75	17.555
480.10	16.504
480.45	17.382
480.79	17.333
481.14	16.658
481.49	17.841
481.84	17.172
482.19	16.683
482.53	16.618
482.88	16.878
483.23	17.186
483.58	16.782
483.92	17.337
484.27	16.312
484.62	16.926
484.97	16.652
485.31	17.053
485.66	16.479
486.01	15.644
486.36	15.979
486.70	16.018
487.05	16.462
487.40	16.402
487.75	16.576
488.09	16.071
488.44	16.620
488.79	16.781
489.13	16.376
489.48	17.491
489.83	16.736
490.17	16.878
490.52	17.161
490.87	17.359
491.22	17.061
491.56	16.700
491.91	17.068
492.26	17.491
492.60	17.704
492.95	18.224
493.30	17.355
493.64	17.191
493.99	17.864
494.34	17.182
494.68	17.245
495.03	16.531
495.37	17.587
495.72	17.352
496.07	17.039
496.41	16.403
496.76	17.049
497.11	17.774
497.45	17.680
497.80	17.965
498.14	18.004
498.49	17.779
498.84	17.453
499.18	16.917
499.53	17.497
499.87	17.358
500.22	17.558
500.56	18.577
500.91	18.406
501.26	17.848
501.60	17.839
501.95	17.605
502.29	16.880
502.64	17.222
502.98	17.617
503.33	17.324
503.67	17.101
504.02	17.875
504.36	17.565
504.71	17.819
505.06	17.193
505.40	17.748
505.75	18.115
506.09	17.118
506.44	18.294
506.78	18.094
507.13	17.807
507.47	17.895
507.82	17.634
508.16	17.706
508.51	18.435
508.85	18.077
509.19	18.212
509.54	18.130
509.88	17.664
510.23	17.697
510.57	18.001
510.92	18.254
511.26	18.380
511.61	18.322
511.95	18.855
512.30	18.493
512.64	17.478
512.98	18.252
513.33	17.761
513.67	17.066
514.02	18.089
514.36	17.972
514.70	19.126
515.05	18.720
515.39	18.319
515.74	17.857
516.08	18.581
516.42	19.329
516.77	18.323
517.11	18.104
517.46	19.238
517.80	19.400
518.14	19.418
518.49	19.276
518.83	19.455
519.17	19.344
519.52	18.364
519.86	20.203
520.20	18.471
520.55	20.170
520.89	19.703
521.23	18.971
521.58	19.246
521.92	19.559
522.26	19.725
522.61	19.522
522.95	20.000
523.29	19.366
523.64	18.725
523.98	18.481
524.32	18.990
524.66	20.326
525.01	19.450
525.35	18.605
525.69	19.408
526.04	19.873
526.38	19.534
526.72	19.722
527.06	19.128
527.41	19.986
527.75	19.167
528.09	20.368
528.43	18.781
528.78	18.938
529.12	19.110
529.46	19.203
529.80	19.605
530.15	19.666
530.49	20.502
530.83	19.450
531.17	20.127
531.51	19.486
531.86	20.588
532.20	18.759
532.54	20.647
532.88	19.345
533.22	20.187
533.57	19.655
533.91	20.853
534.25	20.299
534.59	19.395
534.93	19.275
535.27	18.788
535.62	19.109
535.96	18.772
536.30	19.624
536.64	20.029
536.98	21.091
537.32	20.238
537.66	18.988
538.01	19.072
538.35	19.782
538.69	19.462
539.03	19.034
539.37	19.526
539.71	19.275
540.05	19.030
540.39	19.608
540.73	20.366
541.07	20.147
541.42	19.743
541.76	20.432
542.10	19.584
542.44	20.087
542.78	19.208
543.12	19.350
543.46	19.374
543.80	19.585
544.14	20.143
544.48	20.070
544.82	20.156
545.16	20.000
545.50	20.451
545.84	21.434
546.18	20.225
546.52	20.600
546.86	19.587
547.20	19.318
547.54	19.636
547.88	18.946
548.22	18.706
548.56	20.085
548.90	19.228
549.24	19.152
549.58	19.896
549.92	20.602
550.26	19.537
550.60	20.063
550.94	19.921
551.28	21.057
551.62	20.803
551.96	20.447
552.30	20.000
552.64	20.060
552.98	19.614
553.32	19.697
553.66	19.803
554.00	20.154
554.34	19.844
554.68	20.734
555.02	20.476
555.36	20.413
555.69	19.600
556.03	20.103
556.37	19.655
556.71	19.910
557.05	19.062
557.39	19.920
557.73	21.069
558.07	20.892
558.41	19.553
558.75	19.917
559.08	21.106
559.42	20.819
559.76	20.809
560.10	20.130
560.44	19.398
560.78	19.835
561.12	20.210
561.45	18.973
561.79	18.869
562.13	20.015
562.47	19.648
562.81	19.864
563.15	19.163
563.48	18.727
563.82	20.087
564.16	19.303
564.50	19.628
564.84	20.198
565.17	20.029
565.51	20.338
565.85	19.718
566.19	20.042
566.52	19.427
566.86	20.287
567.20	19.561
567.54	19.911
567.88	18.083
568.21	19.637
568.55	19.072
568.89	18.901
569.23	18.574
569.56	18.437
569.90	17.473
570.24	18.164
570.57	17.269
570.91	18.159
571.25	18.767
571.59	18.230
571.92	17.333
572.26	17.525
572.60	17.415
572.93	18.107
573.27	17.132
573.61	17.858
573.95	17.680
574.28	17.021
574.62	17.632
574.96	17.392
575.29	17.346
575.63	16.894
575.97	17.298
576.30	17.698
576.64	16.703
576.98	16.724
577.31	17.475
577.65	17.014
577.98	17.085
578.32	16.949
578.66	17.111
578.99	17.442
579.33	17.285
579.67	17.632
580.00	17.290
580.34	17.514
580.67	17.345
581.01	17.136
581.35	16.899
581.68	16.975
582.02	17.140
582.35	16.553
582.69	17.194
583.02	17.350
583.36	17.201
583.70	17.259
584.03	17.390
584.37	18.099
584.70	17.333
585.04	17.201
585.37	17.506
585.71	17.346
586.04	17.426
586.38	17.734
586.72	17.574
587.05	17.924
587.39	17.801
587.72	17.699
588.06	17.550
588.39	17.645
588.73	17.364
589.06	17.298
589.40	18.022
589.73	18.138
590.07	18.002
590.40	17.952
590.73	18.367
591.07	18.831
591.40	18.456
591.74	18.657
592.07	18.434
592.41	19.072
592.74	18.321
593.08	18.445
593.41	17.895
593.75	17.762
594.08	18.055
594.41	18.086
594.75	18.128
595.08	18.543
595.42	18.588
595.75	17.879
596.09	18.094
596.42	18.055
596.75	19.000
597.09	17.444
597.42	18.254
597.75	19.278
598.09	18.820
598.42	18.836
598.76	18.625
599.09	18.361
599.42	17.309
599.76	18.282
600.09	18.268
600.42	17.695
600.76	17.513
601.09	18.157
601.42	18.438
601.76	17.451
602.09	19.062
602.42	18.020
602.76	18.412
603.09	18.016
603.42	18.058
603.76	17.583
604.09	18.964
604.42	18.119
604.76	18.120
605.09	17.903
605.42	19.052
605.75	17.679
606.09	18.711
606.42	18.591
606.75	18.694
607.09	18.657
607.42	18.816
607.75	18.090
608.08	18.569
608.42	18.429
608.75	18.009
609.08	17.415
609.41	19.699
609.75	18.799
610.08	19.173
610.41	18.321
610.74	18.605
611.07	18.403
611.41	18.951
611.74	19.260
612.07	18.527
612.40	19.499
612.73	19.097
613.07	18.321
613.40	18.861
613.73	17.755
614.06	18.501
614.39	18.805
614.72	18.359
615.06	19.690
615.39	18.707
615.72	19.037
616.05	18.667
616.38	18.921
616.71	18.408
617.05	19.284
617.38	19.290
617.71	20.901
618.04	19.317
618.37	18.705
618.70	20.380
619.03	19.652
619.36	20.471
619.69	19.518
620.03	20.061
620.36	19.879
620.69	20.769
621.02	20.507
621.35	19.660
621.68	20.702
622.01	20.499
622.34	19.012
622.67	20.405
623.00	19.738
623.33	20.079
623.66	21.355
623.99	20.255
624.32	19.619
624.65	19.609
624.99	20.469
625.32	20.458
625.65	19.135
625.98	20.833
626.31	20.173
626.64	20.450
626.97	21.783
627.30	21.019
627.63	20.465
627.96	20.764
628.29	21.033
628.62	20.309
628.95	22.386
629.28	21.488
629.61	20.690
629.94	21.369
630.26	22.071
630.59	21.047
630.92	19.494
631.25	20.782
631.58	21.047
631.91	21.982
632.24	22.130
632.57	23.900
632.90	23.739
633.23	21.935
