SpectraSuite Data File
++++++++++++++++++++++++++++++++++++
Date: Tue May 12 19:38:09 PDT 2015
User: schluterlab
Dark Spectrum Present: Yes
Reference Spectrum Present: Yes
Number of Sampled Component Spectra: 1
Spectrometers: USB2E3373
Integration Time (usec): 3000 (USB2E3373)
Spectra Averaged: 3 (USB2E3373)
Boxcar Smoothing: 0 (USB2E3373)
Correct for Electrical Dark: No (USB2E3373)
Strobe/Lamp Enabled: No (USB2E3373)
Correct for Detector Non-linearity: No (USB2E3373)
Correct for Stray Light: No (USB2E3373)
Number of Pixels in Processed Spectrum: 2048
>>>>>Begin Processed Spectral Data<<<<<
178.53	0.000
178.91	-70.000
179.29	-16.667
179.67	200.000
180.04	0.000
180.42	-140.000
180.80	-100.000
181.18	550.000
181.56	50.000
181.94	150.000
182.31	1000.000
182.69	-71.429
183.07	0.000
183.45	241.667
183.83	320.000
184.20	266.667
184.58	850.000
184.96	216.667
185.34	-366.667
185.72	-42.857
186.09	-100.000
186.47	-1300.000
186.85	-60.000
187.23	100.000
187.61	-257.143
187.98	-40.000
188.36	600.000
188.74	-50.000
189.12	33.333
189.49	-10.000
189.87	175.000
190.25	66.667
190.63	266.667
191.00	120.000
191.38	-366.667
191.76	260.000
192.14	-71.429
192.51	-90.000
192.89	-20.000
193.27	-60.000
193.65	-266.667
194.02	-133.333
194.40	-200.000
194.78	-125.000
195.15	-71.429
195.53	200.000
195.91	180.000
196.29	-300.000
196.66	166.667
197.04	0.000
197.42	220.000
197.79	-112.500
198.17	-16.667
198.55	500.000
198.92	44.444
199.30	300.000
199.68	-225.000
200.05	-900.000
200.43	5.556
200.81	-50.000
201.18	166.667
201.56	-200.000
201.94	-1100.000
202.31	-16.667
202.69	55.556
203.07	-50.000
203.44	-550.000
203.82	0.000
204.19	275.000
204.57	-433.333
204.95	136.364
205.32	200.000
205.70	50.000
206.08	300.000
206.45	-100.000
206.83	2200.000
207.20	-100.000
207.58	0.000
207.96	-133.333
208.33	266.667
208.71	566.667
209.08	-150.000
209.46	-22.222
209.84	300.000
210.21	-400.000
210.59	400.000
210.96	155.556
211.34	-200.000
211.71	850.000
212.09	100.000
212.46	-125.000
212.84	-62.500
213.22	57.143
213.59	37.500
213.97	0.000
214.34	-350.000
214.72	-800.000
215.09	100.000
215.47	-6.667
215.84	-37.500
216.22	-900.000
216.59	1000.000
216.97	8.333
217.34	-116.667
217.72	55.556
218.09	225.000
218.47	42.105
218.84	-162.500
219.22	0.000
219.59	-20.000
219.97	20.000
220.34	250.000
220.72	-0.000
221.09	-600.000
221.47	0.000
221.84	200.000
222.22	100.000
222.59	-375.000
222.97	4.348
223.34	93.333
223.72	242.857
224.09	66.667
224.46	76.923
224.84	6.667
225.21	-150.000
225.59	-125.000
225.96	20.000
226.34	133.333
226.71	170.000
227.08	46.154
227.46	-157.143
227.83	25.000
228.21	-300.000
228.58	250.000
228.95	42.105
229.33	75.000
229.70	-100.000
230.08	22.222
230.45	-233.333
230.82	500.000
231.20	33.333
231.57	-180.000
231.95	-66.667
232.32	166.667
232.69	-450.000
233.07	62.500
233.44	100.000
233.81	25.806
234.19	-180.000
234.56	5.556
234.93	-116.667
235.31	48.148
235.68	-11.111
236.05	46.154
236.43	-57.895
236.80	-13.636
237.17	-50.000
237.55	-10.000
237.92	18.605
238.29	25.806
238.67	32.143
239.04	51.429
239.41	23.529
239.79	42.000
240.16	50.000
240.53	22.414
240.91	19.178
241.28	23.944
241.65	57.813
242.02	36.842
242.40	32.000
242.77	34.737
243.14	38.824
243.51	38.710
243.89	31.429
244.26	29.630
244.63	40.816
245.00	35.714
245.38	27.731
245.75	43.220
246.12	33.594
246.49	34.400
246.87	33.607
247.24	30.282
247.61	33.113
247.98	33.146
248.36	38.994
248.73	35.795
249.10	35.556
249.47	36.979
249.84	36.041
250.22	34.896
250.59	37.640
250.96	39.545
251.33	40.094
251.70	43.119
252.08	38.095
252.45	34.694
252.82	40.506
253.19	36.576
253.56	43.137
253.94	38.211
254.31	43.165
254.68	37.847
255.05	40.728
255.42	34.182
255.79	40.397
256.16	38.889
256.54	38.485
256.91	41.026
257.28	38.312
257.65	36.721
258.02	37.237
258.39	38.066
258.76	42.813
259.14	37.353
259.51	38.592
259.88	40.922
260.25	33.807
260.62	38.202
260.99	35.097
261.36	41.092
261.73	37.867
262.10	38.692
262.47	42.149
262.85	39.589
263.22	38.172
263.59	40.751
263.96	36.554
264.33	36.388
264.70	36.364
265.07	38.916
265.44	39.578
265.81	40.723
266.18	37.471
266.55	40.238
266.92	41.071
267.29	41.111
267.66	35.682
268.03	39.355
268.40	37.529
268.77	39.644
269.14	38.866
269.51	36.652
269.88	37.607
270.25	35.865
270.62	38.025
270.99	38.316
271.36	37.748
271.73	40.208
272.10	40.664
272.47	36.200
272.84	35.669
273.21	37.370
273.58	36.122
273.95	36.056
274.32	38.685
274.69	37.378
275.06	37.148
275.43	35.400
275.80	38.432
276.17	39.130
276.54	38.213
276.91	38.964
277.28	37.718
277.65	36.295
278.02	37.121
278.39	41.742
278.76	38.920
279.13	39.356
279.50	39.170
279.87	37.170
280.23	37.887
280.60	35.866
280.97	37.961
281.34	36.949
281.71	37.478
282.08	37.209
282.45	38.977
282.82	35.017
283.19	37.374
283.56	37.031
283.92	35.545
284.29	37.225
284.66	35.398
285.03	35.506
285.40	37.333
285.77	38.588
286.14	34.865
286.51	33.280
286.87	35.818
287.24	33.814
287.61	34.414
287.98	38.811
288.35	36.434
288.72	35.627
289.08	33.805
289.45	32.605
289.82	33.385
290.19	31.212
290.56	32.996
290.93	32.053
291.29	32.766
291.66	32.444
292.03	34.864
292.40	33.525
292.77	31.633
293.13	33.480
293.50	32.782
293.87	32.316
294.24	31.461
294.60	31.831
294.97	31.717
295.34	30.822
295.71	30.374
296.08	30.328
296.44	31.094
296.81	29.366
297.18	29.366
297.55	31.030
297.91	29.569
298.28	29.028
298.65	29.237
299.02	28.237
299.38	29.592
299.75	31.532
300.12	29.856
300.48	29.695
300.85	27.506
301.22	29.087
301.59	27.981
301.95	30.122
302.32	29.040
302.69	27.348
303.05	28.335
303.42	28.382
303.79	26.404
304.15	28.199
304.52	27.598
304.89	29.087
305.25	27.982
305.62	28.182
305.99	27.100
306.35	27.964
306.72	27.669
307.09	27.748
307.45	27.832
307.82	28.068
308.19	29.153
308.55	28.586
308.92	27.542
309.29	28.033
309.65	28.999
310.02	28.616
310.38	28.571
310.75	30.533
311.12	28.484
311.48	29.496
311.85	28.369
312.22	29.339
312.58	28.298
312.95	29.569
313.31	29.892
313.68	29.096
314.05	31.380
314.41	31.434
314.78	30.352
315.14	30.656
315.51	30.487
315.87	31.445
316.24	32.740
316.61	32.233
316.97	31.961
317.34	32.727
317.70	33.987
318.07	34.619
318.43	32.987
318.80	35.337
319.16	35.415
319.53	36.038
319.89	36.648
320.26	37.955
320.62	38.372
320.99	39.898
321.35	39.526
321.72	41.010
322.08	40.891
322.45	43.393
322.81	45.320
323.18	44.391
323.54	46.825
323.91	44.213
324.27	47.445
324.64	47.985
325.00	50.591
325.37	50.899
325.73	51.916
326.10	52.189
326.46	57.389
326.83	57.256
327.19	57.467
327.56	61.715
327.92	61.545
328.29	62.545
328.65	64.972
329.01	67.431
329.38	65.932
329.74	68.617
330.11	68.406
330.47	69.646
330.84	67.293
331.20	71.442
331.56	71.321
331.93	70.723
332.29	71.970
332.66	72.152
333.02	75.487
333.38	74.816
333.75	75.114
334.11	74.412
334.48	74.866
334.84	77.089
335.20	74.754
335.57	77.475
335.93	77.767
336.29	77.697
336.66	79.053
337.02	79.057
337.38	80.000
337.75	82.000
338.11	80.492
338.47	81.894
338.84	80.387
339.20	79.743
339.56	80.522
339.93	80.180
340.29	79.782
340.65	82.283
341.02	80.425
341.38	80.406
341.74	82.651
342.11	84.085
342.47	80.420
342.83	83.435
343.20	82.759
343.56	81.031
343.92	81.540
344.28	82.075
344.65	82.620
345.01	84.582
345.37	82.137
345.73	84.065
346.10	85.480
346.46	82.140
346.82	83.857
347.19	82.927
347.55	85.119
347.91	82.391
348.27	85.173
348.63	85.653
349.00	85.225
349.36	84.171
349.72	84.154
350.08	81.424
350.45	83.971
350.81	83.485
351.17	82.867
351.53	83.736
351.89	87.219
352.26	84.797
352.62	85.037
352.98	85.690
353.34	87.051
353.70	84.938
354.07	85.585
354.43	86.060
354.79	86.475
355.15	84.665
355.51	87.612
355.87	89.009
356.24	85.294
356.60	88.731
356.96	85.308
357.32	86.337
357.68	85.362
358.04	85.494
358.40	86.170
358.77	86.265
359.13	86.345
359.49	88.000
359.85	86.970
360.21	86.598
360.57	87.161
360.93	88.519
361.29	89.097
361.66	87.539
362.02	87.991
362.38	89.433
362.74	88.394
363.10	87.557
363.46	88.412
363.82	86.753
364.18	87.888
364.54	89.924
364.90	89.556
365.26	88.599
365.62	89.932
365.98	89.130
366.35	91.301
366.71	89.619
367.07	90.111
367.43	88.881
367.79	88.445
368.15	90.363
368.51	90.262
368.87	91.336
369.23	91.522
369.59	89.412
369.95	90.387
370.31	91.515
370.67	91.278
371.03	91.176
371.39	92.221
371.75	88.410
372.11	89.111
372.47	90.126
372.83	91.381
373.19	91.340
373.55	89.746
373.91	92.424
374.27	91.759
374.63	91.384
374.99	91.069
375.35	91.582
375.71	91.248
376.07	90.813
376.42	90.526
376.78	92.544
377.14	91.550
377.50	93.228
377.86	92.201
378.22	92.734
378.58	92.105
378.94	91.552
379.30	91.055
379.66	91.869
380.02	92.371
380.38	93.830
380.74	92.791
381.09	92.503
381.45	93.270
381.81	92.411
382.17	91.987
382.53	93.491
382.89	92.688
383.25	90.108
383.61	92.053
383.97	93.047
384.32	91.742
384.68	92.912
385.04	91.661
385.40	91.821
385.76	91.271
386.12	93.069
386.48	91.977
386.83	93.219
387.19	92.720
387.55	91.645
387.91	92.087
388.27	93.858
388.62	91.839
388.98	92.494
389.34	92.453
389.70	93.141
390.06	92.211
390.42	93.577
390.77	92.354
391.13	93.754
391.49	91.981
391.85	92.681
392.20	93.795
392.56	91.421
392.92	94.187
393.28	90.006
393.64	94.110
393.99	92.532
394.35	93.186
394.71	92.980
395.07	92.971
395.42	92.825
395.78	93.078
396.14	93.071
396.50	91.009
396.85	91.870
397.21	90.750
397.57	91.244
397.92	93.766
398.28	92.986
398.64	92.762
399.00	91.062
399.35	92.028
399.71	91.557
400.07	91.538
400.42	92.115
400.78	93.346
401.14	92.929
401.49	92.755
401.85	93.651
402.21	93.591
402.57	92.402
402.92	92.497
403.28	90.767
403.63	91.987
403.99	92.470
404.35	91.146
404.70	91.070
405.06	92.870
405.42	92.062
405.77	89.417
406.13	89.785
406.49	92.050
406.84	91.345
407.20	91.140
407.55	93.721
407.91	92.238
408.27	92.021
408.62	90.354
408.98	91.441
409.34	89.821
409.69	90.033
410.05	90.803
410.40	90.366
410.76	90.535
411.11	89.399
411.47	89.796
411.83	90.019
412.18	91.361
412.54	90.492
412.89	89.767
413.25	91.223
413.60	89.605
413.96	89.320
414.31	90.121
414.67	91.830
415.03	91.840
415.38	92.897
415.74	90.665
416.09	91.385
416.45	89.101
416.80	90.890
417.16	90.339
417.51	92.158
417.87	90.834
418.22	91.444
418.58	91.085
418.93	88.910
419.29	91.791
419.64	93.956
420.00	90.766
420.35	91.714
420.71	91.677
421.06	91.110
421.42	91.719
421.77	93.484
422.12	90.727
422.48	92.005
422.83	91.915
423.19	91.353
423.54	90.959
423.90	91.595
424.25	93.233
424.61	91.548
424.96	91.646
425.31	91.123
425.67	92.121
426.02	91.801
426.38	92.021
426.73	91.402
427.09	93.171
427.44	91.605
427.79	91.584
428.15	91.883
428.50	90.829
428.85	91.661
429.21	92.528
429.56	91.989
429.92	91.996
430.27	91.040
430.62	90.644
430.98	88.071
431.33	92.714
431.68	92.068
432.04	92.578
432.39	91.563
432.74	89.817
433.10	91.510
433.45	93.034
433.80	90.119
434.16	91.312
434.51	91.583
434.86	92.145
435.22	90.396
435.57	93.799
435.92	91.393
436.28	90.847
436.63	92.367
436.98	94.074
437.34	93.794
437.69	91.975
438.04	93.810
438.39	94.321
438.75	93.231
439.10	95.179
439.45	95.571
439.81	93.651
440.16	95.114
440.51	93.185
440.86	95.013
441.22	92.853
441.57	91.339
441.92	94.257
442.27	94.000
442.63	93.454
442.98	95.477
443.33	93.537
443.68	93.233
444.03	92.474
444.39	92.764
444.74	91.986
445.09	97.993
445.44	93.294
445.79	93.851
446.15	93.353
446.50	94.274
446.85	93.729
447.20	93.490
447.55	92.263
447.91	94.062
448.26	94.481
448.61	93.958
448.96	92.844
449.31	94.093
449.66	92.191
450.02	93.077
450.37	93.560
450.72	93.656
451.07	94.858
451.42	93.676
451.77	94.515
452.12	94.674
452.47	95.190
452.83	94.894
453.18	96.691
453.53	94.840
453.88	95.341
454.23	93.355
454.58	95.888
454.93	93.529
455.28	94.162
455.63	95.712
455.98	93.782
456.34	95.512
456.69	95.802
457.04	94.291
457.39	93.508
457.74	95.891
458.09	93.466
458.44	96.383
458.79	95.230
459.14	93.441
459.49	95.732
459.84	94.946
460.19	94.559
460.54	93.245
460.89	93.294
461.24	96.169
461.59	95.584
461.94	93.820
462.29	93.922
462.64	95.822
462.99	96.592
463.34	94.505
463.69	95.130
464.04	95.638
464.39	94.791
464.74	93.121
465.09	93.633
465.44	92.262
465.79	93.261
466.14	95.048
466.49	93.278
466.84	92.260
467.19	92.268
467.54	92.639
467.89	93.795
468.24	94.003
468.59	93.325
468.94	94.822
469.29	94.948
469.64	95.186
469.99	93.727
470.34	93.777
470.68	94.923
471.03	93.577
471.38	95.138
471.73	93.241
472.08	95.801
472.43	96.058
472.78	96.229
473.13	93.754
473.48	94.744
473.83	96.764
474.17	92.862
474.52	94.240
474.87	94.318
475.22	93.583
475.57	92.362
475.92	92.609
476.27	93.731
476.61	92.435
476.96	93.954
477.31	93.094
477.66	92.388
478.01	93.467
478.36	93.467
478.70	93.634
479.05	94.254
479.40	93.256
479.75	95.625
480.10	94.102
480.45	92.775
480.79	93.254
481.14	93.832
481.49	92.596
481.84	95.253
482.19	92.195
482.53	91.275
482.88	94.916
483.23	92.864
483.58	91.931
483.92	91.457
484.27	93.030
484.62	92.504
484.97	91.696
485.31	90.062
485.66	89.260
486.01	86.291
486.36	86.928
486.70	87.452
487.05	88.351
487.40	87.891
487.75	88.377
488.09	88.471
488.44	89.286
488.79	89.946
489.13	91.978
489.48	91.740
489.83	90.661
490.17	92.171
490.52	91.969
490.87	93.225
491.22	92.554
491.56	92.688
491.91	91.817
492.26	94.748
492.60	91.633
492.95	93.326
493.30	93.518
493.64	93.813
493.99	93.789
494.34	93.107
494.68	92.121
495.03	92.292
495.37	92.651
495.72	92.669
496.07	92.748
496.41	91.156
496.76	91.595
497.11	92.516
497.45	92.667
497.80	92.731
498.14	93.031
498.49	93.380
498.84	91.090
499.18	91.749
499.53	92.679
499.87	91.756
500.22	92.156
500.56	92.517
500.91	91.453
501.26	93.386
501.60	92.100
501.95	92.477
502.29	92.355
502.64	90.642
502.98	90.459
503.33	91.013
503.67	91.577
504.02	91.777
504.36	90.498
504.71	91.809
505.06	92.126
505.40	93.727
505.75	90.679
506.09	91.928
506.44	91.524
506.78	91.809
507.13	91.151
507.47	92.521
507.82	91.797
508.16	92.038
508.51	93.326
508.85	91.538
509.19	92.595
509.54	93.484
509.88	93.096
510.23	91.573
510.57	92.675
510.92	92.971
511.26	91.729
511.61	90.468
511.95	92.192
512.30	92.638
512.64	91.437
512.98	93.089
513.33	89.859
513.67	90.778
514.02	91.587
514.36	91.400
514.70	92.775
515.05	93.293
515.39	94.103
515.74	93.233
516.08	92.906
516.42	92.915
516.77	93.354
517.11	90.153
517.46	95.003
517.80	95.341
518.14	91.461
518.49	95.278
518.83	93.320
519.17	93.959
519.52	93.067
519.86	93.160
520.20	91.146
520.55	93.603
520.89	95.614
521.23	94.656
521.58	93.452
521.92	93.525
522.26	94.158
522.61	93.857
522.95	92.877
523.29	93.860
523.64	92.944
523.98	93.481
524.32	93.131
524.66	94.222
525.01	94.777
525.35	92.202
525.69	92.292
526.04	95.560
526.38	93.626
526.72	92.847
527.06	95.007
527.41	93.976
527.75	93.396
528.09	92.504
528.43	92.133
528.78	93.571
529.12	91.712
529.46	89.302
529.80	90.946
530.15	91.035
530.49	92.259
530.83	93.420
531.17	91.667
531.51	92.006
531.86	90.196
532.20	89.971
532.54	91.223
532.88	92.873
533.22	94.181
533.57	89.655
533.91	91.948
534.25	91.378
534.59	91.678
534.93	90.396
535.27	89.832
535.62	90.885
535.96	90.370
536.30	89.353
536.64	91.845
536.98	91.667
537.32	92.039
537.66	88.930
538.01	89.838
538.35	88.655
538.69	87.898
539.03	88.897
539.37	89.806
539.71	90.217
540.05	89.725
540.39	90.341
540.73	89.744
541.07	89.632
541.42	87.741
541.76	87.698
542.10	89.598
542.44	88.945
542.78	87.903
543.12	87.365
543.46	88.525
543.80	87.348
544.14	86.953
544.48	86.526
544.82	86.941
545.16	88.406
545.50	88.210
545.84	86.759
546.18	89.363
546.52	87.471
546.86	87.605
547.20	88.258
547.54	86.884
547.88	85.897
548.22	85.865
548.56	86.963
548.90	86.596
549.24	88.085
549.58	85.768
549.92	86.090
550.26	87.027
550.60	88.263
550.94	90.397
551.28	89.106
551.62	91.073
551.96	89.457
552.30	87.364
552.64	86.326
552.98	86.627
553.32	84.545
553.66	86.722
554.00	87.568
554.34	89.063
554.68	88.278
555.02	86.746
555.36	86.418
555.69	83.551
556.03	83.888
556.37	83.721
556.71	84.917
557.05	86.250
557.39	86.506
557.73	85.849
558.07	86.150
558.41	84.278
558.75	88.797
559.08	88.511
559.42	86.204
559.76	86.605
560.10	86.553
560.44	85.115
560.78	85.274
561.12	85.500
561.45	86.310
561.79	82.966
562.13	82.728
562.47	84.939
562.81	85.140
563.15	83.726
563.48	81.573
563.82	82.023
564.16	82.293
564.50	82.521
564.84	83.629
565.17	83.977
565.51	83.744
565.85	82.958
566.19	81.837
566.52	84.086
566.86	83.265
567.20	83.633
567.54	81.812
567.88	81.007
568.21	79.367
568.55	78.608
568.89	80.220
569.23	77.560
569.56	78.299
569.90	76.617
570.24	76.202
570.57	75.771
570.91	75.400
571.25	74.346
571.59	73.738
571.92	73.519
572.26	72.971
572.60	73.701
572.93	73.248
573.27	72.518
573.61	72.733
573.95	71.033
574.28	72.028
574.62	70.083
574.96	71.343
575.29	70.547
575.63	70.590
575.97	69.854
576.30	71.457
576.64	70.094
576.98	70.579
577.31	71.044
577.65	71.387
577.98	70.085
578.32	70.135
578.66	69.724
578.99	70.274
579.33	70.493
579.67	69.744
580.00	69.938
580.34	69.980
580.67	69.685
581.01	69.489
581.35	69.165
581.68	68.724
582.02	68.466
582.35	69.048
582.69	69.091
583.02	68.839
583.36	68.944
583.70	69.535
584.03	70.145
584.37	71.110
584.70	69.617
585.04	68.856
585.37	68.873
585.71	68.580
586.04	69.394
586.38	69.763
586.72	69.620
587.05	70.334
587.39	70.858
587.72	68.825
588.06	69.582
588.39	69.238
588.73	69.582
589.06	69.061
589.40	70.187
589.73	71.167
590.07	71.467
590.40	70.898
590.73	72.428
591.07	72.251
591.40	70.672
591.74	72.062
592.07	71.490
592.41	72.868
592.74	71.197
593.08	69.910
593.41	69.935
593.75	69.093
594.08	68.645
594.41	70.422
594.75	69.969
595.08	69.342
595.42	68.945
595.75	69.167
596.09	70.016
596.42	71.374
596.75	71.773
597.09	69.963
597.42	68.700
597.75	70.872
598.09	69.663
598.42	70.516
598.76	71.630
599.09	69.748
599.42	67.427
599.76	69.164
600.09	68.604
600.42	68.398
600.76	68.168
601.09	68.235
601.42	67.351
601.76	67.532
602.09	69.753
602.42	69.605
602.76	68.848
603.09	69.974
603.42	70.145
603.76	69.870
604.09	69.006
604.42	69.343
604.76	69.375
605.09	69.721
605.42	69.431
605.75	68.205
606.09	69.333
606.42	69.379
606.75	68.694
607.09	69.729
607.42	69.206
607.75	67.952
608.08	69.925
608.42	69.641
608.75	70.085
609.08	68.602
609.41	69.881
609.75	69.142
610.08	69.302
610.41	69.517
610.74	68.402
611.07	70.333
611.41	68.308
611.74	69.369
612.07	69.475
612.40	69.638
612.73	69.618
613.07	69.701
613.40	70.730
613.73	69.473
614.06	69.438
614.39	70.240
614.72	68.595
615.06	69.460
615.39	69.053
615.72	68.365
616.05	69.101
616.38	69.870
616.71	68.595
617.05	69.724
617.38	68.000
617.71	70.477
618.04	69.908
618.37	70.177
618.70	71.128
619.03	74.329
619.36	70.692
619.69	70.451
620.03	72.006
620.36	72.638
620.69	70.658
621.02	70.863
621.35	72.511
621.68	75.428
622.01	73.440
622.34	71.608
622.67	72.681
623.00	71.744
623.33	70.315
623.66	72.590
623.99	71.850
624.32	71.882
624.65	72.031
624.99	71.172
625.32	71.327
625.65	70.697
625.98	73.750
626.31	71.688
626.64	73.514
626.97	74.908
627.30	73.611
627.63	73.860
627.96	72.812
628.29	73.327
628.62	74.845
628.95	73.390
629.28	75.723
629.61	75.758
629.94	75.830
630.26	75.209
630.59	73.194
630.92	71.654
631.25	78.436
631.58	75.698
631.91	74.260
632.24	75.621
632.57	76.694
632.90	78.967
633.23	78.710
