SpectraSuite Data File
++++++++++++++++++++++++++++++++++++
Date: Tue May 12 19:59:39 PDT 2015
User: schluterlab
Dark Spectrum Present: Yes
Reference Spectrum Present: Yes
Number of Sampled Component Spectra: 1
Spectrometers: USB2E3373
Integration Time (usec): 3000 (USB2E3373)
Spectra Averaged: 3 (USB2E3373)
Boxcar Smoothing: 0 (USB2E3373)
Correct for Electrical Dark: No (USB2E3373)
Strobe/Lamp Enabled: No (USB2E3373)
Correct for Detector Non-linearity: No (USB2E3373)
Correct for Stray Light: No (USB2E3373)
Number of Pixels in Processed Spectrum: 2048
>>>>>Begin Processed Spectral Data<<<<<
178.53	0.000
178.91	-190.000
179.29	-350.000
179.67	766.667
180.04	0.000
180.42	-520.000
180.80	-866.667
181.18	1200.000
181.56	-650.000
181.94	316.667
182.31	2500.000
182.69	-271.429
183.07	0.000
183.45	208.333
183.83	500.000
184.20	466.667
184.58	1400.000
184.96	350.000
185.34	-666.667
185.72	-85.714
186.09	-400.000
186.47	-2800.000
186.85	-220.000
187.23	216.667
187.61	-257.143
187.98	-440.000
188.36	1000.000
188.74	-325.000
189.12	-200.000
189.49	-170.000
189.87	625.000
190.25	277.778
190.63	600.000
191.00	380.000
191.38	-833.333
191.76	480.000
192.14	-228.571
192.51	-150.000
192.89	-220.000
193.27	-320.000
193.65	-733.333
194.02	-350.000
194.40	2600.000
194.78	-287.500
195.15	-257.143
195.53	533.333
195.91	600.000
196.29	-525.000
196.66	-700.000
197.04	-342.857
197.42	340.000
197.79	-262.500
198.17	-50.000
198.55	-1800.000
198.92	-377.778
199.30	900.000
199.68	-625.000
200.05	-1500.000
200.43	-88.889
200.81	-83.333
201.18	450.000
201.56	-1150.000
201.94	-1400.000
202.31	-133.333
202.69	-44.444
203.07	-141.667
203.44	-825.000
203.82	0.000
204.19	325.000
204.57	-600.000
204.95	218.182
205.32	300.000
205.70	550.000
206.08	-1300.000
206.45	-340.000
206.83	2500.000
207.20	-233.333
207.58	-76.923
207.96	366.667
208.33	900.000
208.71	833.333
209.08	1450.000
209.46	-44.444
209.84	800.000
210.21	-666.667
210.59	1000.000
210.96	288.889
211.34	-475.000
211.71	1500.000
212.09	-300.000
212.46	-362.500
212.84	-225.000
213.22	385.714
213.59	-162.500
213.97	0.000
214.34	-1500.000
214.72	-1400.000
215.09	1100.000
215.47	-73.333
215.84	-287.500
216.22	-2700.000
216.59	1800.000
216.97	-150.000
217.34	-266.667
217.72	-5.556
218.09	550.000
218.47	-63.158
218.84	-175.000
219.22	-64.286
219.59	-240.000
219.97	-210.000
220.34	416.667
220.72	190.909
221.09	-1150.000
221.47	0.000
221.84	850.000
222.22	-650.000
222.59	-475.000
222.97	-39.130
223.34	220.000
223.72	500.000
224.09	-366.667
224.46	323.077
224.84	-106.667
225.21	-1050.000
225.59	-525.000
225.96	-5.000
226.34	333.333
226.71	290.000
227.08	-192.308
227.46	-271.429
227.83	-175.000
228.21	-1000.000
228.58	500.000
228.95	-78.947
229.33	-68.750
229.70	-366.667
230.08	-255.556
230.45	-833.333
230.82	-2300.000
231.20	-42.857
231.57	-680.000
231.95	-1166.667
232.32	266.667
232.69	-1400.000
233.07	-50.000
233.44	-187.500
233.81	-25.806
234.19	-380.000
234.56	-94.444
234.93	-283.333
235.31	-37.037
235.68	-44.444
236.05	-123.077
236.43	-147.368
236.80	-113.636
237.17	-200.000
237.55	-135.000
237.92	-23.256
238.29	-61.290
238.67	-60.714
239.04	-48.571
239.41	-39.216
239.79	-22.000
240.16	-67.500
240.53	-25.862
240.91	-9.589
241.28	-35.211
241.65	-10.938
242.02	-31.579
242.40	-32.000
242.77	-15.789
243.14	-9.412
243.51	-32.258
243.89	-25.714
244.26	-21.296
244.63	-21.429
245.00	-17.857
245.38	-18.487
245.75	-20.339
246.12	-5.469
246.49	-14.400
246.87	-16.393
247.24	-19.718
247.61	-7.285
247.98	-7.865
248.36	-8.176
248.73	-9.091
249.10	-13.889
249.47	-6.250
249.84	-10.152
250.22	-10.938
250.59	-17.978
250.96	-7.273
251.33	-5.189
251.70	-3.211
252.08	-5.195
252.45	-8.163
252.82	-8.439
253.19	-7.782
253.56	-2.745
253.94	-5.691
254.31	-5.036
254.68	-5.903
255.05	-0.993
255.42	-7.273
255.79	-3.311
256.16	-6.597
256.54	1.515
256.91	-0.641
257.28	-2.273
257.65	-6.230
258.02	-3.303
258.39	-0.302
258.76	-3.670
259.14	-3.824
259.51	3.099
259.88	1.153
260.25	-1.989
260.62	-4.775
260.99	-3.064
261.36	-6.609
261.73	-2.667
262.10	-1.362
262.47	-2.755
262.85	-1.285
263.22	-1.344
263.59	-2.949
263.96	-2.872
264.33	-6.739
264.70	-1.229
265.07	-1.478
265.44	-1.639
265.81	1.687
266.18	-0.937
266.55	-2.619
266.92	1.339
267.29	-1.111
267.66	-3.182
268.03	-1.075
268.40	-1.602
268.77	-1.114
269.14	-1.681
269.51	-2.489
269.88	-1.496
270.25	-1.688
270.62	-0.630
270.99	-2.316
271.36	-1.325
271.73	-2.708
272.10	-2.075
272.47	-2.400
272.84	-5.945
273.21	-0.418
273.58	-3.265
273.95	0.797
274.32	-0.580
274.69	0.978
275.06	-1.126
275.43	-3.000
275.80	-1.530
276.17	-3.953
276.54	2.852
276.91	-1.344
277.28	0.967
277.65	-3.214
278.02	0.568
278.39	-0.363
278.76	-0.186
279.13	1.431
279.50	-0.903
279.87	-1.698
280.23	-0.729
280.60	-1.060
280.97	-1.406
281.34	-0.508
281.71	-2.309
282.08	0.716
282.45	-1.587
282.82	-1.852
283.19	-0.842
283.56	-0.683
283.92	-0.474
284.29	0.338
284.66	-3.186
285.03	-3.774
285.40	-1.000
285.77	-0.821
286.14	-0.634
286.51	-0.804
286.87	0.000
287.24	-2.724
287.61	0.309
287.98	0.469
288.35	-0.930
288.72	-0.153
289.08	-1.415
289.45	-0.468
289.82	-2.019
290.19	-1.364
290.56	-0.724
290.93	-0.739
291.29	1.135
291.66	0.702
292.03	1.435
292.40	0.432
292.77	-1.458
293.13	-1.175
293.50	0.138
293.87	0.416
294.24	0.702
294.60	0.410
294.97	-1.247
295.34	0.137
295.71	-1.664
296.08	-0.137
296.44	0.527
296.81	-0.776
297.18	0.000
297.55	-0.879
297.91	0.000
298.28	-1.023
298.65	-0.129
299.02	0.617
299.38	-0.638
299.75	-0.129
300.12	0.480
300.48	1.761
300.85	-0.489
301.22	-0.601
301.59	0.243
301.95	0.610
302.32	-0.243
302.69	-0.832
303.05	-1.063
303.42	-0.725
303.79	-1.461
304.15	-0.453
304.52	-0.670
304.89	-0.338
305.25	0.115
305.62	-0.341
305.99	-1.344
306.35	-0.559
306.72	-0.763
307.09	-0.544
307.45	-1.079
307.82	0.961
308.19	-0.110
308.55	0.000
308.92	-1.377
309.29	-0.628
309.65	-0.826
310.02	-0.210
310.38	1.279
310.75	0.307
311.12	-0.712
311.48	-0.103
311.85	-0.912
312.22	0.000
312.58	0.504
312.95	0.103
313.31	-0.688
313.68	0.099
314.05	0.993
314.41	-0.688
314.78	-1.307
315.14	0.979
315.51	0.497
315.87	0.391
316.24	0.791
316.61	1.456
316.97	0.686
317.34	0.670
317.70	1.027
318.07	0.193
318.43	0.095
318.80	0.182
319.16	-0.466
319.53	0.660
319.89	0.758
320.26	0.885
320.62	0.872
320.99	2.551
321.35	1.680
321.72	0.909
322.08	2.178
322.45	1.282
322.81	1.970
323.18	1.630
323.54	2.654
323.91	1.803
324.27	1.157
324.64	0.843
325.00	1.547
325.37	2.428
325.73	1.369
326.10	2.014
326.46	1.723
326.83	1.583
327.19	2.358
327.56	2.918
327.92	2.170
328.29	1.523
328.65	2.448
329.01	2.018
329.38	2.938
329.74	2.600
330.11	2.330
330.47	2.793
330.84	2.632
331.20	2.680
331.56	2.358
331.93	2.013
332.29	0.833
332.66	3.617
333.02	2.878
333.38	3.033
333.75	2.104
334.11	2.532
334.48	2.326
334.84	1.878
335.20	2.059
335.57	2.543
335.93	1.488
336.29	2.651
336.66	1.457
337.02	2.811
337.38	2.264
337.75	3.636
338.11	3.008
338.47	2.786
338.84	1.750
339.20	2.658
339.56	1.491
339.93	2.342
340.29	3.989
340.65	1.461
341.02	1.949
341.38	2.648
341.74	3.114
342.11	3.890
342.47	2.448
342.83	2.082
343.20	3.271
343.56	2.885
343.92	2.975
344.28	0.600
344.65	2.911
345.01	1.568
345.37	2.906
345.73	2.670
346.10	2.766
346.46	2.588
346.82	2.974
347.19	2.271
347.55	2.891
347.91	1.802
348.27	2.443
348.63	2.247
349.00	4.007
349.36	3.298
349.72	2.627
350.08	3.028
350.45	2.441
350.81	2.808
351.17	2.059
351.53	2.496
351.89	1.813
352.26	1.951
352.62	2.289
352.98	2.594
353.34	2.005
353.70	1.399
354.07	3.130
354.43	1.085
354.79	2.131
355.15	1.453
355.51	2.689
355.87	1.915
356.24	3.268
356.60	1.002
356.96	2.686
357.32	2.140
357.68	2.228
358.04	3.485
358.40	3.028
358.77	2.490
359.13	3.052
359.49	1.920
359.85	2.078
360.21	2.934
360.57	1.914
360.93	1.663
361.29	1.636
361.66	2.208
362.02	2.826
362.38	2.331
362.74	2.690
363.10	1.584
363.46	2.032
363.82	1.914
364.18	2.120
364.54	1.679
364.90	1.778
365.26	2.235
365.62	1.968
365.98	2.549
366.35	1.740
366.71	2.390
367.07	2.878
367.43	1.372
367.79	2.035
368.15	1.186
368.51	2.097
368.87	2.937
369.23	1.741
369.59	2.574
369.95	1.565
370.31	0.985
370.67	2.180
371.03	2.399
371.39	1.662
371.75	1.634
372.11	1.704
372.47	1.559
372.83	2.045
373.19	2.334
373.55	2.470
373.91	2.121
374.27	2.943
374.63	1.031
374.99	1.684
375.35	0.943
375.71	2.582
376.07	2.756
376.42	2.351
376.78	1.951
377.14	1.676
377.50	2.394
377.86	1.880
378.22	2.378
378.58	1.842
378.94	2.227
379.30	1.995
379.66	3.009
380.02	2.543
380.38	1.908
380.74	2.300
381.09	2.033
381.45	2.222
381.81	2.487
382.17	2.997
382.53	2.630
382.89	1.668
383.25	2.283
383.61	1.907
383.97	2.209
384.32	1.935
384.68	2.874
385.04	1.719
385.40	2.492
385.76	2.910
386.12	2.376
386.48	2.087
386.83	2.304
387.19	1.980
387.55	1.878
387.91	1.994
388.27	1.472
388.62	2.267
388.98	2.799
389.34	1.952
389.70	2.372
390.06	2.244
390.42	1.487
390.77	2.414
391.13	1.757
391.49	2.763
391.85	1.796
392.20	1.518
392.56	1.113
392.92	2.288
393.28	1.795
393.64	1.520
393.99	1.364
394.35	1.817
394.71	2.318
395.07	2.321
395.42	1.968
395.78	1.815
396.14	1.332
396.50	2.717
396.85	1.520
397.21	1.488
397.57	1.251
397.92	1.781
398.28	1.139
398.64	1.841
399.00	2.786
399.35	1.700
399.71	2.156
400.07	3.088
400.42	2.372
400.78	2.367
401.14	1.957
401.49	1.249
401.85	2.476
402.21	2.157
402.57	1.159
402.92	1.992
403.28	2.276
403.63	1.987
403.99	2.114
404.35	2.166
404.70	1.900
405.06	1.302
405.42	1.692
405.77	2.259
406.13	1.434
406.49	1.199
406.84	2.428
407.20	2.045
407.55	2.271
407.91	1.469
408.27	1.662
408.62	0.836
408.98	2.124
409.34	2.113
409.69	1.873
410.05	1.231
410.40	1.991
410.76	1.930
411.11	1.099
411.47	2.109
411.83	2.447
412.18	1.767
412.54	1.876
412.89	1.295
413.25	1.944
413.60	1.403
413.96	0.841
414.31	1.530
414.67	1.621
415.03	1.314
415.38	0.975
415.74	2.082
416.09	0.896
416.45	1.628
416.80	0.487
417.16	1.622
417.51	2.221
417.87	2.326
418.22	1.136
418.58	1.451
418.93	2.192
419.29	1.425
419.64	1.717
420.00	1.965
420.35	2.134
420.71	2.305
421.06	1.557
421.42	2.321
421.77	2.192
422.12	2.245
422.48	2.456
422.83	2.249
423.19	2.353
423.54	1.710
423.90	2.040
424.25	2.356
424.61	1.419
424.96	2.764
425.31	1.812
425.67	1.697
426.02	2.174
426.38	0.644
426.73	2.368
427.09	1.641
427.44	1.790
427.79	2.475
428.15	1.902
428.50	2.638
428.85	2.373
429.21	3.586
429.56	1.768
429.92	2.488
430.27	1.493
430.62	2.326
430.98	2.687
431.33	2.558
431.68	1.586
432.04	2.014
432.39	1.961
432.74	2.151
433.10	2.001
433.45	2.090
433.80	2.679
434.16	2.762
434.51	3.010
434.86	2.175
435.22	2.212
435.57	2.111
435.92	1.238
436.28	2.117
436.63	2.206
436.98	2.037
437.34	2.495
437.69	3.086
438.04	1.562
438.39	2.154
438.75	2.646
439.10	3.095
439.45	2.632
439.81	2.286
440.16	2.288
440.51	1.735
440.86	1.894
441.22	2.621
441.57	2.906
441.92	2.209
442.27	2.914
442.63	2.314
442.98	2.323
443.33	2.468
443.68	2.440
444.03	2.371
444.39	1.874
444.74	2.862
445.09	2.893
445.44	2.624
445.79	2.643
446.15	2.799
446.50	2.660
446.85	3.135
447.20	2.243
447.55	3.083
447.91	3.057
448.26	3.086
448.61	3.021
448.96	2.425
449.31	1.989
449.66	2.240
450.02	2.367
450.37	3.281
450.72	2.394
451.07	1.714
451.42	3.491
451.77	3.090
452.12	2.569
452.47	2.236
452.83	2.366
453.18	2.836
453.53	3.462
453.88	2.808
454.23	3.067
454.58	2.611
454.93	2.180
455.28	2.716
455.63	3.184
455.98	2.602
456.34	3.081
456.69	2.573
457.04	2.822
457.39	3.558
457.74	2.781
458.09	2.862
458.44	3.740
458.79	2.179
459.14	2.982
459.49	3.503
459.84	2.794
460.19	3.502
460.54	2.652
460.89	3.235
461.24	3.182
461.59	3.155
461.94	3.682
462.29	3.509
462.64	2.646
462.99	2.756
463.34	3.370
463.69	3.224
464.04	3.015
464.39	3.408
464.74	2.141
465.09	4.309
465.44	3.359
465.79	2.467
466.14	2.566
466.49	3.450
466.84	2.826
467.19	3.054
467.54	2.586
467.89	2.874
468.24	2.525
468.59	2.880
468.94	2.824
469.29	3.460
469.64	3.136
469.99	2.740
470.34	2.829
470.68	3.231
471.03	2.701
471.38	3.291
471.73	3.198
472.08	2.918
472.43	2.905
472.78	2.538
473.13	3.298
473.48	3.250
473.83	3.435
474.17	2.602
474.52	3.148
474.87	3.409
475.22	3.494
475.57	3.349
475.92	3.297
476.27	3.134
476.61	3.723
476.96	3.438
477.31	3.196
477.66	4.765
478.01	2.649
478.36	2.579
478.70	4.056
479.05	2.205
479.40	2.598
479.75	3.141
480.10	3.950
480.45	3.560
480.79	3.529
481.14	3.479
481.49	3.753
481.84	3.636
482.19	2.780
482.53	4.216
482.88	3.152
483.23	4.070
483.58	3.416
483.92	3.618
484.27	3.872
484.62	3.819
484.97	3.647
485.31	3.867
485.66	3.669
486.01	4.035
486.36	3.760
486.70	3.801
487.05	3.678
487.40	3.392
487.75	3.521
488.09	3.665
488.44	3.819
488.79	3.746
489.13	3.242
489.48	3.666
489.83	3.791
490.17	3.235
490.52	2.820
490.87	3.462
491.22	3.649
491.56	3.409
491.91	3.414
492.26	3.468
492.60	4.184
492.95	4.158
493.30	3.450
493.64	3.854
493.99	2.926
494.34	4.460
494.68	3.617
495.03	3.702
495.37	4.156
495.72	3.797
496.07	3.550
496.41	2.915
496.76	3.964
497.11	3.200
497.45	4.119
497.80	3.998
498.14	4.118
498.49	3.631
498.84	3.249
499.18	3.477
499.53	4.309
499.87	3.687
500.22	3.584
500.56	4.029
500.91	4.562
501.26	3.832
501.60	3.619
501.95	3.838
502.29	3.951
502.64	3.783
502.98	3.332
503.33	3.794
503.67	3.420
504.02	4.392
504.36	3.390
504.71	3.404
505.06	3.964
505.40	4.343
505.75	4.634
506.09	3.304
506.44	3.648
506.78	3.426
507.13	3.692
507.47	3.657
507.82	3.460
508.16	3.452
508.51	4.103
508.85	3.901
509.19	3.730
509.54	4.136
509.88	3.280
510.23	4.101
510.57	3.123
510.92	3.628
511.26	3.102
511.61	3.710
511.95	3.239
512.30	4.638
512.64	4.457
512.98	4.194
513.33	2.755
513.67	2.814
514.02	3.365
514.36	4.033
514.70	4.311
515.05	3.720
515.39	3.325
515.74	4.386
516.08	3.453
516.42	3.978
516.77	3.665
517.11	3.486
517.46	3.998
517.80	4.276
518.14	5.313
518.49	4.334
518.83	4.086
519.17	4.370
519.52	4.060
519.86	4.623
520.20	3.631
520.55	4.504
520.89	3.981
521.23	3.808
521.58	3.108
521.92	3.872
522.26	4.674
522.61	4.232
522.95	3.836
523.29	3.576
523.64	3.935
523.98	3.629
524.32	3.502
524.66	4.691
525.01	4.261
525.35	3.899
525.69	4.129
526.04	4.087
526.38	4.318
526.72	4.375
527.06	4.079
527.41	3.827
527.75	3.302
528.09	3.748
528.43	4.040
528.78	3.704
529.12	4.315
529.46	4.917
529.80	4.221
530.15	4.587
530.49	4.533
530.83	3.037
531.17	4.096
531.51	5.425
531.86	4.482
532.20	3.391
532.54	4.460
532.88	3.709
533.22	4.023
533.57	4.138
533.91	3.992
534.25	4.684
534.59	3.439
534.93	3.828
535.27	3.973
535.62	4.727
535.96	4.047
536.30	3.967
536.64	4.363
536.98	4.646
537.32	3.795
537.66	4.252
538.01	3.535
538.35	4.436
538.69	3.680
539.03	4.326
539.37	3.877
539.71	4.638
540.05	4.269
540.39	4.720
540.73	5.201
541.07	3.897
541.42	5.061
541.76	4.317
542.10	4.519
542.44	5.564
542.78	4.545
543.12	3.394
543.46	4.247
543.80	5.289
544.14	5.018
544.48	4.211
544.82	4.684
545.16	4.710
545.50	3.712
545.84	5.340
546.18	4.345
546.52	4.074
546.86	4.744
547.20	4.394
547.54	3.942
547.88	4.202
548.22	4.360
548.56	5.215
548.90	4.982
549.24	4.825
549.58	5.440
549.92	5.263
550.26	5.019
550.60	4.044
550.94	4.444
551.28	3.821
551.62	4.914
551.96	5.112
552.30	5.116
552.64	5.034
552.98	4.755
553.32	3.561
553.66	4.932
554.00	4.633
554.34	4.063
554.68	4.864
555.02	4.365
555.36	3.733
555.69	4.612
556.03	5.543
556.37	4.951
556.71	4.072
557.05	4.844
557.39	5.221
557.73	3.931
558.07	4.930
558.41	3.990
558.75	3.900
559.08	5.277
559.42	4.766
559.76	4.128
560.10	6.031
560.44	4.434
560.78	5.109
561.12	4.433
561.45	4.241
561.79	4.479
562.13	4.374
562.47	3.670
562.81	4.625
563.15	4.259
563.48	4.419
563.82	4.585
564.16	4.499
564.50	4.871
564.84	5.670
565.17	3.791
565.51	4.152
565.85	5.563
566.19	4.941
566.52	4.588
566.86	4.850
567.20	4.923
567.54	4.340
567.88	4.430
568.21	5.100
568.55	5.263
568.89	4.780
569.23	5.020
569.56	5.195
569.90	4.925
570.24	4.846
570.57	4.327
570.91	4.876
571.25	5.062
571.59	5.508
571.92	4.744
572.26	4.875
572.60	4.682
572.93	4.682
573.27	4.640
573.61	4.735
573.95	4.950
574.28	4.193
574.62	4.747
574.96	4.146
575.29	4.595
575.63	4.697
575.97	4.587
576.30	4.800
576.64	4.520
576.98	4.321
577.31	4.851
577.65	4.745
577.98	4.953
578.32	4.806
578.66	4.807
578.99	5.062
579.33	4.756
579.67	4.617
580.00	4.361
580.34	5.135
580.67	4.832
581.01	4.633
581.35	4.713
581.68	4.897
582.02	4.830
582.35	4.819
582.69	4.783
583.02	4.640
583.36	4.807
583.70	4.707
584.03	4.257
584.37	4.967
584.70	4.709
585.04	4.764
585.37	5.060
585.71	5.337
586.04	4.946
586.38	5.148
586.72	4.975
587.05	5.146
587.39	5.225
587.72	4.918
588.06	5.018
588.39	4.966
588.73	4.685
589.06	4.514
589.40	5.315
589.73	5.011
590.07	4.839
590.40	5.575
590.73	5.414
591.07	4.935
591.40	4.934
591.74	4.851
592.07	5.014
592.41	5.061
592.74	5.283
593.08	5.147
593.41	4.697
593.75	5.292
594.08	5.542
594.41	5.350
594.75	5.090
595.08	5.688
595.42	4.957
595.75	5.682
596.09	5.124
596.42	4.693
596.75	5.864
597.09	4.897
597.42	4.927
597.75	5.488
598.09	5.478
598.42	5.206
598.76	5.419
599.09	6.092
599.42	5.507
599.76	5.139
600.09	5.219
600.42	5.078
600.76	5.081
601.09	5.569
601.42	5.233
601.76	5.276
602.09	5.362
602.42	6.036
602.76	5.017
603.09	5.614
603.42	5.324
603.76	4.742
604.09	5.013
604.42	5.625
604.76	5.021
605.09	5.196
605.42	6.398
605.75	5.528
606.09	5.689
606.42	5.556
606.75	5.773
607.09	5.504
607.42	5.599
607.75	5.464
608.08	5.800
608.42	5.626
608.75	4.402
609.08	4.796
609.41	6.273
609.75	5.424
610.08	4.961
610.41	5.344
610.74	5.612
611.07	5.500
611.41	4.764
611.74	5.767
612.07	5.748
612.40	6.184
612.73	5.150
613.07	5.755
613.40	5.463
613.73	5.097
614.06	4.859
614.39	5.390
614.72	5.313
615.06	5.683
615.39	5.139
615.72	5.599
616.05	5.507
616.38	4.567
616.71	4.975
617.05	5.528
617.38	5.806
617.71	5.291
618.04	4.665
618.37	5.559
618.70	6.250
619.03	6.019
619.36	6.186
619.69	5.443
620.03	6.789
620.36	4.913
620.69	5.543
621.02	5.542
621.35	5.532
621.68	5.131
622.01	4.991
622.34	5.193
622.67	5.312
623.00	5.897
623.33	5.748
623.66	5.100
623.99	5.024
624.32	6.275
624.65	5.000
624.99	5.703
625.32	5.371
625.65	5.685
625.98	5.417
626.31	5.628
626.64	5.315
626.97	6.158
627.30	5.185
627.63	6.884
627.96	4.655
628.29	5.832
628.62	6.392
628.95	5.913
629.28	5.888
629.61	5.538
629.94	5.705
630.26	5.439
630.59	7.120
630.92	5.269
631.25	4.693
631.58	4.535
631.91	4.897
632.24	5.325
632.57	5.351
632.90	7.257
633.23	6.065
633.56	6.038
633.89	4.881
634.22	6.923
634.55	5.388
634.88	4.685
635.20	6.301
635.53	6.844
635.86	6.793
636.19	5.321
636.52	5.660
636.85	5.215
637.18	7.513
637.51	5.962
637.83	6.285
638.16	6.543
638.49	5.331
638.82	5.063
639.15	5.000
639.48	4.076
639.81	4.620
640.13	3.369
640.46	3.937
640.79	5.736
641.12	5.271
641.45	6.065
641.77	5.573
642.10	4.397
642.43	7.407
642.76	3.943
643.09	5.017
643.41	5.376
643.74	3.472
644.07	4.762
644.40	6.137
644.73	4.052
645.05	4.008
645.38	5.192
645.71	3.817
646.04	8.178
646.36	6.439
646.69	5.609
647.02	8.594
647.35	6.800
647.67	6.212
648.00	8.738
648.33	5.202
648.66	5.195
648.98	6.441
649.31	7.401
649.64	4.303
649.96	5.068
650.29	3.717
650.62	5.566
650.94	7.579
651.27	4.817
651.60	4.015
651.92	4.580
652.25	1.912
652.58	3.770
