SpectraSuite Data File
++++++++++++++++++++++++++++++++++++
Date: Tue May 12 19:40:45 PDT 2015
User: schluterlab
Dark Spectrum Present: Yes
Reference Spectrum Present: Yes
Number of Sampled Component Spectra: 1
Spectrometers: USB2E3373
Integration Time (usec): 3000 (USB2E3373)
Spectra Averaged: 3 (USB2E3373)
Boxcar Smoothing: 0 (USB2E3373)
Correct for Electrical Dark: No (USB2E3373)
Strobe/Lamp Enabled: No (USB2E3373)
Correct for Detector Non-linearity: No (USB2E3373)
Correct for Stray Light: No (USB2E3373)
Number of Pixels in Processed Spectrum: 2048
>>>>>Begin Processed Spectral Data<<<<<
178.53	0.000
178.91	-100.000
179.29	-50.000
179.67	100.000
180.04	0.000
180.42	-120.000
180.80	-33.333
181.18	800.000
181.56	0.000
181.94	250.000
182.31	1200.000
182.69	114.286
183.07	0.000
183.45	133.333
183.83	180.000
184.20	116.667
184.58	700.000
184.96	283.333
185.34	-166.667
185.72	0.000
186.09	-50.000
186.47	-200.000
186.85	0.000
187.23	141.667
187.61	-14.286
187.98	-80.000
188.36	250.000
188.74	-125.000
189.12	-88.889
189.49	-20.000
189.87	225.000
190.25	66.667
190.63	466.667
191.00	280.000
191.38	-300.000
191.76	240.000
192.14	-85.714
192.51	10.000
192.89	-60.000
193.27	-120.000
193.65	-200.000
194.02	-100.000
194.40	800.000
194.78	-37.500
195.15	-200.000
195.53	400.000
195.91	240.000
196.29	-425.000
196.66	-66.667
197.04	-128.571
197.42	140.000
197.79	-162.500
198.17	-33.333
198.55	-100.000
198.92	0.000
199.30	450.000
199.68	-200.000
200.05	-200.000
200.43	-38.889
200.81	58.333
201.18	166.667
201.56	-200.000
201.94	-1400.000
202.31	-58.333
202.69	-22.222
203.07	0.000
203.44	-400.000
203.82	0.000
204.19	387.500
204.57	-533.333
204.95	54.545
205.32	180.000
205.70	150.000
206.08	-800.000
206.45	-60.000
206.83	1900.000
207.20	-100.000
207.58	0.000
207.96	300.000
208.33	433.333
208.71	566.667
209.08	200.000
209.46	11.111
209.84	666.667
210.21	-200.000
210.59	-0.000
210.96	266.667
211.34	-175.000
211.71	750.000
212.09	20.000
212.46	-137.500
212.84	-162.500
213.22	-42.857
213.59	-87.500
213.97	0.000
214.34	-100.000
214.72	-200.000
215.09	350.000
215.47	53.333
215.84	-150.000
216.22	-600.000
216.59	700.000
216.97	0.000
217.34	-116.667
217.72	38.889
218.09	375.000
218.47	-26.316
218.84	-37.500
219.22	42.857
219.59	-50.000
219.97	-20.000
220.34	200.000
220.72	72.727
221.09	-350.000
221.47	0.000
221.84	400.000
222.22	-275.000
222.59	-450.000
222.97	34.783
223.34	140.000
223.72	300.000
224.09	0.000
224.46	161.538
224.84	-13.333
225.21	-350.000
225.59	-150.000
225.96	25.000
226.34	300.000
226.71	170.000
227.08	0.000
227.46	-28.571
227.83	-25.000
228.21	-1000.000
228.58	50.000
228.95	5.263
229.33	31.250
229.70	-116.667
230.08	-266.667
230.45	-233.333
230.82	-1700.000
231.20	0.000
231.57	-20.000
231.95	-466.667
232.32	200.000
232.69	-1300.000
233.07	18.750
233.44	-87.500
233.81	-3.226
234.19	-180.000
234.56	-83.333
234.93	-300.000
235.31	7.407
235.68	7.407
236.05	-38.462
236.43	-68.421
236.80	-36.364
237.17	-107.143
237.55	-90.000
237.92	-13.953
238.29	-19.355
238.67	-28.571
239.04	-20.000
239.41	-29.412
239.79	-6.000
240.16	-27.500
240.53	-39.655
240.91	-5.479
241.28	-9.859
241.65	1.563
242.02	-22.807
242.40	-2.667
242.77	-4.211
243.14	2.353
243.51	-2.151
243.89	-7.619
244.26	-7.407
244.63	-6.122
245.00	-9.821
245.38	-3.361
245.75	-7.627
246.12	-3.906
246.49	-14.400
246.87	-3.279
247.24	-11.972
247.61	-2.649
247.98	1.685
248.36	-6.289
248.73	-3.409
249.10	-4.444
249.47	-0.521
249.84	-2.030
250.22	-4.688
250.59	-7.303
250.96	0.909
251.33	0.943
251.70	-1.376
252.08	3.030
252.45	-2.449
252.82	-8.861
253.19	-1.556
253.56	-1.961
253.94	-4.878
254.31	3.237
254.68	-1.389
255.05	2.318
255.42	-2.545
255.79	0.662
256.16	-1.389
256.54	3.030
256.91	2.885
257.28	0.000
257.65	-4.918
258.02	-3.003
258.39	2.115
258.76	-2.446
259.14	-1.176
259.51	2.254
259.88	0.865
260.25	-1.989
260.62	-2.528
260.99	0.000
261.36	-2.299
261.73	-0.533
262.10	0.545
262.47	-1.102
262.85	3.085
263.22	-1.882
263.59	1.609
263.96	0.261
264.33	-2.695
264.70	-0.246
265.07	-1.724
265.44	0.937
265.81	1.687
266.18	-1.874
266.55	0.714
266.92	-1.339
267.29	-0.222
267.66	-4.091
268.03	3.011
268.40	-2.517
268.77	-2.004
269.14	0.840
269.51	-1.357
269.88	0.427
270.25	-0.422
270.62	-0.210
270.99	-2.737
271.36	-1.766
271.73	-1.875
272.10	-0.415
272.47	-1.800
272.84	-1.699
273.21	-1.461
273.58	-1.837
273.95	0.797
274.32	2.128
274.69	0.587
275.06	-0.563
275.43	-3.000
275.80	-1.147
276.17	-1.976
276.54	0.951
276.91	0.192
277.28	0.774
277.65	-2.647
278.02	-0.758
278.39	1.996
278.76	-1.117
279.13	1.610
279.50	-1.805
279.87	1.698
280.23	0.364
280.60	-2.120
280.97	0.351
281.34	0.339
281.71	-3.197
282.08	0.716
282.45	-0.353
282.82	-0.673
283.19	0.842
283.56	1.706
283.92	0.158
284.29	1.015
284.66	-1.239
285.03	-1.029
285.40	1.667
285.77	0.164
286.14	-1.585
286.51	-1.929
286.87	1.135
287.24	-1.923
287.61	-0.926
287.98	1.878
288.35	-0.620
288.72	0.306
289.08	-2.201
289.45	-0.312
289.82	-0.621
290.19	-0.606
290.56	0.145
290.93	-0.591
291.29	0.000
291.66	1.404
292.03	2.869
292.40	1.007
292.77	0.292
293.13	-0.881
293.50	0.551
293.87	-0.277
294.24	0.281
294.60	0.820
294.97	-0.139
295.34	-0.411
295.71	-1.803
296.08	-1.366
296.44	0.791
296.81	-0.906
297.18	-0.517
297.55	0.126
297.91	-0.127
298.28	0.000
298.65	-0.647
299.02	1.110
299.38	-0.383
299.75	0.901
300.12	0.240
300.48	1.174
300.85	-0.733
301.22	0.481
301.59	0.122
301.95	0.366
302.32	-1.580
302.69	-0.357
303.05	-0.236
303.42	0.242
303.79	0.337
304.15	0.793
304.52	0.559
304.89	0.113
305.25	0.344
305.62	-0.114
305.99	-0.112
306.35	-1.119
306.72	0.763
307.09	0.000
307.45	0.971
307.82	0.747
308.19	1.430
308.55	0.000
308.92	0.847
309.29	0.000
309.65	1.342
310.02	0.943
310.38	1.173
310.75	0.410
311.12	1.119
311.48	1.233
311.85	0.811
312.22	0.620
312.58	1.208
312.95	0.924
313.31	-0.295
313.68	0.695
314.05	1.986
314.41	0.786
314.78	0.302
315.14	1.273
315.51	1.986
315.87	3.223
316.24	2.967
316.61	3.204
316.97	3.235
317.34	3.062
317.70	2.894
318.07	2.797
318.43	3.497
318.80	4.007
319.16	3.635
319.53	4.057
319.89	4.356
320.26	4.818
320.62	5.523
320.99	6.429
321.35	4.842
321.72	7.879
322.08	6.436
322.45	7.101
322.81	7.783
323.18	6.616
323.54	6.919
323.91	8.159
324.27	7.715
324.64	7.873
325.00	8.644
325.37	9.442
325.73	8.942
326.10	9.895
326.46	9.610
326.83	11.170
327.19	12.227
327.56	11.760
327.92	11.806
328.29	11.201
328.65	12.524
329.01	12.294
329.38	12.856
329.74	12.999
330.11	12.116
330.47	13.873
330.84	13.346
331.20	13.031
331.56	12.736
331.93	13.632
332.29	13.876
332.66	15.732
333.02	13.835
333.38	15.257
333.75	14.273
334.11	14.105
334.48	15.474
334.84	14.460
335.20	15.309
335.57	17.530
335.93	14.698
336.29	14.991
336.66	15.209
337.02	15.775
337.38	15.566
337.75	16.909
338.11	16.682
338.47	16.620
338.84	16.943
339.20	16.590
339.56	16.403
339.93	16.937
340.29	17.135
340.65	17.352
341.02	16.032
341.38	15.887
341.74	17.438
342.11	17.860
342.47	16.084
342.83	16.739
343.20	17.241
343.56	16.783
343.92	18.373
344.28	16.209
344.65	17.551
345.01	16.899
345.37	18.632
345.73	17.054
346.10	19.101
346.46	18.205
346.82	18.522
347.19	18.335
347.55	18.282
347.91	17.199
348.27	19.292
348.63	19.620
349.00	20.200
349.36	19.951
349.72	19.130
350.08	19.394
350.45	19.528
350.81	20.644
351.17	18.369
351.53	19.968
351.89	19.516
352.26	19.756
352.62	19.787
352.98	20.084
353.34	19.967
353.70	19.671
354.07	21.582
354.43	19.866
354.79	20.656
355.15	19.532
355.51	19.560
355.87	19.400
356.24	20.752
356.60	20.534
356.96	19.273
357.32	22.305
357.68	20.605
358.04	20.178
358.40	20.131
358.77	20.080
359.13	20.643
359.49	18.160
359.85	20.064
360.21	19.191
360.57	19.936
360.93	21.219
361.29	19.237
361.66	19.322
362.02	20.487
362.38	20.280
362.74	19.754
363.10	19.155
363.46	19.413
363.82	18.913
364.18	18.925
364.54	20.534
364.90	19.778
365.26	19.300
365.62	20.136
365.98	20.765
366.35	20.651
366.71	20.762
367.07	20.074
367.43	19.639
367.79	18.823
368.15	19.125
368.51	20.599
368.87	20.705
369.23	20.061
369.59	19.632
369.95	19.821
370.31	18.712
370.67	20.000
371.03	19.427
371.39	21.224
371.75	19.391
372.11	19.407
372.47	18.782
372.83	20.234
373.19	19.202
373.55	19.012
373.91	20.152
374.27	20.162
374.63	20.103
374.99	20.644
375.35	19.448
375.71	20.732
376.07	20.989
376.42	19.433
376.78	20.279
377.14	19.693
377.50	20.315
377.86	19.708
378.22	19.617
378.58	20.592
378.94	20.563
379.30	19.369
379.66	19.654
380.02	19.453
380.38	19.020
380.74	19.888
381.09	18.742
381.45	19.175
381.81	19.898
382.17	20.195
382.53	20.447
382.89	19.179
383.25	19.087
383.61	19.835
383.97	20.923
384.32	19.548
384.68	19.157
385.04	19.287
385.40	19.105
385.76	19.987
386.12	19.934
386.48	19.178
386.83	19.157
387.19	19.476
387.55	19.948
387.91	18.069
388.27	19.578
388.62	19.365
388.98	19.338
389.34	18.478
389.70	19.551
390.06	19.406
390.42	19.540
390.77	20.858
391.13	19.779
391.49	20.350
391.85	19.095
392.20	20.132
392.56	19.122
392.92	19.357
393.28	19.749
393.64	18.683
393.99	18.312
394.35	18.689
394.71	19.404
395.07	18.966
395.42	19.492
395.78	18.817
396.14	18.521
396.50	19.599
396.85	19.365
397.21	19.211
397.57	18.697
397.92	18.766
398.28	19.904
398.64	18.540
399.00	19.153
399.35	19.109
399.71	18.743
400.07	19.518
400.42	19.679
400.78	18.874
401.14	19.066
401.49	18.364
401.85	19.048
402.21	19.353
402.57	18.287
402.92	19.588
403.28	19.441
403.63	18.718
403.99	18.296
404.35	18.790
404.70	18.873
405.06	18.413
405.42	19.453
405.77	19.084
406.13	18.698
406.49	18.423
406.84	19.614
407.20	18.463
407.55	19.706
407.91	18.182
408.27	18.949
408.62	19.164
408.98	18.404
409.34	18.694
409.69	17.993
410.05	18.264
410.40	18.561
410.76	19.303
411.11	18.552
411.47	18.776
411.83	18.738
412.18	18.914
412.54	19.211
412.89	18.718
413.25	19.185
413.60	19.005
413.96	18.511
414.31	18.866
414.67	18.974
415.03	18.050
415.38	18.315
415.74	20.013
416.09	18.884
416.45	17.622
416.80	17.663
417.16	18.124
417.51	18.945
417.87	19.220
418.22	18.382
418.58	17.968
418.93	19.600
419.29	18.996
419.64	19.643
420.00	19.253
420.35	19.648
420.71	19.270
421.06	19.403
421.42	19.197
421.77	19.488
422.12	19.079
422.48	18.161
422.83	19.271
423.19	18.824
423.54	17.593
423.90	18.850
424.25	19.275
424.61	19.032
424.96	19.287
425.31	17.814
425.67	18.667
426.02	18.820
426.38	17.761
426.73	17.882
427.09	18.647
427.44	17.901
427.79	19.431
428.15	18.897
428.50	19.347
428.85	18.409
429.21	18.828
429.56	18.343
429.92	18.280
430.27	17.707
430.62	18.551
430.98	18.377
431.33	19.021
431.68	18.435
432.04	18.527
432.39	18.182
432.74	18.469
433.10	17.708
433.45	17.923
433.80	18.929
434.16	18.585
434.51	18.896
434.86	18.610
435.22	18.393
435.57	19.129
435.92	18.638
436.28	18.929
436.63	18.426
436.98	19.321
437.34	19.194
437.69	18.704
438.04	18.450
438.39	19.582
438.75	18.646
439.10	19.226
439.45	18.935
439.81	18.603
440.16	18.738
440.51	18.587
440.86	18.434
441.22	19.476
441.57	19.316
441.92	19.823
442.27	19.314
442.63	19.582
442.98	19.621
443.33	19.800
443.68	19.135
444.03	18.918
444.39	19.105
444.74	19.805
445.09	19.894
445.44	18.834
445.79	19.040
446.15	19.300
446.50	18.681
446.85	19.472
447.20	18.928
447.55	19.023
447.91	19.459
448.26	19.407
448.61	19.033
448.96	19.456
449.31	19.771
449.66	18.947
450.02	18.994
450.37	19.684
450.72	18.671
451.07	18.787
451.42	19.368
451.77	17.907
452.12	19.236
452.47	18.564
452.83	18.867
453.18	18.839
453.53	19.922
453.88	19.272
454.23	20.511
454.58	20.039
454.93	19.005
455.28	19.620
455.63	18.843
455.98	19.543
456.34	18.821
456.69	19.025
457.04	20.210
457.39	19.913
457.74	19.216
458.09	18.917
458.44	18.332
458.79	18.433
459.14	19.320
459.49	19.172
459.84	19.620
460.19	19.700
460.54	18.939
460.89	18.059
461.24	19.740
461.59	19.432
461.94	19.066
462.29	19.486
462.64	18.802
462.99	19.869
463.34	19.267
463.69	20.027
464.04	19.179
464.39	19.743
464.74	18.040
465.09	20.450
465.44	19.136
465.79	18.953
466.14	18.198
466.49	19.810
466.84	18.796
467.19	19.168
467.54	17.838
467.89	19.073
468.24	18.308
468.59	20.026
468.94	18.763
469.29	19.170
469.64	19.475
469.99	18.818
470.34	18.812
470.68	19.538
471.03	18.978
471.38	17.651
471.73	18.895
472.08	20.071
472.43	19.848
472.78	18.999
473.13	19.018
473.48	19.225
473.83	19.815
474.17	18.479
474.52	19.491
474.87	18.876
475.22	18.806
475.57	18.566
475.92	18.818
476.27	18.385
476.61	19.563
476.96	18.909
477.31	19.121
477.66	19.291
478.01	18.069
478.36	18.338
478.70	18.817
479.05	18.224
479.40	18.353
479.75	18.732
480.10	18.723
480.45	19.162
480.79	18.682
481.14	18.081
481.49	18.817
481.84	18.737
482.19	17.805
482.53	18.480
482.88	18.658
483.23	19.045
483.58	18.317
483.92	18.543
484.27	18.490
484.62	19.000
484.97	18.102
485.31	17.749
485.66	17.574
486.01	17.682
486.36	17.198
486.70	17.642
487.05	17.575
487.40	17.515
487.75	17.664
488.09	17.419
488.44	17.822
488.79	18.119
489.13	17.373
489.48	17.580
489.83	18.169
490.17	17.862
490.52	18.021
490.87	18.398
491.22	18.343
491.56	18.281
491.91	18.373
492.26	18.052
492.60	18.061
492.95	18.172
493.30	18.191
493.64	18.306
493.99	17.916
494.34	18.905
494.68	17.839
495.03	17.241
495.37	18.044
495.72	18.091
496.07	17.698
496.41	16.601
496.76	17.335
497.11	17.922
497.45	17.730
497.80	17.134
498.14	18.215
498.49	17.726
498.84	17.191
499.18	17.592
499.53	17.757
499.87	17.307
500.22	17.091
500.56	17.582
500.91	18.511
501.26	17.953
501.60	17.584
501.95	17.503
502.29	17.855
502.64	17.322
502.98	17.567
503.33	17.424
503.67	17.458
504.02	17.773
504.36	17.257
504.71	17.181
505.06	17.086
505.40	17.265
505.75	16.588
506.09	16.685
506.44	17.543
506.78	17.291
507.13	17.698
507.47	16.898
507.82	16.574
508.16	16.314
508.51	17.670
508.85	17.692
509.19	17.005
509.54	17.280
509.88	16.628
510.23	17.191
510.57	17.263
510.92	17.007
511.26	16.542
511.61	17.580
511.95	16.541
512.30	16.928
512.64	16.774
512.98	16.775
513.33	16.002
513.67	16.347
514.02	16.226
514.36	16.963
514.70	18.094
515.05	17.195
515.39	16.499
515.74	17.732
516.08	16.573
516.42	16.967
516.77	17.143
517.11	16.208
517.46	16.552
517.80	17.932
518.14	17.331
518.49	17.141
518.83	16.991
519.17	16.517
519.52	17.739
519.86	16.719
520.20	16.879
520.55	16.971
520.89	16.869
521.23	16.834
521.58	16.931
521.92	16.956
522.26	16.495
522.61	16.928
522.95	16.712
523.29	15.789
523.64	16.486
523.98	16.331
524.32	16.431
524.66	17.403
525.01	16.426
525.35	16.142
525.69	16.449
526.04	16.490
526.38	16.244
526.72	17.639
527.06	16.034
527.41	16.159
527.75	16.296
528.09	15.842
528.43	16.300
528.78	15.653
529.12	16.438
529.46	16.877
529.80	15.180
530.15	16.956
530.49	17.434
530.83	16.124
531.17	15.890
531.51	15.632
531.86	16.737
532.20	15.368
532.54	15.540
532.88	15.855
533.22	15.374
533.57	16.552
533.91	16.105
534.25	15.818
534.59	16.231
534.93	16.320
535.27	15.488
535.62	15.868
535.96	15.911
536.30	15.588
536.64	15.880
536.98	15.560
537.32	15.327
537.66	15.616
538.01	15.832
538.35	15.927
538.69	14.862
539.03	15.862
539.37	14.932
539.71	15.797
540.05	15.557
540.39	14.960
540.73	14.652
541.07	14.779
541.42	15.039
541.76	15.324
542.10	16.499
542.44	15.824
542.78	14.443
543.12	14.513
543.46	15.723
543.80	15.297
544.14	15.914
544.48	15.158
544.82	15.046
545.16	14.203
545.50	15.648
545.84	14.923
546.18	14.682
546.52	15.065
546.86	14.996
547.20	15.909
547.54	14.102
547.88	15.242
548.22	14.346
548.56	15.081
548.90	14.526
549.24	15.570
549.58	14.978
549.92	14.436
550.26	15.367
550.60	14.909
550.94	15.159
551.28	15.041
551.62	15.889
551.96	14.936
552.30	14.729
552.64	14.275
552.98	14.562
553.32	13.939
553.66	14.719
554.00	15.290
554.34	15.000
554.68	14.434
555.02	14.286
555.36	13.344
555.69	14.066
556.03	14.265
556.37	13.578
556.71	14.480
557.05	13.906
557.39	13.735
557.73	13.758
558.07	15.102
558.41	13.328
558.75	15.353
559.08	15.234
559.42	14.632
559.76	14.153
560.10	13.529
560.44	12.510
560.78	14.275
561.12	13.449
561.45	13.393
561.79	13.950
562.13	13.788
562.47	14.526
562.81	14.026
563.15	13.536
563.48	13.258
563.82	14.702
564.16	13.353
564.50	12.679
564.84	13.678
565.17	13.734
565.51	13.863
565.85	13.380
566.19	13.779
566.52	13.333
566.86	14.276
567.20	13.573
567.54	13.912
567.88	13.107
568.21	13.775
568.55	13.243
568.89	13.352
569.23	12.952
569.56	12.920
569.90	12.377
570.24	13.042
570.57	12.415
570.91	13.028
571.25	13.017
571.59	12.557
571.92	11.938
572.26	11.972
572.60	12.059
572.93	12.083
573.27	12.167
573.61	11.947
573.95	12.334
574.28	11.890
574.62	11.711
574.96	11.056
575.29	11.874
575.63	11.689
575.97	11.578
576.30	11.943
576.64	11.687
576.98	11.390
577.31	11.735
577.65	11.742
577.98	11.630
578.32	11.349
578.66	11.444
578.99	11.588
579.33	11.736
579.67	11.633
580.00	11.501
580.34	11.845
580.67	11.343
581.01	11.457
581.35	11.737
581.68	11.132
582.02	11.174
582.35	11.206
582.69	11.265
583.02	11.351
583.36	11.098
583.70	11.402
584.03	10.712
584.37	11.704
584.70	11.319
585.04	10.902
585.37	11.193
585.71	10.926
586.04	11.212
586.38	10.896
586.72	11.540
587.05	11.594
587.39	11.743
587.72	10.809
588.06	11.186
588.39	10.985
588.73	11.087
589.06	10.906
589.40	11.475
589.73	11.593
590.07	11.034
590.40	11.546
590.73	11.412
591.07	10.866
591.40	11.010
591.74	11.101
592.07	11.652
592.41	10.918
592.74	11.419
593.08	11.270
593.41	11.279
593.75	11.426
594.08	10.976
594.41	11.153
594.75	10.532
595.08	10.869
595.42	10.965
595.75	11.439
596.09	10.328
596.42	10.994
596.75	11.818
597.09	10.448
597.42	10.793
597.75	11.398
598.09	11.423
598.42	10.838
598.76	10.656
599.09	11.218
599.42	10.504
599.76	10.475
600.09	10.834
600.42	10.352
600.76	10.816
601.09	11.137
601.42	10.789
601.76	10.836
602.09	11.227
602.42	11.159
602.76	10.558
603.09	11.010
603.42	10.520
603.76	10.617
604.09	10.443
604.42	10.863
604.76	10.497
605.09	10.487
605.42	11.422
605.75	9.639
606.09	11.333
606.42	10.761
606.75	11.057
607.09	10.868
607.42	11.014
607.75	10.331
608.08	10.804
608.42	10.087
608.75	10.555
609.08	9.642
609.41	10.575
609.75	11.269
610.08	10.439
610.41	10.280
610.74	10.870
611.07	10.682
611.41	10.707
611.74	10.501
612.07	10.212
612.40	10.752
612.73	10.648
613.07	10.804
613.40	11.386
613.73	10.882
614.06	10.422
614.39	11.306
614.72	10.331
615.06	10.735
615.39	10.970
615.72	10.414
616.05	9.971
616.38	10.380
616.71	10.697
617.05	10.490
617.38	10.387
617.71	10.451
618.04	11.235
618.37	10.399
618.70	11.549
619.03	11.530
619.36	11.561
619.69	9.953
620.03	11.670
620.36	10.960
620.69	11.530
621.02	10.768
621.35	10.553
621.68	11.071
622.01	9.982
622.34	10.050
622.67	10.118
623.00	11.384
623.33	10.394
623.66	10.359
623.99	10.447
624.32	10.087
624.65	9.844
624.99	9.922
625.32	9.795
625.65	10.088
625.98	11.417
626.31	9.784
626.64	10.991
626.97	11.397
627.30	9.907
627.63	10.884
627.96	9.870
628.29	11.281
628.62	11.546
628.95	11.088
629.28	12.087
629.61	11.494
629.94	11.411
630.26	11.088
630.59	12.147
630.92	8.746
631.25	10.838
631.58	11.163
631.91	10.478
632.24	10.296
632.57	11.058
632.90	12.669
633.23	11.097
633.56	11.824
633.89	11.214
634.22	11.154
634.55	10.775
634.88	12.450
635.20	12.877
635.53	10.754
635.86	12.092
