SpectraSuite Data File
++++++++++++++++++++++++++++++++++++
Date: Tue May 12 19:43:14 PDT 2015
User: schluterlab
Dark Spectrum Present: Yes
Reference Spectrum Present: Yes
Number of Sampled Component Spectra: 1
Spectrometers: USB2E3373
Integration Time (usec): 3000 (USB2E3373)
Spectra Averaged: 3 (USB2E3373)
Boxcar Smoothing: 0 (USB2E3373)
Correct for Electrical Dark: No (USB2E3373)
Strobe/Lamp Enabled: No (USB2E3373)
Correct for Detector Non-linearity: No (USB2E3373)
Correct for Stray Light: No (USB2E3373)
Number of Pixels in Processed Spectrum: 2048
>>>>>Begin Processed Spectral Data<<<<<
178.53	0.000
178.91	-130.000
179.29	-16.667
179.67	33.333
180.04	0.000
180.42	-140.000
180.80	-266.667
181.18	500.000
181.56	-150.000
181.94	266.667
182.31	1100.000
182.69	-85.714
183.07	0.000
183.45	175.000
183.83	140.000
184.20	133.333
184.58	1300.000
184.96	283.333
185.34	-33.333
185.72	-28.571
186.09	16.667
186.47	-500.000
186.85	-20.000
187.23	158.333
187.61	-114.286
187.98	-120.000
188.36	650.000
188.74	-175.000
189.12	-33.333
189.49	-20.000
189.87	100.000
190.25	177.778
190.63	400.000
191.00	380.000
191.38	-400.000
191.76	180.000
192.14	0.000
192.51	-10.000
192.89	60.000
193.27	-20.000
193.65	-300.000
194.02	-100.000
194.40	700.000
194.78	87.500
195.15	-42.857
195.53	633.333
195.91	140.000
196.29	-200.000
196.66	0.000
197.04	-100.000
197.42	40.000
197.79	-162.500
198.17	-25.000
198.55	-100.000
198.92	-55.556
199.30	500.000
199.68	-75.000
200.05	-450.000
200.43	-27.778
200.81	-16.667
201.18	266.667
201.56	-50.000
201.94	200.000
202.31	-91.667
202.69	100.000
203.07	8.333
203.44	-475.000
203.82	0.000
204.19	287.500
204.57	-333.333
204.95	109.091
205.32	260.000
205.70	150.000
206.08	500.000
206.45	-200.000
206.83	2000.000
207.20	-100.000
207.58	46.154
207.96	466.667
208.33	666.667
208.71	366.667
209.08	650.000
209.46	-11.111
209.84	33.333
210.21	-200.000
210.59	-100.000
210.96	133.333
211.34	-100.000
211.71	700.000
212.09	-40.000
212.46	-50.000
212.84	-87.500
213.22	28.571
213.59	-125.000
213.97	0.000
214.34	-450.000
214.72	-1200.000
215.09	150.000
215.47	6.667
215.84	-50.000
216.22	-1400.000
216.59	1500.000
216.97	41.667
217.34	-133.333
217.72	-11.111
218.09	350.000
218.47	-5.263
218.84	-125.000
219.22	-35.714
219.59	-130.000
219.97	-60.000
220.34	333.333
220.72	72.727
221.09	-600.000
221.47	0.000
221.84	100.000
222.22	-225.000
222.59	-225.000
222.97	-43.478
223.34	166.667
223.72	357.143
224.09	-33.333
224.46	115.385
224.84	-26.667
225.21	300.000
225.59	-350.000
225.96	65.000
226.34	166.667
226.71	240.000
227.08	-38.462
227.46	-114.286
227.83	-25.000
228.21	-1200.000
228.58	150.000
228.95	21.053
229.33	68.750
229.70	-283.333
230.08	-100.000
230.45	-266.667
230.82	-700.000
231.20	-19.048
231.57	-360.000
231.95	-300.000
232.32	166.667
232.69	-700.000
233.07	43.750
233.44	-37.500
233.81	6.452
234.19	-360.000
234.56	-50.000
234.93	-150.000
235.31	-7.407
235.68	-11.111
236.05	-11.538
236.43	-73.684
236.80	-40.909
237.17	-50.000
237.55	-35.000
237.92	2.326
238.29	-32.258
238.67	-39.286
239.04	-8.571
239.41	-9.804
239.79	12.000
240.16	-7.500
240.53	-20.690
240.91	6.849
241.28	-12.676
241.65	-6.250
242.02	-22.807
242.40	-17.333
242.77	4.211
243.14	8.235
243.51	-2.151
243.89	-9.524
244.26	11.111
244.63	3.061
245.00	-8.929
245.38	-5.042
245.75	-0.847
246.12	2.344
246.49	-4.000
246.87	-3.279
247.24	-3.521
247.61	1.325
247.98	6.180
248.36	-0.629
248.73	-0.568
249.10	-0.556
249.47	5.208
249.84	-3.046
250.22	1.042
250.59	-3.371
250.96	-2.727
251.33	6.132
251.70	0.000
252.08	3.896
252.45	2.857
252.82	-1.688
253.19	2.724
253.56	2.353
253.94	0.813
254.31	6.115
254.68	2.431
255.05	6.954
255.42	2.182
255.79	4.305
256.16	3.125
256.54	6.364
256.91	6.410
257.28	2.922
257.65	0.328
258.02	3.003
258.39	2.719
258.76	3.058
259.14	3.529
259.51	6.197
259.88	4.323
260.25	1.989
260.62	1.124
260.99	3.621
261.36	3.448
261.73	6.667
262.10	3.815
262.47	2.204
262.85	6.427
263.22	3.495
263.59	4.021
263.96	3.394
264.33	0.539
264.70	4.177
265.07	5.172
265.44	5.152
265.81	7.711
266.18	6.323
266.55	5.714
266.92	4.688
267.29	2.222
267.66	4.091
268.03	3.871
268.40	3.432
268.77	3.341
269.14	3.571
269.51	4.977
269.88	5.769
270.25	4.219
270.62	4.202
270.99	3.789
271.36	3.311
271.73	2.917
272.10	6.224
272.47	3.600
272.84	3.609
273.21	2.296
273.58	2.653
273.95	5.378
274.32	6.963
274.69	5.675
275.06	1.876
275.43	2.200
275.80	5.354
276.17	2.964
276.54	6.654
276.91	5.758
277.28	4.255
277.65	2.457
278.02	6.250
278.39	6.352
278.76	3.166
279.13	7.871
279.50	5.776
279.87	3.962
280.23	4.554
280.60	2.650
280.97	4.921
281.34	5.085
281.71	4.440
282.08	4.293
282.45	3.351
282.82	3.199
283.19	4.882
283.56	4.778
283.92	4.423
284.29	4.061
284.66	3.363
285.03	2.058
285.40	4.333
285.77	4.269
286.14	4.437
286.51	5.145
286.87	3.890
287.24	0.962
287.61	3.241
287.98	5.634
288.35	3.721
288.72	4.434
289.08	2.358
289.45	3.276
289.82	2.329
290.19	5.000
290.56	3.907
290.93	3.840
291.29	4.539
291.66	5.337
292.03	4.017
292.40	4.604
292.77	2.624
293.13	3.231
293.50	4.959
293.87	5.132
294.24	4.916
294.60	4.372
294.97	3.324
295.34	3.836
295.71	3.051
296.08	3.415
296.44	4.743
296.81	2.717
297.18	4.916
297.55	2.889
297.91	3.680
298.28	3.581
298.65	4.140
299.02	5.179
299.38	4.209
299.75	4.376
300.12	4.077
300.48	3.638
300.85	2.445
301.22	3.726
301.59	4.501
301.95	4.634
302.32	3.402
302.69	2.021
303.05	2.952
303.42	3.623
303.79	3.708
304.15	4.077
304.52	3.352
304.89	3.382
305.25	4.587
305.62	4.205
305.99	5.039
306.35	3.579
306.72	4.248
307.09	4.353
307.45	3.452
307.82	5.123
308.19	5.281
308.55	5.063
308.92	3.814
309.29	3.556
309.65	4.644
310.02	3.983
310.38	4.264
310.75	5.430
311.12	4.069
311.48	5.242
311.85	4.762
312.22	3.926
312.58	5.136
312.95	5.544
313.31	5.310
313.68	4.667
314.05	5.462
314.41	5.206
314.78	4.121
315.14	5.289
315.51	6.653
315.87	6.055
316.24	6.528
316.61	5.437
316.97	6.373
317.34	7.560
317.70	5.789
318.07	7.329
318.43	6.333
318.80	5.920
319.16	7.549
319.53	6.981
319.89	7.481
320.26	8.555
320.62	9.302
320.99	9.490
321.35	7.905
321.72	9.394
322.08	10.792
322.45	7.988
322.81	9.951
323.18	8.054
323.54	9.479
323.91	8.918
324.27	9.740
324.64	9.466
325.00	9.827
325.37	10.072
325.73	8.942
326.10	9.807
326.46	10.517
326.83	9.675
327.19	11.179
327.56	11.760
327.92	9.983
328.29	11.111
328.65	10.264
329.01	11.284
329.38	11.387
329.74	11.978
330.11	10.997
330.47	11.080
330.84	11.466
331.20	10.444
331.56	10.849
331.93	10.704
332.29	11.193
332.66	11.121
333.02	12.535
333.38	11.305
333.75	11.345
334.11	10.669
334.48	10.555
334.84	9.765
335.20	10.295
335.57	11.898
335.93	10.698
336.29	11.883
336.66	11.384
337.02	11.605
337.38	11.698
337.75	11.545
338.11	11.121
338.47	11.421
338.84	11.234
339.20	11.916
339.56	11.650
339.93	11.712
340.29	11.967
340.65	11.416
341.02	10.983
341.38	11.827
341.74	12.633
342.11	11.406
342.47	12.325
342.83	10.841
343.20	11.848
343.56	11.189
343.92	11.899
344.28	10.635
344.65	11.815
345.01	12.108
345.37	10.342
345.73	11.714
346.10	12.360
346.46	11.562
346.82	11.555
347.19	11.859
347.55	12.330
347.91	11.057
348.27	12.468
348.63	12.532
349.00	12.354
349.36	11.624
349.72	11.987
350.08	12.439
350.45	12.693
350.81	12.552
351.17	12.191
351.53	12.319
351.89	12.263
352.26	10.732
352.62	12.756
352.98	12.720
353.34	12.782
353.70	11.029
354.07	12.768
354.43	10.851
354.79	12.705
355.15	11.057
355.51	12.714
355.87	12.240
356.24	13.235
356.60	13.022
356.96	13.033
357.32	12.675
357.68	12.570
358.04	11.912
358.40	12.439
358.77	12.691
359.13	13.253
359.49	11.840
359.85	12.470
360.21	13.243
360.57	12.440
360.93	12.827
361.29	12.850
361.66	12.618
362.02	12.873
362.38	13.364
362.74	12.990
363.10	12.896
363.46	12.491
363.82	12.404
364.18	13.777
364.54	12.977
364.90	13.111
365.26	12.817
365.62	11.658
365.98	13.793
366.35	12.254
366.71	13.294
367.07	13.137
367.43	12.924
367.79	11.701
368.15	12.305
368.51	14.082
368.87	13.142
369.23	14.005
369.59	12.794
369.95	11.475
370.31	12.803
370.67	12.707
371.03	14.241
371.39	13.142
371.75	11.664
372.11	12.593
372.47	13.289
372.83	13.440
373.19	12.274
373.55	12.350
373.91	12.803
374.27	13.466
374.63	12.518
374.99	13.031
375.35	12.917
375.71	13.415
376.07	13.357
376.42	13.347
376.78	13.101
377.14	13.547
377.50	12.244
377.86	11.838
378.22	12.417
378.58	12.697
378.94	14.014
379.30	12.741
379.66	13.060
380.02	12.969
380.38	12.786
380.74	13.176
381.09	12.325
381.45	12.889
381.81	13.202
382.17	12.508
382.53	13.083
382.89	12.380
383.25	12.682
383.61	11.697
383.97	12.801
384.32	12.581
384.68	12.835
385.04	11.712
385.40	11.374
385.76	12.397
386.12	12.145
386.48	11.872
386.83	12.311
387.19	12.069
387.55	11.723
387.91	12.087
388.27	11.388
388.62	11.852
388.98	12.468
389.34	10.735
389.70	12.179
390.06	12.805
390.42	11.765
390.77	12.944
391.13	11.776
391.49	12.601
391.85	12.442
392.20	11.221
392.56	11.853
392.92	12.245
393.28	11.191
393.64	11.083
393.99	11.234
394.35	11.746
394.71	10.927
395.07	11.804
395.42	12.000
395.78	11.694
396.14	12.725
396.50	12.290
396.85	11.104
397.21	11.190
397.57	10.797
397.92	11.768
398.28	11.511
398.64	11.683
399.00	11.376
399.35	11.254
399.71	10.719
400.07	11.303
400.42	10.962
400.78	11.900
401.14	11.048
401.49	11.243
401.85	11.175
402.21	11.358
402.57	10.431
402.92	10.425
403.28	11.053
403.63	11.474
403.99	10.238
404.35	10.510
404.70	10.323
405.06	9.981
405.42	10.930
405.77	10.999
406.13	9.857
406.49	8.896
406.84	11.208
407.20	10.099
407.55	10.621
407.91	9.790
408.27	10.106
408.62	9.068
408.98	11.326
409.34	9.923
409.69	9.431
410.05	10.298
410.40	9.120
410.76	9.838
411.11	9.696
411.47	9.728
411.83	9.659
412.18	9.817
412.54	10.155
412.89	9.521
413.25	9.655
413.60	9.630
413.96	9.903
414.31	9.114
414.67	9.588
415.03	9.682
415.38	9.401
415.74	9.805
416.09	8.753
416.45	9.766
416.80	9.736
417.16	10.085
417.51	9.091
417.87	9.918
418.22	9.826
418.58	9.330
418.93	9.607
419.29	9.091
419.64	10.440
420.00	9.365
420.35	9.856
420.71	9.667
421.06	9.150
421.42	9.473
421.77	10.353
422.12	8.801
422.48	9.195
422.83	9.362
423.19	9.882
423.54	8.613
423.90	8.714
424.25	9.063
424.61	9.806
424.96	9.582
425.31	9.722
425.67	9.273
426.02	8.634
426.38	8.494
426.73	9.221
427.09	9.324
427.44	9.383
427.79	10.458
428.15	9.004
428.50	9.045
428.85	9.429
429.21	9.863
429.56	8.564
429.92	8.924
430.27	8.533
430.62	9.032
430.98	9.350
431.33	9.677
431.68	8.862
432.04	8.746
432.39	9.031
432.74	9.171
433.10	9.157
433.45	9.626
433.80	8.929
434.16	8.976
434.51	9.142
434.86	8.761
435.22	9.255
435.57	8.641
435.92	8.731
436.28	8.531
436.63	8.885
436.98	8.457
437.34	9.085
437.69	8.827
438.04	8.413
438.39	8.681
438.75	8.677
439.10	9.762
439.45	9.114
439.81	9.460
440.16	9.091
440.51	8.612
440.86	9.343
441.22	8.874
441.57	9.117
441.92	8.835
442.27	9.314
442.63	9.199
442.98	8.680
443.33	9.753
443.68	9.540
444.03	8.814
444.39	8.225
444.74	9.845
445.09	8.855
445.44	9.155
445.79	9.223
446.15	8.688
446.50	9.774
446.85	9.021
447.20	8.753
447.55	8.435
447.91	9.406
448.26	9.080
448.61	8.701
448.96	8.870
449.31	8.198
449.66	8.717
450.02	8.757
450.37	9.235
450.72	9.096
451.07	8.438
451.42	9.091
451.77	7.629
452.12	8.709
452.47	8.401
452.83	8.655
453.18	9.183
453.53	9.144
453.88	8.807
454.23	8.626
454.58	8.486
454.93	8.106
455.28	8.215
455.63	9.747
455.98	9.581
456.34	7.770
456.69	8.057
457.04	9.383
457.39	8.365
457.74	8.660
458.09	7.530
458.44	9.013
458.79	7.715
459.14	9.004
459.49	8.153
459.84	9.096
460.19	8.881
460.54	7.955
460.89	7.824
461.24	8.571
461.59	8.896
461.94	8.810
462.29	8.208
462.64	8.565
462.99	8.992
463.34	8.791
463.69	8.985
464.04	8.210
464.39	8.617
464.74	7.333
465.09	9.003
465.44	8.278
465.79	8.363
466.14	7.995
466.49	9.102
466.84	8.477
467.19	9.552
467.54	7.493
467.89	9.014
468.24	7.955
468.59	9.031
468.94	8.204
469.29	8.581
469.64	8.753
469.99	9.445
470.34	7.001
470.68	7.846
471.03	8.029
471.38	8.078
471.73	8.866
472.08	7.900
472.43	8.645
472.78	8.194
473.13	9.263
473.48	8.783
473.83	8.454
474.17	8.339
474.52	8.171
474.87	8.523
475.22	8.132
475.57	7.932
475.92	7.902
476.27	8.921
476.61	8.392
476.96	7.943
477.31	8.733
477.66	8.483
478.01	7.652
478.36	7.794
478.70	8.732
479.05	7.951
479.40	7.794
479.75	8.132
480.10	8.442
480.45	8.639
480.79	7.680
481.14	8.065
481.49	8.638
481.84	7.576
482.19	7.561
482.53	9.265
482.88	7.931
483.23	8.191
483.58	8.020
483.92	7.789
484.27	8.277
484.62	8.392
484.97	8.172
485.31	8.817
485.66	7.929
486.01	8.152
486.36	7.868
486.70	7.787
487.05	7.834
487.40	7.870
487.75	7.644
488.09	7.644
488.44	7.885
488.79	8.219
489.13	7.897
489.48	8.392
489.83	8.322
490.17	8.204
490.52	7.792
490.87	8.605
491.22	8.481
491.56	8.251
491.91	8.233
492.26	8.159
492.60	8.010
492.95	8.214
493.30	7.998
493.64	8.266
493.99	8.522
494.34	7.957
494.68	7.532
495.03	7.302
495.37	8.718
495.72	8.070
496.07	7.961
496.41	7.806
496.76	8.071
497.11	8.075
497.45	8.086
497.80	8.567
498.14	7.920
498.49	8.115
498.84	7.704
499.18	7.732
499.53	8.827
499.87	8.500
500.22	7.844
500.56	9.210
500.91	8.495
501.26	8.451
501.60	8.614
501.95	7.932
502.29	8.363
502.64	8.014
502.98	7.774
503.33	7.988
503.67	8.014
504.02	7.763
504.36	7.858
504.71	8.191
505.06	8.249
505.40	8.740
505.75	7.688
506.09	8.126
506.44	8.476
506.78	8.512
507.13	8.035
507.47	7.867
507.82	7.701
508.16	7.572
508.51	9.628
508.85	7.857
509.19	8.941
509.54	7.252
509.88	7.250
510.23	8.539
510.57	7.893
510.92	8.503
511.26	8.501
511.61	8.619
511.95	8.502
512.30	8.348
512.64	7.742
512.98	9.037
513.33	8.206
513.67	7.305
514.02	8.534
514.36	8.066
514.70	9.229
515.05	8.476
515.39	8.156
515.74	8.145
516.08	7.784
516.42	8.950
516.77	7.826
517.11	8.318
517.46	9.681
517.80	8.934
518.14	9.424
518.49	9.120
518.83	8.301
519.17	9.383
519.52	9.869
519.86	8.930
520.20	8.153
520.55	9.726
520.89	9.379
521.23	9.552
521.58	9.127
521.92	8.011
522.26	8.591
522.61	9.420
522.95	9.589
523.29	8.907
523.64	8.955
523.98	9.543
524.32	9.630
524.66	9.041
525.01	10.034
525.35	8.892
525.69	9.498
526.04	10.007
526.38	9.527
526.72	10.278
527.06	8.790
527.41	9.355
527.75	8.973
528.09	8.416
528.43	10.135
528.78	8.526
529.12	8.973
529.46	9.037
529.80	8.237
530.15	9.451
530.49	9.484
530.83	8.532
531.17	9.605
531.51	9.493
531.86	9.384
532.20	8.442
532.54	8.993
532.88	8.727
533.22	9.339
533.57	9.310
533.91	9.566
534.25	9.097
534.59	9.285
534.93	9.402
535.27	9.226
535.62	9.723
535.96	9.142
536.30	9.464
536.64	9.442
536.98	10.398
537.32	9.226
537.66	9.384
538.01	9.573
538.35	8.945
538.69	9.271
539.03	9.301
539.37	8.471
539.71	8.696
540.05	9.262
540.39	8.569
540.73	9.890
541.07	9.412
541.42	8.981
541.76	8.489
542.10	9.182
542.44	8.960
542.78	8.651
543.12	8.231
543.46	8.942
543.80	9.435
544.14	9.319
544.48	9.263
544.82	8.872
545.16	8.768
545.50	8.588
545.84	10.534
546.18	8.165
546.52	9.608
546.86	8.799
547.20	8.788
547.54	9.856
547.88	8.547
548.22	8.931
548.56	8.739
548.90	8.632
549.24	8.626
549.58	9.389
549.92	9.774
550.26	9.730
550.60	8.961
550.94	9.683
551.28	9.187
551.62	9.910
551.96	9.265
552.30	8.992
552.64	9.767
552.98	8.395
553.32	9.091
553.66	8.574
554.00	9.112
554.34	9.531
554.68	8.931
555.02	9.444
555.36	9.055
555.69	7.917
556.03	10.273
556.37	9.152
556.71	8.824
557.05	8.672
557.39	8.916
557.73	9.355
558.07	9.233
558.41	7.662
558.75	8.382
559.08	9.362
559.42	9.114
559.76	9.014
560.10	9.617
560.44	8.393
560.78	8.565
561.12	9.316
561.45	8.929
561.79	8.076
562.13	9.340
562.47	8.333
562.81	8.415
563.15	7.833
563.48	8.240
563.82	8.661
564.16	9.216
564.50	8.309
564.84	9.568
565.17	9.585
565.51	8.586
565.85	9.014
566.19	9.603
566.52	8.100
566.86	8.880
567.20	8.184
567.54	8.168
567.88	8.374
568.21	8.382
568.55	8.093
568.89	8.352
569.23	8.434
569.56	8.690
569.90	8.137
570.24	8.274
570.57	8.089
570.91	8.770
571.25	8.747
571.59	8.295
571.92	7.907
572.26	7.991
572.60	7.954
572.93	8.219
573.27	8.209
573.61	7.923
573.95	7.610
574.28	7.310
574.62	7.564
574.96	7.692
575.29	8.028
575.63	7.686
575.97	7.654
576.30	7.750
576.64	7.525
576.98	7.415
577.31	7.671
577.65	7.668
577.98	7.659
578.32	7.380
578.66	7.585
578.99	7.869
579.33	7.594
579.67	7.407
580.00	7.425
580.34	7.575
580.67	7.604
581.01	7.746
581.35	7.742
581.68	7.490
582.02	7.689
582.35	7.691
582.69	7.569
583.02	7.510
583.36	7.469
583.70	8.002
584.03	7.346
584.37	8.050
584.70	7.631
585.04	7.618
585.37	7.692
585.71	7.628
586.04	7.509
586.38	7.709
586.72	7.713
587.05	7.394
587.39	7.809
587.72	8.002
588.06	7.682
588.39	7.888
588.73	7.839
589.06	7.611
589.40	8.131
589.73	8.452
590.07	7.278
590.40	7.631
590.73	8.372
591.07	7.922
591.40	7.766
591.74	8.069
592.07	7.880
592.41	7.685
592.74	8.181
593.08	7.476
593.41	7.611
593.75	8.224
594.08	7.901
594.41	8.176
594.75	7.909
595.08	7.908
595.42	7.886
595.75	8.220
596.09	7.726
596.42	7.653
596.75	9.091
597.09	7.509
597.42	7.977
597.75	8.490
598.09	7.912
598.42	8.235
598.76	7.832
599.09	8.571
599.42	7.907
599.76	7.729
600.09	8.066
600.42	7.266
600.76	7.929
601.09	7.490
601.42	7.649
601.76	7.427
602.09	7.667
602.42	7.903
602.76	7.853
603.09	8.399
603.42	8.177
603.76	7.386
604.09	8.104
604.42	8.416
604.76	7.896
605.09	8.030
605.42	7.915
605.75	8.040
606.09	8.356
606.42	7.918
606.75	8.348
607.09	8.442
607.42	8.261
607.75	7.025
608.08	7.998
608.42	8.147
608.75	7.704
609.08	7.168
609.41	8.813
609.75	9.005
610.08	8.062
610.41	7.939
610.74	8.443
611.07	7.932
611.41	7.602
611.74	7.889
612.07	7.980
612.40	8.357
612.73	8.565
613.07	7.751
613.40	7.821
613.73	7.732
614.06	7.670
614.39	9.139
614.72	7.556
615.06	8.324
615.39	8.487
615.72	7.839
616.05	8.058
616.38	8.185
616.71	7.463
617.05	8.480
617.38	8.452
617.71	8.687
618.04	8.016
618.37	8.371
618.70	8.288
619.03	8.920
619.36	8.910
619.69	8.476
620.03	8.238
620.36	7.483
620.69	9.017
621.02	8.234
621.35	8.426
621.68	8.731
622.01	8.021
622.34	8.543
622.67	8.516
623.00	8.681
623.33	9.528
623.66	8.924
623.99	8.692
624.32	8.340
624.65	7.422
624.99	7.266
625.32	6.951
625.65	8.647
625.98	9.333
626.31	8.225
626.64	9.009
626.97	9.283
627.30	8.519
627.63	8.651
627.96	8.845
628.29	7.935
628.62	8.247
628.95	8.870
629.28	8.368
629.61	8.464
629.94	9.647
630.26	9.519
630.59	9.215
630.92	8.325
631.25	8.380
631.58	7.907
631.91	8.656
632.24	8.639
632.57	9.037
632.90	10.209
633.23	9.419
633.56	9.434
633.89	8.839
634.22	9.744
634.55	9.067
634.88	10.576
635.20	9.726
635.53	9.218
635.86	9.511
636.19	7.776
636.52	9.569
636.85	7.953
637.18	8.031
637.51	9.756
637.83	9.637
638.16	10.100
638.49	8.646
638.82	9.986
639.15	10.429
639.48	8.151
639.81	9.389
640.13	9.188
640.46	9.291
640.79	8.372
641.12	10.388
641.45	9.176
641.77	9.395
642.10	10.586
642.43	9.428
642.76	10.036
643.09	7.266
643.41	8.781
643.74	10.417
644.07	9.171
644.40	9.928
644.73	7.919
645.05	9.542
645.38	10.000
645.71	10.305
646.04	13.011
646.36	7.386
646.69	11.605
647.02	9.766
647.35	13.200
647.67	14.629
648.00	11.068
648.33	10.983
648.66	11.317
648.98	10.508
649.31	10.155
649.64	8.950
649.96	10.135
650.29	8.142
650.62	10.019
650.94	10.906
651.27	9.441
651.60	7.839
651.92	9.733
652.25	7.648
