SpectraSuite Data File
++++++++++++++++++++++++++++++++++++
Date: Tue May 12 19:35:29 PDT 2015
User: schluterlab
Dark Spectrum Present: Yes
Reference Spectrum Present: Yes
Number of Sampled Component Spectra: 1
Spectrometers: USB2E3373
Integration Time (usec): 3000 (USB2E3373)
Spectra Averaged: 3 (USB2E3373)
Boxcar Smoothing: 0 (USB2E3373)
Correct for Electrical Dark: No (USB2E3373)
Strobe/Lamp Enabled: No (USB2E3373)
Correct for Detector Non-linearity: No (USB2E3373)
Correct for Stray Light: No (USB2E3373)
Number of Pixels in Processed Spectrum: 2048
>>>>>Begin Processed Spectral Data<<<<<
178.53	0.000
178.91	-90.000
179.29	-133.333
179.67	200.000
180.04	0.000
180.42	-240.000
180.80	-33.333
181.18	-50.000
181.56	-250.000
181.94	316.667
182.31	1700.000
182.69	71.429
183.07	0.000
183.45	183.333
183.83	320.000
184.20	250.000
184.58	500.000
184.96	66.667
185.34	166.667
185.72	-57.143
186.09	16.667
186.47	-300.000
186.85	80.000
187.23	158.333
187.61	-14.286
187.98	-340.000
188.36	200.000
188.74	125.000
189.12	44.444
189.49	-40.000
189.87	225.000
190.25	44.444
190.63	300.000
191.00	180.000
191.38	-133.333
191.76	360.000
192.14	-42.857
192.51	80.000
192.89	40.000
193.27	-100.000
193.65	-233.333
194.02	-133.333
194.40	400.000
194.78	12.500
195.15	-71.429
195.53	66.667
195.91	20.000
196.29	-100.000
196.66	66.667
197.04	-57.143
197.42	-20.000
197.79	-125.000
198.17	8.333
198.55	-700.000
198.92	-133.333
199.30	400.000
199.68	-25.000
200.05	-500.000
200.43	0.000
200.81	-33.333
201.18	166.667
201.56	-100.000
201.94	-600.000
202.31	41.667
202.69	55.556
203.07	41.667
203.44	-225.000
203.82	0.000
204.19	237.500
204.57	-433.333
204.95	81.818
205.32	100.000
205.70	250.000
206.08	-500.000
206.45	20.000
206.83	1300.000
207.20	-111.111
207.58	0.000
207.96	400.000
208.33	733.333
208.71	333.333
209.08	50.000
209.46	77.778
209.84	-33.333
210.21	-400.000
210.59	200.000
210.96	111.111
211.34	50.000
211.71	850.000
212.09	-160.000
212.46	-100.000
212.84	-37.500
213.22	-14.286
213.59	75.000
213.97	0.000
214.34	150.000
214.72	-200.000
215.09	150.000
215.47	-33.333
215.84	-50.000
216.22	-100.000
216.59	400.000
216.97	58.333
217.34	-116.667
217.72	27.778
218.09	75.000
218.47	-26.316
218.84	-162.500
219.22	-7.143
219.59	-70.000
219.97	-60.000
220.34	100.000
220.72	45.455
221.09	-1150.000
221.47	0.000
221.84	500.000
222.22	-275.000
222.59	-175.000
222.97	-8.696
223.34	120.000
223.72	200.000
224.09	0.000
224.46	92.308
224.84	-26.667
225.21	50.000
225.59	-75.000
225.96	25.000
226.34	350.000
226.71	50.000
227.08	15.385
227.46	42.857
227.83	-8.333
228.21	-500.000
228.58	233.333
228.95	0.000
229.33	43.750
229.70	-166.667
230.08	-100.000
230.45	-266.667
230.82	-1100.000
231.20	19.048
231.57	-340.000
231.95	-533.333
232.32	100.000
232.69	-500.000
233.07	-25.000
233.44	0.000
233.81	32.258
234.19	-80.000
234.56	-33.333
234.93	-133.333
235.31	-14.815
235.68	0.000
236.05	19.231
236.43	-36.842
236.80	-27.273
237.17	-35.714
237.55	-65.000
237.92	27.907
238.29	3.226
238.67	-21.429
239.04	51.429
239.41	5.882
239.79	6.000
240.16	-17.500
240.53	-15.517
240.91	4.110
241.28	5.634
241.65	-7.812
242.02	-19.298
242.40	-2.667
242.77	6.316
243.14	12.941
243.51	13.978
243.89	-1.905
244.26	11.111
244.63	10.204
245.00	-3.571
245.38	-2.521
245.75	-4.237
246.12	6.250
246.49	-4.800
246.87	-2.459
247.24	-0.704
247.61	3.974
247.98	12.921
248.36	1.887
248.73	3.977
249.10	7.778
249.47	1.042
249.84	1.523
250.22	-2.604
250.59	1.685
250.96	6.818
251.33	12.736
251.70	7.339
252.08	13.853
252.45	3.673
252.82	1.266
253.19	6.615
253.56	9.020
253.94	2.439
254.31	5.396
254.68	5.208
255.05	4.967
255.42	5.455
255.79	12.252
256.16	5.208
256.54	11.818
256.91	7.692
257.28	7.792
257.65	3.934
258.02	10.210
258.39	10.876
258.76	7.339
259.14	4.706
259.51	9.859
259.88	7.781
260.25	3.977
260.62	3.090
260.99	7.242
261.36	4.598
261.73	10.400
262.10	7.902
262.47	7.438
262.85	7.969
263.22	8.871
263.59	6.971
263.96	7.572
264.33	3.774
264.70	7.862
265.07	7.143
265.44	9.368
265.81	8.916
266.18	9.133
266.55	7.857
266.92	9.598
267.29	8.222
267.66	5.909
268.03	8.172
268.40	6.178
268.77	8.241
269.14	9.454
269.51	8.597
269.88	6.197
270.25	6.751
270.62	9.874
270.99	8.632
271.36	7.064
271.73	9.167
272.10	11.618
272.47	8.200
272.84	5.520
273.21	7.307
273.58	6.531
273.95	7.371
274.32	9.091
274.69	8.023
275.06	8.068
275.43	7.400
275.80	8.604
276.17	5.534
276.54	11.027
276.91	8.445
277.28	8.704
277.65	5.860
278.02	7.576
278.39	9.800
278.76	8.380
279.13	9.302
279.50	8.845
279.87	9.623
280.23	9.290
280.60	7.067
280.97	8.963
281.34	8.983
281.71	6.217
282.08	7.335
282.45	8.466
282.82	6.902
283.19	6.229
283.56	8.532
283.92	8.057
284.29	8.291
284.66	7.080
285.03	5.317
285.40	8.500
285.77	8.210
286.14	7.924
286.51	7.878
286.87	9.400
287.24	5.609
287.61	6.173
287.98	8.294
288.35	7.442
288.72	7.187
289.08	6.604
289.45	8.112
289.82	8.075
290.19	5.455
290.56	8.538
290.93	9.158
291.29	6.667
291.66	8.146
292.03	9.469
292.40	8.633
292.77	7.143
293.13	6.755
293.50	7.576
293.87	7.628
294.24	8.427
294.60	7.787
294.97	6.787
295.34	7.123
295.71	6.796
296.08	5.464
296.44	7.642
296.81	6.468
297.18	5.692
297.55	7.286
297.91	7.487
298.28	6.905
298.65	5.821
299.02	7.768
299.38	5.102
299.75	6.564
300.12	7.074
300.48	6.338
300.85	5.746
301.22	6.611
301.59	7.299
301.95	8.415
302.32	6.197
302.69	5.945
303.05	5.903
303.42	6.884
303.79	5.506
304.15	6.455
304.52	6.927
304.89	6.313
305.25	7.339
305.62	6.250
305.99	6.047
306.35	5.369
306.72	6.209
307.09	5.550
307.45	5.286
307.82	6.297
308.19	7.261
308.55	7.278
308.92	5.297
309.29	7.008
309.65	7.121
310.02	5.346
310.38	5.970
310.75	6.865
311.12	6.205
311.48	6.578
311.85	6.484
312.22	7.231
312.58	6.042
312.95	6.776
313.31	6.588
313.68	7.448
314.05	7.150
314.41	6.385
314.78	6.231
315.14	7.542
315.51	7.249
315.87	6.738
316.24	7.023
316.61	7.184
316.97	7.059
317.34	6.411
317.70	5.229
318.07	6.847
318.43	6.049
318.80	6.011
319.16	6.151
319.53	7.830
319.89	6.345
320.26	8.260
320.62	7.171
320.99	6.531
321.35	7.411
321.72	7.475
322.08	6.733
322.45	6.410
322.81	7.586
323.18	6.232
323.54	6.730
323.91	7.116
324.27	5.979
324.64	5.811
325.00	6.733
325.37	7.194
325.73	6.478
326.10	7.005
326.46	5.349
326.83	6.420
327.19	6.812
327.56	8.134
327.92	6.163
328.29	7.885
328.65	7.250
329.01	7.156
329.38	6.887
329.74	7.707
330.11	6.524
330.47	8.007
330.84	7.613
331.20	7.671
331.56	6.415
331.93	6.587
332.29	6.198
332.66	8.047
333.02	6.778
333.38	7.261
333.75	8.051
334.11	5.787
334.48	6.351
334.84	6.479
335.20	6.535
335.57	7.266
335.93	6.326
336.29	6.856
336.66	7.286
337.02	7.525
337.38	7.264
337.75	6.545
338.11	7.293
338.47	6.592
338.84	6.538
339.20	7.883
339.56	6.244
339.93	6.757
340.29	7.616
340.65	7.489
341.02	7.972
341.38	7.061
341.74	7.473
342.11	6.366
342.47	6.119
342.83	6.852
343.20	6.543
343.56	7.168
343.92	7.262
344.28	6.346
344.65	5.993
345.01	6.185
345.37	6.325
345.73	6.546
346.10	7.087
346.46	6.299
346.82	7.392
347.19	6.981
347.55	7.653
347.91	6.061
348.27	6.487
348.63	6.742
349.00	7.095
349.36	6.760
349.72	7.718
350.08	6.219
350.45	6.916
350.81	6.441
351.17	5.766
351.53	6.522
351.89	5.354
352.26	6.504
352.62	7.277
352.98	6.025
353.34	6.266
353.70	5.350
354.07	7.661
354.43	6.761
354.79	6.311
355.15	7.345
355.51	7.009
355.87	6.162
356.24	6.618
356.60	5.342
356.96	5.687
357.32	7.654
357.68	8.433
358.04	5.835
358.40	6.956
358.77	6.667
359.13	6.988
359.49	5.760
359.85	6.635
360.21	6.186
360.57	6.459
360.93	7.126
361.29	5.997
361.66	5.836
362.02	6.044
362.38	6.605
362.74	6.841
363.10	6.486
363.46	6.170
363.82	6.508
364.18	6.359
364.54	6.107
364.90	5.704
365.26	6.855
365.62	6.056
365.98	6.147
366.35	6.581
366.71	6.796
367.07	6.863
367.43	6.931
367.79	5.596
368.15	6.449
368.51	6.816
368.87	7.416
369.23	5.905
369.59	6.324
369.95	5.663
370.31	6.212
370.67	6.692
371.03	7.198
371.39	5.967
371.75	6.166
372.11	6.000
372.47	6.162
372.83	6.063
373.19	6.175
373.55	6.811
373.91	5.682
374.27	7.579
374.63	5.817
374.99	6.515
375.35	4.862
375.71	6.887
376.07	7.208
376.42	7.331
376.78	4.808
377.14	6.285
377.50	6.498
377.86	6.198
378.22	7.464
378.58	6.382
378.94	7.007
379.30	5.985
379.66	6.594
380.02	6.294
380.38	6.489
380.74	6.588
381.09	6.099
381.45	6.667
381.81	6.314
382.17	6.710
382.53	6.838
382.89	6.030
383.25	5.770
383.61	5.658
383.97	6.823
384.32	6.258
384.68	6.705
385.04	6.047
385.40	6.134
385.76	6.831
386.12	5.743
386.48	5.936
386.83	5.727
387.19	7.024
387.55	6.088
387.91	5.857
388.27	5.374
388.62	6.218
388.98	6.679
389.34	5.140
389.70	5.769
390.06	6.403
390.42	5.882
390.77	6.975
391.13	6.571
391.49	6.199
391.85	6.720
392.20	6.865
392.56	5.174
392.92	5.999
393.28	6.882
393.64	5.383
393.99	5.325
394.35	5.840
394.71	6.490
395.07	5.968
395.42	5.714
395.78	5.309
396.14	6.529
396.50	7.827
396.85	5.618
397.21	6.792
397.57	5.464
397.92	6.616
398.28	6.295
398.64	6.286
399.00	6.732
399.35	6.213
399.71	6.228
400.07	6.424
400.42	5.897
400.78	6.910
401.14	7.071
401.49	5.934
401.85	6.349
402.21	6.789
402.57	5.280
402.92	6.640
403.28	6.177
403.63	6.731
403.99	6.143
404.35	6.433
404.70	5.890
405.06	6.448
405.42	6.441
405.77	6.837
406.13	6.093
406.49	5.615
406.84	6.912
407.20	6.506
407.55	6.079
407.91	6.434
408.27	6.981
408.62	6.174
408.98	7.465
409.34	6.850
409.69	6.555
410.05	5.959
410.40	5.909
410.76	6.538
411.11	5.882
411.47	7.007
411.83	6.375
412.18	7.068
412.54	6.921
412.89	5.764
413.25	6.897
413.60	6.441
413.96	5.437
414.31	5.672
414.67	6.482
415.03	6.432
415.38	5.989
415.74	6.917
416.09	5.720
416.45	6.653
416.80	5.216
417.16	6.488
417.51	6.870
417.87	6.772
418.22	6.016
418.58	6.773
418.93	6.576
419.29	6.445
419.64	6.319
420.00	6.418
420.35	6.842
420.71	6.210
421.06	6.035
421.42	6.587
421.77	6.456
422.12	6.556
422.48	6.453
422.83	6.626
423.19	6.529
423.54	5.925
423.90	6.180
424.25	6.888
424.61	6.387
424.96	6.941
425.31	6.884
425.67	5.939
426.02	6.522
426.38	5.470
426.73	6.168
427.09	5.712
427.44	6.358
427.79	6.931
428.15	5.961
428.50	6.784
428.85	6.928
429.21	7.890
429.56	6.243
429.92	6.490
430.27	6.720
430.62	6.923
430.98	6.609
431.33	6.452
431.68	7.057
432.04	6.329
432.39	6.001
432.74	6.578
433.10	6.186
433.45	5.953
433.80	7.083
434.16	6.789
434.51	6.968
434.86	6.224
435.22	6.403
435.57	7.124
435.92	5.882
436.28	6.164
436.63	6.857
436.98	7.160
437.34	6.782
437.69	6.728
438.04	6.070
438.39	6.462
438.75	7.569
439.10	7.560
439.45	6.033
439.81	6.413
440.16	6.865
440.51	6.258
440.86	6.818
441.22	6.968
441.57	7.293
441.92	7.123
442.27	7.429
442.63	6.546
442.98	7.518
443.33	6.933
443.68	6.545
444.03	7.062
444.39	6.455
444.74	7.155
445.09	7.202
445.44	6.589
445.79	6.365
446.15	7.464
446.50	7.519
446.85	6.821
447.20	7.002
447.55	6.457
447.91	6.996
448.26	7.715
448.61	6.828
448.96	7.215
449.31	6.088
449.66	6.598
450.02	6.391
450.37	7.351
450.72	6.523
451.07	5.999
451.42	7.510
451.77	7.062
452.12	6.579
452.47	6.911
452.83	7.285
453.18	7.090
453.53	6.728
453.88	6.637
454.23	6.965
454.58	7.115
454.93	6.403
455.28	6.993
455.63	6.043
455.98	7.234
456.34	5.693
456.69	5.619
457.04	7.087
457.39	7.491
457.74	6.195
458.09	6.970
458.44	6.744
458.79	5.948
459.14	7.454
459.49	7.070
459.84	7.669
460.19	7.192
460.54	6.944
460.89	7.000
461.24	7.338
461.59	7.886
461.94	7.166
462.29	7.832
462.64	7.312
462.99	7.759
463.34	6.886
463.69	7.750
464.04	7.569
464.39	6.945
464.74	7.008
465.09	8.553
465.44	6.659
465.79	7.702
466.14	6.921
466.49	7.198
466.84	7.064
467.19	7.277
467.54	5.902
467.89	7.969
468.24	6.818
468.59	7.526
468.94	7.801
469.29	8.028
469.64	7.586
469.99	6.777
470.34	5.587
470.68	7.615
471.03	6.642
471.38	7.180
471.73	7.631
472.08	7.758
472.43	7.746
472.78	6.526
473.13	8.421
473.48	7.676
473.83	7.860
474.17	7.138
474.52	8.640
474.87	8.270
475.22	7.878
475.57	7.344
475.92	7.277
476.27	7.896
476.61	8.511
476.96	7.410
477.31	7.934
477.66	8.483
478.01	6.945
478.36	6.877
478.70	8.394
479.05	7.429
479.40	8.071
479.75	7.852
480.10	7.468
480.45	7.958
480.79	7.421
481.14	7.116
481.49	8.072
481.84	7.626
482.19	7.366
482.53	7.696
482.88	7.372
483.23	7.739
483.58	8.069
483.92	7.789
484.27	7.696
484.62	8.062
484.97	7.601
485.31	7.889
485.66	7.219
486.01	7.040
486.36	6.876
486.70	6.680
487.05	7.425
487.40	6.969
487.75	7.043
488.09	6.798
488.44	7.779
488.79	7.263
489.13	6.899
489.48	8.260
489.83	7.582
490.17	8.158
490.52	7.600
490.87	7.913
491.22	8.629
491.56	8.004
491.91	7.631
492.26	8.465
492.60	8.010
492.95	7.700
493.30	7.946
493.64	8.063
493.99	7.546
494.34	8.566
494.68	7.532
495.03	7.556
495.37	8.566
495.72	8.070
496.07	8.012
496.41	7.510
496.76	8.405
497.11	8.321
497.45	8.036
497.80	8.411
498.14	8.448
498.49	7.528
498.84	7.390
499.18	7.940
499.53	8.411
499.87	8.295
500.22	8.260
500.56	8.320
500.91	9.124
501.26	8.609
501.60	8.716
501.95	8.240
502.29	8.928
502.64	8.163
502.98	8.329
503.33	8.337
503.67	8.116
504.02	8.172
504.36	8.115
504.71	8.351
505.06	8.249
505.40	8.579
505.75	8.268
506.09	9.047
506.44	8.423
506.78	8.565
507.13	8.469
507.47	8.920
507.82	8.092
508.16	8.296
508.51	8.862
508.85	8.297
509.19	8.502
509.54	8.895
509.88	8.113
510.23	8.596
510.57	7.893
510.92	8.503
511.26	8.099
511.61	8.390
511.95	9.138
512.30	8.290
512.64	8.856
512.98	8.919
513.33	8.148
513.67	8.084
514.02	8.113
514.36	8.956
514.70	9.654
515.05	9.268
515.39	8.971
515.74	8.333
516.08	8.412
516.42	9.447
516.77	8.758
517.11	8.563
517.46	9.432
517.80	9.828
518.14	9.614
518.49	8.926
518.83	9.598
519.17	8.933
519.52	9.681
519.86	10.450
520.20	8.981
520.55	9.530
520.89	9.987
521.23	10.020
521.58	8.929
521.92	8.945
522.26	8.591
522.61	9.693
522.95	9.041
523.29	9.447
523.64	9.023
523.98	9.005
524.32	9.495
524.66	9.653
525.01	9.759
525.35	9.234
525.69	8.878
526.04	9.937
526.38	10.144
526.72	9.722
527.06	9.845
527.41	9.213
527.75	9.907
528.09	9.618
528.43	10.135
528.78	9.574
529.12	9.795
529.46	9.502
529.80	8.918
530.15	9.729
530.49	10.251
530.83	8.315
531.17	10.452
531.51	9.565
531.86	10.154
532.20	8.874
532.54	9.496
532.88	8.655
533.22	10.273
533.57	9.724
533.91	9.360
534.25	10.455
534.59	9.835
534.93	9.671
535.27	8.822
535.62	9.926
535.96	9.491
536.30	9.255
536.64	9.514
536.98	10.324
537.32	10.045
537.66	9.531
538.01	9.426
538.35	10.109
538.69	8.634
539.03	9.877
539.37	8.543
539.71	9.638
540.05	9.117
540.39	10.312
540.73	10.696
541.07	10.074
541.42	9.979
541.76	10.000
542.10	9.469
542.44	10.116
542.78	8.798
543.12	9.531
543.46	10.581
543.80	10.365
544.14	10.108
544.48	10.316
544.82	10.078
545.16	9.058
545.50	10.480
545.84	10.900
546.18	10.187
546.52	10.069
546.86	9.258
547.20	10.682
547.54	10.008
547.88	9.259
548.22	10.127
548.56	11.205
548.90	9.754
549.24	9.503
549.58	10.283
549.92	9.925
550.26	10.811
550.60	10.071
550.94	9.762
551.28	9.675
551.62	10.975
551.96	9.026
552.30	9.690
552.64	9.842
552.98	10.327
553.32	9.545
553.66	9.939
554.00	10.270
554.34	9.453
554.68	10.686
555.02	9.524
555.36	10.087
555.69	9.301
556.03	11.678
556.37	10.428
556.71	10.407
557.05	9.531
557.39	10.843
557.73	10.063
558.07	10.485
558.41	10.934
558.75	10.207
559.08	10.979
559.42	9.950
559.76	9.351
560.10	11.165
560.44	10.135
560.78	10.143
561.12	9.241
561.45	9.970
561.79	8.811
562.13	10.156
562.47	9.480
562.81	10.235
563.15	9.810
563.48	8.914
563.82	9.607
564.16	9.216
564.50	9.742
564.84	9.922
565.17	10.014
565.51	10.556
565.85	9.225
566.19	10.995
566.52	9.462
566.86	9.699
567.20	8.782
567.54	9.381
567.88	9.466
568.21	9.437
568.55	9.394
568.89	9.231
569.23	9.187
569.56	9.149
569.90	8.651
570.24	8.865
570.57	8.691
570.91	8.624
571.25	8.540
571.59	8.361
571.92	7.907
572.26	8.053
572.60	7.986
572.93	7.859
573.27	8.339
573.61	8.171
573.95	8.006
574.28	7.559
574.62	7.877
574.96	7.562
575.29	7.615
575.63	7.926
575.97	7.626
576.30	7.981
576.64	7.332
576.98	7.442
577.31	7.722
577.65	7.836
577.98	7.441
578.32	7.809
578.66	7.409
578.99	7.917
579.33	8.003
579.67	7.929
580.00	7.840
580.34	7.778
580.67	7.909
581.01	7.771
581.35	7.653
581.68	7.325
582.02	7.348
582.35	7.596
582.69	7.332
583.02	7.380
583.36	7.681
583.70	7.793
584.03	7.624
584.37	8.107
584.70	7.830
585.04	7.699
585.37	7.718
585.71	8.031
586.04	7.794
586.38	8.145
586.72	7.654
587.05	7.956
587.39	8.269
587.72	8.280
588.06	7.850
588.39	8.209
588.73	8.120
589.06	8.105
589.40	8.483
589.73	8.788
590.07	8.208
590.40	8.660
590.73	8.871
591.07	8.398
591.40	8.086
591.74	8.629
592.07	8.835
592.41	9.325
592.74	8.522
593.08	8.264
593.41	8.570
593.75	8.527
594.08	8.438
594.41	8.289
594.75	8.262
595.08	8.220
595.42	8.449
595.75	8.371
596.09	8.247
596.42	8.457
596.75	9.000
597.09	8.442
597.42	8.400
597.75	8.396
598.09	8.942
598.42	8.945
598.76	9.016
599.09	9.370
599.42	8.261
599.76	8.042
600.09	8.501
600.42	8.125
600.76	8.430
601.09	8.157
601.42	8.454
601.76	8.442
602.09	9.007
602.42	9.162
602.76	8.464
603.09	8.616
603.42	8.603
603.76	8.225
604.09	8.688
604.42	8.673
604.76	8.307
605.09	8.692
605.42	8.720
605.75	8.269
606.09	8.489
606.42	8.180
606.75	9.325
607.09	8.722
607.42	8.765
607.75	7.805
608.08	9.167
608.42	9.020
608.75	8.604
609.08	8.077
609.41	9.539
609.75	8.952
610.08	8.424
610.41	9.211
610.74	8.847
611.07	8.567
611.41	8.565
611.74	8.705
612.07	9.208
612.40	8.969
612.73	8.507
613.07	8.162
613.40	9.488
613.73	8.877
614.06	8.431
614.39	10.135
614.72	9.032
615.06	9.529
615.39	9.122
615.72	8.847
616.05	8.696
616.38	9.134
616.71	8.955
617.05	9.485
617.38	9.548
617.71	9.144
618.04	9.855
618.37	9.287
618.70	8.764
619.03	10.297
619.36	10.898
619.69	9.642
620.03	9.992
620.36	10.280
620.69	10.495
621.02	9.739
621.35	9.362
621.68	10.351
622.01	9.537
622.34	10.218
622.67	10.540
623.00	10.074
623.33	11.496
623.66	10.040
623.99	9.171
624.32	9.373
624.65	9.531
624.99	9.531
625.32	10.742
625.65	9.768
625.98	10.750
626.31	9.870
626.64	11.081
626.97	11.581
627.30	10.093
627.63	10.326
627.96	10.987
628.29	10.994
628.62	11.031
628.95	11.510
629.28	10.640
629.61	10.449
629.94	11.411
630.26	11.297
630.59	11.623
630.92	9.694
631.25	11.173
631.58	10.233
631.91	11.845
632.24	11.124
632.57	13.674
632.90	12.546
633.23	10.452
633.56	11.572
633.89	11.609
634.22	13.205
634.55	13.272
634.88	12.316
635.20	12.740
635.53	12.709
635.86	13.179
636.19	10.505
636.52	12.668
636.85	11.082
637.18	13.990
637.51	12.466
637.83	12.430
638.16	14.225
638.49	12.536
638.82	9.986
639.15	11.571
639.48	11.645
639.81	11.028
640.13	12.404
640.46	12.441
640.79	11.783
641.12	13.798
641.45	12.908
641.77	13.376
642.10	12.052
642.43	15.825
642.76	14.875
643.09	12.284
643.41	14.516
643.74	14.236
644.07	11.111
644.40	11.733
644.73	13.812
645.05	14.313
645.38	12.500
645.71	14.504
646.04	12.454
646.36	13.068
646.69	15.861
647.02	15.234
647.35	15.000
647.67	17.435
648.00	16.117
648.33	14.066
648.66	15.213
648.98	12.881
649.31	14.802
649.64	15.318
649.96	13.514
650.29	9.735
650.62	12.059
650.94	13.494
651.27	13.487
651.60	10.516
651.92	13.740
652.25	9.369
652.58	12.926
652.90	13.167
653.23	10.603
653.56	13.715
653.88	13.321
654.21	13.422
654.54	11.445
654.86	11.871
655.19	11.613
655.52	10.579
