SpectraSuite Data File
++++++++++++++++++++++++++++++++++++
Date: Tue May 12 19:58:28 PDT 2015
User: schluterlab
Dark Spectrum Present: Yes
Reference Spectrum Present: Yes
Number of Sampled Component Spectra: 1
Spectrometers: USB2E3373
Integration Time (usec): 3000 (USB2E3373)
Spectra Averaged: 3 (USB2E3373)
Boxcar Smoothing: 0 (USB2E3373)
Correct for Electrical Dark: No (USB2E3373)
Strobe/Lamp Enabled: No (USB2E3373)
Correct for Detector Non-linearity: No (USB2E3373)
Correct for Stray Light: No (USB2E3373)
Number of Pixels in Processed Spectrum: 2048
>>>>>Begin Processed Spectral Data<<<<<
178.53	0.000
178.91	-150.000
179.29	-383.333
179.67	566.667
180.04	0.000
180.42	-180.000
180.80	-566.667
181.18	1300.000
181.56	-700.000
181.94	416.667
182.31	1800.000
182.69	-142.857
183.07	0.000
183.45	233.333
183.83	580.000
184.20	416.667
184.58	900.000
184.96	500.000
185.34	-600.000
185.72	-100.000
186.09	-233.333
186.47	-2800.000
186.85	-180.000
187.23	216.667
187.61	-214.286
187.98	-320.000
188.36	1000.000
188.74	-225.000
189.12	-222.222
189.49	-110.000
189.87	500.000
190.25	300.000
190.63	933.333
191.00	420.000
191.38	-633.333
191.76	400.000
192.14	-242.857
192.51	-140.000
192.89	-260.000
193.27	-320.000
193.65	-400.000
194.02	-266.667
194.40	1100.000
194.78	-125.000
195.15	-214.286
195.53	633.333
195.91	380.000
196.29	-875.000
196.66	-533.333
197.04	-271.429
197.42	340.000
197.79	-300.000
198.17	-125.000
198.55	-800.000
198.92	-111.111
199.30	1100.000
199.68	-300.000
200.05	-1550.000
200.43	-83.333
200.81	-116.667
201.18	450.000
201.56	-800.000
201.94	-2200.000
202.31	-125.000
202.69	-100.000
203.07	-108.333
203.44	-475.000
203.82	0.000
204.19	325.000
204.57	-800.000
204.95	209.091
205.32	340.000
205.70	625.000
206.08	-1500.000
206.45	-180.000
206.83	2900.000
207.20	-222.222
207.58	-100.000
207.96	533.333
208.33	1100.000
208.71	1000.000
209.08	1000.000
209.46	-166.667
209.84	900.000
210.21	-666.667
210.59	1300.000
210.96	322.222
211.34	-600.000
211.71	700.000
212.09	-180.000
212.46	-87.500
212.84	-262.500
213.22	414.286
213.59	-87.500
213.97	0.000
214.34	-1000.000
214.72	-1300.000
215.09	1000.000
215.47	-53.333
215.84	-187.500
216.22	-1700.000
216.59	800.000
216.97	-16.667
217.34	-266.667
217.72	-44.444
218.09	525.000
218.47	-78.947
218.84	-275.000
219.22	-100.000
219.59	-130.000
219.97	-150.000
220.34	500.000
220.72	245.455
221.09	-1150.000
221.47	0.000
221.84	700.000
222.22	-550.000
222.59	-325.000
222.97	-34.783
223.34	133.333
223.72	414.286
224.09	-366.667
224.46	200.000
224.84	-53.333
225.21	-1150.000
225.59	-425.000
225.96	-80.000
226.34	416.667
226.71	220.000
227.08	-100.000
227.46	-157.143
227.83	-116.667
228.21	-800.000
228.58	450.000
228.95	-78.947
229.33	0.000
229.70	-466.667
230.08	-177.778
230.45	-933.333
230.82	-1700.000
231.20	-9.524
231.57	-480.000
231.95	-466.667
232.32	188.889
232.69	-1700.000
233.07	-25.000
233.44	-237.500
233.81	-6.452
234.19	-540.000
234.56	-83.333
234.93	-250.000
235.31	22.222
235.68	-22.222
236.05	-23.077
236.43	-15.789
236.80	-63.636
237.17	-71.429
237.55	-125.000
237.92	-6.977
238.29	-48.387
238.67	25.000
239.04	11.429
239.41	-1.961
239.79	20.000
240.16	20.000
240.53	15.517
240.91	31.507
241.28	36.620
241.65	15.625
242.02	0.000
242.40	17.333
242.77	12.632
243.14	25.882
243.51	24.731
243.89	18.095
244.26	30.556
244.63	33.673
245.00	20.536
245.38	24.370
245.75	30.508
246.12	35.156
246.49	34.400
246.87	31.148
247.24	23.239
247.61	33.113
247.98	29.213
248.36	33.962
248.73	28.977
249.10	33.333
249.47	32.292
249.84	31.980
250.22	31.771
250.59	36.517
250.96	34.091
251.33	42.453
251.70	43.119
252.08	38.961
252.45	31.020
252.82	39.241
253.19	33.852
253.56	43.529
253.94	38.618
254.31	37.770
254.68	33.681
255.05	36.755
255.42	38.909
255.79	39.735
256.16	40.972
256.54	39.091
256.91	43.910
257.28	39.935
257.65	38.689
258.02	39.940
258.39	40.785
258.76	39.755
259.14	39.118
259.51	41.972
259.88	41.210
260.25	38.352
260.62	41.854
260.99	40.111
261.36	40.517
261.73	40.267
262.10	41.689
262.47	45.179
262.85	41.388
263.22	43.548
263.59	43.432
263.96	42.037
264.33	40.970
264.70	42.015
265.07	36.946
265.44	44.496
265.81	42.892
266.18	40.047
266.55	43.095
266.92	41.741
267.29	42.667
267.66	38.864
268.03	40.860
268.40	39.359
268.77	40.312
269.14	39.916
269.51	40.950
269.88	42.094
270.25	40.084
270.62	40.966
270.99	42.526
271.36	45.254
271.73	40.833
272.10	38.589
272.47	39.600
272.84	36.518
273.21	40.710
273.58	38.980
273.95	41.633
274.32	41.586
274.69	42.270
275.06	39.024
275.43	40.200
275.80	40.535
276.17	38.340
276.54	40.494
276.91	41.267
277.28	41.393
277.65	38.563
278.02	40.530
278.39	41.016
278.76	43.762
279.13	40.787
279.50	41.336
279.87	37.925
280.23	39.891
280.60	39.399
280.97	39.719
281.34	41.864
281.71	37.655
282.08	38.462
282.45	39.153
282.82	38.047
283.19	39.226
283.56	40.785
283.92	39.494
284.29	39.255
284.66	40.708
285.03	38.079
285.40	40.167
285.77	40.066
286.14	38.352
286.51	36.334
286.87	39.546
287.24	36.859
287.61	36.883
287.98	39.280
288.35	37.674
288.72	37.462
289.08	36.950
289.45	36.817
289.82	36.957
290.19	36.667
290.56	36.179
290.93	34.564
291.29	36.454
291.66	34.972
292.03	36.298
292.40	36.547
292.77	36.006
293.13	34.214
293.50	34.435
293.87	33.564
294.24	32.022
294.60	34.426
294.97	31.856
295.34	33.699
295.71	32.594
296.08	31.148
296.44	33.597
296.81	31.695
297.18	30.789
297.55	33.920
297.91	32.234
298.28	30.691
298.65	32.471
299.02	32.429
299.38	30.230
299.75	31.403
300.12	31.775
300.48	30.399
300.85	31.051
301.22	32.332
301.59	30.657
301.95	30.610
302.32	29.648
302.69	29.964
303.05	30.106
303.42	30.556
303.79	29.775
304.15	28.992
304.52	31.061
304.89	29.312
305.25	30.849
305.62	28.295
305.99	29.339
306.35	30.201
306.72	29.847
307.09	29.162
307.45	29.773
307.82	29.029
308.19	29.263
308.55	30.380
308.92	29.555
309.29	29.079
309.65	29.721
310.02	29.350
310.38	29.424
310.75	29.098
311.12	29.502
311.48	29.908
311.85	30.395
312.22	30.062
312.58	28.902
312.95	30.493
313.31	29.990
313.68	28.699
314.05	32.175
314.41	29.175
314.78	30.050
315.14	30.950
315.51	31.976
315.87	30.762
316.24	31.157
316.61	31.068
316.97	31.078
317.34	32.344
317.70	31.186
318.07	32.401
318.43	32.892
318.80	32.332
319.16	31.873
319.53	33.774
319.89	32.860
320.26	34.022
320.62	34.109
320.99	36.429
321.35	34.190
321.72	36.465
322.08	37.624
322.45	36.884
322.81	39.212
323.18	38.351
323.54	38.104
323.91	38.805
324.27	38.573
324.64	40.956
325.00	40.309
325.37	41.007
325.73	40.511
326.10	42.119
326.46	43.699
326.83	44.943
327.19	43.755
327.56	46.508
327.92	45.052
328.29	44.803
328.65	47.552
329.01	48.440
329.38	47.199
329.74	48.932
330.11	48.649
330.47	50.093
330.84	49.718
331.20	50.277
331.56	50.566
331.93	49.039
332.29	50.601
332.66	52.351
333.02	52.368
333.38	51.746
333.75	52.242
334.11	51.537
334.48	51.431
334.84	51.268
335.20	50.224
335.57	53.678
335.93	52.651
336.29	53.565
336.66	53.552
337.02	54.669
337.38	53.868
337.75	53.273
338.11	53.601
338.47	55.339
338.84	54.328
339.20	54.812
339.56	53.308
339.93	53.514
340.29	54.125
340.65	52.968
341.02	53.764
341.38	54.016
341.74	54.804
342.11	53.758
342.47	52.448
342.83	54.120
343.20	53.846
343.56	54.545
343.92	54.418
344.28	53.516
344.65	54.195
345.01	56.359
345.37	53.504
345.73	53.919
346.10	54.105
346.46	53.840
346.82	55.310
347.19	53.827
347.55	53.741
347.91	52.498
348.27	54.002
348.63	54.710
349.00	54.257
349.36	54.575
349.72	53.366
350.08	53.764
350.45	54.434
350.81	53.097
351.17	52.554
351.53	53.784
351.89	54.145
352.26	52.927
352.62	55.192
352.98	53.138
353.34	54.470
353.70	53.086
354.07	52.306
354.43	54.174
354.79	53.934
355.15	52.704
355.51	54.360
355.87	54.038
356.24	54.820
356.60	54.090
356.96	52.765
357.32	53.827
357.68	52.426
358.04	52.512
358.40	53.682
358.77	53.574
359.13	54.458
359.49	52.880
359.85	53.078
360.21	53.370
360.57	53.589
360.93	54.553
361.29	53.427
361.66	52.129
362.02	54.160
362.38	53.458
362.74	53.882
363.10	51.885
363.46	52.295
363.82	52.297
364.18	52.006
364.54	52.061
364.90	52.667
365.26	53.502
365.62	52.309
365.98	52.549
366.35	52.950
366.71	53.025
367.07	53.801
367.43	52.202
367.79	52.035
368.15	52.187
368.51	52.959
368.87	52.717
369.23	53.369
369.59	52.206
369.95	52.012
370.31	52.121
370.67	52.707
371.03	52.399
371.39	52.644
371.75	51.560
372.11	52.296
372.47	51.745
372.83	51.570
373.19	52.861
373.55	52.919
373.91	52.727
374.27	53.127
374.63	51.031
374.99	51.464
375.35	52.540
375.71	52.367
376.07	52.367
376.42	51.798
376.78	53.798
377.14	52.444
377.50	53.830
377.86	52.159
378.22	52.840
378.58	52.434
378.94	52.325
379.30	52.510
379.66	50.448
380.02	52.829
380.38	52.290
380.74	52.020
381.09	51.779
381.45	52.762
381.81	52.232
382.17	52.704
382.53	52.597
382.89	52.534
383.25	51.427
383.61	52.257
383.97	51.527
384.32	50.581
384.68	52.618
385.04	50.477
385.40	50.735
385.76	52.119
386.12	50.693
386.48	51.598
386.83	52.337
387.19	52.235
387.55	51.166
387.91	50.717
388.27	52.207
388.62	52.202
388.98	51.972
389.34	50.943
389.70	50.641
390.06	51.815
390.42	52.062
390.77	51.777
391.13	51.594
391.49	51.887
391.85	51.963
392.20	52.013
392.56	50.491
392.92	51.082
393.28	51.107
393.64	50.538
393.99	50.909
394.35	52.044
394.71	50.993
395.07	51.989
395.42	51.492
395.78	49.664
396.14	50.833
396.50	50.000
396.85	50.826
397.21	50.582
397.57	50.230
397.92	51.145
398.28	50.839
398.64	50.476
399.00	49.507
399.35	49.121
399.71	49.820
400.07	50.525
400.42	51.538
400.78	50.480
401.14	49.937
401.49	50.656
401.85	50.921
402.21	50.635
402.57	49.968
402.92	50.133
403.28	48.960
403.63	49.359
403.99	49.670
404.35	49.745
404.70	49.082
405.06	49.907
405.42	50.423
405.77	49.465
406.13	49.044
406.49	50.410
406.84	50.374
407.20	47.955
407.55	49.499
407.91	48.182
408.27	49.668
408.62	48.039
408.98	48.713
409.34	49.168
409.69	47.559
410.05	48.122
410.40	48.041
410.76	48.506
411.11	48.546
411.47	49.796
411.83	48.036
412.18	48.037
412.54	48.706
412.89	48.122
413.25	48.652
413.60	48.406
413.96	48.285
414.31	48.821
414.67	49.088
415.03	48.617
415.38	47.911
415.74	49.228
416.09	48.105
416.45	48.266
416.80	47.497
417.16	48.449
417.51	49.063
417.87	49.179
418.22	47.393
418.58	48.998
418.93	47.905
419.29	48.507
419.64	49.382
420.00	46.824
420.35	48.650
420.71	49.104
421.06	48.799
421.42	48.118
421.77	48.904
422.12	47.903
422.48	48.315
422.83	48.389
423.19	48.882
423.54	47.770
423.90	48.022
424.25	49.124
424.61	48.774
424.96	49.201
425.31	48.128
425.67	47.697
426.02	48.882
426.38	47.040
426.73	49.097
427.09	49.376
427.44	49.444
427.79	48.948
428.15	48.700
428.50	49.372
428.85	48.428
429.21	49.432
429.56	48.508
429.92	47.485
430.27	47.733
430.62	48.621
430.98	47.716
431.33	47.720
431.68	47.210
432.04	48.849
432.39	47.356
432.74	46.932
433.10	49.242
433.45	49.842
433.80	49.286
434.16	46.835
434.51	47.993
434.86	48.943
435.22	48.079
435.57	49.406
435.92	47.059
436.28	48.132
436.63	47.645
436.98	48.025
437.34	49.456
437.69	47.160
438.04	49.038
438.39	49.413
438.75	47.508
439.10	48.929
439.45	50.064
439.81	48.698
440.16	49.784
440.51	46.902
440.86	48.737
441.22	47.767
441.57	47.009
441.92	48.537
442.27	48.400
442.63	49.492
442.98	48.716
443.33	49.295
443.68	47.587
444.03	47.887
444.39	47.996
444.74	47.968
445.09	49.941
445.44	48.222
445.79	49.083
446.15	49.096
446.50	48.005
446.85	48.735
447.20	46.882
447.55	47.469
447.91	48.736
448.26	49.318
448.61	47.553
448.96	47.723
449.31	47.378
449.66	47.337
450.02	46.627
450.37	47.631
450.72	47.876
451.07	46.869
451.42	48.221
451.77	46.532
452.12	47.118
452.47	46.883
452.83	49.128
453.18	49.088
453.53	48.988
453.88	48.181
454.23	46.837
454.58	49.347
454.93	47.820
455.28	48.608
455.63	49.058
455.98	48.731
456.34	46.885
456.69	46.784
457.04	48.163
457.39	46.941
457.74	47.472
458.09	47.480
458.44	47.885
458.79	46.879
459.14	47.168
459.49	47.707
459.84	48.098
460.19	46.467
460.54	46.717
460.89	47.176
461.24	48.117
461.59	48.265
461.94	46.680
462.29	46.366
462.64	47.423
462.99	48.441
463.34	46.154
463.69	47.805
464.04	48.108
464.39	47.395
464.74	47.567
465.09	47.395
465.44	46.551
465.79	46.089
466.14	45.764
466.49	46.104
466.84	45.639
467.19	46.134
467.54	45.093
467.89	46.571
468.24	46.907
468.59	47.120
468.94	47.007
469.29	46.644
469.64	47.046
469.99	47.657
470.34	47.313
470.68	46.769
471.03	45.109
471.38	46.148
471.73	46.294
472.08	47.046
472.43	47.649
472.78	45.685
473.13	46.035
473.48	46.196
473.83	47.556
474.17	45.764
474.52	46.685
474.87	46.023
475.22	47.141
475.57	46.122
475.92	45.992
476.27	46.835
476.61	46.336
476.96	46.710
477.31	45.662
477.66	45.322
478.01	45.203
478.36	45.387
478.70	46.254
479.05	45.792
479.40	44.997
479.75	45.878
480.10	47.078
480.45	45.916
480.79	45.148
481.14	45.493
481.49	46.221
481.84	46.313
482.19	44.537
482.53	45.539
482.88	45.958
483.23	44.372
483.58	45.297
483.92	45.276
484.27	45.886
484.62	45.686
484.97	44.728
485.31	43.774
485.66	43.580
486.01	42.198
486.36	43.325
486.70	44.159
487.05	44.119
487.40	44.065
487.75	42.943
488.09	44.016
488.44	43.777
488.79	43.578
489.13	44.306
489.48	44.523
489.83	43.828
490.17	45.241
490.52	44.312
490.87	45.302
491.22	45.168
491.56	45.306
491.91	44.428
492.26	45.334
492.60	45.969
492.95	46.355
493.30	45.112
493.64	44.828
493.99	45.791
494.34	45.565
494.68	44.846
495.03	43.966
495.37	45.362
495.72	45.728
496.07	45.132
496.41	43.379
496.76	43.314
497.11	44.855
497.45	46.007
497.80	44.964
498.14	45.037
498.49	44.794
498.84	44.025
499.18	44.369
499.53	45.535
499.87	45.059
500.22	44.364
500.56	46.415
500.91	44.573
501.26	44.147
501.60	44.801
501.95	44.626
502.29	44.997
502.64	43.355
502.98	43.614
503.33	44.433
503.67	44.972
504.02	44.637
504.36	43.297
504.71	44.202
505.06	44.081
505.40	44.611
505.75	44.497
506.09	44.854
506.44	44.635
506.78	44.325
507.13	44.463
507.47	45.928
507.82	44.141
508.16	44.209
508.51	44.748
508.85	44.231
509.19	44.707
509.54	44.646
509.88	44.764
510.23	44.326
510.57	44.918
510.92	43.991
511.26	44.055
511.61	44.064
511.95	44.766
512.30	44.058
512.64	44.457
512.98	45.245
513.33	43.200
513.67	43.533
514.02	44.832
514.36	44.662
514.70	45.234
515.05	44.817
515.39	44.981
515.74	45.175
516.08	43.126
516.42	44.810
516.77	43.540
517.11	43.914
517.46	44.785
517.80	45.373
518.14	43.707
518.49	44.761
518.83	44.942
519.17	44.473
519.52	44.722
519.86	44.332
520.20	44.650
520.55	46.214
520.89	46.019
521.23	44.222
521.58	44.577
521.92	45.060
522.26	44.674
522.61	45.188
522.95	45.822
523.29	43.927
523.64	44.505
523.98	44.422
524.32	44.983
524.66	45.343
525.01	45.773
525.35	44.938
525.69	44.735
526.04	46.089
526.38	44.551
526.72	43.681
527.06	44.726
527.41	43.799
527.75	43.862
528.09	44.201
528.43	44.649
528.78	43.047
529.12	43.356
529.46	44.983
529.80	44.384
530.15	45.518
530.49	45.607
530.83	44.469
531.17	42.444
531.51	45.039
531.86	43.768
532.20	42.857
532.54	45.036
532.88	44.582
533.22	45.402
533.57	43.379
533.91	43.978
534.25	42.770
534.59	42.847
534.93	42.982
535.27	43.636
535.62	43.417
535.96	42.917
536.30	41.475
536.64	43.634
536.98	43.142
537.32	44.494
537.66	43.255
538.01	44.477
538.35	42.109
538.69	41.826
539.03	42.682
539.37	41.852
539.71	42.029
540.05	42.113
540.39	43.065
540.73	42.711
541.07	42.500
541.42	42.267
541.76	42.590
542.10	44.189
542.44	42.991
542.78	42.742
543.12	41.805
543.46	42.772
543.80	42.102
544.14	43.297
544.48	42.316
544.82	41.022
545.16	42.609
545.50	44.250
545.84	43.233
546.18	43.521
546.52	43.659
546.86	42.540
547.20	42.348
547.54	42.002
547.88	40.385
548.22	41.069
548.56	41.931
548.90	42.947
549.24	42.836
549.58	43.443
549.92	42.331
550.26	41.853
550.60	42.347
550.94	43.016
551.28	42.927
551.62	44.636
551.96	42.891
552.30	41.240
552.64	41.998
552.98	42.422
553.32	41.742
553.66	42.185
554.00	43.243
554.34	42.891
554.68	44.019
555.02	42.302
555.36	41.938
555.69	40.968
556.03	41.907
556.37	42.311
556.71	41.704
557.05	43.281
557.39	42.329
557.73	41.667
558.07	43.427
558.41	40.463
558.75	43.568
559.08	43.489
559.42	44.064
559.76	42.797
560.10	44.173
560.44	40.618
560.78	41.848
561.12	41.397
561.45	41.667
561.79	40.308
562.13	41.067
562.47	42.125
562.81	42.153
563.15	39.848
563.48	41.573
563.82	42.431
564.16	42.235
564.50	40.473
564.84	41.531
565.17	40.916
565.51	41.942
565.85	41.690
566.19	41.545
566.52	42.366
566.86	41.530
567.20	41.850
567.54	41.672
567.88	41.019
568.21	40.797
568.55	40.577
568.89	40.714
569.23	40.010
569.56	39.908
569.90	39.743
570.24	39.362
570.57	38.676
570.91	38.574
571.25	38.671
571.59	38.230
571.92	37.860
572.26	37.427
572.60	37.684
572.93	38.409
573.27	37.573
573.61	38.038
573.95	37.086
574.28	37.241
574.62	36.907
574.96	37.210
575.29	36.887
575.63	36.776
575.97	36.916
576.30	36.842
576.64	36.659
576.98	37.397
577.31	37.059
577.65	37.719
577.98	36.875
578.32	36.966
578.66	36.384
578.99	36.924
579.33	37.075
579.67	36.776
580.00	36.189
580.34	37.239
580.67	36.267
581.01	36.712
581.35	36.064
581.68	36.420
582.02	36.420
582.35	36.527
582.69	36.719
583.02	37.182
583.36	36.263
583.70	36.742
584.03	36.255
584.37	37.397
584.70	36.255
585.04	36.258
585.37	36.749
585.71	36.178
586.04	36.976
586.38	36.775
586.72	36.885
587.05	37.208
587.39	37.697
587.72	37.121
588.06	36.950
588.39	37.569
588.73	36.946
589.06	37.035
589.40	37.487
589.73	37.472
590.07	37.592
590.40	37.802
590.73	38.192
591.07	38.312
591.40	37.643
591.74	37.966
592.07	37.870
592.41	38.472
592.74	37.921
593.08	37.528
593.41	37.264
593.75	37.310
594.08	37.612
594.41	37.340
594.75	37.471
595.08	37.709
595.42	37.251
595.75	37.348
596.09	37.910
596.42	37.421
596.75	37.818
597.09	37.453
597.42	37.166
597.75	38.086
598.09	36.564
598.42	38.287
598.76	37.204
599.09	37.479
599.42	36.428
599.76	36.563
600.09	37.367
600.42	36.211
600.76	36.259
601.09	36.549
601.42	37.560
601.76	37.297
602.09	37.662
602.42	37.690
602.76	37.435
603.09	37.293
603.42	37.649
603.76	36.215
604.09	37.469
604.42	36.969
604.76	37.426
605.09	36.892
605.42	38.057
605.75	36.958
606.09	36.933
606.42	36.920
606.75	37.167
607.09	38.200
607.42	37.724
607.75	36.823
608.08	37.418
608.42	37.439
608.75	38.469
609.08	36.951
609.41	37.740
609.75	38.599
610.08	37.106
610.41	37.557
610.74	38.574
611.07	37.493
611.41	37.794
611.74	39.064
612.07	37.388
612.40	38.217
612.73	37.963
613.07	38.168
613.40	38.643
613.73	37.572
614.06	37.412
614.39	38.196
614.72	38.489
615.06	38.691
615.39	36.952
615.72	37.682
616.05	37.449
616.38	37.900
616.71	37.127
617.05	37.877
617.38	38.323
617.71	37.557
618.04	39.422
618.37	36.756
618.70	38.587
619.03	39.811
619.36	39.323
619.69	38.103
620.03	39.130
620.36	38.473
620.69	37.694
621.02	39.351
621.35	38.979
621.68	41.044
622.01	39.929
622.34	38.358
622.67	38.533
623.00	39.312
623.33	39.370
623.66	40.797
623.99	39.474
624.32	38.443
624.65	38.750
624.99	38.828
625.32	40.126
625.65	38.191
625.98	39.000
626.31	38.355
626.64	40.090
626.97	39.706
627.30	40.185
627.63	39.814
627.96	38.175
628.29	39.006
628.62	39.588
628.95	40.866
629.28	39.360
629.61	40.230
629.94	40.768
630.26	40.167
630.59	41.675
630.92	39.515
631.25	39.665
