SpectraSuite Data File
++++++++++++++++++++++++++++++++++++
Date: Tue May 12 19:58:01 PDT 2015
User: schluterlab
Dark Spectrum Present: Yes
Reference Spectrum Present: Yes
Number of Sampled Component Spectra: 1
Spectrometers: USB2E3373
Integration Time (usec): 3000 (USB2E3373)
Spectra Averaged: 3 (USB2E3373)
Boxcar Smoothing: 0 (USB2E3373)
Correct for Electrical Dark: No (USB2E3373)
Strobe/Lamp Enabled: No (USB2E3373)
Correct for Detector Non-linearity: No (USB2E3373)
Correct for Stray Light: No (USB2E3373)
Number of Pixels in Processed Spectrum: 2048
>>>>>Begin Processed Spectral Data<<<<<
178.53	0.000
178.91	-210.000
179.29	-116.667
179.67	1000.000
180.04	0.000
180.42	-320.000
180.80	-366.667
181.18	1450.000
181.56	-750.000
181.94	416.667
182.31	1900.000
182.69	-142.857
183.07	0.000
183.45	225.000
183.83	380.000
184.20	366.667
184.58	1250.000
184.96	416.667
185.34	-433.333
185.72	-57.143
186.09	-316.667
186.47	-1900.000
186.85	-260.000
187.23	200.000
187.61	-185.714
187.98	-460.000
188.36	900.000
188.74	-425.000
189.12	-211.111
189.49	-170.000
189.87	400.000
190.25	355.556
190.63	400.000
191.00	220.000
191.38	-700.000
191.76	580.000
192.14	-142.857
192.51	-50.000
192.89	-160.000
193.27	-160.000
193.65	-500.000
194.02	-233.333
194.40	2100.000
194.78	-162.500
195.15	-328.571
195.53	733.333
195.91	300.000
196.29	-425.000
196.66	-266.667
197.04	-171.429
197.42	180.000
197.79	-200.000
198.17	-100.000
198.55	-1400.000
198.92	-155.556
199.30	850.000
199.68	-350.000
200.05	-1400.000
200.43	-50.000
200.81	-175.000
201.18	350.000
201.56	-600.000
201.94	-1400.000
202.31	-141.667
202.69	11.111
203.07	-133.333
203.44	-500.000
203.82	0.000
204.19	275.000
204.57	-533.333
204.95	218.182
205.32	420.000
205.70	575.000
206.08	-900.000
206.45	-200.000
206.83	1800.000
207.20	-122.222
207.58	0.000
207.96	766.667
208.33	700.000
208.71	266.667
209.08	1150.000
209.46	-77.778
209.84	1033.333
210.21	-833.333
210.59	750.000
210.96	222.222
211.34	-625.000
211.71	1500.000
212.09	-320.000
212.46	-175.000
212.84	-137.500
213.22	285.714
213.59	-87.500
213.97	0.000
214.34	-500.000
214.72	-1400.000
215.09	1300.000
215.47	-40.000
215.84	-212.500
216.22	-2000.000
216.59	1600.000
216.97	-66.667
217.34	-150.000
217.72	33.333
218.09	700.000
218.47	-100.000
218.84	-325.000
219.22	-85.714
219.59	-110.000
219.97	-280.000
220.34	416.667
220.72	209.091
221.09	-1100.000
221.47	0.000
221.84	400.000
222.22	-625.000
222.59	-650.000
222.97	-8.696
223.34	160.000
223.72	314.286
224.09	-200.000
224.46	230.769
224.84	-46.667
225.21	-900.000
225.59	-275.000
225.96	-25.000
226.34	316.667
226.71	220.000
227.08	-53.846
227.46	-257.143
227.83	-41.667
228.21	-1400.000
228.58	300.000
228.95	-63.158
229.33	-56.250
229.70	-266.667
230.08	-244.444
230.45	-833.333
230.82	-1500.000
231.20	-9.524
231.57	-540.000
231.95	-1100.000
232.32	166.667
232.69	-900.000
233.07	6.250
233.44	-200.000
233.81	-32.258
234.19	-400.000
234.56	-61.111
234.93	-216.667
235.31	-22.222
235.68	25.926
236.05	-30.769
236.43	-57.895
236.80	-31.818
237.17	-57.143
237.55	-135.000
237.92	0.000
238.29	-25.806
238.67	-46.429
239.04	-20.000
239.41	3.922
239.79	20.000
240.16	-12.500
240.53	-24.138
240.91	16.438
241.28	-2.817
241.65	35.937
242.02	1.754
242.40	4.000
242.77	22.105
243.14	18.824
243.51	10.753
243.89	-1.905
244.26	3.704
244.63	18.367
245.00	2.679
245.38	6.723
245.75	10.169
246.12	20.312
246.49	10.400
246.87	13.934
247.24	14.085
247.61	17.219
247.98	16.854
248.36	22.013
248.73	23.295
249.10	11.667
249.47	23.438
249.84	21.320
250.22	14.062
250.59	12.921
250.96	22.727
251.33	25.943
251.70	18.807
252.08	22.944
252.45	22.449
252.82	21.941
253.19	21.012
253.56	23.922
253.94	25.203
254.31	25.899
254.68	21.528
255.05	26.159
255.42	21.455
255.79	26.490
256.16	23.611
256.54	25.758
256.91	25.000
257.28	23.052
257.65	22.295
258.02	27.928
258.39	25.378
258.76	22.630
259.14	17.941
259.51	23.944
259.88	27.378
260.25	24.716
260.62	24.157
260.99	27.855
261.36	23.276
261.73	25.333
262.10	26.703
262.47	25.620
262.85	25.964
263.22	24.194
263.59	28.686
263.96	24.804
264.33	19.137
264.70	23.342
265.07	23.645
265.44	24.356
265.81	27.711
266.18	25.761
266.55	25.238
266.92	29.018
267.29	27.778
267.66	25.000
268.03	25.591
268.40	24.943
268.77	23.831
269.14	25.630
269.51	26.471
269.88	24.145
270.25	24.473
270.62	25.840
270.99	23.158
271.36	27.152
271.73	24.583
272.10	26.141
272.47	23.800
272.84	23.142
273.21	22.547
273.58	24.694
273.95	25.299
274.32	27.273
274.69	26.223
275.06	24.390
275.43	24.800
275.80	26.004
276.17	23.715
276.54	26.616
276.91	25.720
277.28	28.627
277.65	25.142
278.02	25.000
278.39	28.494
278.76	27.747
279.13	25.403
279.50	26.895
279.87	26.604
280.23	23.497
280.60	25.088
280.97	27.592
281.34	26.271
281.71	22.913
282.08	25.581
282.45	23.104
282.82	23.906
283.19	23.906
283.56	27.304
283.92	27.330
284.29	26.227
284.66	24.602
285.03	20.926
285.40	26.167
285.77	26.765
286.14	22.504
286.51	25.080
286.87	22.690
287.24	21.795
287.61	23.765
287.98	24.100
288.35	24.651
288.72	25.535
289.08	20.755
289.45	24.493
289.82	20.652
290.19	21.667
290.56	21.708
290.93	21.713
291.29	23.546
291.66	22.472
292.03	24.534
292.40	24.173
292.77	22.886
293.13	20.411
293.50	21.625
293.87	22.885
294.24	20.787
294.60	21.858
294.97	20.360
295.34	21.370
295.71	19.556
296.08	19.262
296.44	21.476
296.81	21.863
297.18	19.534
297.55	19.347
297.91	20.051
298.28	20.588
298.65	18.887
299.02	21.208
299.38	20.153
299.75	20.721
300.12	19.664
300.48	20.188
300.85	19.560
301.22	19.591
301.59	18.491
301.95	21.463
302.32	19.077
302.69	16.766
303.05	18.654
303.42	17.633
303.79	18.427
304.15	19.479
304.52	18.436
304.89	17.813
305.25	19.151
305.62	20.000
305.99	18.029
306.35	18.456
306.72	20.044
307.09	18.063
307.45	19.094
307.82	17.396
308.19	19.362
308.55	18.776
308.92	19.068
309.29	19.770
309.65	18.989
310.02	18.763
310.38	18.977
310.75	19.160
311.12	19.837
311.48	20.144
311.85	18.034
312.22	20.558
312.58	19.940
312.95	20.021
313.31	18.781
313.68	19.265
314.05	19.166
314.41	18.664
314.78	19.698
315.14	20.274
315.51	21.053
315.87	21.387
316.24	19.881
316.61	21.262
316.97	20.392
317.34	21.148
317.70	19.795
318.07	19.576
318.43	21.172
318.80	21.494
319.16	20.969
319.53	21.604
319.89	22.254
320.26	23.599
320.62	23.643
320.99	24.184
321.35	23.814
321.72	26.566
322.08	27.030
322.45	25.444
322.81	26.995
323.18	28.092
323.54	28.436
323.91	27.324
324.27	27.869
324.64	29.522
325.00	29.572
325.37	31.655
325.73	29.927
326.10	30.560
326.46	32.820
326.83	33.157
327.19	34.585
327.56	35.897
327.92	35.069
328.29	34.140
328.65	38.512
329.01	37.064
329.38	37.833
329.74	38.069
330.11	37.931
330.47	39.665
330.84	38.816
331.20	38.540
331.56	39.434
331.93	39.799
332.29	40.611
332.66	41.320
333.02	40.947
333.38	42.463
333.75	41.446
334.11	43.309
334.48	42.576
334.84	41.408
335.20	42.972
335.57	43.143
335.93	43.349
336.29	44.241
336.66	43.078
337.02	43.518
337.38	44.340
337.75	44.818
338.11	43.573
338.47	45.218
338.84	44.015
339.20	44.546
339.56	44.921
339.93	43.514
340.29	44.968
340.65	44.658
341.02	44.553
341.38	44.042
341.74	46.441
342.11	45.535
342.47	44.843
342.83	45.447
343.20	45.889
343.56	44.493
343.92	46.457
344.28	43.911
344.65	45.034
345.01	45.122
345.37	45.043
345.73	45.134
346.10	45.290
346.46	45.815
346.82	45.455
347.19	45.080
347.55	45.663
347.91	45.373
348.27	46.925
348.63	46.154
349.00	47.245
349.36	46.331
349.72	46.798
350.08	46.399
350.45	45.728
350.81	45.995
351.17	46.705
351.53	46.699
351.89	47.237
352.26	46.260
352.62	47.915
352.98	47.113
353.34	48.872
353.70	46.337
354.07	48.023
354.43	47.579
354.79	46.885
355.15	46.731
355.51	48.003
355.87	48.626
356.24	47.222
356.60	47.663
356.96	45.735
357.32	48.807
357.68	49.165
358.04	49.676
358.40	48.854
358.77	48.434
359.13	49.478
359.49	48.000
359.85	48.921
360.21	48.850
360.57	49.920
360.93	51.940
361.29	49.766
361.66	49.132
362.02	51.099
362.38	50.194
362.74	50.500
363.10	49.170
363.46	50.489
363.82	51.838
364.18	50.038
364.54	51.603
364.90	52.667
365.26	51.490
365.62	53.444
365.98	52.249
366.35	52.496
366.71	52.128
367.07	52.177
367.43	51.769
367.79	51.817
368.15	52.113
368.51	53.633
368.87	54.479
369.23	54.050
369.59	54.779
369.95	53.130
370.31	54.697
370.67	53.835
371.03	53.019
371.39	54.532
371.75	53.640
372.11	54.148
372.47	54.343
372.83	54.346
373.19	54.895
373.55	56.138
373.91	55.152
374.27	57.689
374.63	56.186
374.99	56.735
375.35	56.386
375.71	56.958
376.07	55.477
376.42	56.708
376.78	56.585
377.14	56.564
377.50	56.977
377.86	57.591
378.22	57.728
378.58	58.289
378.94	58.284
379.30	57.722
379.66	57.746
380.02	58.042
380.38	58.397
380.74	60.348
381.09	58.450
381.45	59.429
381.81	59.821
382.17	60.782
382.53	60.552
382.89	60.167
383.25	59.163
383.61	59.568
383.97	59.649
384.32	59.806
384.68	61.941
385.04	59.262
385.40	60.192
385.76	61.543
386.12	61.518
386.48	62.818
386.83	62.080
387.19	61.941
387.55	62.306
387.91	60.685
388.27	61.804
388.62	62.565
388.98	61.196
389.34	63.435
389.70	62.179
390.06	63.432
390.42	63.286
390.77	63.313
391.13	63.045
391.49	64.555
391.85	65.136
392.20	65.281
392.56	62.999
392.92	64.440
393.28	63.495
393.64	65.041
393.99	66.429
394.35	64.504
394.71	65.430
395.07	66.247
395.42	65.587
395.78	64.583
396.14	65.556
396.50	63.907
396.85	65.631
397.21	63.648
397.57	65.701
397.92	65.204
398.28	66.247
398.64	66.222
399.00	64.423
399.35	66.295
399.71	65.569
400.07	66.584
400.42	67.244
400.78	67.690
401.14	66.477
401.49	66.646
401.85	66.984
402.21	66.434
402.57	64.649
402.92	67.862
403.28	67.620
403.63	66.474
403.99	68.098
404.35	66.624
404.70	67.131
405.06	67.576
405.42	67.664
405.77	67.539
406.13	67.503
406.49	68.076
406.84	67.870
407.20	67.038
407.55	67.201
407.91	69.231
408.27	67.487
408.62	68.939
408.98	68.983
409.34	66.325
409.69	67.224
410.05	68.070
410.40	67.116
410.76	67.933
411.11	68.520
411.47	68.095
411.83	69.543
412.18	69.372
412.54	69.146
412.89	68.977
413.25	69.655
413.60	69.069
413.96	69.385
414.31	69.344
414.67	69.278
415.03	69.917
415.38	69.916
415.74	69.577
416.09	69.676
416.45	69.781
416.80	70.376
417.16	70.099
417.51	71.201
417.87	71.272
418.22	71.791
418.58	71.735
418.93	71.309
419.29	71.574
419.64	73.352
420.00	72.299
420.35	72.819
420.71	72.855
421.06	73.069
421.42	71.330
421.77	72.960
422.12	72.061
422.48	73.844
422.83	72.888
423.19	72.824
423.54	73.305
423.90	73.918
424.25	75.529
424.61	75.419
424.96	74.816
425.31	76.087
425.67	76.545
426.02	75.839
426.38	74.453
426.73	75.826
427.09	75.509
427.44	75.062
427.79	77.661
428.15	75.840
428.50	77.889
428.85	76.716
429.21	76.210
429.56	75.967
429.92	75.176
430.27	75.573
430.62	76.744
430.98	75.605
431.33	77.197
431.68	76.915
432.04	78.021
432.39	77.897
432.74	76.091
433.10	78.108
433.45	80.304
433.80	78.512
434.16	77.560
434.51	78.205
434.86	80.181
435.22	79.162
435.57	81.530
435.92	78.390
436.28	79.950
436.63	80.024
436.98	80.185
437.34	82.022
437.69	80.679
438.04	80.469
438.39	83.616
438.75	80.800
439.10	82.202
439.45	83.119
439.81	81.524
440.16	82.313
440.51	79.492
440.86	81.755
441.22	81.001
441.57	80.798
441.92	82.054
442.27	82.286
442.63	83.860
442.98	84.474
443.33	81.786
443.68	81.864
444.03	81.649
444.39	82.457
444.74	81.969
445.09	84.357
445.44	80.525
445.79	83.225
446.15	82.624
446.50	83.574
446.85	82.948
447.20	81.947
447.55	81.385
447.91	83.304
448.26	84.985
448.61	82.598
448.96	82.141
449.31	84.027
449.66	84.262
450.02	82.485
450.37	84.326
450.72	84.022
451.07	85.432
451.42	86.825
451.77	83.985
452.12	83.208
452.47	84.011
452.83	86.115
453.18	85.483
453.53	85.238
453.88	85.131
454.23	85.495
454.58	85.640
454.93	83.992
455.28	85.540
455.63	83.561
455.98	85.660
456.34	83.858
456.69	86.188
457.04	85.236
457.39	83.833
457.74	85.145
458.09	85.128
458.44	84.672
458.79	84.747
459.14	84.198
459.49	86.561
459.84	85.018
460.19	84.240
460.54	82.955
460.89	84.353
461.24	86.169
461.59	86.498
461.94	85.930
462.29	84.962
462.64	85.933
462.99	87.455
463.34	85.568
463.69	85.048
464.04	85.183
464.39	85.916
464.74	86.372
465.09	84.309
465.44	84.103
465.79	84.176
466.14	84.069
466.49	84.593
466.84	84.889
467.19	84.276
467.54	84.019
467.89	84.128
468.24	85.101
468.59	84.293
468.94	85.474
469.29	86.851
469.64	86.214
469.99	86.806
470.34	85.714
470.68	84.615
471.03	85.182
471.38	86.687
471.73	86.119
472.08	87.972
472.43	87.275
472.78	87.527
473.13	86.246
473.48	86.860
473.83	85.865
474.17	84.256
474.52	86.403
474.87	86.553
475.22	85.959
475.57	85.488
475.92	85.787
476.27	86.197
476.61	86.229
476.96	86.722
477.31	88.242
477.66	86.868
478.01	87.581
478.36	86.819
478.70	87.211
479.05	87.290
479.40	86.512
479.75	88.615
480.10	87.338
480.45	88.377
480.79	85.989
481.14	87.823
481.49	85.758
481.84	88.434
482.19	86.780
482.53	85.392
482.88	88.205
483.23	86.432
483.58	86.287
483.92	86.332
484.27	87.076
484.62	87.034
484.97	85.237
485.31	84.416
485.66	81.479
486.01	80.301
486.36	81.445
486.70	82.783
487.05	82.970
487.40	82.803
487.75	82.279
488.09	81.485
488.44	83.805
488.79	84.557
489.13	84.539
489.48	83.701
489.83	86.454
490.17	86.498
490.52	86.329
490.87	86.894
491.22	85.897
491.56	87.253
491.91	86.145
492.26	88.679
492.60	87.959
492.95	88.860
493.30	88.866
493.64	88.742
493.99	88.398
494.34	87.785
494.68	86.026
495.03	86.055
495.37	88.039
495.72	87.184
496.07	86.765
496.41	86.611
496.76	87.345
497.11	88.872
497.45	88.096
497.80	85.722
498.14	88.332
498.49	88.521
498.84	87.736
499.18	88.168
499.53	87.591
499.87	87.660
500.22	88.675
500.56	88.749
500.91	89.303
501.26	88.609
501.60	88.073
501.95	88.434
502.29	90.303
502.64	86.809
502.98	87.229
503.33	87.369
503.67	87.902
504.02	87.692
504.36	87.776
504.71	89.043
505.06	88.859
505.40	89.491
505.75	88.046
506.09	89.328
506.44	90.182
506.78	88.544
507.13	88.491
507.47	90.083
507.82	90.625
508.16	89.978
508.51	89.716
508.85	91.209
509.19	88.371
509.54	91.558
509.88	91.254
510.23	91.124
510.57	90.801
510.92	92.404
511.26	91.901
511.61	91.781
511.95	92.423
512.30	91.420
512.64	90.499
512.98	91.849
513.33	90.270
513.67	90.599
514.02	92.127
514.36	92.052
514.70	93.078
515.05	93.720
515.39	93.726
515.74	93.296
516.08	93.785
516.42	95.152
516.77	94.410
517.11	94.128
517.46	94.628
517.80	94.895
518.14	95.003
518.49	95.537
518.83	97.147
519.17	96.272
519.52	95.753
519.86	95.757
520.20	95.032
520.55	95.170
520.89	98.583
521.23	96.994
521.58	95.503
521.92	96.195
522.26	99.381
522.61	98.976
522.95	97.740
523.29	96.964
523.64	99.118
523.98	96.640
524.32	97.306
524.66	98.232
525.01	100.344
525.35	96.922
525.69	97.935
526.04	100.564
526.38	99.246
526.72	99.306
527.06	98.664
527.41	99.291
527.75	98.349
528.09	96.605
528.43	97.874
528.78	97.904
529.12	98.562
529.46	96.412
529.80	95.984
530.15	97.151
530.49	98.326
530.83	100.868
531.17	97.599
531.51	98.287
531.86	97.619
532.20	97.980
532.54	97.698
532.88	99.491
533.22	98.779
533.57	97.724
533.91	98.279
534.25	98.303
534.59	97.799
534.93	97.179
535.27	99.327
535.62	97.299
535.96	97.767
536.30	97.216
536.64	97.783
536.98	97.640
537.32	99.330
537.66	96.921
538.01	97.865
538.35	96.509
538.69	95.541
539.03	96.756
539.37	96.554
539.71	98.333
540.05	96.816
540.39	97.894
540.73	97.289
541.07	98.897
541.42	95.367
541.76	95.252
542.10	95.552
542.44	98.699
542.78	96.481
543.12	94.657
543.46	97.690
543.80	95.711
544.14	96.846
544.48	96.070
544.82	94.748
545.16	97.391
545.50	96.507
545.84	96.928
546.18	99.625
546.52	97.310
546.86	97.322
547.20	98.864
547.54	96.588
547.88	96.154
548.22	96.414
548.56	95.772
548.90	95.158
549.24	96.272
549.58	95.604
549.92	95.188
550.26	95.830
550.60	98.731
550.94	99.762
551.28	98.862
551.62	100.328
551.96	100.000
552.30	97.907
552.64	96.619
552.98	95.171
553.32	96.515
553.66	97.269
554.00	98.842
554.34	98.984
554.68	99.841
555.02	99.444
555.36	97.776
555.69	96.387
556.03	94.974
556.37	96.024
556.71	95.626
557.05	99.922
557.39	97.510
557.73	96.226
558.07	96.870
558.41	96.010
558.75	98.838
559.08	99.660
559.42	100.000
559.76	100.842
560.10	100.326
560.44	98.100
560.78	96.995
561.12	96.469
561.45	98.065
561.79	95.301
562.13	95.997
562.47	96.560
562.81	95.148
563.15	95.817
563.48	96.255
563.82	95.415
564.16	94.920
564.50	94.341
564.84	94.047
565.17	96.710
565.51	95.074
565.85	93.169
566.19	94.294
566.52	96.201
566.86	94.672
567.20	94.877
567.54	92.789
567.88	91.566
568.21	91.501
568.55	91.002
568.89	91.648
569.23	89.357
569.56	89.057
569.90	88.522
570.24	87.510
570.57	86.080
570.91	86.863
571.25	85.503
571.59	85.049
571.92	83.101
572.26	82.660
572.60	83.996
572.93	84.119
573.27	82.933
573.61	82.854
573.95	83.083
574.28	81.407
574.62	80.099
574.96	80.965
575.29	80.434
575.63	80.144
575.97	80.492
576.30	80.914
576.64	79.989
576.98	79.968
577.31	81.001
577.65	80.901
577.98	80.013
578.32	79.704
578.66	79.493
578.99	80.566
579.33	79.443
579.67	79.577
580.00	80.270
580.34	79.690
580.67	79.603
581.01	79.851
581.35	79.241
581.68	78.539
582.02	78.769
582.35	78.382
582.69	79.862
583.02	78.744
583.36	78.299
583.70	79.838
584.03	79.494
584.37	80.759
584.70	79.830
585.04	78.627
585.37	79.223
585.71	79.632
586.04	80.839
586.38	80.795
586.72	81.778
587.05	82.195
587.39	80.362
587.72	80.967
588.06	81.049
588.39	81.215
588.73	81.137
589.06	82.504
589.40	82.013
589.73	82.461
590.07	82.617
590.40	82.246
590.73	83.715
591.07	84.589
591.40	84.970
591.74	84.095
592.07	84.432
592.41	85.286
592.74	84.789
593.08	82.720
593.41	82.482
593.75	81.935
594.08	82.946
594.41	84.439
594.75	82.498
595.08	82.431
595.42	82.426
595.75	82.424
596.09	82.906
596.42	84.397
596.75	84.455
597.09	82.323
597.42	83.060
597.75	83.724
598.09	84.691
598.42	84.335
598.76	84.381
599.09	81.218
599.42	80.134
599.76	82.032
600.09	82.720
600.42	80.508
600.76	80.716
601.09	81.804
601.42	82.246
601.76	81.656
602.09	82.111
602.42	83.760
602.76	82.984
603.09	83.638
603.42	83.603
603.76	83.214
604.09	82.122
604.42	82.095
604.76	84.254
605.09	84.034
605.42	83.791
605.75	82.184
606.09	83.600
606.42	82.896
606.75	81.128
607.09	84.701
607.42	82.974
607.75	82.277
608.08	83.770
608.42	83.317
608.75	84.592
609.08	82.282
609.41	84.137
609.75	83.518
610.08	82.946
610.41	83.562
610.74	83.771
611.07	84.082
611.41	84.850
611.74	84.548
612.07	85.770
612.40	84.568
612.73	84.433
613.07	84.322
613.40	83.899
613.73	83.276
614.06	82.904
614.39	84.710
614.72	86.009
615.06	83.582
615.39	83.083
615.72	82.027
616.05	84.348
616.38	83.926
616.71	83.644
617.05	84.296
617.38	84.065
617.71	85.957
618.04	86.202
618.37	85.481
618.70	86.889
619.03	87.455
619.36	86.672
619.69	86.236
620.03	88.482
620.36	87.906
620.69	87.214
621.02	86.936
621.35	90.128
621.68	90.009
622.01	91.087
622.34	88.526
622.67	89.545
623.00	87.305
623.33	86.929
623.66	89.801
623.99	87.719
624.32	87.371
624.65	87.734
624.99	87.344
625.32	88.468
625.65	87.190
625.98	90.333
626.31	89.524
626.64	91.261
626.97	89.982
627.30	92.130
627.63	93.116
627.96	92.551
628.29	90.631
628.62	91.340
628.95	91.552
629.28	91.942
629.61	91.850
629.94	94.087
630.26	91.632
630.59	92.251
630.92	89.463
631.25	93.855
