SpectraSuite Data File
++++++++++++++++++++++++++++++++++++
Date: Wed May 13 19:40:46 PDT 2015
User: schluterlab
Dark Spectrum Present: Yes
Reference Spectrum Present: Yes
Number of Sampled Component Spectra: 1
Spectrometers: USB2E3373
Integration Time (usec): 3000 (USB2E3373)
Spectra Averaged: 3 (USB2E3373)
Boxcar Smoothing: 0 (USB2E3373)
Correct for Electrical Dark: No (USB2E3373)
Strobe/Lamp Enabled: No (USB2E3373)
Correct for Detector Non-linearity: No (USB2E3373)
Correct for Stray Light: No (USB2E3373)
Number of Pixels in Processed Spectrum: 2048
>>>>>Begin Processed Spectral Data<<<<<
178.53	0.000
178.91	-1400.000
179.29	-1150.000
179.67	-288.889
180.04	-1525.000
180.42	2950.000
180.80	1020.000
181.18	-1225.000
181.56	671.429
181.94	0.000
182.31	-585.714
182.69	1666.667
183.07	-637.500
183.45	-622.222
183.83	590.909
184.20	-450.000
184.58	2400.000
184.96	4400.000
185.34	-1060.000
185.72	-687.500
186.09	-2200.000
186.47	2550.000
186.85	2900.000
187.23	5200.000
187.61	-1900.000
187.98	1350.000
188.36	536.364
188.74	563.636
189.12	-1060.000
189.49	610.000
189.87	-5400.000
190.25	-1525.000
190.63	421.429
191.00	392.308
191.38	766.667
191.76	-1250.000
192.14	1350.000
192.51	562.500
192.89	983.333
193.27	725.000
193.65	-1175.000
194.02	530.000
194.40	980.000
194.78	550.000
195.15	533.333
195.53	750.000
195.91	-2200.000
196.29	406.250
196.66	315.789
197.04	-410.000
197.42	0.000
197.79	730.000
198.17	-5800.000
198.55	771.429
198.92	750.000
199.30	1200.000
199.68	0.000
200.05	372.222
200.43	828.571
200.81	4500.000
201.18	1800.000
201.56	-1566.667
201.94	666.667
202.31	633.333
202.69	441.667
203.07	640.000
203.44	0.000
203.82	1275.000
204.19	771.429
204.57	457.143
204.95	575.000
205.32	1766.667
205.70	518.182
206.08	421.429
206.45	3100.000
206.83	412.500
207.20	850.000
207.58	940.000
207.96	338.889
208.33	837.500
208.71	-766.667
209.08	871.429
209.46	677.778
209.84	463.636
210.21	-1666.667
210.59	1425.000
210.96	-575.000
211.34	3050.000
211.71	550.000
212.09	933.333
212.46	0.000
212.84	1800.000
213.22	1200.000
213.59	-4900.000
213.97	983.333
214.34	942.857
214.72	590.909
215.09	1060.000
215.47	-2650.000
215.84	-2900.000
216.22	1633.333
216.59	407.143
216.97	1375.000
217.34	436.364
217.72	-733.333
218.09	0.000
218.47	-4500.000
218.84	588.889
219.22	800.000
219.59	1633.333
219.97	-685.714
220.34	960.000
220.72	-1666.667
221.09	392.857
221.47	1500.000
221.84	-800.000
222.22	0.000
222.59	1250.000
222.97	-2450.000
223.34	1140.000
223.72	423.077
224.09	1140.000
224.46	2050.000
224.84	-4800.000
225.21	-1080.000
225.59	-4900.000
225.96	680.000
226.34	295.000
226.71	2900.000
227.08	712.500
227.46	540.000
227.83	-1000.000
228.21	-2500.000
228.58	622.222
228.95	-2750.000
229.33	-2350.000
229.70	1833.333
230.08	728.571
230.45	-940.000
230.82	416.667
231.20	866.667
231.57	685.714
231.95	433.333
232.32	209.091
232.69	409.091
233.07	671.429
233.44	384.615
233.81	-1566.667
234.19	263.158
234.56	400.000
234.93	358.333
235.31	427.273
235.68	338.462
236.05	364.286
236.43	172.727
236.80	268.421
237.17	3600.000
237.55	242.857
237.92	217.857
238.29	228.571
238.67	170.968
239.04	182.759
239.41	147.222
239.79	128.261
240.16	145.238
240.53	97.727
240.91	86.275
241.28	100.000
241.65	88.000
242.02	71.014
242.40	87.097
242.77	70.000
243.14	70.968
243.51	60.674
243.89	56.471
244.26	52.222
244.63	56.989
245.00	47.872
245.38	46.535
245.75	44.860
246.12	41.284
246.49	44.526
246.87	52.800
247.24	42.308
247.61	38.571
247.98	37.908
248.36	22.973
248.73	31.210
249.10	42.038
249.47	29.379
249.84	35.294
250.22	24.064
250.59	28.994
250.96	27.273
251.33	30.806
251.70	26.238
252.08	28.095
252.45	24.664
252.82	26.522
253.19	23.830
253.56	22.353
253.94	25.726
254.31	19.141
254.68	24.231
255.05	21.402
255.42	20.325
255.79	20.588
256.16	22.022
256.54	20.495
256.91	22.420
257.28	11.151
257.65	15.512
258.02	21.118
258.39	18.297
258.76	14.716
259.14	18.155
259.51	15.805
259.88	13.975
260.25	16.314
260.62	17.630
260.99	12.733
261.36	17.417
261.73	14.900
262.10	14.535
262.47	16.901
262.85	16.992
263.22	13.960
263.59	14.815
263.96	13.187
264.33	14.360
264.70	14.211
265.07	14.322
265.44	13.636
265.81	14.112
266.18	13.317
266.55	12.927
266.92	15.725
267.29	13.426
267.66	13.073
268.03	12.955
268.40	12.617
268.77	9.308
269.14	10.360
269.51	13.544
269.88	11.189
270.25	10.835
270.62	11.910
270.99	16.344
271.36	13.305
271.73	10.280
272.10	11.957
272.47	14.409
272.84	12.554
273.21	14.256
273.58	9.607
273.95	10.692
274.32	9.711
274.69	9.422
275.06	11.811
275.43	9.149
275.80	11.623
276.17	10.183
276.54	12.890
276.91	13.043
277.28	11.133
277.65	11.412
278.02	9.524
278.39	10.742
278.76	11.636
279.13	12.264
279.50	11.732
279.87	9.562
280.23	10.978
280.60	8.317
280.97	9.242
281.34	11.150
281.71	11.636
282.08	8.829
282.45	9.273
282.82	11.723
283.19	6.595
283.56	8.947
283.92	10.829
284.29	10.229
284.66	11.252
285.03	9.222
285.40	8.451
285.77	8.418
286.14	8.636
286.51	11.333
286.87	8.718
287.24	10.423
287.61	7.865
287.98	8.766
288.35	8.399
288.72	8.723
289.08	9.077
289.45	9.061
289.82	8.943
290.19	7.692
290.56	7.963
290.93	7.251
291.29	6.902
291.66	10.177
292.03	10.465
292.40	9.251
292.77	7.988
293.13	7.761
293.50	8.163
293.87	8.000
294.24	6.815
294.60	7.424
294.97	8.866
295.34	9.168
295.71	7.528
296.08	7.835
296.44	7.015
296.81	8.587
297.18	8.808
297.55	5.145
297.91	7.520
298.28	7.497
298.65	7.963
299.02	7.510
299.38	7.437
299.75	4.582
300.12	5.492
300.48	6.875
300.85	6.905
301.22	6.369
301.59	6.313
301.95	7.179
302.32	7.189
302.69	7.646
303.05	5.576
303.42	7.160
303.79	6.682
304.15	5.012
304.52	6.489
304.89	5.691
305.25	5.452
305.62	7.361
305.99	6.494
306.35	6.600
306.72	5.381
307.09	7.436
307.45	7.207
307.82	4.464
308.19	5.629
308.55	5.933
308.92	6.552
309.29	5.702
309.65	5.726
310.02	5.603
310.38	5.591
310.75	7.181
311.12	6.653
311.48	7.106
311.85	7.338
312.22	6.035
312.58	5.925
312.95	5.702
313.31	5.728
313.68	5.405
314.05	7.692
314.41	6.834
314.78	6.546
315.14	5.760
315.51	6.076
315.87	5.743
316.24	6.455
316.61	6.530
316.97	6.067
317.34	4.795
317.70	5.832
318.07	5.582
318.43	5.871
318.80	6.654
319.16	6.403
319.53	5.722
319.89	6.571
320.26	6.900
320.62	6.647
320.99	7.374
321.35	5.657
321.72	7.392
322.08	6.811
322.45	7.662
322.81	7.558
323.18	6.936
323.54	6.865
323.91	7.830
324.27	7.170
324.64	6.337
325.00	6.222
325.37	7.916
325.73	8.618
326.10	7.149
326.46	6.272
326.83	6.816
327.19	7.686
327.56	6.707
327.92	6.912
328.29	6.832
328.65	7.827
329.01	6.679
329.38	7.031
329.74	7.018
330.11	6.692
330.47	8.173
330.84	8.364
331.20	7.650
331.56	7.982
331.93	7.407
332.29	7.365
332.66	7.788
333.02	7.861
333.38	8.491
333.75	8.289
334.11	7.473
334.48	8.252
334.84	6.893
335.20	7.818
335.57	6.890
335.93	7.500
336.29	7.509
336.66	8.747
337.02	6.606
337.38	8.519
337.75	7.130
338.11	6.625
338.47	7.366
338.84	8.066
339.20	7.156
339.56	8.029
339.93	6.545
340.29	6.522
340.65	8.289
341.02	7.766
341.38	7.295
341.74	6.316
342.11	7.773
342.47	7.401
342.83	7.449
343.20	7.359
343.56	7.161
343.92	6.754
344.28	7.058
344.65	7.395
345.01	6.987
345.37	7.547
345.73	6.853
346.10	7.587
346.46	6.780
346.82	7.578
347.19	6.516
347.55	6.486
347.91	7.201
348.27	7.642
348.63	7.525
349.00	6.472
349.36	7.225
349.72	7.298
350.08	6.564
350.45	7.160
350.81	6.418
351.17	7.618
351.53	6.716
351.89	5.941
352.26	8.051
352.62	7.859
352.98	7.050
353.34	7.067
353.70	6.137
354.07	5.968
354.43	6.905
354.79	6.195
355.15	6.225
355.51	7.274
355.87	6.531
356.24	6.596
356.60	6.014
356.96	6.275
357.32	6.378
357.68	6.929
358.04	7.522
358.40	7.047
358.77	6.260
359.13	5.919
359.49	6.431
359.85	5.873
360.21	5.662
360.57	7.315
360.93	6.769
361.29	6.198
361.66	6.037
362.02	6.343
362.38	6.616
362.74	6.473
363.10	6.514
363.46	5.943
363.82	5.291
364.18	7.489
364.54	6.984
364.90	7.011
365.26	6.838
365.62	6.136
365.98	5.917
366.35	5.158
366.71	7.375
367.07	5.608
367.43	5.588
367.79	6.924
368.15	6.825
368.51	5.887
368.87	6.067
369.23	6.072
369.59	6.010
369.95	4.926
370.31	7.051
370.67	6.594
371.03	6.816
371.39	5.685
371.75	6.250
372.11	6.615
372.47	6.891
372.83	6.916
373.19	5.997
373.55	6.504
373.91	6.775
374.27	5.911
374.63	5.673
374.99	6.780
375.35	5.932
375.71	7.265
376.07	6.516
376.42	5.846
376.78	6.494
377.14	6.038
377.50	6.358
377.86	5.120
378.22	6.195
378.58	4.887
378.94	5.908
379.30	5.216
379.66	5.330
380.02	6.572
380.38	5.282
380.74	5.282
381.09	6.174
381.45	6.085
381.81	5.835
382.17	5.796
382.53	5.472
382.89	5.556
383.25	5.378
383.61	6.134
383.97	6.129
384.32	5.427
384.68	5.452
385.04	5.900
385.40	5.449
385.76	5.221
386.12	5.246
386.48	5.979
386.83	6.479
387.19	6.246
387.55	5.442
387.91	5.623
388.27	5.150
388.62	5.962
388.98	5.160
389.34	6.383
389.70	6.315
390.06	6.401
390.42	5.966
390.77	6.361
391.13	5.616
391.49	5.901
391.85	5.156
392.20	5.047
392.56	5.303
392.92	5.768
393.28	4.379
393.64	5.875
393.99	6.048
394.35	5.273
394.71	6.211
395.07	5.483
395.42	5.748
395.78	5.852
396.14	5.835
396.50	6.015
396.85	6.294
397.21	5.857
397.57	5.022
397.92	5.409
398.28	5.381
398.64	5.795
399.00	5.596
399.35	4.681
399.71	5.613
400.07	6.209
400.42	6.196
400.78	6.031
401.14	5.366
401.49	5.970
401.85	4.840
402.21	5.389
402.57	4.935
402.92	5.359
403.28	5.871
403.63	5.260
403.99	4.331
404.35	5.697
404.70	4.976
405.06	4.426
405.42	5.490
405.77	4.857
406.13	5.079
406.49	5.441
406.84	5.198
407.20	4.905
407.55	6.190
407.91	5.733
408.27	5.233
408.62	6.081
408.98	5.147
409.34	5.412
409.69	5.032
410.05	5.019
410.40	5.933
410.76	5.376
411.11	5.549
411.47	4.792
411.83	5.192
412.18	4.576
412.54	5.106
412.89	5.843
413.25	4.959
413.60	5.188
413.96	4.797
414.31	5.103
414.67	5.450
415.03	4.106
415.38	5.026
415.74	5.338
416.09	5.421
416.45	5.422
416.80	5.882
417.16	5.898
417.51	5.574
417.87	4.945
418.22	5.931
418.58	5.165
418.93	5.221
419.29	5.729
419.64	6.486
420.00	5.000
420.35	6.029
420.71	5.619
421.06	5.191
421.42	5.439
421.77	5.157
422.12	4.716
422.48	3.508
422.83	5.067
423.19	5.746
423.54	4.759
423.90	5.043
424.25	4.858
424.61	5.119
424.96	4.898
425.31	5.316
425.67	5.000
426.02	4.571
426.38	5.495
426.73	4.681
427.09	5.350
427.44	4.600
427.79	4.773
428.15	5.893
428.50	5.793
428.85	5.662
429.21	4.804
429.56	4.925
429.92	5.234
430.27	5.114
430.62	4.916
430.98	5.086
431.33	5.412
431.68	4.660
432.04	5.591
432.39	5.083
432.74	4.847
433.10	5.037
433.45	4.840
433.80	5.100
434.16	5.235
434.51	5.474
434.86	4.903
435.22	5.670
435.57	4.681
435.92	5.149
436.28	4.745
436.63	5.795
436.98	4.865
437.34	5.725
437.69	5.426
438.04	4.947
438.39	4.955
438.75	6.101
439.10	4.804
439.45	5.254
439.81	5.740
440.16	4.912
440.51	5.272
440.86	5.906
441.22	5.172
441.57	5.573
441.92	4.555
442.27	4.682
442.63	5.003
442.98	5.803
443.33	5.543
443.68	4.853
444.03	5.271
444.39	4.576
444.74	5.465
445.09	4.960
445.44	4.593
445.79	4.948
446.15	5.400
446.50	5.008
446.85	5.036
447.20	5.201
447.55	5.416
447.91	5.240
448.26	5.565
448.61	5.427
448.96	5.980
449.31	5.737
449.66	5.008
450.02	4.735
450.37	4.932
450.72	4.907
451.07	5.058
451.42	5.046
451.77	6.107
452.12	6.005
452.47	5.846
452.83	5.128
453.18	5.746
453.53	5.566
453.88	5.316
454.23	5.678
454.58	6.299
454.93	6.167
455.28	5.798
455.63	5.765
455.98	6.369
456.34	5.653
456.69	5.823
457.04	5.449
457.39	5.611
457.74	5.920
458.09	5.463
458.44	5.986
458.79	4.338
459.14	6.208
459.49	5.896
459.84	5.319
460.19	5.421
460.54	5.440
460.89	5.760
461.24	5.282
461.59	6.915
461.94	5.487
462.29	5.994
462.64	5.552
462.99	5.270
463.34	6.800
463.69	6.066
464.04	6.029
464.39	6.725
464.74	6.001
465.09	5.790
465.44	5.983
465.79	4.922
466.14	5.857
466.49	5.061
466.84	5.137
467.19	5.975
467.54	6.562
467.89	5.882
468.24	6.399
468.59	6.532
468.94	6.109
469.29	6.041
469.64	6.760
469.99	5.683
470.34	5.812
470.68	6.897
471.03	5.986
471.38	5.281
471.73	6.262
472.08	6.053
472.43	5.905
472.78	5.793
473.13	5.905
473.48	5.930
473.83	5.732
474.17	6.036
474.52	6.017
474.87	6.188
475.22	6.210
475.57	6.233
475.92	4.833
476.27	6.088
476.61	5.516
476.96	4.948
477.31	4.762
477.66	5.580
478.01	5.018
478.36	5.447
478.70	5.400
479.05	5.698
479.40	5.783
479.75	5.491
480.10	4.970
480.45	4.760
480.79	5.447
481.14	5.431
481.49	4.888
481.84	4.618
482.19	4.998
482.53	5.367
482.88	5.351
483.23	5.093
483.58	5.323
483.92	5.201
484.27	4.052
484.62	4.871
484.97	4.336
485.31	4.623
485.66	3.835
486.01	3.519
486.36	3.416
486.70	3.459
487.05	3.541
487.40	3.524
487.75	3.888
488.09	4.155
488.44	3.702
488.79	4.846
489.13	4.813
489.48	4.486
489.83	4.532
490.17	4.428
490.52	5.004
490.87	4.930
491.22	4.684
491.56	4.465
491.91	5.212
492.26	4.869
492.60	4.931
492.95	4.537
493.30	5.093
493.64	4.993
493.99	4.689
494.34	5.088
494.68	5.220
495.03	5.028
495.37	5.444
495.72	5.068
496.07	4.269
496.41	4.513
496.76	4.354
497.11	4.953
497.45	5.170
497.80	4.894
498.14	4.638
498.49	4.293
498.84	5.513
499.18	4.810
499.53	4.748
499.87	4.846
500.22	4.852
500.56	5.146
500.91	4.471
501.26	4.694
501.60	5.695
501.95	4.629
502.29	5.342
502.64	4.842
502.98	4.675
503.33	4.570
503.67	5.104
504.02	4.677
504.36	5.615
504.71	5.032
505.06	5.108
505.40	4.764
505.75	4.822
506.09	5.005
506.44	5.081
506.78	5.017
507.13	5.401
507.47	5.152
507.82	4.965
508.16	5.268
508.51	4.718
508.85	5.015
509.19	5.357
509.54	5.153
509.88	4.997
510.23	5.039
510.57	5.676
510.92	5.230
511.26	5.344
511.61	5.913
511.95	5.063
512.30	4.507
512.64	5.857
512.98	5.466
513.33	6.156
513.67	4.963
514.02	5.519
514.36	5.188
514.70	5.147
515.05	4.462
515.39	5.384
515.74	5.687
516.08	5.646
516.42	6.493
516.77	5.518
517.11	5.771
517.46	5.756
517.80	5.807
518.14	4.806
518.49	6.826
518.83	6.193
519.17	6.062
519.52	5.320
519.86	5.077
520.20	6.532
520.55	5.685
520.89	6.204
521.23	6.212
521.58	5.822
521.92	6.369
522.26	5.003
522.61	5.483
522.95	5.832
523.29	5.660
523.64	6.280
523.98	5.422
524.32	5.850
524.66	6.554
525.01	6.311
525.35	5.081
525.69	5.911
526.04	6.231
526.38	5.979
526.72	5.276
527.06	6.340
527.41	5.693
527.75	6.431
528.09	6.230
528.43	5.672
528.78	6.638
529.12	5.939
529.46	5.879
529.80	6.002
530.15	6.044
530.49	5.908
530.83	5.823
531.17	6.136
531.51	7.004
531.86	6.000
532.20	6.780
532.54	6.214
532.88	6.290
533.22	5.934
533.57	6.049
533.91	6.382
534.25	5.893
534.59	5.979
534.93	6.008
535.27	6.880
535.62	6.227
535.96	6.152
536.30	6.167
536.64	6.182
536.98	6.370
537.32	6.781
537.66	5.800
538.01	6.452
538.35	6.076
538.69	6.701
539.03	5.978
539.37	5.942
539.71	5.055
540.05	5.948
540.39	5.316
540.73	6.210
541.07	6.879
541.42	6.327
541.76	6.452
542.10	6.727
542.44	6.358
542.78	5.731
543.12	5.758
543.46	6.754
543.80	6.506
544.14	5.006
544.48	6.222
544.82	5.901
545.16	6.246
545.50	5.848
545.84	5.914
546.18	6.195
546.52	6.882
546.86	5.842
547.20	6.676
547.54	6.212
547.88	7.015
548.22	5.791
548.56	5.849
548.90	5.762
549.24	5.320
549.58	6.821
549.92	6.868
550.26	6.179
550.60	6.362
550.94	5.634
551.28	5.633
551.62	7.045
551.96	5.754
552.30	6.689
552.64	6.220
552.98	6.034
553.32	7.417
553.66	7.566
554.00	6.932
554.34	6.211
554.68	7.082
555.02	6.488
555.36	6.193
555.69	6.022
556.03	6.393
556.37	6.276
556.71	5.730
557.05	7.283
557.39	6.508
557.73	6.493
558.07	6.091
558.41	6.368
558.75	6.980
559.08	6.861
559.42	5.442
559.76	6.250
560.10	6.210
560.44	6.010
560.78	5.855
561.12	6.201
561.45	5.737
561.79	6.131
562.13	6.237
562.47	6.011
562.81	5.370
563.15	6.488
563.48	6.698
563.82	5.871
564.16	5.821
564.50	5.078
564.84	5.752
565.17	6.242
565.51	6.390
565.85	6.282
566.19	6.324
566.52	5.953
566.86	5.726
567.20	6.309
567.54	5.308
567.88	5.215
568.21	5.556
568.55	5.915
568.89	5.496
569.23	4.679
569.56	5.304
569.90	4.642
570.24	4.665
570.57	4.352
570.91	4.137
571.25	4.107
571.59	4.330
571.92	3.975
572.26	4.217
572.60	4.084
572.93	4.378
573.27	4.614
573.61	4.132
573.95	4.160
574.28	4.045
574.62	3.693
574.96	3.847
575.29	3.831
575.63	4.268
575.97	3.879
576.30	4.116
576.64	3.917
576.98	3.646
577.31	3.951
577.65	3.670
577.98	3.820
578.32	3.475
578.66	3.878
578.99	3.743
579.33	3.534
579.67	3.576
580.00	3.836
580.34	3.939
580.67	3.687
581.01	3.778
581.35	3.539
581.68	3.441
582.02	3.481
582.35	3.580
582.69	3.809
583.02	3.683
583.36	4.081
583.70	4.021
584.03	3.762
584.37	4.348
584.70	4.049
585.04	4.134
585.37	4.264
585.71	4.135
586.04	4.180
586.38	4.075
586.72	4.419
587.05	3.695
587.39	3.747
587.72	4.432
588.06	4.055
588.39	4.417
588.73	4.224
589.06	4.581
589.40	4.310
589.73	4.189
590.07	4.698
590.40	4.092
590.73	4.567
591.07	5.088
591.40	4.513
591.74	5.671
592.07	5.148
592.41	5.581
592.74	4.757
593.08	4.564
593.41	4.556
593.75	4.685
594.08	4.425
594.41	5.055
594.75	4.473
595.08	4.724
595.42	4.413
595.75	4.665
596.09	5.182
596.42	4.990
596.75	5.403
597.09	5.411
597.42	4.595
597.75	5.692
598.09	5.217
598.42	5.369
598.76	4.580
599.09	4.447
599.42	4.876
599.76	4.758
600.09	4.517
600.42	4.529
600.76	4.393
601.09	4.809
601.42	4.680
601.76	4.972
602.09	5.138
602.42	5.255
602.76	5.159
603.09	4.957
603.42	5.193
603.76	4.726
604.09	4.808
604.42	4.770
604.76	5.441
605.09	5.068
605.42	4.874
605.75	5.132
606.09	4.433
606.42	4.781
606.75	5.558
607.09	5.232
607.42	4.579
607.75	5.485
608.08	4.820
608.42	5.334
608.75	5.365
609.08	4.949
609.41	5.283
609.75	5.717
610.08	5.090
610.41	4.888
610.74	4.541
611.07	5.632
611.41	5.496
611.74	5.732
612.07	5.849
612.40	6.243
612.73	5.158
613.07	5.765
613.40	5.951
613.73	5.034
614.06	5.860
614.39	5.926
614.72	6.421
615.06	5.725
615.39	5.308
615.72	6.033
616.05	4.997
616.38	5.614
616.71	6.473
617.05	6.184
617.38	5.713
617.71	6.667
618.04	6.070
618.37	5.677
618.70	6.534
619.03	6.447
619.36	6.178
619.69	7.113
620.03	7.143
620.36	6.751
620.69	7.397
621.02	7.080
621.35	6.969
621.68	6.464
622.01	6.966
622.34	8.245
622.67	7.148
623.00	6.823
623.33	6.219
623.66	7.076
623.99	6.701
624.32	6.348
624.65	6.568
624.99	5.666
625.32	6.372
625.65	7.438
625.98	7.686
626.31	7.543
626.64	8.245
626.97	7.731
627.30	7.481
627.63	8.285
627.96	7.149
628.29	7.874
628.62	8.234
628.95	9.245
629.28	8.577
629.61	8.066
629.94	7.238
630.26	7.436
630.59	7.912
630.92	7.663
631.25	7.108
631.58	9.009
631.91	8.418
632.24	8.122
632.57	9.129
632.90	7.018
633.23	9.620
633.56	8.362
633.89	9.173
634.22	8.740
634.55	9.349
634.88	8.862
635.20	8.961
635.53	8.313
635.86	8.416
636.19	9.294
636.52	9.689
636.85	8.820
637.18	8.871
637.51	10.875
637.83	8.261
638.16	7.801
638.49	9.320
638.82	10.872
639.15	9.750
639.48	9.850
639.81	10.992
640.13	9.896
640.46	10.067
640.79	11.229
641.12	8.253
641.45	10.196
641.77	9.573
642.10	9.503
642.43	10.661
642.76	11.300
643.09	11.656
643.41	9.863
643.74	11.420
644.07	9.909
644.40	11.963
644.73	12.913
645.05	13.629
645.38	10.585
645.71	10.789
646.04	10.963
646.36	13.856
646.69	12.876
647.02	11.054
647.35	12.371
647.67	12.920
648.00	12.520
648.33	11.221
648.66	11.364
648.98	11.994
649.31	8.819
649.64	11.510
649.96	9.687
650.29	11.374
650.62	10.194
650.94	11.345
651.27	12.669
651.60	10.815
651.92	11.981
652.25	8.958
652.58	10.592
652.90	12.006
653.23	11.402
653.56	9.764
