SpectraSuite Data File
++++++++++++++++++++++++++++++++++++
Date: Wed May 13 19:51:06 PDT 2015
User: schluterlab
Dark Spectrum Present: Yes
Reference Spectrum Present: Yes
Number of Sampled Component Spectra: 1
Spectrometers: USB2E3373
Integration Time (usec): 3000 (USB2E3373)
Spectra Averaged: 3 (USB2E3373)
Boxcar Smoothing: 0 (USB2E3373)
Correct for Electrical Dark: No (USB2E3373)
Strobe/Lamp Enabled: No (USB2E3373)
Correct for Detector Non-linearity: No (USB2E3373)
Correct for Stray Light: No (USB2E3373)
Number of Pixels in Processed Spectrum: 2048
>>>>>Begin Processed Spectral Data<<<<<
178.53	0.000
178.91	-1350.000
179.29	-1725.000
179.67	-244.444
180.04	-1425.000
180.42	2600.000
180.80	1180.000
181.18	-1250.000
181.56	671.429
181.94	0.000
182.31	-700.000
182.69	1633.333
183.07	-525.000
183.45	-533.333
183.83	572.727
184.20	-420.000
184.58	2750.000
184.96	4600.000
185.34	-940.000
185.72	-687.500
186.09	-2700.000
186.47	2750.000
186.85	2650.000
187.23	6700.000
187.61	-1700.000
187.98	1500.000
188.36	600.000
188.74	563.636
189.12	-960.000
189.49	650.000
189.87	-5200.000
190.25	-1275.000
190.63	535.714
191.00	446.154
191.38	783.333
191.76	-1300.000
192.14	1475.000
192.51	700.000
192.89	1033.333
193.27	687.500
193.65	-1325.000
194.02	550.000
194.40	780.000
194.78	630.000
195.15	525.000
195.53	650.000
195.91	-2200.000
196.29	406.250
196.66	315.789
197.04	-460.000
197.42	0.000
197.79	690.000
198.17	-4500.000
198.55	700.000
198.92	750.000
199.30	1020.000
199.68	0.000
200.05	377.778
200.43	771.429
200.81	4900.000
201.18	1933.333
201.56	-1800.000
201.94	588.889
202.31	544.444
202.69	408.333
203.07	550.000
203.44	0.000
203.82	1275.000
204.19	900.000
204.57	500.000
204.95	700.000
205.32	1933.333
205.70	581.818
206.08	478.571
206.45	2750.000
206.83	375.000
207.20	1066.667
207.58	940.000
207.96	327.778
208.33	775.000
208.71	-933.333
209.08	871.429
209.46	666.667
209.84	554.545
210.21	-1500.000
210.59	1550.000
210.96	-500.000
211.34	2800.000
211.71	670.000
212.09	900.000
212.46	0.000
212.84	1933.333
213.22	1450.000
213.59	-5400.000
213.97	1033.333
214.34	842.857
214.72	590.909
215.09	1120.000
215.47	-2750.000
215.84	-2900.000
216.22	1566.667
216.59	428.571
216.97	1275.000
217.34	545.455
217.72	-800.000
218.09	0.000
218.47	-6400.000
218.84	666.667
219.22	742.857
219.59	2066.667
219.97	-742.857
220.34	1140.000
220.72	-1800.000
221.09	435.714
221.47	1600.000
221.84	-1050.000
222.22	0.000
222.59	1700.000
222.97	-3250.000
223.34	1260.000
223.72	469.231
224.09	1280.000
224.46	2700.000
224.84	-5200.000
225.21	-1100.000
225.59	-5200.000
225.96	600.000
226.34	340.000
226.71	2950.000
227.08	675.000
227.46	560.000
227.83	-1325.000
228.21	-2500.000
228.58	611.111
228.95	-2800.000
229.33	-2650.000
229.70	1933.333
230.08	685.714
230.45	-1100.000
230.82	466.667
231.20	766.667
231.57	828.571
231.95	508.333
232.32	254.545
232.69	481.818
233.07	985.714
233.44	330.769
233.81	-1700.000
234.19	300.000
234.56	516.667
234.93	441.667
235.31	618.182
235.68	423.077
236.05	428.571
236.43	212.121
236.80	326.316
237.17	5200.000
237.55	338.095
237.92	242.857
238.29	295.238
238.67	222.581
239.04	258.621
239.41	186.111
239.79	147.826
240.16	138.095
240.53	179.545
240.91	135.294
241.28	152.000
241.65	150.000
242.02	130.435
242.40	122.581
242.77	156.667
243.14	100.000
243.51	114.607
243.89	108.235
244.26	100.000
244.63	102.151
245.00	89.362
245.38	84.158
245.75	92.523
246.12	91.743
246.49	85.401
246.87	94.400
247.24	92.308
247.61	83.571
247.98	66.013
248.36	78.378
248.73	72.611
249.10	82.166
249.47	71.751
249.84	75.936
250.22	67.380
250.59	72.781
250.96	74.242
251.33	68.720
251.70	73.267
252.08	67.619
252.45	61.435
252.82	63.043
253.19	69.362
253.56	63.137
253.94	65.975
254.31	64.453
254.68	65.769
255.05	61.255
255.42	64.228
255.79	64.706
256.16	64.260
256.54	56.890
256.91	63.345
257.28	59.712
257.65	56.436
258.02	63.665
258.39	60.252
258.76	55.518
259.14	58.929
259.51	57.447
259.88	59.006
260.25	59.215
260.62	56.358
260.99	57.453
261.36	57.357
261.73	56.447
262.10	55.233
262.47	56.901
262.85	52.925
263.22	56.125
263.59	55.840
263.96	51.099
264.33	52.480
264.70	51.842
265.07	54.220
265.44	54.798
265.81	51.338
266.18	54.523
266.55	52.683
266.92	54.054
267.29	54.630
267.66	51.147
268.03	50.909
268.40	55.374
268.77	52.983
269.14	48.874
269.51	54.402
269.88	53.846
270.25	50.113
270.62	51.236
270.99	52.043
271.36	51.931
271.73	52.103
272.10	48.913
272.47	53.118
272.84	52.814
273.21	53.249
273.58	50.218
273.95	48.847
274.32	51.033
274.69	49.465
275.06	49.016
275.43	51.702
275.80	47.695
276.17	51.935
276.54	51.143
276.91	48.024
277.28	49.219
277.65	48.356
278.02	49.068
278.39	50.586
278.76	46.364
279.13	46.981
279.50	48.045
279.87	49.203
280.23	50.299
280.60	49.130
280.97	46.950
281.34	49.735
281.71	48.727
282.08	50.480
282.45	44.909
282.82	47.957
283.19	44.207
283.56	47.544
283.92	47.208
284.29	46.384
284.66	47.731
285.03	45.570
285.40	47.007
285.77	46.128
286.14	46.459
286.51	47.000
286.87	46.325
287.24	47.068
287.61	44.462
287.98	47.078
288.35	43.740
288.72	43.458
289.08	44.288
289.45	45.799
289.82	42.276
290.19	42.386
290.56	40.582
290.93	42.296
291.29	42.025
291.66	41.888
292.03	43.169
292.40	43.319
292.77	41.124
293.13	39.254
293.50	41.545
293.87	41.333
294.24	38.222
294.60	38.574
294.97	41.279
295.34	38.505
295.71	39.205
296.08	38.177
296.44	39.615
296.81	37.384
297.18	39.837
297.55	37.731
297.91	37.203
298.28	39.491
298.65	37.337
299.02	36.364
299.38	34.927
299.75	34.501
300.12	37.548
300.48	35.250
300.85	36.868
301.22	36.178
301.59	35.859
301.95	36.272
302.32	35.944
302.69	35.364
303.05	35.879
303.42	34.444
303.79	35.334
304.15	33.100
304.52	33.720
304.89	33.914
305.25	34.571
305.62	34.768
305.99	35.773
306.35	35.682
306.72	35.426
307.09	35.627
307.45	34.122
307.82	33.482
308.19	35.320
308.55	33.981
308.92	34.049
309.29	33.052
309.65	34.358
310.02	33.192
310.38	35.054
310.75	34.847
311.12	33.777
311.48	34.065
311.85	35.849
312.22	33.611
312.58	35.655
312.95	36.008
313.31	33.398
313.68	36.590
314.05	37.377
314.41	36.181
314.78	36.254
315.14	36.445
315.51	37.693
315.87	37.030
316.24	37.835
316.61	35.380
316.97	37.182
317.34	37.573
317.70	38.432
318.07	37.825
318.43	40.607
318.80	40.956
319.16	39.642
319.53	40.056
319.89	41.048
320.26	44.000
320.62	43.353
320.99	43.434
321.35	43.434
321.72	45.893
322.08	45.410
322.45	46.468
322.81	46.705
323.18	49.037
323.54	48.052
323.91	48.491
324.27	49.713
324.64	50.885
325.00	50.496
325.37	52.593
325.73	54.847
326.10	54.545
326.46	55.914
326.83	57.895
327.19	59.009
327.56	60.105
327.92	61.680
328.29	63.088
328.65	62.799
329.01	62.365
329.38	63.645
329.74	64.081
330.11	65.975
330.47	65.932
330.84	65.901
331.20	67.395
331.56	67.615
331.93	68.889
332.29	68.057
332.66	67.168
333.02	70.750
333.38	69.557
333.75	70.321
334.11	70.907
334.48	70.807
334.84	72.059
335.20	71.636
335.57	72.711
335.93	70.446
336.29	72.344
336.66	73.129
337.02	72.670
337.38	73.981
337.75	73.173
338.11	72.963
338.47	74.217
338.84	75.160
339.20	74.128
339.56	75.456
339.93	75.455
340.29	74.185
340.65	76.114
341.02	74.782
341.38	76.512
341.74	74.211
342.11	76.769
342.47	77.093
342.83	74.058
343.20	75.498
343.56	74.726
343.92	75.439
344.28	76.616
344.65	78.590
345.01	74.495
345.37	76.672
345.73	77.073
346.10	77.323
346.46	76.780
346.82	76.853
347.19	72.682
347.55	74.384
347.91	78.317
348.27	78.882
348.63	78.177
349.00	77.023
349.36	77.176
349.72	76.103
350.08	76.823
350.45	79.007
350.81	78.229
351.17	76.823
351.53	77.232
351.89	77.145
352.26	77.822
352.62	78.669
352.98	79.092
353.34	77.239
353.70	78.069
354.07	78.306
354.43	78.095
354.79	77.313
355.15	79.409
355.51	79.936
355.87	79.755
356.24	81.922
356.60	78.508
356.96	80.370
357.32	80.131
357.68	80.236
358.04	79.493
358.40	80.285
358.77	80.438
359.13	79.479
359.49	78.902
359.85	81.270
360.21	80.622
360.57	81.012
360.93	80.769
361.29	81.708
361.66	79.721
362.02	80.522
362.38	81.977
362.74	80.283
363.10	81.125
363.46	81.438
363.82	83.825
364.18	81.571
364.54	82.244
364.90	81.303
365.26	81.985
365.62	82.834
365.98	81.446
366.35	81.017
366.71	79.682
367.07	82.302
367.43	83.962
367.79	84.297
368.15	84.267
368.51	83.648
368.87	83.226
369.23	84.492
369.59	82.549
369.95	83.088
370.31	83.689
370.67	82.101
371.03	84.345
371.39	85.131
371.75	83.382
372.11	81.863
372.47	84.751
372.83	85.591
373.19	82.442
373.55	85.883
373.91	87.040
374.27	82.818
374.63	86.109
374.99	84.746
375.35	84.717
375.71	84.373
376.07	83.745
376.42	86.589
376.78	86.282
377.14	84.735
377.50	86.755
377.86	82.912
378.22	84.071
378.58	84.085
378.94	84.098
379.30	84.542
379.66	86.485
380.02	85.074
380.38	84.760
380.74	84.874
381.09	84.108
381.45	85.126
381.81	85.504
382.17	86.051
382.53	84.025
382.89	85.802
383.25	86.492
383.61	86.369
383.97	84.991
384.32	85.777
384.68	84.325
385.04	85.864
385.40	83.529
385.76	84.705
386.12	85.363
386.48	85.337
386.83	85.824
387.19	86.024
387.55	86.024
387.91	85.187
388.27	84.917
388.62	85.126
388.98	82.924
389.34	83.542
389.70	83.814
390.06	83.967
390.42	86.252
390.77	84.542
391.13	85.258
391.49	85.470
391.85	84.150
392.20	83.975
392.56	84.470
392.92	83.932
393.28	83.964
393.64	85.132
393.99	83.262
394.35	83.561
394.71	83.563
395.07	82.555
395.42	84.858
395.78	83.397
396.14	82.806
396.50	83.020
396.85	82.835
397.21	81.566
397.57	82.021
397.92	84.916
398.28	80.830
398.64	81.900
399.00	82.149
399.35	81.049
399.71	80.382
400.07	81.254
400.42	81.288
400.78	80.760
401.14	80.488
401.49	81.015
401.85	80.036
402.21	81.198
402.57	80.382
402.92	81.274
403.28	82.011
403.63	81.002
403.99	80.255
404.35	76.848
404.70	79.257
405.06	79.150
405.42	78.977
405.77	77.714
406.13	78.104
406.49	78.474
406.84	78.323
407.20	78.191
407.55	78.366
407.91	78.800
408.27	79.451
408.62	76.761
408.98	78.248
409.34	77.921
409.69	78.581
410.05	76.952
410.40	77.187
410.76	77.240
411.11	77.262
411.47	77.188
411.83	76.848
412.18	77.613
412.54	78.518
412.89	76.807
413.25	76.800
413.60	78.196
413.96	75.774
414.31	76.549
414.67	77.630
415.03	76.291
415.38	77.642
415.74	76.334
416.09	78.511
416.45	78.380
416.80	78.982
417.16	79.357
417.51	78.169
417.87	76.108
418.22	78.423
418.58	77.728
418.93	78.317
419.29	77.276
419.64	79.660
420.00	77.439
420.35	76.000
420.71	77.944
421.06	77.625
421.42	77.661
421.77	77.803
422.12	79.169
422.48	77.496
422.83	78.917
423.19	78.066
423.54	79.222
423.90	78.319
424.25	78.671
424.61	79.345
424.96	80.408
425.31	79.347
425.67	79.045
426.02	79.600
426.38	82.234
426.73	81.276
427.09	81.216
427.44	81.369
427.79	80.564
428.15	80.774
428.50	81.451
428.85	81.168
429.21	81.447
429.56	82.271
429.92	80.574
430.27	79.593
430.62	80.287
430.98	81.007
431.33	79.588
431.68	82.723
432.04	81.097
432.39	82.467
432.74	83.543
433.10	82.909
433.45	83.032
433.80	82.428
434.16	83.387
434.51	83.158
434.86	83.010
435.22	83.713
435.57	83.647
435.92	84.260
436.28	85.943
436.63	83.554
436.98	84.888
437.34	85.808
437.69	85.939
438.04	86.453
438.39	84.716
438.75	86.287
439.10	85.754
439.45	85.832
439.81	86.224
440.16	85.714
440.51	87.229
440.86	85.524
441.22	85.261
441.57	85.775
441.92	86.950
442.27	85.684
442.63	86.098
442.98	86.986
443.33	85.380
443.68	85.958
444.03	85.993
444.39	86.709
444.74	87.446
445.09	86.739
445.44	85.566
445.79	85.700
446.15	86.660
446.50	86.160
446.85	87.050
447.20	86.588
447.55	88.051
447.91	87.645
448.26	85.810
448.61	86.207
448.96	86.711
449.31	88.414
449.66	85.144
450.02	86.017
450.37	87.302
450.72	87.479
451.07	87.020
451.42	87.599
451.77	88.080
452.12	85.855
452.47	87.687
452.83	89.510
453.18	88.386
453.53	88.064
453.88	87.183
454.23	89.181
454.58	89.582
454.93	89.320
455.28	87.531
455.63	86.711
455.98	88.750
456.34	87.940
456.69	88.165
457.04	88.793
457.39	87.493
457.74	87.232
458.09	86.659
458.44	87.799
458.79	84.978
459.14	87.641
459.49	86.924
459.84	86.427
460.19	86.918
460.54	86.053
460.89	87.438
461.24	87.857
461.59	88.379
461.94	87.793
462.29	89.021
462.64	86.599
462.99	87.248
463.34	87.000
463.69	88.806
464.04	87.362
464.39	86.203
464.74	85.324
465.09	86.429
465.44	85.208
465.79	85.570
466.14	84.018
466.49	84.928
466.84	86.223
467.19	85.757
467.54	87.875
467.89	86.255
468.24	85.864
468.59	86.203
468.94	85.400
469.29	87.725
469.64	87.550
469.99	87.483
470.34	88.309
470.68	89.224
471.03	86.463
471.38	89.507
471.73	86.009
472.08	87.632
472.43	86.055
472.78	87.294
473.13	85.494
473.48	86.267
473.83	86.402
474.17	85.501
474.52	86.725
474.87	86.515
475.22	86.245
475.57	84.202
475.92	85.608
476.27	85.908
476.61	85.604
476.96	85.926
477.31	84.929
477.66	85.777
478.01	85.259
478.36	86.727
478.70	84.372
479.05	85.570
479.40	85.107
479.75	86.731
480.10	84.245
480.45	84.293
480.79	83.516
481.14	83.855
481.49	84.528
481.84	83.631
482.19	84.507
482.53	83.532
482.88	83.993
483.23	85.374
483.58	83.667
483.92	84.208
484.27	82.266
484.62	82.241
484.97	81.790
485.31	82.671
485.66	79.916
486.01	76.621
486.36	74.283
486.70	73.426
487.05	75.124
487.40	76.992
487.75	77.903
488.09	78.769
488.44	79.686
488.79	82.821
489.13	82.429
489.48	83.483
489.83	81.959
490.17	83.472
490.52	81.178
490.87	82.904
491.22	82.674
491.56	82.870
491.91	81.759
492.26	81.626
492.60	82.212
492.95	81.431
493.30	81.495
493.64	82.128
493.99	81.662
494.34	81.730
494.68	82.326
495.03	82.284
495.37	81.852
495.72	82.846
496.07	81.856
496.41	79.115
496.76	80.915
497.11	79.784
497.45	81.509
497.80	80.758
498.14	81.884
498.49	81.659
498.84	81.064
499.18	80.524
499.53	80.912
499.87	80.429
500.22	81.159
500.56	81.893
500.91	79.760
501.26	79.659
501.60	81.300
501.95	79.652
502.29	80.694
502.64	81.099
502.98	79.476
503.33	78.611
503.67	78.376
504.02	78.952
504.36	78.989
504.71	79.629
505.06	78.024
505.40	79.728
505.75	78.785
506.09	79.689
506.44	79.625
506.78	80.273
507.13	81.524
507.47	80.101
507.82	80.041
508.16	80.041
508.51	81.177
508.85	78.947
509.19	80.153
509.54	79.643
509.88	78.568
510.23	80.206
510.57	80.753
510.92	80.632
511.26	78.828
511.61	80.498
511.95	79.175
512.30	80.435
512.64	79.312
512.98	81.511
513.33	80.300
513.67	77.801
514.02	79.491
514.36	79.301
514.70	80.465
515.05	79.587
515.39	79.192
515.74	80.180
516.08	81.051
516.42	80.411
516.77	79.822
517.11	79.467
517.46	79.120
517.80	80.139
518.14	79.676
518.49	79.930
518.83	79.205
519.17	79.273
519.52	79.909
519.86	78.608
520.20	81.214
520.55	82.825
520.89	81.509
521.23	80.519
521.58	81.273
521.92	79.792
522.26	77.913
522.61	80.062
522.95	80.172
523.29	79.976
523.64	79.695
523.98	80.345
524.32	78.951
524.66	79.014
525.01	77.757
525.35	77.447
525.69	77.586
526.04	79.065
526.38	78.279
526.72	76.626
527.06	78.719
527.41	78.280
527.75	79.678
528.09	80.283
528.43	78.521
528.78	78.918
529.12	77.030
529.46	77.097
529.80	78.032
530.15	78.754
530.49	76.123
530.83	76.646
531.17	78.133
531.51	78.145
531.86	75.677
532.20	76.597
532.54	77.771
532.88	76.701
533.22	74.766
533.57	74.259
533.91	73.992
534.25	75.334
534.59	75.656
534.93	72.933
535.27	73.687
535.62	75.458
535.96	75.204
536.30	75.779
536.64	73.986
536.98	76.244
537.32	74.194
537.66	74.867
538.01	75.971
538.35	74.337
538.69	75.495
539.03	72.840
539.37	74.185
539.71	73.234
540.05	75.621
540.39	75.216
540.73	73.027
541.07	74.692
541.42	74.625
541.76	74.258
542.10	74.127
542.44	74.106
542.78	73.913
543.12	72.681
543.46	71.475
543.80	72.739
544.14	72.144
544.48	72.698
544.82	72.033
545.16	71.893
545.50	72.044
545.84	71.976
546.18	72.997
546.52	73.159
546.86	74.227
547.20	72.084
547.54	71.743
547.88	72.258
548.22	69.988
548.56	69.811
548.90	70.615
549.24	73.064
549.58	72.920
549.92	72.596
550.26	74.006
550.60	71.715
550.94	71.690
551.28	74.104
551.62	73.185
551.96	71.228
552.30	71.604
552.64	71.400
552.98	71.390
553.32	71.342
553.66	73.074
554.00	71.791
554.34	70.807
554.68	73.319
555.02	72.214
555.36	70.912
555.69	69.689
556.03	69.717
556.37	69.236
556.71	70.055
557.05	71.359
557.39	70.889
557.73	69.654
558.07	72.299
558.41	73.082
558.75	70.242
559.08	73.602
559.42	72.411
559.76	70.735
560.10	70.021
560.44	71.209
560.78	68.330
561.12	70.317
561.45	69.752
561.79	68.293
562.13	67.874
562.47	69.604
562.81	72.106
563.15	69.699
563.48	69.098
563.82	68.819
564.16	67.953
564.50	69.727
564.84	67.952
565.17	69.048
565.51	68.371
565.85	68.909
566.19	67.063
566.52	67.764
566.86	66.727
567.20	66.097
567.54	66.724
567.88	64.530
568.21	64.762
568.55	64.004
568.89	63.035
569.23	61.185
569.56	60.162
569.90	60.453
570.24	59.993
570.57	59.130
570.91	58.177
571.25	56.887
571.59	56.848
571.92	58.209
572.26	56.788
572.60	57.808
572.93	56.552
573.27	57.527
573.61	56.644
573.95	56.563
574.28	55.553
574.62	55.442
574.96	54.241
575.29	54.777
575.63	55.259
575.97	55.923
576.30	55.443
576.64	55.497
576.98	55.202
577.31	54.852
577.65	54.919
577.98	54.926
578.32	53.435
578.66	54.046
578.99	54.166
579.33	54.297
579.67	54.245
580.00	54.735
580.34	55.078
580.67	54.337
581.01	54.171
581.35	53.590
581.68	53.747
582.02	52.283
582.35	52.803
582.69	53.307
583.02	53.484
583.36	54.508
583.70	55.744
584.03	55.303
584.37	54.835
584.70	55.381
585.04	54.843
585.37	53.868
585.71	54.488
586.04	53.733
586.38	55.590
586.72	55.979
587.05	54.333
587.39	54.090
587.72	54.084
588.06	54.509
588.39	55.418
588.73	55.265
589.06	55.781
589.40	56.498
589.73	56.917
590.07	56.335
590.40	56.887
590.73	57.728
591.07	59.219
591.40	58.245
591.74	59.481
592.07	57.853
592.41	57.131
592.74	56.105
593.08	55.197
593.41	54.350
593.75	54.310
594.08	54.643
594.41	55.850
594.75	56.155
595.08	55.154
595.42	56.883
595.75	55.484
596.09	56.403
596.42	56.385
596.75	57.324
597.09	58.139
597.42	56.282
597.75	56.619
598.09	56.565
598.42	56.057
598.76	55.614
599.09	55.530
599.42	54.731
599.76	54.649
600.09	53.807
600.42	53.616
600.76	53.964
601.09	54.026
601.42	54.566
601.76	54.687
602.09	54.743
602.42	55.693
602.76	56.187
603.09	56.334
603.42	55.759
603.76	54.002
604.09	54.207
604.42	55.850
604.76	56.094
605.09	56.575
605.42	55.195
605.75	55.671
606.09	54.778
606.42	55.497
606.75	54.127
607.09	55.170
607.42	55.113
607.75	54.008
608.08	54.277
608.42	55.715
608.75	55.636
609.08	55.735
609.41	54.783
609.75	54.931
610.08	55.419
610.41	55.214
610.74	56.339
611.07	56.472
611.41	56.084
611.74	57.315
612.07	56.625
612.40	57.555
612.73	57.368
613.07	56.843
613.40	57.346
613.73	55.899
614.06	56.290
614.39	55.218
614.72	55.842
615.06	56.092
615.39	55.573
615.72	54.652
616.05	55.715
616.38	56.865
616.71	57.423
617.05	58.304
617.38	56.765
617.71	57.838
618.04	58.293
618.37	56.239
618.70	57.685
619.03	59.408
619.36	59.063
619.69	59.930
620.03	59.203
620.36	58.289
620.69	59.863
621.02	60.619
621.35	58.888
621.68	60.358
622.01	61.068
622.34	59.834
622.67	60.684
623.00	58.694
623.33	58.041
623.66	59.614
623.99	60.972
624.32	58.845
624.65	60.099
624.99	59.278
625.32	59.739
625.65	59.955
625.98	60.876
626.31	60.342
626.64	61.306
626.97	61.679
627.30	60.931
627.63	62.100
627.96	61.060
628.29	60.105
628.62	62.763
628.95	63.208
629.28	61.131
629.61	63.520
629.94	63.429
630.26	64.442
630.59	62.250
