SpectraSuite Data File
++++++++++++++++++++++++++++++++++++
Date: Wed May 13 19:32:20 PDT 2015
User: schluterlab
Dark Spectrum Present: Yes
Reference Spectrum Present: Yes
Number of Sampled Component Spectra: 1
Spectrometers: USB2E3373
Integration Time (usec): 3000 (USB2E3373)
Spectra Averaged: 3 (USB2E3373)
Boxcar Smoothing: 0 (USB2E3373)
Correct for Electrical Dark: No (USB2E3373)
Strobe/Lamp Enabled: No (USB2E3373)
Correct for Detector Non-linearity: No (USB2E3373)
Correct for Stray Light: No (USB2E3373)
Number of Pixels in Processed Spectrum: 2048
>>>>>Begin Processed Spectral Data<<<<<
178.53	0.000
178.91	-1425.000
179.29	-1300.000
179.67	-244.444
180.04	-1300.000
180.42	2800.000
180.80	1060.000
181.18	-1325.000
181.56	585.714
181.94	0.000
182.31	-785.714
182.69	1900.000
183.07	-587.500
183.45	-566.667
183.83	563.636
184.20	-490.000
184.58	2700.000
184.96	5800.000
185.34	-900.000
185.72	-625.000
186.09	-2500.000
186.47	2550.000
186.85	2400.000
187.23	4600.000
187.61	-1733.333
187.98	1200.000
188.36	581.818
188.74	563.636
189.12	-880.000
189.49	590.000
189.87	-5200.000
190.25	-1400.000
190.63	414.286
191.00	430.769
191.38	916.667
191.76	-1075.000
192.14	1575.000
192.51	712.500
192.89	1216.667
193.27	650.000
193.65	-1375.000
194.02	580.000
194.40	940.000
194.78	580.000
195.15	491.667
195.53	650.000
195.91	-2450.000
196.29	362.500
196.66	336.842
197.04	-460.000
197.42	0.000
197.79	560.000
198.17	-5700.000
198.55	728.571
198.92	637.500
199.30	1020.000
199.68	0.000
200.05	355.556
200.43	685.714
200.81	5600.000
201.18	1533.333
201.56	-1766.667
201.94	577.778
202.31	677.778
202.69	483.333
203.07	620.000
203.44	0.000
203.82	1675.000
204.19	785.714
204.57	442.857
204.95	650.000
205.32	1733.333
205.70	581.818
206.08	478.571
206.45	2450.000
206.83	393.750
207.20	883.333
207.58	1020.000
207.96	333.333
208.33	775.000
208.71	-950.000
209.08	728.571
209.46	633.333
209.84	518.182
210.21	-1533.333
210.59	1600.000
210.96	-525.000
211.34	2400.000
211.71	630.000
212.09	850.000
212.46	0.000
212.84	1966.667
213.22	1100.000
213.59	-5500.000
213.97	916.667
214.34	800.000
214.72	600.000
215.09	1000.000
215.47	-2350.000
215.84	-2650.000
216.22	1800.000
216.59	407.143
216.97	1325.000
217.34	500.000
217.72	-816.667
218.09	0.000
218.47	-5400.000
218.84	700.000
219.22	928.571
219.59	1733.333
219.97	-800.000
220.34	1040.000
220.72	-2033.333
221.09	421.429
221.47	1525.000
221.84	-933.333
222.22	0.000
222.59	1375.000
222.97	-2300.000
223.34	1420.000
223.72	461.538
224.09	1140.000
224.46	2350.000
224.84	-5800.000
225.21	-1040.000
225.59	-5300.000
225.96	660.000
226.34	290.000
226.71	2850.000
227.08	712.500
227.46	600.000
227.83	-1000.000
228.21	-2550.000
228.58	544.444
228.95	-1600.000
229.33	-2350.000
229.70	1866.667
230.08	885.714
230.45	-1120.000
230.82	475.000
231.20	800.000
231.57	814.286
231.95	491.667
232.32	250.000
232.69	409.091
233.07	757.143
233.44	392.308
233.81	-1733.333
234.19	326.316
234.56	433.333
234.93	416.667
235.31	536.364
235.68	338.462
236.05	414.286
236.43	203.030
236.80	252.632
237.17	5100.000
237.55	276.190
237.92	210.714
238.29	257.143
238.67	180.645
239.04	217.241
239.41	166.667
239.79	136.957
240.16	152.381
240.53	118.182
240.91	125.490
241.28	122.000
241.65	112.000
242.02	111.594
242.40	114.516
242.77	98.333
243.14	88.172
243.51	91.011
243.89	81.176
244.26	70.000
244.63	70.968
245.00	71.277
245.38	71.287
245.75	71.028
246.12	66.972
246.49	67.153
246.87	70.400
247.24	62.308
247.61	59.286
247.98	63.399
248.36	51.351
248.73	47.771
249.10	49.682
249.47	44.633
249.84	51.872
250.22	48.128
250.59	49.112
250.96	47.475
251.33	42.180
251.70	50.495
252.08	43.810
252.45	38.565
252.82	41.739
253.19	47.234
253.56	38.824
253.94	40.249
254.31	39.453
254.68	39.615
255.05	42.066
255.42	35.772
255.79	40.441
256.16	43.682
256.54	38.163
256.91	40.925
257.28	36.691
257.65	36.634
258.02	33.230
258.39	35.016
258.76	37.793
259.14	33.929
259.51	36.170
259.88	34.472
260.25	38.066
260.62	36.994
260.99	36.646
261.36	32.132
261.73	37.536
262.10	34.884
262.47	35.775
262.85	31.755
263.22	33.048
263.59	35.043
263.96	32.967
264.33	34.204
264.70	34.211
265.07	35.806
265.44	32.828
265.81	31.387
266.18	34.171
266.55	30.488
266.92	29.975
267.29	33.565
267.66	29.817
268.03	31.818
268.40	31.308
268.77	29.117
269.14	31.081
269.51	28.894
269.88	30.070
270.25	30.248
270.62	33.933
270.99	31.398
271.36	30.258
271.73	31.776
272.10	28.913
272.47	30.753
272.84	29.221
273.21	30.608
273.58	30.568
273.95	28.302
274.32	27.273
274.69	28.266
275.06	30.118
275.43	29.574
275.80	28.657
276.17	29.532
276.54	28.898
276.91	25.889
277.28	28.516
277.65	30.368
278.02	28.157
278.39	29.102
278.76	26.909
279.13	24.340
279.50	29.050
279.87	27.490
280.23	28.343
280.60	28.433
280.97	24.769
281.34	27.080
281.71	28.000
282.08	30.710
282.45	26.909
282.82	28.774
283.19	26.738
283.56	27.018
283.92	25.719
284.29	25.573
284.66	26.679
285.03	25.136
285.40	25.704
285.77	25.926
286.14	25.907
286.51	28.833
286.87	25.983
287.24	26.221
287.61	26.164
287.98	25.974
288.35	24.406
288.72	24.766
289.08	25.039
289.45	25.535
289.82	25.854
290.19	24.333
290.56	23.430
290.93	24.169
291.29	25.920
291.66	22.714
292.03	25.581
292.40	24.229
292.77	22.485
293.13	23.433
293.50	24.490
293.87	23.852
294.24	21.185
294.60	22.125
294.97	23.401
295.34	23.131
295.71	24.432
296.08	23.789
296.44	23.659
296.81	20.608
297.18	23.577
297.55	20.844
297.91	22.559
298.28	24.632
298.65	23.499
299.02	21.739
299.38	21.381
299.75	22.102
300.12	19.540
300.48	22.125
300.85	20.962
301.22	21.656
301.59	20.707
301.95	21.285
302.32	20.924
302.69	20.789
303.05	22.303
303.42	19.259
303.79	20.838
304.15	20.629
304.52	20.742
304.89	20.093
305.25	21.346
305.62	21.518
305.99	22.078
306.35	20.805
306.72	21.861
307.09	22.198
307.45	21.171
307.82	21.429
308.19	22.296
308.55	21.791
308.92	21.805
309.29	21.119
309.65	20.679
310.02	21.776
310.38	22.903
310.75	20.803
311.12	23.746
311.48	21.944
311.85	23.795
312.22	22.581
312.58	21.933
312.95	23.337
313.31	22.330
313.68	24.532
314.05	24.359
314.41	23.920
314.78	23.766
315.14	25.223
315.51	25.644
315.87	24.455
316.24	25.025
316.61	24.659
316.97	25.342
317.34	24.462
317.70	27.055
318.07	26.853
318.43	27.593
318.80	27.273
319.16	27.024
319.53	27.017
319.89	28.857
320.26	28.100
320.62	28.770
320.99	27.980
321.35	29.798
321.72	30.390
322.08	30.109
322.45	31.741
322.81	30.717
323.18	32.274
323.54	31.169
323.91	30.849
324.27	32.218
324.64	31.500
325.00	31.740
325.37	33.121
325.73	32.855
326.10	33.628
326.46	32.706
326.83	34.685
327.19	33.817
327.56	34.146
327.92	36.920
328.29	33.895
328.65	35.727
329.01	35.199
329.38	36.355
329.74	34.811
330.11	35.627
330.47	35.629
330.84	35.386
331.20	34.608
331.56	36.147
331.93	36.667
332.29	35.581
332.66	36.814
333.02	35.923
333.38	36.314
333.75	36.809
334.11	36.655
334.48	35.315
334.84	35.294
335.20	38.000
335.57	35.811
335.93	35.625
336.29	36.172
336.66	36.339
337.02	34.661
337.38	36.019
337.75	35.383
338.11	36.258
338.47	36.096
338.84	37.214
339.20	36.422
339.56	36.405
339.93	35.727
340.29	36.141
340.65	35.116
341.02	36.562
341.38	35.587
341.74	35.614
342.11	37.555
342.47	37.621
342.83	35.531
343.20	35.584
343.56	34.878
343.92	34.825
344.28	37.160
344.65	36.715
345.01	36.616
345.37	35.849
345.73	36.887
346.10	35.550
346.46	36.017
346.82	35.255
347.19	34.921
347.55	35.961
347.91	36.003
348.27	35.826
348.63	36.120
349.00	35.356
349.36	36.043
349.72	37.289
350.08	34.765
350.45	35.395
350.81	36.799
351.17	36.548
351.53	36.118
351.89	36.469
352.26	35.833
352.62	36.247
352.98	34.846
353.34	36.237
353.70	35.679
354.07	36.855
354.43	34.841
354.79	35.398
355.15	36.313
355.51	37.170
355.87	36.490
356.24	36.726
356.60	35.686
356.96	37.088
357.32	37.122
357.68	36.378
358.04	35.629
358.40	36.342
358.77	36.463
359.13	35.991
359.49	35.373
359.85	35.794
360.21	36.364
360.57	36.576
360.93	36.462
361.29	37.491
361.66	36.920
362.02	36.418
362.38	37.262
362.74	37.426
363.10	37.010
363.46	37.124
363.82	36.886
364.18	36.344
364.54	37.519
364.90	36.190
365.26	37.426
365.62	37.984
365.98	37.692
366.35	36.819
366.71	38.106
367.07	36.854
367.43	37.881
367.79	38.829
368.15	38.721
368.51	36.991
368.87	38.258
369.23	38.332
369.59	37.944
369.95	38.162
370.31	38.105
370.67	37.319
371.03	40.075
371.39	38.557
371.75	38.603
372.11	37.553
372.47	39.296
372.83	39.769
373.19	38.295
373.55	39.911
373.91	39.617
374.27	37.251
374.63	38.545
374.99	39.054
375.35	37.753
375.71	38.931
376.07	39.163
376.42	39.271
376.78	38.966
377.14	39.281
377.50	38.609
377.86	39.162
378.22	39.633
378.58	38.659
378.94	38.718
379.30	38.931
379.66	38.515
380.02	39.926
380.38	38.251
380.74	39.196
381.09	40.526
381.45	40.074
381.81	39.619
382.17	40.382
382.53	38.994
382.89	39.630
383.25	39.275
383.61	40.706
383.97	40.025
384.32	39.364
384.68	40.273
385.04	40.504
385.40	38.638
385.76	39.742
386.12	39.767
386.48	40.529
386.83	41.822
387.19	41.249
387.55	40.693
387.91	40.387
388.27	40.895
388.62	40.811
388.98	40.909
389.34	39.737
389.70	40.466
390.06	40.684
390.42	40.597
390.77	40.967
391.13	40.013
391.49	40.228
391.85	39.147
392.20	38.738
392.56	39.836
392.92	39.729
393.28	38.343
393.64	39.508
393.99	39.035
394.35	39.082
394.71	39.711
395.07	38.941
395.42	40.606
395.78	39.758
396.14	39.354
396.50	40.414
396.85	40.369
397.21	39.642
397.57	40.732
397.92	38.702
398.28	38.117
398.64	39.128
399.00	38.892
399.35	38.409
399.71	39.410
400.07	39.089
400.42	39.202
400.78	39.505
401.14	38.780
401.49	38.985
401.85	38.899
402.21	37.605
402.57	38.371
402.92	39.344
403.28	39.475
403.63	37.809
403.99	38.662
404.35	37.818
404.70	38.549
405.06	37.740
405.42	38.428
405.77	38.171
406.13	37.415
406.49	38.734
406.84	37.744
407.20	37.530
407.55	38.162
407.91	37.467
408.27	37.971
408.62	38.110
408.98	37.194
409.34	37.515
409.69	37.419
410.05	37.546
410.40	36.697
410.76	37.515
411.11	37.033
411.47	37.316
411.83	37.019
412.18	36.673
412.54	37.671
412.89	37.048
413.25	36.009
413.60	37.616
413.96	36.491
414.31	36.877
414.67	36.312
415.03	36.424
415.38	37.307
415.74	37.170
416.09	37.427
416.45	37.483
416.80	37.079
417.16	38.539
417.51	37.890
417.87	36.994
418.22	37.918
418.58	38.089
418.93	37.469
419.29	36.410
419.64	37.217
420.00	36.402
420.35	35.536
420.71	38.255
421.06	36.814
421.42	37.544
421.77	37.612
422.12	37.226
422.48	36.050
422.83	36.867
423.19	36.575
423.54	36.738
423.90	36.754
424.25	37.018
424.61	36.429
424.96	37.609
425.31	36.213
425.67	36.798
426.02	37.371
426.38	38.095
426.73	37.741
427.09	37.264
427.44	35.998
427.79	38.528
428.15	36.607
428.50	36.805
428.85	38.081
429.21	36.830
429.56	37.377
429.92	36.236
430.27	36.147
430.62	35.330
430.98	36.430
431.33	36.649
431.68	37.382
432.04	36.688
432.39	37.122
432.74	37.642
433.10	37.351
433.45	36.968
433.80	36.641
434.16	35.844
434.51	37.105
434.86	37.115
435.22	37.854
435.57	37.021
435.92	36.630
436.28	38.197
436.63	37.196
436.98	36.749
437.34	36.792
437.69	37.690
438.04	37.381
438.39	37.493
438.75	37.130
439.10	37.709
439.45	37.957
439.81	37.583
440.16	37.098
440.51	38.137
440.86	37.290
441.22	36.763
441.57	37.633
441.92	36.694
442.27	36.491
442.63	35.703
442.98	37.577
443.33	37.554
443.68	37.326
444.03	37.189
444.39	36.222
444.74	37.121
445.09	36.927
445.44	36.632
445.79	37.061
446.15	36.633
446.50	37.157
446.85	36.536
447.20	36.410
447.55	37.298
447.91	37.010
448.26	36.060
448.61	36.744
448.96	36.434
449.31	36.839
449.66	36.072
450.02	35.822
450.37	36.168
450.72	36.605
451.07	35.954
451.42	34.894
451.77	36.289
452.12	36.143
452.47	36.256
452.83	36.772
453.18	36.980
453.53	36.549
453.88	36.503
454.23	36.521
454.58	36.160
454.93	38.462
455.28	36.409
455.63	35.862
455.98	37.024
456.34	35.930
456.69	35.692
457.04	37.028
457.39	34.892
457.74	35.577
458.09	35.710
458.44	34.778
458.79	34.273
459.14	36.569
459.49	35.143
459.84	34.017
460.19	34.237
460.54	34.144
460.89	34.778
461.24	36.126
461.59	36.490
461.94	33.909
462.29	35.549
462.64	35.546
462.99	35.589
463.34	35.667
463.69	35.522
464.04	35.014
464.39	35.362
464.74	34.700
465.09	34.560
465.44	34.294
465.79	34.284
466.14	34.702
466.49	33.648
466.84	34.092
467.19	34.218
467.54	35.062
467.89	33.914
468.24	34.729
468.59	35.043
468.94	33.170
469.29	34.319
469.64	35.676
469.99	35.859
470.34	35.073
470.68	34.914
471.03	35.714
471.38	35.580
471.73	35.376
472.08	35.329
472.43	34.799
472.78	34.760
473.13	34.724
473.48	33.770
473.83	34.878
474.17	33.479
474.52	34.429
474.87	33.684
475.22	33.778
475.57	33.530
475.92	33.351
476.27	32.694
476.61	33.756
476.96	33.755
477.31	32.810
477.66	33.589
478.01	32.567
478.36	33.263
478.70	32.970
479.05	33.280
479.40	33.982
479.75	33.757
480.10	33.002
480.45	32.175
480.79	33.158
481.14	33.366
481.49	33.602
481.84	32.282
482.19	31.985
482.53	32.018
482.88	32.713
483.23	32.944
483.58	31.802
483.92	32.334
484.27	31.111
484.62	31.207
484.97	30.942
485.31	32.192
485.66	30.138
486.01	28.095
486.36	27.409
486.70	27.654
487.05	28.078
487.40	29.392
487.75	29.710
488.09	30.088
488.44	30.520
488.79	30.597
489.13	31.054
489.48	31.566
489.83	31.075
490.17	32.179
490.52	31.665
490.87	30.846
491.22	31.378
491.56	30.433
491.91	31.131
492.26	29.858
492.60	30.599
492.95	30.402
493.30	30.794
493.64	30.331
493.99	29.898
494.34	31.267
494.68	31.136
495.03	31.156
495.37	30.247
495.72	30.994
496.07	31.415
496.41	29.558
496.76	30.035
497.11	29.671
497.45	29.576
497.80	30.758
498.14	30.483
498.49	30.195
498.84	30.441
499.18	30.238
499.53	30.674
499.87	29.683
500.22	29.487
500.56	30.485
500.91	30.240
501.26	29.635
501.60	30.517
501.95	29.881
502.29	30.366
502.64	30.028
502.98	29.780
503.33	29.936
503.67	29.466
504.02	29.747
504.36	29.153
504.71	29.751
505.06	29.398
505.40	29.849
505.75	29.267
506.09	29.786
506.44	29.403
506.78	29.518
507.13	30.439
507.47	29.343
507.82	31.358
508.16	30.344
508.51	31.456
508.85	29.643
509.19	30.765
509.54	29.592
509.88	29.675
510.23	29.152
510.57	30.857
510.92	30.140
511.26	30.113
511.61	29.876
511.95	29.906
512.30	29.268
512.64	29.554
512.98	30.493
513.33	30.246
513.67	30.309
514.02	29.924
514.36	30.857
514.70	30.769
515.05	30.898
515.39	30.454
515.74	30.574
516.08	30.129
516.42	30.744
516.77	31.494
517.11	30.300
517.46	30.587
517.80	31.301
518.14	29.878
518.49	31.914
518.83	31.477
519.17	31.928
519.52	30.843
519.86	30.633
520.20	31.561
520.55	31.358
520.89	30.961
521.23	31.846
521.58	30.492
521.92	31.292
522.26	30.384
522.61	30.405
522.95	30.141
523.29	29.641
523.64	30.427
523.98	31.115
524.32	30.820
524.66	31.149
525.01	31.127
525.35	30.793
525.69	29.988
526.04	30.966
526.38	31.056
526.72	29.816
527.06	30.822
527.41	28.218
527.75	31.447
528.09	30.764
528.43	31.103
528.78	30.916
529.12	30.061
529.46	30.374
529.80	30.879
530.15	30.530
530.49	29.538
530.83	31.582
531.17	30.875
531.51	30.934
531.86	30.968
532.20	30.313
532.54	31.262
532.88	30.295
533.22	28.919
533.57	29.444
533.91	29.681
534.25	29.769
534.59	28.981
534.93	29.506
535.27	29.209
535.62	29.548
535.96	30.069
536.30	30.070
536.64	29.169
536.98	29.463
537.32	29.822
537.66	29.800
538.01	29.427
538.35	29.800
538.69	29.292
539.03	29.240
539.37	29.457
539.71	27.868
540.05	28.824
540.39	29.900
540.73	30.078
541.07	29.396
541.42	29.354
541.76	30.387
542.10	30.336
542.44	29.735
542.78	30.303
543.12	28.983
543.46	29.836
543.80	28.953
544.14	29.076
544.48	29.270
544.82	28.801
545.16	28.692
545.50	27.506
545.84	29.503
546.18	29.428
546.52	29.732
546.86	28.385
547.20	29.939
547.54	29.392
547.88	28.508
548.22	27.771
548.56	28.868
548.90	27.913
549.24	27.946
549.58	30.218
549.92	29.602
550.26	29.901
550.60	28.216
550.94	30.915
551.28	27.798
551.62	28.109
551.96	28.842
552.30	28.874
552.64	28.871
552.98	29.288
553.32	28.591
553.66	29.107
554.00	29.307
554.34	28.709
554.68	28.755
555.02	28.984
555.36	28.949
555.69	27.876
556.03	27.725
556.37	27.967
556.71	27.967
557.05	29.272
557.39	27.992
557.73	29.005
558.07	28.644
558.41	28.509
558.75	27.994
559.08	29.008
559.42	28.798
559.76	27.647
560.10	28.194
560.44	27.673
560.78	27.013
561.12	27.375
561.45	27.510
561.79	27.950
562.13	27.029
562.47	27.322
562.81	27.545
563.15	27.425
563.48	27.851
563.82	27.658
564.16	26.422
564.50	26.628
564.84	26.865
565.17	27.542
565.51	27.220
565.85	26.840
566.19	26.362
566.52	27.169
566.86	26.221
567.20	28.184
567.54	26.427
567.88	25.421
568.21	25.820
568.55	26.239
568.89	25.340
569.23	24.643
569.56	23.806
569.90	23.358
570.24	23.789
570.57	22.441
570.91	23.174
571.25	23.008
571.59	22.592
571.92	22.350
572.26	22.530
572.60	23.153
572.93	22.819
573.27	22.774
573.61	22.725
573.95	22.171
574.28	21.985
574.62	21.890
574.96	21.458
575.29	21.605
575.63	21.773
575.97	21.999
576.30	22.066
576.64	21.835
576.98	21.731
577.31	21.811
577.65	22.063
577.98	21.271
578.32	20.790
578.66	21.551
578.99	21.799
579.33	21.859
579.67	21.260
580.00	21.769
580.34	21.357
580.67	22.075
581.01	21.430
581.35	21.211
581.68	21.201
582.02	21.043
582.35	20.796
582.69	20.656
583.02	20.988
583.36	21.420
583.70	21.778
584.03	21.630
584.37	21.976
584.70	22.335
585.04	21.575
585.37	21.505
585.71	21.405
586.04	21.648
586.38	21.735
586.72	22.038
587.05	21.434
587.39	21.161
587.72	21.850
588.06	22.012
588.39	21.481
588.73	22.001
589.06	22.156
589.40	22.020
589.73	22.809
590.07	22.954
590.40	22.324
590.73	22.834
591.07	23.240
591.40	23.281
591.74	24.069
592.07	23.473
592.41	23.646
592.74	22.434
593.08	22.085
593.41	21.291
593.75	21.362
594.08	21.690
594.41	22.093
594.75	21.885
595.08	22.584
595.42	22.872
595.75	22.400
596.09	22.456
596.42	23.458
596.75	23.301
597.09	23.766
597.42	22.850
597.75	22.294
598.09	23.304
598.42	23.067
598.76	21.767
599.09	22.007
599.42	22.052
599.76	21.742
600.09	21.749
600.42	21.768
600.76	21.750
601.09	21.530
601.42	21.119
601.76	21.860
602.09	21.225
602.42	22.373
602.76	22.451
603.09	22.030
603.42	22.179
603.76	22.256
604.09	21.365
604.42	22.136
604.76	22.986
605.09	22.674
605.42	22.103
605.75	22.475
606.09	21.309
606.42	21.945
606.75	22.066
607.09	22.394
607.42	21.523
607.75	21.899
608.08	21.928
608.42	21.829
608.75	22.543
609.08	22.340
609.41	22.132
609.75	22.582
610.08	22.479
610.41	21.974
610.74	22.280
611.07	23.419
611.41	22.522
611.74	23.127
612.07	23.137
612.40	23.662
612.73	23.211
613.07	23.815
613.40	22.907
613.73	22.811
614.06	23.280
614.39	23.440
614.72	23.000
615.06	22.479
615.39	22.134
615.72	22.853
616.05	22.488
616.38	22.513
616.71	24.169
617.05	23.204
617.38	23.271
617.71	23.063
618.04	23.197
618.37	23.596
618.70	23.335
619.03	24.868
619.36	24.644
619.69	24.296
620.03	24.451
620.36	24.666
620.69	24.863
621.02	26.032
621.35	25.450
621.68	24.688
622.01	24.303
622.34	25.719
622.67	25.323
623.00	23.478
623.33	23.302
623.66	24.446
623.99	24.595
624.32	24.251
624.65	23.799
624.99	24.292
625.32	24.258
625.65	25.169
625.98	26.134
626.31	24.495
626.64	25.388
626.97	26.268
627.30	25.104
627.63	25.267
627.96	25.820
628.29	25.722
628.62	26.624
628.95	27.830
629.28	27.372
629.61	27.039
629.94	26.762
630.26	26.787
630.59	25.643
