SpectraSuite Data File
++++++++++++++++++++++++++++++++++++
Date: Wed May 13 19:11:41 PDT 2015
User: schluterlab
Dark Spectrum Present: Yes
Reference Spectrum Present: Yes
Number of Sampled Component Spectra: 1
Spectrometers: USB2E3373
Integration Time (usec): 3000 (USB2E3373)
Spectra Averaged: 3 (USB2E3373)
Boxcar Smoothing: 0 (USB2E3373)
Correct for Electrical Dark: No (USB2E3373)
Strobe/Lamp Enabled: No (USB2E3373)
Correct for Detector Non-linearity: No (USB2E3373)
Correct for Stray Light: No (USB2E3373)
Number of Pixels in Processed Spectrum: 2048
>>>>>Begin Processed Spectral Data<<<<<
178.53	0.000
178.91	-1575.000
179.29	-1275.000
179.67	-261.111
180.04	-1400.000
180.42	2700.000
180.80	1000.000
181.18	-1250.000
181.56	828.571
181.94	0.000
182.31	-757.143
182.69	1900.000
183.07	-725.000
183.45	-577.778
183.83	481.818
184.20	-450.000
184.58	2600.000
184.96	5300.000
185.34	-1080.000
185.72	-687.500
186.09	-2600.000
186.47	3300.000
186.85	2850.000
187.23	5200.000
187.61	-1900.000
187.98	1475.000
188.36	572.727
188.74	609.091
189.12	-1080.000
189.49	660.000
189.87	-4700.000
190.25	-1300.000
190.63	478.571
191.00	484.615
191.38	1100.000
191.76	-1125.000
192.14	1500.000
192.51	650.000
192.89	983.333
193.27	762.500
193.65	-1200.000
194.02	620.000
194.40	1020.000
194.78	590.000
195.15	566.667
195.53	640.000
195.91	-2650.000
196.29	337.500
196.66	342.105
197.04	-490.000
197.42	0.000
197.79	670.000
198.17	-5300.000
198.55	785.714
198.92	850.000
199.30	1040.000
199.68	0.000
200.05	383.333
200.43	771.429
200.81	5700.000
201.18	1833.333
201.56	-1933.333
201.94	633.333
202.31	733.333
202.69	508.333
203.07	710.000
203.44	0.000
203.82	1400.000
204.19	771.429
204.57	492.857
204.95	762.500
205.32	1866.667
205.70	454.545
206.08	428.571
206.45	2850.000
206.83	437.500
207.20	1100.000
207.58	1000.000
207.96	394.444
208.33	687.500
208.71	-916.667
209.08	900.000
209.46	644.444
209.84	518.182
210.21	-1733.333
210.59	1500.000
210.96	-600.000
211.34	2850.000
211.71	640.000
212.09	816.667
212.46	0.000
212.84	2033.333
213.22	1400.000
213.59	-5300.000
213.97	933.333
214.34	914.286
214.72	600.000
215.09	1320.000
215.47	-2800.000
215.84	-2900.000
216.22	1600.000
216.59	485.714
216.97	1450.000
217.34	572.727
217.72	-900.000
218.09	0.000
218.47	-4400.000
218.84	688.889
219.22	828.571
219.59	1666.667
219.97	-771.429
220.34	1260.000
220.72	-1700.000
221.09	400.000
221.47	1750.000
221.84	-1100.000
222.22	0.000
222.59	1525.000
222.97	-3000.000
223.34	1060.000
223.72	415.385
224.09	1320.000
224.46	2800.000
224.84	-5800.000
225.21	-1060.000
225.59	-5200.000
225.96	710.000
226.34	350.000
226.71	2850.000
227.08	737.500
227.46	510.000
227.83	-1525.000
228.21	-2400.000
228.58	688.889
228.95	-2850.000
229.33	-2750.000
229.70	2100.000
230.08	1042.857
230.45	-860.000
230.82	441.667
231.20	816.667
231.57	614.286
231.95	466.667
232.32	259.091
232.69	500.000
233.07	728.571
233.44	400.000
233.81	-2000.000
234.19	363.158
234.56	508.333
234.93	400.000
235.31	436.364
235.68	415.385
236.05	400.000
236.43	200.000
236.80	284.211
237.17	4100.000
237.55	257.143
237.92	228.571
238.29	247.619
238.67	183.871
239.04	220.690
239.41	158.333
239.79	123.913
240.16	114.286
240.53	129.545
240.91	103.922
241.28	112.000
241.65	102.000
242.02	92.754
242.40	98.387
242.77	80.000
243.14	70.968
243.51	70.787
243.89	57.647
244.26	56.667
244.63	60.215
245.00	51.064
245.38	55.446
245.75	45.794
246.12	50.459
246.49	51.825
246.87	54.400
247.24	51.538
247.61	43.571
247.98	42.484
248.36	29.054
248.73	35.669
249.10	35.032
249.47	35.028
249.84	33.690
250.22	35.294
250.59	33.728
250.96	31.313
251.33	29.384
251.70	30.198
252.08	28.571
252.45	29.148
252.82	32.609
253.19	29.787
253.56	26.667
253.94	28.216
254.31	24.219
254.68	23.462
255.05	25.092
255.42	21.951
255.79	23.897
256.16	26.354
256.54	20.141
256.91	25.623
257.28	18.345
257.65	21.782
258.02	19.565
258.39	23.344
258.76	19.732
259.14	19.940
259.51	20.365
259.88	18.323
260.25	20.846
260.62	19.075
260.99	18.323
261.36	21.922
261.73	19.771
262.10	18.023
262.47	18.873
262.85	19.220
263.22	14.245
263.59	19.943
263.96	17.033
264.33	20.104
264.70	18.158
265.07	18.670
265.44	14.899
265.81	17.275
266.18	18.342
266.55	14.878
266.92	19.656
267.29	17.593
267.66	16.743
268.03	16.818
268.40	14.953
268.77	16.468
269.14	17.342
269.51	18.284
269.88	15.385
270.25	14.221
270.62	15.281
270.99	15.914
271.36	15.880
271.73	16.121
272.10	15.652
272.47	17.204
272.84	14.935
273.21	16.143
273.58	13.755
273.95	14.256
274.32	15.289
274.69	14.347
275.06	12.008
275.43	14.894
275.80	13.226
276.17	13.646
276.54	14.969
276.91	13.241
277.28	13.281
277.65	12.186
278.02	11.594
278.39	15.039
278.76	14.000
279.13	13.774
279.50	13.780
279.87	13.546
280.23	13.174
280.60	12.186
280.97	12.200
281.34	14.513
281.71	13.455
282.08	12.860
282.45	11.636
282.82	13.321
283.19	9.091
283.56	13.684
283.92	15.398
284.29	11.640
284.66	13.430
285.03	10.850
285.40	12.500
285.77	12.795
286.14	11.054
286.51	12.833
286.87	12.650
287.24	13.355
287.61	10.915
287.98	12.013
288.35	12.995
288.72	12.617
289.08	12.050
289.45	12.191
289.82	11.545
290.19	9.419
290.56	12.864
290.93	9.366
291.29	11.656
291.66	11.062
292.03	13.663
292.40	12.335
292.77	11.391
293.13	10.896
293.50	11.662
293.87	11.111
294.24	8.741
294.60	10.044
294.97	11.483
295.34	11.283
295.71	11.080
296.08	10.826
296.44	8.666
296.81	9.643
297.18	11.518
297.55	8.575
297.91	9.235
298.28	11.914
298.65	10.052
299.02	10.145
299.38	9.695
299.75	7.008
300.12	9.195
300.48	8.375
300.85	9.248
301.22	8.153
301.59	7.955
301.95	8.690
302.32	8.986
302.69	9.438
303.05	9.697
303.42	8.765
303.79	8.607
304.15	8.042
304.52	8.343
304.89	8.595
305.25	7.657
305.62	9.853
305.99	8.501
306.35	8.613
306.72	8.072
307.09	9.101
307.45	9.910
307.82	7.031
308.19	9.382
308.55	8.414
308.92	7.411
309.29	7.497
309.65	7.953
310.02	9.302
310.38	8.710
310.75	8.448
311.12	8.802
311.48	8.568
311.85	7.338
312.22	8.741
312.58	6.757
312.95	8.553
313.31	7.379
313.68	6.965
314.05	9.172
314.41	8.543
314.78	8.862
315.14	7.547
315.51	8.239
315.87	8.515
316.24	7.547
316.61	7.700
316.97	6.849
317.34	6.849
317.70	8.413
318.07	8.181
318.43	7.534
318.80	9.278
319.16	8.663
319.53	7.317
319.89	8.095
320.26	9.500
320.62	8.135
320.99	8.384
321.35	8.283
321.72	7.598
322.08	8.885
322.45	9.453
322.81	9.399
323.18	8.960
323.54	7.699
323.91	9.151
324.27	7.744
324.64	7.735
325.00	7.033
325.37	7.825
325.73	8.707
326.10	7.679
326.46	7.527
326.83	7.593
327.19	7.515
327.56	7.143
327.92	7.262
328.29	8.163
328.65	7.827
329.01	8.032
329.38	7.586
329.74	8.218
330.11	7.352
330.47	8.081
330.84	8.640
331.20	7.559
331.56	7.615
331.93	6.852
332.29	8.341
332.66	8.761
333.02	8.227
333.38	8.220
333.75	8.378
334.11	8.452
334.48	8.163
334.84	7.721
335.20	8.818
335.57	8.432
335.93	6.696
336.29	7.234
336.66	7.214
337.02	7.149
337.38	8.519
337.75	7.576
338.11	7.073
338.47	8.011
338.84	8.708
339.20	7.064
339.56	8.029
339.93	7.455
340.29	8.062
340.65	8.200
341.02	7.679
341.38	7.473
341.74	8.333
342.11	7.773
342.47	7.401
342.83	7.791
343.20	7.706
343.56	8.003
343.92	8.333
344.28	7.228
344.65	7.997
345.01	7.492
345.37	6.346
345.73	8.037
346.10	7.587
346.46	7.797
346.82	7.661
347.19	5.848
347.55	7.061
347.91	7.443
348.27	7.888
348.63	7.525
349.00	7.605
349.36	6.814
349.72	7.378
350.08	7.131
350.45	6.916
350.81	7.067
351.17	7.536
351.53	7.453
351.89	6.931
352.26	7.735
352.62	8.500
352.98	7.212
353.34	6.902
353.70	6.628
354.07	6.935
354.43	6.587
354.79	6.677
355.15	7.023
355.51	7.434
355.87	6.939
356.24	7.573
356.60	6.576
356.96	6.356
357.32	6.541
357.68	6.850
358.04	7.284
358.40	7.680
358.77	7.433
359.13	6.551
359.49	6.588
359.85	5.238
360.21	5.981
360.57	7.393
360.93	7.769
361.29	6.878
361.66	5.960
362.02	7.761
362.38	6.312
362.74	7.068
363.10	5.922
363.46	6.897
363.82	6.425
364.18	6.167
364.54	7.058
364.90	7.295
365.26	6.176
365.62	7.305
365.98	5.990
366.35	5.874
366.71	7.520
367.07	6.336
367.43	6.168
367.79	5.853
368.15	7.399
368.51	5.378
368.87	6.924
369.23	6.072
369.59	6.807
369.95	5.441
370.31	7.407
370.67	6.957
371.03	6.517
371.39	6.560
371.75	6.985
372.11	6.472
372.47	6.525
372.83	6.484
373.19	6.792
373.55	6.061
373.91	6.922
374.27	6.048
374.63	5.818
374.99	6.638
375.35	5.862
375.71	6.169
376.07	7.064
376.42	5.915
376.78	6.627
377.14	6.106
377.50	6.159
377.86	5.120
378.22	6.258
378.58	5.201
378.94	5.720
379.30	5.534
379.66	6.345
380.02	6.020
380.38	5.343
380.74	5.462
381.09	6.418
381.45	5.716
381.81	6.327
382.17	6.624
382.53	5.220
382.89	6.296
383.25	5.191
383.61	6.568
383.97	6.191
384.32	5.989
384.68	4.647
385.04	5.839
385.40	6.068
385.76	5.467
386.12	5.699
386.48	6.356
386.83	5.901
387.19	5.813
387.55	5.195
387.91	6.106
388.27	5.641
388.62	5.778
388.98	6.081
389.34	6.195
389.70	5.334
390.06	6.717
390.42	6.096
390.77	6.616
391.13	4.850
391.49	6.091
391.85	6.111
392.20	4.669
392.56	6.187
392.92	5.533
393.28	5.207
393.64	5.875
393.99	5.498
394.35	5.583
394.71	6.148
395.07	5.545
395.42	4.883
395.78	6.043
396.14	6.083
396.50	5.827
396.85	6.167
397.21	5.672
397.57	5.456
397.92	5.769
398.28	4.652
398.64	5.974
399.00	5.204
399.35	5.753
399.71	5.729
400.07	6.328
400.42	5.521
400.78	5.609
401.14	5.000
401.49	5.910
401.85	4.840
402.21	5.269
402.57	5.799
402.92	5.549
403.28	5.996
403.63	5.693
403.99	5.159
404.35	6.364
404.70	5.396
405.06	5.358
405.42	5.802
405.77	4.800
406.13	5.926
406.49	5.263
406.84	5.907
407.20	4.728
407.55	5.935
407.91	6.000
408.27	5.424
408.62	5.418
408.98	5.208
409.34	5.904
409.69	5.677
410.05	5.328
410.40	5.321
410.76	4.958
411.11	6.092
411.47	6.390
411.83	6.414
412.18	5.380
412.54	5.479
412.89	5.904
413.25	6.257
413.60	6.609
413.96	5.586
414.31	5.772
414.67	6.464
415.03	5.894
415.38	7.088
415.74	5.659
416.09	6.074
416.45	5.020
416.80	5.486
417.16	6.568
417.51	5.375
417.87	4.945
418.22	6.057
418.58	6.520
418.93	5.467
419.29	5.920
419.64	5.856
420.00	5.671
420.35	5.623
420.71	6.097
421.06	5.131
421.42	6.082
421.77	5.830
422.12	4.604
422.48	4.857
422.83	5.591
423.19	6.022
423.54	4.875
423.90	6.203
424.25	5.751
424.61	5.774
424.96	5.306
425.31	5.980
425.67	5.618
426.02	5.771
426.38	6.288
426.73	5.383
427.09	6.079
427.44	4.888
427.79	5.233
428.15	6.310
428.50	5.032
428.85	6.555
429.21	5.411
429.56	4.925
429.92	5.687
430.27	4.916
430.62	4.813
430.98	5.293
431.33	5.722
431.68	5.969
432.04	5.964
432.39	5.540
432.74	6.104
433.10	5.999
433.45	5.248
433.80	5.543
434.16	5.876
434.51	5.684
434.86	5.530
435.22	5.503
435.57	5.653
435.92	4.915
436.28	5.753
436.63	5.629
436.98	5.724
437.34	5.605
437.69	5.601
438.04	5.509
438.39	5.672
438.75	6.043
439.10	5.251
439.45	5.372
439.81	5.196
440.16	5.364
440.51	5.800
440.86	5.906
441.22	5.228
441.57	6.104
441.92	5.885
442.27	5.705
442.63	5.424
442.98	6.479
443.33	6.522
443.68	5.679
444.03	5.710
444.39	4.576
444.74	5.357
445.09	5.445
445.44	5.631
445.79	5.542
446.15	6.564
446.50	5.654
446.85	5.293
447.20	5.303
447.55	5.248
447.91	5.516
448.26	5.620
448.61	5.822
448.96	5.703
449.31	6.187
449.66	5.684
450.02	6.184
450.37	5.102
450.72	5.415
451.07	6.155
451.42	5.532
451.77	5.931
452.12	5.658
452.47	6.219
452.83	5.478
453.18	5.929
453.53	6.061
453.88	5.257
454.23	6.097
454.58	5.875
454.93	6.421
455.28	5.424
455.63	5.400
455.98	6.786
456.34	5.842
456.69	6.199
457.04	6.316
457.39	6.020
457.74	5.630
458.09	6.038
458.44	5.815
458.79	5.369
459.14	5.869
459.49	6.188
459.84	5.762
460.19	6.128
460.54	5.903
460.89	5.211
461.24	6.132
461.59	7.147
461.94	5.980
462.29	5.757
462.64	6.126
462.99	6.506
463.34	6.800
463.69	6.129
464.04	6.667
464.39	5.797
464.74	6.536
465.09	6.212
465.44	5.928
465.79	5.145
466.14	6.021
466.49	4.672
466.84	6.363
467.19	6.276
467.54	6.562
467.89	6.182
468.24	6.283
468.59	6.899
468.94	5.864
469.29	6.041
469.64	6.894
469.99	6.631
470.34	6.407
470.68	7.112
471.03	6.735
471.38	6.254
471.73	6.995
472.08	7.763
472.43	5.905
472.78	6.254
473.13	6.162
473.48	6.742
473.83	5.732
474.17	5.538
474.52	5.831
474.87	6.713
475.22	5.978
475.57	5.535
475.92	5.417
476.27	5.975
476.61	5.626
476.96	5.937
477.31	5.181
477.66	5.799
478.01	5.802
478.36	6.346
478.70	5.192
479.05	5.964
479.40	5.578
479.75	6.151
480.10	5.567
480.45	5.521
480.79	5.112
481.14	5.333
481.49	5.600
481.84	5.441
482.19	5.543
482.53	5.413
482.88	5.491
483.23	5.374
483.58	5.551
483.92	5.576
484.27	4.575
484.62	5.000
484.97	4.809
485.31	4.486
485.66	3.909
486.01	3.427
486.36	3.384
486.70	3.624
487.05	3.811
487.40	4.162
487.75	4.463
488.09	4.216
488.44	4.436
488.79	5.461
489.13	4.622
489.48	5.098
489.83	4.575
490.17	5.129
490.52	5.624
490.87	5.608
491.22	4.911
491.56	4.784
491.91	5.119
492.26	4.456
492.60	5.760
492.95	5.613
493.30	5.374
493.64	5.086
493.99	5.246
494.34	5.319
494.68	5.632
495.03	5.592
495.37	5.631
495.72	5.361
496.07	5.754
496.41	5.088
496.76	5.673
497.11	5.358
497.45	5.217
497.80	5.710
498.14	5.024
498.49	5.463
498.84	5.417
499.18	5.095
499.53	5.033
499.87	5.312
500.22	5.370
500.56	5.583
500.91	4.760
501.26	4.979
501.60	6.217
501.95	4.950
502.29	5.623
502.64	5.168
502.98	4.909
503.33	5.347
503.67	5.383
504.02	5.239
504.36	5.990
504.71	5.618
505.06	5.928
505.40	5.493
505.75	5.593
506.09	4.956
506.44	4.835
506.78	5.358
507.13	5.401
507.47	6.313
507.82	6.028
508.16	5.522
508.51	5.682
508.85	5.164
509.19	5.102
509.54	5.255
509.88	6.079
510.23	5.398
510.57	6.140
510.92	5.697
511.26	5.704
511.61	5.602
511.95	5.167
512.30	5.461
512.64	5.427
512.98	5.681
513.33	6.478
513.67	5.496
514.02	5.357
514.36	5.461
514.70	5.977
515.05	4.964
515.39	5.945
515.74	5.574
516.08	6.875
516.42	5.993
516.77	5.853
517.11	5.716
517.46	6.038
517.80	6.272
518.14	5.906
518.49	5.951
518.83	6.136
519.17	6.351
519.52	5.772
519.86	5.990
520.20	6.879
520.55	6.942
520.89	6.509
521.23	6.695
521.58	6.002
521.92	6.675
522.26	6.162
522.61	6.168
522.95	6.262
523.29	6.086
523.64	6.280
523.98	6.100
524.32	6.031
524.66	5.953
525.01	6.373
525.35	5.886
525.69	6.466
526.04	6.854
526.38	6.711
526.72	5.828
527.06	6.466
527.41	5.817
527.75	6.174
528.09	6.294
528.43	6.947
528.78	6.392
529.12	5.697
529.46	6.491
529.80	6.559
530.15	6.791
530.49	6.031
530.83	6.519
531.17	6.332
531.51	7.328
531.86	5.935
532.20	7.627
532.54	6.983
532.88	6.290
533.22	5.559
533.57	7.160
533.91	6.743
534.25	6.318
534.59	6.772
534.93	6.841
535.27	6.337
535.62	6.593
535.96	6.842
536.30	6.484
536.64	6.890
536.98	6.636
537.32	6.386
537.66	6.933
538.01	6.452
538.35	7.111
538.69	6.637
539.03	6.173
539.37	6.454
539.71	5.638
540.05	6.797
540.39	6.578
540.73	6.533
541.07	7.333
541.42	6.980
541.76	7.419
542.10	7.050
542.44	6.159
542.78	7.773
543.12	6.014
543.46	6.623
543.80	6.831
544.14	5.520
544.48	6.667
544.82	6.479
545.16	6.181
545.50	6.427
545.84	6.653
546.18	7.542
546.52	6.538
546.86	6.942
547.20	6.811
547.54	6.613
547.88	7.653
548.22	6.476
548.56	6.289
548.90	6.338
549.24	6.128
549.58	7.435
549.92	6.593
550.26	5.682
550.60	7.123
550.94	6.761
551.28	6.657
551.62	7.261
551.96	7.228
552.30	7.304
552.64	6.964
552.98	7.186
553.32	7.552
553.66	7.907
554.00	7.138
554.34	7.039
554.68	6.509
555.02	7.052
555.36	7.029
555.69	6.495
556.03	7.335
556.37	6.958
556.71	7.367
557.05	6.513
557.39	6.928
557.73	7.198
558.07	6.526
558.41	6.295
558.75	7.201
559.08	7.606
559.42	6.954
559.76	7.500
560.10	6.567
560.44	7.338
560.78	6.387
561.12	7.058
561.45	6.780
561.79	6.987
562.13	6.170
562.47	6.421
562.81	7.113
563.15	7.157
563.48	6.167
563.82	7.371
564.16	6.671
564.50	6.380
564.84	7.016
565.17	5.727
565.51	6.070
565.85	6.345
566.19	6.011
566.52	6.333
566.86	6.028
567.20	5.896
567.54	6.450
567.88	5.540
568.21	6.349
568.55	5.865
568.89	5.302
569.23	5.749
569.56	5.061
569.90	4.830
570.24	4.808
570.57	4.488
570.91	4.331
571.25	4.725
571.59	4.772
571.92	4.464
572.26	4.275
572.60	4.474
572.93	4.468
573.27	4.703
573.61	4.355
573.95	4.599
574.28	4.020
574.62	4.106
574.96	3.847
575.29	3.880
575.63	4.345
575.97	4.374
576.30	4.567
576.64	4.145
576.98	4.035
577.31	3.905
577.65	4.148
577.98	3.820
578.32	3.813
578.66	4.025
578.99	4.063
579.33	3.994
579.67	4.062
580.00	4.052
580.34	4.200
580.67	3.971
581.01	4.070
581.35	3.866
581.68	3.738
582.02	3.621
582.35	3.707
582.69	4.093
583.02	3.850
583.36	4.220
583.70	4.096
584.03	4.702
584.37	4.822
584.70	4.336
585.04	4.452
585.37	4.357
585.71	4.300
586.04	4.204
586.38	4.545
586.72	4.667
587.05	4.265
587.39	4.037
587.72	4.226
588.06	4.376
588.39	4.554
588.73	4.723
589.06	4.425
589.40	4.848
589.73	4.893
590.07	4.982
590.40	5.079
590.73	5.464
591.07	5.983
591.40	5.314
591.74	5.541
592.07	5.497
592.41	5.539
592.74	5.019
593.08	4.930
593.41	4.872
593.75	4.403
594.08	4.660
594.41	4.878
594.75	5.102
595.08	5.190
595.42	5.254
595.75	4.986
596.09	5.370
596.42	5.697
596.75	5.488
597.09	5.931
597.42	5.649
597.75	5.433
598.09	5.304
598.42	5.455
598.76	4.945
599.09	5.055
599.42	4.949
599.76	5.015
600.09	5.319
600.42	4.931
600.76	4.821
601.09	4.554
601.42	5.251
601.76	5.655
602.09	5.296
602.42	5.653
602.76	5.441
603.09	5.232
603.42	5.662
603.76	4.954
604.09	5.196
604.42	5.503
604.76	6.031
605.09	5.417
605.42	5.344
605.75	5.339
606.09	4.961
606.42	5.190
606.75	5.433
607.09	5.735
607.42	5.049
607.75	4.937
608.08	5.080
608.42	6.051
608.75	5.591
609.08	5.920
609.41	6.140
609.75	5.336
610.08	5.467
610.41	5.587
610.74	5.014
611.07	6.275
611.41	5.839
611.74	6.536
612.07	5.694
612.40	6.243
612.73	6.000
613.07	5.981
613.40	6.635
613.73	5.558
614.06	6.183
614.39	6.817
614.72	6.737
615.06	6.250
615.39	6.104
615.72	5.624
616.05	6.061
616.38	6.559
616.71	6.948
617.05	6.302
617.38	6.434
617.71	6.306
618.04	6.550
618.37	6.919
618.70	6.783
619.03	6.842
619.36	6.653
619.69	7.183
620.03	7.143
620.36	7.152
620.69	8.425
621.02	6.121
621.35	7.987
621.68	7.321
622.01	7.740
622.34	7.337
622.67	7.529
623.00	6.897
623.33	6.934
623.66	7.219
623.99	7.364
624.32	7.204
624.65	7.345
624.99	6.657
625.32	7.024
625.65	7.363
625.98	7.917
626.31	7.465
626.64	8.163
626.97	7.398
627.30	7.315
627.63	7.711
627.96	7.990
628.29	8.049
628.62	9.881
628.95	9.717
629.28	9.124
629.61	9.166
629.94	7.619
630.26	8.770
630.59	8.580
630.92	7.950
631.25	7.700
631.58	8.208
631.91	8.418
632.24	9.177
632.57	9.234
632.90	9.978
633.23	8.725
633.56	9.944
633.89	10.193
634.22	9.308
634.55	9.704
634.88	10.180
635.20	9.558
635.53	9.518
635.86	8.911
636.19	9.647
636.52	9.804
636.85	9.622
637.18	9.332
637.51	9.574
637.83	9.125
638.16	10.230
638.49	10.076
638.82	10.619
639.15	10.750
639.48	10.973
639.81	12.466
640.13	10.026
640.46	11.409
640.79	12.021
641.12	9.491
641.45	9.916
641.77	11.046
642.10	10.380
642.43	10.210
642.76	12.074
643.09	11.196
643.41	12.140
643.74	11.728
644.07	10.976
644.40	13.804
644.73	13.386
645.05	10.935
645.38	11.058
645.71	12.721
646.04	11.628
646.36	13.189
646.69	12.876
647.02	11.735
647.35	12.543
647.67	12.389
648.00	12.683
648.33	10.726
648.66	10.758
648.98	12.144
649.31	9.865
649.64	11.360
649.96	9.836
650.29	11.532
650.62	11.327
650.94	13.776
651.27	13.851
651.60	13.478
651.92	13.578
652.25	10.749
