SpectraSuite Data File
++++++++++++++++++++++++++++++++++++
Date: Wed May 13 19:37:37 PDT 2015
User: schluterlab
Dark Spectrum Present: Yes
Reference Spectrum Present: Yes
Number of Sampled Component Spectra: 1
Spectrometers: USB2E3373
Integration Time (usec): 3000 (USB2E3373)
Spectra Averaged: 3 (USB2E3373)
Boxcar Smoothing: 0 (USB2E3373)
Correct for Electrical Dark: No (USB2E3373)
Strobe/Lamp Enabled: No (USB2E3373)
Correct for Detector Non-linearity: No (USB2E3373)
Correct for Stray Light: No (USB2E3373)
Number of Pixels in Processed Spectrum: 2048
>>>>>Begin Processed Spectral Data<<<<<
178.53	0.000
178.91	-1600.000
179.29	-1700.000
179.67	-244.444
180.04	-1375.000
180.42	3250.000
180.80	1120.000
181.18	-1150.000
181.56	785.714
181.94	0.000
182.31	-714.286
182.69	2133.333
183.07	-637.500
183.45	-633.333
183.83	663.636
184.20	-430.000
184.58	3200.000
184.96	5600.000
185.34	-1080.000
185.72	-687.500
186.09	-2700.000
186.47	2850.000
186.85	3000.000
187.23	5200.000
187.61	-1933.333
187.98	1425.000
188.36	572.727
188.74	463.636
189.12	-1080.000
189.49	680.000
189.87	-5200.000
190.25	-1425.000
190.63	442.857
191.00	500.000
191.38	1116.667
191.76	-1425.000
192.14	1575.000
192.51	675.000
192.89	1016.667
193.27	675.000
193.65	-1475.000
194.02	660.000
194.40	880.000
194.78	630.000
195.15	575.000
195.53	690.000
195.91	-2600.000
196.29	381.250
196.66	326.316
197.04	-430.000
197.42	0.000
197.79	640.000
198.17	-4600.000
198.55	700.000
198.92	762.500
199.30	1020.000
199.68	0.000
200.05	438.889
200.43	1014.286
200.81	5200.000
201.18	1733.333
201.56	-1533.333
201.94	655.556
202.31	566.667
202.69	466.667
203.07	700.000
203.44	0.000
203.82	1275.000
204.19	828.571
204.57	464.286
204.95	650.000
205.32	1733.333
205.70	527.273
206.08	442.857
206.45	2850.000
206.83	468.750
207.20	983.333
207.58	860.000
207.96	311.111
208.33	812.500
208.71	-816.667
209.08	857.143
209.46	566.667
209.84	554.545
210.21	-1533.333
210.59	1525.000
210.96	-600.000
211.34	2400.000
211.71	540.000
212.09	916.667
212.46	0.000
212.84	1766.667
213.22	1425.000
213.59	-5100.000
213.97	833.333
214.34	785.714
214.72	718.182
215.09	1100.000
215.47	-2800.000
215.84	-2450.000
216.22	2033.333
216.59	378.571
216.97	1425.000
217.34	527.273
217.72	-800.000
218.09	0.000
218.47	-4700.000
218.84	655.556
219.22	800.000
219.59	1933.333
219.97	-671.429
220.34	1120.000
220.72	-1600.000
221.09	492.857
221.47	1525.000
221.84	-1000.000
222.22	0.000
222.59	1425.000
222.97	-2450.000
223.34	1260.000
223.72	476.923
224.09	1280.000
224.46	2650.000
224.84	-6700.000
225.21	-1120.000
225.59	-5700.000
225.96	670.000
226.34	395.000
226.71	3100.000
227.08	775.000
227.46	600.000
227.83	-1175.000
228.21	-2350.000
228.58	633.333
228.95	-3000.000
229.33	-2450.000
229.70	1566.667
230.08	828.571
230.45	-980.000
230.82	450.000
231.20	1000.000
231.57	857.143
231.95	475.000
232.32	259.091
232.69	536.364
233.07	757.143
233.44	407.692
233.81	-2100.000
234.19	342.105
234.56	458.333
234.93	400.000
235.31	609.091
235.68	376.923
236.05	335.714
236.43	181.818
236.80	268.421
237.17	5100.000
237.55	252.381
237.92	214.286
238.29	280.952
238.67	200.000
239.04	217.241
239.41	169.444
239.79	139.130
240.16	145.238
240.53	143.182
240.91	111.765
241.28	128.000
241.65	120.000
242.02	108.696
242.40	100.000
242.77	108.333
243.14	92.473
243.51	88.764
243.89	82.353
244.26	80.000
244.63	62.366
245.00	61.702
245.38	67.327
245.75	59.813
246.12	59.633
246.49	76.642
246.87	68.000
247.24	68.462
247.61	56.429
247.98	49.020
248.36	53.378
248.73	57.325
249.10	51.592
249.47	49.153
249.84	48.663
250.22	51.872
250.59	46.746
250.96	50.505
251.33	48.341
251.70	50.990
252.08	40.000
252.45	45.291
252.82	46.522
253.19	45.106
253.56	41.176
253.94	45.228
254.31	42.187
254.68	41.154
255.05	40.959
255.42	41.870
255.79	36.029
256.16	39.711
256.54	40.283
256.91	40.569
257.28	34.532
257.65	38.944
258.02	36.335
258.39	35.647
258.76	36.120
259.14	33.929
259.51	31.307
259.88	33.851
260.25	35.347
260.62	34.393
260.99	36.646
261.36	35.736
261.73	32.665
262.10	34.012
262.47	34.930
262.85	35.097
263.22	33.048
263.59	34.188
263.96	32.418
264.33	27.937
264.70	33.421
265.07	33.504
265.44	33.838
265.81	27.981
266.18	33.920
266.55	31.463
266.92	33.661
267.29	35.185
267.66	31.422
268.03	28.182
268.40	30.607
268.77	28.878
269.14	29.955
269.51	30.700
269.88	33.566
270.25	29.120
270.62	29.213
270.99	30.538
271.36	29.828
271.73	31.308
272.10	28.261
272.47	30.108
272.84	31.385
273.21	29.560
273.58	27.729
273.95	26.834
274.32	28.926
274.69	30.193
275.06	26.378
275.43	31.064
275.80	26.653
276.17	27.291
276.54	29.106
276.91	29.644
277.28	29.102
277.65	25.725
278.02	29.193
278.39	30.273
278.76	24.727
279.13	28.491
279.50	28.492
279.87	27.490
280.23	29.142
280.60	26.499
280.97	24.214
281.34	26.549
281.71	29.636
282.08	28.023
282.45	24.727
282.82	28.774
283.19	24.064
283.56	25.789
283.92	25.550
284.29	24.868
284.66	26.316
285.03	27.125
285.40	27.289
285.77	24.916
286.14	25.216
286.51	27.167
286.87	24.957
287.24	25.896
287.61	23.596
287.98	23.864
288.35	23.455
288.72	23.520
289.08	24.257
289.45	23.558
289.82	25.041
290.19	22.920
290.56	22.971
290.93	23.716
291.29	22.239
291.66	23.156
292.03	21.366
292.40	25.110
292.77	21.893
293.13	23.134
293.50	22.886
293.87	21.926
294.24	22.370
294.60	20.378
294.97	21.948
295.34	22.990
295.71	21.591
296.08	19.373
296.44	22.283
296.81	20.740
297.18	21.951
297.55	19.393
297.91	20.580
298.28	21.954
298.65	21.149
299.02	20.290
299.38	19.389
299.75	18.059
300.12	19.923
300.48	18.250
300.85	19.112
301.22	19.618
301.59	18.434
301.95	19.647
302.32	18.485
302.69	20.550
303.05	18.545
303.42	18.395
303.79	18.233
304.15	17.716
304.52	17.845
304.89	18.931
305.25	17.285
305.62	18.460
305.99	19.717
306.35	19.463
306.72	17.825
307.09	19.201
307.45	19.032
307.82	17.411
308.19	19.757
308.55	20.065
308.92	19.764
309.29	19.219
309.65	17.497
310.02	18.499
310.38	20.108
310.75	17.635
311.12	18.219
311.48	18.913
311.85	20.021
312.22	20.499
312.58	18.711
312.95	20.063
313.31	18.350
313.68	19.231
314.05	21.992
314.41	20.201
314.78	21.652
315.14	20.953
315.51	20.700
315.87	20.396
316.24	21.251
316.61	21.442
316.97	22.114
317.34	22.603
317.70	23.901
318.07	23.677
318.43	23.777
318.80	23.805
319.16	24.859
319.53	24.578
319.89	25.524
320.26	28.100
320.62	27.381
320.99	25.758
321.35	28.889
321.72	28.850
322.08	29.615
322.45	30.746
322.81	30.329
323.18	31.118
323.54	30.519
323.91	31.415
324.27	31.836
324.64	32.153
325.00	33.904
325.37	35.305
325.73	36.086
326.10	34.510
326.46	35.215
326.83	37.274
327.19	36.550
327.56	37.631
327.92	39.458
328.29	38.953
328.65	40.147
329.01	39.621
329.38	39.963
329.74	39.982
330.11	41.847
330.47	40.955
330.84	41.268
331.20	41.985
331.56	40.826
331.93	41.389
332.29	43.567
332.66	42.566
333.02	43.236
333.38	42.909
333.75	43.494
334.11	43.683
334.48	42.946
334.84	45.588
335.20	44.636
335.57	44.334
335.93	43.661
336.29	44.689
336.66	45.266
337.02	45.068
337.38	44.352
337.75	45.365
338.11	45.837
338.47	46.593
338.84	45.555
339.20	45.138
339.56	46.989
339.93	46.273
340.29	44.928
340.65	45.098
341.02	48.342
341.38	46.975
341.74	45.263
342.11	48.559
342.47	47.577
342.83	45.634
343.20	48.139
343.56	45.830
343.92	46.930
344.28	46.854
344.65	48.581
345.01	48.316
345.37	46.998
345.73	48.731
346.10	49.787
346.46	47.881
346.82	47.694
347.19	48.789
347.55	47.619
347.91	48.625
348.27	50.781
348.63	49.080
349.00	48.867
349.36	50.575
349.72	48.356
350.08	48.947
350.45	51.505
350.81	49.959
351.17	50.081
351.53	49.386
351.89	49.340
352.26	50.118
352.62	51.163
352.98	50.648
353.34	51.767
353.70	50.818
354.07	53.065
354.43	50.714
354.79	50.523
355.15	51.397
355.51	52.918
355.87	53.388
356.24	53.094
356.60	51.484
356.96	54.545
357.32	52.821
357.68	53.150
358.04	53.444
358.40	52.732
358.77	52.426
359.13	53.039
359.49	54.196
359.85	54.286
360.21	54.864
360.57	54.864
360.93	55.769
361.29	53.666
361.66	53.096
362.02	56.716
362.38	56.122
362.74	55.580
363.10	54.700
363.46	54.659
363.82	56.689
364.18	54.699
364.54	56.389
364.90	56.020
365.26	56.324
365.62	57.414
365.98	55.734
366.35	55.659
366.71	57.122
367.07	56.591
367.43	57.402
367.79	57.245
368.15	57.687
368.51	56.686
368.87	57.816
369.23	56.035
369.59	59.015
369.95	57.206
370.31	58.832
370.67	57.464
371.03	59.101
371.39	58.673
371.75	58.015
372.11	58.250
372.47	59.971
372.83	60.303
373.19	58.454
373.55	58.832
373.91	61.340
374.27	58.557
374.63	61.236
374.99	59.887
375.35	60.363
375.71	58.944
376.07	58.368
376.42	60.523
376.78	61.696
377.14	61.398
377.50	60.993
377.86	61.104
378.22	62.073
378.58	59.336
378.94	60.905
379.30	61.005
379.66	62.690
380.02	62.531
380.38	62.295
380.74	61.104
381.09	62.408
381.45	62.200
381.81	61.241
382.17	62.675
382.53	62.893
382.89	63.951
383.25	62.664
383.61	62.701
383.97	61.476
384.32	61.759
384.68	62.949
385.04	63.184
385.40	63.529
385.76	62.776
386.12	63.795
386.48	64.821
386.83	64.913
387.19	65.306
387.55	64.007
387.91	64.450
388.27	63.151
388.62	63.983
388.98	63.943
389.34	65.144
389.70	64.010
390.06	65.019
390.42	63.813
390.77	63.677
391.13	67.007
391.49	64.150
391.85	64.418
392.20	64.353
392.56	64.710
392.92	64.979
393.28	64.911
393.64	65.647
393.99	64.325
394.35	65.447
394.71	64.366
395.07	63.614
395.42	66.687
395.78	64.249
396.14	63.873
396.50	65.789
396.85	66.434
397.21	63.687
397.57	65.220
397.92	64.543
398.28	64.238
398.64	64.815
399.00	64.969
399.35	64.749
399.71	64.352
400.07	64.873
400.42	65.215
400.78	65.682
401.14	65.122
401.49	65.254
401.85	63.884
402.21	64.491
402.57	65.022
402.92	65.448
403.28	66.146
403.63	66.213
403.99	67.389
404.35	64.909
404.70	64.149
405.06	64.123
405.42	64.379
405.77	63.829
406.13	62.810
406.49	65.760
406.84	64.206
407.20	64.362
407.55	64.263
407.91	66.200
408.27	64.901
408.62	64.419
408.98	65.564
409.34	65.621
409.69	65.032
410.05	63.507
410.40	64.648
410.76	64.516
411.11	63.993
411.47	63.323
411.83	64.020
412.18	63.760
412.54	65.006
412.89	63.313
413.25	63.164
413.60	64.793
413.96	62.963
414.31	63.244
414.67	63.752
415.03	63.377
415.38	64.691
415.74	64.309
416.09	63.880
416.45	63.922
416.80	64.508
417.16	64.611
417.51	64.366
417.87	63.263
418.22	64.858
418.58	63.848
418.93	63.943
419.29	63.399
419.64	64.736
420.00	63.171
420.35	63.304
420.71	65.152
421.06	62.888
421.42	63.509
421.77	63.397
422.12	63.223
422.48	62.169
422.83	64.648
423.19	63.536
423.54	64.364
423.90	63.362
424.25	63.317
424.61	62.321
424.96	64.023
425.31	63.898
425.67	62.191
426.02	63.657
426.38	64.652
426.73	61.791
427.09	62.553
427.44	62.392
427.79	62.450
428.15	63.036
428.50	62.902
428.85	63.409
429.21	63.004
429.56	64.541
429.92	62.255
430.27	62.463
430.62	61.290
430.98	62.065
431.33	61.082
431.68	62.304
432.04	60.596
432.39	62.650
432.74	63.435
433.10	63.214
433.45	62.857
433.80	60.532
434.16	61.165
434.51	60.526
434.86	61.345
435.22	62.424
435.57	62.492
435.92	62.376
436.28	62.456
436.63	62.969
436.98	61.878
437.34	62.194
437.69	62.835
438.04	61.720
438.39	62.149
438.75	61.941
439.10	63.408
439.45	62.338
439.81	62.538
440.16	61.434
440.51	62.156
440.86	61.841
441.22	62.625
441.57	60.828
441.92	61.617
442.27	61.841
442.63	61.243
442.98	62.085
443.33	60.326
443.68	61.332
444.03	60.322
444.39	60.321
444.74	60.714
445.09	60.377
445.44	60.525
445.79	60.020
446.15	60.244
446.50	59.774
446.85	60.534
447.20	60.887
447.55	61.753
447.91	60.838
448.26	60.100
448.61	59.751
448.96	60.244
449.31	60.405
449.66	59.820
450.02	58.774
450.37	59.864
450.72	60.462
451.07	60.024
451.42	59.453
451.77	60.247
452.12	59.700
452.47	59.266
452.83	59.441
453.18	58.985
453.53	59.988
453.88	59.008
454.23	58.876
454.58	59.782
454.93	60.331
455.28	59.850
455.63	57.828
455.98	60.536
456.34	59.925
456.69	58.673
457.04	59.628
457.39	57.861
457.74	57.400
458.09	56.929
458.44	57.241
458.79	56.996
459.14	57.788
459.49	57.910
459.84	57.175
460.19	56.276
460.54	55.613
460.89	56.116
461.24	57.013
461.59	56.595
461.94	55.795
462.29	55.964
462.64	57.754
462.99	55.953
463.34	57.467
463.69	55.847
464.04	55.884
464.39	54.261
464.74	56.031
465.09	54.885
465.44	53.850
465.79	54.251
466.14	53.311
466.49	53.226
466.84	54.349
467.19	53.651
467.54	55.125
467.89	52.821
468.24	53.287
468.59	53.724
468.94	53.024
469.29	54.884
469.64	53.748
469.99	53.383
470.34	52.840
470.68	54.526
471.03	53.265
471.38	53.857
471.73	54.231
472.08	53.816
472.43	52.513
472.78	53.127
473.13	51.990
473.48	53.246
473.83	52.561
474.17	51.898
474.52	52.295
474.87	52.481
475.22	51.248
475.57	50.564
475.92	50.451
476.27	50.789
476.61	50.855
476.96	50.467
477.31	50.340
477.66	51.258
478.01	48.562
478.36	49.498
478.70	49.117
479.05	50.053
479.40	50.205
479.75	48.551
480.10	49.503
480.45	48.406
480.79	47.778
481.14	48.483
481.49	48.410
481.84	48.148
482.19	48.205
482.53	46.789
482.88	46.580
483.23	48.411
483.58	47.771
483.92	47.282
484.27	46.536
484.62	46.552
484.97	45.723
485.31	46.130
485.66	45.944
486.01	44.049
486.36	42.072
486.70	41.837
487.05	42.918
487.40	43.003
487.75	43.428
488.09	44.313
488.44	44.129
488.79	45.244
489.13	45.111
489.48	45.473
489.83	45.274
490.17	45.375
490.52	44.287
490.87	44.369
491.22	44.793
491.56	43.417
491.91	44.346
492.26	44.006
492.60	44.332
492.95	43.499
493.30	44.065
493.64	44.517
493.99	42.943
494.34	43.154
494.68	44.322
495.03	43.186
495.37	43.136
495.72	44.298
496.07	42.877
496.41	42.212
496.76	42.524
497.11	42.548
497.45	42.944
497.80	42.562
498.14	41.836
498.49	41.854
498.84	42.138
499.18	42.381
499.53	41.975
499.87	41.845
500.22	41.875
500.56	41.990
500.91	41.635
501.26	41.299
501.60	42.335
501.95	41.567
502.29	41.846
502.64	40.829
502.98	41.374
503.33	39.305
503.67	40.789
504.02	41.347
504.36	40.384
504.71	41.133
505.06	39.904
505.40	40.982
505.75	40.068
506.09	39.261
506.44	41.293
506.78	40.331
507.13	40.535
507.47	40.505
507.82	40.274
508.16	39.970
508.51	40.842
508.85	39.424
509.19	40.204
509.54	39.847
509.88	39.258
510.23	40.051
510.57	40.712
510.92	40.031
511.26	39.209
511.61	39.782
511.95	39.196
512.30	39.024
512.64	39.871
512.98	39.711
513.33	39.882
513.67	38.367
514.02	38.961
514.36	40.033
514.70	40.011
515.05	39.766
515.39	39.652
515.74	38.457
516.08	40.190
516.42	39.401
516.77	39.242
517.11	38.513
517.46	38.995
517.80	40.128
518.14	37.753
518.49	39.207
518.83	38.182
519.17	38.857
519.52	38.031
519.86	38.220
520.20	38.902
520.55	38.719
520.89	39.781
521.23	39.505
521.58	37.635
521.92	39.130
522.26	37.645
522.61	38.069
522.95	38.920
523.29	37.675
523.64	39.146
523.98	38.447
524.32	38.179
524.66	37.282
525.01	36.887
525.35	37.980
525.69	37.007
526.04	37.570
526.38	36.730
526.72	36.687
527.06	38.669
527.41	36.510
527.75	38.328
528.09	38.343
528.43	37.922
528.78	37.308
529.12	37.091
529.46	36.681
529.80	37.067
530.15	36.449
530.49	35.692
530.83	36.013
531.17	37.467
531.51	36.965
531.86	35.871
532.20	36.767
532.54	37.668
532.88	36.521
533.22	35.290
533.57	36.235
533.91	35.039
534.25	35.784
534.59	35.326
534.93	34.860
535.27	35.365
535.62	35.531
535.96	36.409
536.30	35.728
536.64	35.737
536.98	35.169
537.32	35.155
537.66	35.000
538.01	35.352
538.35	35.617
538.69	36.056
539.03	34.698
539.37	33.419
539.71	34.284
540.05	35.163
540.39	35.150
540.73	34.411
541.07	34.912
541.42	34.768
541.76	34.645
542.10	34.023
542.44	33.245
542.78	34.453
543.12	33.781
543.46	34.361
543.80	34.548
544.14	33.376
544.48	34.222
544.82	33.740
545.16	34.092
545.50	33.612
545.84	33.804
546.18	34.209
546.52	33.586
546.86	33.746
547.20	34.862
547.54	33.534
547.88	33.992
548.22	33.375
548.56	32.830
548.90	32.458
549.24	33.872
549.58	33.697
549.92	34.066
550.26	33.807
550.60	32.365
550.94	34.085
551.28	32.480
551.62	33.357
551.96	34.035
552.30	32.969
552.64	33.807
552.98	33.627
553.32	33.581
553.66	33.742
554.00	33.425
554.34	32.298
554.68	33.763
555.02	32.934
555.36	32.289
555.69	32.138
556.03	33.176
556.37	32.606
556.71	31.378
557.05	31.933
557.39	32.400
557.73	32.745
558.07	32.922
558.41	32.562
558.75	32.182
559.08	32.886
559.42	33.409
559.76	32.500
560.10	31.406
560.44	31.027
560.78	30.872
561.12	31.860
561.45	31.877
561.79	31.839
562.13	31.858
562.47	31.489
562.81	32.357
563.15	30.569
563.48	31.167
563.82	31.507
564.16	31.197
564.50	30.404
564.84	31.226
565.17	31.145
565.51	30.927
565.85	31.345
566.19	30.870
566.52	31.159
566.86	30.561
567.20	30.778
567.54	29.623
567.88	30.092
568.21	29.788
568.55	29.272
568.89	28.940
569.23	29.234
569.56	28.138
569.90	28.038
570.24	27.808
570.57	27.610
570.91	27.214
571.25	26.930
571.59	27.128
571.92	26.959
572.26	27.210
572.60	27.508
572.93	26.687
573.27	27.359
573.61	26.857
573.95	26.770
574.28	26.407
574.62	26.725
574.96	26.547
575.29	25.970
575.63	26.499
575.97	26.269
576.30	26.102
576.64	26.030
576.98	25.936
577.31	26.248
577.65	25.950
577.98	25.513
578.32	25.397
578.66	25.430
578.99	25.725
579.33	26.095
579.67	26.003
580.00	25.725
580.34	25.581
580.67	25.597
581.01	25.973
581.35	25.649
581.68	25.572
582.02	24.891
582.35	25.118
582.69	25.488
583.02	25.131
583.36	25.847
583.70	26.099
584.03	25.522
584.37	25.982
584.70	26.123
585.04	25.807
585.37	25.233
585.71	25.188
586.04	25.103
586.38	26.045
586.72	26.043
587.05	25.401
587.39	25.567
587.72	25.663
588.06	25.480
588.39	25.898
588.73	25.697
589.06	25.709
589.40	26.364
589.73	26.540
590.07	26.121
590.40	26.160
590.73	27.166
591.07	27.066
591.40	26.655
591.74	26.667
592.07	26.614
592.41	26.623
592.74	26.217
593.08	25.883
593.41	25.435
593.75	25.265
594.08	25.210
594.41	26.052
594.75	26.174
595.08	25.948
595.42	26.410
595.75	25.997
596.09	26.173
596.42	26.798
596.75	26.593
597.09	26.883
597.42	26.012
597.75	25.959
598.09	26.130
598.42	26.074
598.76	25.780
599.09	25.466
599.42	25.291
599.76	25.329
600.09	25.719
600.42	25.931
600.76	24.857
601.09	25.173
601.42	25.647
601.76	25.465
602.09	25.257
602.42	25.756
602.76	25.998
603.09	25.649
603.42	25.771
603.76	25.762
604.09	25.087
604.42	25.479
604.76	25.728
605.09	25.950
605.42	25.780
605.75	25.414
606.09	25.092
606.42	25.664
606.75	25.715
607.09	25.031
607.42	25.802
607.75	25.190
608.08	25.011
608.42	26.042
608.75	25.203
609.08	24.746
609.41	25.607
609.75	25.107
610.08	26.484
610.41	25.745
610.74	25.828
611.07	25.593
611.41	26.251
611.74	26.546
612.07	26.398
612.40	26.338
612.73	25.263
613.07	25.054
613.40	26.330
613.73	26.114
614.06	25.376
614.39	25.328
614.72	25.842
615.06	25.420
615.39	25.690
615.72	25.153
616.05	25.678
616.38	24.792
616.71	26.425
617.05	26.207
617.38	25.857
617.71	25.946
618.04	25.962
618.37	25.843
618.70	26.945
619.03	26.974
619.36	27.020
619.69	27.042
620.03	26.923
620.36	27.139
620.69	28.082
621.02	26.844
621.35	25.998
621.68	26.791
622.01	27.477
622.34	26.853
622.67	26.920
623.00	26.339
623.33	25.447
623.66	26.805
623.99	27.614
624.32	26.462
624.65	26.130
624.99	25.708
625.32	26.647
625.65	27.648
625.98	27.440
626.31	26.750
626.64	28.490
626.97	26.683
627.30	27.431
627.63	27.728
627.96	29.605
628.29	27.297
628.62	27.905
628.95	28.208
629.28	28.650
629.61	28.598
629.94	28.476
630.26	28.313
630.59	28.122
