SpectraSuite Data File
++++++++++++++++++++++++++++++++++++
Date: Wed May 13 19:43:09 PDT 2015
User: schluterlab
Dark Spectrum Present: Yes
Reference Spectrum Present: Yes
Number of Sampled Component Spectra: 1
Spectrometers: USB2E3373
Integration Time (usec): 3000 (USB2E3373)
Spectra Averaged: 3 (USB2E3373)
Boxcar Smoothing: 0 (USB2E3373)
Correct for Electrical Dark: No (USB2E3373)
Strobe/Lamp Enabled: No (USB2E3373)
Correct for Detector Non-linearity: No (USB2E3373)
Correct for Stray Light: No (USB2E3373)
Number of Pixels in Processed Spectrum: 2048
>>>>>Begin Processed Spectral Data<<<<<
178.53	0.000
178.91	-1275.000
179.29	-1175.000
179.67	-233.333
180.04	-1325.000
180.42	2750.000
180.80	1060.000
181.18	-1175.000
181.56	671.429
181.94	0.000
182.31	-771.429
182.69	1833.333
183.07	-550.000
183.45	-533.333
183.83	600.000
184.20	-430.000
184.58	2300.000
184.96	4400.000
185.34	-880.000
185.72	-575.000
186.09	-2950.000
186.47	2600.000
186.85	2300.000
187.23	5100.000
187.61	-1900.000
187.98	1325.000
188.36	527.273
188.74	518.182
189.12	-860.000
189.49	580.000
189.87	-5600.000
190.25	-1125.000
190.63	321.429
191.00	476.923
191.38	950.000
191.76	-1075.000
192.14	1375.000
192.51	725.000
192.89	966.667
193.27	537.500
193.65	-1175.000
194.02	490.000
194.40	1080.000
194.78	570.000
195.15	475.000
195.53	610.000
195.91	-2000.000
196.29	381.250
196.66	305.263
197.04	-400.000
197.42	0.000
197.79	550.000
198.17	-4500.000
198.55	728.571
198.92	762.500
199.30	960.000
199.68	0.000
200.05	338.889
200.43	857.143
200.81	3900.000
201.18	1700.000
201.56	-1533.333
201.94	633.333
202.31	600.000
202.69	416.667
203.07	570.000
203.44	0.000
203.82	1050.000
204.19	828.571
204.57	442.857
204.95	537.500
205.32	1700.000
205.70	500.000
206.08	350.000
206.45	2800.000
206.83	387.500
207.20	1033.333
207.58	700.000
207.96	305.556
208.33	775.000
208.71	-750.000
209.08	700.000
209.46	588.889
209.84	436.364
210.21	-1600.000
210.59	1400.000
210.96	-487.500
211.34	2050.000
211.71	570.000
212.09	733.333
212.46	0.000
212.84	1766.667
213.22	1400.000
213.59	-4900.000
213.97	783.333
214.34	757.143
214.72	609.091
215.09	960.000
215.47	-2500.000
215.84	-2550.000
216.22	1633.333
216.59	335.714
216.97	1275.000
217.34	390.909
217.72	-650.000
218.09	0.000
218.47	-5400.000
218.84	633.333
219.22	642.857
219.59	1666.667
219.97	-671.429
220.34	960.000
220.72	-1533.333
221.09	414.286
221.47	1525.000
221.84	-816.667
222.22	0.000
222.59	1350.000
222.97	-2900.000
223.34	1180.000
223.72	392.308
224.09	980.000
224.46	2150.000
224.84	-5300.000
225.21	-920.000
225.59	-6200.000
225.96	540.000
226.34	265.000
226.71	2450.000
227.08	500.000
227.46	560.000
227.83	-950.000
228.21	-2000.000
228.58	622.222
228.95	-2700.000
229.33	-2300.000
229.70	1733.333
230.08	757.143
230.45	-880.000
230.82	416.667
231.20	600.000
231.57	657.143
231.95	491.667
232.32	218.182
232.69	381.818
233.07	685.714
233.44	369.231
233.81	-1566.667
234.19	231.579
234.56	450.000
234.93	358.333
235.31	500.000
235.68	376.923
236.05	328.571
236.43	181.818
236.80	247.368
237.17	4300.000
237.55	228.571
237.92	178.571
238.29	228.571
238.67	148.387
239.04	179.310
239.41	147.222
239.79	95.652
240.16	104.762
240.53	136.364
240.91	66.667
241.28	90.000
241.65	76.000
242.02	75.362
242.40	74.194
242.77	76.667
243.14	55.914
243.51	65.169
243.89	63.529
244.26	46.667
244.63	49.462
245.00	47.872
245.38	50.495
245.75	42.991
246.12	33.028
246.49	44.526
246.87	47.200
247.24	41.538
247.61	33.571
247.98	29.412
248.36	29.054
248.73	34.395
249.10	37.580
249.47	29.379
249.84	33.690
250.22	27.807
250.59	25.444
250.96	27.778
251.33	27.488
251.70	28.713
252.08	22.381
252.45	22.422
252.82	25.217
253.19	23.404
253.56	21.569
253.94	19.087
254.31	19.922
254.68	24.231
255.05	19.926
255.42	18.293
255.79	19.853
256.16	23.105
256.54	16.254
256.91	22.420
257.28	14.748
257.65	16.172
258.02	18.012
258.39	17.035
258.76	15.385
259.14	17.857
259.51	13.982
259.88	15.217
260.25	18.731
260.62	16.185
260.99	12.112
261.36	16.517
261.73	13.467
262.10	15.116
262.47	14.648
262.85	15.320
263.22	11.396
263.59	16.239
263.96	14.011
264.33	12.794
264.70	14.211
265.07	16.368
265.44	12.626
265.81	12.895
266.18	15.075
266.55	11.463
266.92	14.005
267.29	15.046
267.66	13.761
268.03	12.045
268.40	12.150
268.77	9.069
269.14	11.937
269.51	13.995
269.88	10.723
270.25	12.415
270.62	11.011
270.99	12.473
271.36	11.159
271.73	10.514
272.10	13.696
272.47	9.247
272.84	13.636
273.21	14.885
273.58	10.917
273.95	9.853
274.32	10.537
274.69	11.135
275.06	9.449
275.43	11.702
275.80	9.419
276.17	10.591
276.54	12.266
276.91	11.858
277.28	10.938
277.65	12.186
278.02	8.282
278.39	12.305
278.76	10.182
279.13	11.887
279.50	11.732
279.87	8.566
280.23	8.782
280.60	8.897
280.97	8.872
281.34	10.088
281.71	11.091
282.08	10.173
282.45	9.091
282.82	9.414
283.19	7.665
283.56	7.544
283.92	9.137
284.29	10.229
284.66	10.345
285.03	9.584
285.40	7.746
285.77	8.754
286.14	9.326
286.51	10.000
286.87	10.769
287.24	9.609
287.61	9.149
287.98	9.253
288.35	6.815
288.72	9.034
289.08	9.390
289.45	9.061
289.82	9.268
290.19	7.221
290.56	8.116
290.93	6.949
291.29	7.515
291.66	7.375
292.03	9.884
292.40	9.545
292.77	8.284
293.13	8.955
293.50	7.872
293.87	7.852
294.24	7.111
294.60	6.696
294.97	6.831
295.34	9.309
295.71	8.949
296.08	7.692
296.44	7.840
296.81	7.001
297.18	9.079
297.55	5.277
297.91	7.124
298.28	7.764
298.65	7.833
299.02	7.773
299.38	5.710
299.75	5.256
300.12	5.875
300.48	7.250
300.85	7.028
301.22	6.115
301.59	6.692
301.95	7.557
302.32	7.317
302.69	6.093
303.05	6.182
303.42	6.173
303.79	6.569
304.15	4.429
304.52	5.562
304.89	6.504
305.25	6.032
305.62	6.908
305.99	6.257
306.35	5.928
306.72	6.054
307.09	6.548
307.45	6.532
307.82	4.799
308.19	6.954
308.55	5.717
308.92	6.122
309.29	5.385
309.65	5.726
310.02	5.920
310.38	5.806
310.75	6.019
311.12	6.346
311.48	7.315
311.85	6.289
312.22	6.243
312.58	4.886
312.95	7.075
313.31	4.660
313.68	5.925
314.05	7.495
314.41	6.231
314.78	6.344
315.14	6.256
315.51	6.694
315.87	6.535
316.24	5.660
316.61	6.043
316.97	5.871
317.34	4.990
317.70	6.310
318.07	5.486
318.43	6.067
318.80	6.748
319.16	6.685
319.53	5.910
319.89	7.333
320.26	7.000
320.62	6.548
320.99	6.869
321.35	6.566
321.72	6.982
322.08	6.713
322.45	7.164
322.81	6.105
323.18	6.840
323.54	7.050
323.91	7.358
324.27	6.405
324.64	5.592
325.00	6.492
325.37	6.915
325.73	7.989
326.10	6.531
326.46	6.183
326.83	7.248
327.19	5.892
327.56	4.878
327.92	6.474
328.29	7.276
328.65	6.354
329.01	7.130
329.38	6.198
329.74	6.464
330.11	6.975
330.47	7.713
330.84	8.915
331.20	6.375
331.56	6.422
331.93	6.852
332.29	5.945
332.66	7.345
333.02	7.313
333.38	6.323
333.75	7.308
334.11	7.829
334.48	7.010
334.84	7.169
335.20	7.273
335.57	7.253
335.93	4.821
336.29	6.502
336.66	7.033
337.02	5.701
337.38	6.667
337.75	6.239
338.11	7.073
338.47	5.249
338.84	6.874
339.20	6.239
339.56	7.482
339.93	5.273
340.29	5.888
340.65	6.328
341.02	6.108
341.38	6.673
341.74	5.702
342.11	6.288
342.47	5.815
342.83	6.250
343.20	7.186
343.56	6.655
343.92	6.404
344.28	6.633
344.65	6.879
345.01	6.650
345.37	5.660
345.73	6.261
346.10	6.053
346.46	7.373
346.82	6.178
347.19	5.514
347.55	5.829
347.91	5.987
348.27	6.656
348.63	5.769
349.00	5.663
349.36	5.747
349.72	6.816
350.08	6.240
350.45	6.753
350.81	5.280
351.17	6.078
351.53	5.160
351.89	5.446
352.26	6.393
352.62	6.095
352.98	5.916
353.34	5.341
353.70	4.992
354.07	5.887
354.43	5.794
354.79	6.114
355.15	5.587
355.51	6.475
355.87	5.469
356.24	6.678
356.60	5.052
356.96	5.953
357.32	6.214
357.68	6.063
358.04	6.651
358.40	6.730
358.77	5.634
359.13	5.367
359.49	6.118
359.85	4.603
360.21	4.944
360.57	5.759
360.93	5.846
361.29	5.896
361.66	4.876
362.02	5.448
362.38	4.943
362.74	6.027
363.10	5.107
363.46	4.842
363.82	5.593
364.18	6.314
364.54	5.795
364.90	5.666
365.26	4.485
365.62	4.383
365.98	5.332
366.35	4.943
366.71	5.785
367.07	4.807
367.43	4.862
367.79	5.139
368.15	6.537
368.51	4.433
368.87	5.139
369.23	4.901
369.59	5.648
369.95	4.853
370.31	5.556
370.67	5.072
371.03	5.618
371.39	5.539
371.75	4.926
372.11	5.050
372.47	5.059
372.83	5.692
373.19	4.697
373.55	4.952
373.91	6.333
374.27	4.467
374.63	5.091
374.99	5.367
375.35	4.466
375.71	4.181
376.07	5.967
376.42	4.677
376.78	6.362
377.14	5.292
377.50	5.298
377.86	4.588
378.22	4.804
378.58	4.449
378.94	4.651
379.30	4.071
379.66	4.695
380.02	4.607
380.38	4.614
380.74	4.622
381.09	5.257
381.45	5.101
381.81	5.098
382.17	4.713
382.53	4.780
382.89	4.815
383.25	4.440
383.61	4.833
383.97	4.941
384.32	4.991
384.68	4.151
385.04	4.487
385.40	4.768
385.76	4.853
386.12	4.793
386.48	4.405
386.83	4.618
387.19	4.886
387.55	5.257
387.91	4.293
388.27	4.476
388.62	5.286
388.98	4.361
389.34	5.069
389.70	4.537
390.06	4.880
390.42	4.799
390.77	5.280
391.13	3.701
391.49	5.076
391.85	4.328
392.20	4.290
392.56	4.482
392.92	4.591
393.28	3.491
393.64	4.916
393.99	4.704
394.35	3.970
394.71	4.956
395.07	5.047
395.42	4.388
395.78	4.453
396.14	5.028
396.50	4.950
396.85	4.259
397.21	4.192
397.57	4.588
397.92	4.387
398.28	3.643
398.64	4.779
399.00	4.421
399.35	4.174
399.71	4.225
400.07	5.322
400.42	5.031
400.78	4.704
401.14	4.207
401.49	4.179
401.85	3.932
402.21	3.832
402.57	4.010
402.92	4.540
403.28	4.560
403.63	4.455
403.99	3.567
404.35	4.788
404.70	4.317
405.06	4.368
405.42	4.679
405.77	3.543
406.13	4.007
406.49	5.204
406.84	4.962
407.20	4.137
407.55	5.169
407.91	4.533
408.27	3.957
408.62	4.515
408.98	4.350
409.34	4.613
409.69	4.710
410.05	4.337
410.40	4.465
410.76	3.584
411.11	4.946
411.47	5.048
411.83	4.582
412.18	4.576
412.54	4.545
412.89	4.880
413.25	4.427
413.60	4.818
413.96	4.797
414.31	4.070
414.67	5.133
415.03	4.503
415.38	5.541
415.74	4.695
416.09	5.095
416.45	4.552
416.80	4.825
417.16	5.764
417.51	5.574
417.87	4.496
418.22	4.732
418.58	5.617
418.93	4.914
419.29	4.774
419.64	5.479
420.00	5.061
420.35	4.870
420.71	4.961
421.06	4.833
421.42	4.795
421.77	5.157
422.12	4.492
422.48	3.508
422.83	5.067
423.19	5.249
423.54	4.643
423.90	5.391
424.25	4.969
424.61	4.762
424.96	4.490
425.31	5.260
425.67	4.607
426.02	4.857
426.38	5.067
426.73	5.091
427.09	4.134
427.44	4.313
427.79	4.083
428.15	5.179
428.50	5.032
428.85	5.244
429.21	4.197
429.56	4.562
429.92	4.227
430.27	4.816
430.62	3.943
430.98	4.878
431.33	4.794
431.68	4.921
432.04	4.366
432.39	4.340
432.74	5.147
433.10	4.131
433.45	4.373
433.80	3.991
434.16	4.861
434.51	4.737
434.86	5.017
435.22	4.503
435.57	5.350
435.92	4.154
436.28	4.567
436.63	5.519
436.98	4.694
437.34	5.367
437.69	5.018
438.04	4.497
438.39	4.836
438.75	4.939
439.10	4.693
439.45	5.372
439.81	4.834
440.16	4.235
440.51	5.331
440.86	5.096
441.22	5.061
441.57	4.830
441.92	4.657
442.27	4.736
442.63	4.423
442.98	5.972
443.33	4.891
443.68	4.543
444.03	4.636
444.39	3.213
444.74	5.141
445.09	4.582
445.44	4.538
445.79	4.503
446.15	5.188
446.50	4.254
446.85	4.573
447.20	4.946
447.55	4.858
447.91	4.413
448.26	4.897
448.61	4.748
448.96	5.869
449.31	5.231
449.66	4.783
450.02	4.958
450.37	4.989
450.72	4.569
451.07	3.900
451.42	4.498
451.77	5.813
452.12	4.850
452.47	5.224
452.83	5.012
453.18	5.318
453.53	5.442
453.88	4.194
454.23	5.021
454.58	5.754
454.93	5.594
455.28	4.676
455.63	5.340
455.98	5.298
456.34	5.025
456.69	5.886
457.04	4.706
457.39	4.500
457.74	4.875
458.09	5.405
458.44	5.188
458.79	5.260
459.14	4.289
459.49	5.079
459.84	4.986
460.19	4.478
460.54	5.266
460.89	4.279
461.24	5.282
461.59	5.869
461.94	4.747
462.29	6.231
462.64	5.552
462.99	4.945
463.34	5.933
463.69	4.878
464.04	5.507
464.39	5.333
464.74	5.051
465.09	5.066
465.44	4.377
465.79	4.922
466.14	5.255
466.49	5.006
466.84	4.962
467.19	5.673
467.54	5.812
467.89	5.822
468.24	5.701
468.59	5.067
468.94	4.704
469.29	4.949
469.64	6.493
469.99	5.480
470.34	5.020
470.68	4.670
471.03	4.830
471.38	5.351
471.73	5.663
472.08	5.526
472.43	6.533
472.78	5.530
473.13	5.712
473.48	5.431
473.83	5.549
474.17	4.605
474.52	4.839
474.87	5.779
475.22	5.107
475.57	4.782
475.92	4.673
476.27	5.073
476.61	4.688
476.96	5.003
477.31	4.553
477.66	5.088
478.01	4.705
478.36	5.235
478.70	4.309
479.05	5.272
479.40	4.401
479.75	5.084
480.10	4.423
480.45	4.331
480.79	4.252
481.14	4.843
481.49	4.699
481.84	4.481
482.19	4.362
482.53	4.817
482.88	4.700
483.23	4.486
483.58	5.005
483.92	4.592
484.27	4.401
484.62	4.310
484.97	4.099
485.31	4.075
485.66	2.974
486.01	2.874
486.36	2.917
486.70	2.782
487.05	3.383
487.40	3.473
487.75	3.450
488.09	3.336
488.44	3.202
488.79	3.761
489.13	4.163
489.48	4.201
489.83	3.582
490.17	4.340
490.52	4.296
490.87	3.935
491.22	4.593
491.56	3.690
491.91	4.188
492.26	4.364
492.60	4.931
492.95	4.116
493.30	3.972
493.64	4.153
493.99	4.643
494.34	4.209
494.68	4.487
495.03	4.652
495.37	4.421
495.72	4.337
496.07	4.687
496.41	4.115
496.76	4.529
497.11	4.232
497.45	4.518
497.80	4.798
498.14	4.155
498.49	4.146
498.84	4.842
499.18	4.476
499.53	4.416
499.87	4.194
500.22	4.757
500.56	5.000
500.91	3.942
501.26	4.884
501.60	4.888
501.95	4.308
502.29	4.311
502.64	4.749
502.98	4.021
503.33	4.616
503.67	4.687
504.02	4.724
504.36	4.773
504.71	4.739
505.06	4.482
505.40	4.764
505.75	4.822
506.09	4.616
506.44	4.539
506.78	4.822
507.13	4.240
507.47	5.101
507.82	4.813
508.16	5.117
508.51	4.566
508.85	4.667
509.19	3.878
509.54	5.204
509.88	4.740
510.23	4.730
510.57	5.366
510.92	4.713
511.26	4.779
511.61	4.772
511.95	4.384
512.30	4.189
512.64	4.567
512.98	4.502
513.33	5.193
513.67	4.589
514.02	4.924
514.36	5.298
514.70	5.313
515.05	4.741
515.39	5.440
515.74	5.011
516.08	4.863
516.42	5.494
516.77	5.240
517.11	4.828
517.46	5.926
517.80	5.168
518.14	4.053
518.49	5.134
518.83	5.795
519.17	5.254
519.52	4.924
519.86	4.963
520.20	5.780
520.55	4.967
520.89	5.474
521.23	5.850
521.58	5.222
521.92	5.511
522.26	5.552
522.61	4.798
522.95	5.525
523.29	5.417
523.64	5.793
523.98	5.545
524.32	5.489
524.66	6.013
525.01	5.944
525.35	5.452
525.69	4.988
526.04	5.607
526.38	5.003
526.72	5.337
527.06	5.524
527.41	4.332
527.75	5.273
528.09	6.166
528.43	6.246
528.78	5.962
529.12	5.394
529.46	5.389
529.80	5.507
530.15	6.417
530.49	5.538
530.83	6.139
531.17	5.548
531.51	6.615
531.86	6.065
532.20	6.323
532.54	6.086
532.88	6.033
533.22	5.621
533.57	6.481
533.91	5.238
534.25	5.772
534.59	5.796
534.93	6.127
535.27	5.492
535.62	6.105
535.96	5.650
536.30	5.086
536.64	5.860
536.98	6.304
537.32	6.452
537.66	6.267
538.01	6.320
538.35	6.076
538.69	6.637
539.03	5.783
539.37	5.304
539.71	4.990
540.05	5.621
540.39	5.316
540.73	6.339
541.07	6.684
541.42	6.197
541.76	6.129
542.10	6.080
542.44	5.497
542.78	6.324
543.12	5.758
543.46	6.820
543.80	6.181
544.14	5.712
544.48	5.651
544.82	6.030
545.16	6.051
545.50	6.234
545.84	5.376
546.18	6.195
546.52	6.056
546.86	5.911
547.20	6.406
547.54	5.544
547.88	7.398
548.22	5.853
548.56	5.975
548.90	5.506
549.24	5.455
549.58	6.480
549.92	5.220
550.26	5.753
550.60	6.293
550.94	5.423
551.28	5.194
551.62	6.686
551.96	5.754
552.30	6.553
552.64	5.747
552.98	6.576
553.32	6.204
553.66	6.544
554.00	6.658
554.34	5.935
554.68	6.724
555.02	5.853
555.36	6.472
555.69	6.022
556.03	5.855
556.37	6.003
556.71	5.935
557.05	6.793
557.39	6.438
557.73	6.210
558.07	6.019
558.41	5.716
558.75	6.172
559.08	6.413
559.42	6.122
559.76	6.765
560.10	5.996
560.44	6.010
560.78	5.921
561.12	5.541
561.45	6.845
561.79	6.131
562.13	6.506
562.47	5.943
562.81	6.346
563.15	6.154
563.48	6.034
563.82	6.001
564.16	5.755
564.50	5.013
564.84	5.436
565.17	5.212
565.51	5.240
565.85	5.774
566.19	5.448
566.52	5.636
566.86	5.063
567.20	6.486
567.54	5.708
567.88	4.889
568.21	5.344
568.55	4.904
568.89	4.718
569.23	4.724
569.56	4.453
569.90	4.415
570.24	4.377
570.57	4.352
570.91	3.943
571.25	4.015
571.59	4.183
571.92	3.888
572.26	4.015
572.60	3.784
572.93	3.988
573.27	3.845
573.61	4.271
573.95	3.824
574.28	3.693
574.62	3.547
574.96	3.632
575.29	3.540
575.63	3.989
575.97	3.775
576.30	4.116
576.64	3.437
576.98	3.549
577.31	2.981
577.65	3.431
577.98	3.337
578.32	3.356
578.66	3.564
578.99	3.629
579.33	3.316
579.67	3.284
580.00	3.500
580.34	3.654
580.67	3.545
581.01	4.025
581.35	3.457
581.68	3.422
582.02	3.218
582.35	3.110
582.69	3.373
583.02	3.411
583.36	3.505
583.70	3.746
584.03	3.501
584.37	3.742
584.70	3.474
585.04	3.816
585.37	3.705
585.71	3.665
586.04	3.914
586.38	3.605
586.72	4.198
587.05	3.749
587.39	3.641
587.72	3.556
588.06	3.762
588.39	4.115
588.73	4.165
589.06	3.833
589.40	4.040
589.73	3.977
590.07	4.448
590.40	4.311
590.73	4.059
591.07	4.314
591.40	5.061
591.74	4.892
592.07	4.538
592.41	4.299
592.74	4.157
593.08	4.197
593.41	4.049
593.75	4.060
594.08	4.123
594.41	4.489
594.75	3.956
595.08	4.188
595.42	4.378
595.75	4.380
596.09	4.243
596.42	4.676
596.75	4.432
597.09	5.455
597.42	4.216
597.75	4.916
598.09	4.696
598.42	4.639
598.76	4.297
599.09	3.991
599.42	4.330
599.76	4.319
600.09	4.153
600.42	4.492
600.76	3.929
601.09	4.372
601.42	4.148
601.76	4.364
602.09	4.032
602.42	4.936
602.76	5.159
603.09	4.327
603.42	4.529
603.76	4.268
604.09	4.265
604.42	4.117
604.76	4.935
605.09	4.543
605.42	4.831
605.75	4.470
606.09	4.392
606.42	4.046
606.75	4.770
607.09	4.981
607.42	3.937
607.75	4.262
608.08	4.255
608.42	4.572
608.75	4.689
609.08	4.302
609.41	5.664
609.75	4.002
610.08	4.665
610.41	4.376
610.74	4.021
611.07	4.150
611.41	5.103
611.74	5.279
612.07	5.021
612.40	5.194
612.73	4.526
613.07	5.065
613.40	4.897
613.73	4.195
614.06	4.731
614.39	4.877
614.72	5.263
615.06	5.200
615.39	4.406
615.72	5.419
616.05	4.891
616.38	5.336
616.71	5.226
617.05	5.654
617.38	5.352
617.71	5.165
618.04	5.108
618.37	5.381
618.70	5.165
619.03	5.329
619.36	5.635
619.69	6.197
620.03	6.937
620.36	6.484
620.69	5.822
621.02	6.785
621.35	6.265
621.68	5.919
622.01	6.502
622.34	6.581
622.67	6.084
623.00	5.723
623.33	5.790
623.66	6.576
623.99	5.302
624.32	5.849
624.65	6.921
624.99	5.312
625.32	5.503
625.65	6.086
625.98	6.457
626.31	6.921
626.64	7.510
626.97	6.068
627.30	6.318
627.63	7.875
627.96	6.897
628.29	7.174
628.62	6.862
628.95	8.585
629.28	7.026
629.61	7.608
629.94	6.476
630.26	7.150
630.59	7.531
630.92	7.184
631.25	6.219
631.58	7.207
631.91	6.897
632.24	7.173
632.57	7.555
632.90	6.908
633.23	8.277
633.56	8.927
633.89	7.701
634.22	7.605
634.55	7.929
634.88	7.665
635.20	8.722
635.53	9.518
635.86	8.416
636.19	8.118
636.52	8.420
636.85	8.820
637.18	7.719
637.51	8.629
637.83	6.412
638.16	8.312
638.49	8.690
638.82	9.355
639.15	8.125
639.48	10.349
639.81	9.115
640.13	8.984
640.46	9.933
640.79	8.851
641.12	7.840
641.45	10.335
641.77	8.984
642.10	9.064
642.43	8.559
642.76	9.598
643.09	9.509
643.41	8.194
643.74	9.568
644.07	9.146
644.40	11.350
644.73	11.969
645.05	12.995
645.38	9.479
645.71	10.950
646.04	11.296
646.36	11.185
646.69	12.709
647.02	10.034
647.35	10.653
647.67	9.735
648.00	12.195
648.33	9.901
648.66	9.697
648.98	10.945
649.31	7.922
649.64	10.164
649.96	9.091
650.29	10.111
650.62	9.061
650.94	10.373
651.27	10.473
651.60	12.646
651.92	11.821
652.25	11.075
652.58	10.748
652.90	10.427
653.23	8.937
653.56	8.819
653.88	10.777
