SpectraSuite Data File
++++++++++++++++++++++++++++++++++++
Date: Wed May 13 19:29:22 PDT 2015
User: schluterlab
Dark Spectrum Present: Yes
Reference Spectrum Present: Yes
Number of Sampled Component Spectra: 1
Spectrometers: USB2E3373
Integration Time (usec): 3000 (USB2E3373)
Spectra Averaged: 3 (USB2E3373)
Boxcar Smoothing: 0 (USB2E3373)
Correct for Electrical Dark: No (USB2E3373)
Strobe/Lamp Enabled: No (USB2E3373)
Correct for Detector Non-linearity: No (USB2E3373)
Correct for Stray Light: No (USB2E3373)
Number of Pixels in Processed Spectrum: 2048
>>>>>Begin Processed Spectral Data<<<<<
178.53	0.000
178.91	-1475.000
179.29	-1525.000
179.67	-227.778
180.04	-1425.000
180.42	2950.000
180.80	1200.000
181.18	-1275.000
181.56	728.571
181.94	0.000
182.31	-728.571
182.69	1866.667
183.07	-587.500
183.45	-500.000
183.83	572.727
184.20	-420.000
184.58	2450.000
184.96	5500.000
185.34	-980.000
185.72	-575.000
186.09	-2200.000
186.47	2900.000
186.85	2200.000
187.23	4800.000
187.61	-1766.667
187.98	1200.000
188.36	581.818
188.74	481.818
189.12	-1040.000
189.49	620.000
189.87	-5500.000
190.25	-1425.000
190.63	521.429
191.00	500.000
191.38	900.000
191.76	-1200.000
192.14	1275.000
192.51	612.500
192.89	1016.667
193.27	512.500
193.65	-1300.000
194.02	560.000
194.40	1040.000
194.78	590.000
195.15	541.667
195.53	650.000
195.91	-2100.000
196.29	337.500
196.66	300.000
197.04	-420.000
197.42	0.000
197.79	680.000
198.17	-4600.000
198.55	771.429
198.92	812.500
199.30	980.000
199.68	0.000
200.05	322.222
200.43	742.857
200.81	5700.000
201.18	1633.333
201.56	-1433.333
201.94	755.556
202.31	555.556
202.69	458.333
203.07	550.000
203.44	0.000
203.82	1275.000
204.19	771.429
204.57	500.000
204.95	637.500
205.32	1900.000
205.70	527.273
206.08	392.857
206.45	2550.000
206.83	306.250
207.20	966.667
207.58	700.000
207.96	377.778
208.33	712.500
208.71	-983.333
209.08	771.429
209.46	655.556
209.84	536.364
210.21	-1666.667
210.59	1375.000
210.96	-587.500
211.34	3000.000
211.71	650.000
212.09	766.667
212.46	0.000
212.84	1800.000
213.22	1225.000
213.59	-5200.000
213.97	916.667
214.34	900.000
214.72	600.000
215.09	1160.000
215.47	-2700.000
215.84	-2400.000
216.22	2000.000
216.59	378.571
216.97	1250.000
217.34	427.273
217.72	-716.667
218.09	0.000
218.47	-4900.000
218.84	588.889
219.22	914.286
219.59	1633.333
219.97	-600.000
220.34	1120.000
220.72	-1766.667
221.09	407.143
221.47	1350.000
221.84	-966.667
222.22	0.000
222.59	1350.000
222.97	-2600.000
223.34	1260.000
223.72	492.308
224.09	1040.000
224.46	2400.000
224.84	-5000.000
225.21	-1040.000
225.59	-4400.000
225.96	660.000
226.34	280.000
226.71	3000.000
227.08	725.000
227.46	540.000
227.83	-1225.000
228.21	-2250.000
228.58	611.111
228.95	-2250.000
229.33	-2200.000
229.70	1766.667
230.08	857.143
230.45	-960.000
230.82	458.333
231.20	900.000
231.57	842.857
231.95	508.333
232.32	263.636
232.69	409.091
233.07	628.571
233.44	407.692
233.81	-1933.333
234.19	315.789
234.56	558.333
234.93	383.333
235.31	590.909
235.68	446.154
236.05	421.429
236.43	196.970
236.80	289.474
237.17	6000.000
237.55	266.667
237.92	253.571
238.29	295.238
238.67	206.452
239.04	220.690
239.41	177.778
239.79	130.435
240.16	166.667
240.53	134.091
240.91	119.608
241.28	132.000
241.65	130.000
242.02	118.841
242.40	108.065
242.77	121.667
243.14	103.226
243.51	102.247
243.89	96.471
244.26	95.556
244.63	88.172
245.00	82.979
245.38	89.109
245.75	82.243
246.12	73.394
246.49	82.482
246.87	89.600
247.24	86.923
247.61	75.714
247.98	76.471
248.36	70.270
248.73	76.433
249.10	78.344
249.47	70.621
249.84	70.588
250.22	63.102
250.59	71.598
250.96	66.667
251.33	66.351
251.70	61.881
252.08	64.286
252.45	59.193
252.82	62.609
253.19	62.128
253.56	61.176
253.94	57.676
254.31	60.547
254.68	58.846
255.05	58.303
255.42	54.472
255.79	61.397
256.16	62.455
256.54	52.297
256.91	59.786
257.28	54.676
257.65	53.465
258.02	56.832
258.39	56.467
258.76	53.512
259.14	55.060
259.51	54.103
259.88	51.553
260.25	55.891
260.62	51.734
260.99	54.658
261.36	53.754
261.73	50.143
262.10	52.907
262.47	54.366
262.85	50.139
263.22	49.573
263.59	54.701
263.96	50.824
264.33	51.697
264.70	50.263
265.07	48.082
265.44	50.758
265.81	49.148
266.18	51.005
266.55	51.951
266.92	50.369
267.29	48.380
267.66	50.229
268.03	48.636
268.40	47.664
268.77	48.210
269.14	47.297
269.51	47.630
269.88	48.718
270.25	48.081
270.62	48.764
270.99	49.892
271.36	47.854
271.73	47.430
272.10	47.826
272.47	50.968
272.84	46.970
273.21	48.847
273.58	45.852
273.95	45.493
274.32	45.868
274.69	46.467
275.06	45.276
275.43	47.021
275.80	44.289
276.17	48.880
276.54	49.688
276.91	46.640
277.28	44.922
277.65	48.936
278.02	47.619
278.39	46.094
278.76	45.091
279.13	43.962
279.50	45.065
279.87	43.426
280.23	46.307
280.60	47.582
280.97	45.656
281.34	46.549
281.71	44.182
282.08	46.641
282.45	41.818
282.82	45.115
283.19	41.176
283.56	44.737
283.92	43.993
284.29	44.092
284.66	44.646
285.03	43.400
285.40	45.246
285.77	43.603
286.14	41.796
286.51	44.667
286.87	43.761
287.24	40.717
287.61	42.215
287.98	41.721
288.35	39.461
288.72	40.187
289.08	40.532
289.45	40.692
289.82	40.325
290.19	39.560
290.56	39.663
290.93	37.613
291.29	39.264
291.66	38.201
292.03	43.314
292.40	38.620
292.77	36.686
293.13	37.612
293.50	38.921
293.87	37.630
294.24	35.111
294.60	36.245
294.97	37.209
295.34	37.094
295.71	37.642
296.08	36.040
296.44	36.451
296.81	34.742
297.18	37.940
297.55	33.905
297.91	35.488
298.28	36.546
298.65	36.031
299.02	34.256
299.38	35.458
299.75	31.671
300.12	33.716
300.48	34.250
300.85	31.689
301.22	33.121
301.59	32.702
301.95	32.494
302.32	34.403
302.69	33.811
303.05	32.000
303.42	32.469
303.79	32.390
304.15	32.751
304.52	30.939
304.89	33.682
305.25	30.626
305.62	31.484
305.99	33.766
306.35	31.991
306.72	32.511
307.09	32.297
307.45	34.009
307.82	31.696
308.19	33.885
308.55	31.499
308.92	32.760
309.29	30.306
309.65	31.389
310.02	31.818
310.38	32.258
310.75	31.996
311.12	31.013
311.48	31.661
311.85	32.809
312.22	33.299
312.58	31.705
312.95	32.313
313.31	30.485
313.68	32.225
314.05	33.333
314.41	32.764
314.78	32.427
315.14	33.366
315.51	33.986
315.87	32.475
316.24	33.267
316.61	34.308
316.97	33.659
317.34	34.638
317.70	33.748
318.07	35.515
318.43	36.399
318.80	36.457
319.16	37.382
319.53	36.023
319.89	38.000
320.26	39.700
320.62	36.706
320.99	38.889
321.35	39.899
321.72	41.376
322.08	42.152
322.45	43.284
322.81	43.411
323.18	43.160
323.54	43.692
323.91	44.811
324.27	45.602
324.64	45.760
325.00	46.889
325.37	49.318
325.73	50.269
326.10	49.603
326.46	49.642
326.83	50.992
327.19	52.348
327.56	52.178
327.92	53.893
328.29	55.989
328.65	55.709
329.01	56.588
329.38	57.817
329.74	56.417
330.11	59.001
330.47	58.861
330.84	59.467
331.20	58.925
331.56	59.174
331.93	61.481
332.29	59.450
332.66	60.265
333.02	59.506
333.38	61.608
333.75	60.873
334.11	60.765
334.48	61.224
334.84	63.235
335.20	62.727
335.57	62.647
335.93	62.857
336.29	64.744
336.66	61.948
337.02	62.353
337.38	63.889
337.75	62.656
338.11	63.474
338.47	64.549
338.84	64.803
339.20	64.128
339.56	64.964
339.93	64.727
340.29	65.670
340.65	64.706
341.02	64.223
341.38	66.103
341.74	65.877
342.11	64.017
342.47	65.286
342.83	63.014
343.20	64.156
343.56	63.943
343.92	64.825
344.28	65.136
344.65	64.918
345.01	62.795
345.37	65.094
345.73	64.467
346.10	64.706
346.46	65.254
346.82	64.498
347.19	64.829
347.55	64.614
347.91	64.725
348.27	65.571
348.63	65.886
349.00	64.725
349.36	64.614
349.72	64.154
350.08	63.614
350.45	66.151
350.81	64.175
351.17	65.802
351.53	65.274
351.89	65.099
352.26	66.535
352.62	66.159
352.98	64.911
353.34	65.407
353.70	64.648
354.07	65.484
354.43	63.968
354.79	65.487
355.15	65.443
355.51	67.386
355.87	67.102
356.24	66.124
356.60	64.876
356.96	67.015
357.32	65.249
357.68	65.276
358.04	65.637
358.40	65.796
358.77	65.023
359.13	66.693
359.49	64.941
359.85	66.111
360.21	66.268
360.57	66.148
360.93	67.692
361.29	65.835
361.66	65.712
362.02	65.075
362.38	66.996
362.74	67.039
363.10	64.397
363.46	66.104
363.82	67.800
364.18	66.153
364.54	65.899
364.90	67.705
365.26	68.088
365.62	67.933
365.98	65.888
366.35	64.685
366.71	65.293
367.07	66.570
367.43	67.707
367.79	68.308
368.15	67.529
368.51	66.715
368.87	67.666
369.23	66.569
369.59	68.211
369.95	67.941
370.31	66.809
370.67	66.087
371.03	67.715
371.39	69.096
371.75	67.868
372.11	67.212
372.47	68.622
372.83	68.156
373.19	67.486
373.55	67.775
373.91	68.630
374.27	66.804
374.63	69.164
374.99	68.362
375.35	66.853
375.71	66.964
376.07	68.999
376.42	70.151
376.78	67.462
377.14	69.403
377.50	68.940
377.86	67.886
378.22	67.699
378.58	66.855
378.94	68.510
379.30	67.875
379.66	69.416
380.02	67.752
380.38	67.881
380.74	68.487
381.09	68.826
381.45	68.531
381.81	68.428
382.17	68.726
382.53	68.302
382.89	68.889
383.25	68.981
383.61	70.694
383.97	67.605
384.32	68.497
384.68	67.968
385.04	68.654
385.40	68.545
385.76	69.165
386.12	69.430
386.48	69.604
386.83	71.071
387.19	70.501
387.55	69.017
387.91	70.012
388.27	69.344
388.62	69.514
388.98	68.305
389.34	69.462
389.70	68.056
390.06	69.645
390.42	70.752
390.77	70.165
391.13	69.304
391.49	69.860
391.85	67.218
392.20	68.707
392.56	71.212
392.92	68.864
393.28	68.225
393.64	70.743
393.99	68.296
394.35	70.347
394.71	68.068
395.07	69.097
395.42	70.705
395.78	68.893
396.14	70.205
396.50	69.298
396.85	69.358
397.21	67.879
397.57	68.444
397.92	69.952
398.28	68.274
398.64	69.235
399.00	67.543
399.35	68.754
399.71	67.766
400.07	68.658
400.42	70.000
400.78	70.084
401.14	68.537
401.49	68.716
401.85	67.514
402.21	67.605
402.57	68.600
402.92	68.600
403.28	70.081
403.63	68.564
403.99	68.599
404.35	68.909
404.70	68.825
405.06	68.666
405.42	67.810
405.77	67.829
406.13	67.664
406.49	68.185
406.84	66.864
407.20	66.667
407.55	68.283
407.91	69.933
408.27	70.070
408.62	68.092
408.98	68.321
409.34	69.311
409.69	69.548
410.05	68.401
410.40	68.502
410.76	67.981
411.11	68.215
411.47	68.626
411.83	67.196
412.18	67.656
412.54	67.435
412.89	67.108
413.25	66.352
413.60	66.893
413.96	67.577
414.31	67.132
414.67	67.427
415.03	67.947
415.38	67.397
415.74	68.232
416.09	69.562
416.45	68.541
416.80	69.465
417.16	68.097
417.51	68.879
417.87	66.474
418.22	67.697
418.58	67.011
418.93	68.550
419.29	67.218
419.64	68.325
420.00	67.317
420.35	65.275
420.71	68.799
421.06	66.647
421.42	67.076
421.77	66.031
422.12	66.648
422.48	65.300
422.83	66.337
423.19	66.354
423.54	67.731
423.90	66.725
424.25	65.997
424.61	67.202
424.96	67.930
425.31	66.279
425.67	66.404
426.02	66.914
426.38	68.376
426.73	67.408
427.09	67.356
427.44	66.935
427.79	66.993
428.15	66.369
428.50	66.413
428.85	67.282
429.21	65.875
429.56	66.045
429.92	65.023
430.27	65.789
430.62	65.950
430.98	65.698
431.33	65.619
431.68	65.236
432.04	65.016
432.39	66.305
432.74	67.385
433.10	67.063
433.45	68.163
433.80	66.242
434.16	65.705
434.51	66.421
434.86	67.161
435.22	66.704
435.57	67.781
435.92	67.466
436.28	67.556
436.63	67.494
436.98	66.400
437.34	67.382
437.69	67.445
438.04	67.173
438.39	67.224
438.75	68.158
439.10	66.480
439.45	67.060
439.81	68.580
440.16	67.137
440.51	68.658
440.86	68.732
441.22	67.798
441.57	67.251
441.92	68.219
442.27	69.268
442.63	65.982
442.98	68.000
443.33	67.500
443.68	67.062
444.03	68.521
444.39	67.381
444.74	68.074
445.09	68.194
445.44	67.851
445.79	67.046
446.15	67.708
446.50	67.367
446.85	68.962
447.20	66.752
447.55	69.347
447.91	68.836
448.26	69.282
448.61	68.966
448.96	68.660
449.31	69.573
449.66	66.911
450.02	68.189
450.37	67.460
450.72	68.077
451.07	69.409
451.42	67.964
451.77	68.115
452.12	68.418
452.47	68.346
452.83	69.289
453.18	67.787
453.53	68.955
453.88	69.581
454.23	69.217
454.58	68.383
454.93	70.820
455.28	69.825
455.63	68.932
455.98	70.298
456.34	68.279
456.69	70.257
457.04	68.793
457.39	68.498
457.74	68.195
458.09	69.120
458.44	69.042
458.79	67.516
459.14	68.228
459.49	67.834
459.84	67.258
460.19	68.238
460.54	67.014
460.89	67.307
461.24	69.460
461.59	69.088
461.94	68.804
462.29	68.783
462.64	68.602
462.99	68.640
463.34	69.933
463.69	68.981
464.04	67.768
464.39	67.130
464.74	68.390
465.09	66.948
465.44	67.202
465.79	66.723
466.14	66.284
466.49	66.185
466.84	66.959
467.19	67.532
467.54	68.250
467.89	67.527
468.24	67.656
468.59	67.521
468.94	67.074
469.29	68.702
469.64	70.080
469.99	70.298
470.34	68.956
470.68	69.971
471.03	68.571
471.38	70.744
471.73	67.755
472.08	70.066
472.43	67.399
472.78	68.137
473.13	68.806
473.48	67.915
473.83	68.354
474.17	67.393
474.52	67.928
474.87	67.717
475.22	67.324
475.57	66.255
475.92	66.596
476.27	67.193
476.61	66.409
476.96	67.345
477.31	66.457
477.66	67.505
478.01	65.290
478.36	67.107
478.70	66.407
479.05	65.815
479.40	66.479
479.75	65.938
480.10	67.942
480.45	63.922
480.79	65.839
481.14	66.096
481.49	66.398
481.84	65.889
482.19	65.152
482.53	65.275
482.88	65.984
483.23	66.776
483.58	66.106
483.92	66.682
484.27	63.878
484.62	64.483
484.97	64.131
485.31	65.274
485.66	61.578
486.01	59.101
486.36	58.105
486.70	57.778
487.05	59.066
487.40	60.981
487.75	61.172
488.09	62.754
488.44	63.109
488.79	65.136
489.13	65.661
489.48	65.008
489.83	65.645
490.17	65.892
490.52	65.235
490.87	64.858
491.22	64.620
491.56	63.872
491.91	65.612
492.26	64.676
492.60	63.088
492.95	63.003
493.30	64.206
493.64	64.349
493.99	64.438
494.34	63.506
494.68	64.835
495.03	64.944
495.37	63.471
495.72	64.669
496.07	64.501
496.41	61.726
496.76	63.105
497.11	63.800
497.45	64.509
497.80	64.012
498.14	64.155
498.49	64.780
498.84	64.142
499.18	62.762
499.53	63.248
499.87	63.933
500.22	62.459
500.56	64.612
500.91	63.894
501.26	63.727
501.60	65.116
501.95	63.749
502.29	63.496
502.64	64.106
502.98	63.160
503.33	62.386
503.67	63.248
504.02	62.769
504.36	62.237
504.71	62.921
505.06	62.458
505.40	63.345
505.75	62.102
506.09	62.099
506.44	63.592
506.78	61.763
507.13	64.008
507.47	63.030
507.82	62.665
508.16	63.273
508.51	63.470
508.85	63.208
509.19	63.827
509.54	63.010
509.88	63.679
510.23	62.571
510.57	64.293
510.92	62.765
511.26	61.562
511.61	63.900
511.95	62.422
512.30	63.150
512.64	62.332
512.98	63.344
513.33	62.473
513.67	61.900
514.02	62.879
514.36	62.698
514.70	64.084
515.05	63.246
515.39	62.872
515.74	63.288
516.08	63.387
516.42	63.430
516.77	64.716
517.11	62.042
517.46	63.488
517.80	64.402
518.14	63.521
518.49	63.886
518.83	62.727
519.17	62.587
519.52	62.309
519.86	62.750
520.20	62.948
520.55	63.674
520.89	63.504
521.23	63.993
521.58	62.005
521.92	63.135
522.26	61.440
522.61	63.178
522.95	63.229
523.29	63.725
523.64	63.293
523.98	63.586
524.32	62.063
524.66	62.778
525.01	62.623
525.35	62.330
525.69	62.069
526.04	62.243
526.38	61.806
526.72	61.288
527.06	62.272
527.41	60.953
527.75	63.537
528.09	62.813
528.43	62.460
528.78	61.401
529.12	60.424
529.46	62.033
529.80	61.077
530.15	61.994
530.49	59.692
530.83	61.519
531.17	62.794
531.51	63.165
531.86	61.226
532.20	62.712
532.54	61.499
532.88	60.783
533.22	60.275
533.57	60.556
533.91	59.121
534.25	60.753
534.59	60.098
534.93	59.191
535.27	60.410
535.62	60.134
535.96	61.205
536.30	60.585
536.64	59.691
536.98	61.579
537.32	60.171
537.66	60.400
538.01	60.105
538.35	58.824
538.69	59.732
539.03	58.480
539.37	58.722
539.71	58.263
540.05	59.542
540.39	59.136
540.73	58.085
541.07	60.545
541.42	60.339
541.76	59.290
542.10	59.832
542.44	58.742
542.78	59.816
543.12	57.901
543.46	59.410
543.80	58.751
544.14	57.959
544.48	58.857
544.82	57.986
545.16	59.532
545.50	58.355
545.84	59.409
546.18	59.596
546.52	59.050
546.86	59.175
547.20	58.800
547.54	57.515
547.88	57.334
548.22	57.036
548.56	56.226
548.90	57.042
549.24	57.037
549.58	58.254
549.92	57.898
550.26	58.878
550.60	57.469
550.94	58.521
551.28	57.279
551.62	60.101
551.96	56.982
552.30	57.201
552.64	58.012
552.98	58.983
553.32	55.698
553.66	56.987
554.00	57.584
554.34	56.315
554.68	58.369
555.02	56.911
555.36	57.690
555.69	55.886
556.03	55.384
556.37	57.162
556.71	56.344
557.05	57.073
557.39	56.053
557.73	55.893
558.07	57.215
558.41	56.802
558.75	57.825
559.08	58.166
559.42	58.201
559.76	56.618
560.10	55.817
560.44	55.835
560.78	54.491
561.12	54.617
561.45	55.932
561.79	54.252
562.13	56.003
562.47	55.806
562.81	56.067
563.15	54.582
563.48	54.841
563.82	55.055
564.16	54.153
564.50	53.971
564.84	54.046
565.17	55.341
565.51	54.824
565.85	54.378
566.19	53.914
566.52	54.212
566.86	53.104
567.20	53.243
567.54	52.740
567.88	51.602
568.21	52.540
568.55	51.668
568.89	51.216
569.23	49.599
569.56	49.271
569.90	48.151
570.24	49.193
570.57	47.229
570.91	46.994
571.25	46.603
571.59	46.451
571.92	46.515
572.26	46.476
572.60	46.697
572.93	47.316
573.27	46.643
573.61	46.427
573.95	46.589
574.28	45.327
574.62	45.991
574.96	44.731
575.29	44.641
575.63	45.122
575.97	45.795
576.30	45.566
576.64	45.034
576.98	45.527
577.31	44.686
577.65	44.864
577.98	44.170
578.32	43.944
578.66	44.403
578.99	44.602
579.33	44.590
579.67	44.198
580.00	45.025
580.34	44.945
580.67	44.528
581.01	44.839
581.35	43.854
581.68	43.240
582.02	42.802
582.35	43.291
582.69	43.529
583.02	43.712
583.36	44.501
583.70	45.330
584.03	45.115
584.37	45.481
584.70	45.376
585.04	44.765
585.37	43.756
585.71	44.032
586.04	43.827
586.38	45.402
586.72	45.291
587.05	44.227
587.39	44.644
587.72	44.473
588.06	44.477
588.39	45.295
588.73	44.940
589.06	45.310
589.40	46.195
589.73	45.512
590.07	45.765
590.40	46.182
590.73	46.565
591.07	46.846
591.40	46.689
591.74	48.139
592.07	46.640
592.41	46.300
592.74	45.543
593.08	45.070
593.41	44.100
593.75	43.442
594.08	44.552
594.41	44.645
594.75	45.250
595.08	44.631
595.42	45.114
595.75	45.299
596.09	45.513
596.42	45.069
596.75	46.433
597.09	46.364
597.42	45.278
597.75	46.658
598.09	45.739
598.42	45.447
598.76	44.021
599.09	43.748
599.42	44.250
599.76	44.510
600.09	44.007
600.42	43.901
600.76	43.821
601.09	43.024
601.42	44.292
601.76	44.554
602.09	43.636
602.42	45.223
602.76	44.740
603.09	44.335
603.42	44.201
603.76	43.712
604.09	45.095
604.42	45.088
604.76	45.846
605.09	45.129
605.42	43.908
605.75	44.205
606.09	44.490
606.42	45.157
606.75	43.716
607.09	43.910
607.42	44.416
607.75	44.641
608.08	44.681
608.42	46.123
608.75	44.590
609.08	44.635
609.41	44.693
609.75	44.402
610.08	45.193
610.41	44.926
610.74	44.891
611.07	45.949
611.41	45.093
611.74	46.556
612.07	46.066
612.40	46.695
612.73	45.421
613.07	46.013
613.40	46.077
613.73	45.254
614.06	45.538
614.39	45.045
614.72	45.105
615.06	44.958
615.39	45.011
615.72	44.172
616.05	44.285
616.38	45.303
616.71	46.140
617.05	46.054
617.38	46.422
617.71	45.165
618.04	47.716
618.37	45.299
618.70	47.604
619.03	47.105
619.36	47.590
619.69	47.324
620.03	47.596
620.36	46.858
620.69	48.904
621.02	47.861
621.35	47.533
621.68	47.430
622.01	48.065
622.34	48.033
622.67	48.669
623.00	46.515
623.33	46.819
623.66	47.248
623.99	47.791
624.32	47.361
624.65	46.681
624.99	45.892
625.32	46.705
625.65	48.009
625.98	48.194
626.31	47.823
626.64	48.245
626.97	48.795
627.30	48.296
627.63	49.549
627.96	49.285
628.29	48.994
628.62	50.137
628.95	51.415
629.28	48.905
629.61	49.771
629.94	51.333
630.26	49.762
630.59	51.096
