SpectraSuite Data File
++++++++++++++++++++++++++++++++++++
Date: Wed May 13 19:13:41 PDT 2015
User: schluterlab
Dark Spectrum Present: Yes
Reference Spectrum Present: Yes
Number of Sampled Component Spectra: 1
Spectrometers: USB2E3373
Integration Time (usec): 3000 (USB2E3373)
Spectra Averaged: 3 (USB2E3373)
Boxcar Smoothing: 0 (USB2E3373)
Correct for Electrical Dark: No (USB2E3373)
Strobe/Lamp Enabled: No (USB2E3373)
Correct for Detector Non-linearity: No (USB2E3373)
Correct for Stray Light: No (USB2E3373)
Number of Pixels in Processed Spectrum: 2048
>>>>>Begin Processed Spectral Data<<<<<
178.53	0.000
178.91	-1625.000
179.29	-1425.000
179.67	-327.778
180.04	-1425.000
180.42	3100.000
180.80	1140.000
181.18	-1100.000
181.56	842.857
181.94	0.000
182.31	-671.429
182.69	1966.667
183.07	-737.500
183.45	-522.222
183.83	581.818
184.20	-440.000
184.58	2400.000
184.96	6200.000
185.34	-980.000
185.72	-787.500
186.09	-2250.000
186.47	3100.000
186.85	2750.000
187.23	6600.000
187.61	-2200.000
187.98	1325.000
188.36	563.636
188.74	445.455
189.12	-1080.000
189.49	530.000
189.87	-5800.000
190.25	-1200.000
190.63	442.857
191.00	430.769
191.38	900.000
191.76	-1300.000
192.14	1675.000
192.51	700.000
192.89	916.667
193.27	687.500
193.65	-1375.000
194.02	590.000
194.40	1000.000
194.78	640.000
195.15	525.000
195.53	660.000
195.91	-1900.000
196.29	381.250
196.66	347.368
197.04	-390.000
197.42	0.000
197.79	640.000
198.17	-5200.000
198.55	871.429
198.92	762.500
199.30	860.000
199.68	0.000
200.05	361.111
200.43	871.429
200.81	5400.000
201.18	1800.000
201.56	-1800.000
201.94	500.000
202.31	611.111
202.69	508.333
203.07	650.000
203.44	0.000
203.82	1475.000
204.19	785.714
204.57	435.714
204.95	737.500
205.32	1433.333
205.70	636.364
206.08	400.000
206.45	3050.000
206.83	412.500
207.20	933.333
207.58	600.000
207.96	288.889
208.33	787.500
208.71	-900.000
209.08	785.714
209.46	722.222
209.84	472.727
210.21	-1700.000
210.59	1600.000
210.96	-662.500
211.34	2750.000
211.71	630.000
212.09	766.667
212.46	0.000
212.84	1833.333
213.22	1600.000
213.59	-5200.000
213.97	816.667
214.34	928.571
214.72	636.364
215.09	1180.000
215.47	-2850.000
215.84	-2900.000
216.22	2066.667
216.59	428.571
216.97	1575.000
217.34	536.364
217.72	-916.667
218.09	0.000
218.47	-5500.000
218.84	655.556
219.22	957.143
219.59	1766.667
219.97	-828.571
220.34	920.000
220.72	-2200.000
221.09	500.000
221.47	1325.000
221.84	-1183.333
222.22	0.000
222.59	1400.000
222.97	-2900.000
223.34	1040.000
223.72	438.462
224.09	1180.000
224.46	2650.000
224.84	-5200.000
225.21	-1120.000
225.59	-4300.000
225.96	780.000
226.34	305.000
226.71	3000.000
227.08	625.000
227.46	630.000
227.83	-1075.000
228.21	-2800.000
228.58	722.222
228.95	-2100.000
229.33	-2250.000
229.70	1800.000
230.08	871.429
230.45	-900.000
230.82	425.000
231.20	900.000
231.57	671.429
231.95	566.667
232.32	254.545
232.69	454.545
233.07	657.143
233.44	407.692
233.81	-1900.000
234.19	368.421
234.56	433.333
234.93	408.333
235.31	581.818
235.68	353.846
236.05	400.000
236.43	166.667
236.80	268.421
237.17	4500.000
237.55	200.000
237.92	200.000
238.29	204.762
238.67	222.581
239.04	248.276
239.41	172.222
239.79	119.565
240.16	145.238
240.53	111.364
240.91	92.157
241.28	106.000
241.65	120.000
242.02	100.000
242.40	64.516
242.77	75.000
243.14	67.742
243.51	59.551
243.89	56.471
244.26	57.778
244.63	56.989
245.00	48.936
245.38	51.485
245.75	50.467
246.12	44.037
246.49	48.905
246.87	56.000
247.24	49.231
247.61	45.714
247.98	41.830
248.36	29.730
248.73	36.943
249.10	34.395
249.47	27.119
249.84	34.225
250.22	29.412
250.59	31.953
250.96	28.788
251.33	34.123
251.70	31.188
252.08	25.238
252.45	22.422
252.82	25.652
253.19	25.532
253.56	24.314
253.94	24.066
254.31	22.266
254.68	27.308
255.05	24.723
255.42	22.358
255.79	25.000
256.16	23.466
256.54	13.428
256.91	25.979
257.28	19.424
257.65	21.122
258.02	18.634
258.39	20.505
258.76	21.405
259.14	17.560
259.51	19.453
259.88	18.634
260.25	19.940
260.62	17.052
260.99	14.596
261.36	16.817
261.73	18.625
262.10	14.244
262.47	17.183
262.85	17.270
263.22	13.960
263.59	19.658
263.96	15.385
264.33	18.799
264.70	16.579
265.07	14.578
265.44	15.152
265.81	13.382
266.18	13.568
266.55	16.829
266.92	15.479
267.29	14.815
267.66	12.844
268.03	15.000
268.40	14.019
268.77	12.411
269.14	14.414
269.51	13.770
269.88	13.986
270.25	13.544
270.62	12.584
270.99	16.344
271.36	14.163
271.73	13.551
272.10	14.565
272.47	15.699
272.84	16.234
273.21	14.885
273.58	11.790
273.95	12.369
274.32	12.810
274.69	11.349
275.06	13.386
275.43	12.766
275.80	12.224
276.17	11.405
276.54	12.058
276.91	12.253
277.28	12.695
277.65	13.926
278.02	11.180
278.39	12.695
278.76	12.000
279.13	13.019
279.50	12.849
279.87	10.757
280.23	11.976
280.60	13.346
280.97	9.982
281.34	10.619
281.71	13.091
282.08	12.092
282.45	12.000
282.82	11.901
283.19	9.269
283.56	9.825
283.92	12.521
284.29	10.229
284.66	12.160
285.03	10.307
285.40	9.683
285.77	10.943
286.14	9.845
286.51	12.833
286.87	10.940
287.24	10.586
287.61	10.273
287.98	11.201
288.35	10.777
288.72	11.526
289.08	10.798
289.45	8.731
289.82	9.106
290.19	10.518
290.56	11.179
290.93	8.157
291.29	8.742
291.66	10.619
292.03	10.901
292.40	12.041
292.77	8.876
293.13	10.149
293.50	9.767
293.87	9.630
294.24	8.148
294.60	7.860
294.97	9.157
295.34	10.437
295.71	8.665
296.08	9.259
296.44	9.078
296.81	7.926
297.18	9.621
297.55	7.256
297.91	7.916
298.28	8.701
298.65	9.661
299.02	10.013
299.38	7.703
299.75	6.739
300.12	7.663
300.48	7.750
300.85	7.768
301.22	7.771
301.59	6.313
301.95	6.549
302.32	7.317
302.69	6.213
303.05	7.636
303.42	8.148
303.79	7.588
304.15	6.294
304.52	6.373
304.89	6.620
305.25	7.425
305.62	6.116
305.99	7.320
306.35	7.718
306.72	7.175
307.09	7.103
307.45	8.108
307.82	6.696
308.19	7.947
308.55	8.091
308.92	6.874
309.29	7.075
309.65	6.893
310.02	7.928
310.38	6.882
310.75	7.603
311.12	6.960
311.48	6.792
311.85	7.862
312.22	6.764
312.58	7.277
312.95	6.019
313.31	5.922
313.68	6.549
314.05	7.692
314.41	6.633
314.78	5.841
315.14	7.051
315.51	6.591
315.87	7.030
316.24	7.051
316.61	6.530
316.97	6.556
317.34	5.479
317.70	5.832
318.07	5.775
318.43	5.577
318.80	6.842
319.16	7.345
319.53	6.848
319.89	7.524
320.26	7.400
320.62	6.448
320.99	5.758
321.35	6.364
321.72	6.879
322.08	7.502
322.45	6.567
322.81	6.686
323.18	7.418
323.54	6.772
323.91	8.302
324.27	5.545
324.64	6.337
325.00	5.771
325.37	7.461
325.73	7.181
326.10	6.973
326.46	6.541
326.83	7.334
327.19	7.173
327.56	6.272
327.92	6.824
328.29	6.921
328.65	6.998
329.01	6.318
329.38	7.586
329.74	7.572
330.11	6.409
330.47	7.438
330.84	8.088
331.20	6.922
331.56	7.248
331.93	6.759
332.29	8.163
332.66	7.699
333.02	6.673
333.38	7.407
333.75	8.111
334.11	6.584
334.48	7.808
334.84	6.710
335.20	8.000
335.57	5.893
335.93	6.786
336.29	6.502
336.66	7.124
337.02	6.606
337.38	6.667
337.75	6.328
338.11	8.326
338.47	6.906
338.84	7.241
339.20	6.789
339.56	7.208
339.93	6.182
340.29	7.337
340.65	7.398
341.02	8.202
341.38	7.117
341.74	6.930
342.11	7.424
342.47	6.432
342.83	7.791
343.20	7.273
343.56	7.161
343.92	6.140
344.28	8.333
344.65	6.707
345.01	6.987
345.37	6.346
345.73	6.937
346.10	7.332
346.46	6.949
346.82	7.249
347.19	5.931
347.55	6.240
347.91	6.958
348.27	7.560
348.63	7.191
349.00	6.796
349.36	6.732
349.72	6.977
350.08	6.483
350.45	7.079
350.81	6.986
351.17	5.592
351.53	5.733
351.89	6.683
352.26	6.630
352.62	7.217
352.98	6.969
353.34	7.067
353.70	6.056
354.07	7.500
354.43	6.746
354.79	5.792
355.15	6.065
355.51	7.594
355.87	6.776
356.24	6.515
356.60	5.854
356.96	5.310
357.32	6.051
357.68	6.693
358.04	7.363
358.40	6.176
358.77	6.103
359.13	5.525
359.49	6.196
359.85	4.603
360.21	5.821
360.57	6.537
360.93	6.692
361.29	5.593
361.66	4.876
362.02	6.045
362.38	5.703
362.74	6.176
363.10	5.477
363.46	5.503
363.82	5.518
364.18	6.314
364.54	6.761
364.90	6.374
365.26	5.368
365.62	5.698
365.98	6.136
366.35	4.943
366.71	5.857
367.07	5.535
367.43	6.531
367.79	6.138
368.15	7.040
368.51	5.669
368.87	5.496
369.23	5.413
369.59	5.720
369.95	5.515
370.31	6.054
370.67	6.014
371.03	6.442
371.39	5.539
371.75	5.000
372.11	4.979
372.47	6.012
372.83	6.340
373.19	5.780
373.55	6.208
373.91	6.480
374.27	5.292
374.63	4.509
374.99	5.650
375.35	5.094
375.71	5.757
376.07	6.584
376.42	5.433
376.78	6.030
377.14	4.749
377.50	5.894
377.86	4.920
378.22	6.195
378.58	5.075
378.94	4.400
379.30	4.898
379.66	5.647
380.02	5.467
380.38	4.797
380.74	5.222
381.09	4.890
381.45	4.733
381.81	6.265
382.17	5.669
382.53	4.780
382.89	4.815
383.25	5.066
383.61	5.328
383.97	5.253
384.32	5.552
384.68	4.585
385.04	5.040
385.40	4.520
385.76	4.975
386.12	5.117
386.48	5.286
386.83	5.324
387.19	5.690
387.55	5.318
387.91	4.776
388.27	4.108
388.62	5.101
388.98	4.300
389.34	5.444
389.70	4.782
390.06	6.401
390.42	5.383
390.77	6.170
391.13	5.552
391.49	5.330
391.85	4.965
392.20	4.543
392.56	5.303
392.92	5.650
393.28	3.432
393.64	5.336
393.99	5.681
394.35	5.583
394.71	5.144
395.07	4.798
395.42	4.512
395.78	5.280
396.14	5.400
396.50	5.764
396.85	4.514
397.21	4.069
397.57	4.960
397.92	4.988
398.28	4.036
398.64	5.018
399.00	4.477
399.35	4.738
399.71	5.266
400.07	5.795
400.42	5.399
400.78	4.885
401.14	4.634
401.49	4.896
401.85	4.295
402.21	4.850
402.57	4.688
402.92	4.666
403.28	4.934
403.63	4.455
403.99	4.522
404.35	5.091
404.70	5.276
405.06	4.310
405.42	4.616
405.77	4.343
406.13	5.023
406.49	4.317
406.84	4.962
407.20	4.374
407.55	4.850
407.91	5.133
408.27	3.829
408.62	5.057
408.98	4.473
409.34	4.859
409.69	4.774
410.05	5.081
410.40	4.771
410.76	4.480
411.11	5.308
411.47	4.856
411.83	5.192
412.18	4.762
412.54	5.417
412.89	4.819
413.25	5.077
413.60	4.941
413.96	4.432
414.31	4.860
414.67	5.196
415.03	4.570
415.38	5.992
415.74	5.080
416.09	5.617
416.45	4.752
416.80	4.759
417.16	6.300
417.51	4.977
417.87	5.845
418.22	4.606
418.58	5.294
418.93	5.344
419.29	5.411
419.64	5.605
420.00	5.061
420.35	5.333
420.71	5.140
421.06	4.594
421.42	4.737
421.77	5.045
422.12	4.380
422.48	4.695
422.83	4.601
423.19	5.359
423.54	4.527
423.90	5.623
424.25	4.969
424.61	5.000
424.96	5.015
425.31	4.540
425.67	4.831
426.02	4.686
426.38	5.372
426.73	4.974
427.09	5.350
427.44	4.543
427.79	5.060
428.15	5.119
428.50	5.208
428.85	5.781
429.21	4.473
429.56	4.977
429.92	4.529
430.27	4.518
430.62	4.147
430.98	4.463
431.33	5.000
431.68	5.026
432.04	4.739
432.39	4.055
432.74	5.147
433.10	4.641
433.45	5.073
433.80	4.601
434.16	5.021
434.51	4.789
434.86	4.675
435.22	5.170
435.57	5.350
435.92	4.974
436.28	5.042
436.63	5.574
436.98	4.808
437.34	5.128
437.69	5.018
438.04	4.160
438.39	5.552
438.75	5.752
439.10	4.637
439.45	4.664
439.81	5.076
440.16	5.308
440.51	5.272
440.86	5.501
441.22	4.171
441.57	5.096
441.92	4.964
442.27	4.629
442.63	4.739
442.98	5.296
443.33	5.272
443.68	4.285
444.03	4.734
444.39	3.554
444.74	4.978
445.09	5.175
445.44	4.921
445.79	4.701
446.15	5.664
446.50	5.277
446.85	4.522
447.20	4.691
447.55	4.188
447.91	4.523
448.26	5.064
448.61	4.918
448.96	5.648
449.31	5.624
449.66	5.234
450.02	4.568
450.37	4.989
450.72	4.681
451.07	4.083
451.42	5.410
451.77	5.402
452.12	4.850
452.47	4.602
452.83	5.128
453.18	5.929
453.53	5.071
453.88	4.784
454.23	4.901
454.58	5.996
454.93	5.531
455.28	4.426
455.63	5.400
455.98	5.000
456.34	4.899
456.69	4.195
457.04	5.077
457.39	4.793
457.74	4.933
458.09	5.463
458.44	5.188
458.79	4.230
459.14	5.192
459.49	5.604
459.84	4.875
460.19	5.834
460.54	5.266
460.89	5.376
461.24	5.039
461.59	6.159
461.94	5.734
462.29	5.757
462.64	5.999
462.99	5.595
463.34	5.733
463.69	4.878
464.04	5.275
464.39	5.449
464.74	5.051
465.09	4.825
465.44	5.152
465.79	4.810
466.14	5.364
466.49	5.284
466.84	5.838
467.19	5.492
467.54	5.812
467.89	5.342
468.24	5.352
468.59	5.311
468.94	4.337
469.29	5.270
469.64	6.693
469.99	5.886
470.34	5.020
470.68	5.388
471.03	5.918
471.38	5.837
471.73	5.596
472.08	5.658
472.43	4.899
472.78	4.937
473.13	5.392
473.48	5.930
473.83	5.366
474.17	5.352
474.52	5.397
474.87	5.954
475.22	5.340
475.57	5.051
475.92	4.620
476.27	5.186
476.61	4.633
476.96	4.673
477.31	5.233
477.66	4.869
478.01	4.757
478.36	5.024
478.70	4.777
479.05	4.633
479.40	5.169
479.75	5.186
480.10	4.324
480.45	4.664
480.79	3.966
481.14	4.159
481.49	4.888
481.84	4.390
482.19	4.180
482.53	4.633
482.88	4.700
483.23	4.860
483.58	4.868
483.92	4.311
484.27	4.357
484.62	4.483
484.97	3.942
485.31	3.459
485.66	3.368
486.01	2.579
486.36	2.691
486.70	2.745
487.05	2.819
487.40	3.039
487.75	3.560
488.09	3.609
488.44	3.869
488.79	3.906
489.13	4.469
489.48	4.038
489.83	4.014
490.17	3.946
490.52	4.074
490.87	4.568
491.22	4.502
491.56	4.237
491.91	4.514
492.26	4.593
492.60	4.931
492.95	3.789
493.30	4.346
493.64	4.433
493.99	4.178
494.34	4.255
494.68	4.762
495.03	4.417
495.37	4.421
495.72	4.581
496.07	4.501
496.41	4.115
496.76	4.485
497.11	4.097
497.45	4.332
497.80	4.415
498.14	4.203
498.49	4.585
498.84	4.938
499.18	4.667
499.53	4.084
499.87	3.914
500.22	4.946
500.56	5.097
500.91	4.279
501.26	3.746
501.60	5.411
501.95	4.170
502.29	4.827
502.64	4.097
502.98	4.301
503.33	4.433
503.67	4.316
504.02	4.724
504.36	4.258
504.71	4.494
505.06	4.819
505.40	4.278
505.75	4.243
506.09	4.519
506.44	4.489
506.78	5.017
507.13	4.240
507.47	5.354
507.82	5.370
508.16	4.559
508.51	4.566
508.85	4.171
509.19	4.592
509.54	4.949
509.88	4.431
510.23	4.524
510.57	5.160
510.92	4.505
511.26	5.190
511.61	5.083
511.95	4.593
512.30	3.977
512.64	5.105
512.98	5.198
513.33	5.514
513.67	5.283
514.02	5.195
514.36	4.533
514.70	5.147
515.05	4.518
515.39	4.655
515.74	4.505
516.08	5.478
516.42	5.161
516.77	4.961
517.11	4.772
517.46	5.756
517.80	5.052
518.14	3.937
518.49	5.076
518.83	5.455
519.17	4.908
519.52	4.301
519.86	5.020
520.20	5.838
520.55	6.164
520.89	5.353
521.23	5.368
521.58	5.462
521.92	5.879
522.26	5.125
522.61	5.296
522.95	5.157
523.29	5.965
523.64	5.488
523.98	5.484
524.32	5.428
524.66	6.073
525.01	5.515
525.35	4.957
525.69	5.603
526.04	5.857
526.38	5.735
526.72	5.521
527.06	6.277
527.41	4.703
527.75	5.659
528.09	5.588
528.43	5.864
528.78	4.978
529.12	5.152
529.46	6.001
529.80	5.631
530.15	6.480
530.49	5.292
530.83	5.570
531.17	6.527
531.51	6.680
531.86	6.000
532.20	6.063
532.54	6.534
532.88	6.290
533.22	5.621
533.57	5.556
533.91	5.659
534.25	5.529
534.59	5.674
534.93	5.354
535.27	5.311
535.62	5.800
535.96	5.210
536.30	5.658
536.64	5.473
536.98	5.773
537.32	6.122
537.66	5.133
538.01	6.057
538.35	6.206
538.69	6.509
539.03	5.458
539.37	5.176
539.71	4.537
540.05	5.490
540.39	5.316
540.73	5.821
541.07	6.424
541.42	6.327
541.76	6.323
542.10	6.080
542.44	5.762
542.78	6.653
543.12	5.310
543.46	6.098
543.80	5.856
544.14	5.584
544.48	6.222
544.82	5.452
545.16	5.856
545.50	5.077
545.84	5.578
546.18	5.926
546.52	6.813
546.86	5.979
547.20	6.473
547.54	6.480
547.88	6.505
548.22	6.413
548.56	6.101
548.90	5.378
549.24	4.781
549.58	6.617
549.92	5.563
550.26	6.392
550.60	5.048
550.94	6.268
551.28	6.145
551.62	6.542
551.96	6.316
552.30	6.007
552.64	5.815
552.98	5.627
553.32	6.069
553.66	6.953
554.00	6.658
554.34	6.004
554.68	6.223
555.02	6.629
555.36	6.472
555.69	6.360
556.03	5.518
556.37	6.480
556.71	6.071
557.05	6.162
557.39	6.718
557.73	5.999
558.07	6.236
558.41	6.151
558.75	6.539
559.08	6.786
559.42	5.820
559.76	6.324
560.10	6.353
560.44	5.660
560.78	6.387
561.12	6.662
561.45	6.323
561.79	5.142
562.13	5.567
562.47	6.557
562.81	5.997
563.15	5.953
563.48	6.300
563.82	5.740
564.16	5.232
564.50	4.753
564.84	6.574
565.17	5.405
565.51	5.942
565.85	6.091
566.19	5.636
566.52	5.890
566.86	5.003
567.20	5.955
567.54	4.623
567.88	4.671
568.21	5.556
568.55	5.460
568.89	4.961
569.23	4.323
569.56	4.575
569.90	4.264
570.24	3.947
570.57	4.352
570.91	3.878
571.25	3.860
571.59	3.564
571.92	3.600
572.26	3.524
572.60	3.393
572.93	3.868
573.27	3.993
573.61	4.048
573.95	3.695
574.28	3.367
574.62	3.499
574.96	3.274
575.29	3.371
575.63	3.608
575.97	3.515
576.30	3.877
576.64	3.361
576.98	3.379
577.31	3.142
577.65	3.170
577.98	3.136
578.32	3.038
578.66	3.291
578.99	3.287
579.33	3.389
579.67	3.235
580.00	3.644
580.34	3.607
580.67	3.593
581.01	3.553
581.35	3.109
581.68	3.292
582.02	3.149
582.35	2.948
582.69	3.297
583.02	3.181
583.36	3.459
583.70	3.646
584.03	3.605
584.37	4.005
584.70	3.422
585.04	3.669
585.37	3.425
585.71	3.736
586.04	3.624
586.38	3.501
586.72	3.839
587.05	3.640
587.39	3.562
587.72	3.736
588.06	3.549
588.39	3.704
588.73	3.813
589.06	4.300
589.40	3.603
589.73	3.977
590.07	4.413
590.40	4.275
590.73	4.450
591.07	4.355
591.40	4.724
591.74	4.675
592.07	4.974
592.41	4.671
592.74	4.270
593.08	4.097
593.41	3.923
593.75	3.716
594.08	4.090
594.41	4.348
594.75	4.251
595.08	4.223
595.42	4.658
595.75	4.487
596.09	4.694
596.42	5.147
596.75	4.559
597.09	5.455
597.42	3.963
597.75	4.700
598.09	4.826
598.42	4.854
598.76	4.297
599.09	4.257
599.42	4.330
599.76	4.100
600.09	4.153
600.42	4.127
600.76	3.786
601.09	4.117
601.42	4.452
601.76	4.288
602.09	3.794
602.42	4.498
602.76	5.200
603.09	4.327
603.42	4.647
603.76	3.849
604.09	3.994
604.42	4.607
604.76	5.441
605.09	5.111
605.42	5.045
605.75	4.512
606.09	4.311
606.42	4.168
606.75	4.894
607.09	4.730
607.42	4.151
607.75	4.093
608.08	4.212
608.42	5.289
608.75	4.779
609.08	4.625
609.41	5.140
609.75	4.621
610.08	5.184
610.41	4.283
610.74	4.163
611.07	5.237
611.41	5.201
611.74	5.530
612.07	5.280
612.40	5.561
612.73	4.895
613.07	5.873
613.40	5.529
613.73	4.352
614.06	5.161
614.39	5.454
614.72	5.789
615.06	5.410
615.39	5.308
615.72	5.777
616.05	5.210
616.38	5.614
616.71	5.463
617.05	6.066
617.38	5.713
617.71	5.345
618.04	6.490
618.37	5.145
618.70	5.787
619.03	6.513
619.36	6.653
619.69	6.268
620.03	6.525
620.36	6.484
620.69	6.507
621.02	6.268
621.35	6.578
621.68	5.763
622.01	6.656
622.34	6.430
622.67	7.300
623.00	6.310
623.33	6.147
623.66	6.290
623.99	5.817
624.32	6.562
624.65	6.285
624.99	5.949
625.32	6.589
625.65	6.386
625.98	6.841
626.31	7.387
626.64	7.592
626.97	7.066
627.30	5.819
627.63	7.465
627.96	6.981
628.29	6.912
628.62	8.234
628.95	8.962
629.28	7.208
629.61	7.149
629.94	7.143
630.26	7.245
630.59	7.245
630.92	7.184
631.25	7.404
631.58	7.107
631.91	7.505
632.24	7.806
632.57	8.499
632.90	7.895
633.23	8.949
633.56	9.266
633.89	8.834
634.22	8.286
634.55	9.112
634.88	7.904
635.20	9.080
635.53	7.711
635.86	9.282
636.19	9.176
636.52	9.112
636.85	8.477
637.18	8.756
637.51	9.220
637.83	7.768
638.16	8.312
638.49	9.446
638.82	8.597
639.15	9.750
639.48	10.100
639.81	9.920
640.13	10.026
640.46	10.067
640.79	10.436
641.12	8.528
641.45	9.777
641.77	11.193
642.10	11.257
642.43	9.459
642.76	10.526
643.09	10.429
643.41	9.863
643.74	12.191
644.07	10.518
644.40	12.117
644.73	12.441
645.05	12.995
645.38	12.480
645.71	10.306
646.04	12.292
646.36	13.356
646.69	11.706
647.02	11.395
647.35	12.887
647.67	11.858
648.00	12.358
648.33	10.066
648.66	11.061
648.98	11.994
649.31	10.463
649.64	12.108
649.96	9.836
650.29	11.374
650.62	11.489
650.94	11.507
651.27	11.824
651.60	10.649
651.92	12.620
652.25	10.586
652.58	10.436
652.90	12.164
