SpectraSuite Data File
++++++++++++++++++++++++++++++++++++
Date: Wed May 13 19:52:35 PDT 2015
User: schluterlab
Dark Spectrum Present: Yes
Reference Spectrum Present: Yes
Number of Sampled Component Spectra: 1
Spectrometers: USB2E3373
Integration Time (usec): 3000 (USB2E3373)
Spectra Averaged: 3 (USB2E3373)
Boxcar Smoothing: 0 (USB2E3373)
Correct for Electrical Dark: No (USB2E3373)
Strobe/Lamp Enabled: No (USB2E3373)
Correct for Detector Non-linearity: No (USB2E3373)
Correct for Stray Light: No (USB2E3373)
Number of Pixels in Processed Spectrum: 2048
>>>>>Begin Processed Spectral Data<<<<<
178.53	0.000
178.91	-1575.000
179.29	-1300.000
179.67	-238.889
180.04	-1500.000
180.42	2800.000
180.80	1320.000
181.18	-1200.000
181.56	528.571
181.94	0.000
182.31	-585.714
182.69	2100.000
183.07	-475.000
183.45	-533.333
183.83	600.000
184.20	-550.000
184.58	2550.000
184.96	5800.000
185.34	-1100.000
185.72	-612.500
186.09	-2500.000
186.47	2900.000
186.85	2650.000
187.23	5500.000
187.61	-1833.333
187.98	1575.000
188.36	509.091
188.74	600.000
189.12	-940.000
189.49	680.000
189.87	-4600.000
190.25	-1250.000
190.63	464.286
191.00	384.615
191.38	900.000
191.76	-1150.000
192.14	1575.000
192.51	800.000
192.89	1050.000
193.27	587.500
193.65	-1025.000
194.02	520.000
194.40	940.000
194.78	600.000
195.15	608.333
195.53	650.000
195.91	-2000.000
196.29	381.250
196.66	294.737
197.04	-400.000
197.42	0.000
197.79	670.000
198.17	-5500.000
198.55	642.857
198.92	800.000
199.30	1080.000
199.68	0.000
200.05	344.444
200.43	785.714
200.81	4600.000
201.18	1600.000
201.56	-1500.000
201.94	544.444
202.31	677.778
202.69	375.000
203.07	550.000
203.44	0.000
203.82	1375.000
204.19	842.857
204.57	478.571
204.95	762.500
205.32	1866.667
205.70	500.000
206.08	385.714
206.45	3250.000
206.83	350.000
207.20	850.000
207.58	980.000
207.96	316.667
208.33	787.500
208.71	-883.333
209.08	728.571
209.46	644.444
209.84	509.091
210.21	-1966.667
210.59	1500.000
210.96	-450.000
211.34	2850.000
211.71	570.000
212.09	750.000
212.46	0.000
212.84	1866.667
213.22	1600.000
213.59	-4600.000
213.97	800.000
214.34	857.143
214.72	690.909
215.09	1080.000
215.47	-2400.000
215.84	-3050.000
216.22	1666.667
216.59	471.429
216.97	1400.000
217.34	509.091
217.72	-883.333
218.09	0.000
218.47	-4800.000
218.84	666.667
219.22	685.714
219.59	1800.000
219.97	-585.714
220.34	920.000
220.72	-1833.333
221.09	442.857
221.47	1425.000
221.84	-1000.000
222.22	0.000
222.59	1425.000
222.97	-3150.000
223.34	1300.000
223.72	461.538
224.09	1320.000
224.46	2500.000
224.84	-6200.000
225.21	-1180.000
225.59	-4500.000
225.96	560.000
226.34	325.000
226.71	2850.000
227.08	762.500
227.46	520.000
227.83	-1000.000
228.21	-2500.000
228.58	522.222
228.95	-2900.000
229.33	-2550.000
229.70	1800.000
230.08	685.714
230.45	-940.000
230.82	458.333
231.20	900.000
231.57	571.429
231.95	583.333
232.32	250.000
232.69	536.364
233.07	714.286
233.44	261.538
233.81	-1833.333
234.19	336.842
234.56	441.667
234.93	350.000
235.31	500.000
235.68	300.000
236.05	364.286
236.43	184.848
236.80	315.789
237.17	4500.000
237.55	209.524
237.92	167.857
238.29	261.905
238.67	183.871
239.04	210.345
239.41	158.333
239.79	104.348
240.16	135.714
240.53	111.364
240.91	94.118
241.28	112.000
241.65	90.000
242.02	92.754
242.40	98.387
242.77	88.333
243.14	77.419
243.51	76.404
243.89	64.706
244.26	63.333
244.63	59.140
245.00	68.085
245.38	54.455
245.75	52.336
246.12	44.954
246.49	54.745
246.87	61.600
247.24	50.000
247.61	42.857
247.98	45.098
248.36	38.514
248.73	43.949
249.10	42.675
249.47	36.723
249.84	41.711
250.22	35.294
250.59	33.728
250.96	38.889
251.33	39.336
251.70	36.634
252.08	35.238
252.45	29.148
252.82	30.435
253.19	35.745
253.56	29.412
253.94	31.535
254.31	27.734
254.68	35.000
255.05	33.210
255.42	28.862
255.79	27.941
256.16	29.603
256.54	28.269
256.91	26.690
257.28	25.899
257.65	27.393
258.02	26.398
258.39	23.028
258.76	22.742
259.14	26.190
259.51	24.316
259.88	24.534
260.25	25.680
260.62	23.988
260.99	21.429
261.36	24.925
261.73	25.788
262.10	24.709
262.47	22.535
262.85	22.284
263.22	22.507
263.59	22.507
263.96	20.055
264.33	20.888
264.70	21.053
265.07	22.251
265.44	20.455
265.81	19.221
266.18	20.603
266.55	20.976
266.92	23.096
267.29	21.296
267.66	21.330
268.03	20.909
268.40	19.626
268.77	21.957
269.14	18.243
269.51	21.670
269.88	20.280
270.25	19.413
270.62	20.225
270.99	20.645
271.36	22.747
271.73	18.925
272.10	20.652
272.47	22.366
272.84	21.429
273.21	20.964
273.58	18.341
273.95	19.916
274.32	20.455
274.69	20.771
275.06	18.504
275.43	20.426
275.80	18.236
276.17	20.163
276.54	19.958
276.91	19.565
277.28	19.336
277.65	21.083
278.02	18.012
278.39	21.094
278.76	20.182
279.13	18.491
279.50	19.739
279.87	17.928
280.23	18.164
280.60	17.021
280.97	17.006
281.34	20.177
281.71	17.818
282.08	18.618
282.45	15.273
282.82	17.052
283.19	15.508
283.56	18.246
283.92	19.797
284.29	15.873
284.66	18.512
285.03	17.179
285.40	16.725
285.77	16.162
286.14	16.408
286.51	16.667
286.87	17.949
287.24	17.264
287.61	16.372
287.98	18.019
288.35	16.799
288.72	15.888
289.08	17.684
289.45	14.992
289.82	16.260
290.19	16.170
290.56	16.692
290.93	14.804
291.29	16.871
291.66	15.192
292.03	17.442
292.40	16.300
292.77	14.053
293.13	16.418
293.50	15.015
293.87	13.778
294.24	13.185
294.60	13.683
294.97	13.808
295.34	15.938
295.71	13.778
296.08	14.245
296.44	13.893
296.81	12.550
297.18	15.583
297.55	11.478
297.91	13.325
298.28	13.253
298.65	16.319
299.02	14.493
299.38	12.882
299.75	11.995
300.12	12.644
300.48	12.750
300.85	13.687
301.22	11.975
301.59	14.015
301.95	14.736
302.32	12.837
302.69	13.859
303.05	12.485
303.42	11.728
303.79	13.930
304.15	12.587
304.52	11.472
304.89	12.427
305.25	10.557
305.62	13.137
305.99	13.695
306.35	12.528
306.72	11.883
307.09	13.541
307.45	13.063
307.82	11.384
308.19	12.362
308.55	13.808
308.92	13.641
309.29	11.510
309.65	12.513
310.02	12.156
310.38	10.860
310.75	11.088
311.12	12.487
311.48	12.330
311.85	12.159
312.22	12.383
312.58	11.538
312.95	13.833
313.31	12.233
313.68	11.435
314.05	12.525
314.41	12.563
314.78	11.682
315.14	12.810
315.51	12.461
315.87	11.485
316.24	12.214
316.61	10.234
316.97	11.644
317.34	11.742
317.70	11.568
318.07	11.742
318.43	11.644
318.80	12.277
319.16	11.959
319.53	11.257
319.89	12.476
320.26	12.700
320.62	11.607
320.99	12.121
321.35	11.515
321.72	13.347
322.08	13.228
322.45	13.532
322.81	12.791
323.18	13.102
323.54	12.709
323.91	12.264
324.27	10.612
324.64	11.650
325.00	11.001
325.37	11.010
325.73	12.029
326.10	11.562
326.46	12.007
326.83	11.993
327.19	12.212
327.56	10.714
327.92	11.111
328.29	12.777
328.65	11.694
329.01	11.101
329.38	10.823
329.74	11.634
330.11	11.216
330.47	11.938
330.84	12.868
331.20	11.475
331.56	12.202
331.93	10.648
332.29	11.003
332.66	12.301
333.02	10.878
333.38	11.924
333.75	12.834
334.11	11.566
334.48	10.736
334.84	12.500
335.20	11.364
335.57	11.786
335.93	9.732
336.29	11.172
336.66	11.091
337.02	10.950
337.38	10.926
337.75	10.606
338.11	11.549
338.47	11.050
338.84	10.632
339.20	11.284
339.56	11.679
339.93	10.364
340.29	10.507
340.65	10.695
341.02	12.216
341.38	11.210
341.74	10.526
342.11	11.092
342.47	11.101
342.83	9.932
343.20	11.255
343.56	11.626
343.92	10.789
344.28	10.714
344.65	12.210
345.01	10.522
345.37	10.034
345.73	11.083
346.10	10.827
346.46	11.186
346.82	10.297
347.19	9.858
347.55	9.934
347.91	11.084
348.27	11.093
348.63	10.284
349.00	11.246
349.36	10.263
349.72	10.746
350.08	10.292
350.45	10.334
350.81	10.561
351.17	10.616
351.53	10.401
351.89	9.076
352.26	11.287
352.62	10.746
352.98	10.616
353.34	11.339
353.70	9.002
354.07	10.403
354.43	10.317
354.79	9.252
355.15	10.375
355.51	11.111
355.87	11.755
356.24	10.423
356.60	10.024
356.96	9.493
357.32	9.894
357.68	10.394
358.04	9.976
358.40	11.401
358.77	11.346
359.13	9.392
359.49	10.510
359.85	8.730
360.21	10.048
360.57	10.739
360.93	9.769
361.29	8.844
361.66	10.217
362.02	9.851
362.38	10.266
362.74	10.193
363.10	9.178
363.46	9.538
363.82	9.599
364.18	9.618
364.54	10.773
364.90	10.198
365.26	10.147
365.62	10.080
365.98	8.912
366.35	9.026
366.71	10.051
367.07	9.395
367.43	9.652
367.79	10.064
368.15	10.560
368.51	9.375
368.87	9.136
369.23	9.144
369.59	9.558
369.95	9.265
370.31	8.903
370.67	10.072
371.03	10.262
371.39	9.767
371.75	9.559
372.11	9.602
372.47	10.044
372.83	10.231
373.19	9.682
373.55	9.460
373.91	10.751
374.27	9.141
374.63	8.218
374.99	10.028
375.35	8.653
375.71	9.321
376.07	10.014
376.42	9.216
376.78	9.476
377.14	9.227
377.50	9.205
377.86	8.577
378.22	9.102
378.58	8.459
378.94	8.862
379.30	8.461
379.66	9.137
380.02	9.337
380.38	8.136
380.74	8.944
381.09	8.496
381.45	8.605
381.81	9.705
382.17	8.726
382.53	8.742
382.89	8.951
383.25	8.818
383.61	9.108
383.97	8.443
384.32	8.422
384.68	9.108
385.04	8.482
385.40	8.669
385.76	8.845
386.12	8.614
386.48	9.377
386.83	9.044
387.19	8.967
387.55	9.524
387.91	8.767
388.27	8.032
388.62	9.096
388.98	8.477
389.34	9.136
389.70	8.645
390.06	9.949
390.42	8.366
390.77	9.415
391.13	8.743
391.49	9.708
391.85	8.721
392.20	7.697
392.56	9.154
392.92	7.946
393.28	7.929
393.64	8.633
393.99	9.102
394.35	9.305
394.71	9.159
395.07	8.536
395.42	8.591
395.78	8.651
396.14	9.063
396.50	9.586
396.85	8.392
397.21	8.138
397.57	8.741
397.92	9.014
398.28	7.679
398.64	8.244
399.00	8.674
399.35	8.347
399.71	8.623
400.07	8.752
400.42	8.896
400.78	9.530
401.14	7.927
401.49	8.597
401.85	8.530
402.21	8.563
402.57	8.390
402.92	9.142
403.28	8.182
403.63	8.911
403.99	7.070
404.35	8.545
404.70	7.734
405.06	7.921
405.42	8.546
405.77	8.286
406.13	8.465
406.49	8.575
406.84	8.683
407.20	7.801
407.55	8.551
407.91	9.267
408.27	7.849
408.62	8.429
408.98	7.598
409.34	8.241
409.69	8.839
410.05	8.240
410.40	8.685
410.76	7.945
411.11	9.107
411.47	8.051
411.83	8.491
412.18	8.225
412.54	8.157
412.89	8.795
413.25	7.792
413.60	8.091
413.96	8.440
414.31	8.627
414.67	9.125
415.03	7.881
415.38	8.441
415.74	8.232
416.09	8.295
416.45	8.768
416.80	8.063
417.16	8.780
417.51	9.224
417.87	8.221
418.22	8.517
418.58	8.651
418.93	9.152
419.29	8.848
419.64	8.942
420.00	7.988
420.35	8.812
420.71	8.727
421.06	7.876
421.42	8.538
421.77	7.904
422.12	8.478
422.48	7.555
422.83	8.969
423.19	8.398
423.54	8.938
423.90	8.232
424.25	9.324
424.61	8.155
424.96	8.397
425.31	8.361
425.67	7.809
426.02	8.400
426.38	8.547
426.73	8.075
427.09	8.875
427.44	8.108
427.79	8.453
428.15	8.571
428.50	9.070
428.85	8.701
429.21	7.620
429.56	8.502
429.92	7.750
430.27	8.242
430.62	6.964
430.98	7.992
431.33	7.938
431.68	8.115
432.04	8.520
432.39	7.824
432.74	8.737
433.10	8.149
433.45	8.105
433.80	8.426
434.16	8.868
434.51	8.105
434.86	8.894
435.22	7.838
435.57	8.328
435.92	8.309
436.28	8.956
436.63	8.554
436.98	7.785
437.34	8.766
437.69	8.693
438.04	8.151
438.39	8.955
438.75	8.658
439.10	8.547
439.45	9.091
439.81	8.640
440.16	7.792
440.51	9.197
440.86	8.454
441.22	8.621
441.57	8.068
441.92	8.342
442.27	8.181
442.63	8.425
442.98	8.901
443.33	8.750
443.68	8.312
444.03	8.248
444.39	8.082
444.74	8.333
445.09	8.140
445.44	8.147
445.79	8.461
446.15	8.788
446.50	9.047
446.85	8.171
447.20	8.465
447.55	9.213
447.91	8.108
448.26	8.403
448.61	8.536
448.96	8.804
449.31	9.393
449.66	9.060
450.02	7.799
450.37	8.107
450.72	8.460
451.07	8.775
451.42	8.571
451.77	8.867
452.12	8.603
452.47	8.955
452.83	8.916
453.18	8.924
453.53	8.658
453.88	8.447
454.23	9.265
454.58	8.783
454.93	9.091
455.28	8.416
455.63	9.041
455.98	9.643
456.34	8.606
456.69	8.766
457.04	8.607
457.39	9.293
457.74	8.299
458.09	9.143
458.44	8.153
458.79	8.134
459.14	8.296
459.49	8.640
459.84	8.587
460.19	8.014
460.54	8.738
460.89	8.502
461.24	9.047
461.59	9.704
461.94	8.446
462.29	8.783
462.64	8.424
462.99	8.783
463.34	10.800
463.69	9.193
464.04	9.101
464.39	8.928
464.74	8.913
465.09	8.444
465.44	8.476
465.79	8.221
466.14	8.922
466.49	8.788
466.84	9.107
467.19	9.656
467.54	9.500
467.89	9.184
468.24	9.308
468.59	9.646
468.94	9.102
469.29	8.676
469.64	9.839
469.99	9.202
470.34	9.313
470.68	9.698
471.03	9.048
471.38	9.729
471.73	10.060
472.08	9.474
472.43	9.045
472.78	10.007
473.13	10.334
473.48	9.114
473.83	10.183
474.17	9.023
474.52	9.305
474.87	10.274
475.22	9.054
475.57	9.457
475.92	8.710
476.27	8.681
476.61	8.935
476.96	9.016
477.31	8.582
477.66	8.534
478.01	8.939
478.36	8.884
478.70	8.100
479.05	7.987
479.40	8.956
479.75	8.388
480.10	8.300
480.45	8.758
480.79	7.883
481.14	9.442
481.49	8.828
481.84	7.865
482.19	8.314
482.53	8.761
482.88	8.516
483.23	8.318
483.58	8.735
483.92	8.482
484.27	7.756
484.62	8.319
484.97	7.844
485.31	7.911
485.66	6.981
486.01	6.356
486.36	6.139
486.70	6.314
487.05	6.631
487.40	6.971
487.75	7.338
488.09	7.552
488.44	7.438
488.79	7.957
489.13	7.869
489.48	8.483
489.83	8.114
490.17	8.593
490.52	7.750
490.87	8.684
491.22	8.504
491.56	7.563
491.91	8.888
492.26	7.671
492.60	8.157
492.95	8.045
493.30	8.458
493.64	8.633
493.99	8.264
494.34	8.603
494.68	8.608
495.03	8.788
495.37	7.864
495.72	7.846
496.07	9.049
496.41	8.142
496.76	8.575
497.11	8.104
497.45	8.524
497.80	8.973
498.14	8.068
498.49	8.098
498.84	8.773
499.18	8.714
499.53	8.547
499.87	8.481
500.22	8.479
500.56	9.029
500.91	8.365
501.26	8.630
501.60	8.780
501.95	7.929
502.29	9.419
502.64	9.032
502.98	8.649
503.33	8.729
503.67	8.910
504.02	8.793
504.36	9.078
504.71	8.696
505.06	8.337
505.40	8.945
505.75	7.907
506.09	9.135
506.44	8.436
506.78	8.573
507.13	8.430
507.47	9.141
507.82	9.524
508.16	9.169
508.51	9.589
508.85	9.186
509.19	9.592
509.54	9.082
509.88	9.016
510.23	8.895
510.57	9.752
510.92	9.529
511.26	9.455
511.61	9.699
511.95	8.716
512.30	9.067
512.64	9.081
512.98	10.236
513.33	9.529
513.67	9.498
514.02	9.145
514.36	10.158
514.70	9.297
515.05	9.537
515.39	9.310
515.74	10.248
516.08	9.558
516.42	10.211
516.77	9.978
517.11	9.656
517.46	9.932
517.80	9.988
518.14	9.959
518.49	9.685
518.83	10.625
519.17	10.566
519.52	10.243
519.86	9.926
520.20	11.561
520.55	10.892
520.89	10.766
521.23	10.977
521.58	10.264
521.92	10.839
522.26	9.274
522.61	9.969
522.95	11.357
523.29	10.530
523.64	10.915
523.98	11.214
524.32	9.952
524.66	10.643
525.01	10.662
525.35	10.223
525.69	10.160
526.04	10.779
526.38	10.677
526.72	10.675
527.06	10.986
527.41	9.963
527.75	10.997
528.09	11.561
528.43	11.217
528.78	11.186
529.12	10.545
529.46	10.778
529.80	11.139
530.15	11.340
530.49	10.769
530.83	11.835
531.17	11.554
531.51	12.387
531.86	11.097
532.20	11.604
532.54	11.595
532.88	11.746
533.22	11.368
533.57	10.617
533.91	10.897
534.25	10.875
534.59	11.348
534.93	10.291
535.27	10.682
535.62	11.233
535.96	10.860
536.30	11.507
536.64	11.590
536.98	11.480
537.32	11.455
537.66	11.267
538.01	10.665
538.35	11.959
538.69	12.061
539.03	10.201
539.37	11.054
539.71	10.305
540.05	11.503
540.39	10.698
540.73	11.772
541.07	11.291
541.42	11.481
541.76	11.548
542.10	11.708
542.44	10.662
542.78	11.133
543.12	11.388
543.46	11.672
543.80	11.646
544.14	11.682
544.48	11.302
544.82	10.840
545.16	10.800
545.50	10.733
545.84	10.820
546.18	11.987
546.52	11.081
546.86	11.340
547.20	11.059
547.54	11.890
547.88	12.117
548.22	11.582
548.56	10.881
548.90	10.179
549.24	11.380
549.58	12.074
549.92	11.332
550.26	12.358
550.60	10.788
550.94	11.901
551.28	11.192
551.62	11.718
551.96	11.719
552.30	12.765
552.64	11.697
552.98	12.271
553.32	12.610
553.66	12.202
554.00	11.805
554.34	11.180
554.68	12.160
555.02	12.130
555.36	11.830
555.69	11.231
556.03	11.777
556.37	11.937
556.71	10.982
557.05	12.395
557.39	11.617
557.73	12.421
558.07	11.965
558.41	10.854
558.75	12.344
559.08	12.453
559.42	12.396
559.76	12.426
560.10	12.063
560.44	11.530
560.78	11.910
561.12	11.609
561.45	12.321
561.79	11.272
562.13	11.268
562.47	11.475
562.81	11.715
563.15	11.639
563.48	12.003
563.82	11.611
564.16	11.053
564.50	10.677
564.84	12.010
565.17	11.261
565.51	11.246
565.85	11.802
566.19	10.645
566.52	11.146
566.86	10.187
567.20	11.144
567.54	11.130
567.88	10.375
568.21	10.899
568.55	10.465
568.89	10.360
569.23	10.606
569.56	9.474
569.90	9.547
570.24	9.221
570.57	8.535
570.91	8.565
571.25	8.678
571.59	9.013
571.92	8.727
572.26	8.723
572.60	8.919
572.93	8.756
573.27	8.755
573.61	8.766
573.95	8.915
574.28	8.090
574.62	8.115
574.96	8.244
575.29	8.123
575.63	8.359
575.97	8.227
576.30	8.471
576.64	8.112
576.98	8.192
577.31	8.156
577.65	8.295
577.98	8.223
578.32	7.625
578.66	8.071
578.99	8.080
579.33	8.109
579.67	8.100
580.00	8.223
580.34	8.543
580.67	8.343
581.01	8.365
581.35	7.957
581.68	7.699
582.02	7.714
582.35	7.920
582.69	8.149
583.02	8.140
583.36	8.093
583.70	8.367
584.03	8.464
584.37	8.959
584.70	8.647
585.04	8.390
585.37	8.271
585.71	8.741
586.04	8.504
586.38	8.673
586.72	8.920
587.05	8.259
587.39	8.470
587.72	8.658
588.06	8.458
588.39	8.752
588.73	8.888
589.06	9.131
589.40	9.461
589.73	9.117
590.07	9.395
590.40	9.353
590.73	9.524
591.07	10.379
591.40	9.616
591.74	10.693
592.07	9.991
592.41	9.756
592.74	9.625
593.08	9.260
593.41	9.048
593.75	8.745
594.08	9.152
594.41	9.579
594.75	9.094
595.08	9.592
595.42	9.282
595.75	8.939
596.09	9.651
596.42	10.177
596.75	10.257
597.09	10.779
597.42	9.907
597.75	10.392
598.09	10.130
598.42	9.751
598.76	9.526
599.09	9.312
599.42	8.879
599.76	9.187
600.09	8.998
600.42	9.094
600.76	9.107
601.09	9.472
601.42	9.513
601.76	9.753
602.09	9.170
602.42	10.151
602.76	10.399
603.09	9.087
603.42	9.645
603.76	9.261
604.09	8.957
604.42	9.254
604.76	10.038
605.09	10.092
605.42	9.363
605.75	9.520
606.09	9.557
606.42	9.522
606.75	10.079
607.09	10.297
607.42	9.671
607.75	9.705
608.08	10.204
608.42	10.309
608.75	10.189
609.08	9.204
609.41	10.281
609.75	9.814
610.08	10.273
610.41	9.404
610.74	9.555
611.07	10.573
611.41	10.353
611.74	10.608
612.07	10.714
612.40	10.860
612.73	10.474
613.07	10.884
613.40	10.479
613.73	9.491
614.06	10.000
614.39	10.435
614.72	11.105
615.06	10.872
615.39	10.669
615.72	10.378
616.05	10.526
616.38	10.339
616.71	10.926
617.05	11.307
617.38	10.884
617.71	10.811
618.04	11.659
618.37	10.763
618.70	11.325
619.03	11.908
619.36	10.862
619.69	11.972
620.03	11.538
620.36	12.099
620.69	12.123
621.02	11.947
621.35	11.511
621.68	12.850
622.01	12.384
622.34	12.557
622.67	11.407
623.00	12.032
623.33	12.080
623.66	11.723
623.99	10.383
624.32	12.268
624.65	11.511
624.99	11.402
625.32	11.296
625.65	11.044
625.98	12.606
626.31	12.986
626.64	12.816
626.97	12.303
627.30	10.806
627.63	13.208
627.96	13.120
628.29	13.211
628.62	13.175
628.95	14.434
629.28	13.869
629.61	13.474
629.94	13.143
630.26	12.202
630.59	12.583
630.92	13.697
631.25	12.142
631.58	13.013
631.91	13.489
632.24	13.608
632.57	14.586
632.90	13.487
633.23	15.213
633.56	14.689
633.89	14.270
634.22	14.756
634.55	15.503
634.88	13.892
635.20	15.890
635.53	15.301
635.86	14.604
636.19	14.471
636.52	15.802
636.85	14.548
637.18	13.134
637.51	15.839
637.83	12.947
638.16	15.090
638.49	15.617
638.82	16.561
639.15	16.000
639.48	15.461
639.81	15.684
640.13	15.885
640.46	15.436
640.79	16.380
641.12	15.543
641.45	14.804
641.77	15.906
642.10	15.789
642.43	15.165
642.76	17.802
