SpectraSuite Data File
++++++++++++++++++++++++++++++++++++
Date: Wed May 13 19:58:44 PDT 2015
User: schluterlab
Dark Spectrum Present: Yes
Reference Spectrum Present: Yes
Number of Sampled Component Spectra: 1
Spectrometers: USB2E3373
Integration Time (usec): 3000 (USB2E3373)
Spectra Averaged: 3 (USB2E3373)
Boxcar Smoothing: 0 (USB2E3373)
Correct for Electrical Dark: No (USB2E3373)
Strobe/Lamp Enabled: No (USB2E3373)
Correct for Detector Non-linearity: No (USB2E3373)
Correct for Stray Light: No (USB2E3373)
Number of Pixels in Processed Spectrum: 2048
>>>>>Begin Processed Spectral Data<<<<<
178.53	0.000
178.91	-1350.000
179.29	-1325.000
179.67	-222.222
180.04	-1375.000
180.42	2150.000
180.80	920.000
181.18	-1250.000
181.56	642.857
181.94	0.000
182.31	-685.714
182.69	1833.333
183.07	-537.500
183.45	-477.778
183.83	536.364
184.20	-400.000
184.58	2400.000
184.96	5300.000
185.34	-820.000
185.72	-550.000
186.09	-2400.000
186.47	2500.000
186.85	2350.000
187.23	5500.000
187.61	-1600.000
187.98	1525.000
188.36	609.091
188.74	490.909
189.12	-880.000
189.49	510.000
189.87	-5200.000
190.25	-1200.000
190.63	457.143
191.00	384.615
191.38	866.667
191.76	-1050.000
192.14	1225.000
192.51	625.000
192.89	833.333
193.27	600.000
193.65	-1075.000
194.02	530.000
194.40	820.000
194.78	550.000
195.15	516.667
195.53	670.000
195.91	-2100.000
196.29	356.250
196.66	331.579
197.04	-360.000
197.42	0.000
197.79	680.000
198.17	-5200.000
198.55	600.000
198.92	625.000
199.30	1020.000
199.68	0.000
200.05	322.222
200.43	885.714
200.81	5300.000
201.18	1866.667
201.56	-1566.667
201.94	577.778
202.31	633.333
202.69	433.333
203.07	520.000
203.44	0.000
203.82	1450.000
204.19	671.429
204.57	435.714
204.95	625.000
205.32	1600.000
205.70	654.545
206.08	414.286
206.45	2700.000
206.83	343.750
207.20	1016.667
207.58	820.000
207.96	294.444
208.33	762.500
208.71	-933.333
209.08	800.000
209.46	611.111
209.84	436.364
210.21	-1466.667
210.59	1350.000
210.96	-450.000
211.34	2500.000
211.71	630.000
212.09	800.000
212.46	0.000
212.84	1633.333
213.22	1275.000
213.59	-5700.000
213.97	766.667
214.34	785.714
214.72	609.091
215.09	1180.000
215.47	-2300.000
215.84	-2250.000
216.22	1933.333
216.59	407.143
216.97	1425.000
217.34	418.182
217.72	-900.000
218.09	0.000
218.47	-5000.000
218.84	611.111
219.22	714.286
219.59	1800.000
219.97	-685.714
220.34	1020.000
220.72	-1700.000
221.09	385.714
221.47	1250.000
221.84	-866.667
222.22	0.000
222.59	1325.000
222.97	-2850.000
223.34	1060.000
223.72	461.538
224.09	1220.000
224.46	2250.000
224.84	-4900.000
225.21	-1020.000
225.59	-4900.000
225.96	560.000
226.34	310.000
226.71	3200.000
227.08	700.000
227.46	580.000
227.83	-1425.000
228.21	-2400.000
228.58	600.000
228.95	-2300.000
229.33	-2500.000
229.70	1433.333
230.08	742.857
230.45	-800.000
230.82	450.000
231.20	950.000
231.57	814.286
231.95	441.667
232.32	245.455
232.69	363.636
233.07	800.000
233.44	469.231
233.81	-1833.333
234.19	347.368
234.56	558.333
234.93	400.000
235.31	518.182
235.68	430.769
236.05	435.714
236.43	215.152
236.80	305.263
237.17	5400.000
237.55	280.952
237.92	232.143
238.29	300.000
238.67	203.226
239.04	234.483
239.41	200.000
239.79	130.435
240.16	169.048
240.53	161.364
240.91	143.137
241.28	150.000
241.65	166.000
242.02	115.942
242.40	114.516
242.77	135.000
243.14	106.452
243.51	120.225
243.89	103.529
244.26	103.333
244.63	100.000
245.00	94.681
245.38	94.059
245.75	105.607
246.12	87.156
246.49	95.620
246.87	92.000
247.24	96.923
247.61	85.714
247.98	82.353
248.36	79.054
248.73	78.981
249.10	82.166
249.47	75.141
249.84	73.262
250.22	72.727
250.59	82.249
250.96	72.222
251.33	76.303
251.70	74.257
252.08	70.476
252.45	69.507
252.82	72.174
253.19	77.447
253.56	71.765
253.94	65.145
254.31	67.578
254.68	70.000
255.05	68.266
255.42	69.512
255.79	65.809
256.16	67.148
256.54	64.664
256.91	62.633
257.28	60.432
257.65	68.317
258.02	63.043
258.39	62.145
258.76	61.204
259.14	60.119
259.51	61.094
259.88	60.248
260.25	63.444
260.62	58.092
260.99	62.733
261.36	61.862
261.73	62.464
262.10	59.302
262.47	61.690
262.85	58.774
263.22	60.684
263.59	65.242
263.96	56.319
264.33	61.097
264.70	61.579
265.07	60.102
265.44	61.364
265.81	55.718
266.18	61.307
266.55	58.293
266.92	59.214
267.29	57.407
267.66	52.752
268.03	57.727
268.40	56.542
268.77	54.893
269.14	55.405
269.51	58.916
269.88	58.741
270.25	56.208
270.62	58.427
270.99	56.344
271.36	55.365
271.73	56.308
272.10	54.348
272.47	57.849
272.84	58.874
273.21	55.136
273.58	51.965
273.95	53.669
274.32	54.545
274.69	55.675
275.06	51.772
275.43	55.745
275.80	54.709
276.17	56.008
276.54	57.588
276.91	54.743
277.28	52.930
277.65	51.644
278.02	53.623
278.39	51.172
278.76	52.182
279.13	52.075
279.50	54.190
279.87	53.386
280.23	53.293
280.60	55.319
280.97	53.974
281.34	51.150
281.71	51.273
282.08	53.743
282.45	52.000
282.82	52.220
283.19	51.693
283.56	52.456
283.92	51.438
284.29	51.675
284.66	51.180
285.03	51.537
285.40	50.704
285.77	49.495
286.14	50.777
286.51	51.500
286.87	49.060
287.24	49.511
287.61	48.796
287.98	47.890
288.35	46.751
288.72	48.442
289.08	47.105
289.45	46.458
289.82	47.154
290.19	45.055
290.56	42.726
290.93	43.958
291.29	48.160
291.66	45.870
292.03	48.401
292.40	47.283
292.77	42.899
293.13	44.179
293.50	44.606
293.87	43.556
294.24	45.333
294.60	41.630
294.97	42.297
295.34	43.159
295.71	41.193
296.08	41.595
296.44	41.541
296.81	41.876
297.18	41.328
297.55	39.050
297.91	39.446
298.28	41.499
298.65	40.992
299.02	40.053
299.38	40.106
299.75	39.218
300.12	40.613
300.48	39.125
300.85	38.841
301.22	38.981
301.59	39.141
301.95	40.554
302.32	41.078
302.69	39.427
303.05	37.212
303.42	38.148
303.79	37.033
304.15	36.597
304.52	37.775
304.89	37.631
305.25	37.123
305.62	36.806
305.99	38.135
306.35	38.702
306.72	38.453
307.09	38.180
307.45	39.527
307.82	37.500
308.19	37.086
308.55	36.354
308.92	37.916
309.29	36.325
309.65	36.797
310.02	36.469
310.38	36.774
310.75	37.170
311.12	37.359
311.48	37.409
311.85	37.841
312.22	37.461
312.58	39.605
312.95	39.493
313.31	36.311
313.68	40.437
314.05	40.434
314.41	40.000
314.78	39.074
315.14	37.835
315.51	39.959
315.87	39.802
316.24	40.218
316.61	39.669
316.97	40.215
317.34	40.411
317.70	41.969
318.07	41.867
318.43	44.814
318.80	43.205
319.16	43.597
319.53	43.809
319.89	46.095
320.26	47.200
320.62	47.520
320.99	47.273
321.35	47.374
321.72	49.692
322.08	52.122
322.45	54.229
322.81	52.810
323.18	56.840
323.54	55.566
323.91	55.283
324.27	57.744
324.64	59.087
325.00	59.062
325.37	61.783
325.73	63.914
326.10	64.960
326.46	65.323
326.83	68.766
327.19	67.976
327.56	73.693
327.92	73.141
328.29	74.889
328.65	76.335
329.01	76.173
329.38	80.019
329.74	78.578
330.11	82.375
330.47	81.635
330.84	81.434
331.20	83.515
331.56	84.312
331.93	85.463
332.29	84.383
332.66	86.726
333.02	86.197
333.38	87.173
333.75	88.057
334.11	88.256
334.48	89.352
334.84	90.074
335.20	91.182
335.57	89.211
335.93	88.571
336.29	91.575
336.66	92.516
337.02	91.855
337.38	93.056
337.75	92.870
338.11	92.122
338.47	94.383
338.84	95.509
339.20	95.138
339.56	96.533
339.93	94.818
340.29	96.105
340.65	98.039
341.02	97.033
341.38	96.085
341.74	97.105
342.11	97.293
342.47	96.123
342.83	96.832
343.20	97.835
343.56	96.462
343.92	99.123
344.28	99.830
344.65	99.570
345.01	96.296
345.37	99.571
345.73	100.592
346.10	100.171
346.46	101.271
346.82	99.835
347.19	101.086
347.55	97.373
347.91	99.919
348.27	102.136
348.63	102.007
349.00	99.838
349.36	101.806
349.72	100.160
350.08	101.053
350.45	104.475
350.81	102.843
351.17	104.376
351.53	102.539
351.89	103.465
352.26	103.078
352.62	104.892
352.98	106.321
353.34	105.916
353.70	104.419
354.07	104.839
354.43	104.603
354.79	105.068
355.15	106.704
355.51	109.113
355.87	109.469
356.24	105.700
356.60	106.656
356.96	110.459
357.32	109.321
357.68	108.583
358.04	108.076
358.40	107.680
358.77	108.920
359.13	109.866
359.49	108.627
359.85	109.524
360.21	110.207
360.57	111.362
360.93	111.077
361.29	110.960
361.66	109.907
362.02	109.925
362.38	112.243
362.74	109.970
363.10	111.769
363.46	110.932
363.82	114.512
364.18	113.289
364.54	114.710
364.90	112.394
365.26	114.926
365.62	115.632
365.98	115.047
366.35	115.186
366.71	114.823
367.07	114.421
367.43	118.433
367.79	116.345
368.15	117.241
368.51	115.988
368.87	115.846
369.23	116.606
369.59	119.261
369.95	116.397
370.31	117.664
370.67	116.594
371.03	119.850
371.39	117.420
371.75	119.338
372.11	118.279
372.47	119.648
372.83	119.957
373.19	117.124
373.55	121.656
373.91	122.533
374.27	116.495
374.63	123.200
374.99	120.904
375.35	120.935
375.71	120.288
376.07	121.468
376.42	123.109
376.78	119.351
377.14	122.185
377.50	122.583
377.86	120.146
378.22	122.124
378.58	120.238
378.94	120.679
379.30	124.300
379.66	125.952
380.02	123.526
380.38	124.165
380.74	123.589
381.09	122.922
381.45	125.015
381.81	125.307
382.17	124.777
382.53	124.906
382.89	124.753
383.25	126.329
383.61	127.323
383.97	124.078
384.32	124.891
384.68	125.898
385.04	123.233
385.40	125.449
385.76	126.290
386.12	127.526
386.48	128.508
386.83	128.993
387.19	127.582
387.55	126.654
387.91	126.058
388.27	125.874
388.62	125.569
388.98	126.536
389.34	126.971
389.70	127.161
390.06	127.503
390.42	127.432
390.77	126.527
391.13	129.675
391.49	127.094
391.85	128.390
392.20	129.211
392.56	127.588
392.92	127.840
393.28	126.864
393.64	127.758
393.99	124.679
394.35	127.109
394.71	127.729
395.07	126.854
395.42	130.222
395.78	127.354
396.14	125.326
396.50	129.073
396.85	128.290
397.21	127.867
397.57	127.526
397.92	127.404
398.28	126.513
398.64	125.030
399.00	127.924
399.35	126.340
399.71	127.604
400.07	126.020
400.42	128.160
400.78	128.046
401.14	130.549
401.49	127.522
401.85	128.736
402.21	127.305
402.57	128.933
402.92	128.752
403.28	128.795
403.63	129.332
403.99	128.344
404.35	127.515
404.70	126.439
405.06	127.024
405.42	128.821
405.77	127.257
406.13	125.847
406.49	126.789
406.84	125.340
407.20	127.719
407.55	128.271
407.91	130.133
408.27	128.398
408.62	126.008
408.98	126.225
409.34	126.999
409.69	126.516
410.05	126.704
410.40	127.034
410.76	125.747
411.11	125.633
411.47	125.367
411.83	127.367
412.18	126.716
412.54	128.394
412.89	124.217
413.25	125.738
413.60	127.177
413.96	123.194
414.31	125.638
414.67	125.982
415.03	127.219
415.38	125.709
415.74	126.688
416.09	127.956
416.45	128.916
416.80	127.561
417.16	127.614
417.51	127.538
417.87	125.048
418.22	127.823
418.58	127.243
418.93	126.413
419.29	128.199
419.64	126.008
420.00	126.402
420.35	124.406
420.71	126.599
421.06	125.179
421.42	125.614
421.77	125.392
422.12	124.874
422.48	124.015
422.83	126.849
423.19	123.978
423.54	128.787
423.90	127.362
424.25	126.075
424.61	125.298
424.96	126.997
425.31	124.031
425.67	125.562
426.02	124.571
426.38	128.755
426.73	126.039
427.09	126.079
427.44	127.027
427.79	127.027
428.15	125.893
428.50	127.092
428.85	126.281
429.21	126.063
429.56	126.646
429.92	125.667
430.27	124.280
430.62	123.758
430.98	125.013
431.33	123.763
431.68	126.754
432.04	122.843
432.39	127.584
432.74	127.887
433.10	128.014
433.45	125.714
433.80	127.162
434.16	123.504
434.51	123.684
434.86	126.055
435.22	125.625
435.57	125.836
435.92	126.331
436.28	127.106
436.63	124.945
436.98	125.644
437.34	127.132
437.69	126.371
438.04	127.937
438.39	125.672
438.75	127.252
439.10	127.486
439.45	126.741
439.81	128.701
440.16	126.821
440.51	127.944
440.86	127.446
441.22	127.086
441.57	125.690
441.92	127.021
442.27	126.588
442.63	125.382
442.98	126.761
443.33	124.783
443.68	125.555
444.03	125.476
444.39	124.051
444.74	126.515
445.09	123.073
445.44	124.494
445.79	124.146
446.15	123.981
446.50	124.717
446.85	124.820
447.20	124.375
447.55	126.857
447.91	125.979
448.26	125.654
448.61	126.173
448.96	126.135
449.31	126.659
449.66	126.280
450.02	125.181
450.37	125.454
450.72	125.832
451.07	123.827
451.42	123.100
451.77	125.250
452.12	124.480
452.47	124.876
452.83	127.739
453.18	123.533
453.53	125.541
453.88	125.340
454.23	124.626
454.58	125.681
454.93	127.654
455.28	124.875
455.63	123.240
455.98	125.000
456.34	126.633
456.69	126.111
457.04	124.644
457.39	122.326
457.74	122.635
458.09	123.519
458.44	122.976
458.79	121.041
459.14	124.379
459.49	123.468
459.84	122.715
460.19	123.335
460.54	118.750
460.89	122.984
461.24	122.465
461.59	122.371
461.94	122.072
462.29	124.214
462.64	122.782
462.99	121.601
463.34	122.133
463.69	122.639
464.04	121.043
464.39	119.478
464.74	119.430
465.09	119.843
465.44	119.557
465.79	119.631
466.14	118.993
466.49	118.632
466.84	119.907
467.19	119.614
467.54	120.750
467.89	117.767
468.24	118.034
468.59	118.987
468.94	117.166
469.29	122.237
469.64	120.616
469.99	123.748
470.34	121.004
470.68	120.115
471.03	120.952
471.38	122.029
471.73	119.654
472.08	120.263
472.43	119.095
472.78	118.828
473.13	118.421
473.48	119.663
473.83	118.293
474.17	117.922
474.52	118.983
474.87	118.447
475.22	116.425
475.57	115.583
475.92	116.569
476.27	116.460
476.61	116.547
476.96	115.668
477.31	117.164
477.66	117.505
478.01	116.100
478.36	117.980
478.70	117.238
479.05	116.667
479.40	117.349
479.75	115.760
480.10	115.755
480.45	113.184
480.79	115.432
481.14	114.432
481.49	115.377
481.84	115.684
482.19	113.676
482.53	112.569
482.88	113.122
483.23	114.860
483.58	113.467
483.92	114.433
484.27	112.244
484.62	113.103
484.97	111.707
485.31	111.541
485.66	106.932
486.01	104.035
486.36	101.950
486.70	103.130
487.05	105.548
487.40	107.789
487.75	109.803
488.09	110.707
488.44	113.042
488.79	113.852
489.13	113.980
489.48	112.235
489.83	111.739
490.17	113.678
490.52	111.027
490.87	113.116
491.22	110.323
491.56	109.932
491.91	110.656
492.26	108.957
492.60	110.000
492.95	110.945
493.30	108.925
493.64	111.526
493.99	108.821
494.34	109.713
494.68	109.615
495.03	110.667
495.37	109.027
495.72	111.501
496.07	110.998
496.41	106.283
496.76	109.982
497.11	107.159
497.45	108.384
497.80	109.021
498.14	109.469
498.49	109.610
498.84	109.060
499.18	109.714
499.53	109.354
499.87	107.502
500.22	107.537
500.56	109.272
500.91	107.740
501.26	106.591
501.60	109.112
501.95	106.324
502.29	108.622
502.64	107.728
502.98	108.322
503.33	106.079
503.67	105.568
504.02	106.688
504.36	105.849
504.71	107.377
505.06	106.217
505.40	106.271
505.75	105.207
506.09	106.220
506.44	107.203
506.78	105.553
507.13	108.279
507.47	106.616
507.82	108.004
508.16	106.890
508.51	107.864
508.85	105.412
509.19	107.398
509.54	105.204
509.88	104.946
510.23	105.501
510.57	106.605
510.92	105.904
511.26	104.419
511.61	105.187
511.95	104.802
512.30	105.143
512.64	104.944
512.98	105.734
513.33	105.514
513.67	103.522
514.02	105.032
514.36	106.554
514.70	105.368
515.05	105.968
515.39	105.328
515.74	105.912
516.08	104.751
516.42	104.051
516.77	105.295
517.11	104.661
517.46	103.725
517.80	105.343
518.14	104.053
518.49	105.543
518.83	104.659
519.17	104.215
519.52	105.263
519.86	104.450
520.20	104.971
520.55	106.643
520.89	106.326
521.23	105.368
521.58	104.862
521.92	106.491
522.26	104.088
522.61	102.804
522.95	105.157
523.29	103.652
523.64	104.817
523.98	104.806
524.32	103.559
524.66	102.826
525.01	103.738
525.35	102.478
525.69	102.401
526.04	103.427
526.38	103.295
526.72	100.736
527.06	104.269
527.41	100.866
527.75	102.379
528.09	103.404
528.43	103.250
528.78	102.950
529.12	100.545
529.46	101.470
529.80	102.413
530.15	102.056
530.49	98.769
530.83	101.392
531.17	105.287
531.51	102.010
531.86	101.032
532.20	102.347
532.54	101.281
532.88	101.540
533.22	100.750
533.57	99.074
533.91	97.652
534.25	99.089
534.59	100.915
534.93	97.620
535.27	97.948
535.62	98.413
535.96	99.937
536.30	98.792
536.64	98.970
536.98	99.137
537.32	99.144
537.66	100.733
538.01	100.132
538.35	98.901
538.69	98.660
539.03	97.921
539.37	97.188
539.71	97.019
540.05	100.131
540.39	99.601
540.73	95.860
541.07	97.664
541.42	99.348
541.76	98.516
542.10	97.219
542.44	99.205
542.78	98.155
543.12	94.754
543.46	95.869
543.80	99.089
544.14	94.801
544.48	97.714
544.82	94.869
545.16	97.072
545.50	95.244
545.84	96.438
546.18	97.172
546.52	97.935
546.86	97.663
547.20	96.966
547.54	95.992
547.88	94.707
548.22	94.334
548.56	94.465
548.90	94.494
549.24	95.758
549.58	95.430
549.92	95.261
550.26	97.798
550.60	95.297
550.94	95.915
551.28	97.293
551.62	96.477
551.96	94.316
552.30	95.427
552.64	95.470
552.98	94.441
553.32	95.550
553.66	94.956
554.00	95.264
554.34	94.134
554.68	95.780
555.02	94.711
555.36	93.250
555.69	93.099
556.03	94.078
556.37	95.566
556.71	93.588
557.05	94.118
557.39	94.332
557.73	93.296
558.07	94.779
558.41	93.271
558.75	94.342
559.08	95.004
559.42	95.767
559.76	95.000
560.10	93.148
560.44	93.990
560.78	92.681
561.12	91.821
561.45	91.199
561.79	92.749
562.13	91.683
562.47	92.964
562.81	94.630
563.15	91.773
563.48	92.507
563.82	91.977
564.16	92.413
564.50	91.732
564.84	89.697
565.17	89.897
565.51	92.332
565.85	90.736
566.19	90.920
566.52	92.337
566.86	88.788
567.20	90.566
567.54	91.096
567.88	88.810
568.21	88.836
568.55	88.675
568.89	87.500
569.23	85.383
569.56	83.684
569.90	85.057
570.24	84.141
570.57	83.237
570.91	81.739
571.25	81.563
571.59	82.356
571.92	82.488
572.26	82.611
572.60	82.282
572.93	81.229
573.27	82.313
573.61	81.602
573.95	81.214
574.28	80.151
574.62	79.883
574.96	79.618
575.29	79.656
575.63	81.047
575.97	81.359
576.30	81.174
576.64	80.743
576.98	80.579
577.31	79.852
577.65	80.282
577.98	79.232
578.32	78.316
578.66	79.686
578.99	80.644
579.33	79.690
579.67	80.248
580.00	79.717
580.34	80.589
580.67	79.532
581.01	78.907
581.35	78.810
581.68	77.999
582.02	77.366
582.35	78.156
582.69	78.094
583.02	79.117
583.36	79.802
583.70	80.819
584.03	80.956
584.37	81.344
584.70	81.217
585.04	79.281
585.37	79.310
585.71	78.642
586.04	78.594
586.38	80.904
586.72	81.027
587.05	78.403
587.39	78.654
587.72	79.954
588.06	80.069
588.39	79.726
588.73	80.463
589.06	80.617
589.40	81.919
589.73	82.295
590.07	82.028
590.40	81.440
590.73	82.397
591.07	84.046
591.40	82.286
591.74	83.853
592.07	82.330
592.41	80.529
592.74	80.225
593.08	78.081
593.41	79.247
593.75	78.607
594.08	77.975
594.41	79.286
594.75	81.331
595.08	79.599
595.42	81.121
595.75	80.377
596.09	81.600
596.42	80.786
596.75	82.440
597.09	80.866
597.42	79.511
597.75	81.414
598.09	81.565
598.42	79.983
598.76	79.287
599.09	77.385
599.42	77.766
599.76	78.331
600.09	77.814
600.42	77.502
600.76	76.714
601.09	78.834
601.42	77.549
601.76	78.140
602.09	78.498
602.42	79.260
602.76	79.162
603.09	78.836
603.42	79.383
603.76	77.820
604.09	79.062
604.42	78.761
604.76	80.388
605.09	78.943
605.42	78.281
605.75	78.435
606.09	78.487
606.42	79.199
606.75	78.640
607.09	78.108
607.42	79.076
607.75	77.173
608.08	78.550
608.42	77.992
608.75	77.908
609.08	78.816
609.41	78.010
609.75	79.085
610.08	78.935
610.41	77.886
610.74	78.240
611.07	79.990
611.41	78.557
611.74	79.638
612.07	79.969
612.40	80.430
612.73	78.684
613.07	80.873
613.40	79.516
613.73	78.710
614.06	80.323
614.39	78.710
614.72	77.737
615.06	77.889
615.39	78.397
615.72	76.738
616.05	78.469
616.38	79.544
616.71	82.423
617.05	79.741
617.38	78.894
617.71	80.240
618.04	81.250
618.37	79.184
618.70	79.465
619.03	81.842
