SpectraSuite Data File
++++++++++++++++++++++++++++++++++++
Date: Wed May 13 19:25:00 PDT 2015
User: schluterlab
Dark Spectrum Present: Yes
Reference Spectrum Present: Yes
Number of Sampled Component Spectra: 1
Spectrometers: USB2E3373
Integration Time (usec): 3000 (USB2E3373)
Spectra Averaged: 3 (USB2E3373)
Boxcar Smoothing: 0 (USB2E3373)
Correct for Electrical Dark: No (USB2E3373)
Strobe/Lamp Enabled: No (USB2E3373)
Correct for Detector Non-linearity: No (USB2E3373)
Correct for Stray Light: No (USB2E3373)
Number of Pixels in Processed Spectrum: 2048
>>>>>Begin Processed Spectral Data<<<<<
178.53	0.000
178.91	-1150.000
179.29	-1350.000
179.67	-283.333
180.04	-1300.000
180.42	2650.000
180.80	1100.000
181.18	-1325.000
181.56	742.857
181.94	0.000
182.31	-657.143
182.69	1766.667
183.07	-525.000
183.45	-611.111
183.83	481.818
184.20	-450.000
184.58	2850.000
184.96	6500.000
185.34	-1000.000
185.72	-675.000
186.09	-2600.000
186.47	2550.000
186.85	2850.000
187.23	4200.000
187.61	-1533.333
187.98	1700.000
188.36	627.273
188.74	527.273
189.12	-1140.000
189.49	630.000
189.87	-5300.000
190.25	-1300.000
190.63	471.429
191.00	461.538
191.38	883.333
191.76	-1400.000
192.14	1525.000
192.51	700.000
192.89	1050.000
193.27	675.000
193.65	-1350.000
194.02	520.000
194.40	940.000
194.78	590.000
195.15	550.000
195.53	650.000
195.91	-2400.000
196.29	400.000
196.66	331.579
197.04	-460.000
197.42	0.000
197.79	640.000
198.17	-5800.000
198.55	857.143
198.92	787.500
199.30	1120.000
199.68	0.000
200.05	411.111
200.43	728.571
200.81	4400.000
201.18	1733.333
201.56	-1600.000
201.94	611.111
202.31	588.889
202.69	483.333
203.07	570.000
203.44	0.000
203.82	1550.000
204.19	800.000
204.57	521.429
204.95	600.000
205.32	1800.000
205.70	490.909
206.08	464.286
206.45	3200.000
206.83	387.500
207.20	900.000
207.58	840.000
207.96	361.111
208.33	750.000
208.71	-916.667
209.08	742.857
209.46	766.667
209.84	463.636
210.21	-1466.667
210.59	1475.000
210.96	-650.000
211.34	2450.000
211.71	560.000
212.09	933.333
212.46	0.000
212.84	1633.333
213.22	1525.000
213.59	-3900.000
213.97	983.333
214.34	842.857
214.72	645.455
215.09	1000.000
215.47	-2450.000
215.84	-2300.000
216.22	1866.667
216.59	428.571
216.97	1175.000
217.34	563.636
217.72	-866.667
218.09	0.000
218.47	-6300.000
218.84	655.556
219.22	814.286
219.59	1700.000
219.97	-728.571
220.34	1100.000
220.72	-1733.333
221.09	414.286
221.47	1750.000
221.84	-883.333
222.22	0.000
222.59	1375.000
222.97	-2800.000
223.34	1400.000
223.72	407.692
224.09	1180.000
224.46	2200.000
224.84	-5400.000
225.21	-1080.000
225.59	-4900.000
225.96	620.000
226.34	270.000
226.71	3050.000
227.08	587.500
227.46	500.000
227.83	-1200.000
228.21	-2450.000
228.58	688.889
228.95	-2350.000
229.33	-2350.000
229.70	1600.000
230.08	842.857
230.45	-1000.000
230.82	400.000
231.20	816.667
231.57	728.571
231.95	550.000
232.32	268.182
232.69	445.455
233.07	757.143
233.44	407.692
233.81	-1900.000
234.19	300.000
234.56	475.000
234.93	400.000
235.31	490.909
235.68	353.846
236.05	378.571
236.43	184.848
236.80	200.000
237.17	5300.000
237.55	247.619
237.92	210.714
238.29	233.333
238.67	190.323
239.04	251.724
239.41	177.778
239.79	126.087
240.16	161.905
240.53	184.091
240.91	103.922
241.28	128.000
241.65	112.000
242.02	97.101
242.40	100.000
242.77	101.667
243.14	81.720
243.51	79.775
243.89	89.412
244.26	78.889
244.63	80.645
245.00	65.957
245.38	81.188
245.75	70.093
246.12	66.972
246.49	67.153
246.87	68.800
247.24	70.769
247.61	60.000
247.98	69.935
248.36	50.676
248.73	56.051
249.10	57.325
249.47	55.932
249.84	58.289
250.22	50.802
250.59	52.071
250.96	51.010
251.33	49.289
251.70	54.455
252.08	45.238
252.45	46.188
252.82	49.130
253.19	49.787
253.56	43.137
253.94	47.718
254.31	39.453
254.68	47.308
255.05	42.435
255.42	42.683
255.79	42.647
256.16	40.433
256.54	39.929
256.91	38.790
257.28	36.331
257.65	39.604
258.02	40.994
258.39	36.909
258.76	38.796
259.14	43.452
259.51	37.386
259.88	37.578
260.25	39.879
260.62	37.283
260.99	37.888
261.36	37.838
261.73	34.097
262.10	35.756
262.47	40.282
262.85	33.148
263.22	34.473
263.59	36.182
263.96	35.440
264.33	37.337
264.70	35.789
265.07	37.852
265.44	34.091
265.81	33.577
266.18	35.678
266.55	32.927
266.92	32.432
267.29	33.102
267.66	32.569
268.03	31.364
268.40	32.477
268.77	31.742
269.14	30.180
269.51	32.506
269.88	35.431
270.25	33.409
270.62	32.809
270.99	34.194
271.36	33.906
271.73	32.944
272.10	33.478
272.47	33.548
272.84	33.983
273.21	33.543
273.58	29.694
273.95	29.350
274.32	32.851
274.69	32.548
275.06	29.921
275.43	33.830
275.80	29.459
276.17	31.772
276.54	33.888
276.91	29.447
277.28	28.711
277.65	29.787
278.02	31.677
278.39	30.469
278.76	29.636
279.13	30.189
279.50	32.216
279.87	28.088
280.23	31.936
280.60	30.754
280.97	31.054
281.34	31.858
281.71	30.909
282.08	31.862
282.45	28.727
282.82	30.195
283.19	27.986
283.56	27.193
283.92	28.934
284.29	28.748
284.66	28.131
285.03	28.752
285.40	27.289
285.77	29.461
286.14	26.079
286.51	27.833
286.87	27.692
287.24	28.990
287.61	26.164
287.98	29.545
288.35	27.100
288.72	25.701
289.08	25.196
289.45	24.712
289.82	25.203
290.19	23.548
290.56	25.268
290.93	24.622
291.29	25.613
291.66	25.664
292.03	26.890
292.40	26.285
292.77	22.189
293.13	24.925
293.50	24.781
293.87	24.296
294.24	23.556
294.60	23.581
294.97	25.145
295.34	24.683
295.71	24.006
296.08	23.647
296.44	22.558
296.81	21.004
297.18	24.255
297.55	20.317
297.91	20.449
298.28	22.624
298.65	23.890
299.02	22.793
299.38	22.444
299.75	21.563
300.12	21.711
300.48	21.500
300.85	20.962
301.22	24.076
301.59	20.328
301.95	23.174
302.32	20.411
302.69	19.952
303.05	20.364
303.42	19.506
303.79	20.612
304.15	19.464
304.52	19.583
304.89	20.674
305.25	20.302
305.62	20.838
305.99	21.724
306.35	19.575
306.72	19.955
307.09	20.422
307.45	20.495
307.82	18.415
308.19	20.199
308.55	20.388
308.92	19.549
309.29	19.535
309.65	19.088
310.02	19.979
310.38	19.785
310.75	18.163
311.12	20.164
311.48	19.958
311.85	20.860
312.22	18.730
312.58	19.335
312.95	19.324
313.31	17.670
313.68	19.231
314.05	20.217
314.41	18.995
314.78	19.134
315.14	18.570
315.51	18.641
315.87	18.218
316.24	18.669
316.61	18.519
316.97	18.200
317.34	18.200
317.70	17.304
318.07	18.287
318.43	17.613
318.80	19.681
319.16	16.949
319.53	16.979
319.89	19.048
320.26	18.700
320.62	19.246
320.99	17.273
321.35	18.889
321.72	18.480
322.08	19.151
322.45	19.303
322.81	17.442
323.18	17.919
323.54	17.532
323.91	17.925
324.27	18.451
324.64	17.241
325.00	16.862
325.37	17.561
325.73	17.684
326.10	17.564
326.46	17.025
326.83	17.774
327.19	17.250
327.56	16.638
327.92	17.323
328.29	17.924
328.65	18.140
329.01	18.051
329.38	18.316
329.74	17.913
330.11	17.248
330.47	17.539
330.84	18.199
331.20	17.486
331.56	17.706
331.93	17.315
332.29	17.835
332.66	17.876
333.02	17.642
333.38	18.157
333.75	18.182
334.11	17.705
334.48	17.657
334.84	17.555
335.20	16.455
335.57	17.407
335.93	15.893
336.29	17.033
336.66	16.952
337.02	15.837
337.38	17.685
337.75	16.310
338.11	16.831
338.47	16.851
338.84	17.507
339.20	15.688
339.56	17.701
339.93	16.818
340.29	16.304
340.65	15.865
341.02	17.539
341.38	16.370
341.74	15.877
342.11	16.943
342.47	16.123
342.83	15.325
343.20	16.450
343.56	16.007
343.92	15.965
344.28	16.497
344.65	16.853
345.01	16.919
345.37	15.180
345.73	17.005
346.10	16.795
346.46	15.763
346.82	16.969
347.19	15.455
347.55	15.189
347.91	16.667
348.27	16.270
348.63	16.806
349.00	14.806
349.36	16.256
349.72	14.836
350.08	16.045
350.45	16.111
350.81	15.922
351.17	16.126
351.53	16.380
351.89	15.512
352.26	15.943
352.62	15.237
352.98	15.397
353.34	16.023
353.70	15.221
354.07	14.758
354.43	16.111
354.79	14.883
355.15	15.563
355.51	16.147
355.87	15.184
356.24	15.879
356.60	14.595
356.96	16.010
357.32	14.800
357.68	15.276
358.04	14.489
358.40	16.073
358.77	15.728
359.13	15.312
359.49	14.980
359.85	14.127
360.21	14.354
360.57	15.720
360.93	15.154
361.29	14.588
361.66	14.861
362.02	15.597
362.38	14.221
362.74	14.286
363.10	15.248
363.46	14.747
363.82	14.815
364.18	14.831
364.54	15.007
364.90	15.227
365.26	14.044
365.62	14.755
365.98	14.244
366.35	13.682
366.71	14.606
367.07	14.639
367.43	14.804
367.79	15.132
368.15	15.014
368.51	13.590
368.87	14.632
369.23	13.826
369.59	15.424
369.95	13.897
370.31	15.313
370.67	14.855
371.03	14.831
371.39	14.431
371.75	14.118
372.11	14.794
372.47	14.223
372.83	15.058
373.19	14.740
373.55	14.782
373.91	14.138
374.27	14.639
374.63	14.182
374.99	13.983
375.35	13.678
375.71	14.256
376.07	14.266
376.42	13.549
376.78	14.778
377.14	14.383
377.50	14.702
377.86	13.830
378.22	13.717
378.58	13.158
378.94	13.953
379.30	13.295
379.66	13.959
380.02	13.882
380.38	13.054
380.74	14.406
381.09	13.875
381.45	14.382
381.81	14.496
382.17	13.631
382.53	13.899
382.89	13.765
383.25	12.570
383.61	14.746
383.97	13.133
384.32	14.348
384.68	13.507
385.04	13.952
385.40	13.375
385.76	13.452
386.12	13.990
386.48	13.782
386.83	13.855
387.19	13.915
387.55	12.925
387.91	13.543
388.27	13.121
388.62	13.891
388.98	13.391
389.34	14.268
389.70	13.673
390.06	14.575
390.42	13.619
390.77	14.313
391.13	13.465
391.49	14.467
391.85	14.195
392.20	13.186
392.56	13.321
392.92	13.949
393.28	13.077
393.64	13.489
393.99	13.500
394.35	13.834
394.71	13.676
395.07	13.894
395.42	13.412
395.78	13.868
396.14	13.718
396.50	14.536
396.85	14.240
397.21	12.639
397.57	13.205
397.92	13.642
398.28	13.341
398.64	14.277
399.00	13.934
399.35	13.142
399.71	13.021
400.07	14.134
400.42	14.479
400.78	13.812
401.14	12.988
401.49	13.910
401.85	13.067
402.21	13.772
402.57	13.263
402.92	14.187
403.28	13.492
403.63	13.676
403.99	13.312
404.35	13.879
404.70	13.489
405.06	13.687
405.42	13.974
405.77	13.200
406.13	13.093
406.49	13.720
406.84	13.290
407.20	13.061
407.55	13.401
407.91	15.000
408.27	14.103
408.62	13.185
408.98	13.725
409.34	13.530
409.69	13.935
410.05	13.259
410.40	14.067
410.76	13.501
411.11	13.932
411.47	13.419
411.83	14.356
412.18	13.667
412.54	13.574
412.89	13.976
413.25	13.518
413.60	14.021
413.96	13.600
414.31	13.426
414.67	14.829
415.03	14.040
415.38	14.369
415.74	13.955
416.09	14.566
416.45	13.788
416.80	13.549
417.16	13.472
417.51	14.731
417.87	12.974
418.22	13.628
418.58	14.396
418.93	14.312
419.29	14.386
419.64	14.169
420.00	14.512
420.35	14.435
420.71	14.704
421.06	13.842
421.42	14.620
421.77	14.574
422.12	13.756
422.48	13.546
422.83	13.104
423.19	13.812
423.54	13.059
423.90	13.913
424.25	14.294
424.61	13.988
424.96	13.703
425.31	13.234
425.67	13.371
426.02	13.314
426.38	14.530
426.73	13.985
427.09	14.954
427.44	13.686
427.79	13.341
428.15	14.107
428.50	14.687
428.85	14.184
429.21	14.467
429.56	13.893
429.92	14.545
430.27	13.555
430.62	13.108
430.98	13.596
431.33	14.330
431.68	14.188
432.04	13.578
432.39	13.764
432.74	14.303
433.10	13.978
433.45	14.402
433.80	14.191
434.16	14.209
434.51	13.842
434.86	13.968
435.22	13.952
435.57	13.252
435.92	13.634
436.28	14.235
436.63	15.232
436.98	14.310
437.34	14.609
437.69	14.644
438.04	14.784
438.39	13.851
438.75	14.701
439.10	13.911
439.45	14.699
439.81	13.474
440.16	13.890
440.51	13.943
440.86	14.476
441.22	14.182
441.57	14.119
441.92	14.278
442.27	14.209
442.63	13.849
442.98	14.535
443.33	14.402
443.68	13.681
444.03	13.958
444.39	13.486
444.74	13.799
445.09	14.070
445.44	14.489
445.79	13.459
446.15	14.770
446.50	13.624
446.85	13.669
447.20	14.176
447.55	14.126
447.91	14.286
448.26	14.580
448.61	14.302
448.96	14.784
449.31	14.736
449.66	14.069
450.02	13.705
450.37	13.605
450.72	14.552
451.07	14.260
451.42	13.982
451.77	14.797
452.12	14.665
452.47	14.552
452.83	14.452
453.18	14.731
453.53	14.842
453.88	13.881
454.23	15.362
454.58	14.416
454.93	16.211
455.28	14.339
455.63	14.867
455.98	15.774
456.34	14.761
456.69	15.216
457.04	15.294
457.39	14.494
457.74	14.684
458.09	14.606
458.44	14.880
458.79	14.154
459.14	14.334
459.49	15.178
459.84	14.958
460.19	14.319
460.54	14.294
460.89	14.482
461.24	14.997
461.59	15.979
461.94	15.475
462.29	15.490
462.64	15.444
462.99	14.639
463.34	16.533
463.69	14.884
464.04	15.072
464.39	15.420
464.74	15.508
465.09	15.018
465.44	14.903
465.79	14.485
466.14	14.778
466.49	14.739
466.84	15.353
467.19	15.389
467.54	15.250
467.89	14.826
468.24	15.358
468.59	16.422
468.94	15.638
469.29	15.296
469.64	16.265
469.99	15.900
470.34	15.918
470.68	16.164
471.03	16.259
471.38	16.887
471.73	15.856
472.08	16.250
472.43	15.955
472.78	15.668
473.13	15.276
473.48	15.293
473.83	15.793
474.17	15.059
474.52	16.129
474.87	16.521
475.22	15.612
475.57	15.153
475.92	14.976
476.27	15.502
476.61	15.334
476.96	14.898
477.31	15.123
477.66	15.591
478.01	14.794
478.36	15.706
478.70	15.265
479.05	14.909
479.40	15.302
479.75	15.404
480.10	14.712
480.45	15.183
480.79	14.955
481.14	15.313
481.49	15.140
481.84	14.861
482.19	14.675
482.53	15.229
482.88	14.705
483.23	14.860
483.58	14.923
483.92	14.995
484.27	14.379
484.62	14.095
484.97	13.875
485.31	14.212
485.66	13.422
486.01	12.270
486.36	12.198
486.70	11.896
487.05	12.224
487.40	12.845
487.75	12.651
488.09	13.133
488.44	12.875
488.79	13.816
489.13	14.057
489.48	13.825
489.83	14.286
490.17	15.125
490.52	14.792
490.87	15.197
491.22	14.916
491.56	13.986
491.91	15.216
492.26	15.113
492.60	15.161
492.95	14.687
493.30	15.654
493.64	14.652
493.99	15.367
494.34	15.726
494.68	15.659
495.03	15.742
495.37	15.682
495.72	15.546
496.07	15.638
496.41	15.354
496.76	15.611
497.11	15.489
497.45	15.510
497.80	15.163
498.14	15.507
498.49	15.073
498.84	15.580
499.18	15.095
499.53	15.622
499.87	15.564
500.22	14.602
500.56	15.777
500.91	15.337
501.26	15.458
501.60	15.804
501.95	15.261
502.29	16.073
502.64	15.922
502.98	15.334
503.33	15.219
503.67	15.731
504.02	15.809
504.36	15.863
504.71	15.779
505.06	16.000
505.40	15.314
505.75	15.381
506.09	15.452
506.44	15.590
506.78	16.171
507.13	16.002
507.47	15.909
507.82	16.413
508.16	16.464
508.51	16.591
508.85	15.740
509.19	16.480
509.54	16.276
509.88	16.332
510.23	16.093
510.57	16.615
510.92	16.261
511.26	15.930
511.61	17.064
511.95	16.284
512.30	16.225
512.64	16.926
512.98	16.559
513.33	16.542
513.67	16.702
514.02	16.721
514.36	17.750
514.70	16.823
515.05	16.955
515.39	16.657
515.74	17.455
516.08	17.663
516.42	18.036
516.77	17.837
517.11	17.148
517.46	18.002
517.80	17.480
518.14	17.140
518.49	17.561
518.83	16.307
519.17	17.610
519.52	18.053
519.86	17.684
520.20	17.977
520.55	17.893
520.89	17.762
521.23	18.758
521.58	18.307
521.92	18.371
522.26	17.999
522.61	17.944
522.95	17.557
523.29	17.651
523.64	18.171
523.98	17.991
524.32	17.913
524.66	19.242
525.01	18.260
525.35	18.278
525.69	17.980
526.04	18.567
526.38	18.914
526.72	18.589
527.06	18.832
527.41	16.832
527.75	18.650
528.09	19.075
528.43	19.439
528.78	18.746
529.12	18.545
529.46	18.371
529.80	18.441
530.15	18.442
530.49	17.908
530.83	18.544
531.17	18.277
531.51	19.585
531.86	19.226
532.20	19.557
532.54	18.834
532.88	18.678
533.22	18.301
533.57	18.580
533.91	18.423
534.25	18.834
534.59	17.877
534.93	18.263
535.27	18.286
535.62	17.582
535.96	18.079
536.30	17.737
536.64	18.931
536.98	18.845
537.32	18.170
537.66	18.600
538.01	18.433
538.35	19.005
538.69	18.762
539.03	18.778
539.37	17.955
539.71	16.980
540.05	19.673
540.39	17.940
540.73	18.693
541.07	19.533
541.42	19.048
541.76	18.839
542.10	18.823
542.44	18.543
542.78	19.368
543.12	18.746
543.46	18.164
543.80	18.868
544.14	17.843
544.48	18.984
544.82	18.666
545.16	18.152
545.50	18.509
545.84	18.078
546.18	19.327
546.52	18.445
546.86	18.625
547.20	18.948
547.54	18.236
547.88	19.452
548.22	18.493
548.56	18.113
548.90	18.054
549.24	18.182
549.58	18.213
549.92	18.613
550.26	18.111
550.60	18.050
550.94	19.577
551.28	18.435
551.62	18.620
551.96	18.807
552.30	19.386
552.64	18.729
552.98	19.458
553.32	19.353
553.66	19.496
554.00	19.698
554.34	19.255
554.68	19.456
555.02	20.028
555.36	18.093
555.69	17.997
556.03	18.304
556.37	19.168
556.71	18.417
557.05	19.118
557.39	18.614
557.73	19.337
558.07	19.362
558.41	18.741
558.75	20.279
559.08	19.538
559.42	20.333
559.76	19.044
560.10	19.629
560.44	19.008
560.78	18.164
561.12	18.602
561.45	18.840
561.79	18.457
562.13	17.975
562.47	18.989
562.81	18.480
563.15	19.398
563.48	18.568
563.82	18.721
564.16	18.313
564.50	17.708
564.84	18.647
565.17	18.275
565.51	18.403
565.85	17.386
566.19	17.721
566.52	18.239
566.86	17.420
567.20	18.278
567.54	17.808
567.88	15.861
568.21	16.720
568.55	16.987
568.89	16.245
569.23	16.087
569.56	15.385
569.90	15.132
570.24	14.962
570.57	14.893
570.91	14.059
571.25	14.330
571.59	14.080
571.92	13.969
572.26	13.894
572.60	14.264
572.93	13.853
573.27	13.960
573.61	14.182
573.95	13.695
574.28	13.392
574.62	13.533
574.96	12.951
575.29	13.143
575.63	13.237
575.97	13.174
576.30	13.170
576.64	13.217
576.98	13.418
577.31	12.962
577.65	13.116
577.98	12.786
578.32	12.192
578.66	12.956
578.99	12.874
579.33	12.806
579.67	12.479
580.00	12.851
580.34	13.004
580.67	12.787
581.01	13.177
581.35	12.968
581.68	12.572
582.02	12.437
582.35	12.242
582.69	12.280
583.02	12.743
583.36	12.612
583.70	13.037
584.03	12.931
584.37	13.228
584.70	13.140
585.04	12.989
585.37	12.861
585.71	12.805
586.04	13.047
586.38	13.062
586.72	13.781
587.05	13.094
587.39	12.691
587.72	13.605
588.06	13.420
588.39	13.416
588.73	13.200
589.06	13.649
589.40	13.906
589.73	13.798
590.07	13.950
590.40	13.847
590.73	14.325
591.07	15.263
591.40	15.268
591.74	15.931
592.07	15.052
592.41	14.634
592.74	14.981
593.08	14.390
593.41	13.888
593.75	13.335
594.08	14.314
594.41	14.422
594.75	14.307
595.08	14.030
595.42	14.326
595.75	14.316
596.09	14.608
596.42	14.735
596.75	14.985
597.09	15.758
597.42	14.503
597.75	14.963
598.09	15.348
598.42	14.948
598.76	14.552
599.09	14.595
599.42	14.192
599.76	14.824
600.09	13.880
600.42	13.587
600.76	14.143
601.09	13.625
601.42	14.269
601.76	14.687
602.09	14.308
602.42	15.008
602.76	15.034
603.09	14.555
603.42	15.424
603.76	14.977
604.09	14.308
604.42	14.594
604.76	15.394
605.09	15.028
605.42	14.750
605.75	14.859
606.09	14.803
606.42	14.058
606.75	14.849
607.09	15.153
607.42	14.463
607.75	13.755
608.08	15.545
608.42	15.554
608.75	15.059
609.08	15.541
609.41	15.659
609.75	15.626
610.08	15.363
610.41	15.317
610.74	15.468
611.07	14.921
611.41	15.309
611.74	15.988
612.07	16.253
612.40	15.792
612.73	15.737
613.07	16.272
613.40	16.640
613.73	14.893
614.06	16.237
614.39	16.466
614.72	16.263
615.06	15.651
615.39	15.658
615.72	15.542
616.05	16.108
616.38	16.398
616.71	16.508
617.05	16.902
617.38	16.476
617.71	16.577
618.04	17.007
618.37	16.144
618.70	16.304
619.03	17.829
619.36	17.176
619.69	18.380
620.03	17.514
620.36	17.313
620.69	18.425
621.02	18.068
621.35	17.541
621.68	18.536
622.01	18.034
622.34	18.154
622.67	18.327
623.00	19.002
623.33	17.727
623.66	18.728
623.99	18.189
624.32	17.689
624.65	18.432
624.99	17.847
625.32	17.813
625.65	17.731
625.98	18.909
626.31	18.274
626.64	18.204
626.97	19.534
627.30	18.537
627.63	19.278
627.96	19.008
628.29	19.423
628.62	20.403
628.95	21.038
629.28	20.073
629.61	20.898
629.94	21.143
630.26	20.019
630.59	20.782
