SpectraSuite Data File
++++++++++++++++++++++++++++++++++++
Date: Wed May 13 19:23:26 PDT 2015
User: schluterlab
Dark Spectrum Present: Yes
Reference Spectrum Present: Yes
Number of Sampled Component Spectra: 1
Spectrometers: USB2E3373
Integration Time (usec): 3000 (USB2E3373)
Spectra Averaged: 3 (USB2E3373)
Boxcar Smoothing: 0 (USB2E3373)
Correct for Electrical Dark: No (USB2E3373)
Strobe/Lamp Enabled: No (USB2E3373)
Correct for Detector Non-linearity: No (USB2E3373)
Correct for Stray Light: No (USB2E3373)
Number of Pixels in Processed Spectrum: 2048
>>>>>Begin Processed Spectral Data<<<<<
178.53	0.000
178.91	-1400.000
179.29	-1375.000
179.67	-250.000
180.04	-1050.000
180.42	2900.000
180.80	1160.000
181.18	-1200.000
181.56	785.714
181.94	0.000
182.31	-757.143
182.69	1733.333
183.07	-650.000
183.45	-677.778
183.83	572.727
184.20	-440.000
184.58	2500.000
184.96	5500.000
185.34	-940.000
185.72	-725.000
186.09	-2900.000
186.47	2800.000
186.85	2150.000
187.23	5300.000
187.61	-1700.000
187.98	1525.000
188.36	536.364
188.74	536.364
189.12	-980.000
189.49	560.000
189.87	-5900.000
190.25	-1500.000
190.63	471.429
191.00	461.538
191.38	983.333
191.76	-1275.000
192.14	1575.000
192.51	587.500
192.89	950.000
193.27	700.000
193.65	-1275.000
194.02	500.000
194.40	1140.000
194.78	560.000
195.15	558.333
195.53	640.000
195.91	-2550.000
196.29	337.500
196.66	331.579
197.04	-470.000
197.42	0.000
197.79	680.000
198.17	-5000.000
198.55	614.286
198.92	775.000
199.30	1040.000
199.68	0.000
200.05	311.111
200.43	857.143
200.81	4700.000
201.18	1866.667
201.56	-2000.000
201.94	577.778
202.31	577.778
202.69	450.000
203.07	490.000
203.44	0.000
203.82	1425.000
204.19	785.714
204.57	500.000
204.95	550.000
205.32	1700.000
205.70	536.364
206.08	385.714
206.45	2550.000
206.83	362.500
207.20	1116.667
207.58	960.000
207.96	327.778
208.33	800.000
208.71	-1016.667
209.08	828.571
209.46	700.000
209.84	545.455
210.21	-1933.333
210.59	1250.000
210.96	-425.000
211.34	2550.000
211.71	640.000
212.09	850.000
212.46	0.000
212.84	1766.667
213.22	1300.000
213.59	-5600.000
213.97	1016.667
214.34	928.571
214.72	663.636
215.09	1120.000
215.47	-2450.000
215.84	-2850.000
216.22	2033.333
216.59	450.000
216.97	1675.000
217.34	572.727
217.72	-1033.333
218.09	0.000
218.47	-5000.000
218.84	666.667
219.22	757.143
219.59	2033.333
219.97	-671.429
220.34	1100.000
220.72	-2000.000
221.09	478.571
221.47	1500.000
221.84	-1016.667
222.22	0.000
222.59	1575.000
222.97	-2600.000
223.34	1060.000
223.72	453.846
224.09	1180.000
224.46	2650.000
224.84	-5100.000
225.21	-1240.000
225.59	-5700.000
225.96	610.000
226.34	340.000
226.71	2850.000
227.08	662.500
227.46	640.000
227.83	-1250.000
228.21	-2900.000
228.58	755.556
228.95	-2550.000
229.33	-2600.000
229.70	1966.667
230.08	771.429
230.45	-900.000
230.82	375.000
231.20	816.667
231.57	771.429
231.95	550.000
232.32	268.182
232.69	436.364
233.07	771.429
233.44	438.462
233.81	-1633.333
234.19	342.105
234.56	558.333
234.93	341.667
235.31	454.545
235.68	338.462
236.05	400.000
236.43	196.970
236.80	257.895
237.17	5100.000
237.55	200.000
237.92	228.571
238.29	300.000
238.67	187.097
239.04	231.034
239.41	166.667
239.79	117.391
240.16	142.857
240.53	143.182
240.91	107.843
241.28	120.000
241.65	110.000
242.02	111.594
242.40	100.000
242.77	110.000
243.14	81.720
243.51	89.888
243.89	76.471
244.26	61.111
244.63	79.570
245.00	58.511
245.38	69.307
245.75	66.355
246.12	66.972
246.49	64.964
246.87	64.000
247.24	57.692
247.61	61.429
247.98	55.556
248.36	43.919
248.73	51.592
249.10	57.325
249.47	43.503
249.84	53.476
250.22	42.781
250.59	55.030
250.96	45.455
251.33	46.445
251.70	44.554
252.08	39.048
252.45	39.013
252.82	39.565
253.19	41.702
253.56	41.569
253.94	43.154
254.31	43.359
254.68	36.154
255.05	38.745
255.42	36.179
255.79	37.132
256.16	39.350
256.54	35.336
256.91	38.078
257.28	36.331
257.65	34.983
258.02	32.919
258.39	36.278
258.76	33.445
259.14	36.905
259.51	34.043
259.88	32.919
260.25	34.139
260.62	32.659
260.99	36.957
261.36	34.234
261.73	31.805
262.10	31.686
262.47	31.268
262.85	32.033
263.22	27.920
263.59	34.473
263.96	33.242
264.33	33.159
264.70	32.368
265.07	31.714
265.44	30.808
265.81	29.440
266.18	30.905
266.55	31.220
266.92	30.467
267.29	31.250
267.66	28.899
268.03	28.409
268.40	28.738
268.77	28.640
269.14	26.802
269.51	28.894
269.88	30.070
270.25	30.700
270.62	27.640
270.99	30.753
271.36	29.185
271.73	28.037
272.10	26.522
272.47	28.817
272.84	30.303
273.21	31.027
273.58	28.166
273.95	25.786
274.32	26.033
274.69	28.051
275.06	26.181
275.43	28.936
275.80	26.253
276.17	25.662
276.54	30.769
276.91	24.704
277.28	27.539
277.65	26.692
278.02	27.536
278.39	26.758
278.76	27.091
279.13	27.736
279.50	24.767
279.87	27.888
280.23	25.749
280.60	26.112
280.97	25.323
281.34	28.142
281.71	26.909
282.08	28.983
282.45	23.818
282.82	25.400
283.19	22.103
283.56	24.912
283.92	25.042
284.29	25.044
284.66	27.949
285.03	24.593
285.40	24.824
285.77	25.421
286.14	26.079
286.51	24.500
286.87	24.444
287.24	24.430
287.61	24.238
287.98	24.513
288.35	23.138
288.72	24.611
289.08	25.039
289.45	22.570
289.82	24.715
290.19	23.077
290.56	24.502
290.93	22.810
291.29	23.773
291.66	22.566
292.03	25.145
292.40	22.761
292.77	22.337
293.13	21.343
293.50	22.303
293.87	22.963
294.24	19.556
294.60	18.923
294.97	21.221
295.34	21.439
295.71	22.585
296.08	21.083
296.44	20.220
296.81	20.079
297.18	22.222
297.55	18.602
297.91	19.657
298.28	20.080
298.65	20.366
299.02	19.895
299.38	20.584
299.75	17.116
300.12	18.774
300.48	19.625
300.85	19.975
301.22	19.745
301.59	20.076
301.95	19.647
302.32	19.127
302.69	19.235
303.05	19.273
303.42	18.765
303.79	18.460
304.15	19.114
304.52	16.802
304.89	19.164
305.25	17.633
305.62	19.026
305.99	17.710
306.35	18.904
306.72	18.834
307.09	18.757
307.45	19.257
307.82	17.299
308.19	18.764
308.55	18.986
308.92	18.367
309.29	18.374
309.65	18.770
310.02	18.710
310.38	18.387
310.75	20.275
311.12	18.321
311.48	18.391
311.85	19.916
312.22	19.147
312.58	19.647
312.95	19.113
313.31	19.320
313.68	17.983
314.05	21.598
314.41	21.407
314.78	20.242
315.14	20.258
315.51	21.524
315.87	20.693
316.24	20.556
316.61	20.468
316.97	22.701
317.34	20.548
317.70	22.371
318.07	22.329
318.43	22.994
318.80	22.587
319.16	23.258
319.53	23.171
319.89	24.000
320.26	26.300
320.62	25.000
320.99	26.465
321.35	26.263
321.72	25.770
322.08	26.259
322.45	27.960
322.81	27.326
323.18	28.227
323.54	28.015
323.91	28.396
324.27	29.063
324.64	28.798
325.00	29.847
325.37	30.846
325.73	31.508
326.10	31.156
326.46	31.093
326.83	32.959
327.19	32.195
327.56	33.275
327.92	33.683
328.29	33.718
328.65	35.083
329.01	33.935
329.38	33.765
329.74	34.903
330.11	35.438
330.47	35.721
330.84	36.213
331.20	36.066
331.56	36.330
331.93	36.481
332.29	36.025
332.66	35.841
333.02	36.106
333.38	36.043
333.75	37.611
334.11	36.477
334.48	37.977
334.84	37.224
335.20	37.455
335.57	36.355
335.93	35.446
336.29	37.271
336.66	36.790
337.02	36.833
337.38	39.444
337.75	36.364
338.11	36.168
338.47	37.937
338.84	38.222
339.20	37.339
339.56	39.416
339.93	38.455
340.29	37.409
340.65	36.988
341.02	37.347
341.38	38.879
341.74	36.579
342.11	37.118
342.47	38.150
342.83	37.243
343.20	37.922
343.56	37.489
343.92	36.930
344.28	38.520
344.65	38.865
345.01	36.616
345.37	36.535
345.73	37.563
346.10	37.681
346.46	36.610
346.82	36.573
347.19	37.009
347.55	36.700
347.91	37.540
348.27	37.880
348.63	37.542
349.00	38.026
349.36	37.274
349.72	38.653
350.08	37.763
350.45	37.998
350.81	37.530
351.17	37.763
351.53	37.674
351.89	37.789
352.26	38.674
352.62	37.690
352.98	37.277
353.34	37.880
353.70	36.825
354.07	38.710
354.43	37.381
354.79	37.490
355.15	37.191
355.51	38.609
355.87	38.041
356.24	38.111
356.60	38.011
356.96	38.777
357.32	38.757
357.68	38.189
358.04	38.480
358.40	39.272
358.77	38.263
359.13	38.279
359.49	38.667
359.85	38.095
360.21	38.915
360.57	39.533
360.93	38.077
361.29	39.002
361.66	38.854
362.02	38.433
362.38	38.935
362.74	39.360
363.10	37.676
363.46	38.151
363.82	40.212
364.18	37.739
364.54	38.113
364.90	38.669
365.26	38.750
365.62	39.299
365.98	37.619
366.35	37.822
366.71	39.696
367.07	39.330
367.43	38.824
367.79	39.971
368.15	39.511
368.51	38.953
368.87	38.330
369.23	39.868
369.59	39.319
369.95	39.044
370.31	39.031
370.67	39.203
371.03	40.375
371.39	39.723
371.75	38.897
372.11	38.691
372.47	40.396
372.83	39.841
373.19	39.523
373.55	40.503
373.91	40.648
374.27	39.794
374.63	39.855
374.99	38.701
375.35	39.358
375.71	38.657
376.07	40.398
376.42	39.546
376.78	40.225
377.14	40.909
377.50	39.603
377.86	38.364
378.22	40.076
378.58	38.722
378.94	39.786
379.30	39.885
379.66	39.784
380.02	39.435
380.38	38.494
380.74	40.516
381.09	40.281
381.45	39.766
381.81	40.848
382.17	40.573
382.53	38.805
382.89	40.062
383.25	39.525
383.61	40.892
383.97	41.088
384.32	39.988
384.68	40.087
385.04	39.951
385.40	39.814
385.76	39.619
386.12	40.285
386.48	42.102
386.83	41.501
387.19	41.373
387.55	40.569
387.91	40.810
388.27	39.424
388.62	40.565
388.98	40.725
389.34	39.862
389.70	40.527
390.06	41.255
390.42	40.986
390.77	39.949
391.13	41.161
391.49	41.117
391.85	40.420
392.20	38.612
392.56	39.773
392.92	40.024
393.28	39.882
393.64	40.588
393.99	40.073
394.35	41.129
394.71	39.649
395.07	40.374
395.42	41.286
395.78	41.158
396.14	40.844
396.50	40.288
396.85	41.449
397.21	40.444
397.57	40.360
397.92	41.166
398.28	39.462
398.64	39.964
399.00	40.067
399.35	40.327
399.71	39.873
400.07	40.568
400.42	40.307
400.78	40.470
401.14	39.024
401.49	41.254
401.85	39.685
402.21	39.461
402.57	40.592
402.92	40.984
403.28	40.600
403.63	39.480
403.99	39.936
404.35	40.182
404.70	39.748
405.06	39.546
405.42	40.549
405.77	38.914
406.13	38.883
406.49	39.326
406.84	39.988
407.20	38.830
407.55	40.204
407.91	40.467
408.27	40.459
408.62	39.314
408.98	38.971
409.34	38.253
409.69	40.065
410.05	39.839
410.40	40.061
410.76	38.650
411.11	38.963
411.47	39.233
411.83	39.585
412.18	39.147
412.54	40.535
412.89	39.217
413.25	40.024
413.60	39.716
413.96	38.130
414.31	38.761
414.67	39.797
415.03	40.000
415.38	40.077
415.74	38.778
416.09	40.105
416.45	39.290
416.80	39.194
417.16	39.812
417.51	39.748
417.87	38.471
418.22	39.495
418.58	38.670
418.93	40.111
419.29	38.638
419.64	39.987
420.00	39.390
420.35	39.014
420.71	39.868
421.06	38.783
421.42	39.123
421.77	39.070
422.12	39.921
422.48	37.453
422.83	39.546
423.19	39.006
423.54	38.712
423.90	38.783
424.25	39.084
424.61	39.226
424.96	39.125
425.31	39.258
425.67	38.820
426.02	38.400
426.38	40.537
426.73	39.087
427.09	39.574
427.44	39.390
427.79	39.505
428.15	38.988
428.50	39.672
428.85	38.915
429.21	38.432
429.56	38.673
429.92	39.356
430.27	38.232
430.62	37.942
430.98	38.038
431.33	38.505
431.68	39.162
432.04	38.765
432.39	40.091
432.74	38.719
433.10	39.728
433.45	39.767
433.80	40.355
434.16	39.797
434.51	39.053
434.86	39.339
435.22	39.689
435.57	39.757
435.92	39.672
436.28	40.688
436.63	39.790
436.98	40.698
437.34	40.072
437.69	40.665
438.04	39.348
438.39	39.582
438.75	40.151
439.10	40.391
439.45	40.968
439.81	39.879
440.16	40.147
440.51	39.719
440.86	40.475
441.22	39.433
441.57	40.764
441.92	40.686
442.27	40.258
442.63	40.232
442.98	41.070
443.33	39.674
443.68	40.165
444.03	40.312
444.39	39.241
444.74	40.043
445.09	40.539
445.44	39.584
445.79	39.386
446.15	39.915
446.50	39.634
446.85	39.466
447.20	39.776
447.55	40.592
447.91	40.541
448.26	40.401
448.61	41.153
448.96	40.089
449.31	39.989
449.66	40.180
450.02	39.889
450.37	39.853
450.72	40.666
451.07	38.696
451.42	39.331
451.77	40.986
452.12	40.416
452.47	40.112
452.83	40.967
453.18	39.976
453.53	41.435
453.88	39.752
454.23	39.689
454.58	40.703
454.93	41.704
455.28	39.900
455.63	39.927
455.98	41.488
456.34	40.578
456.69	41.390
457.04	40.000
457.39	38.925
457.74	39.118
458.09	39.908
458.44	40.992
458.79	38.449
459.14	40.181
459.49	39.288
459.84	40.277
460.19	39.423
460.54	39.294
460.89	39.440
461.24	40.741
461.59	41.139
461.94	40.382
462.29	41.128
462.64	38.928
462.99	38.712
463.34	40.467
463.69	39.775
464.04	39.246
464.39	39.710
464.74	39.929
465.09	39.204
465.44	39.114
465.79	38.814
466.14	39.956
466.49	38.543
466.84	39.054
467.19	37.960
467.54	39.938
467.89	39.136
468.24	38.569
468.59	39.621
468.94	38.485
469.29	38.882
469.64	41.700
469.99	39.783
470.34	39.498
470.68	40.014
471.03	38.571
471.38	40.375
471.73	39.241
472.08	39.211
472.43	39.573
472.78	39.697
473.13	39.153
473.48	38.889
473.83	39.085
474.17	37.088
474.52	38.648
474.87	39.054
475.22	38.654
475.57	38.098
475.92	38.343
476.27	38.670
476.61	37.948
476.96	39.032
477.31	36.944
477.66	38.567
478.01	37.219
478.36	38.974
478.70	37.591
479.05	37.327
479.40	38.025
479.75	37.722
480.10	37.177
480.45	36.554
480.79	36.980
481.14	38.258
481.49	38.016
481.84	36.763
482.19	36.483
482.53	37.018
482.88	37.645
483.23	36.402
483.58	37.352
483.92	37.254
484.27	35.904
484.62	36.164
484.97	35.278
485.31	36.027
485.66	34.587
486.01	33.585
486.36	32.275
486.70	32.376
487.05	33.085
487.40	34.065
487.75	34.584
488.09	35.547
488.44	35.023
488.79	36.347
489.13	36.669
489.48	35.808
489.83	35.261
490.17	36.826
490.52	36.182
490.87	35.866
491.22	35.880
491.56	35.171
491.91	35.877
492.26	35.508
492.60	35.899
492.95	34.986
493.30	35.421
493.64	35.371
493.99	35.376
494.34	35.430
494.68	35.256
495.03	36.137
495.37	36.110
495.72	36.209
496.07	35.638
496.41	34.248
496.76	34.960
497.11	34.804
497.45	35.165
497.80	35.125
498.14	34.493
498.49	35.707
498.84	35.187
499.18	34.810
499.53	35.043
499.87	35.275
500.22	34.715
500.56	35.340
500.91	35.240
501.26	35.088
501.60	34.789
501.95	34.326
502.29	35.520
502.64	34.404
502.98	35.063
503.33	34.186
503.67	33.875
504.02	34.284
504.36	35.049
504.71	34.343
505.06	33.976
505.40	34.759
505.75	34.089
506.09	33.673
506.44	33.892
506.78	33.415
507.13	35.184
507.47	34.293
507.82	33.891
508.16	34.904
508.51	34.855
508.85	33.764
509.19	33.622
509.54	34.031
509.88	34.467
510.23	33.728
510.57	35.088
510.92	34.231
511.26	33.967
511.61	34.025
511.95	33.246
512.30	33.987
512.64	33.477
512.98	34.620
513.33	34.047
513.67	33.565
514.02	33.387
514.36	33.315
514.70	33.094
515.05	34.021
515.39	34.268
515.74	34.065
516.08	34.209
516.42	34.295
516.77	33.946
517.11	32.519
517.46	34.029
517.80	34.843
518.14	33.758
518.49	34.189
518.83	34.034
519.17	33.834
519.52	33.899
519.86	34.284
520.20	34.162
520.55	33.932
520.89	33.577
521.23	33.112
521.58	33.854
521.92	34.170
522.26	32.764
522.61	33.645
522.95	33.026
523.29	33.414
523.64	33.232
523.98	33.580
524.32	32.992
524.66	33.434
525.01	32.414
525.35	32.776
525.69	32.081
526.04	32.897
526.38	33.435
526.72	33.558
527.06	33.208
527.41	31.559
527.75	33.055
528.09	33.590
528.43	32.951
528.78	33.374
529.12	32.000
529.46	32.762
529.80	33.478
530.15	33.209
530.49	32.000
530.83	32.342
531.17	32.963
531.51	32.555
531.86	32.968
532.20	33.442
532.54	32.223
532.88	32.798
533.22	31.668
533.57	31.111
533.91	30.945
534.25	31.713
534.59	31.605
534.93	31.469
535.27	31.141
535.62	31.868
535.96	31.701
536.30	31.596
536.64	32.003
536.98	31.652
537.32	32.456
537.66	33.267
538.01	32.456
538.35	31.933
538.69	32.929
539.03	30.929
539.37	31.757
539.71	30.590
540.05	31.569
540.39	31.429
540.73	31.242
541.07	31.538
541.42	31.963
541.76	31.935
542.10	31.177
542.44	30.993
542.78	31.686
543.12	30.326
543.46	31.672
543.80	32.141
544.14	29.910
544.48	31.365
544.82	31.687
545.16	31.165
545.50	30.656
545.84	31.586
546.18	30.505
546.52	31.177
546.86	31.615
547.20	31.288
547.54	30.661
547.88	30.676
548.22	30.075
548.56	30.252
548.90	30.026
549.24	30.505
549.58	30.969
549.92	30.495
550.26	31.463
550.60	30.705
550.94	30.845
551.28	30.578
551.62	31.129
551.96	30.316
552.30	30.922
552.64	31.237
552.98	30.644
553.32	30.681
553.66	30.470
554.00	31.229
554.34	29.538
554.68	30.544
555.02	30.677
555.36	29.993
555.69	28.890
556.03	30.081
556.37	29.536
556.71	30.150
557.05	31.583
557.39	30.861
557.73	30.769
558.07	30.964
558.41	29.667
558.75	30.272
559.08	29.679
559.42	29.630
559.76	30.147
560.10	29.622
560.44	29.909
560.78	30.007
561.12	28.430
561.45	30.117
561.79	29.202
562.13	29.376
562.47	29.440
562.81	29.219
563.15	29.298
563.48	28.183
563.82	28.963
564.16	29.169
564.50	28.451
564.84	28.382
565.17	28.507
565.51	28.626
565.85	28.871
566.19	27.865
566.52	29.006
566.86	28.210
567.20	27.712
567.54	28.139
567.88	27.051
568.21	27.989
568.55	27.654
568.89	27.140
569.23	26.693
569.56	26.073
569.90	25.736
570.24	25.870
570.57	25.638
570.91	25.016
571.25	25.232
571.59	25.184
571.92	24.770
572.26	24.321
572.60	24.414
572.93	24.648
573.27	25.377
573.61	24.428
573.95	24.651
574.28	24.623
574.62	24.028
574.96	23.632
575.29	23.982
575.63	24.136
575.97	24.317
576.30	24.243
576.64	23.983
576.98	24.210
577.31	24.191
577.65	23.996
577.98	23.683
578.32	23.272
578.66	23.732
578.99	23.648
579.33	24.014
579.67	23.109
580.00	23.855
580.34	24.134
580.67	23.753
581.01	23.679
581.35	23.624
581.68	23.303
582.02	22.652
582.35	23.128
582.69	23.309
583.02	23.289
583.36	23.519
583.70	23.801
584.03	24.321
584.37	24.611
584.70	23.981
585.04	23.679
585.37	23.835
585.71	24.107
586.04	23.436
586.38	24.269
586.72	24.717
587.05	23.581
587.39	23.720
587.72	23.731
588.06	23.986
588.39	23.923
588.73	24.113
589.06	24.400
589.40	24.478
589.73	25.026
590.07	24.520
590.40	24.954
590.73	24.746
591.07	25.682
591.40	24.800
591.74	26.277
592.07	24.738
592.41	24.473
592.74	24.644
593.08	24.017
593.41	24.011
593.75	23.111
594.08	23.936
594.41	23.895
594.75	24.658
595.08	23.658
595.42	24.413
595.75	24.110
596.09	25.009
596.42	24.519
596.75	25.201
597.09	25.022
597.42	24.536
597.75	25.097
598.09	25.130
598.42	24.613
598.76	23.997
599.09	23.641
599.42	23.581
599.76	23.829
600.09	22.805
600.42	23.996
600.76	23.357
601.09	23.716
601.42	23.592
601.76	24.288
602.09	24.387
602.42	23.925
602.76	24.587
603.09	23.997
603.42	24.209
603.76	23.399
604.09	23.924
604.42	24.134
604.76	25.137
605.09	24.596
605.42	24.498
605.75	24.007
606.09	24.075
606.42	24.193
606.75	24.430
607.09	23.734
607.42	23.663
607.75	23.671
608.08	24.186
608.42	24.966
608.75	24.031
609.08	24.514
609.41	24.560
609.75	23.869
610.08	24.788
610.41	24.441
610.74	23.888
611.07	24.654
611.41	24.975
611.74	25.138
612.07	25.259
612.40	25.079
612.73	25.053
613.07	26.293
613.40	25.329
613.73	24.279
614.06	24.570
614.39	24.279
614.72	24.474
615.06	24.895
615.39	24.045
615.72	24.489
616.05	24.136
616.38	25.236
616.71	25.653
617.05	25.559
617.38	25.316
617.71	25.646
618.04	25.361
618.37	25.724
618.70	25.887
619.03	26.776
619.36	26.205
619.69	26.690
620.03	25.962
620.36	26.003
620.69	25.890
621.02	26.696
621.35	26.077
621.68	26.947
622.01	25.774
622.34	25.946
622.67	26.084
623.00	25.752
623.33	24.946
623.66	26.662
623.99	26.289
624.32	25.820
624.65	25.494
624.99	25.354
625.32	25.489
625.65	25.845
625.98	26.826
626.31	26.983
626.64	26.857
626.97	26.600
627.30	26.933
627.63	27.646
627.96	26.997
628.29	27.209
628.62	27.447
628.95	29.057
629.28	26.642
629.61	28.139
629.94	27.143
630.26	27.169
630.59	28.503
