SpectraSuite Data File
++++++++++++++++++++++++++++++++++++
Date: Wed May 13 19:49:17 PDT 2015
User: schluterlab
Dark Spectrum Present: Yes
Reference Spectrum Present: Yes
Number of Sampled Component Spectra: 1
Spectrometers: USB2E3373
Integration Time (usec): 3000 (USB2E3373)
Spectra Averaged: 3 (USB2E3373)
Boxcar Smoothing: 0 (USB2E3373)
Correct for Electrical Dark: No (USB2E3373)
Strobe/Lamp Enabled: No (USB2E3373)
Correct for Detector Non-linearity: No (USB2E3373)
Correct for Stray Light: No (USB2E3373)
Number of Pixels in Processed Spectrum: 2048
>>>>>Begin Processed Spectral Data<<<<<
178.53	0.000
178.91	-1275.000
179.29	-1325.000
179.67	-255.556
180.04	-1550.000
180.42	2550.000
180.80	1080.000
181.18	-1125.000
181.56	814.286
181.94	0.000
182.31	-700.000
182.69	1733.333
183.07	-550.000
183.45	-577.778
183.83	536.364
184.20	-470.000
184.58	2700.000
184.96	5800.000
185.34	-920.000
185.72	-750.000
186.09	-2150.000
186.47	2600.000
186.85	2900.000
187.23	4900.000
187.61	-1866.667
187.98	1375.000
188.36	581.818
188.74	527.273
189.12	-960.000
189.49	540.000
189.87	-5100.000
190.25	-1250.000
190.63	421.429
191.00	438.462
191.38	866.667
191.76	-950.000
192.14	1450.000
192.51	675.000
192.89	1050.000
193.27	575.000
193.65	-1200.000
194.02	570.000
194.40	1140.000
194.78	540.000
195.15	525.000
195.53	670.000
195.91	-2200.000
196.29	393.750
196.66	289.474
197.04	-360.000
197.42	0.000
197.79	560.000
198.17	-5600.000
198.55	585.714
198.92	700.000
199.30	1020.000
199.68	0.000
200.05	388.889
200.43	828.571
200.81	4400.000
201.18	1866.667
201.56	-2033.333
201.94	622.222
202.31	522.222
202.69	400.000
203.07	630.000
203.44	0.000
203.82	1350.000
204.19	814.286
204.57	521.429
204.95	625.000
205.32	1800.000
205.70	636.364
206.08	442.857
206.45	2450.000
206.83	418.750
207.20	1050.000
207.58	800.000
207.96	344.444
208.33	650.000
208.71	-883.333
209.08	885.714
209.46	588.889
209.84	463.636
210.21	-1666.667
210.59	1375.000
210.96	-462.500
211.34	2700.000
211.71	580.000
212.09	916.667
212.46	0.000
212.84	1433.333
213.22	1350.000
213.59	-4700.000
213.97	683.333
214.34	871.429
214.72	572.727
215.09	1000.000
215.47	-2750.000
215.84	-2350.000
216.22	1366.667
216.59	414.286
216.97	1475.000
217.34	509.091
217.72	-800.000
218.09	0.000
218.47	-5400.000
218.84	722.222
219.22	814.286
219.59	1933.333
219.97	-542.857
220.34	1120.000
220.72	-1866.667
221.09	442.857
221.47	1450.000
221.84	-983.333
222.22	0.000
222.59	1525.000
222.97	-2550.000
223.34	980.000
223.72	484.615
224.09	980.000
224.46	2350.000
224.84	-4600.000
225.21	-960.000
225.59	-3900.000
225.96	640.000
226.34	375.000
226.71	2950.000
227.08	700.000
227.46	590.000
227.83	-1125.000
228.21	-2800.000
228.58	611.111
228.95	-3350.000
229.33	-2150.000
229.70	1766.667
230.08	942.857
230.45	-760.000
230.82	400.000
231.20	816.667
231.57	742.857
231.95	416.667
232.32	263.636
232.69	463.636
233.07	700.000
233.44	323.077
233.81	-1833.333
234.19	300.000
234.56	491.667
234.93	416.667
235.31	418.182
235.68	330.769
236.05	392.857
236.43	172.727
236.80	289.474
237.17	5300.000
237.55	247.619
237.92	207.143
238.29	242.857
238.67	212.903
239.04	220.690
239.41	150.000
239.79	106.522
240.16	138.095
240.53	131.818
240.91	107.843
241.28	90.000
241.65	102.000
242.02	92.754
242.40	91.935
242.77	86.667
243.14	75.269
243.51	82.022
243.89	70.588
244.26	73.333
244.63	68.817
245.00	65.957
245.38	72.277
245.75	41.121
246.12	48.624
246.49	57.664
246.87	64.800
247.24	43.846
247.61	48.571
247.98	39.216
248.36	43.919
248.73	47.134
249.10	45.223
249.47	48.023
249.84	42.781
250.22	39.572
250.59	36.686
250.96	39.394
251.33	42.654
251.70	41.089
252.08	40.476
252.45	31.839
252.82	36.087
253.19	35.745
253.56	35.686
253.94	36.100
254.31	32.422
254.68	33.462
255.05	32.103
255.42	31.707
255.79	34.926
256.16	32.852
256.54	28.622
256.91	32.028
257.28	28.417
257.65	30.363
258.02	29.503
258.39	28.391
258.76	30.100
259.14	28.869
259.51	25.228
259.88	27.640
260.25	27.795
260.62	27.746
260.99	27.329
261.36	28.529
261.73	28.940
262.10	25.872
262.47	26.761
262.85	28.412
263.22	21.368
263.59	28.490
263.96	24.725
264.33	26.371
264.70	25.789
265.07	28.645
265.44	25.758
265.81	21.898
266.18	25.879
266.55	23.171
266.92	24.570
267.29	23.843
267.66	23.165
268.03	20.682
268.40	23.131
268.77	22.912
269.14	23.198
269.51	23.928
269.88	23.776
270.25	25.959
270.62	24.719
270.99	24.516
271.36	24.249
271.73	24.065
272.10	21.087
272.47	25.161
272.84	22.511
273.21	23.061
273.58	22.271
273.95	21.174
274.32	21.694
274.69	21.413
275.06	20.669
275.43	22.128
275.80	23.447
276.17	22.200
276.54	22.869
276.91	21.739
277.28	20.313
277.65	20.309
278.02	22.981
278.39	24.414
278.76	21.636
279.13	23.396
279.50	20.298
279.87	19.920
280.23	21.357
280.60	20.890
280.97	21.072
281.34	20.354
281.71	21.273
282.08	20.345
282.45	21.273
282.82	19.005
283.19	18.538
283.56	21.228
283.92	20.474
284.29	18.519
284.66	18.693
285.03	18.626
285.40	20.070
285.77	17.508
286.14	18.998
286.51	19.500
286.87	19.829
287.24	19.381
287.61	20.064
287.98	19.643
288.35	19.176
288.72	19.003
289.08	18.153
289.45	17.463
289.82	17.724
290.19	16.013
290.56	17.611
290.93	16.616
291.29	16.564
291.66	17.257
292.03	19.477
292.40	17.768
292.77	16.864
293.13	17.015
293.50	16.910
293.87	15.259
294.24	15.852
294.60	15.866
294.97	15.552
295.34	16.220
295.71	16.903
296.08	14.672
296.44	16.231
296.81	16.380
297.18	18.022
297.55	13.588
297.91	16.887
298.28	16.734
298.65	16.449
299.02	16.733
299.38	15.803
299.75	14.555
300.12	15.709
300.48	15.125
300.85	13.687
301.22	15.924
301.59	14.773
301.95	14.861
302.32	15.148
302.69	15.293
303.05	14.303
303.42	13.457
303.79	14.043
304.15	14.452
304.52	14.484
304.89	12.892
305.25	12.065
305.62	14.949
305.99	15.112
306.35	13.758
306.72	13.229
307.09	13.319
307.45	13.964
307.82	12.723
308.19	14.238
308.55	15.318
308.92	12.675
309.29	12.777
309.65	12.937
310.02	13.108
310.38	14.086
310.75	14.044
311.12	13.511
311.48	12.957
311.85	13.103
312.22	14.152
312.58	14.137
312.95	14.361
313.31	12.039
313.68	13.202
314.05	15.286
314.41	12.864
314.78	12.890
315.14	12.314
315.51	14.315
315.87	13.960
316.24	12.810
316.61	12.963
316.97	12.622
317.34	12.035
317.70	12.811
318.07	12.416
318.43	13.014
318.80	13.683
319.16	12.429
319.53	12.477
319.89	13.333
320.26	13.700
320.62	13.095
320.99	12.929
321.35	12.525
321.72	12.423
322.08	14.018
322.45	14.129
322.81	13.857
323.18	13.391
323.54	13.636
323.91	13.962
324.27	12.046
324.64	11.836
325.00	12.083
325.37	12.830
325.73	13.645
326.10	12.357
326.46	12.366
326.83	12.425
327.19	13.578
327.56	13.240
327.92	12.511
328.29	13.221
328.65	12.339
329.01	12.906
329.38	12.396
329.74	12.835
330.11	12.535
330.47	13.866
330.84	14.706
331.20	12.933
331.56	13.211
331.93	11.759
332.29	13.753
332.66	12.832
333.02	12.888
333.38	13.279
333.75	12.656
334.11	12.189
334.48	12.866
334.84	12.684
335.20	12.727
335.57	12.330
335.93	12.946
336.29	12.454
336.66	12.263
337.02	12.941
337.38	12.870
337.75	12.834
338.11	11.728
338.47	11.971
338.84	13.199
339.20	12.202
339.56	13.777
339.93	12.818
340.29	11.957
340.65	12.745
341.02	13.787
341.38	12.544
341.74	13.333
342.11	12.664
342.47	11.718
342.83	12.072
343.20	12.727
343.56	12.047
343.92	12.193
344.28	12.160
344.65	12.726
345.01	11.700
345.37	11.578
345.73	12.183
346.10	12.702
346.46	12.203
346.82	12.603
347.19	12.030
347.55	11.166
347.91	10.922
348.27	12.654
348.63	11.204
349.00	11.731
349.36	10.920
349.72	12.029
350.08	12.318
350.45	12.205
350.81	11.373
351.17	11.912
351.53	11.712
351.89	11.221
352.26	13.181
352.62	12.189
352.98	11.588
353.34	11.915
353.70	10.229
354.07	12.258
354.43	12.143
354.79	11.585
355.15	10.934
355.51	11.910
355.87	11.918
356.24	11.319
356.60	10.826
356.96	10.700
357.32	11.038
357.68	11.732
358.04	10.610
358.40	11.560
358.77	11.346
359.13	11.760
359.49	11.294
359.85	10.238
360.21	11.483
360.57	12.296
360.93	11.462
361.29	11.413
361.66	11.146
362.02	11.493
362.38	11.483
362.74	11.161
363.10	11.177
363.46	10.932
363.82	9.826
364.18	11.380
364.54	10.996
364.90	11.048
365.26	11.471
365.62	10.957
365.98	10.226
366.35	10.315
366.71	11.280
367.07	10.779
367.43	11.103
367.79	11.991
368.15	11.422
368.51	10.974
368.87	10.849
369.23	10.022
369.59	11.079
369.95	10.441
370.31	10.256
370.67	10.217
371.03	11.011
371.39	10.787
371.75	10.368
372.11	10.384
372.47	11.584
372.83	11.383
373.19	10.188
373.55	10.865
373.91	12.150
374.27	9.966
374.63	10.182
374.99	11.017
375.35	10.607
375.71	11.446
376.07	10.974
376.42	10.935
376.78	11.067
377.14	10.583
377.50	10.728
377.86	9.973
378.22	10.367
378.58	10.526
378.94	9.868
379.30	9.987
379.66	10.089
380.02	10.381
380.38	10.686
380.74	10.504
381.09	9.902
381.45	10.387
381.81	10.627
382.17	11.210
382.53	9.748
382.89	10.062
383.25	9.568
383.61	10.719
383.97	10.757
384.32	10.106
384.68	9.665
385.04	10.018
385.40	9.721
385.76	10.504
386.12	9.262
386.48	10.321
386.83	10.135
387.19	10.513
387.55	10.390
387.91	9.976
388.27	9.319
388.62	10.817
388.98	9.828
389.34	10.200
389.70	9.994
390.06	10.139
390.42	9.209
390.77	10.242
391.13	9.700
391.49	10.787
391.85	9.293
392.20	9.968
392.56	9.028
392.92	10.124
393.28	9.290
393.64	9.053
393.99	10.202
394.35	9.988
394.71	8.846
395.07	9.595
395.42	10.012
395.78	9.860
396.14	10.490
396.50	10.464
396.85	10.362
397.21	9.679
397.57	9.485
397.92	9.675
398.28	9.529
398.64	9.857
399.00	9.289
399.35	9.532
399.71	9.549
400.07	9.817
400.42	10.123
400.78	10.193
401.14	8.902
401.49	9.910
401.85	9.074
402.21	9.581
402.57	9.500
402.92	9.647
403.28	9.494
403.63	10.087
403.99	8.854
404.35	8.970
404.70	10.012
405.06	8.794
405.42	9.794
405.77	9.257
406.13	9.199
406.49	9.876
406.84	9.864
407.20	9.161
407.55	8.934
407.91	9.800
408.27	9.253
408.62	9.512
408.98	9.559
409.34	9.963
409.69	9.613
410.05	9.665
410.40	9.725
410.76	9.259
411.11	10.253
411.47	9.201
411.83	9.407
412.18	8.658
412.54	9.589
412.89	9.518
413.25	9.622
413.60	9.265
413.96	9.047
414.31	9.781
414.67	9.632
415.03	9.272
415.38	9.987
415.74	9.389
416.09	10.059
416.45	9.237
416.80	9.451
417.16	10.322
417.51	9.489
417.87	9.891
418.22	10.158
418.58	10.200
418.93	9.091
419.29	9.994
419.64	9.131
420.00	10.000
420.35	10.261
420.71	10.341
421.06	9.308
421.42	9.708
421.77	9.529
422.12	9.208
422.48	8.635
422.83	9.144
423.19	9.613
423.54	9.054
423.90	9.623
424.25	9.380
424.61	9.345
424.96	9.329
425.31	9.468
425.67	9.213
426.02	9.486
426.38	8.974
426.73	9.187
427.09	9.362
427.44	9.258
427.79	9.431
428.15	10.179
428.50	9.772
428.85	9.714
429.21	8.780
429.56	8.865
429.92	9.562
430.27	8.689
430.62	8.653
430.98	9.445
431.33	9.227
431.68	8.901
432.04	9.052
432.39	9.023
432.74	8.917
433.10	9.508
433.45	9.038
433.80	9.590
434.16	9.402
434.51	9.263
434.86	9.464
435.22	9.783
435.57	9.119
435.92	9.011
436.28	9.846
436.63	9.658
436.98	9.159
437.34	9.660
437.69	9.510
438.04	8.881
438.39	9.433
438.75	9.587
439.10	9.609
439.45	9.327
439.81	9.124
440.16	9.317
440.51	9.139
440.86	9.380
441.22	8.732
441.57	9.501
441.92	8.802
442.27	8.934
442.63	8.952
442.98	10.028
443.33	9.728
443.68	8.673
444.03	9.273
444.39	8.228
444.74	9.091
445.09	9.650
445.44	8.420
445.79	9.005
446.15	9.370
446.50	9.208
446.85	9.198
447.20	9.383
447.55	8.822
447.91	8.715
448.26	8.792
448.61	8.762
448.96	9.468
449.31	10.180
449.66	9.454
450.02	8.858
450.37	9.184
450.72	9.757
451.07	9.019
451.42	9.422
451.77	9.513
452.12	9.180
452.47	9.888
452.83	8.800
453.18	9.658
453.53	9.400
453.88	8.210
454.23	9.743
454.58	10.115
454.93	10.299
455.28	8.354
455.63	9.284
455.98	10.536
456.34	9.234
456.69	9.205
457.04	9.536
457.39	8.942
457.74	9.286
458.09	9.661
458.44	9.407
458.79	8.894
459.14	9.594
459.49	9.399
459.84	9.806
460.19	8.486
460.54	9.201
460.89	8.667
461.24	9.532
461.59	10.691
461.94	9.988
462.29	9.496
462.64	9.892
462.99	9.109
463.34	10.733
463.69	9.694
464.04	9.159
464.39	9.681
464.74	9.685
465.09	9.891
465.44	8.975
465.79	8.166
466.14	9.907
466.49	9.455
466.84	9.807
467.19	9.415
467.54	9.500
467.89	9.844
468.24	9.075
468.59	10.134
468.94	9.163
469.29	9.833
469.64	10.040
469.99	9.540
470.34	9.511
470.68	10.920
471.03	9.728
471.38	10.354
471.73	10.127
472.08	10.658
472.43	10.302
472.78	10.007
473.13	10.141
473.48	10.050
473.83	9.756
474.17	9.334
474.52	9.181
474.87	9.982
475.22	9.228
475.57	9.135
475.92	8.975
476.27	9.696
476.61	9.156
476.96	9.731
477.31	9.210
477.66	9.628
478.01	9.148
478.36	9.096
478.70	9.034
479.05	9.212
479.40	9.007
479.75	8.948
480.10	8.648
480.45	8.853
480.79	8.887
481.14	8.855
481.49	9.018
481.84	8.779
482.19	9.178
482.53	8.807
482.88	9.074
483.23	8.645
483.58	9.509
483.92	8.857
484.27	8.671
484.62	8.750
484.97	8.553
485.31	8.219
485.66	7.276
486.01	6.651
486.36	6.735
486.70	6.753
487.05	7.488
487.40	7.763
487.75	8.105
488.09	8.159
488.44	7.905
488.79	8.752
489.13	8.938
489.48	8.646
489.83	8.114
490.17	8.943
490.52	8.547
490.87	8.458
491.22	9.231
491.56	8.109
491.91	8.841
492.26	8.406
492.60	8.664
492.95	8.372
493.30	9.206
493.64	8.586
493.99	8.449
494.34	9.112
494.68	9.020
495.03	8.553
495.37	8.748
495.72	8.577
496.07	8.863
496.41	8.584
496.76	9.015
497.11	8.960
497.45	8.477
497.80	8.445
498.14	8.116
498.49	8.927
498.84	8.677
499.18	8.571
499.53	8.927
499.87	8.854
500.22	9.279
500.56	8.883
500.91	8.365
501.26	8.962
501.60	9.635
501.95	8.845
502.29	9.231
502.64	9.078
502.98	8.883
503.33	8.867
503.67	9.095
504.02	8.746
504.36	8.797
504.71	8.598
505.06	8.916
505.40	8.216
505.75	9.257
506.09	8.844
506.44	9.127
506.78	8.816
507.13	8.935
507.47	8.485
507.82	9.422
508.16	8.764
508.51	9.538
508.85	8.937
509.19	9.337
509.54	9.235
509.88	9.274
510.23	9.357
510.57	10.165
510.92	9.270
511.26	9.609
511.61	9.544
511.95	9.081
512.30	9.385
512.64	9.511
512.98	9.914
513.33	10.171
513.67	9.605
514.02	9.307
514.36	9.721
514.70	9.353
515.05	8.589
515.39	9.703
515.74	9.966
516.08	10.509
516.42	10.488
516.77	9.810
517.11	9.101
517.46	10.045
517.80	10.221
518.14	9.033
518.49	9.977
518.83	10.455
519.17	9.931
519.52	10.357
519.86	9.755
520.20	10.520
520.55	10.772
520.89	10.462
521.23	10.193
521.58	10.144
521.92	10.900
522.26	10.006
522.61	10.405
522.95	9.822
523.29	10.164
523.64	10.488
523.98	9.982
524.32	11.158
524.66	10.222
525.01	10.233
525.35	10.657
525.69	10.037
526.04	11.277
526.38	10.616
526.72	10.061
527.06	10.860
527.41	9.406
527.75	10.482
528.09	11.240
528.43	11.281
528.78	11.309
529.12	10.788
529.46	10.288
529.80	11.510
530.15	10.903
530.49	10.769
530.83	10.949
531.17	11.554
531.51	11.933
531.86	10.839
532.20	11.538
532.54	11.403
532.88	11.232
533.22	9.869
533.57	10.988
533.91	10.235
534.25	10.996
534.59	10.921
534.93	10.767
535.27	10.380
535.62	10.867
535.96	11.174
536.30	10.426
536.64	10.625
536.98	10.883
537.32	10.204
537.66	10.733
538.01	10.731
538.35	11.700
538.69	11.934
539.03	11.176
539.37	10.735
539.71	9.721
540.05	11.438
540.39	10.233
540.73	10.996
541.07	11.681
541.42	11.872
541.76	11.677
542.10	11.708
542.44	10.795
542.78	11.462
543.12	11.068
543.46	11.016
543.80	10.800
544.14	11.104
544.48	10.095
544.82	10.776
545.16	11.191
545.50	10.990
545.84	10.753
546.18	11.785
546.52	10.255
546.86	10.997
547.20	12.340
547.54	10.822
547.88	11.926
548.22	11.021
548.56	11.887
548.90	9.731
549.24	10.842
549.58	10.300
549.92	11.538
550.26	11.861
550.60	11.826
550.94	11.549
551.28	10.534
551.62	11.574
551.96	10.386
552.30	12.014
552.64	11.427
552.98	10.847
553.32	11.328
553.66	12.065
554.00	11.599
554.34	12.215
554.68	11.302
555.02	11.213
555.36	11.413
555.69	11.705
556.03	11.104
556.37	11.460
556.71	10.846
557.05	11.415
557.39	11.057
557.73	11.856
558.07	12.400
558.41	10.781
558.75	11.095
559.08	11.782
559.42	11.943
559.76	10.809
560.10	10.707
560.44	11.950
560.78	10.379
561.12	11.544
561.45	11.604
561.79	10.218
562.13	10.664
562.47	10.724
562.81	11.437
563.15	11.304
563.48	11.406
563.82	11.285
564.16	10.922
564.50	10.417
564.84	10.999
565.17	10.682
565.51	11.182
565.85	10.406
566.19	10.770
566.52	11.780
566.86	10.729
567.20	10.967
567.54	10.502
567.88	9.995
568.21	10.370
568.55	10.263
568.89	10.554
569.23	9.581
569.56	9.190
569.90	9.509
570.24	9.401
570.57	9.487
570.91	9.082
571.25	9.018
571.59	8.925
571.92	8.727
572.26	9.185
572.60	9.249
572.93	8.666
573.27	9.435
573.61	9.017
573.95	9.018
574.28	8.719
574.62	8.309
574.96	8.220
575.29	8.511
575.63	8.791
575.97	8.696
576.30	8.922
576.64	8.592
576.98	8.775
577.31	8.457
577.65	8.404
577.98	8.484
578.32	8.400
578.66	8.574
578.99	8.811
579.33	8.666
579.67	8.343
580.00	8.583
580.34	8.590
580.67	8.461
581.01	8.905
581.35	7.998
581.68	8.183
582.02	8.064
582.35	7.722
582.69	8.395
583.02	8.663
583.36	8.693
583.70	9.091
584.03	9.091
584.37	9.249
584.70	8.516
585.04	8.929
585.37	8.760
585.71	8.741
586.04	8.843
586.38	8.830
586.72	9.417
587.05	8.639
587.39	8.417
587.72	8.786
588.06	8.965
588.39	9.328
588.73	9.299
589.06	9.473
589.40	9.226
589.73	9.363
590.07	9.217
590.40	9.134
590.73	9.992
591.07	9.890
591.40	9.743
591.74	9.697
592.07	9.599
592.41	9.508
592.74	9.551
593.08	9.460
593.41	9.111
593.75	9.182
594.08	9.688
594.41	9.721
594.75	9.390
595.08	9.198
595.42	9.527
595.75	9.473
596.09	9.801
596.42	10.177
596.75	9.540
597.09	10.260
597.42	9.359
597.75	9.746
598.09	9.565
598.42	9.622
598.76	9.283
599.09	9.350
599.42	9.207
599.76	9.590
600.09	8.962
600.42	9.533
600.76	8.893
601.09	9.362
601.42	9.018
601.76	9.867
602.09	9.249
602.42	9.873
602.76	10.399
603.09	9.127
603.42	9.332
603.76	9.680
604.09	9.577
604.42	9.132
604.76	9.911
605.09	9.305
605.42	9.748
605.75	9.354
606.09	9.109
606.42	9.399
606.75	9.581
607.09	9.669
607.42	10.184
607.75	9.620
608.08	9.683
608.42	10.264
608.75	9.919
609.08	10.361
609.41	10.328
609.75	9.671
610.08	10.038
610.41	9.730
610.74	9.272
611.07	10.079
611.41	10.108
611.74	10.659
612.07	10.870
612.40	9.864
612.73	10.684
613.07	10.291
613.40	11.164
613.73	9.806
614.06	10.000
614.39	10.225
614.72	11.053
615.06	10.294
615.39	9.873
615.72	10.123
616.05	10.473
616.38	9.783
616.71	10.036
617.05	11.131
617.38	10.042
617.71	9.910
618.04	10.757
618.37	10.467
618.70	10.828
619.03	11.842
619.36	11.881
619.69	10.563
620.03	12.088
620.36	11.230
620.69	11.849
621.02	11.431
621.35	10.807
621.68	11.449
622.01	11.455
622.34	11.725
622.67	11.939
623.00	10.492
623.33	10.650
623.66	11.079
623.99	12.224
624.32	11.341
624.65	11.088
624.99	10.411
625.32	11.079
625.65	11.796
625.98	11.145
626.31	12.208
626.64	12.327
626.97	11.887
627.30	11.222
627.63	11.895
627.96	12.279
628.29	11.811
628.62	13.449
628.95	13.585
629.28	12.591
629.61	14.115
629.94	13.143
630.26	12.774
630.59	11.153
630.92	11.877
631.25	11.550
631.58	12.813
631.91	12.373
632.24	11.920
632.57	13.012
632.90	12.281
633.23	12.864
633.56	14.576
633.89	14.609
634.22	14.075
634.55	12.781
634.88	13.772
635.20	15.532
635.53	13.855
635.86	14.356
636.19	12.588
636.52	12.341
636.85	12.944
637.18	13.364
637.51	14.775
637.83	11.221
638.16	13.939
638.49	12.846
638.82	15.044
639.15	14.125
639.48	14.838
639.81	15.282
640.13	15.234
640.46	15.034
640.79	14.267
641.12	13.618
