SpectraSuite Data File
++++++++++++++++++++++++++++++++++++
Date: Wed May 13 19:34:01 PDT 2015
User: schluterlab
Dark Spectrum Present: Yes
Reference Spectrum Present: Yes
Number of Sampled Component Spectra: 1
Spectrometers: USB2E3373
Integration Time (usec): 3000 (USB2E3373)
Spectra Averaged: 3 (USB2E3373)
Boxcar Smoothing: 0 (USB2E3373)
Correct for Electrical Dark: No (USB2E3373)
Strobe/Lamp Enabled: No (USB2E3373)
Correct for Detector Non-linearity: No (USB2E3373)
Correct for Stray Light: No (USB2E3373)
Number of Pixels in Processed Spectrum: 2048
>>>>>Begin Processed Spectral Data<<<<<
178.53	0.000
178.91	-1450.000
179.29	-1475.000
179.67	-277.778
180.04	-1400.000
180.42	2400.000
180.80	1100.000
181.18	-1300.000
181.56	671.429
181.94	0.000
182.31	-785.714
182.69	2133.333
183.07	-625.000
183.45	-477.778
183.83	481.818
184.20	-510.000
184.58	2500.000
184.96	6000.000
185.34	-1000.000
185.72	-662.500
186.09	-2650.000
186.47	3100.000
186.85	2600.000
187.23	5500.000
187.61	-1600.000
187.98	1375.000
188.36	600.000
188.74	627.273
189.12	-940.000
189.49	650.000
189.87	-5100.000
190.25	-1325.000
190.63	428.571
191.00	515.385
191.38	950.000
191.76	-1275.000
192.14	1475.000
192.51	800.000
192.89	1083.333
193.27	662.500
193.65	-1425.000
194.02	530.000
194.40	1160.000
194.78	690.000
195.15	491.667
195.53	720.000
195.91	-2150.000
196.29	325.000
196.66	331.579
197.04	-380.000
197.42	0.000
197.79	620.000
198.17	-5600.000
198.55	714.286
198.92	750.000
199.30	1140.000
199.68	0.000
200.05	361.111
200.43	828.571
200.81	6000.000
201.18	1966.667
201.56	-2033.333
201.94	566.667
202.31	711.111
202.69	516.667
203.07	650.000
203.44	0.000
203.82	1300.000
204.19	800.000
204.57	428.571
204.95	750.000
205.32	1366.667
205.70	518.182
206.08	357.143
206.45	2800.000
206.83	375.000
207.20	1033.333
207.58	900.000
207.96	350.000
208.33	725.000
208.71	-1050.000
209.08	828.571
209.46	600.000
209.84	463.636
210.21	-1533.333
210.59	1450.000
210.96	-500.000
211.34	2850.000
211.71	570.000
212.09	916.667
212.46	0.000
212.84	1866.667
213.22	1475.000
213.59	-4900.000
213.97	883.333
214.34	871.429
214.72	636.364
215.09	1080.000
215.47	-2200.000
215.84	-2600.000
216.22	1733.333
216.59	428.571
216.97	1400.000
217.34	563.636
217.72	-800.000
218.09	0.000
218.47	-6000.000
218.84	655.556
219.22	857.143
219.59	1833.333
219.97	-642.857
220.34	1100.000
220.72	-2000.000
221.09	421.429
221.47	1625.000
221.84	-1066.667
222.22	0.000
222.59	1675.000
222.97	-3300.000
223.34	1220.000
223.72	423.077
224.09	1040.000
224.46	2350.000
224.84	-4800.000
225.21	-1220.000
225.59	-5800.000
225.96	620.000
226.34	330.000
226.71	3050.000
227.08	612.500
227.46	550.000
227.83	-1325.000
228.21	-2300.000
228.58	744.444
228.95	-2600.000
229.33	-2200.000
229.70	2166.667
230.08	814.286
230.45	-1020.000
230.82	475.000
231.20	850.000
231.57	742.857
231.95	533.333
232.32	236.364
232.69	418.182
233.07	671.429
233.44	376.923
233.81	-1633.333
234.19	294.737
234.56	416.667
234.93	450.000
235.31	545.455
235.68	384.615
236.05	400.000
236.43	166.667
236.80	268.421
237.17	4500.000
237.55	261.905
237.92	189.286
238.29	238.095
238.67	200.000
239.04	200.000
239.41	147.222
239.79	104.348
240.16	140.476
240.53	145.455
240.91	121.569
241.28	102.000
241.65	100.000
242.02	114.493
242.40	95.161
242.77	95.000
243.14	83.871
243.51	71.910
243.89	72.941
244.26	66.667
244.63	76.344
245.00	68.085
245.38	68.317
245.75	60.748
246.12	51.376
246.49	62.774
246.87	65.600
247.24	64.615
247.61	55.000
247.98	50.327
248.36	48.649
248.73	45.223
249.10	47.771
249.47	50.282
249.84	49.198
250.22	43.316
250.59	47.929
250.96	45.960
251.33	43.128
251.70	46.535
252.08	42.857
252.45	35.874
252.82	44.783
253.19	38.298
253.56	41.176
253.94	40.249
254.31	39.453
254.68	40.769
255.05	32.841
255.42	38.618
255.79	34.926
256.16	37.184
256.54	31.095
256.91	38.790
257.28	30.216
257.65	38.284
258.02	32.919
258.39	30.915
258.76	33.779
259.14	35.119
259.51	29.483
259.88	31.677
260.25	31.722
260.62	31.792
260.99	34.472
261.36	31.832
261.73	29.799
262.10	30.233
262.47	32.113
262.85	28.691
263.22	25.356
263.59	31.054
263.96	28.022
264.33	30.809
264.70	27.895
265.07	29.156
265.44	28.788
265.81	27.007
266.18	31.407
266.55	27.805
266.92	28.256
267.29	28.935
267.66	27.294
268.03	26.136
268.40	28.037
268.77	26.492
269.14	27.703
269.51	27.088
269.88	28.671
270.25	26.411
270.62	26.517
270.99	29.677
271.36	28.112
271.73	25.701
272.10	29.348
272.47	26.237
272.84	27.922
273.21	26.834
273.58	26.201
273.95	25.157
274.32	23.967
274.69	25.268
275.06	25.787
275.43	25.745
275.80	23.848
276.17	25.458
276.54	25.156
276.91	26.482
277.28	25.391
277.65	26.886
278.02	24.845
278.39	25.000
278.76	24.182
279.13	24.717
279.50	26.257
279.87	25.498
280.23	25.948
280.60	23.017
280.97	24.769
281.34	25.133
281.71	24.727
282.08	26.488
282.45	24.364
282.82	22.558
283.19	22.460
283.56	22.632
283.92	24.196
284.29	22.575
284.66	22.868
285.03	21.881
285.40	24.296
285.77	24.242
286.14	22.971
286.51	23.333
286.87	22.564
287.24	22.638
287.61	22.632
287.98	22.078
288.35	22.662
288.72	21.184
289.08	23.787
289.45	22.735
289.82	21.463
290.19	20.722
290.56	22.052
290.93	20.695
291.29	21.012
291.66	19.912
292.03	22.820
292.40	22.173
292.77	19.527
293.13	20.896
293.50	20.845
293.87	18.519
294.24	21.333
294.60	17.904
294.97	21.802
295.34	19.605
295.71	18.608
296.08	18.946
296.44	18.157
296.81	19.022
297.18	20.596
297.55	17.414
297.91	19.789
298.28	22.088
298.65	18.407
299.02	20.158
299.38	18.194
299.75	17.116
300.12	18.646
300.48	18.125
300.85	17.139
301.22	16.688
301.59	18.056
301.95	17.884
302.32	17.073
302.69	17.563
303.05	16.970
303.42	16.543
303.79	17.554
304.15	16.200
304.52	16.454
304.89	16.841
305.25	15.777
305.62	18.007
305.99	17.473
306.35	17.114
306.72	17.377
307.09	17.092
307.45	17.568
307.82	15.737
308.19	18.102
308.55	15.858
308.92	17.723
309.29	16.262
309.65	16.861
310.02	17.442
310.38	16.667
310.75	17.846
311.12	17.707
311.48	17.868
311.85	18.344
312.22	17.898
312.58	17.048
312.95	18.163
313.31	16.408
313.68	19.231
314.05	19.724
314.41	18.995
314.78	19.436
315.14	19.563
315.51	20.082
315.87	20.693
316.24	20.060
316.61	20.078
316.97	19.667
317.34	20.254
317.70	21.606
318.07	21.174
318.43	21.624
318.80	21.837
319.16	23.352
319.53	22.326
319.89	24.190
320.26	24.000
320.62	24.008
320.99	25.657
321.35	25.152
321.72	25.667
322.08	25.568
322.45	28.756
322.81	27.616
323.18	27.071
323.54	27.551
323.91	27.170
324.27	27.725
324.64	27.679
325.00	29.125
325.37	29.936
325.73	32.226
326.10	30.009
326.46	31.004
326.83	33.305
327.19	33.646
327.56	32.840
327.92	32.896
328.29	35.138
328.65	35.083
329.01	35.289
329.38	35.060
329.74	34.811
330.11	34.496
330.47	37.374
330.84	37.776
331.20	37.523
331.56	37.156
331.93	37.037
332.29	36.912
332.66	36.903
333.02	39.214
333.38	37.037
333.75	36.364
334.11	37.900
334.48	38.243
334.84	37.960
335.20	39.364
335.57	38.078
335.93	39.286
336.29	39.103
336.66	40.397
337.02	38.371
337.38	40.185
337.75	39.750
338.11	39.749
338.47	41.068
338.84	40.238
339.20	41.009
339.56	41.241
339.93	41.455
340.29	40.761
340.65	41.444
341.02	40.663
341.38	40.836
341.74	40.526
342.11	40.349
342.47	40.881
342.83	40.240
343.20	40.779
343.56	40.522
343.92	39.737
344.28	41.241
344.65	41.187
345.01	40.320
345.37	41.595
345.73	41.624
346.10	41.432
346.46	41.780
346.82	40.857
347.19	41.520
347.55	40.066
347.91	40.615
348.27	41.906
348.63	41.054
349.00	40.696
349.36	40.887
349.72	40.658
350.08	40.438
350.45	41.741
350.81	41.105
351.17	40.843
351.53	42.260
351.89	41.502
352.26	41.515
352.62	42.261
352.98	41.815
353.34	42.235
353.70	41.899
354.07	41.774
354.43	40.397
354.79	40.708
355.15	41.500
355.51	43.165
355.87	41.959
356.24	41.938
356.60	40.497
356.96	42.076
357.32	41.946
357.68	42.913
358.04	40.618
358.40	41.251
358.77	42.175
359.13	42.226
359.49	42.039
359.85	41.905
360.21	42.105
360.57	43.035
360.93	41.923
361.29	41.875
361.66	40.325
362.02	42.388
362.38	41.673
362.74	41.964
363.10	41.525
363.46	41.159
363.82	41.950
364.18	41.189
364.54	42.348
364.90	41.289
365.26	42.206
365.62	42.732
365.98	41.125
366.35	40.759
366.71	41.432
367.07	41.879
367.43	42.308
367.79	42.041
368.15	43.175
368.51	41.279
368.87	41.613
369.23	42.575
369.59	41.781
369.95	40.956
370.31	42.165
370.67	40.870
371.03	42.172
371.39	41.254
371.75	41.544
372.11	41.465
372.47	42.302
372.83	43.876
373.19	40.462
373.55	42.942
373.91	43.520
374.27	40.962
374.63	41.818
374.99	41.737
375.35	41.103
375.71	41.398
376.07	42.318
376.42	41.953
376.78	42.015
377.14	41.248
377.50	41.523
377.86	41.423
378.22	42.099
378.58	40.351
378.94	40.163
379.30	41.603
379.66	41.117
380.02	40.541
380.38	41.105
380.74	40.876
381.09	41.198
381.45	41.242
381.81	41.830
382.17	40.828
382.53	41.761
382.89	40.988
383.25	40.650
383.61	40.830
383.97	41.088
384.32	40.861
384.68	39.963
385.04	40.565
385.40	40.619
385.76	40.663
386.12	40.609
386.48	40.780
386.83	40.795
387.19	41.373
387.55	39.951
387.91	38.996
388.27	39.853
388.62	40.443
388.98	39.066
389.34	40.551
389.70	40.650
390.06	39.987
390.42	40.921
390.77	40.076
391.13	40.970
391.49	40.228
391.85	39.911
392.20	38.801
392.56	40.720
392.92	39.670
393.28	39.290
393.64	39.269
393.99	38.974
394.35	39.578
394.71	39.147
395.07	38.505
395.42	39.308
395.78	39.059
396.14	38.672
396.50	39.474
396.85	40.114
397.21	38.471
397.57	38.810
397.92	38.462
398.28	37.780
398.64	38.053
399.00	38.109
399.35	36.774
399.71	38.079
400.07	39.208
400.42	37.546
400.78	37.153
401.14	37.744
401.49	39.045
401.85	38.052
402.21	37.784
402.57	38.186
402.92	37.201
403.28	37.789
403.63	37.252
403.99	37.516
404.35	37.152
404.70	37.650
405.06	36.692
405.42	36.993
405.77	36.114
406.13	36.061
406.49	37.256
406.84	37.035
407.20	36.939
407.55	37.013
407.91	37.200
408.27	37.077
408.62	36.665
408.98	36.949
409.34	35.978
409.69	37.355
410.05	35.688
410.40	35.474
410.76	35.305
411.11	36.610
411.47	36.102
411.83	35.797
412.18	35.993
412.54	36.177
412.89	35.060
413.25	35.301
413.60	36.504
413.96	35.398
414.31	35.662
414.67	35.298
415.03	35.166
415.38	36.469
415.74	35.820
416.09	36.512
416.45	35.944
416.80	34.964
417.16	36.461
417.51	35.169
417.87	34.682
418.22	35.268
418.58	35.249
418.93	34.337
419.29	35.010
419.64	36.083
420.00	34.024
420.35	34.551
420.71	34.967
421.06	34.308
421.42	33.801
421.77	34.249
422.12	34.475
422.48	32.866
422.83	33.838
423.19	33.702
423.54	34.010
423.90	33.855
424.25	34.171
424.61	33.929
424.96	33.994
425.31	34.109
425.67	33.315
426.02	34.000
426.38	34.066
426.73	33.002
427.09	33.617
427.44	33.295
427.79	33.640
428.15	33.452
428.50	33.645
428.85	33.552
429.21	33.352
429.56	34.007
429.92	32.964
430.27	32.075
430.62	31.746
430.98	33.212
431.33	33.041
431.68	32.408
432.04	33.067
432.39	33.067
432.74	34.231
433.10	32.994
433.45	33.936
433.80	33.038
434.16	32.959
434.51	32.579
434.86	32.839
435.22	32.963
435.57	33.191
435.92	32.124
436.28	34.282
436.63	33.002
436.98	33.028
437.34	32.916
437.69	33.372
438.04	32.490
438.39	33.313
438.75	32.655
439.10	31.117
439.45	33.353
439.81	32.568
440.16	31.846
440.51	32.865
440.86	32.600
441.22	31.869
441.57	32.166
441.92	32.344
442.27	32.400
442.63	31.754
442.98	32.451
443.33	31.739
443.68	31.131
444.03	31.674
444.39	30.818
444.74	31.548
445.09	32.022
445.44	31.875
445.79	31.222
446.15	32.028
446.50	31.233
446.85	31.244
447.20	31.820
447.55	32.663
447.91	31.109
448.26	31.386
448.61	31.148
448.96	31.174
449.31	31.440
449.66	31.120
450.02	31.198
450.37	31.122
450.72	31.528
451.07	30.408
451.42	30.578
451.77	31.063
452.12	30.370
452.47	31.965
452.83	31.177
453.18	31.907
453.53	32.220
453.88	31.128
454.23	30.962
454.58	31.193
454.93	32.613
455.28	31.359
455.63	30.886
455.98	32.321
456.34	32.286
456.69	31.434
457.04	31.269
457.39	30.976
457.74	31.109
458.09	30.765
458.44	30.274
458.79	29.881
459.14	30.643
459.49	30.064
459.84	30.249
460.19	30.171
460.54	30.035
460.89	30.773
461.24	30.723
461.59	31.319
461.94	30.826
462.29	30.445
462.64	30.568
462.99	29.603
463.34	31.200
463.69	30.394
464.04	30.087
464.39	30.841
464.74	30.957
465.09	29.192
465.44	29.584
465.79	29.418
466.14	29.885
466.49	28.977
466.84	29.539
467.19	29.632
467.54	29.625
467.89	28.992
468.24	29.145
468.59	29.670
468.94	28.345
469.29	30.784
469.64	31.124
469.99	30.176
470.34	29.260
470.68	31.394
471.03	30.340
471.38	30.716
471.73	30.646
472.08	29.934
472.43	29.585
472.78	29.822
473.13	29.718
473.48	29.900
473.83	30.976
474.17	28.998
474.52	30.645
474.87	29.656
475.22	30.470
475.57	27.888
475.92	28.731
476.27	28.861
476.61	28.461
476.96	28.532
477.31	28.310
477.66	28.829
478.01	28.123
478.36	28.609
478.70	29.128
479.05	29.073
479.40	28.864
479.75	28.266
480.10	27.535
480.45	27.939
480.79	27.616
481.14	28.767
481.49	28.334
481.84	27.984
482.19	27.578
482.53	27.890
482.88	27.222
483.23	27.477
483.58	27.343
483.92	28.257
484.27	26.928
484.62	27.112
484.97	26.567
485.31	26.507
485.66	24.533
486.01	23.931
486.36	22.768
486.70	22.035
487.05	23.681
487.40	23.672
487.75	23.905
488.09	24.841
488.44	24.683
488.79	26.872
489.13	26.318
489.48	27.039
489.83	26.413
490.17	28.146
490.52	27.192
490.87	26.911
491.22	27.376
491.56	26.697
491.91	26.943
492.26	26.596
492.60	26.406
492.95	27.409
493.30	26.355
493.64	28.231
493.99	27.252
494.34	27.845
494.68	27.473
495.03	26.739
495.37	26.896
495.72	27.680
496.07	27.146
496.41	25.929
496.76	26.605
497.11	26.700
497.45	26.875
497.80	26.631
498.14	27.101
498.49	27.366
498.84	27.133
499.18	26.857
499.53	26.686
499.87	26.887
500.22	27.367
500.56	27.330
500.91	26.346
501.26	26.600
501.60	27.480
501.95	26.673
502.29	26.429
502.64	26.257
502.98	26.741
503.33	26.051
503.67	26.079
504.02	26.427
504.36	26.345
504.71	26.136
505.06	26.602
505.40	25.912
505.75	26.037
506.09	25.899
506.44	25.851
506.78	26.449
507.13	26.704
507.47	27.071
507.82	27.710
508.16	27.305
508.51	27.093
508.85	26.167
509.19	27.806
509.54	26.633
509.88	26.533
510.23	26.889
510.57	26.987
510.92	27.343
511.26	25.899
511.61	27.386
511.95	26.461
512.30	27.572
512.64	27.136
512.98	26.688
513.33	27.570
513.67	26.841
514.02	26.299
514.36	26.871
514.70	27.338
515.05	28.444
515.39	28.099
515.74	27.703
516.08	27.781
516.42	27.802
516.77	27.871
517.11	26.915
517.46	28.386
517.80	28.571
518.14	26.983
518.49	27.655
518.83	26.818
519.17	27.887
519.52	27.165
519.86	27.382
520.20	28.092
520.55	29.443
520.89	28.528
521.23	28.408
521.58	28.271
521.92	28.414
522.26	26.541
522.61	28.910
522.95	28.300
523.29	27.815
523.64	28.354
523.98	28.712
524.32	28.227
524.66	28.322
525.01	27.880
525.35	27.323
525.69	27.771
526.04	27.850
526.38	27.822
526.72	27.791
527.06	28.876
527.41	27.475
527.75	28.553
528.09	29.094
528.43	28.107
528.78	28.211
529.12	27.333
529.46	28.230
529.80	28.094
530.15	28.723
530.49	27.508
530.83	28.228
531.17	28.916
531.51	29.313
531.86	28.194
532.20	28.422
532.54	28.956
532.88	27.856
533.22	26.796
533.57	27.716
533.91	26.370
534.25	27.582
534.59	27.029
534.93	27.305
535.27	27.399
535.62	27.717
535.96	27.558
536.30	27.972
536.64	27.560
536.98	27.339
537.32	27.650
537.66	27.333
538.01	27.979
538.35	27.666
538.69	28.334
539.03	27.031
539.37	27.029
539.71	26.636
540.05	27.124
540.39	27.375
540.73	26.585
541.07	27.515
541.42	26.941
541.76	28.452
542.10	27.296
542.44	27.152
542.78	28.788
543.12	26.552
543.46	27.016
543.80	27.586
544.14	27.086
544.48	27.365
544.82	26.491
545.16	26.805
545.50	26.992
545.84	27.016
546.18	27.475
546.52	27.460
546.86	26.942
547.20	27.444
547.54	27.722
547.88	27.296
548.22	25.716
548.56	26.981
548.90	26.761
549.24	27.744
549.58	27.149
549.92	27.610
550.26	28.125
550.60	26.694
550.94	27.535
551.28	27.286
551.62	27.462
551.96	27.158
552.30	27.372
552.64	27.316
552.98	27.729
553.32	27.040
553.66	27.676
554.00	27.248
554.34	27.398
554.68	28.183
555.02	27.786
555.36	27.557
555.69	26.522
556.03	27.322
556.37	26.739
556.71	26.398
557.05	27.521
557.39	27.432
557.73	27.735
558.07	27.991
558.41	28.003
558.75	28.361
559.08	28.262
559.42	28.193
559.76	27.279
560.10	26.624
560.44	26.974
560.78	27.013
561.12	26.055
561.45	26.402
561.79	27.225
562.13	27.163
562.47	26.366
562.81	26.709
563.15	26.823
563.48	26.989
563.82	26.288
564.16	25.703
564.50	26.107
564.84	25.411
565.17	26.126
565.51	26.454
565.85	26.396
566.19	25.673
566.52	25.902
566.86	25.678
567.20	25.413
567.54	25.571
567.88	24.389
568.21	24.762
568.55	23.660
568.89	23.687
569.23	23.173
569.56	22.267
569.90	21.887
570.24	21.564
570.57	20.605
570.91	20.136
571.25	20.445
571.59	19.882
571.92	20.276
572.26	20.277
572.60	20.450
572.93	19.850
573.27	19.876
573.61	20.128
573.95	19.457
574.28	19.623
574.62	18.878
574.96	19.116
575.29	18.768
575.63	19.055
575.97	18.693
576.30	19.251
576.64	19.030
576.98	19.276
577.31	18.554
577.65	18.740
577.98	18.496
578.32	17.613
578.66	17.925
578.99	18.489
579.33	18.494
579.67	18.146
580.00	18.940
580.34	18.747
580.67	18.766
581.01	18.754
581.35	18.450
581.68	18.096
582.02	17.614
582.35	17.613
582.69	18.078
583.02	17.995
583.36	18.607
583.70	18.881
584.03	18.835
584.37	18.999
584.70	19.122
585.04	19.203
585.37	18.593
585.71	18.820
586.04	18.265
586.38	19.018
586.72	19.553
587.05	18.718
587.39	18.549
587.72	18.810
588.06	18.943
588.39	19.643
588.73	18.950
589.06	19.819
589.40	20.135
589.73	20.099
590.07	20.463
590.40	20.497
590.73	20.921
591.07	21.164
591.40	21.383
591.74	22.597
592.07	21.553
592.41	21.372
592.74	20.225
593.08	20.220
593.41	19.677
593.75	19.207
594.08	20.148
594.41	20.643
594.75	20.518
595.08	20.115
595.42	20.455
595.75	20.513
596.09	21.066
596.42	21.572
596.75	21.444
597.09	21.905
597.42	20.616
597.75	20.526
598.09	21.435
598.42	20.533
598.76	20.673
599.09	20.677
599.42	20.670
599.76	21.010
600.09	19.599
600.42	20.307
600.76	19.393
601.09	19.745
601.42	20.662
601.76	20.190
602.09	20.830
602.42	20.263
602.76	20.838
603.09	21.007
603.42	20.734
603.76	20.122
604.09	20.085
604.42	20.587
604.76	21.763
605.09	21.363
605.42	21.163
605.75	21.026
606.09	20.740
606.42	21.169
606.75	20.946
607.09	20.804
607.42	21.267
607.75	20.211
608.08	21.233
608.42	21.381
608.75	21.641
609.08	21.184
609.41	22.037
609.75	22.058
610.08	21.725
610.41	21.788
610.74	21.334
611.07	21.245
611.41	22.031
611.74	22.926
612.07	23.240
612.40	22.403
612.73	23.474
613.07	23.222
613.40	23.328
613.73	22.024
614.06	22.473
614.39	21.605
614.72	23.158
615.06	22.689
615.39	22.081
615.72	22.802
616.05	22.329
616.38	22.957
616.71	23.753
617.05	24.028
617.38	23.031
617.71	23.003
618.04	23.918
618.37	24.187
618.70	24.953
619.03	23.947
619.36	25.662
619.69	25.352
620.03	25.755
620.36	25.267
620.69	25.411
621.02	25.442
621.35	25.764
621.68	25.623
622.01	25.929
622.34	26.702
622.67	26.008
623.00	25.238
623.33	24.303
623.66	25.018
623.99	25.773
624.32	25.963
624.65	24.647
624.99	25.425
625.32	24.982
625.65	25.845
625.98	26.518
626.31	26.594
626.64	25.959
626.97	27.348
627.30	28.013
627.63	27.564
627.96	27.670
628.29	27.297
628.62	28.911
628.95	29.717
629.28	29.106
629.61	29.331
629.94	29.143
630.26	28.885
630.59	29.552
