SpectraSuite Data File
++++++++++++++++++++++++++++++++++++
Date: Wed May 13 19:29:25 PDT 2015
User: schluterlab
Dark Spectrum Present: Yes
Reference Spectrum Present: Yes
Number of Sampled Component Spectra: 1
Spectrometers: USB2E3373
Integration Time (usec): 3000 (USB2E3373)
Spectra Averaged: 3 (USB2E3373)
Boxcar Smoothing: 0 (USB2E3373)
Correct for Electrical Dark: No (USB2E3373)
Strobe/Lamp Enabled: No (USB2E3373)
Correct for Detector Non-linearity: No (USB2E3373)
Correct for Stray Light: No (USB2E3373)
Number of Pixels in Processed Spectrum: 2048
>>>>>Begin Processed Spectral Data<<<<<
178.53	0.000
178.91	-1150.000
179.29	-1325.000
179.67	-266.667
180.04	-1325.000
180.42	2550.000
180.80	1120.000
181.18	-1200.000
181.56	642.857
181.94	0.000
182.31	-671.429
182.69	1633.333
183.07	-600.000
183.45	-466.667
183.83	445.455
184.20	-370.000
184.58	2400.000
184.96	5000.000
185.34	-860.000
185.72	-537.500
186.09	-2450.000
186.47	2550.000
186.85	2350.000
187.23	5000.000
187.61	-1633.333
187.98	1225.000
188.36	581.818
188.74	554.545
189.12	-1000.000
189.49	620.000
189.87	-4200.000
190.25	-1225.000
190.63	507.143
191.00	484.615
191.38	716.667
191.76	-1350.000
192.14	1275.000
192.51	750.000
192.89	1016.667
193.27	612.500
193.65	-1075.000
194.02	570.000
194.40	1160.000
194.78	540.000
195.15	558.333
195.53	580.000
195.91	-2200.000
196.29	356.250
196.66	305.263
197.04	-470.000
197.42	0.000
197.79	600.000
198.17	-4500.000
198.55	757.143
198.92	625.000
199.30	820.000
199.68	0.000
200.05	350.000
200.43	800.000
200.81	4700.000
201.18	1800.000
201.56	-1500.000
201.94	466.667
202.31	666.667
202.69	441.667
203.07	530.000
203.44	0.000
203.82	1400.000
204.19	757.143
204.57	478.571
204.95	600.000
205.32	1666.667
205.70	472.727
206.08	400.000
206.45	2450.000
206.83	406.250
207.20	850.000
207.58	820.000
207.96	300.000
208.33	737.500
208.71	-883.333
209.08	757.143
209.46	611.111
209.84	454.545
210.21	-1566.667
210.59	1525.000
210.96	-512.500
211.34	2450.000
211.71	620.000
212.09	850.000
212.46	0.000
212.84	1766.667
213.22	1175.000
213.59	-4800.000
213.97	816.667
214.34	928.571
214.72	627.273
215.09	960.000
215.47	-2150.000
215.84	-2950.000
216.22	1700.000
216.59	485.714
216.97	1250.000
217.34	490.909
217.72	-816.667
218.09	0.000
218.47	-5600.000
218.84	555.556
219.22	757.143
219.59	1666.667
219.97	-714.286
220.34	880.000
220.72	-1866.667
221.09	421.429
221.47	1375.000
221.84	-1033.333
222.22	0.000
222.59	1425.000
222.97	-2700.000
223.34	1120.000
223.72	484.615
224.09	1140.000
224.46	2700.000
224.84	-5800.000
225.21	-1000.000
225.59	-5100.000
225.96	550.000
226.34	370.000
226.71	2650.000
227.08	625.000
227.46	530.000
227.83	-1375.000
228.21	-2500.000
228.58	455.556
228.95	-2700.000
229.33	-2300.000
229.70	1733.333
230.08	800.000
230.45	-800.000
230.82	416.667
231.20	916.667
231.57	771.429
231.95	500.000
232.32	286.364
232.69	427.273
233.07	671.429
233.44	300.000
233.81	-1933.333
234.19	305.263
234.56	441.667
234.93	408.333
235.31	472.727
235.68	300.000
236.05	385.714
236.43	190.909
236.80	273.684
237.17	3800.000
237.55	233.333
237.92	210.714
238.29	266.667
238.67	174.194
239.04	203.448
239.41	183.333
239.79	134.783
240.16	135.714
240.53	147.727
240.91	98.039
241.28	108.000
241.65	110.000
242.02	91.304
242.40	95.161
242.77	86.667
243.14	74.194
243.51	83.146
243.89	71.765
244.26	67.778
244.63	66.667
245.00	69.149
245.38	65.347
245.75	69.159
246.12	64.220
246.49	62.774
246.87	71.200
247.24	67.692
247.61	53.571
247.98	50.327
248.36	48.649
248.73	51.592
249.10	55.414
249.47	49.153
249.84	44.920
250.22	47.594
250.59	50.888
250.96	41.919
251.33	45.498
251.70	46.535
252.08	44.762
252.45	40.359
252.82	40.870
253.19	44.681
253.56	43.137
253.94	39.834
254.31	33.594
254.68	40.769
255.05	36.900
255.42	38.618
255.79	39.706
256.16	39.711
256.54	32.155
256.91	37.722
257.28	34.892
257.65	33.993
258.02	36.025
258.39	34.069
258.76	37.124
259.14	32.440
259.51	33.435
259.88	33.230
260.25	34.743
260.62	33.237
260.99	30.435
261.36	35.435
261.73	33.238
262.10	31.395
262.47	32.394
262.85	31.755
263.22	29.060
263.59	33.903
263.96	31.319
264.33	30.548
264.70	32.105
265.07	31.202
265.44	33.586
265.81	27.007
266.18	31.407
266.55	28.537
266.92	29.975
267.29	29.630
267.66	27.982
268.03	30.227
268.40	28.972
268.77	30.072
269.14	27.252
269.51	29.571
269.88	25.641
270.25	28.217
270.62	31.236
270.99	31.398
271.36	28.326
271.73	28.972
272.10	28.043
272.47	29.247
272.84	30.087
273.21	28.931
273.58	28.384
273.95	25.577
274.32	27.893
274.69	26.767
275.06	26.772
275.43	27.447
275.80	27.455
276.17	28.310
276.54	27.651
276.91	27.668
277.28	27.148
277.65	25.532
278.02	25.466
278.39	28.320
278.76	26.545
279.13	27.547
279.50	25.698
279.87	24.701
280.23	29.341
280.60	25.919
280.97	25.693
281.34	24.602
281.71	25.273
282.08	27.447
282.45	25.273
282.82	25.933
283.19	24.599
283.56	25.439
283.92	27.750
284.29	25.573
284.66	26.860
285.03	24.955
285.40	25.352
285.77	26.431
286.14	23.143
286.51	25.667
286.87	25.299
287.24	25.081
287.61	22.793
287.98	23.701
288.35	23.138
288.72	23.832
289.08	22.379
289.45	24.547
289.82	23.740
290.19	21.507
290.56	22.665
290.93	21.752
291.29	23.620
291.66	22.419
292.03	24.564
292.40	21.586
292.77	20.562
293.13	22.388
293.50	20.408
293.87	20.889
294.24	21.037
294.60	21.106
294.97	19.767
295.34	22.990
295.71	21.023
296.08	20.798
296.44	20.083
296.81	20.872
297.18	21.816
297.55	17.942
297.91	18.602
298.28	21.553
298.65	20.888
299.02	20.817
299.38	19.655
299.75	17.251
300.12	18.135
300.48	20.125
300.85	19.729
301.22	17.962
301.59	18.813
301.95	19.521
302.32	18.742
302.69	19.713
303.05	18.545
303.42	18.765
303.79	18.573
304.15	18.531
304.52	16.686
304.89	18.931
305.25	17.749
305.62	19.819
305.99	17.828
306.35	17.338
306.72	17.377
307.09	18.313
307.45	19.820
307.82	17.299
308.19	18.212
308.55	19.202
308.92	16.864
309.29	18.163
309.65	17.603
310.02	18.393
310.38	18.172
310.75	17.740
311.12	19.038
311.48	18.913
311.85	20.126
312.22	19.043
312.58	18.607
312.95	19.219
313.31	17.670
313.68	19.854
314.05	20.611
314.41	18.593
314.78	19.537
315.14	20.357
315.51	21.318
315.87	20.099
316.24	19.563
316.61	20.663
316.97	19.080
317.34	19.667
317.70	21.415
318.07	21.655
318.43	21.624
318.80	23.243
319.16	22.222
319.53	20.919
319.89	21.905
320.26	24.100
320.62	25.595
320.99	24.646
321.35	24.040
321.72	26.591
322.08	26.456
322.45	26.866
322.81	27.229
323.18	28.902
323.54	27.365
323.91	27.925
324.27	28.011
324.64	28.052
325.00	27.592
325.37	30.118
325.73	30.521
326.10	30.274
326.46	29.839
326.83	31.320
327.19	31.255
327.56	31.794
327.92	32.546
328.29	33.452
328.65	33.517
329.01	33.574
329.38	32.377
329.74	34.072
330.11	34.779
330.47	33.242
330.84	34.926
331.20	34.882
331.56	35.505
331.93	35.000
332.29	34.428
332.66	36.018
333.02	35.009
333.38	35.411
333.75	36.453
334.11	34.964
334.48	36.646
334.84	36.213
335.20	35.636
335.57	35.449
335.93	34.821
336.29	36.081
336.66	35.167
337.02	36.109
337.38	37.315
337.75	34.938
338.11	35.810
338.47	36.556
338.84	36.572
339.20	35.963
339.56	37.318
339.93	37.000
340.29	36.232
340.65	36.096
341.02	37.609
341.38	37.100
341.74	36.842
342.11	36.681
342.47	36.652
342.83	36.986
343.20	35.931
343.56	36.394
343.92	36.053
344.28	36.395
344.65	36.629
345.01	35.943
345.37	36.364
345.73	36.717
346.10	36.743
346.46	37.797
346.82	37.150
347.19	36.341
347.55	37.685
347.91	37.136
348.27	37.716
348.63	38.043
349.00	36.974
349.36	38.095
349.72	37.610
350.08	37.439
350.45	37.998
350.81	36.474
351.17	37.601
351.53	37.920
351.89	36.964
352.26	37.490
352.62	38.011
352.98	38.412
353.34	38.209
353.70	37.398
354.07	37.823
354.43	37.460
354.79	37.088
355.15	37.829
355.51	39.888
355.87	39.347
356.24	38.029
356.60	38.172
356.96	39.984
357.32	39.411
357.68	39.843
358.04	38.321
358.40	39.351
358.77	39.750
359.13	38.516
359.49	40.314
359.85	38.889
360.21	39.793
360.57	40.000
360.93	41.000
361.29	39.758
361.66	38.467
362.02	39.925
362.38	40.837
362.74	40.030
363.10	39.452
363.46	39.472
363.82	40.967
364.18	39.427
364.54	40.639
364.90	41.076
365.26	40.588
365.62	40.321
365.98	41.417
366.35	40.043
366.71	41.793
367.07	40.422
367.43	41.364
367.79	42.184
368.15	41.595
368.51	42.078
368.87	42.969
369.23	42.868
369.59	42.361
369.95	41.544
370.31	42.094
370.67	42.971
371.03	42.921
371.39	42.638
371.75	44.118
372.11	42.248
372.47	43.548
372.83	44.524
373.19	42.558
373.55	45.233
373.91	44.256
374.27	43.368
374.63	44.873
374.99	44.915
375.35	45.429
375.71	44.140
376.07	44.719
376.42	44.979
376.78	45.129
377.14	44.505
377.50	46.424
377.86	45.412
378.22	45.828
378.58	45.175
378.94	46.700
379.30	46.310
379.66	45.939
380.02	46.437
380.38	44.809
380.74	46.339
381.09	47.005
381.45	48.617
381.81	46.990
382.17	48.344
382.53	48.050
382.89	47.593
383.25	48.218
383.61	49.257
383.97	47.029
384.32	48.160
384.68	48.203
385.04	48.494
385.40	47.988
385.76	48.342
386.12	48.251
386.48	48.647
386.83	51.572
387.19	50.711
387.55	49.536
387.91	50.000
388.27	48.743
388.62	51.260
388.98	48.649
389.34	49.625
389.70	49.785
390.06	51.014
390.42	50.908
390.77	52.163
391.13	50.798
391.49	51.777
391.85	50.223
392.20	50.789
392.56	52.083
392.92	51.383
393.28	51.361
393.64	52.518
393.99	50.336
394.35	50.993
394.71	50.627
395.07	51.526
395.42	51.174
395.78	52.099
396.14	52.638
396.50	53.070
396.85	52.448
397.21	51.788
397.57	52.635
397.92	53.125
398.28	52.298
398.64	52.927
399.00	51.707
399.35	52.284
399.71	52.662
400.07	53.046
400.42	52.822
400.78	53.016
401.14	52.012
401.49	53.731
401.85	53.055
402.21	52.275
402.57	52.992
402.92	53.090
403.28	53.904
403.63	53.403
403.99	52.675
404.35	52.788
404.70	54.137
405.06	53.116
405.42	53.649
405.77	53.029
406.13	52.483
406.49	52.691
406.84	53.455
407.20	53.664
407.55	53.669
407.91	54.467
408.27	54.180
408.62	52.438
408.98	52.757
409.34	54.797
409.69	54.452
410.05	53.470
410.40	54.006
410.76	53.226
411.11	52.352
411.47	53.035
411.83	54.307
412.18	52.566
412.54	54.421
412.89	53.012
413.25	54.664
413.60	53.613
413.96	52.459
414.31	54.617
414.67	53.549
415.03	53.974
415.38	54.317
415.74	54.534
416.09	53.756
416.45	55.020
416.80	53.734
417.16	54.692
417.51	53.882
417.87	54.078
418.22	53.943
418.58	54.616
418.93	53.440
419.29	53.978
419.64	54.660
420.00	54.634
420.35	52.870
420.71	55.409
421.06	53.580
421.42	53.158
421.77	52.635
422.12	53.004
422.48	53.103
422.83	54.863
423.19	53.039
423.54	53.163
423.90	54.145
424.25	53.266
424.61	53.690
424.96	54.402
425.31	53.101
425.67	52.584
426.02	52.171
426.38	54.274
426.73	52.896
427.09	54.225
427.44	53.479
427.79	52.444
428.15	53.036
428.50	53.072
428.85	53.874
429.21	52.789
429.56	53.136
429.92	52.491
430.27	52.483
430.62	51.869
430.98	52.673
431.33	52.526
431.68	52.984
432.04	53.035
432.39	53.569
432.74	53.680
433.10	53.707
433.45	53.236
433.80	52.106
434.16	52.618
434.51	52.895
434.86	52.908
435.22	52.362
435.57	53.556
435.92	53.423
436.28	53.559
436.63	52.649
436.98	52.547
437.34	52.952
437.69	53.151
438.04	52.501
438.39	52.836
438.75	53.283
439.10	52.402
439.45	52.893
439.81	52.568
440.16	51.948
440.51	52.783
440.86	52.287
441.22	51.557
441.57	51.858
441.92	52.764
442.27	51.668
442.63	51.132
442.98	52.113
443.33	50.435
443.68	51.007
444.03	51.391
444.39	50.974
444.74	51.786
445.09	51.698
445.44	50.683
445.79	50.173
446.15	50.873
446.50	51.158
446.85	50.874
447.20	50.484
447.55	51.033
447.91	51.241
448.26	51.308
448.61	50.424
448.96	51.550
449.31	51.406
449.66	50.929
450.02	49.471
450.37	50.907
450.72	51.213
451.07	49.482
451.42	49.362
451.77	50.029
452.12	50.808
452.47	50.498
452.83	51.457
453.18	50.061
453.53	51.763
453.88	50.325
454.23	50.209
454.58	49.849
454.93	51.494
455.28	50.561
455.63	50.789
455.98	50.774
456.34	50.817
456.69	50.783
457.04	50.588
457.39	49.445
457.74	48.810
458.09	49.224
458.44	49.943
458.79	47.831
459.14	49.492
459.49	49.212
459.84	49.972
460.19	48.969
460.54	47.280
460.89	48.711
461.24	49.727
461.59	48.867
461.94	48.397
462.29	48.190
462.64	48.181
462.99	47.365
463.34	49.000
463.69	48.093
464.04	47.768
464.39	47.652
464.74	47.594
465.09	46.381
465.44	46.870
465.79	46.700
466.14	46.634
466.49	46.051
466.84	46.410
467.19	46.892
467.54	46.562
467.89	45.918
468.24	45.899
468.59	46.825
468.94	46.976
469.29	46.915
469.64	47.256
469.99	45.805
470.34	45.905
470.68	46.695
471.03	47.075
471.38	46.560
471.73	45.170
472.08	46.118
472.43	45.101
472.78	44.898
473.13	45.122
473.48	44.819
473.83	45.366
474.17	45.800
474.52	44.789
474.87	45.768
475.22	44.631
475.57	43.632
475.92	44.610
476.27	43.574
476.61	43.795
476.96	43.705
477.31	44.008
477.66	43.818
478.01	41.819
478.36	44.104
478.70	43.302
479.05	43.397
479.40	43.501
479.75	43.366
480.10	41.302
480.45	42.408
480.79	40.898
481.14	42.857
481.49	42.193
481.84	41.792
482.19	41.481
482.53	41.743
482.88	42.159
483.23	42.617
483.58	42.175
483.92	41.565
484.27	41.133
484.62	40.776
484.97	40.402
485.31	41.096
485.66	40.069
486.01	39.020
486.36	38.205
486.70	37.866
487.05	38.250
487.40	38.892
487.75	38.609
488.09	39.824
488.44	38.726
488.79	38.987
489.13	38.770
489.48	39.560
489.83	40.009
490.17	39.325
490.52	39.548
490.87	39.077
491.22	39.018
491.56	38.952
491.91	38.064
492.26	38.356
492.60	38.249
492.95	37.278
493.30	37.991
493.64	38.497
493.99	38.254
494.34	37.882
494.68	38.049
495.03	37.970
495.37	37.506
495.72	37.914
496.07	36.845
496.41	36.195
496.76	36.851
497.11	36.560
497.45	37.028
497.80	36.996
498.14	36.618
498.49	35.756
498.84	37.584
499.18	36.000
499.53	36.467
499.87	36.580
500.22	37.070
500.56	36.990
500.91	35.433
501.26	35.704
501.60	36.402
501.95	35.747
502.29	35.801
502.64	35.521
502.98	35.437
503.33	34.598
503.67	35.267
504.02	35.220
504.36	34.488
504.71	35.320
505.06	34.988
505.40	34.954
505.75	33.462
506.09	34.014
506.44	35.422
506.78	34.925
507.13	34.982
507.47	34.141
507.82	34.245
508.16	34.600
508.51	34.703
508.85	34.310
509.19	33.929
509.54	33.469
509.88	33.745
510.23	35.064
510.57	34.107
510.92	33.713
511.26	33.453
511.61	33.506
511.95	33.246
512.30	32.980
512.64	33.154
512.98	33.655
513.33	32.976
513.67	32.551
514.02	32.089
514.36	33.151
514.70	33.260
515.05	33.017
515.39	32.193
515.74	33.221
516.08	32.588
516.42	33.130
516.77	33.278
517.11	32.242
517.46	32.957
517.80	33.333
518.14	32.774
518.49	32.380
518.83	33.239
519.17	31.755
519.52	31.466
519.86	32.230
520.20	32.428
520.55	32.136
520.89	32.482
521.23	32.328
521.58	32.233
521.92	31.170
522.26	31.117
522.61	31.838
522.95	30.939
523.29	30.980
523.64	31.890
523.98	31.731
524.32	30.941
524.66	30.968
525.01	31.250
525.35	30.050
525.69	30.542
526.04	31.776
526.38	31.056
526.72	30.184
527.06	31.073
527.41	29.827
527.75	32.476
528.09	30.700
528.43	31.103
528.78	30.977
529.12	30.545
529.46	30.986
529.80	29.641
530.15	31.340
530.49	29.169
530.83	30.000
531.17	30.940
531.51	30.804
531.86	29.806
532.20	30.117
532.54	30.621
532.88	29.525
533.22	29.669
533.57	29.259
533.91	29.139
534.25	29.344
534.59	29.103
534.93	28.495
535.27	28.244
535.62	29.670
535.96	29.630
536.30	28.481
536.64	29.491
536.98	30.392
537.32	27.716
537.66	29.667
538.01	30.086
538.35	29.670
538.69	29.228
539.03	28.005
539.37	27.604
539.71	26.896
540.05	28.039
540.39	28.704
540.73	27.878
541.07	28.942
541.42	28.376
541.76	29.032
542.10	27.102
542.44	28.543
542.78	29.183
543.12	27.959
543.46	28.393
543.80	27.456
544.14	27.407
544.48	27.937
544.82	28.416
545.16	27.977
545.50	26.735
545.84	28.293
546.18	28.215
546.52	28.149
546.86	27.835
547.20	29.332
547.54	26.453
547.88	27.168
548.22	27.273
548.56	27.610
548.90	26.825
549.24	28.215
549.58	27.490
549.92	26.580
550.26	27.131
550.60	25.864
550.94	26.972
551.28	26.042
551.62	27.031
551.96	27.088
552.30	26.826
552.64	26.640
552.98	26.983
553.32	27.782
553.66	27.471
554.00	26.150
554.34	26.018
554.68	28.326
555.02	26.093
555.36	26.722
555.69	26.252
556.03	25.774
556.37	26.126
556.71	26.126
557.05	25.630
557.39	26.032
557.73	25.618
558.07	26.251
558.41	25.832
558.75	26.157
559.08	25.951
559.42	26.379
559.76	25.956
560.10	26.481
560.44	26.415
560.78	25.682
561.12	25.660
561.45	26.141
561.79	26.104
562.13	25.352
562.47	25.410
562.81	25.384
563.15	24.950
563.48	25.531
563.82	24.527
564.16	25.049
564.50	25.065
564.84	24.779
565.17	25.611
565.51	26.006
565.85	24.873
566.19	24.734
566.52	26.346
566.86	24.352
567.20	25.413
567.54	24.429
567.88	25.041
568.21	25.185
568.55	24.368
568.89	24.416
569.23	24.020
569.56	23.279
569.90	23.208
570.24	23.358
570.57	23.325
570.91	22.334
571.25	22.823
571.59	23.093
571.92	22.437
572.26	22.588
572.60	23.153
572.93	22.849
573.27	22.833
573.61	22.669
573.95	22.455
574.28	22.261
574.62	21.939
574.96	21.912
575.29	21.678
575.63	22.256
575.97	21.843
576.30	22.570
576.64	22.189
576.98	21.925
577.31	21.511
577.65	21.933
577.98	21.733
578.32	21.485
578.66	21.761
578.99	21.913
579.33	21.932
579.67	21.430
580.00	21.266
580.34	21.879
580.67	21.272
581.01	21.745
581.35	21.865
581.68	21.332
582.02	21.375
582.35	21.248
582.69	21.812
583.02	21.846
583.36	21.720
583.70	21.628
584.03	21.369
584.37	22.161
584.70	21.317
585.04	21.429
585.37	21.202
585.71	21.523
586.04	21.479
586.38	21.238
586.72	21.983
587.05	21.190
587.39	21.055
587.72	21.541
588.06	21.318
588.39	21.893
588.73	21.443
589.06	21.751
589.40	21.414
589.73	21.718
590.07	21.423
590.40	21.410
590.73	21.858
591.07	22.914
591.40	22.649
591.74	22.814
592.07	21.728
592.41	22.695
592.74	21.199
593.08	21.419
593.41	21.417
593.75	21.081
594.08	21.354
594.41	20.997
594.75	21.701
595.08	21.439
595.42	21.296
595.75	22.009
596.09	21.555
596.42	22.279
596.75	21.781
597.09	21.905
597.42	21.248
597.75	21.302
598.09	22.130
598.42	21.392
598.76	21.281
599.09	21.133
599.42	20.852
599.76	21.376
600.09	20.765
600.42	20.891
600.76	20.357
601.09	20.729
601.42	20.548
601.76	20.873
602.09	20.830
602.42	21.338
602.76	21.161
603.09	21.243
603.42	21.007
603.76	20.770
604.09	20.512
604.42	21.158
604.76	21.088
605.09	21.057
605.42	20.821
605.75	20.944
606.09	20.781
606.42	20.964
606.75	20.987
607.09	21.013
607.42	20.582
607.75	19.916
608.08	20.669
608.42	22.008
608.75	20.694
609.08	20.305
609.41	20.895
609.75	21.391
610.08	21.772
610.41	20.438
610.74	21.050
611.07	21.492
611.41	20.952
611.74	21.217
612.07	21.014
612.40	21.773
612.73	20.579
613.07	22.468
613.40	21.643
613.73	20.870
614.06	21.237
614.39	20.975
614.72	20.684
615.06	20.641
615.39	20.435
615.72	20.654
616.05	20.574
616.38	21.012
616.71	21.615
617.05	21.731
617.38	21.046
617.71	20.781
618.04	22.115
618.37	21.407
618.70	20.722
619.03	21.447
619.36	21.724
619.69	21.268
620.03	21.703
620.36	22.126
620.69	22.055
621.02	21.829
621.35	21.613
621.68	21.340
622.01	21.517
622.34	22.163
622.67	21.597
623.00	21.130
623.33	21.587
623.66	22.159
623.99	22.165
624.32	20.827
624.65	21.328
624.99	20.609
625.32	20.565
625.65	21.788
625.98	22.137
626.31	22.473
626.64	21.469
626.97	22.361
627.30	21.363
627.63	21.411
627.96	22.792
628.29	20.735
628.62	21.500
628.95	22.453
629.28	21.259
629.61	23.190
629.94	20.857
630.26	21.354
630.59	21.354
630.92	22.126
