SpectraSuite Data File
++++++++++++++++++++++++++++++++++++
Date: Wed May 13 19:30:44 PDT 2015
User: schluterlab
Dark Spectrum Present: Yes
Reference Spectrum Present: Yes
Number of Sampled Component Spectra: 1
Spectrometers: USB2E3373
Integration Time (usec): 3000 (USB2E3373)
Spectra Averaged: 3 (USB2E3373)
Boxcar Smoothing: 0 (USB2E3373)
Correct for Electrical Dark: No (USB2E3373)
Strobe/Lamp Enabled: No (USB2E3373)
Correct for Detector Non-linearity: No (USB2E3373)
Correct for Stray Light: No (USB2E3373)
Number of Pixels in Processed Spectrum: 2048
>>>>>Begin Processed Spectral Data<<<<<
178.53	0.000
178.91	-1475.000
179.29	-1250.000
179.67	-216.667
180.04	-1400.000
180.42	2950.000
180.80	1280.000
181.18	-1075.000
181.56	757.143
181.94	0.000
182.31	-928.571
182.69	1933.333
183.07	-637.500
183.45	-533.333
183.83	663.636
184.20	-580.000
184.58	2000.000
184.96	5800.000
185.34	-920.000
185.72	-612.500
186.09	-2350.000
186.47	2250.000
186.85	2400.000
187.23	6200.000
187.61	-1566.667
187.98	1325.000
188.36	527.273
188.74	545.455
189.12	-1100.000
189.49	670.000
189.87	-4900.000
190.25	-1325.000
190.63	392.857
191.00	500.000
191.38	833.333
191.76	-1175.000
192.14	1600.000
192.51	587.500
192.89	1033.333
193.27	675.000
193.65	-1125.000
194.02	600.000
194.40	940.000
194.78	510.000
195.15	591.667
195.53	610.000
195.91	-2500.000
196.29	375.000
196.66	300.000
197.04	-400.000
197.42	0.000
197.79	610.000
198.17	-4100.000
198.55	642.857
198.92	737.500
199.30	780.000
199.68	0.000
200.05	350.000
200.43	714.286
200.81	4300.000
201.18	1766.667
201.56	-1700.000
201.94	455.556
202.31	700.000
202.69	475.000
203.07	570.000
203.44	0.000
203.82	1275.000
204.19	714.286
204.57	471.429
204.95	612.500
205.32	1533.333
205.70	536.364
206.08	392.857
206.45	2200.000
206.83	400.000
207.20	966.667
207.58	860.000
207.96	350.000
208.33	787.500
208.71	-933.333
209.08	900.000
209.46	633.333
209.84	509.091
210.21	-1533.333
210.59	1250.000
210.96	-550.000
211.34	2500.000
211.71	620.000
212.09	833.333
212.46	0.000
212.84	1866.667
213.22	1475.000
213.59	-5100.000
213.97	1050.000
214.34	914.286
214.72	563.636
215.09	880.000
215.47	-2500.000
215.84	-2950.000
216.22	1666.667
216.59	350.000
216.97	1350.000
217.34	545.455
217.72	-850.000
218.09	0.000
218.47	-5600.000
218.84	622.222
219.22	771.429
219.59	1766.667
219.97	-728.571
220.34	1140.000
220.72	-2033.333
221.09	414.286
221.47	1450.000
221.84	-1066.667
222.22	0.000
222.59	1525.000
222.97	-2400.000
223.34	1120.000
223.72	500.000
224.09	1140.000
224.46	2250.000
224.84	-5000.000
225.21	-1180.000
225.59	-4900.000
225.96	630.000
226.34	330.000
226.71	2800.000
227.08	775.000
227.46	580.000
227.83	-1300.000
228.21	-2450.000
228.58	566.667
228.95	-2350.000
229.33	-1950.000
229.70	1933.333
230.08	785.714
230.45	-880.000
230.82	466.667
231.20	833.333
231.57	771.429
231.95	616.667
232.32	250.000
232.69	454.545
233.07	642.857
233.44	361.538
233.81	-1966.667
234.19	331.579
234.56	500.000
234.93	441.667
235.31	536.364
235.68	407.692
236.05	357.143
236.43	178.788
236.80	278.947
237.17	4800.000
237.55	233.333
237.92	271.429
238.29	271.429
238.67	187.097
239.04	224.138
239.41	191.667
239.79	126.087
240.16	169.048
240.53	165.909
240.91	123.529
241.28	120.000
241.65	122.000
242.02	110.145
242.40	109.677
242.77	116.667
243.14	80.645
243.51	94.382
243.89	83.529
244.26	88.889
244.63	88.172
245.00	85.106
245.38	74.257
245.75	71.028
246.12	65.138
246.49	75.182
246.87	88.000
247.24	72.308
247.61	67.143
247.98	63.399
248.36	61.486
248.73	52.866
249.10	61.146
249.47	58.192
249.84	57.219
250.22	52.406
250.59	53.254
250.96	56.566
251.33	52.133
251.70	58.911
252.08	53.810
252.45	46.637
252.82	50.435
253.19	51.064
253.56	49.412
253.94	47.303
254.31	48.828
254.68	49.615
255.05	49.077
255.42	51.220
255.79	46.691
256.16	49.097
256.54	42.049
256.91	43.416
257.28	43.525
257.65	46.205
258.02	40.683
258.39	42.271
258.76	43.813
259.14	44.345
259.51	35.866
259.88	41.304
260.25	45.619
260.62	43.353
260.99	43.478
261.36	42.643
261.73	36.103
262.10	42.733
262.47	43.380
262.85	38.997
263.22	39.031
263.59	44.160
263.96	36.264
264.33	40.209
264.70	38.421
265.07	38.107
265.44	37.626
265.81	36.983
266.18	39.447
266.55	41.951
266.92	40.786
267.29	39.815
267.66	36.468
268.03	37.273
268.40	39.252
268.77	35.322
269.14	37.162
269.51	37.246
269.88	37.995
270.25	37.698
270.62	39.326
270.99	36.989
271.36	35.408
271.73	38.785
272.10	35.435
272.47	38.280
272.84	36.364
273.21	36.688
273.58	36.245
273.95	36.059
274.32	34.298
274.69	39.400
275.06	35.039
275.43	38.085
275.80	34.669
276.17	38.493
276.54	35.343
276.91	38.538
277.28	34.570
277.65	34.429
278.02	34.783
278.39	37.305
278.76	34.727
279.13	36.415
279.50	33.892
279.87	34.064
280.23	36.527
280.60	35.010
280.97	33.457
281.34	33.274
281.71	34.909
282.08	34.933
282.45	32.727
282.82	31.972
283.19	32.977
283.56	31.754
283.92	34.349
284.29	33.333
284.66	34.846
285.03	32.007
285.40	30.810
285.77	34.007
286.14	33.851
286.51	33.667
286.87	32.821
287.24	33.388
287.61	34.350
287.98	29.870
288.35	29.635
288.72	30.997
289.08	32.081
289.45	33.278
289.82	30.732
290.19	30.298
290.56	29.862
290.93	29.305
291.29	31.288
291.66	28.024
292.03	31.977
292.40	30.543
292.77	28.550
293.13	28.209
293.50	29.300
293.87	29.185
294.24	28.444
294.60	26.638
294.97	28.779
295.34	29.196
295.71	27.131
296.08	25.214
296.44	27.098
296.81	25.892
297.18	26.829
297.55	25.198
297.91	25.330
298.28	25.971
298.65	26.371
299.02	27.273
299.38	24.568
299.75	24.259
300.12	24.904
300.48	25.750
300.85	25.524
301.22	24.586
301.59	25.253
301.95	24.559
302.32	25.802
302.69	23.895
303.05	25.333
303.42	24.691
303.79	25.481
304.15	23.427
304.52	23.175
304.89	24.042
305.25	24.014
305.62	24.349
305.99	24.557
306.35	24.497
306.72	24.327
307.09	24.195
307.45	25.338
307.82	22.545
308.19	23.731
308.55	25.351
308.92	23.093
309.29	22.492
309.65	22.694
310.02	23.362
310.38	23.763
310.75	24.604
311.12	24.565
311.48	24.451
311.85	23.480
312.22	24.246
312.58	22.869
312.95	23.548
313.31	22.427
313.68	24.116
314.05	24.458
314.41	23.317
314.78	23.464
315.14	24.528
315.51	25.541
315.87	24.257
316.24	24.727
316.61	24.366
316.97	24.070
317.34	24.560
317.70	25.239
318.07	25.024
318.43	26.027
318.80	26.054
319.16	26.742
319.53	24.953
319.89	26.286
320.26	28.800
320.62	28.571
320.99	28.283
321.35	29.495
321.72	29.261
322.08	31.787
322.45	33.134
322.81	33.624
323.18	33.044
323.54	33.302
323.91	34.245
324.27	34.704
324.64	34.762
325.00	35.257
325.37	37.580
325.73	38.689
326.10	38.482
326.46	37.903
326.83	40.811
327.19	40.478
327.56	42.944
327.92	43.132
328.29	44.366
328.65	44.751
329.01	45.397
329.38	45.143
329.74	48.015
330.11	48.351
330.47	48.760
330.84	48.713
331.20	48.543
331.56	48.991
331.93	48.981
332.29	49.512
332.66	50.265
333.02	50.000
333.38	51.491
333.75	52.139
334.11	52.046
334.48	51.819
334.84	52.022
335.20	53.909
335.57	51.768
335.93	52.500
336.29	54.212
336.66	53.472
337.02	53.032
337.38	55.278
337.75	53.476
338.11	53.984
338.47	54.604
338.84	56.004
339.20	54.679
339.56	57.391
339.93	54.273
340.29	55.978
340.65	54.545
341.02	56.195
341.38	57.117
341.74	55.702
342.11	57.205
342.47	56.300
342.83	57.021
343.20	57.489
343.56	56.361
343.92	58.333
344.28	56.122
344.65	58.899
345.01	56.481
345.37	59.005
345.73	57.783
346.10	58.653
346.46	58.390
346.82	57.990
347.19	58.563
347.55	58.539
347.91	58.414
348.27	59.326
348.63	60.368
349.00	57.848
349.36	59.031
349.72	58.781
350.08	57.618
350.45	59.235
350.81	60.114
351.17	59.238
351.53	61.261
351.89	60.561
352.26	60.458
352.62	58.941
352.98	60.535
353.34	61.216
353.70	59.411
354.07	59.516
354.43	58.889
354.79	59.051
355.15	59.936
355.51	62.750
355.87	62.286
356.24	62.541
356.60	60.706
356.96	61.464
357.32	62.061
357.68	60.709
358.04	60.808
358.40	63.500
358.77	60.250
359.13	61.484
359.49	62.039
359.85	60.476
360.21	63.158
360.57	63.113
360.93	61.538
361.29	62.812
361.66	60.526
362.02	63.433
362.38	62.433
362.74	62.202
363.10	62.324
363.46	62.436
363.82	62.736
364.18	63.289
364.54	63.819
364.90	63.739
365.26	63.824
365.62	64.719
365.98	63.842
366.35	63.682
366.71	64.353
367.07	63.146
367.43	65.747
367.79	64.668
368.15	66.379
368.51	64.462
368.87	65.239
369.23	65.106
369.59	65.749
369.95	66.471
370.31	64.530
370.67	64.348
371.03	66.816
371.39	66.545
371.75	67.206
372.11	65.434
372.47	67.815
372.83	67.507
373.19	66.113
373.55	68.441
373.91	69.588
374.27	65.842
374.63	68.582
374.99	67.867
375.35	66.574
375.71	66.895
376.07	67.490
376.42	69.601
376.78	68.125
377.14	68.385
377.50	69.603
377.86	67.952
378.22	68.394
378.58	67.293
378.94	68.008
379.30	70.102
379.66	70.495
380.02	69.472
380.38	69.156
380.74	69.688
381.09	70.171
381.45	70.498
381.81	70.086
382.17	70.573
382.53	72.264
382.89	70.679
383.25	71.357
383.61	72.677
383.97	70.044
384.32	71.865
384.68	71.747
385.04	72.096
385.40	71.207
385.76	71.744
386.12	73.122
386.48	73.631
386.83	74.984
387.19	74.088
387.55	72.047
387.91	72.733
388.27	72.594
388.62	72.403
388.98	72.543
389.34	73.592
389.70	73.452
390.06	73.384
390.42	75.162
390.77	73.601
391.13	75.814
391.49	75.127
391.85	74.348
392.20	73.754
392.56	74.558
392.92	75.397
393.28	73.846
393.64	75.000
393.99	74.282
394.35	74.938
394.71	73.275
395.07	73.271
395.42	74.475
395.78	75.064
396.14	74.302
396.50	75.627
396.85	76.414
397.21	75.092
397.57	75.201
397.92	75.300
398.28	73.879
398.64	73.955
399.00	75.713
399.35	73.096
399.71	75.868
400.07	74.039
400.42	75.276
400.78	75.452
401.14	75.488
401.49	73.791
401.85	75.862
402.21	73.952
402.57	75.879
402.92	75.914
403.28	75.203
403.63	76.423
403.99	76.178
404.35	74.303
404.70	74.760
405.06	73.733
405.42	75.296
405.77	74.400
406.13	73.251
406.49	75.695
406.84	74.129
407.20	75.059
407.55	75.431
407.91	76.733
408.27	75.686
408.62	73.992
408.98	73.652
409.34	74.047
409.69	74.645
410.05	74.845
410.40	76.208
410.76	75.627
411.11	73.160
411.47	73.674
411.83	75.626
412.18	74.335
412.54	74.844
412.89	73.313
413.25	74.734
413.60	75.602
413.96	73.406
414.31	73.572
414.67	74.461
415.03	73.642
415.38	73.389
415.74	74.984
416.09	75.506
416.45	73.963
416.80	74.356
417.16	75.000
417.51	74.054
417.87	72.511
418.22	75.079
418.58	74.564
418.93	72.973
419.29	75.175
419.64	74.118
420.00	73.537
420.35	72.174
420.71	73.760
421.06	73.807
421.42	73.158
421.77	73.038
422.12	73.442
422.48	72.423
422.83	73.151
423.19	72.541
423.54	74.869
423.90	73.797
424.25	72.697
424.61	74.048
424.96	74.344
425.31	73.367
425.67	71.685
426.02	72.400
426.38	73.382
426.73	72.908
427.09	73.070
427.44	72.455
427.79	73.663
428.15	73.631
428.50	73.493
428.85	73.778
429.21	72.170
429.56	72.265
429.92	72.471
430.27	71.797
430.62	71.377
430.98	72.859
431.33	70.876
431.68	71.099
432.04	70.873
432.39	73.330
432.74	74.267
433.10	72.439
433.45	73.294
433.80	71.120
434.16	72.436
434.51	70.579
434.86	71.722
435.22	71.984
435.57	73.374
435.92	72.908
436.28	73.072
436.63	72.296
436.98	72.181
437.34	73.643
437.69	72.520
438.04	71.669
438.39	72.657
438.75	72.923
439.10	72.346
439.45	72.373
439.81	72.870
440.16	71.598
440.51	72.056
440.86	72.264
441.22	72.080
441.57	70.382
441.92	71.597
442.27	72.390
442.63	71.195
442.98	73.352
443.33	71.685
443.68	70.986
444.03	72.816
444.39	71.665
444.74	71.374
445.09	71.105
445.44	70.640
445.79	71.945
446.15	70.513
446.50	70.813
446.85	71.583
447.20	70.627
447.55	72.641
447.91	71.815
448.26	72.120
448.61	71.340
448.96	71.207
449.31	72.047
449.66	71.469
450.02	70.864
450.37	70.805
450.72	71.404
451.07	71.481
451.42	70.456
451.77	71.110
452.12	69.515
452.47	69.963
452.83	71.329
453.18	70.966
453.53	73.531
453.88	71.234
454.23	71.010
454.58	71.593
454.93	73.808
455.28	71.883
455.63	71.299
455.98	72.024
456.34	70.352
456.69	72.073
457.04	72.508
457.39	69.492
457.74	71.503
458.09	70.155
458.44	69.441
458.79	69.360
459.14	71.840
459.49	70.870
459.84	68.587
460.19	69.711
460.54	68.692
460.89	69.720
461.24	71.160
461.59	70.598
461.94	71.208
462.29	70.979
462.64	69.177
462.99	68.705
463.34	71.067
463.69	71.169
464.04	68.174
464.39	69.101
464.74	68.568
465.09	69.119
465.44	68.587
465.79	68.177
466.14	66.612
466.49	68.632
466.84	69.410
467.19	67.532
467.54	68.875
467.89	67.227
468.24	68.819
468.59	70.147
468.94	67.257
469.29	69.859
469.64	70.482
469.99	69.689
470.34	69.485
470.68	69.756
471.03	68.844
471.38	70.535
471.73	68.421
472.08	68.684
472.43	67.211
472.78	68.071
473.13	67.330
473.48	68.477
473.83	68.598
474.17	68.015
474.52	67.928
474.87	67.250
475.22	67.441
475.57	66.685
475.92	66.755
476.27	66.516
476.61	66.795
476.96	66.245
477.31	67.138
477.66	67.396
478.01	65.499
478.36	67.266
478.70	65.836
479.05	66.347
479.40	66.888
479.75	67.006
480.10	66.203
480.45	65.350
480.79	65.026
481.14	66.145
481.49	64.974
481.84	64.792
482.19	65.425
482.53	65.183
482.88	65.984
483.23	66.308
483.58	65.651
483.92	65.839
484.27	61.917
484.62	64.267
484.97	63.816
485.31	64.384
485.66	61.701
486.01	59.690
486.36	58.524
486.70	58.455
487.05	59.540
487.40	61.159
487.75	62.760
488.09	64.877
488.44	65.210
488.79	65.823
489.13	65.432
489.48	64.927
489.83	65.041
490.17	65.322
490.52	63.862
490.87	64.948
491.22	63.711
491.56	63.144
491.91	64.914
492.26	62.839
492.60	63.641
492.95	62.862
493.30	63.084
493.64	64.442
493.99	63.092
494.34	63.506
494.68	63.736
495.03	64.192
495.37	62.773
495.72	63.694
496.07	63.387
496.41	61.460
496.76	62.797
497.11	63.125
497.45	61.993
497.80	62.620
498.14	62.609
498.49	63.220
498.84	62.752
499.18	62.476
499.53	62.393
499.87	61.463
500.22	62.129
500.56	63.932
500.91	61.827
501.26	61.498
501.60	63.645
501.95	60.816
502.29	61.668
502.64	62.663
502.98	60.823
503.33	60.603
503.67	61.995
504.02	60.804
504.36	60.693
504.71	62.140
505.06	60.578
505.40	61.595
505.75	61.379
506.09	60.641
506.44	62.309
506.78	60.838
507.13	62.191
507.47	61.616
507.82	62.006
508.16	61.499
508.51	62.202
508.85	61.370
509.19	60.969
509.54	59.949
509.88	61.154
510.23	61.645
510.57	62.023
510.92	60.642
511.26	60.637
511.61	60.685
511.95	59.290
512.30	60.817
512.64	60.505
512.98	61.522
513.33	61.242
513.67	58.965
514.02	60.173
514.36	61.060
514.70	60.930
515.05	60.904
515.39	61.245
515.74	61.937
516.08	61.263
516.42	61.321
516.77	60.368
517.11	60.322
517.46	60.779
517.80	61.731
518.14	60.046
518.49	61.260
518.83	60.170
519.17	60.566
519.52	61.404
519.86	59.783
520.20	60.867
520.55	60.922
520.89	61.314
521.23	61.701
521.58	61.465
521.92	61.727
522.26	59.671
522.61	61.807
522.95	59.975
523.29	59.951
523.64	60.244
523.98	60.012
524.32	59.168
524.66	59.230
525.01	59.743
525.35	59.046
525.69	58.621
526.04	59.626
526.38	60.342
526.72	59.325
527.06	61.645
527.41	58.045
527.75	61.158
528.09	60.373
528.43	59.082
528.78	59.865
529.12	58.303
529.46	60.073
529.80	59.220
530.15	58.879
530.49	57.354
530.83	58.038
531.17	60.836
531.51	60.117
531.86	59.806
532.20	60.495
532.54	60.090
532.88	59.756
533.22	57.339
533.57	57.346
533.91	57.375
534.25	57.351
534.59	57.474
534.93	56.098
535.27	59.324
535.62	56.227
535.96	58.757
536.30	58.932
536.64	58.146
536.98	57.532
537.32	57.143
537.66	58.400
538.01	58.525
538.35	57.466
538.69	57.307
539.03	56.530
539.37	55.847
539.71	56.254
540.05	58.105
540.39	58.140
540.73	57.503
541.07	58.533
541.42	57.339
541.76	58.387
542.10	57.180
542.44	56.821
542.78	58.564
543.12	55.918
543.46	57.639
543.80	57.840
544.14	56.226
544.48	57.460
544.82	56.446
545.16	57.319
545.50	56.041
545.84	56.519
546.18	57.441
546.52	56.848
546.86	55.808
547.20	56.912
547.54	56.045
547.88	56.122
548.22	55.604
548.56	55.157
548.90	55.378
549.24	55.825
549.58	56.889
549.92	56.181
550.26	58.239
550.60	55.602
550.94	56.127
551.28	56.255
551.62	57.728
551.96	56.632
552.30	55.904
552.64	56.187
552.98	56.203
553.32	54.552
553.66	56.374
554.00	56.486
554.34	55.694
554.68	56.223
555.02	56.135
555.36	54.628
555.69	55.277
556.03	54.913
556.37	54.025
556.71	55.048
557.05	56.022
557.39	55.423
557.73	55.258
558.07	55.402
558.41	54.848
558.75	57.531
559.08	56.674
559.42	55.253
559.76	55.735
560.10	54.104
560.44	54.368
560.78	52.295
561.12	54.617
561.45	54.694
561.79	54.318
562.13	53.521
562.47	56.352
562.81	54.114
563.15	53.913
563.48	54.111
563.82	52.772
564.16	54.218
564.50	54.557
564.84	53.224
565.17	53.797
565.51	52.524
565.85	53.617
566.19	52.473
566.52	52.818
566.86	51.959
567.20	52.653
567.54	52.740
567.88	50.788
568.21	52.698
568.55	51.466
568.89	50.973
569.23	50.312
569.56	49.109
569.90	48.264
570.24	48.296
570.57	48.385
570.91	47.027
571.25	47.035
571.59	47.452
571.92	47.350
572.26	47.891
572.60	48.228
572.93	47.976
573.27	48.625
573.61	47.711
573.95	47.183
574.28	46.985
574.62	46.842
574.96	47.049
575.29	46.145
575.63	46.697
575.97	47.253
576.30	47.159
576.64	46.753
576.98	46.354
577.31	46.419
577.65	45.733
577.98	46.522
578.32	44.897
578.66	45.975
578.99	46.177
579.33	46.550
579.67	46.096
580.00	46.344
580.34	47.247
580.67	46.396
581.01	46.706
581.35	45.449
581.68	45.323
582.02	44.639
582.35	45.515
582.69	45.689
583.02	45.930
583.36	46.438
583.70	47.552
584.03	47.910
584.37	47.642
584.70	47.335
585.04	46.331
585.37	46.016
585.71	45.606
586.04	46.388
586.38	47.257
586.72	46.755
587.05	45.857
587.39	45.858
587.72	45.710
588.06	45.784
588.39	46.667
588.73	47.111
589.06	47.211
589.40	47.340
589.73	47.765
590.07	46.548
590.40	46.840
590.73	48.244
591.07	47.985
591.40	47.954
591.74	49.004
592.07	48.342
592.41	47.168
592.74	45.730
593.08	45.370
593.41	45.808
593.75	44.347
594.08	45.491
594.41	45.670
594.75	46.765
595.08	45.777
595.42	46.690
595.75	46.225
596.09	47.653
596.42	47.466
596.75	47.657
597.09	48.355
597.42	45.531
597.75	47.348
598.09	46.174
598.42	46.649
598.76	45.561
599.09	45.306
599.42	44.723
599.76	45.461
600.09	45.392
600.42	44.449
600.76	44.464
601.09	44.299
601.42	44.825
601.76	45.844
602.09	46.166
602.42	45.979
602.76	46.876
603.09	45.594
603.42	45.568
603.76	45.084
604.09	45.754
604.42	45.944
604.76	46.605
605.09	46.003
605.42	45.233
605.75	46.192
606.09	45.547
606.42	45.975
606.75	45.127
607.09	44.579
607.42	45.657
607.75	45.570
608.08	45.593
608.42	44.823
608.75	45.987
609.08	44.403
609.41	45.026
609.75	45.403
610.08	45.287
610.41	44.926
610.74	45.790
611.07	47.184
611.41	46.026
611.74	46.355
612.07	46.377
612.40	46.852
612.73	46.105
613.07	46.552
613.40	46.867
613.73	45.097
614.06	45.860
614.39	46.513
614.72	44.526
615.06	46.166
615.39	44.639
615.72	44.939
616.05	44.923
616.38	46.081
616.71	47.862
617.05	46.879
617.38	46.302
617.71	47.147
618.04	47.356
618.37	45.772
618.70	47.169
619.03	47.829
619.36	47.658
619.69	47.606
620.03	47.459
620.36	46.324
620.69	47.945
621.02	47.566
621.35	47.925
621.68	47.508
622.01	46.749
622.34	48.336
622.67	48.213
623.00	47.175
623.33	45.533
623.66	46.533
623.99	46.613
624.32	45.792
624.65	45.763
624.99	45.326
625.32	46.778
625.65	47.183
625.98	47.271
626.31	47.667
626.64	48.082
626.97	48.047
627.30	47.465
627.63	47.088
627.96	48.612
628.29	48.819
628.62	49.497
628.95	49.057
629.28	48.175
629.61	49.496
629.94	48.952
630.26	46.902
630.59	46.711
