SpectraSuite Data File
++++++++++++++++++++++++++++++++++++
Date: Wed May 13 19:15:43 PDT 2015
User: schluterlab
Dark Spectrum Present: Yes
Reference Spectrum Present: Yes
Number of Sampled Component Spectra: 1
Spectrometers: USB2E3373
Integration Time (usec): 3000 (USB2E3373)
Spectra Averaged: 3 (USB2E3373)
Boxcar Smoothing: 0 (USB2E3373)
Correct for Electrical Dark: No (USB2E3373)
Strobe/Lamp Enabled: No (USB2E3373)
Correct for Detector Non-linearity: No (USB2E3373)
Correct for Stray Light: No (USB2E3373)
Number of Pixels in Processed Spectrum: 2048
>>>>>Begin Processed Spectral Data<<<<<
178.53	0.000
178.91	-1525.000
179.29	-1400.000
179.67	-322.222
180.04	-1325.000
180.42	2950.000
180.80	1260.000
181.18	-875.000
181.56	771.429
181.94	0.000
182.31	-800.000
182.69	2000.000
183.07	-537.500
183.45	-622.222
183.83	572.727
184.20	-440.000
184.58	2450.000
184.96	6900.000
185.34	-1040.000
185.72	-687.500
186.09	-2300.000
186.47	3000.000
186.85	3000.000
187.23	6000.000
187.61	-2033.333
187.98	1650.000
188.36	609.091
188.74	600.000
189.12	-940.000
189.49	640.000
189.87	-4800.000
190.25	-1300.000
190.63	500.000
191.00	461.538
191.38	1000.000
191.76	-1325.000
192.14	1575.000
192.51	712.500
192.89	1183.333
193.27	712.500
193.65	-1300.000
194.02	740.000
194.40	1120.000
194.78	620.000
195.15	591.667
195.53	680.000
195.91	-2700.000
196.29	400.000
196.66	342.105
197.04	-340.000
197.42	0.000
197.79	630.000
198.17	-5500.000
198.55	771.429
198.92	725.000
199.30	1040.000
199.68	0.000
200.05	361.111
200.43	857.143
200.81	5600.000
201.18	1566.667
201.56	-2000.000
201.94	611.111
202.31	622.222
202.69	458.333
203.07	560.000
203.44	0.000
203.82	1200.000
204.19	885.714
204.57	478.571
204.95	725.000
205.32	1666.667
205.70	690.909
206.08	435.714
206.45	2850.000
206.83	406.250
207.20	816.667
207.58	840.000
207.96	338.889
208.33	862.500
208.71	-1100.000
209.08	842.857
209.46	655.556
209.84	545.455
210.21	-1433.333
210.59	1600.000
210.96	-625.000
211.34	2750.000
211.71	770.000
212.09	866.667
212.46	0.000
212.84	1900.000
213.22	1325.000
213.59	-4900.000
213.97	1000.000
214.34	871.429
214.72	536.364
215.09	940.000
215.47	-2700.000
215.84	-2850.000
216.22	1733.333
216.59	435.714
216.97	1200.000
217.34	536.364
217.72	-933.333
218.09	0.000
218.47	-5500.000
218.84	666.667
219.22	1042.857
219.59	2200.000
219.97	-714.286
220.34	1180.000
220.72	-2000.000
221.09	514.286
221.47	1650.000
221.84	-1016.667
222.22	0.000
222.59	1500.000
222.97	-2850.000
223.34	1240.000
223.72	476.923
224.09	1280.000
224.46	2900.000
224.84	-6900.000
225.21	-1180.000
225.59	-5400.000
225.96	640.000
226.34	300.000
226.71	3200.000
227.08	725.000
227.46	600.000
227.83	-1400.000
228.21	-3100.000
228.58	722.222
228.95	-2950.000
229.33	-2500.000
229.70	1733.333
230.08	757.143
230.45	-1020.000
230.82	575.000
231.20	1016.667
231.57	828.571
231.95	583.333
232.32	254.545
232.69	454.545
233.07	842.857
233.44	330.769
233.81	-2100.000
234.19	373.684
234.56	433.333
234.93	516.667
235.31	554.545
235.68	384.615
236.05	428.571
236.43	193.939
236.80	321.053
237.17	6200.000
237.55	338.095
237.92	260.714
238.29	328.571
238.67	222.581
239.04	234.483
239.41	208.333
239.79	176.087
240.16	188.095
240.53	175.000
240.91	137.255
241.28	138.000
241.65	156.000
242.02	136.232
242.40	135.484
242.77	121.667
243.14	102.151
243.51	106.742
243.89	105.882
244.26	95.556
244.63	97.849
245.00	101.064
245.38	89.109
245.75	98.131
246.12	82.569
246.49	82.482
246.87	95.200
247.24	90.769
247.61	80.000
247.98	77.778
248.36	74.324
248.73	73.248
249.10	79.618
249.47	80.226
249.84	71.123
250.22	71.658
250.59	65.089
250.96	69.192
251.33	69.668
251.70	69.307
252.08	67.143
252.45	65.022
252.82	64.783
253.19	62.128
253.56	65.882
253.94	62.241
254.31	56.250
254.68	65.769
255.05	63.469
255.42	60.569
255.79	60.662
256.16	65.704
256.54	56.890
256.91	57.651
257.28	57.914
257.65	59.076
258.02	55.280
258.39	55.521
258.76	58.194
259.14	56.845
259.51	56.839
259.88	54.658
260.25	57.704
260.62	56.936
260.99	53.106
261.36	55.856
261.73	56.447
262.10	54.942
262.47	57.183
262.85	55.153
263.22	50.997
263.59	55.271
263.96	50.824
264.33	54.830
264.70	55.000
265.07	56.522
265.44	53.030
265.81	49.148
266.18	54.523
266.55	50.732
266.92	55.528
267.29	52.546
267.66	52.294
268.03	48.864
268.40	49.533
268.77	50.119
269.14	49.099
269.51	53.047
269.88	53.147
270.25	51.919
270.62	50.337
270.99	54.624
271.36	48.712
271.73	52.570
272.10	51.739
272.47	52.258
272.84	53.030
273.21	48.847
273.58	49.563
273.95	46.331
274.32	48.967
274.69	49.893
275.06	48.425
275.43	48.085
275.80	48.898
276.17	46.843
276.54	49.896
276.91	48.419
277.28	47.461
277.65	49.903
278.02	49.482
278.39	49.023
278.76	45.273
279.13	48.868
279.50	48.045
279.87	48.606
280.23	48.303
280.60	46.422
280.97	47.320
281.34	46.903
281.71	46.545
282.08	49.712
282.45	47.636
282.82	47.780
283.19	46.881
283.56	46.140
283.92	48.900
284.29	46.737
284.66	44.646
285.03	45.570
285.40	44.718
285.77	46.465
286.14	47.323
286.51	44.333
286.87	45.299
287.24	45.928
287.61	43.339
287.98	45.617
288.35	43.899
288.72	44.704
289.08	41.941
289.45	42.998
289.82	43.577
290.19	42.229
290.56	43.032
290.93	41.843
291.29	43.098
291.66	41.445
292.03	42.442
292.40	41.557
292.77	39.497
293.13	39.851
293.50	41.983
293.87	40.593
294.24	40.148
294.60	39.592
294.97	38.081
295.34	39.351
295.71	38.920
296.08	38.604
296.44	38.514
296.81	37.649
297.18	39.295
297.55	35.092
297.91	38.654
298.28	39.893
298.65	37.728
299.02	37.022
299.38	37.583
299.75	34.771
300.12	34.738
300.48	35.750
300.85	37.855
301.22	36.943
301.59	35.985
301.95	37.154
302.32	37.099
302.69	35.603
303.05	35.636
303.42	36.173
303.79	35.787
304.15	34.149
304.52	34.067
304.89	35.424
305.25	34.339
305.62	35.561
305.99	36.718
306.35	35.906
306.72	34.641
307.09	35.960
307.45	36.374
307.82	34.487
308.19	33.996
308.55	34.520
308.92	34.049
309.29	33.791
309.65	33.722
310.02	34.038
310.38	34.194
310.75	35.480
311.12	35.415
311.48	35.737
311.85	36.688
312.22	34.651
312.58	35.967
312.95	37.064
313.31	35.825
313.68	36.279
314.05	37.870
314.41	37.286
314.78	37.059
315.14	37.637
315.51	38.414
315.87	37.624
316.24	37.934
316.61	37.037
316.97	38.160
317.34	38.748
317.70	38.528
318.07	38.787
318.43	40.411
318.80	39.831
319.16	41.243
319.53	39.681
319.89	42.095
320.26	43.100
320.62	42.063
320.99	40.707
321.35	40.303
321.72	42.197
322.08	42.448
322.45	43.682
322.81	43.992
323.18	43.738
323.54	44.898
323.91	45.094
324.27	45.029
324.64	44.548
325.00	45.086
325.37	45.223
325.73	47.127
326.10	45.543
326.46	46.237
326.83	47.110
327.19	47.225
327.56	48.693
327.92	50.131
328.29	49.778
328.65	50.645
329.01	49.819
329.38	49.954
329.74	51.431
330.11	51.178
330.47	51.515
330.84	52.665
331.20	52.186
331.56	53.211
331.93	53.796
332.29	51.109
332.66	54.779
333.02	51.645
333.38	54.110
333.75	54.902
334.11	54.004
334.48	54.747
334.84	54.687
335.20	55.818
335.57	55.485
335.93	53.304
336.29	55.861
336.66	55.726
337.02	53.846
337.38	54.444
337.75	54.011
338.11	55.774
338.47	55.064
338.84	55.912
339.20	56.239
339.56	57.026
339.93	54.636
340.29	54.982
340.65	55.437
341.02	57.243
341.38	56.584
341.74	56.228
342.11	56.157
342.47	56.476
342.83	53.425
343.20	56.104
343.56	53.665
343.92	55.175
344.28	54.932
344.65	56.320
345.01	53.114
345.37	54.031
345.73	54.653
346.10	55.072
346.46	53.475
346.82	54.036
347.19	54.052
347.55	52.874
347.91	52.508
348.27	54.232
348.63	55.184
349.00	52.346
349.36	53.612
349.72	54.370
350.08	53.241
350.45	54.434
350.81	52.640
351.17	52.755
351.53	53.235
351.89	52.475
352.26	52.881
352.62	53.168
352.98	52.026
353.34	52.588
353.70	51.391
354.07	51.774
354.43	51.190
354.79	50.764
355.15	51.157
355.51	52.438
355.87	52.735
356.24	52.443
356.60	52.686
356.96	52.615
357.32	52.494
357.68	51.024
358.04	51.940
358.40	51.306
358.77	52.113
359.13	52.170
359.49	50.745
359.85	50.714
360.21	51.196
360.57	52.607
360.93	49.769
361.29	50.945
361.66	51.548
362.02	50.896
362.38	50.342
362.74	51.042
363.10	49.741
363.46	49.156
363.82	51.550
364.18	50.587
364.54	51.114
364.90	51.133
365.26	50.515
365.62	49.233
365.98	50.402
366.35	48.782
366.71	49.096
367.07	49.818
367.43	50.290
367.79	48.965
368.15	49.856
368.51	48.765
368.87	49.393
369.23	49.378
369.59	50.109
369.95	48.971
370.31	49.217
370.67	49.130
371.03	49.513
371.39	49.344
371.75	49.485
372.11	49.360
372.47	49.194
372.83	49.496
373.19	48.049
373.55	49.076
373.91	49.558
374.27	48.591
374.63	49.091
374.99	48.941
375.35	47.523
375.71	47.910
376.07	47.737
376.42	48.693
376.78	47.714
377.14	47.286
377.50	48.212
377.86	47.806
378.22	47.661
378.58	46.679
378.94	48.020
379.30	46.883
379.66	48.414
380.02	48.403
380.38	47.359
380.74	47.059
381.09	46.271
381.45	47.941
381.81	47.052
382.17	47.006
382.53	47.044
382.89	47.160
383.25	46.967
383.61	48.141
383.97	46.654
384.32	46.600
384.68	46.964
385.04	46.220
385.40	45.944
385.76	46.130
386.12	46.762
386.48	46.696
386.83	47.338
387.19	48.176
387.55	46.815
387.91	46.070
388.27	45.616
388.62	46.712
388.98	44.840
389.34	45.745
389.70	45.984
390.06	47.148
390.42	46.109
390.77	45.674
391.13	46.331
391.49	45.685
391.85	45.449
392.20	44.984
392.56	45.644
392.92	46.086
393.28	46.095
393.64	45.564
393.99	45.754
394.35	45.409
394.71	44.103
395.07	45.732
395.42	45.674
395.78	45.038
396.14	44.569
396.50	45.238
396.85	45.709
397.21	45.129
397.57	45.319
397.92	44.952
398.28	44.058
398.64	44.265
399.00	44.488
399.35	43.598
399.71	44.387
400.07	44.293
400.42	46.564
400.78	44.391
401.14	44.024
401.49	44.537
401.85	43.315
402.21	43.413
402.57	43.677
402.92	43.443
403.28	45.097
403.63	43.626
403.99	43.503
404.35	43.152
404.70	43.645
405.06	43.040
405.42	43.231
405.77	44.171
406.13	42.833
406.49	43.820
406.84	43.473
407.20	42.021
407.55	44.416
407.91	44.800
408.27	44.671
408.62	43.107
408.98	42.647
409.34	43.296
409.69	42.839
410.05	41.822
410.40	43.119
410.76	42.832
411.11	42.762
411.47	41.917
411.83	42.700
412.18	42.115
412.54	43.524
412.89	42.952
413.25	42.208
413.60	43.360
413.96	42.016
414.31	42.224
414.67	41.635
415.03	42.649
415.38	42.590
415.74	43.087
416.09	43.240
416.45	42.102
416.80	42.498
417.16	43.231
417.51	41.938
417.87	42.068
418.22	42.965
418.58	42.802
418.93	43.120
419.29	42.457
419.64	42.632
420.00	42.500
420.35	41.043
420.71	41.901
421.06	42.124
421.42	41.988
421.77	41.648
422.12	41.213
422.48	41.123
422.83	43.040
423.19	41.934
423.54	42.310
423.90	42.667
424.25	41.318
424.61	41.905
424.96	42.274
425.31	41.750
425.67	41.461
426.02	40.857
426.38	42.430
426.73	41.779
427.09	41.702
427.44	42.438
427.79	41.978
428.15	42.024
428.50	42.305
428.85	41.895
429.21	42.187
429.56	42.509
429.92	40.966
430.27	41.212
430.62	41.884
430.98	42.034
431.33	42.474
431.68	40.942
432.04	40.948
432.39	43.175
432.74	43.088
433.10	42.728
433.45	42.216
433.80	42.406
434.16	42.735
434.51	41.263
434.86	42.246
435.22	42.746
435.57	43.100
435.92	42.422
436.28	45.374
436.63	42.881
436.98	43.217
437.34	43.351
437.69	43.524
438.04	41.821
438.39	42.925
438.75	43.812
439.10	43.911
439.45	44.392
439.81	42.719
440.16	42.914
440.51	43.878
440.86	43.312
441.22	43.103
441.57	44.002
441.92	44.524
442.27	44.349
442.63	42.391
442.98	44.845
443.33	43.315
443.68	43.624
444.03	43.582
444.39	43.330
444.74	44.859
445.09	43.774
445.44	42.756
445.79	44.186
446.15	43.409
446.50	43.942
446.85	44.656
447.20	45.436
447.55	45.394
447.91	44.236
448.26	44.741
448.61	44.036
448.96	45.958
449.31	46.513
449.66	45.526
450.02	45.292
450.37	45.351
450.72	45.572
451.07	45.277
451.42	44.438
451.77	47.270
452.12	45.670
452.47	46.828
452.83	46.853
453.18	46.271
453.53	46.877
453.88	46.131
454.23	46.862
454.58	47.910
454.93	48.315
455.28	46.197
455.63	47.391
455.98	48.690
456.34	46.231
456.69	48.341
457.04	47.492
457.39	45.996
457.74	46.953
458.09	46.061
458.44	46.807
458.79	46.258
459.14	47.065
459.49	47.227
459.84	46.759
460.19	47.260
460.54	46.354
460.89	47.175
461.24	48.695
461.59	48.635
461.94	47.596
462.29	49.021
462.64	47.543
462.99	48.146
463.34	49.800
463.69	48.030
464.04	48.406
464.39	47.652
464.74	48.366
465.09	48.251
465.44	47.645
465.79	46.980
466.14	46.579
466.49	46.774
466.84	48.687
467.19	48.340
467.54	49.938
467.89	48.499
468.24	48.284
468.59	48.657
468.94	48.687
469.29	49.100
469.64	49.264
469.99	50.609
470.34	49.538
470.68	50.431
471.03	49.252
471.38	51.911
471.73	49.634
472.08	50.789
472.43	49.560
472.78	49.704
473.13	48.973
473.48	49.376
473.83	49.634
474.17	51.276
474.52	49.442
474.87	50.905
475.22	50.609
475.57	48.522
475.92	49.602
476.27	50.620
476.61	50.138
476.96	49.918
477.31	49.922
477.66	51.313
478.01	49.660
478.36	51.084
478.70	50.000
479.05	51.278
479.40	50.051
479.75	51.246
480.10	50.895
480.45	49.929
480.79	50.215
481.14	50.147
481.49	51.400
481.84	50.434
482.19	50.432
482.53	49.312
482.88	50.907
483.23	51.262
483.58	51.001
483.92	51.406
484.27	50.109
484.62	50.647
484.97	50.769
485.31	50.582
485.66	48.476
486.01	46.555
486.36	45.424
486.70	44.821
487.05	46.775
487.40	48.774
487.75	49.863
488.09	50.955
488.44	51.167
488.79	52.369
489.13	53.514
489.48	53.181
489.83	53.259
490.17	53.968
490.52	52.657
490.87	52.827
491.22	52.797
491.56	52.392
491.91	52.443
492.26	52.228
492.60	52.396
492.95	53.227
493.30	52.150
493.64	53.196
493.99	53.668
494.34	53.885
494.68	53.617
495.03	54.182
495.37	53.001
495.72	53.996
496.07	54.803
496.41	52.832
496.76	54.442
497.11	53.805
497.45	55.054
497.80	54.511
498.14	54.638
498.49	55.171
498.84	53.979
499.18	54.571
499.53	54.606
499.87	54.939
500.22	54.169
500.56	56.456
500.91	55.144
501.26	55.145
501.60	55.292
501.95	54.537
502.29	55.623
502.64	54.609
502.98	55.353
503.33	54.022
503.67	54.756
504.02	55.285
504.36	55.358
504.71	55.984
505.06	55.470
505.40	56.587
505.75	55.834
506.09	56.317
506.44	56.833
506.78	56.892
507.13	57.143
507.47	57.626
507.82	58.511
508.16	58.764
508.51	58.346
508.85	56.455
509.19	57.500
509.54	57.449
509.88	56.981
510.23	56.915
510.57	59.752
510.92	58.312
511.26	57.811
511.61	58.299
511.95	57.724
512.30	57.582
512.64	58.947
512.98	58.950
513.33	58.405
513.67	58.911
514.02	58.766
514.36	60.459
514.70	60.100
515.05	59.732
515.39	59.843
515.74	60.417
516.08	59.251
516.42	62.098
516.77	61.594
517.11	59.545
517.46	60.384
517.80	62.892
518.14	59.409
518.49	62.660
518.83	60.227
519.17	61.259
519.52	61.800
519.86	62.407
520.20	61.272
520.55	63.375
520.89	63.747
521.23	62.425
521.58	61.104
521.92	63.319
522.26	61.257
522.61	64.299
522.95	63.536
523.29	63.055
523.64	62.805
523.98	63.832
524.32	63.269
524.66	63.440
525.01	63.725
525.35	63.631
525.69	62.500
526.04	63.925
526.38	64.063
526.72	62.822
527.06	65.725
527.41	61.510
527.75	65.659
528.09	65.382
528.43	64.436
528.78	63.614
529.12	63.636
529.46	63.686
529.80	65.223
530.15	64.424
530.49	63.262
530.83	64.430
531.17	68.211
531.51	65.305
531.86	64.452
532.20	66.754
532.54	65.983
532.88	65.404
533.22	63.960
533.57	64.753
533.91	64.419
534.25	64.338
534.59	64.613
534.93	64.366
535.27	66.023
535.62	65.812
535.96	66.604
536.30	65.861
536.64	67.675
536.98	67.950
537.32	66.294
537.66	66.333
538.01	66.820
538.35	66.128
538.69	66.177
539.03	67.381
539.37	66.390
539.71	65.327
540.05	67.451
540.39	68.306
540.73	64.812
541.07	67.748
541.42	68.493
541.76	67.806
542.10	68.241
542.44	69.868
542.78	68.906
543.12	66.347
543.46	68.066
543.80	67.144
544.14	67.009
544.48	68.571
544.82	67.736
545.16	68.575
545.50	66.838
545.84	69.153
546.18	69.495
546.52	68.479
546.86	70.034
547.20	69.117
547.54	70.073
547.88	69.770
548.22	67.746
548.56	66.667
548.90	68.246
549.24	70.640
549.58	69.509
549.92	69.712
550.26	71.946
550.60	69.710
550.94	70.704
551.28	70.154
551.62	71.172
551.96	69.895
552.30	69.283
552.64	70.791
552.98	71.186
553.32	69.589
553.66	70.211
554.00	71.791
554.34	70.945
554.68	72.461
555.02	71.298
555.36	70.703
555.69	69.892
556.03	71.400
556.37	71.282
556.71	70.191
557.05	71.499
557.39	70.539
557.73	72.406
558.07	73.532
558.41	72.576
558.75	73.696
559.08	72.632
559.42	74.150
559.76	72.574
560.10	72.734
560.44	72.467
560.78	71.790
561.12	72.889
561.45	71.773
561.79	71.391
562.13	72.636
562.47	72.609
562.81	75.314
563.15	72.843
563.48	72.679
563.82	73.777
564.16	72.335
564.50	74.219
564.84	72.882
565.17	73.166
565.51	75.080
565.85	71.954
566.19	72.699
566.52	73.528
566.86	71.971
567.20	73.998
567.54	73.174
567.88	71.592
568.21	71.270
568.55	70.374
568.89	70.671
569.23	69.697
569.56	68.583
569.90	68.792
570.24	68.676
570.57	67.664
570.91	67.421
571.25	66.770
571.59	66.745
571.92	67.022
572.26	67.707
572.60	67.838
572.93	67.016
573.27	67.879
573.61	68.453
573.95	68.295
574.28	67.513
574.62	67.468
574.96	66.045
575.29	66.513
575.63	67.200
575.97	68.055
576.30	67.499
576.64	67.602
576.98	68.206
577.31	67.491
577.65	68.187
577.98	67.692
578.32	66.124
578.66	67.526
578.99	67.884
579.33	68.410
579.67	68.450
580.00	68.449
580.34	69.459
580.67	69.156
581.01	69.193
581.35	68.644
581.68	68.198
582.02	66.976
582.35	67.269
582.69	68.315
583.02	68.655
583.36	70.325
583.70	71.054
584.03	70.951
584.37	72.279
584.70	72.571
585.04	70.523
585.37	70.806
585.71	70.512
586.04	70.017
586.38	71.343
586.72	71.582
587.05	70.796
587.39	70.501
587.72	70.755
588.06	71.638
588.39	72.044
588.73	72.367
589.06	72.889
589.40	74.646
589.73	75.326
590.07	73.132
590.40	73.036
590.73	75.722
591.07	76.109
591.40	75.580
591.74	77.489
592.07	76.353
592.41	75.568
592.74	73.184
593.08	73.551
593.41	73.110
593.75	71.393
594.08	73.181
594.41	73.312
594.75	74.750
595.08	74.016
595.42	73.940
595.75	75.214
596.09	75.554
596.42	76.228
596.75	75.770
597.09	78.009
597.42	75.548
597.75	77.145
598.09	76.826
598.42	76.847
598.76	76.125
599.09	75.029
599.42	74.199
599.76	75.403
600.09	75.191
600.42	74.215
600.76	75.357
601.09	75.811
601.42	75.685
601.76	76.698
602.09	76.522
602.42	78.185
602.76	78.476
603.09	77.655
603.42	77.587
603.76	75.724
604.09	76.890
604.42	78.435
604.76	78.448
605.09	78.724
605.42	77.512
605.75	77.235
606.09	77.796
606.42	79.281
606.75	77.561
607.09	78.401
607.42	78.776
607.75	78.017
608.08	78.376
608.42	79.516
608.75	78.629
609.08	78.955
609.41	80.485
609.75	79.419
610.08	80.160
610.41	80.121
610.74	80.795
611.07	80.830
611.41	80.569
611.74	80.845
612.07	82.557
612.40	83.263
612.73	81.737
613.07	83.136
613.40	82.306
613.73	82.171
614.06	81.989
614.39	82.171
614.72	80.368
615.06	80.830
615.39	81.741
615.72	80.726
616.05	81.659
616.38	83.157
616.71	85.986
617.05	84.747
617.38	83.945
617.71	84.925
618.04	85.877
618.37	83.087
618.70	86.310
619.03	86.184
619.36	87.712
619.69	85.986
620.03	86.951
620.36	84.960
620.69	87.055
621.02	87.832
621.35	89.742
621.68	87.617
622.01	89.164
622.34	89.939
622.67	90.418
623.00	88.041
623.33	88.134
623.66	88.277
623.99	90.059
624.32	87.732
624.65	88.771
624.99	87.819
625.32	88.559
625.65	90.308
625.98	90.623
626.31	88.725
626.64	91.347
626.97	92.269
627.30	92.934
627.63	91.140
627.96	92.262
628.29	93.351
628.62	92.406
628.95	96.038
629.28	92.974
629.61	93.492
629.94	97.238
630.26	95.806
630.59	92.469
