SpectraSuite Data File
++++++++++++++++++++++++++++++++++++
Date: Wed May 13 19:26:51 PDT 2015
User: schluterlab
Dark Spectrum Present: Yes
Reference Spectrum Present: Yes
Number of Sampled Component Spectra: 1
Spectrometers: USB2E3373
Integration Time (usec): 3000 (USB2E3373)
Spectra Averaged: 3 (USB2E3373)
Boxcar Smoothing: 0 (USB2E3373)
Correct for Electrical Dark: No (USB2E3373)
Strobe/Lamp Enabled: No (USB2E3373)
Correct for Detector Non-linearity: No (USB2E3373)
Correct for Stray Light: No (USB2E3373)
Number of Pixels in Processed Spectrum: 2048
>>>>>Begin Processed Spectral Data<<<<<
178.53	0.000
178.91	-1350.000
179.29	-1475.000
179.67	-233.333
180.04	-1325.000
180.42	2850.000
180.80	1060.000
181.18	-1275.000
181.56	642.857
181.94	0.000
182.31	-657.143
182.69	1900.000
183.07	-637.500
183.45	-488.889
183.83	536.364
184.20	-460.000
184.58	3150.000
184.96	5900.000
185.34	-780.000
185.72	-612.500
186.09	-2500.000
186.47	2750.000
186.85	3150.000
187.23	4500.000
187.61	-1966.667
187.98	1575.000
188.36	554.545
188.74	472.727
189.12	-920.000
189.49	520.000
189.87	-4600.000
190.25	-1125.000
190.63	385.714
191.00	415.385
191.38	983.333
191.76	-1050.000
192.14	1275.000
192.51	662.500
192.89	983.333
193.27	600.000
193.65	-1400.000
194.02	650.000
194.40	920.000
194.78	570.000
195.15	583.333
195.53	630.000
195.91	-1850.000
196.29	387.500
196.66	336.842
197.04	-450.000
197.42	0.000
197.79	630.000
198.17	-6600.000
198.55	728.571
198.92	687.500
199.30	980.000
199.68	0.000
200.05	355.556
200.43	814.286
200.81	5600.000
201.18	1933.333
201.56	-1533.333
201.94	566.667
202.31	655.556
202.69	491.667
203.07	540.000
203.44	0.000
203.82	1350.000
204.19	657.143
204.57	442.857
204.95	600.000
205.32	1666.667
205.70	527.273
206.08	457.143
206.45	2900.000
206.83	337.500
207.20	866.667
207.58	860.000
207.96	355.556
208.33	800.000
208.71	-983.333
209.08	871.429
209.46	633.333
209.84	545.455
210.21	-1766.667
210.59	1675.000
210.96	-575.000
211.34	2900.000
211.71	570.000
212.09	933.333
212.46	0.000
212.84	2000.000
213.22	1725.000
213.59	-3900.000
213.97	883.333
214.34	914.286
214.72	563.636
215.09	1140.000
215.47	-2450.000
215.84	-2900.000
216.22	1633.333
216.59	407.143
216.97	1775.000
217.34	518.182
217.72	-733.333
218.09	0.000
218.47	-5600.000
218.84	600.000
219.22	800.000
219.59	1866.667
219.97	-671.429
220.34	920.000
220.72	-2500.000
221.09	407.143
221.47	1475.000
221.84	-1016.667
222.22	0.000
222.59	1350.000
222.97	-2500.000
223.34	1200.000
223.72	446.154
224.09	1080.000
224.46	2300.000
224.84	-5300.000
225.21	-1060.000
225.59	-5300.000
225.96	690.000
226.34	320.000
226.71	3150.000
227.08	762.500
227.46	570.000
227.83	-1075.000
228.21	-2400.000
228.58	666.667
228.95	-2600.000
229.33	-2800.000
229.70	2166.667
230.08	785.714
230.45	-940.000
230.82	466.667
231.20	916.667
231.57	814.286
231.95	466.667
232.32	240.909
232.69	500.000
233.07	742.857
233.44	446.154
233.81	-1866.667
234.19	310.526
234.56	541.667
234.93	400.000
235.31	500.000
235.68	361.538
236.05	371.429
236.43	193.939
236.80	336.842
237.17	5000.000
237.55	328.571
237.92	253.571
238.29	242.857
238.67	222.581
239.04	237.931
239.41	183.333
239.79	147.826
240.16	178.571
240.53	159.091
240.91	149.020
241.28	126.000
241.65	146.000
242.02	117.391
242.40	138.710
242.77	125.000
243.14	97.849
243.51	97.753
243.89	90.588
244.26	95.556
244.63	88.172
245.00	85.106
245.38	89.109
245.75	85.981
246.12	79.817
246.49	79.562
246.87	86.400
247.24	86.154
247.61	69.286
247.98	72.549
248.36	75.676
248.73	70.064
249.10	74.522
249.47	70.056
249.84	72.727
250.22	64.706
250.59	69.231
250.96	65.657
251.33	61.137
251.70	65.347
252.08	67.143
252.45	65.022
252.82	60.435
253.19	60.426
253.56	56.471
253.94	60.166
254.31	55.859
254.68	64.615
255.05	57.196
255.42	60.569
255.79	56.250
256.16	57.040
256.54	56.537
256.91	57.295
257.28	51.799
257.65	53.795
258.02	52.795
258.39	53.312
258.76	51.839
259.14	54.167
259.51	57.143
259.88	54.658
260.25	55.891
260.62	53.468
260.99	53.416
261.36	53.453
261.73	54.728
262.10	53.198
262.47	56.056
262.85	52.925
263.22	49.573
263.59	54.986
263.96	48.901
264.33	49.086
264.70	52.632
265.07	52.174
265.44	50.253
265.81	48.905
266.18	52.261
266.55	49.756
266.92	49.877
267.29	48.148
267.66	47.248
268.03	48.636
268.40	48.832
268.77	48.926
269.14	47.973
269.51	49.887
269.88	51.981
270.25	49.210
270.62	48.539
270.99	49.892
271.36	45.494
271.73	47.196
272.10	49.348
272.47	47.312
272.84	47.186
273.21	47.589
273.58	45.633
273.95	45.073
274.32	44.835
274.69	48.822
275.06	46.457
275.43	47.660
275.80	43.888
276.17	47.862
276.54	48.649
276.91	47.826
277.28	45.313
277.65	46.615
278.02	45.963
278.39	46.875
278.76	44.545
279.13	44.151
279.50	46.741
279.87	45.020
280.23	47.904
280.60	46.035
280.97	44.362
281.34	45.487
281.71	43.818
282.08	46.065
282.45	42.364
282.82	43.339
283.19	43.137
283.56	45.965
283.92	44.332
284.29	42.504
284.66	42.831
285.03	43.761
285.40	42.254
285.77	42.088
286.14	42.487
286.51	43.333
286.87	42.051
287.24	43.485
287.61	40.610
287.98	39.610
288.35	41.363
288.72	40.031
289.08	42.254
289.45	40.857
289.82	40.488
290.19	38.776
290.56	38.438
290.93	37.160
291.29	39.264
291.66	37.906
292.03	38.808
292.40	37.445
292.77	36.095
293.13	37.910
293.50	37.755
293.87	38.222
294.24	36.148
294.60	35.080
294.97	36.047
295.34	37.094
295.71	34.801
296.08	34.900
296.44	34.801
296.81	33.950
297.18	34.688
297.55	32.850
297.91	33.377
298.28	35.743
298.65	33.029
299.02	34.256
299.38	32.271
299.75	30.458
300.12	33.716
300.48	33.000
300.85	31.443
301.22	32.611
301.59	32.323
301.95	32.494
302.32	32.734
302.69	31.541
303.05	31.636
303.42	30.494
303.79	32.276
304.15	31.119
304.52	31.286
304.89	31.707
305.25	30.974
305.62	30.125
305.99	32.822
306.35	30.537
306.72	31.502
307.09	29.745
307.45	30.293
307.82	30.357
308.19	29.912
308.55	30.097
308.92	29.860
309.29	30.095
309.65	30.223
310.02	30.973
310.38	32.151
310.75	29.567
311.12	31.525
311.48	31.766
311.85	30.818
312.22	31.217
312.58	31.913
312.95	31.045
313.31	29.612
313.68	31.185
314.05	33.037
314.41	31.457
314.78	31.219
315.14	31.281
315.51	32.441
315.87	32.871
316.24	31.281
316.61	31.676
316.97	32.681
317.34	31.311
317.70	32.600
318.07	33.590
318.43	34.149
318.80	34.958
319.16	34.087
319.53	33.396
319.89	36.762
320.26	37.100
320.62	36.706
320.99	37.071
321.35	37.778
321.72	37.577
322.08	39.388
322.45	39.801
322.81	40.213
323.18	39.210
323.54	38.497
323.91	39.434
324.27	40.249
324.64	42.218
325.00	41.479
325.37	43.858
325.73	44.704
326.10	43.336
326.46	44.355
326.83	46.678
327.19	45.175
327.56	45.993
327.92	47.069
328.29	47.205
328.65	49.171
329.01	48.014
329.38	49.954
329.74	48.846
330.11	50.518
330.47	49.403
330.84	49.816
331.20	50.364
331.56	51.284
331.93	50.833
332.29	49.956
332.66	52.124
333.02	51.645
333.38	52.394
333.75	52.496
334.11	53.203
334.48	52.618
334.84	53.493
335.20	52.455
335.57	52.947
335.93	52.143
336.29	53.114
336.66	55.005
337.02	52.489
337.38	55.278
337.75	54.724
338.11	54.879
338.47	55.985
338.84	55.912
339.20	54.404
339.56	56.204
339.93	57.545
340.29	56.069
340.65	57.219
341.02	56.806
341.38	56.584
341.74	56.754
342.11	56.769
342.47	57.974
342.83	58.733
343.20	57.316
343.56	57.119
343.92	58.509
344.28	57.313
344.65	58.985
345.01	56.566
345.37	59.005
345.73	57.783
346.10	58.483
346.46	59.915
346.82	59.967
347.19	59.398
347.55	57.471
347.91	60.113
348.27	61.463
348.63	60.117
349.00	59.466
349.36	61.330
349.72	61.668
350.08	60.940
350.45	61.595
350.81	60.926
351.17	62.075
351.53	60.934
351.89	61.139
352.26	61.247
352.62	62.711
352.98	61.912
353.34	65.407
353.70	64.566
354.07	62.581
354.43	63.810
354.79	63.154
355.15	63.687
355.51	65.148
355.87	63.347
356.24	64.169
356.60	64.234
356.96	65.648
357.32	66.312
357.68	66.850
358.04	65.479
358.40	64.608
358.77	66.041
359.13	66.614
359.49	65.412
359.85	67.222
360.21	69.697
360.57	67.938
360.93	68.769
361.29	68.481
361.66	67.724
362.02	69.478
362.38	69.125
362.74	68.304
363.10	69.578
363.46	68.819
363.82	69.463
364.18	69.090
364.54	72.214
364.90	69.051
365.26	69.853
365.62	71.001
365.98	70.343
366.35	69.699
366.71	71.222
367.07	71.231
367.43	71.263
367.79	73.091
368.15	74.210
368.51	73.038
368.87	73.091
369.23	72.056
369.59	72.846
369.95	73.309
370.31	72.934
370.67	70.942
371.03	75.506
371.39	74.708
371.75	74.779
372.11	73.044
372.47	75.293
372.83	76.873
373.19	75.217
373.55	76.497
373.91	78.571
374.27	75.670
374.63	78.545
374.99	76.483
375.35	77.809
375.71	76.902
376.07	77.641
376.42	78.817
376.78	77.999
377.14	78.562
377.50	79.470
377.86	77.394
378.22	78.887
378.58	77.381
378.94	78.944
379.30	80.789
379.66	80.140
380.02	80.467
380.38	79.599
380.74	79.352
381.09	80.073
381.45	80.947
381.81	79.791
382.17	81.465
382.53	81.635
382.89	83.272
383.25	81.926
383.61	83.643
383.97	81.301
384.32	81.285
384.68	82.342
385.04	81.008
385.40	82.724
385.76	83.108
386.12	82.513
386.48	83.700
386.83	84.862
387.19	84.539
387.55	83.488
387.91	83.011
388.27	83.078
388.62	83.467
388.98	83.231
389.34	83.354
389.70	84.427
390.06	85.044
390.42	86.641
390.77	84.542
391.13	85.833
391.49	85.406
391.85	84.405
392.20	85.615
392.56	85.795
392.92	83.520
393.28	84.793
393.64	85.132
393.99	82.651
394.35	84.864
394.71	84.065
395.07	82.866
395.42	85.167
395.78	84.160
396.14	83.799
396.50	86.591
396.85	86.650
397.21	83.354
397.57	85.369
397.92	85.757
398.28	84.137
398.64	83.990
399.00	84.499
399.35	82.798
399.71	85.648
400.07	85.216
400.42	84.540
400.78	84.439
401.14	85.366
401.49	85.015
401.85	84.694
402.21	83.772
402.57	85.626
402.92	85.435
403.28	84.822
403.63	85.458
403.99	86.242
404.35	83.091
404.70	83.813
405.06	82.644
405.42	85.090
405.77	83.200
406.13	82.788
406.49	82.200
406.84	82.044
407.20	80.733
407.55	84.046
407.91	84.667
408.27	83.408
408.62	81.337
408.98	82.353
409.34	82.964
409.69	84.387
410.05	83.767
410.40	81.896
410.76	83.274
411.11	80.639
411.47	81.150
411.83	81.979
412.18	81.200
412.54	82.192
412.89	81.807
413.25	81.582
413.60	81.655
413.96	79.842
414.31	81.227
414.67	82.383
415.03	81.788
415.38	81.894
415.74	81.350
416.09	83.410
416.45	82.463
416.80	82.287
417.16	82.105
417.51	81.951
417.87	79.255
418.22	82.587
418.58	82.634
418.93	80.958
419.29	81.031
419.64	81.234
420.00	80.488
420.35	79.536
420.71	81.650
421.06	80.788
421.42	80.175
421.77	79.765
422.12	80.460
422.48	80.410
422.83	79.965
423.19	80.110
423.54	80.325
423.90	80.174
424.25	79.285
424.61	79.583
424.96	80.641
425.31	80.011
425.67	78.315
426.02	80.000
426.38	80.403
426.73	77.940
427.09	79.088
427.44	80.334
427.79	80.046
428.15	79.583
428.50	78.525
428.85	80.274
429.21	78.023
429.56	78.486
429.92	79.265
430.27	79.047
430.62	77.778
430.98	79.346
431.33	77.938
431.68	78.429
432.04	77.529
432.39	78.755
432.74	79.114
433.10	80.475
433.45	80.058
433.80	79.157
434.16	78.632
434.51	77.368
434.86	79.818
435.22	79.433
435.57	78.602
435.92	78.467
436.28	78.944
436.63	78.422
436.98	79.050
437.34	79.666
437.69	79.638
438.04	78.190
438.39	79.045
438.75	78.966
439.10	78.156
439.45	77.745
439.81	77.704
440.16	77.357
440.51	77.387
440.86	78.402
441.22	78.699
441.57	78.875
441.92	77.892
442.27	78.687
442.63	76.514
442.98	78.873
443.33	75.761
443.68	78.936
444.03	78.184
444.39	75.755
444.74	77.273
445.09	76.226
445.44	76.654
445.79	76.843
446.15	75.384
446.50	76.629
446.85	78.160
447.20	76.492
447.55	76.884
447.91	76.779
448.26	76.016
448.61	77.954
448.96	76.800
449.31	76.715
449.66	75.689
450.02	75.432
450.37	75.227
450.72	77.101
451.07	73.796
451.42	73.556
451.77	75.749
452.12	73.845
452.47	76.119
452.83	75.291
453.18	73.594
453.53	74.335
453.88	72.947
454.23	75.075
454.58	74.803
454.93	75.969
455.28	73.317
455.63	74.879
455.98	76.190
456.34	74.435
456.69	74.014
457.04	74.985
457.39	73.115
457.74	73.941
458.09	73.318
458.44	73.318
458.79	71.204
459.14	73.194
459.49	72.271
459.84	73.407
460.19	71.715
460.54	70.139
460.89	71.146
461.24	72.313
461.59	71.702
461.94	71.270
462.29	70.920
462.64	71.155
462.99	70.072
463.34	71.667
463.69	70.106
464.04	69.507
464.39	69.217
464.74	69.400
465.09	69.903
465.44	69.363
465.79	67.226
466.14	68.199
466.49	67.241
466.84	68.535
467.19	68.859
467.54	69.125
467.89	67.527
468.24	67.074
468.59	67.460
468.94	66.158
469.29	68.123
469.64	67.604
469.99	68.809
470.34	67.437
470.68	69.253
471.03	66.122
471.38	68.381
471.73	67.222
472.08	68.289
472.43	65.829
472.78	65.043
473.13	66.560
473.48	66.105
473.83	65.915
474.17	63.970
474.52	64.578
474.87	65.266
475.22	64.829
475.57	63.783
475.92	63.303
476.27	63.078
476.61	64.534
476.96	63.716
477.31	62.847
477.66	63.676
478.01	61.631
478.36	63.829
478.70	63.188
479.05	62.567
479.40	63.101
479.75	62.583
480.10	62.127
480.45	60.352
480.79	61.061
481.14	62.035
481.49	62.126
481.84	60.905
482.19	61.199
482.53	60.734
482.88	61.145
483.23	61.075
483.58	59.691
483.92	60.684
484.27	57.124
484.62	59.224
484.97	59.401
485.31	59.897
485.66	59.267
486.01	58.143
486.36	56.139
486.70	55.381
487.05	55.683
487.40	56.639
487.75	56.681
488.09	57.355
488.44	56.004
488.79	58.662
489.13	57.487
489.48	56.648
489.83	57.143
490.17	57.913
490.52	56.466
490.87	58.390
491.22	56.753
491.56	55.763
491.91	56.584
492.26	56.040
492.60	56.498
492.95	55.566
493.30	56.075
493.64	56.043
493.99	56.082
494.34	55.782
494.68	55.678
495.03	56.250
495.37	54.444
495.72	55.409
496.07	56.705
496.41	54.159
496.76	54.881
497.11	54.345
497.45	53.190
497.80	54.750
498.14	54.251
498.49	53.317
498.84	53.356
499.18	52.952
499.53	53.134
499.87	53.868
500.22	52.850
500.56	53.981
500.91	53.750
501.26	52.584
501.60	53.868
501.95	51.742
502.29	52.296
502.64	52.793
502.98	52.174
503.33	51.874
503.67	52.019
504.02	52.385
504.36	51.614
504.71	51.832
505.06	52.000
505.40	52.455
505.75	50.916
506.09	51.555
506.44	51.307
506.78	50.852
507.13	53.104
507.47	51.414
507.82	51.368
508.16	51.469
508.51	51.750
508.85	51.241
509.19	51.531
509.54	51.071
509.88	50.129
510.23	51.722
510.57	51.290
510.92	50.492
511.26	50.411
511.61	50.259
511.95	49.948
512.30	49.629
512.64	49.275
512.98	50.429
513.33	49.946
513.67	48.986
514.02	49.405
514.36	50.082
514.70	49.806
515.05	50.139
515.39	51.206
515.74	49.944
516.08	48.798
516.42	49.834
516.77	49.610
517.11	49.723
517.46	49.549
517.80	49.942
518.14	48.466
518.49	49.008
518.83	48.807
519.17	48.614
519.52	48.953
519.86	48.374
520.20	49.480
520.55	48.175
520.89	48.966
521.23	47.527
521.58	47.839
521.92	48.622
522.26	48.017
522.61	49.159
522.95	46.716
523.29	47.657
523.64	49.085
523.98	48.306
524.32	47.708
524.66	47.865
525.01	47.549
525.35	47.088
525.69	46.305
526.04	47.726
526.38	45.821
526.72	46.687
527.06	47.458
527.41	45.483
527.75	48.424
528.09	48.041
528.43	48.056
528.78	45.974
529.12	45.576
529.46	46.418
529.80	46.163
530.15	46.168
530.49	44.738
530.83	46.456
531.17	47.063
531.51	46.887
531.86	44.710
532.20	46.284
532.54	45.099
532.88	45.250
533.22	44.847
533.57	45.679
533.91	44.431
534.25	43.742
534.59	45.394
534.93	44.438
535.27	44.538
535.62	45.055
535.96	44.758
536.30	44.565
536.64	44.559
536.98	43.663
537.32	44.832
537.66	44.867
538.01	45.227
538.35	45.120
538.69	45.246
539.03	44.250
539.37	43.770
539.71	42.839
540.05	43.987
540.39	42.857
540.73	42.755
541.07	43.997
541.42	43.966
541.76	44.903
542.10	43.790
542.44	43.377
542.78	44.005
543.12	42.802
543.46	43.738
543.80	43.136
544.14	42.811
544.48	43.238
544.82	43.040
545.16	43.266
545.50	41.517
545.84	42.742
546.18	42.492
546.52	43.427
546.86	43.436
547.20	43.493
547.54	42.485
547.88	42.793
548.22	41.345
548.56	43.145
548.90	41.613
549.24	42.694
549.58	41.883
549.92	42.926
550.26	43.040
550.60	40.526
550.94	43.239
551.28	40.819
551.62	42.703
551.96	41.263
552.30	42.935
552.64	41.109
552.98	41.627
553.32	42.279
553.66	41.922
554.00	42.416
554.34	40.511
554.68	41.702
555.02	41.114
555.36	40.571
555.69	40.798
556.03	41.521
556.37	40.723
556.71	40.246
557.05	41.807
557.39	40.378
557.73	40.649
558.07	41.407
558.41	42.764
558.75	41.146
559.08	41.089
559.42	41.194
559.76	41.471
560.10	40.328
560.44	40.601
560.78	40.985
561.12	41.161
561.45	40.808
561.79	40.343
562.13	40.309
562.47	39.754
562.81	40.237
563.15	39.799
563.48	40.650
563.82	39.269
564.16	39.372
564.50	38.542
564.84	39.507
565.17	39.511
565.51	40.064
565.85	39.213
566.19	39.324
566.52	40.215
566.86	39.662
567.20	39.269
567.54	39.155
567.88	38.294
568.21	39.048
568.55	37.614
568.89	38.327
569.23	38.191
569.56	38.462
569.90	37.887
570.24	37.639
570.57	37.572
570.91	36.393
571.25	36.905
571.59	37.467
571.92	37.039
572.26	36.973
572.60	37.508
572.93	36.882
573.27	37.267
573.61	36.823
573.95	36.382
574.28	35.905
574.62	36.662
574.96	36.344
575.29	36.348
575.63	36.636
575.97	35.954
576.30	37.069
576.64	36.467
576.98	35.902
577.31	35.975
577.65	36.591
577.98	36.088
578.32	35.564
578.66	36.247
578.99	36.202
579.33	35.681
579.67	35.831
580.00	36.011
580.34	35.714
580.67	35.854
581.01	35.350
581.35	36.142
581.68	36.024
582.02	35.910
582.35	35.660
582.69	35.323
583.02	35.321
583.36	36.062
583.70	36.064
584.03	36.076
584.37	35.942
584.70	36.024
585.04	35.983
585.37	35.275
585.71	35.785
586.04	34.936
586.38	35.502
586.72	36.371
587.05	35.479
587.39	35.040
587.72	35.661
588.06	34.872
588.39	35.775
588.73	35.201
589.06	36.148
589.40	36.700
589.73	35.727
590.07	35.516
590.40	36.134
590.73	35.870
591.07	37.200
591.40	36.482
591.74	36.667
592.07	35.820
592.41	35.717
592.74	35.431
593.08	35.676
593.41	35.875
593.75	35.041
594.08	35.367
594.41	35.277
594.75	35.638
595.08	35.505
595.42	36.182
595.75	35.434
596.09	35.974
596.42	35.128
596.75	35.078
597.09	36.104
597.42	34.781
597.75	35.834
598.09	35.435
598.42	35.266
598.76	34.698
599.09	35.196
599.42	34.862
599.76	35.066
600.09	35.082
600.42	34.770
600.76	34.750
601.09	35.155
601.42	34.932
601.76	35.028
602.09	34.783
602.42	35.390
602.76	35.026
603.09	35.287
603.42	35.103
603.76	34.947
604.09	35.052
604.42	35.018
604.76	35.217
605.09	35.649
605.42	34.288
605.75	34.520
606.09	35.421
606.42	35.063
606.75	34.301
607.09	34.115
607.42	35.344
607.75	34.304
608.08	34.694
608.42	35.141
608.75	33.589
609.08	34.644
609.41	33.603
609.75	35.064
610.08	34.684
610.41	34.963
610.74	35.336
611.07	34.684
611.41	34.740
611.74	35.897
612.07	35.507
612.40	35.887
612.73	34.211
613.07	35.237
613.40	35.229
613.73	34.609
614.06	34.892
614.39	34.085
614.72	34.000
615.06	34.506
615.39	34.342
615.72	34.611
616.05	35.141
616.38	34.352
616.71	34.679
617.05	34.806
617.38	35.298
617.71	34.655
618.04	35.156
618.37	34.122
618.70	35.159
619.03	36.776
619.36	35.981
619.69	35.845
620.03	35.577
620.36	35.628
620.69	35.753
621.02	34.882
621.35	34.691
621.68	33.956
622.01	35.139
622.34	35.174
622.67	35.894
623.00	35.437
623.33	34.453
623.66	34.668
623.99	36.156
624.32	34.308
624.65	34.251
624.99	34.915
625.32	34.613
625.65	34.636
625.98	34.743
626.31	35.614
626.64	35.673
626.97	33.998
627.30	35.245
627.63	36.177
627.96	35.913
628.29	34.733
628.62	34.584
628.95	36.321
629.28	35.949
629.61	36.022
629.94	35.714
630.26	37.274
630.59	37.083
630.92	34.962
