SpectraSuite Data File
++++++++++++++++++++++++++++++++++++
Date: Wed May 13 19:58:50 PDT 2015
User: schluterlab
Dark Spectrum Present: Yes
Reference Spectrum Present: Yes
Number of Sampled Component Spectra: 1
Spectrometers: USB2E3373
Integration Time (usec): 3000 (USB2E3373)
Spectra Averaged: 3 (USB2E3373)
Boxcar Smoothing: 0 (USB2E3373)
Correct for Electrical Dark: No (USB2E3373)
Strobe/Lamp Enabled: No (USB2E3373)
Correct for Detector Non-linearity: No (USB2E3373)
Correct for Stray Light: No (USB2E3373)
Number of Pixels in Processed Spectrum: 2048
>>>>>Begin Processed Spectral Data<<<<<
178.53	0.000
178.91	-1300.000
179.29	-1225.000
179.67	-166.667
180.04	-1200.000
180.42	2450.000
180.80	860.000
181.18	-975.000
181.56	685.714
181.94	0.000
182.31	-614.286
182.69	1533.333
183.07	-600.000
183.45	-444.444
183.83	500.000
184.20	-360.000
184.58	2350.000
184.96	4300.000
185.34	-880.000
185.72	-612.500
186.09	-1950.000
186.47	2300.000
186.85	2850.000
187.23	4900.000
187.61	-1666.667
187.98	1450.000
188.36	581.818
188.74	518.182
189.12	-980.000
189.49	590.000
189.87	-5200.000
190.25	-1300.000
190.63	421.429
191.00	476.923
191.38	883.333
191.76	-1150.000
192.14	1675.000
192.51	575.000
192.89	933.333
193.27	487.500
193.65	-1050.000
194.02	550.000
194.40	1020.000
194.78	530.000
195.15	533.333
195.53	570.000
195.91	-2550.000
196.29	337.500
196.66	389.474
197.04	-400.000
197.42	0.000
197.79	660.000
198.17	-4600.000
198.55	714.286
198.92	637.500
199.30	960.000
199.68	0.000
200.05	311.111
200.43	928.571
200.81	3400.000
201.18	1933.333
201.56	-1733.333
201.94	533.333
202.31	544.444
202.69	416.667
203.07	540.000
203.44	0.000
203.82	1300.000
204.19	814.286
204.57	414.286
204.95	725.000
205.32	1433.333
205.70	472.727
206.08	414.286
206.45	2800.000
206.83	443.750
207.20	966.667
207.58	760.000
207.96	311.111
208.33	762.500
208.71	-800.000
209.08	785.714
209.46	555.556
209.84	500.000
210.21	-1533.333
210.59	1200.000
210.96	-600.000
211.34	2750.000
211.71	580.000
212.09	816.667
212.46	0.000
212.84	1866.667
213.22	1350.000
213.59	-4600.000
213.97	800.000
214.34	742.857
214.72	463.636
215.09	1060.000
215.47	-2500.000
215.84	-2200.000
216.22	1700.000
216.59	321.429
216.97	1175.000
217.34	445.455
217.72	-900.000
218.09	0.000
218.47	-4800.000
218.84	644.444
219.22	685.714
219.59	1600.000
219.97	-557.143
220.34	920.000
220.72	-2100.000
221.09	428.571
221.47	1450.000
221.84	-1083.333
222.22	0.000
222.59	1250.000
222.97	-2550.000
223.34	1160.000
223.72	415.385
224.09	1180.000
224.46	2400.000
224.84	-4500.000
225.21	-1120.000
225.59	-4900.000
225.96	580.000
226.34	275.000
226.71	2850.000
227.08	562.500
227.46	590.000
227.83	-1175.000
228.21	-2450.000
228.58	666.667
228.95	-2500.000
229.33	-2350.000
229.70	1666.667
230.08	785.714
230.45	-840.000
230.82	375.000
231.20	900.000
231.57	585.714
231.95	500.000
232.32	254.545
232.69	490.909
233.07	642.857
233.44	323.077
233.81	-1600.000
234.19	300.000
234.56	475.000
234.93	366.667
235.31	590.909
235.68	400.000
236.05	428.571
236.43	190.909
236.80	300.000
237.17	5500.000
237.55	280.952
237.92	264.286
238.29	300.000
238.67	212.903
239.04	258.621
239.41	188.889
239.79	130.435
240.16	171.429
240.53	186.364
240.91	137.255
241.28	166.000
241.65	124.000
242.02	120.290
242.40	117.742
242.77	131.667
243.14	97.849
243.51	114.607
243.89	100.000
244.26	98.889
244.63	96.774
245.00	105.319
245.38	103.960
245.75	92.523
246.12	89.908
246.49	88.321
246.87	88.800
247.24	96.923
247.61	94.286
247.98	85.621
248.36	81.757
248.73	84.713
249.10	84.076
249.47	79.096
249.84	76.471
250.22	78.610
250.59	78.107
250.96	76.263
251.33	73.934
251.70	76.238
252.08	71.429
252.45	73.543
252.82	68.696
253.19	68.511
253.56	72.157
253.94	72.614
254.31	69.922
254.68	70.385
255.05	66.790
255.42	72.358
255.79	69.485
256.16	69.314
256.54	70.318
256.91	70.107
257.28	62.590
257.65	65.017
258.02	63.043
258.39	63.722
258.76	66.555
259.14	65.476
259.51	59.271
259.88	62.422
260.25	66.767
260.62	60.694
260.99	63.043
261.36	64.264
261.73	67.335
262.10	65.116
262.47	66.197
262.85	63.231
263.22	60.969
263.59	64.387
263.96	64.286
264.33	56.919
264.70	60.526
265.07	63.939
265.44	60.101
265.81	57.664
266.18	62.060
266.55	60.976
266.92	58.968
267.29	61.806
267.66	58.945
268.03	58.864
268.40	61.916
268.77	59.427
269.14	56.081
269.51	56.885
269.88	59.907
270.25	58.916
270.62	58.652
270.99	60.645
271.36	57.511
271.73	60.514
272.10	54.565
272.47	61.075
272.84	58.442
273.21	57.023
273.58	55.459
273.95	54.298
274.32	54.545
274.69	58.244
275.06	55.906
275.43	58.298
275.80	55.311
276.17	57.637
276.54	56.549
276.91	55.929
277.28	53.906
277.65	54.739
278.02	59.627
278.39	58.594
278.76	54.909
279.13	55.094
279.50	54.935
279.87	56.175
280.23	57.086
280.60	56.093
280.97	55.083
281.34	54.513
281.71	55.818
282.08	57.006
282.45	54.545
282.82	56.838
283.19	52.763
283.56	50.702
283.92	52.961
284.29	53.439
284.66	53.721
285.03	54.611
285.40	52.113
285.77	53.704
286.14	53.195
286.51	52.167
286.87	53.504
287.24	54.723
287.61	53.130
287.98	51.136
288.35	49.287
288.72	48.910
289.08	52.113
289.45	50.247
289.82	51.382
290.19	47.096
290.56	48.545
290.93	46.677
291.29	49.847
291.66	47.198
292.03	48.401
292.40	49.927
292.77	44.527
293.13	45.224
293.50	46.939
293.87	45.778
294.24	44.741
294.60	46.725
294.97	47.529
295.34	47.109
295.71	45.455
296.08	42.877
296.44	43.466
296.81	43.461
297.18	44.715
297.55	42.744
297.91	43.799
298.28	44.980
298.65	42.167
299.02	43.083
299.38	43.028
299.75	39.892
300.12	42.401
300.48	41.250
300.85	41.307
301.22	41.019
301.59	41.540
301.95	41.562
302.32	42.490
302.69	42.055
303.05	40.606
303.42	39.012
303.79	40.430
304.15	40.210
304.52	39.166
304.89	38.908
305.25	39.675
305.62	39.977
305.99	40.968
306.35	38.143
306.72	40.471
307.09	41.065
307.45	40.878
307.82	38.281
308.19	39.845
308.55	39.159
308.92	39.420
309.29	38.015
309.65	40.085
310.02	38.901
310.38	39.462
310.75	40.338
311.12	39.611
311.48	40.752
311.85	40.252
312.22	39.334
312.58	39.709
312.95	41.183
313.31	39.126
313.68	40.644
314.05	42.308
314.41	41.206
314.78	41.390
315.14	41.212
315.51	43.563
315.87	42.871
316.24	42.900
316.61	42.788
316.97	42.661
317.34	43.933
317.70	44.264
318.07	45.236
318.43	46.771
318.80	46.860
319.16	46.234
319.53	46.623
319.89	49.238
320.26	49.900
320.62	49.901
320.99	51.717
321.35	50.505
321.72	54.517
322.08	54.294
322.45	57.015
322.81	56.880
323.18	59.249
323.54	58.163
323.91	58.868
324.27	62.428
324.64	62.162
325.00	61.497
325.37	64.968
325.73	66.607
326.10	66.549
326.46	69.803
326.83	70.751
327.19	73.185
327.56	74.129
327.92	74.978
328.29	76.309
328.65	78.545
329.01	78.791
329.38	79.741
329.74	78.947
330.11	82.187
330.47	81.818
330.84	83.824
331.20	82.969
331.56	84.037
331.93	87.870
332.29	84.383
332.66	87.522
333.02	87.203
333.38	87.534
333.75	87.790
334.11	89.591
334.48	87.933
334.84	90.625
335.20	90.455
335.57	90.481
335.93	88.929
336.29	90.659
336.66	92.606
337.02	90.407
337.38	93.148
337.75	91.355
338.11	93.196
338.47	95.856
338.84	94.867
339.20	93.670
339.56	94.161
339.93	94.909
340.29	94.293
340.65	93.761
341.02	95.812
341.38	95.018
341.74	94.386
342.11	95.197
342.47	95.683
342.83	95.462
343.20	96.277
343.56	94.271
343.92	97.368
344.28	96.514
344.65	97.936
345.01	94.360
345.37	96.913
345.73	98.646
346.10	97.442
346.46	96.695
346.82	97.694
347.19	97.577
347.55	95.320
347.91	98.948
348.27	98.767
348.63	96.656
349.00	98.463
349.36	100.246
349.72	96.632
350.08	96.434
350.45	99.593
350.81	100.244
351.17	99.757
351.53	99.918
351.89	99.257
352.26	100.631
352.62	99.599
352.98	98.703
353.34	101.068
353.70	101.473
354.07	101.694
354.43	99.206
354.79	102.494
355.15	101.277
355.51	101.119
355.87	104.980
356.24	103.420
356.60	100.642
356.96	104.103
357.32	103.925
357.68	103.858
358.04	101.504
358.40	103.246
358.77	102.660
359.13	102.920
359.49	104.157
359.85	103.651
360.21	106.300
360.57	105.914
360.93	106.538
361.29	104.913
361.66	103.870
362.02	105.075
362.38	106.388
362.74	107.887
363.10	105.329
363.46	104.329
363.82	107.256
364.18	106.094
364.54	107.801
364.90	108.994
365.26	108.162
365.62	110.665
365.98	109.058
366.35	107.450
366.71	109.906
367.07	110.415
367.43	112.482
367.79	111.706
368.15	110.776
368.51	110.683
368.87	111.064
369.23	111.924
369.59	112.672
369.95	111.985
370.31	110.043
370.67	112.101
371.03	113.184
371.39	113.630
371.75	113.824
372.11	111.807
372.47	113.270
372.83	116.499
373.19	112.717
373.55	116.260
373.91	117.452
374.27	113.196
374.63	115.709
374.99	113.630
375.35	113.957
375.71	115.216
376.07	116.049
376.42	117.813
376.78	117.429
377.14	117.164
377.50	117.417
377.86	116.356
378.22	116.561
378.58	115.977
378.94	117.096
379.30	118.384
379.66	116.561
380.02	117.568
380.38	115.726
380.74	117.707
381.09	118.643
381.45	119.607
381.81	119.410
382.17	119.045
382.53	119.182
382.89	120.247
383.25	121.326
383.61	122.057
383.97	120.826
384.32	119.152
384.68	118.773
385.04	119.852
385.40	120.495
385.76	118.980
386.12	121.762
386.48	121.586
386.83	122.835
387.19	124.181
387.55	121.336
387.91	121.705
388.27	120.478
388.62	123.356
388.98	121.499
389.34	122.841
389.70	122.134
390.06	122.053
390.42	123.476
390.77	122.455
391.13	124.761
391.49	121.574
391.85	121.069
392.20	123.596
392.56	124.432
392.92	124.838
393.28	121.538
393.64	123.441
393.99	121.686
394.35	123.077
394.71	122.271
395.07	121.246
395.42	126.391
395.78	123.092
396.14	123.402
396.50	124.624
396.85	124.921
397.21	123.551
397.57	123.497
397.92	124.038
398.28	123.038
398.64	121.505
399.00	125.406
399.35	124.760
399.71	123.090
400.07	123.063
400.42	123.497
400.78	122.859
401.14	125.427
401.49	125.075
401.85	122.505
402.21	123.892
402.57	125.170
402.92	125.158
403.28	124.922
403.63	125.743
403.99	127.325
404.35	123.152
404.70	124.341
405.06	123.762
405.42	125.951
405.77	124.571
406.13	122.404
406.49	124.009
406.84	122.977
407.20	124.468
407.55	124.505
407.91	127.467
408.27	124.250
408.62	122.878
408.98	124.632
409.34	125.031
409.69	124.903
410.05	125.774
410.40	125.260
410.76	125.986
411.11	120.929
411.47	123.642
411.83	124.557
412.18	123.129
412.54	126.090
412.89	123.313
413.25	123.200
413.60	125.880
413.96	121.676
414.31	123.998
414.67	123.701
415.03	125.762
415.38	123.325
415.74	124.051
416.09	124.886
416.45	125.301
416.80	125.248
417.16	124.330
417.51	125.547
417.87	123.378
418.22	123.849
418.58	125.500
418.93	124.140
419.29	123.552
419.64	126.008
420.00	124.451
420.35	122.667
420.71	124.985
421.06	124.523
421.42	122.807
421.77	122.926
422.12	124.256
422.48	124.447
422.83	126.150
423.19	123.646
423.54	125.421
423.90	125.507
424.25	124.344
424.61	123.631
424.96	125.539
425.31	124.640
425.67	124.494
426.02	122.971
426.38	129.060
426.73	125.161
427.09	123.891
427.44	124.669
427.79	124.497
428.15	124.226
428.50	124.751
428.85	125.745
429.21	124.793
429.56	125.454
429.92	123.956
430.27	125.323
430.62	122.273
430.98	124.183
431.33	123.557
431.68	126.230
432.04	123.749
432.39	125.985
432.74	126.451
433.10	128.297
433.45	126.939
433.80	125.499
434.16	125.427
434.51	123.263
434.86	125.143
435.22	126.515
435.57	125.897
435.92	127.326
436.28	127.343
436.63	123.400
436.98	125.644
437.34	125.641
437.69	127.013
438.04	126.082
438.39	125.433
438.75	125.799
439.10	126.425
439.45	125.266
439.81	126.707
440.16	125.127
440.51	126.245
440.86	126.578
441.22	125.751
441.57	126.380
441.92	127.175
442.27	127.234
442.63	124.855
442.98	127.042
443.33	124.022
443.68	124.677
444.03	127.721
444.39	125.949
444.74	126.028
445.09	125.013
445.44	124.658
445.79	124.443
446.15	122.816
446.50	125.471
446.85	125.745
447.20	125.446
447.55	127.080
447.91	126.034
448.26	124.318
448.61	126.173
448.96	126.301
449.31	127.784
449.66	126.168
450.02	123.565
450.37	124.320
450.72	125.888
451.07	124.436
451.42	124.559
451.77	125.426
452.12	123.557
452.47	124.254
452.83	126.224
453.18	125.244
453.53	125.727
453.88	127.702
454.23	124.567
454.58	124.470
454.93	127.273
455.28	125.374
455.63	127.184
455.98	128.036
456.34	125.377
456.69	125.736
457.04	125.944
457.39	124.956
457.74	124.376
458.09	123.289
458.44	125.086
458.79	123.590
459.14	124.210
459.49	124.752
459.84	123.601
460.19	123.335
460.54	121.123
460.89	124.520
461.24	124.772
461.59	124.114
461.94	122.195
462.29	125.341
462.64	123.165
462.99	122.251
463.34	124.733
463.69	124.078
464.04	122.957
464.39	120.116
464.74	121.866
465.09	122.618
465.44	120.997
465.79	122.875
466.14	118.555
466.49	121.079
466.84	122.183
467.19	120.398
467.54	123.187
467.89	120.768
468.24	121.001
468.59	121.429
468.94	120.586
469.29	124.807
469.64	124.565
469.99	124.019
470.34	122.787
470.68	124.784
471.03	121.701
471.38	126.199
471.73	120.053
472.08	122.697
472.43	121.859
472.78	120.935
473.13	121.502
473.48	120.849
473.83	121.951
474.17	120.100
474.52	121.898
474.87	121.483
475.22	121.126
475.57	119.183
475.92	120.074
476.27	118.715
476.61	119.581
476.96	120.286
477.31	118.838
477.66	121.116
478.01	117.773
478.36	119.884
478.70	120.145
479.05	118.637
479.40	119.447
479.75	119.065
480.10	119.682
480.45	118.467
480.79	118.634
481.14	119.814
481.49	118.462
481.84	117.513
482.19	120.400
482.53	117.615
482.88	118.893
483.23	119.206
483.58	117.880
483.92	118.322
484.27	115.686
484.62	116.034
484.97	114.387
485.31	116.233
485.66	111.480
486.01	109.138
486.36	105.962
486.70	107.046
487.05	107.939
487.40	110.342
487.75	111.501
488.09	112.800
488.44	113.376
488.79	116.492
489.13	116.081
489.48	116.028
489.83	115.969
490.17	116.879
490.52	114.792
490.87	116.915
491.22	116.508
491.56	114.943
491.91	114.425
492.26	115.296
492.60	116.037
492.95	115.295
493.30	113.037
493.64	115.399
493.99	115.970
494.34	115.957
494.68	115.430
495.03	114.380
495.37	113.820
495.72	117.300
496.07	114.896
496.41	112.035
496.76	114.820
497.11	111.796
497.45	114.020
497.80	115.211
498.14	113.671
498.49	116.341
498.84	114.190
499.18	113.524
499.53	112.583
499.87	113.374
500.22	112.106
500.56	114.563
500.91	113.894
501.26	112.897
501.60	115.804
501.95	110.357
502.29	113.496
502.64	113.501
502.98	112.856
503.33	110.283
503.67	111.508
504.02	111.506
504.36	109.780
504.71	112.213
505.06	111.566
505.40	111.230
505.75	109.547
506.09	111.273
506.44	112.926
506.78	111.934
507.13	113.882
507.47	111.616
507.82	112.259
508.16	113.779
508.51	113.090
508.85	109.136
509.19	113.214
509.54	111.837
509.88	111.437
510.23	112.648
510.57	114.035
510.92	112.688
511.26	111.459
511.61	110.840
511.95	111.169
512.30	111.135
512.64	110.156
512.98	111.629
513.33	111.617
513.67	109.178
514.02	109.794
514.36	112.671
514.70	112.009
515.05	112.381
515.39	110.151
515.74	111.712
516.08	110.453
516.42	112.819
516.77	111.260
517.11	110.932
517.46	110.948
517.80	110.976
518.14	110.539
518.49	112.310
518.83	110.852
519.17	110.912
519.52	110.809
519.86	110.382
520.20	110.173
520.55	113.226
520.89	114.659
521.23	112.485
521.58	110.804
521.92	114.085
522.26	109.030
522.61	113.832
522.95	110.313
523.29	109.982
523.64	111.220
523.98	112.261
524.32	108.987
524.66	109.681
525.01	109.069
525.35	108.860
525.69	108.498
526.04	111.153
526.38	110.738
526.72	110.245
527.06	111.613
527.41	107.921
527.75	110.096
528.09	113.744
528.43	110.962
528.78	110.572
529.12	108.364
529.46	108.818
529.80	109.282
530.15	109.470
530.49	107.077
530.83	109.620
531.17	111.227
531.51	109.922
531.86	111.097
532.20	109.648
532.54	107.751
532.88	106.996
533.22	106.621
533.57	106.605
533.91	106.020
534.25	106.561
534.59	107.138
534.93	106.365
535.27	106.518
535.62	105.006
535.96	108.412
536.30	107.120
536.64	105.023
536.98	107.963
537.32	106.386
537.66	108.000
538.01	108.492
538.35	105.882
538.69	105.807
539.03	104.548
539.37	104.537
539.71	105.314
540.05	107.255
540.39	105.648
540.73	103.622
541.07	105.451
541.42	106.262
541.76	105.355
542.10	105.045
542.44	106.358
542.78	106.324
543.12	102.175
543.46	104.393
543.80	104.554
544.14	103.530
544.48	103.048
544.82	103.464
545.16	106.181
545.50	102.828
545.84	103.293
546.18	104.781
546.52	106.951
546.86	105.086
547.20	104.450
547.54	102.405
547.88	102.615
548.22	101.993
548.56	101.195
548.90	100.960
549.24	104.579
549.58	103.342
549.92	105.014
550.26	105.043
550.60	102.282
550.94	101.690
551.28	103.950
551.62	104.601
551.96	102.316
552.30	101.570
552.64	101.826
552.98	104.000
553.32	101.618
553.66	102.249
554.00	101.784
554.34	102.968
554.68	103.076
555.02	103.103
555.36	101.113
555.69	99.594
556.03	100.202
556.37	102.046
556.71	100.955
557.05	102.871
557.39	100.910
557.73	101.694
558.07	102.901
558.41	102.098
558.75	101.249
559.08	103.207
559.42	104.762
559.76	103.235
560.10	99.929
560.44	101.817
560.78	100.000
561.12	99.868
561.45	98.892
561.79	100.132
562.13	101.408
562.47	100.683
562.81	100.697
563.15	98.662
563.48	100.531
563.82	100.196
564.16	99.346
564.50	100.065
564.84	96.713
565.17	99.421
565.51	99.361
565.85	98.477
566.19	98.059
566.52	98.923
566.86	96.926
567.20	99.410
567.54	97.603
567.88	95.817
568.21	95.820
568.55	95.753
568.89	96.401
569.23	93.627
569.56	91.781
569.90	92.038
570.24	91.927
570.57	90.479
570.91	88.300
571.25	89.592
571.59	88.542
571.92	89.199
572.26	88.966
572.60	89.640
572.93	87.916
573.27	88.731
573.61	87.577
573.95	88.295
574.28	86.935
574.62	87.488
574.96	86.404
575.29	85.209
575.63	86.712
575.97	86.462
576.30	87.201
576.64	86.606
576.98	86.388
577.31	86.114
577.65	86.298
577.98	83.936
578.32	84.154
578.66	85.241
578.99	86.031
579.33	84.943
579.67	84.651
580.00	85.975
580.34	85.691
580.67	85.252
581.01	84.799
581.35	84.823
581.68	84.192
582.02	84.135
582.35	84.231
582.69	84.897
583.02	84.704
583.36	85.889
583.70	86.414
584.03	85.841
584.37	86.034
584.70	86.886
585.04	83.831
585.37	83.877
585.71	84.939
586.04	84.272
586.38	86.155
586.72	85.888
587.05	85.086
587.39	84.406
587.72	85.493
588.06	85.219
588.39	85.981
588.73	84.981
589.06	86.663
589.40	87.980
589.73	87.610
590.07	87.438
590.40	85.934
590.73	88.603
591.07	89.540
591.40	87.305
591.74	89.784
592.07	88.482
592.41	86.069
592.74	86.217
593.08	85.143
593.41	85.701
593.75	83.542
594.08	85.451
594.41	85.118
594.75	86.359
595.08	84.968
595.42	86.060
595.75	85.328
596.09	87.195
596.42	86.169
596.75	86.619
597.09	86.364
597.42	84.528
597.75	87.150
598.09	86.043
598.42	86.555
598.76	85.813
599.09	84.835
599.42	83.624
599.76	85.395
600.09	83.643
600.42	82.761
600.76	82.786
601.09	83.461
601.42	83.866
601.76	83.909
602.09	85.573
602.42	85.151
602.76	83.192
603.09	85.445
603.42	84.811
603.76	84.108
604.09	84.684
604.42	84.264
604.76	84.226
605.09	83.967
605.42	82.386
605.75	83.858
606.09	84.262
606.42	85.574
606.75	82.912
607.09	82.838
607.42	85.109
607.75	83.376
608.08	83.413
608.42	83.371
608.75	85.032
609.08	82.840
609.41	84.008
609.75	84.088
610.08	84.543
610.41	84.544
610.74	84.674
611.07	86.067
611.41	84.151
611.74	86.425
612.07	85.663
612.40	86.831
612.73	85.053
613.07	86.369
613.40	85.940
613.73	84.688
614.06	86.237
614.39	84.006
614.72	83.895
615.06	84.454
615.39	85.669
615.72	82.975
616.05	84.423
616.38	84.936
616.71	88.183
617.05	87.574
617.38	86.109
