SpectraSuite Data File
++++++++++++++++++++++++++++++++++++
Date: Wed May 13 19:14:03 PDT 2015
User: schluterlab
Dark Spectrum Present: Yes
Reference Spectrum Present: Yes
Number of Sampled Component Spectra: 1
Spectrometers: USB2E3373
Integration Time (usec): 3000 (USB2E3373)
Spectra Averaged: 3 (USB2E3373)
Boxcar Smoothing: 0 (USB2E3373)
Correct for Electrical Dark: No (USB2E3373)
Strobe/Lamp Enabled: No (USB2E3373)
Correct for Detector Non-linearity: No (USB2E3373)
Correct for Stray Light: No (USB2E3373)
Number of Pixels in Processed Spectrum: 2048
>>>>>Begin Processed Spectral Data<<<<<
178.53	0.000
178.91	-1575.000
179.29	-1475.000
179.67	-261.111
180.04	-1350.000
180.42	3100.000
180.80	1200.000
181.18	-1250.000
181.56	685.714
181.94	0.000
182.31	-600.000
182.69	1966.667
183.07	-600.000
183.45	-655.556
183.83	609.091
184.20	-420.000
184.58	2750.000
184.96	6000.000
185.34	-1060.000
185.72	-775.000
186.09	-2400.000
186.47	3100.000
186.85	2600.000
187.23	5600.000
187.61	-2333.333
187.98	1450.000
188.36	663.636
188.74	545.455
189.12	-840.000
189.49	670.000
189.87	-4300.000
190.25	-1475.000
190.63	450.000
191.00	492.308
191.38	983.333
191.76	-1425.000
192.14	1750.000
192.51	650.000
192.89	1066.667
193.27	750.000
193.65	-1250.000
194.02	700.000
194.40	1100.000
194.78	600.000
195.15	525.000
195.53	740.000
195.91	-2500.000
196.29	375.000
196.66	342.105
197.04	-410.000
197.42	0.000
197.79	720.000
198.17	-4500.000
198.55	757.143
198.92	787.500
199.30	1020.000
199.68	0.000
200.05	405.556
200.43	871.429
200.81	5100.000
201.18	1866.667
201.56	-1766.667
201.94	700.000
202.31	688.889
202.69	491.667
203.07	560.000
203.44	0.000
203.82	1625.000
204.19	857.143
204.57	457.143
204.95	637.500
205.32	1766.667
205.70	518.182
206.08	428.571
206.45	3300.000
206.83	418.750
207.20	1033.333
207.58	1000.000
207.96	338.889
208.33	825.000
208.71	-983.333
209.08	885.714
209.46	677.778
209.84	536.364
210.21	-1533.333
210.59	1350.000
210.96	-725.000
211.34	2950.000
211.71	770.000
212.09	916.667
212.46	0.000
212.84	1966.667
213.22	1650.000
213.59	-6300.000
213.97	933.333
214.34	1000.000
214.72	700.000
215.09	760.000
215.47	-2350.000
215.84	-2900.000
216.22	1700.000
216.59	435.714
216.97	1450.000
217.34	554.545
217.72	-833.333
218.09	0.000
218.47	-6100.000
218.84	655.556
219.22	800.000
219.59	1933.333
219.97	-700.000
220.34	1140.000
220.72	-1833.333
221.09	514.286
221.47	1850.000
221.84	-1050.000
222.22	0.000
222.59	1550.000
222.97	-3150.000
223.34	1300.000
223.72	492.308
224.09	1160.000
224.46	2600.000
224.84	-5400.000
225.21	-1360.000
225.59	-6100.000
225.96	620.000
226.34	325.000
226.71	3200.000
227.08	725.000
227.46	530.000
227.83	-1525.000
228.21	-2300.000
228.58	744.444
228.95	-2950.000
229.33	-2550.000
229.70	1633.333
230.08	842.857
230.45	-1180.000
230.82	416.667
231.20	816.667
231.57	842.857
231.95	591.667
232.32	281.818
232.69	490.909
233.07	757.143
233.44	430.769
233.81	-2100.000
234.19	315.789
234.56	591.667
234.93	458.333
235.31	590.909
235.68	384.615
236.05	392.857
236.43	218.182
236.80	352.632
237.17	6400.000
237.55	319.048
237.92	264.286
238.29	323.810
238.67	229.032
239.04	231.034
239.41	208.333
239.79	171.739
240.16	178.571
240.53	177.273
240.91	135.294
241.28	156.000
241.65	160.000
242.02	130.435
242.40	133.871
242.77	145.000
243.14	109.677
243.51	117.978
243.89	117.647
244.26	90.000
244.63	109.677
245.00	98.936
245.38	97.030
245.75	92.523
246.12	102.752
246.49	84.672
246.87	96.800
247.24	94.615
247.61	75.714
247.98	85.621
248.36	75.676
248.73	77.707
249.10	78.344
249.47	70.621
249.84	77.540
250.22	71.123
250.59	77.515
250.96	73.232
251.33	73.934
251.70	77.723
252.08	71.905
252.45	66.368
252.82	63.478
253.19	68.511
253.56	67.843
253.94	68.465
254.31	62.891
254.68	65.769
255.05	61.624
255.42	64.634
255.79	69.485
256.16	67.870
256.54	60.777
256.91	63.345
257.28	63.669
257.65	63.036
258.02	60.559
258.39	55.521
258.76	61.204
259.14	60.417
259.51	55.927
259.88	59.006
260.25	61.027
260.62	58.092
260.99	61.180
261.36	59.159
261.73	63.037
262.10	59.302
262.47	61.972
262.85	55.989
263.22	52.707
263.59	62.108
263.96	59.066
264.33	57.441
264.70	58.947
265.07	59.335
265.44	57.071
265.81	52.798
266.18	58.794
266.55	55.122
266.92	56.757
267.29	56.713
267.66	54.128
268.03	56.591
268.40	54.206
268.77	55.370
269.14	52.928
269.51	53.725
269.88	57.110
270.25	54.853
270.62	54.157
270.99	56.344
271.36	54.506
271.73	56.542
272.10	53.043
272.47	55.269
272.84	51.948
273.21	53.459
273.58	50.437
273.95	49.476
274.32	51.860
274.69	54.604
275.06	50.197
275.43	51.064
275.80	52.906
276.17	53.157
276.54	50.728
276.91	51.383
277.28	51.172
277.65	50.484
278.02	48.861
278.39	53.125
278.76	49.455
279.13	49.811
279.50	48.231
279.87	50.398
280.23	52.495
280.60	51.644
280.97	50.462
281.34	50.796
281.71	50.727
282.08	52.015
282.45	49.455
282.82	50.799
283.19	48.307
283.56	50.526
283.92	50.423
284.29	47.972
284.66	47.187
285.03	48.644
285.40	49.824
285.77	48.148
286.14	47.841
286.51	48.667
286.87	48.718
287.24	47.557
287.61	45.265
287.98	46.591
288.35	47.385
288.72	46.729
289.08	46.322
289.45	45.140
289.82	43.415
290.19	43.956
290.56	43.185
290.93	43.202
291.29	42.945
291.66	42.773
292.03	43.459
292.40	44.640
292.77	40.237
293.13	41.791
293.50	44.315
293.87	41.185
294.24	41.630
294.60	40.902
294.97	41.424
295.34	42.877
295.71	40.483
296.08	39.316
296.44	39.065
296.81	38.705
297.18	39.431
297.55	37.335
297.91	38.654
298.28	39.759
298.65	39.164
299.02	39.394
299.38	39.044
299.75	36.119
300.12	37.931
300.48	36.875
300.85	37.485
301.22	37.452
301.59	38.005
301.95	36.272
302.32	37.356
302.69	37.515
303.05	34.909
303.42	35.309
303.79	36.127
304.15	34.965
304.52	35.689
304.89	35.424
305.25	34.687
305.62	34.994
305.99	35.773
306.35	35.794
306.72	35.650
307.09	34.517
307.45	35.473
307.82	35.491
308.19	34.768
308.55	34.196
308.92	34.909
309.29	34.636
309.65	35.525
310.02	34.038
310.38	36.237
310.75	34.002
311.12	34.698
311.48	35.214
311.85	34.172
312.22	35.380
312.58	33.160
312.95	36.114
313.31	33.204
313.68	35.759
314.05	35.602
314.41	35.779
314.78	35.247
315.14	36.147
315.51	35.839
315.87	35.545
316.24	35.849
316.61	36.355
316.97	36.497
317.34	36.595
317.70	38.050
318.07	38.595
318.43	38.845
318.80	38.519
319.16	39.360
319.53	37.992
319.89	40.190
320.26	41.200
320.62	40.972
320.99	41.212
321.35	41.212
321.72	43.224
322.08	44.719
322.45	45.473
322.81	45.252
323.18	47.592
323.54	46.197
323.91	47.075
324.27	47.610
324.64	48.928
325.00	47.069
325.37	50.955
325.73	52.424
326.10	51.721
326.46	53.584
326.83	53.063
327.19	53.715
327.56	55.575
327.92	57.655
328.29	57.941
328.65	60.405
329.01	59.477
329.38	59.574
329.74	61.588
330.11	62.582
330.47	62.075
330.84	62.132
331.20	62.568
331.56	61.284
331.93	63.519
332.29	63.443
332.66	63.097
333.02	63.894
333.38	63.415
333.75	64.706
334.11	65.569
334.48	63.798
334.84	65.074
335.20	66.364
335.57	66.818
335.93	65.268
336.29	65.110
336.66	66.186
337.02	65.973
337.38	67.315
337.75	65.062
338.11	67.681
338.47	68.785
338.84	68.194
339.20	68.257
339.56	70.620
339.93	69.091
340.29	67.391
340.65	67.112
341.02	68.586
341.38	68.594
341.74	68.947
342.11	68.734
342.47	67.930
342.83	67.723
343.20	68.918
343.56	66.891
343.92	69.123
344.28	69.048
344.65	70.851
345.01	67.761
345.37	69.383
345.73	68.105
346.10	69.224
346.46	69.153
346.82	69.769
347.19	68.755
347.55	67.652
347.91	67.314
348.27	70.830
348.63	67.893
349.00	68.770
349.36	68.391
349.72	67.843
350.08	69.125
350.45	71.684
350.81	69.293
351.17	68.801
351.53	70.680
351.89	68.977
352.26	70.403
352.62	69.928
352.98	69.773
353.34	70.090
353.70	70.867
354.07	69.032
354.43	69.444
354.79	69.590
355.15	70.391
355.51	71.303
355.87	73.061
356.24	71.743
356.60	68.244
356.96	71.842
357.32	73.671
357.68	71.496
358.04	69.834
358.40	69.596
358.77	71.518
359.13	72.455
359.49	71.451
359.85	71.032
360.21	72.488
360.57	71.907
360.93	73.154
361.29	70.446
361.66	70.975
362.02	71.716
362.38	73.232
362.74	72.768
363.10	70.762
363.46	71.093
363.82	72.336
364.18	72.173
364.54	73.923
364.90	72.592
365.26	73.824
365.62	73.630
365.98	72.316
366.35	70.917
366.71	72.234
367.07	73.634
367.43	74.238
367.79	74.019
368.15	73.779
368.51	72.529
368.87	74.804
369.23	73.299
369.59	75.887
369.95	74.265
370.31	72.934
370.67	73.478
371.03	75.206
371.39	74.344
371.75	73.382
372.11	74.111
372.47	74.194
372.83	75.793
373.19	72.616
373.55	74.871
373.91	76.141
374.27	72.577
374.63	74.255
374.99	75.424
375.35	75.227
375.71	74.709
376.07	74.623
376.42	77.510
376.78	75.282
377.14	75.577
377.50	75.894
377.86	74.269
378.22	75.537
378.58	74.436
378.94	74.230
379.30	76.272
379.66	77.221
380.02	74.693
380.38	74.924
380.74	77.491
381.09	75.428
381.45	76.275
381.81	75.184
382.17	76.815
382.53	76.981
382.89	76.914
383.25	76.548
383.61	77.323
383.97	77.423
384.32	76.482
384.68	76.394
385.04	76.275
385.40	77.647
385.76	77.088
386.12	75.777
386.48	76.904
386.83	77.806
387.19	77.304
387.55	76.871
387.91	77.025
388.27	76.456
388.62	76.890
388.98	76.474
389.34	76.158
389.70	75.720
390.06	77.440
390.42	76.589
390.77	76.781
391.13	77.154
391.49	77.982
391.85	77.403
392.20	77.161
392.56	77.652
392.92	77.869
393.28	77.396
393.64	77.758
393.99	76.115
394.35	77.357
394.71	76.286
395.07	75.826
395.42	78.492
395.78	75.382
396.14	75.171
396.50	78.822
396.85	78.576
397.21	75.709
397.57	76.689
397.92	76.803
398.28	76.794
398.64	76.941
399.00	76.105
399.35	76.142
399.71	77.373
400.07	76.582
400.42	76.258
400.78	76.598
401.14	76.646
401.49	76.299
401.85	77.556
402.21	75.509
402.57	78.038
402.92	76.860
403.28	77.077
403.63	75.309
403.99	77.261
404.35	74.788
404.70	76.319
405.06	76.354
405.42	76.544
405.77	74.971
406.13	74.549
406.49	75.695
406.84	76.551
407.20	75.355
407.55	76.324
407.91	77.533
408.27	77.728
408.62	74.654
408.98	75.061
409.34	75.031
409.69	74.710
410.05	75.774
410.40	74.067
410.76	75.209
411.11	74.427
411.47	75.463
411.83	75.137
412.18	74.830
412.54	75.467
412.89	74.819
413.25	75.325
413.60	76.158
413.96	73.528
414.31	74.180
414.67	74.208
415.03	75.232
415.38	75.064
415.74	75.563
416.09	77.335
416.45	74.364
416.80	76.140
417.16	77.413
417.51	76.908
417.87	74.245
418.22	75.331
418.58	75.662
418.93	74.631
419.29	75.557
419.64	75.441
420.00	75.671
420.35	73.971
420.71	75.732
421.06	76.671
421.42	74.094
421.77	75.448
422.12	75.070
422.48	73.718
422.83	74.956
423.19	73.978
423.54	75.566
423.90	73.739
424.25	75.098
424.61	74.107
424.96	75.219
425.31	74.419
425.67	73.258
426.02	74.229
426.38	75.641
426.73	75.190
427.09	75.258
427.44	75.331
427.79	75.618
428.15	75.595
428.50	74.371
428.85	74.732
429.21	75.373
429.56	73.924
429.92	74.132
430.27	73.932
430.62	74.194
430.98	75.091
431.33	73.660
431.68	73.770
432.04	72.950
432.39	75.557
432.74	75.703
433.10	75.042
433.45	75.743
433.80	75.166
434.16	73.184
434.51	74.684
434.86	74.914
435.22	74.931
435.57	74.954
435.92	75.892
436.28	76.097
436.63	75.000
436.98	75.386
437.34	76.088
437.69	77.130
438.04	76.391
438.39	75.821
438.75	76.177
439.10	76.480
439.45	76.092
439.81	76.737
440.16	75.381
440.51	76.098
440.86	76.317
441.22	76.085
441.57	75.743
441.92	76.049
442.27	76.265
442.63	74.934
442.98	77.127
443.33	74.620
443.68	75.426
444.03	75.939
444.39	75.365
444.74	74.351
445.09	75.795
445.44	75.232
445.79	76.299
446.15	74.537
446.50	74.690
446.85	75.951
447.20	74.707
447.55	77.443
447.91	75.896
448.26	76.405
448.61	77.897
448.96	77.187
449.31	76.097
449.66	75.464
450.02	77.103
450.37	76.474
450.72	77.552
451.07	75.929
451.42	74.650
451.77	77.863
452.12	75.173
452.47	75.435
452.83	76.981
453.18	75.550
453.53	77.489
453.88	76.964
454.23	75.792
454.58	76.378
454.93	77.559
455.28	75.748
455.63	75.728
455.98	79.048
456.34	76.319
456.69	77.332
457.04	77.337
457.39	75.161
457.74	76.494
458.09	75.216
458.44	76.625
458.79	74.566
459.14	77.088
459.49	75.248
459.84	76.399
460.19	75.899
460.54	73.495
460.89	75.096
461.24	76.806
461.59	76.002
461.94	75.771
462.29	76.261
462.64	74.920
462.99	75.146
463.34	76.200
463.69	76.735
464.04	74.377
464.39	75.710
464.74	74.866
465.09	74.729
465.44	74.183
465.79	73.993
466.14	74.001
466.49	72.803
466.84	75.248
467.19	74.713
467.54	75.312
467.89	74.490
468.24	74.055
468.59	73.260
468.94	74.343
469.29	76.478
469.64	75.971
469.99	76.861
470.34	76.750
470.68	76.652
471.03	76.803
471.38	77.276
471.73	75.616
472.08	75.263
472.43	74.497
472.78	75.049
473.13	75.610
473.48	74.906
473.83	74.756
474.17	73.678
474.52	75.993
474.87	74.256
475.22	73.941
475.57	72.434
475.92	72.862
476.27	73.112
476.61	74.793
476.96	72.457
477.31	72.946
477.66	73.961
478.01	71.929
478.36	74.458
478.70	73.105
479.05	74.707
479.40	73.234
479.75	72.954
480.10	73.608
480.45	71.299
480.79	72.002
481.14	72.456
481.49	72.615
481.84	72.108
482.19	71.831
482.53	71.881
482.88	71.661
483.23	72.944
483.58	71.429
483.92	72.165
484.27	70.719
484.62	70.819
484.97	70.635
485.31	71.199
485.66	68.092
486.01	65.273
486.36	63.874
486.70	63.763
487.05	65.562
487.40	67.697
487.75	67.689
488.09	68.790
488.44	69.346
488.79	70.524
489.13	71.199
489.48	71.656
489.83	71.515
490.17	71.285
490.52	70.328
490.87	70.737
491.22	70.259
491.56	69.841
491.91	69.893
492.26	70.464
492.60	68.986
492.95	69.738
493.30	70.093
493.64	71.489
493.99	69.313
494.34	70.028
494.68	70.467
495.03	70.630
495.37	69.707
495.72	70.224
496.07	70.394
496.41	68.717
496.76	69.217
497.11	68.978
497.45	69.213
497.80	70.345
498.14	69.855
498.49	69.951
498.84	68.792
499.18	68.762
499.53	69.278
499.87	68.872
500.22	68.158
500.56	70.388
500.91	68.510
501.26	67.899
501.60	70.147
501.95	68.561
502.29	68.838
502.64	68.948
502.98	68.583
503.33	66.819
503.67	68.213
504.02	66.978
504.36	67.337
504.71	68.002
505.06	67.711
505.40	67.526
505.75	66.827
506.09	66.910
506.44	69.610
506.78	68.047
507.13	67.643
507.47	67.929
507.82	67.933
508.16	67.477
508.51	68.595
508.85	67.478
509.19	68.571
509.54	66.837
509.88	67.285
510.23	67.301
510.57	68.266
510.92	68.462
511.26	66.804
511.61	67.635
511.95	67.015
512.30	67.444
512.64	67.706
512.98	67.524
513.33	67.345
513.67	65.475
514.02	65.801
514.36	68.815
514.70	67.128
515.05	68.042
515.39	67.471
515.74	66.498
516.08	66.518
516.42	67.980
516.77	66.276
517.11	65.816
517.46	66.084
517.80	67.886
518.14	66.242
518.49	67.211
518.83	66.477
519.17	67.032
519.52	66.553
519.86	66.629
520.20	66.763
520.55	67.564
520.89	67.336
521.23	67.491
521.58	66.387
521.92	66.687
522.26	66.016
522.61	66.729
522.95	67.281
523.29	65.977
523.64	67.378
523.98	66.975
524.32	65.018
524.66	65.063
525.01	65.196
525.35	64.932
525.69	65.148
526.04	64.361
526.38	65.467
526.72	65.767
527.06	66.039
527.41	64.790
527.75	65.338
528.09	66.602
528.43	65.774
528.78	65.765
529.12	63.939
529.46	65.401
529.80	64.233
530.15	64.860
530.49	64.246
530.83	65.759
531.17	65.927
531.51	65.759
531.86	64.968
532.20	65.319
532.54	64.894
532.88	65.854
533.22	62.961
533.57	63.210
533.91	62.252
534.25	62.515
534.59	62.233
534.93	60.738
535.27	61.919
535.62	62.698
535.96	63.214
536.30	62.683
536.64	63.232
536.98	63.238
537.32	63.002
537.66	62.467
538.01	61.883
538.35	61.538
538.69	62.795
539.03	60.624
539.37	61.150
539.71	60.726
540.05	61.699
540.39	60.930
540.73	60.026
541.07	62.362
541.42	62.035
541.76	62.129
542.10	60.867
542.44	62.119
542.78	62.055
543.12	59.949
543.46	61.508
543.80	60.898
544.14	59.499
544.48	60.571
544.82	60.231
545.16	61.874
545.50	60.411
545.84	61.492
546.18	60.202
546.52	60.427
546.86	60.619
547.20	61.092
547.54	60.454
547.88	59.694
548.22	59.215
548.56	58.994
548.90	58.963
549.24	59.461
549.58	62.074
549.92	60.371
550.26	60.724
550.60	60.304
550.94	59.648
551.28	59.912
551.62	61.682
551.96	59.649
552.30	59.795
552.64	59.229
552.98	60.339
553.32	59.541
553.66	58.896
554.00	60.329
554.34	57.971
554.68	61.159
555.02	58.745
555.36	59.290
555.69	57.307
556.03	59.017
556.37	58.595
556.71	57.572
557.05	58.053
557.39	58.153
557.73	57.234
558.07	59.173
558.41	58.394
558.75	58.413
559.08	58.240
559.42	59.864
559.76	59.853
560.10	56.959
560.44	57.582
560.78	57.219
561.12	55.871
561.45	56.128
561.79	56.691
562.13	57.076
562.47	58.538
562.81	59.763
563.15	56.455
563.48	56.233
563.82	56.882
564.16	56.442
564.50	55.924
564.84	56.258
565.17	56.692
565.51	55.655
565.85	55.140
566.19	55.980
566.52	56.048
566.86	54.491
567.20	54.894
567.54	54.110
567.88	53.341
568.21	53.704
568.55	53.792
568.89	52.140
569.23	52.005
569.56	51.093
569.90	50.226
570.24	49.408
570.57	48.997
570.91	48.222
571.25	47.406
571.59	47.894
571.92	48.070
572.26	47.631
572.60	48.318
572.93	47.616
573.27	47.530
573.61	47.990
573.95	47.261
574.28	46.884
574.62	46.404
574.96	46.260
575.29	46.145
575.63	46.087
575.97	46.707
576.30	46.522
576.64	46.677
576.98	46.159
577.31	46.188
577.65	46.167
577.98	45.456
578.32	45.334
578.66	45.597
578.99	45.469
579.33	45.655
579.67	45.585
580.00	45.936
580.34	46.132
580.67	45.710
581.01	46.076
581.35	44.938
581.68	44.653
582.02	44.394
582.35	44.991
582.69	44.798
583.02	45.261
583.36	45.723
583.70	45.854
584.03	45.585
584.37	45.876
584.70	46.578
585.04	45.328
585.37	45.317
585.71	45.418
586.04	45.518
586.38	45.428
586.72	46.203
587.05	45.531
587.39	45.330
587.72	44.963
588.06	45.064
588.39	45.624
588.73	45.703
589.06	46.463
589.40	46.700
589.73	47.026
590.07	46.904
590.40	46.876
590.73	47.151
591.07	48.474
591.40	48.503
591.74	48.874
592.07	46.640
592.41	46.879
592.74	45.993
593.08	45.670
593.41	44.954
593.75	44.691
594.08	45.625
594.41	46.341
594.75	45.693
595.08	45.490
595.42	45.254
595.75	45.335
596.09	46.714
596.42	46.248
596.75	47.404
597.09	48.009
597.42	46.248
597.75	46.356
598.09	46.304
598.42	45.833
598.76	45.926
599.09	45.040
599.42	44.905
599.76	45.351
600.09	45.319
600.42	44.704
600.76	43.929
601.09	44.772
601.42	44.559
601.76	44.288
602.09	45.573
602.42	46.019
602.76	46.030
603.09	45.594
603.42	45.841
603.76	44.931
604.09	44.862
604.42	45.536
604.76	45.340
605.09	45.478
605.42	44.891
605.75	44.743
606.09	45.100
606.42	45.198
606.75	45.375
607.09	45.668
607.42	45.443
607.75	44.346
608.08	44.855
608.42	45.719
608.75	44.319
609.08	45.097
609.41	46.311
609.75	45.403
610.08	46.795
610.41	44.879
610.74	44.655
611.07	45.603
611.41	45.289
611.74	46.305
612.07	46.584
612.40	46.905
612.73	46.263
613.07	46.175
613.40	45.972
613.73	45.517
614.06	47.742
614.39	45.045
614.72	45.158
615.06	46.113
615.39	45.488
615.72	45.092
616.05	45.189
616.38	46.192
616.71	47.922
617.05	48.115
617.38	47.324
617.71	47.868
618.04	46.815
618.37	45.653
618.70	46.609
619.03	48.355
619.36	47.590
619.69	47.113
620.03	48.352
620.36	47.393
620.69	48.082
621.02	49.189
621.35	48.081
621.68	48.364
622.01	48.839
622.34	48.563
622.67	50.646
623.00	46.955
623.33	46.891
623.66	48.106
623.99	48.454
624.32	47.076
624.65	47.387
624.99	46.246
625.32	47.140
625.65	47.784
625.98	49.347
626.31	48.212
626.64	48.980
626.97	49.377
627.30	48.878
627.63	49.795
627.96	49.622
628.29	49.869
628.62	50.595
628.95	50.189
629.28	50.547
629.61	51.054
629.94	51.333
630.26	51.573
630.59	50.143
