SpectraSuite Data File
++++++++++++++++++++++++++++++++++++
Date: Wed May 13 19:37:01 PDT 2015
User: schluterlab
Dark Spectrum Present: Yes
Reference Spectrum Present: Yes
Number of Sampled Component Spectra: 1
Spectrometers: USB2E3373
Integration Time (usec): 3000 (USB2E3373)
Spectra Averaged: 3 (USB2E3373)
Boxcar Smoothing: 0 (USB2E3373)
Correct for Electrical Dark: No (USB2E3373)
Strobe/Lamp Enabled: No (USB2E3373)
Correct for Detector Non-linearity: No (USB2E3373)
Correct for Stray Light: No (USB2E3373)
Number of Pixels in Processed Spectrum: 2048
>>>>>Begin Processed Spectral Data<<<<<
178.53	0.000
178.91	-1325.000
179.29	-1300.000
179.67	-255.556
180.04	-1250.000
180.42	2950.000
180.80	1340.000
181.18	-1200.000
181.56	800.000
181.94	0.000
182.31	-757.143
182.69	1566.667
183.07	-650.000
183.45	-600.000
183.83	527.273
184.20	-410.000
184.58	2700.000
184.96	6000.000
185.34	-880.000
185.72	-700.000
186.09	-2500.000
186.47	3150.000
186.85	2550.000
187.23	5400.000
187.61	-1666.667
187.98	1525.000
188.36	572.727
188.74	618.182
189.12	-1080.000
189.49	630.000
189.87	-4400.000
190.25	-1225.000
190.63	414.286
191.00	461.538
191.38	816.667
191.76	-1275.000
192.14	1425.000
192.51	625.000
192.89	1050.000
193.27	600.000
193.65	-975.000
194.02	490.000
194.40	1060.000
194.78	530.000
195.15	600.000
195.53	620.000
195.91	-2100.000
196.29	331.250
196.66	373.684
197.04	-410.000
197.42	0.000
197.79	610.000
198.17	-6400.000
198.55	828.571
198.92	712.500
199.30	1020.000
199.68	0.000
200.05	366.667
200.43	800.000
200.81	4900.000
201.18	1900.000
201.56	-1300.000
201.94	700.000
202.31	611.111
202.69	483.333
203.07	630.000
203.44	0.000
203.82	1125.000
204.19	842.857
204.57	385.714
204.95	700.000
205.32	1633.333
205.70	563.636
206.08	378.571
206.45	2700.000
206.83	412.500
207.20	916.667
207.58	920.000
207.96	316.667
208.33	825.000
208.71	-1033.333
209.08	914.286
209.46	666.667
209.84	509.091
210.21	-1866.667
210.59	1675.000
210.96	-500.000
211.34	2750.000
211.71	620.000
212.09	800.000
212.46	0.000
212.84	1800.000
213.22	1325.000
213.59	-5700.000
213.97	950.000
214.34	842.857
214.72	527.273
215.09	1360.000
215.47	-2850.000
215.84	-2750.000
216.22	1733.333
216.59	428.571
216.97	1325.000
217.34	518.182
217.72	-733.333
218.09	0.000
218.47	-5700.000
218.84	711.111
219.22	885.714
219.59	1933.333
219.97	-614.286
220.34	1120.000
220.72	-2000.000
221.09	428.571
221.47	1525.000
221.84	-1066.667
222.22	0.000
222.59	1300.000
222.97	-2950.000
223.34	1280.000
223.72	415.385
224.09	1300.000
224.46	2350.000
224.84	-5200.000
225.21	-1060.000
225.59	-5100.000
225.96	670.000
226.34	330.000
226.71	2800.000
227.08	650.000
227.46	580.000
227.83	-1150.000
228.21	-2250.000
228.58	611.111
228.95	-2600.000
229.33	-2400.000
229.70	1866.667
230.08	685.714
230.45	-940.000
230.82	433.333
231.20	750.000
231.57	728.571
231.95	508.333
232.32	281.818
232.69	472.727
233.07	742.857
233.44	384.615
233.81	-1933.333
234.19	384.211
234.56	566.667
234.93	341.667
235.31	518.182
235.68	423.077
236.05	385.714
236.43	193.939
236.80	284.211
237.17	5300.000
237.55	304.762
237.92	232.143
238.29	304.762
238.67	209.677
239.04	220.690
239.41	175.000
239.79	147.826
240.16	185.714
240.53	154.545
240.91	125.490
241.28	124.000
241.65	136.000
242.02	127.536
242.40	108.065
242.77	123.333
243.14	81.720
243.51	103.371
243.89	95.294
244.26	92.222
244.63	88.172
245.00	75.532
245.38	78.218
245.75	79.439
246.12	77.064
246.49	86.861
246.87	81.600
247.24	80.000
247.61	70.000
247.98	69.281
248.36	69.595
248.73	70.064
249.10	65.605
249.47	65.537
249.84	63.102
250.22	61.497
250.59	66.864
250.96	62.626
251.33	63.507
251.70	59.406
252.08	59.524
252.45	60.538
252.82	57.826
253.19	60.000
253.56	54.902
253.94	54.772
254.31	56.250
254.68	60.000
255.05	57.934
255.42	54.472
255.79	57.353
256.16	50.903
256.54	48.057
256.91	56.228
257.28	50.360
257.65	50.825
258.02	49.068
258.39	49.211
258.76	55.184
259.14	50.893
259.51	49.848
259.88	49.068
260.25	53.172
260.62	48.844
260.99	52.174
261.36	49.249
261.73	46.991
262.10	49.709
262.47	53.239
262.85	50.139
263.22	49.573
263.59	50.997
263.96	47.253
264.33	44.125
264.70	47.368
265.07	45.013
265.44	50.505
265.81	42.336
266.18	51.508
266.55	46.829
266.92	47.912
267.29	45.602
267.66	49.083
268.03	43.636
268.40	44.393
268.77	47.255
269.14	42.793
269.51	43.792
269.88	45.221
270.25	45.598
270.62	44.494
270.99	43.656
271.36	43.348
271.73	43.692
272.10	45.217
272.47	45.591
272.84	43.074
273.21	44.025
273.58	41.485
273.95	41.929
274.32	41.116
274.69	43.255
275.06	41.535
275.43	43.830
275.80	42.285
276.17	44.399
276.54	43.867
276.91	41.502
277.28	40.234
277.65	42.360
278.02	41.201
278.39	44.141
278.76	39.636
279.13	42.453
279.50	40.410
279.87	40.239
280.23	41.916
280.60	39.845
280.97	41.590
281.34	40.885
281.71	43.455
282.08	39.539
282.45	38.909
282.82	41.208
283.19	39.572
283.56	40.000
283.92	42.470
284.29	38.095
284.66	41.379
285.03	39.060
285.40	38.908
285.77	39.562
286.14	39.378
286.51	41.333
286.87	38.974
287.24	39.739
287.61	37.881
287.98	38.636
288.35	38.827
288.72	35.514
289.08	37.246
289.45	38.880
289.82	38.049
290.19	34.851
290.56	35.835
290.93	36.556
291.29	33.896
291.66	35.103
292.03	36.628
292.40	36.123
292.77	32.396
293.13	34.030
293.50	34.257
293.87	34.519
294.24	33.481
294.60	31.004
294.97	33.576
295.34	34.415
295.71	33.949
296.08	32.194
296.44	32.050
296.81	31.440
297.18	31.572
297.55	30.871
297.91	32.454
298.28	31.995
298.65	31.593
299.02	30.171
299.38	30.279
299.75	29.784
300.12	29.885
300.48	30.625
300.85	29.963
301.22	29.936
301.59	28.283
301.95	30.101
302.32	30.039
302.69	28.554
303.05	28.848
303.42	27.901
303.79	28.199
304.15	26.807
304.52	27.926
304.89	29.617
305.25	29.002
305.62	27.860
305.99	29.162
306.35	27.964
306.72	27.018
307.09	28.857
307.45	28.041
307.82	26.897
308.19	28.477
308.55	28.910
308.92	26.745
309.29	26.716
309.65	26.405
310.02	27.061
310.38	27.097
310.75	26.188
311.12	26.407
311.48	28.527
311.85	27.568
312.22	26.639
312.58	27.651
312.95	26.716
313.31	25.049
313.68	26.715
314.05	28.008
314.41	26.533
314.78	26.183
315.14	25.819
315.51	26.159
315.87	26.040
316.24	25.223
316.61	26.413
316.97	24.755
317.34	25.440
317.70	26.004
318.07	25.602
318.43	26.908
318.80	26.710
319.16	26.177
319.53	25.422
319.89	26.381
320.26	25.900
320.62	26.190
320.99	24.949
321.35	26.667
321.72	26.489
322.08	26.654
322.45	28.955
322.81	26.938
323.18	27.168
323.54	26.345
323.91	25.189
324.27	26.195
324.64	25.722
325.00	25.338
325.37	25.296
325.73	27.289
326.10	25.243
326.46	25.627
326.83	26.833
327.19	26.046
327.56	26.568
327.92	25.284
328.29	25.909
328.65	27.440
329.01	27.437
329.38	25.254
329.74	25.392
330.11	26.484
330.47	26.538
330.84	26.654
331.20	26.321
331.56	25.688
331.93	25.370
332.29	27.240
332.66	25.841
333.02	26.874
333.38	26.378
333.75	26.471
334.11	26.779
334.48	26.176
334.84	27.482
335.20	26.455
335.57	27.017
335.93	25.179
336.29	26.190
336.66	25.609
337.02	24.434
337.38	26.019
337.75	25.223
338.11	25.425
338.47	25.967
338.84	25.665
339.20	25.321
339.56	26.004
339.93	24.909
340.29	25.091
340.65	25.936
341.02	25.567
341.38	25.623
341.74	26.404
342.11	25.764
342.47	25.463
342.83	26.455
343.20	26.753
343.56	24.937
343.92	25.439
344.28	24.490
344.65	25.795
345.01	25.168
345.37	24.700
345.73	24.873
346.10	25.575
346.46	25.085
346.82	25.041
347.19	24.478
347.55	24.384
347.91	24.272
348.27	23.829
348.63	23.913
349.00	24.515
349.36	25.369
349.72	25.341
350.08	23.501
350.45	24.736
350.81	22.665
351.17	24.068
351.53	23.997
351.89	23.597
352.26	23.757
352.62	24.699
352.98	25.041
353.34	25.062
353.70	23.732
354.07	24.435
354.43	24.127
354.79	22.848
355.15	23.464
355.51	24.301
355.87	23.020
356.24	23.860
356.60	23.176
356.96	23.652
357.32	23.058
357.68	23.622
358.04	23.753
358.40	23.753
358.77	24.413
359.13	22.731
359.49	23.294
359.85	22.143
360.21	23.126
360.57	24.280
360.93	24.154
361.29	23.356
361.66	22.678
362.02	23.209
362.38	23.422
362.74	24.256
363.10	23.094
363.46	22.450
363.82	21.618
364.18	23.201
364.54	23.700
364.90	23.938
365.26	22.721
365.62	22.863
365.98	23.521
366.35	22.421
366.71	22.993
367.07	22.797
367.43	22.569
367.79	23.483
368.15	23.348
368.51	21.875
368.87	22.413
369.23	22.458
369.59	22.520
369.95	22.941
370.31	22.721
370.67	21.884
371.03	23.146
371.39	22.668
371.75	23.162
372.11	21.550
372.47	22.581
372.83	23.703
373.19	22.254
373.55	22.395
373.91	23.417
374.27	21.375
374.63	22.182
374.99	22.246
375.35	20.935
375.71	21.727
376.07	22.154
376.42	21.939
376.78	22.068
377.14	21.574
377.50	22.318
377.86	21.742
378.22	21.934
378.58	20.739
378.94	21.307
379.30	20.420
379.66	21.574
380.02	21.560
380.38	20.097
380.74	22.449
381.09	21.394
381.45	22.803
381.81	22.113
382.17	22.102
382.53	22.201
382.89	21.358
383.25	21.513
383.61	21.685
383.97	21.388
384.32	21.709
384.68	20.632
385.04	22.250
385.40	21.424
385.76	21.744
386.12	20.596
386.48	21.271
386.83	22.065
387.19	21.831
387.55	21.212
387.91	21.100
388.27	20.969
388.62	20.836
388.98	21.007
389.34	21.777
389.70	22.011
390.06	21.546
390.42	20.298
390.77	21.438
391.13	20.676
391.49	21.574
391.85	20.942
392.20	20.252
392.56	21.275
392.92	21.189
393.28	19.882
393.64	21.103
393.99	20.892
394.35	21.092
394.71	21.079
395.07	20.623
395.42	21.446
395.78	20.992
396.14	21.974
396.50	21.742
396.85	21.424
397.21	20.777
397.57	20.335
397.92	21.154
398.28	20.235
398.64	20.131
399.00	20.537
399.35	20.530
399.71	20.718
400.07	20.875
400.42	21.043
400.78	21.411
401.14	20.793
401.49	20.478
401.85	20.811
402.21	20.000
402.57	20.975
402.92	21.501
403.28	20.425
403.63	20.297
403.99	21.274
404.35	21.030
404.70	20.863
405.06	19.802
405.42	20.399
405.77	20.114
406.13	20.485
406.49	20.402
406.84	20.496
407.20	20.272
407.55	21.187
407.91	21.333
408.27	20.868
408.62	20.530
408.98	20.895
409.34	20.787
409.69	20.968
410.05	21.747
410.40	20.856
410.76	20.609
411.11	21.291
411.47	20.128
411.83	21.014
412.18	20.656
412.54	21.295
412.89	20.482
413.25	20.484
413.60	21.001
413.96	20.947
414.31	20.352
414.67	20.913
415.03	19.536
415.38	21.392
415.74	21.415
416.09	22.012
416.45	20.616
416.80	21.811
417.16	21.984
417.51	21.301
417.87	20.103
418.22	21.009
418.58	21.950
418.93	21.314
419.29	21.133
419.64	21.662
420.00	21.585
420.35	20.696
420.71	21.698
421.06	20.764
421.42	21.404
421.77	21.076
422.12	20.775
422.48	19.536
422.83	20.384
423.19	20.718
423.54	20.952
423.90	20.986
424.25	21.329
424.61	21.310
424.96	20.292
425.31	20.819
425.67	20.056
426.02	20.514
426.38	21.734
426.73	20.538
427.09	22.128
427.44	21.104
427.79	20.529
428.15	21.786
428.50	20.655
428.85	20.918
429.21	20.652
429.56	21.099
429.92	21.238
430.27	20.159
430.62	19.560
430.98	20.343
431.33	20.464
431.68	20.471
432.04	20.501
432.39	20.731
432.74	21.364
433.10	20.430
433.45	21.050
433.80	20.399
434.16	20.459
434.51	20.211
434.86	21.380
435.22	21.067
435.57	21.277
435.92	20.246
436.28	21.649
436.63	21.854
436.98	20.893
437.34	21.646
437.69	21.295
438.04	20.742
438.39	21.672
438.75	21.441
439.10	21.732
439.45	21.665
439.81	21.450
440.16	21.231
440.51	21.675
440.86	21.424
441.22	20.189
441.57	20.860
441.92	21.443
442.27	21.421
442.63	21.064
442.98	22.704
443.33	21.957
443.68	20.909
444.03	20.498
444.39	19.718
444.74	21.537
445.09	21.402
445.44	20.831
445.79	20.782
446.15	21.228
446.50	20.894
446.85	20.761
447.20	21.571
447.55	21.161
447.91	21.456
448.26	21.536
448.61	21.481
448.96	22.425
449.31	21.879
449.66	21.272
450.02	21.058
450.37	20.748
450.72	21.376
451.07	20.963
451.42	21.398
451.77	21.609
452.12	22.344
452.47	22.015
452.83	21.795
453.18	21.577
453.53	21.583
453.88	21.500
454.23	22.475
454.58	22.229
454.93	23.140
455.28	21.135
455.63	21.481
455.98	22.381
456.34	22.864
456.69	22.104
457.04	22.848
457.39	21.625
457.74	21.706
458.09	22.197
458.44	22.121
458.79	21.041
459.14	22.291
459.49	23.001
459.84	22.271
460.19	21.332
460.54	21.701
460.89	22.545
461.24	22.829
461.59	23.359
461.94	22.195
462.29	22.077
462.64	22.655
462.99	22.576
463.34	24.133
463.69	22.201
464.04	22.029
464.39	21.623
464.74	22.935
465.09	21.954
465.44	21.884
465.79	21.253
466.14	22.496
466.49	21.691
466.84	23.117
467.19	22.330
467.54	21.875
467.89	23.049
468.24	22.629
468.59	23.199
468.94	22.053
469.29	22.622
469.64	24.297
469.99	23.613
470.34	23.250
470.68	24.569
471.03	23.061
471.38	24.114
471.73	23.518
472.08	24.145
472.43	22.802
472.78	22.778
473.13	23.684
473.48	22.971
473.83	22.866
474.17	23.398
474.52	22.891
474.87	23.176
475.22	23.215
475.57	22.569
475.92	22.411
476.27	22.097
476.61	23.001
476.96	22.760
477.31	22.292
477.66	22.484
478.01	22.269
478.36	22.792
478.70	22.274
479.05	22.364
479.40	22.927
479.75	22.522
480.10	22.366
480.45	21.990
480.79	22.504
481.14	22.358
481.49	22.544
481.84	22.542
482.19	22.581
482.53	22.110
482.88	21.964
483.23	22.150
483.58	22.384
483.92	22.962
484.27	21.394
484.62	21.940
484.97	21.443
485.31	21.301
485.66	19.641
486.01	18.534
486.36	18.128
486.70	17.753
487.05	18.854
487.40	19.535
487.75	20.372
488.09	20.867
488.44	20.847
488.79	22.170
489.13	22.078
489.48	22.308
489.83	21.839
490.17	22.797
490.52	22.542
490.87	22.795
491.22	22.874
491.56	22.733
491.91	22.848
492.26	22.921
492.60	23.180
492.95	21.936
493.30	22.664
493.64	22.538
493.99	21.913
494.34	22.988
494.68	22.802
495.03	23.073
495.37	22.569
495.72	23.489
496.07	23.248
496.41	22.168
496.76	22.383
497.11	23.503
497.45	22.636
497.80	22.553
498.14	23.092
498.49	22.683
498.84	23.011
499.18	22.667
499.53	23.124
499.87	23.486
500.22	23.316
500.56	23.301
500.91	23.413
501.26	23.139
501.60	23.541
501.95	22.731
502.29	23.664
502.64	22.300
502.98	22.814
503.33	23.218
503.67	22.784
504.02	23.106
504.36	22.742
504.71	23.107
505.06	23.036
505.40	23.092
505.75	22.903
506.09	23.712
506.44	24.026
506.78	23.527
507.13	23.069
507.47	23.838
507.82	23.961
508.16	23.810
508.51	24.708
508.85	23.237
509.19	24.082
509.54	24.082
509.88	22.926
510.23	24.216
510.57	24.407
510.92	23.615
511.26	23.844
511.61	24.896
511.95	23.852
512.30	24.072
512.64	24.772
512.98	24.544
513.33	24.518
513.67	24.173
514.02	23.593
514.36	25.942
514.70	24.405
515.05	24.540
515.39	25.238
515.74	24.887
516.08	25.210
516.42	25.028
516.77	25.028
517.11	24.861
517.46	25.564
517.80	25.377
518.14	24.204
518.49	25.088
518.83	24.830
519.17	25.635
519.52	25.750
519.86	24.872
520.20	25.896
520.55	25.972
520.89	25.487
521.23	26.478
521.58	25.630
521.92	25.536
522.26	25.564
522.61	26.417
522.95	24.985
523.29	24.954
523.64	25.732
523.98	26.063
524.32	25.573
524.66	26.158
525.01	25.797
525.35	25.774
525.69	25.739
526.04	26.667
526.38	26.419
526.72	26.012
527.06	25.235
527.41	24.505
527.75	25.659
528.09	26.718
528.43	26.386
528.78	26.245
529.12	25.515
529.46	26.209
529.80	26.795
530.15	25.919
530.49	25.046
530.83	26.266
531.17	27.676
531.51	27.367
531.86	26.516
532.20	26.858
532.54	26.457
532.88	26.701
533.22	25.921
533.57	25.617
533.91	25.647
534.25	25.942
534.59	25.991
534.93	25.045
535.27	25.830
535.62	25.336
535.96	26.303
536.30	25.747
536.64	26.465
536.98	26.344
537.32	26.201
537.66	26.267
538.01	26.465
538.35	26.309
538.69	27.569
539.03	26.056
539.37	26.070
539.71	24.368
540.05	26.601
540.39	26.578
540.73	25.809
541.07	27.839
541.42	26.223
541.76	27.032
542.10	26.261
542.44	26.291
542.78	26.812
543.12	25.656
543.46	26.623
543.80	26.545
544.14	24.647
544.48	26.159
544.82	26.106
545.16	26.415
545.50	25.707
545.84	26.411
546.18	26.734
546.52	26.703
546.86	26.873
547.20	26.500
547.54	25.785
547.88	27.232
548.22	26.152
548.56	26.289
548.90	25.480
549.24	26.195
549.58	26.330
549.92	27.473
550.26	28.693
550.60	26.210
550.94	26.972
551.28	26.628
551.62	27.678
551.96	27.018
552.30	27.372
552.64	27.248
552.98	27.254
553.32	27.040
553.66	27.267
554.00	26.836
554.34	27.743
554.68	26.753
555.02	26.657
555.36	26.096
555.69	26.725
556.03	25.707
556.37	26.467
556.71	25.853
557.05	26.401
557.39	27.432
557.73	25.829
558.07	27.846
558.41	26.194
558.75	27.480
559.08	27.069
559.42	27.740
559.76	27.721
560.10	26.981
560.44	26.834
560.78	25.948
561.12	26.781
561.45	26.206
561.79	25.313
562.13	26.962
562.47	27.459
562.81	27.197
563.15	25.886
563.48	26.326
563.82	26.549
564.16	26.750
564.50	25.326
564.84	25.790
565.17	25.804
565.51	25.879
565.85	26.206
566.19	25.986
566.52	26.472
566.86	25.256
567.20	26.592
567.54	25.285
567.88	24.009
568.21	24.392
568.55	24.014
568.89	22.860
569.23	23.039
569.56	22.551
569.90	21.774
570.24	21.457
570.57	21.965
570.91	20.750
571.25	20.290
571.59	20.943
571.92	20.622
572.26	20.826
572.60	20.841
572.93	21.259
573.27	20.852
573.61	20.966
573.95	20.620
574.28	20.201
574.62	19.922
574.96	20.048
575.29	19.884
575.63	19.690
575.97	19.969
576.30	20.101
576.64	19.788
576.98	19.543
577.31	19.871
577.65	19.045
577.98	19.119
578.32	18.884
578.66	19.581
578.99	19.470
579.33	19.850
579.67	19.898
580.00	20.043
580.34	19.862
580.67	19.901
581.01	20.036
581.35	19.472
581.68	19.230
582.02	18.331
582.35	18.680
582.69	19.386
583.02	19.167
583.36	20.014
583.70	20.405
584.03	20.193
584.37	20.896
584.70	20.585
585.04	20.352
585.37	20.037
585.71	20.254
586.04	19.981
586.38	20.402
586.72	20.823
587.05	20.619
587.39	19.842
587.72	20.304
588.06	20.277
588.39	20.274
588.73	20.593
589.06	21.222
589.40	21.650
589.73	21.577
590.07	21.708
590.40	21.191
590.73	22.248
591.07	23.321
591.40	22.649
591.74	22.814
592.07	22.862
592.41	21.910
592.74	21.685
593.08	20.953
593.41	20.468
593.75	20.019
594.08	20.617
594.41	21.774
594.75	21.996
595.08	21.618
595.42	21.261
595.75	21.474
596.09	22.080
596.42	22.004
596.75	23.090
597.09	23.420
597.42	21.880
597.75	22.035
598.09	22.391
598.42	22.938
598.76	22.011
599.09	21.323
599.42	20.888
599.76	21.230
600.09	20.656
600.42	21.402
600.76	20.821
601.09	20.984
601.42	21.271
601.76	21.594
602.09	22.134
602.42	21.935
602.76	22.410
603.09	21.204
603.42	21.749
603.76	21.875
604.09	21.481
604.42	22.381
604.76	23.028
605.09	22.499
605.42	21.633
605.75	22.475
606.09	21.716
606.42	21.986
606.75	21.609
607.09	22.227
607.42	21.609
607.75	21.688
608.08	22.579
608.42	23.353
608.75	22.137
609.08	22.942
609.41	22.703
609.75	22.773
610.08	23.468
610.41	22.626
610.74	22.469
611.07	22.727
611.41	23.307
611.74	23.731
612.07	23.602
612.40	24.292
612.73	23.474
613.07	24.300
613.40	23.591
613.73	23.020
614.06	23.065
614.39	23.230
614.72	23.316
615.06	24.212
615.39	23.195
615.72	22.853
616.05	23.073
616.38	24.180
616.71	24.466
617.05	25.088
617.38	24.474
617.71	24.745
618.04	24.639
618.37	24.660
618.70	23.958
619.03	26.250
619.36	24.983
619.69	26.056
620.03	26.648
620.36	25.936
620.69	25.685
621.02	26.696
621.35	27.016
621.68	26.012
622.01	27.554
622.34	26.551
622.67	26.844
623.00	26.412
623.33	26.733
623.66	25.733
623.99	26.510
624.32	25.820
624.65	26.059
624.99	25.354
625.32	26.140
625.65	25.995
625.98	27.517
626.31	26.983
626.64	27.265
626.97	27.348
627.30	27.847
627.63	26.825
627.96	28.091
628.29	28.521
628.62	29.277
628.95	29.906
629.28	30.018
629.61	29.148
629.94	29.429
630.26	28.503
630.59	28.789
