SpectraSuite Data File
++++++++++++++++++++++++++++++++++++
Date: Wed May 13 19:10:22 PDT 2015
User: schluterlab
Dark Spectrum Present: Yes
Reference Spectrum Present: Yes
Number of Sampled Component Spectra: 1
Spectrometers: USB2E3373
Integration Time (usec): 3000 (USB2E3373)
Spectra Averaged: 3 (USB2E3373)
Boxcar Smoothing: 0 (USB2E3373)
Correct for Electrical Dark: No (USB2E3373)
Strobe/Lamp Enabled: No (USB2E3373)
Correct for Detector Non-linearity: No (USB2E3373)
Correct for Stray Light: No (USB2E3373)
Number of Pixels in Processed Spectrum: 2048
>>>>>Begin Processed Spectral Data<<<<<
178.53	0.000
178.91	-1375.000
179.29	-1500.000
179.67	-288.889
180.04	-1550.000
180.42	2600.000
180.80	1060.000
181.18	-1100.000
181.56	728.571
181.94	0.000
182.31	-742.857
182.69	2266.667
183.07	-750.000
183.45	-733.333
183.83	554.545
184.20	-490.000
184.58	2600.000
184.96	5900.000
185.34	-1080.000
185.72	-700.000
186.09	-2650.000
186.47	2600.000
186.85	2850.000
187.23	5900.000
187.61	-2033.333
187.98	1450.000
188.36	618.182
188.74	581.818
189.12	-1240.000
189.49	700.000
189.87	-6100.000
190.25	-1475.000
190.63	457.143
191.00	415.385
191.38	866.667
191.76	-1350.000
192.14	1650.000
192.51	750.000
192.89	1066.667
193.27	687.500
193.65	-1475.000
194.02	640.000
194.40	1220.000
194.78	640.000
195.15	516.667
195.53	670.000
195.91	-2750.000
196.29	375.000
196.66	321.053
197.04	-460.000
197.42	0.000
197.79	710.000
198.17	-5700.000
198.55	728.571
198.92	825.000
199.30	1220.000
199.68	0.000
200.05	372.222
200.43	957.143
200.81	4900.000
201.18	1966.667
201.56	-1600.000
201.94	555.556
202.31	711.111
202.69	491.667
203.07	590.000
203.44	0.000
203.82	1100.000
204.19	842.857
204.57	464.286
204.95	800.000
205.32	2000.000
205.70	600.000
206.08	478.571
206.45	2900.000
206.83	381.250
207.20	950.000
207.58	820.000
207.96	338.889
208.33	837.500
208.71	-1033.333
209.08	957.143
209.46	577.778
209.84	590.909
210.21	-1866.667
210.59	1800.000
210.96	-475.000
211.34	2750.000
211.71	650.000
212.09	966.667
212.46	0.000
212.84	1800.000
213.22	1550.000
213.59	-5200.000
213.97	816.667
214.34	842.857
214.72	736.364
215.09	1220.000
215.47	-2600.000
215.84	-2900.000
216.22	2000.000
216.59	414.286
216.97	1475.000
217.34	518.182
217.72	-900.000
218.09	0.000
218.47	-6000.000
218.84	788.889
219.22	985.714
219.59	1966.667
219.97	-600.000
220.34	1060.000
220.72	-1800.000
221.09	457.143
221.47	1700.000
221.84	-900.000
222.22	0.000
222.59	1725.000
222.97	-2600.000
223.34	1280.000
223.72	538.462
224.09	1260.000
224.46	3100.000
224.84	-5800.000
225.21	-1120.000
225.59	-5800.000
225.96	670.000
226.34	330.000
226.71	3100.000
227.08	812.500
227.46	750.000
227.83	-1275.000
228.21	-2250.000
228.58	777.778
228.95	-2950.000
229.33	-2900.000
229.70	1900.000
230.08	985.714
230.45	-1080.000
230.82	475.000
231.20	816.667
231.57	714.286
231.95	583.333
232.32	281.818
232.69	463.636
233.07	857.143
233.44	400.000
233.81	-1633.333
234.19	347.368
234.56	508.333
234.93	458.333
235.31	509.091
235.68	415.385
236.05	378.571
236.43	209.091
236.80	294.737
237.17	4700.000
237.55	266.667
237.92	225.000
238.29	285.714
238.67	183.871
239.04	196.552
239.41	169.444
239.79	117.391
240.16	128.571
240.53	150.000
240.91	105.882
241.28	98.000
241.65	130.000
242.02	114.493
242.40	91.935
242.77	91.667
243.14	73.118
243.51	78.652
243.89	85.882
244.26	63.333
244.63	67.742
245.00	76.596
245.38	72.277
245.75	52.336
246.12	61.468
246.49	64.964
246.87	58.400
247.24	56.154
247.61	53.571
247.98	54.902
248.36	44.595
248.73	48.408
249.10	47.134
249.47	43.503
249.84	44.920
250.22	39.572
250.59	43.195
250.96	44.949
251.33	39.810
251.70	40.594
252.08	40.952
252.45	31.390
252.82	35.652
253.19	39.574
253.56	35.686
253.94	37.759
254.31	37.500
254.68	35.385
255.05	36.900
255.42	33.333
255.79	32.721
256.16	34.657
256.54	31.802
256.91	33.808
257.28	29.496
257.65	28.713
258.02	28.571
258.39	29.653
258.76	25.753
259.14	30.060
259.51	27.052
259.88	25.155
260.25	27.795
260.62	27.746
260.99	22.050
261.36	29.730
261.73	26.934
262.10	26.163
262.47	29.859
262.85	23.398
263.22	24.786
263.59	28.775
263.96	24.451
264.33	27.415
264.70	24.474
265.07	25.575
265.44	24.747
265.81	23.358
266.18	24.372
266.55	23.902
266.92	25.799
267.29	25.463
267.66	23.853
268.03	24.318
268.40	23.364
268.77	22.912
269.14	22.297
269.51	25.959
269.88	24.009
270.25	23.476
270.62	23.371
270.99	25.591
271.36	21.888
271.73	22.196
272.10	19.783
272.47	24.086
272.84	22.511
273.21	22.013
273.58	18.996
273.95	20.755
274.32	21.074
274.69	23.340
275.06	21.063
275.43	23.830
275.80	22.846
276.17	22.811
276.54	22.453
276.91	21.937
277.28	18.555
277.65	20.890
278.02	23.602
278.39	24.609
278.76	20.364
279.13	21.509
279.50	21.043
279.87	22.112
280.23	22.754
280.60	20.696
280.97	20.887
281.34	19.646
281.71	20.909
282.08	20.729
282.45	18.545
282.82	20.782
283.19	18.895
283.56	18.596
283.92	21.489
284.29	19.753
284.66	19.238
285.03	19.530
285.40	19.190
285.77	19.697
286.14	19.516
286.51	19.500
286.87	19.145
287.24	18.730
287.61	18.780
287.98	21.266
288.35	16.640
288.72	19.003
289.08	19.249
289.45	18.122
289.82	17.886
290.19	16.484
290.56	17.611
290.93	18.278
291.29	17.025
291.66	18.584
292.03	20.640
292.40	18.796
292.77	17.160
293.13	17.612
293.50	16.618
293.87	17.185
294.24	17.481
294.60	16.303
294.97	15.262
295.34	17.489
295.71	15.909
296.08	15.527
296.44	16.231
296.81	15.984
297.18	17.615
297.55	13.720
297.91	15.303
298.28	16.466
298.65	16.710
299.02	15.679
299.38	16.335
299.75	13.747
300.12	15.070
300.48	14.625
300.85	15.043
301.22	14.395
301.59	12.753
301.95	14.861
302.32	15.918
302.69	15.054
303.05	14.909
303.42	14.444
303.79	13.703
304.15	12.704
304.52	12.978
304.89	13.705
305.25	12.181
305.62	14.609
305.99	14.640
306.35	13.758
306.72	14.686
307.09	13.319
307.45	15.315
307.82	13.504
308.19	13.466
308.55	12.729
308.92	13.319
309.29	12.355
309.65	13.150
310.02	13.319
310.38	13.333
310.75	12.883
311.12	14.125
311.48	13.271
311.85	14.780
312.22	14.048
312.58	13.410
312.95	12.883
313.31	11.553
313.68	13.721
314.05	14.497
314.41	13.367
314.78	13.595
315.14	13.505
315.51	14.109
315.87	13.366
316.24	12.910
316.61	13.158
316.97	13.014
317.34	12.524
317.70	12.141
318.07	12.223
318.43	12.916
318.80	13.777
319.16	14.407
319.53	12.289
319.89	12.095
320.26	12.500
320.62	14.087
320.99	14.242
321.35	13.131
321.72	13.450
322.08	13.820
322.45	15.224
322.81	13.178
323.18	14.644
323.54	14.193
323.91	14.245
324.27	14.340
324.64	13.327
325.00	13.706
325.37	15.287
325.73	15.709
326.10	14.298
326.46	14.695
326.83	16.480
327.19	15.542
327.56	14.895
327.92	17.585
328.29	18.190
328.65	18.877
329.01	19.224
329.38	18.686
329.74	19.206
330.11	19.510
330.47	21.120
330.84	21.875
331.20	23.406
331.56	23.028
331.93	24.074
332.29	23.336
332.66	24.513
333.02	24.863
333.38	25.474
333.75	26.292
334.11	26.335
334.48	26.264
334.84	27.665
335.20	28.182
335.57	29.556
335.93	27.500
336.29	28.663
336.66	29.486
337.02	29.593
337.38	31.759
337.75	30.481
338.11	31.782
338.47	32.505
338.84	32.264
339.20	32.477
339.56	33.850
339.93	32.273
340.29	33.696
340.65	33.601
341.02	33.508
341.38	33.363
341.74	33.684
342.11	34.934
342.47	35.507
342.83	35.616
343.20	34.892
343.56	35.636
343.92	36.053
344.28	38.010
344.65	36.457
345.01	35.017
345.37	35.420
345.73	37.225
346.10	35.806
346.46	36.780
346.82	36.820
347.19	35.923
347.55	36.207
347.91	37.379
348.27	37.798
348.63	38.127
349.00	36.327
349.36	37.603
349.72	36.889
350.08	36.629
350.45	37.429
350.81	37.855
351.17	38.412
351.53	38.739
351.89	38.036
352.26	38.990
352.62	38.172
352.98	38.655
353.34	39.441
353.70	36.907
354.07	38.952
354.43	37.619
354.79	37.651
355.15	38.148
355.51	40.368
355.87	39.510
356.24	40.635
356.60	38.011
356.96	39.823
357.32	39.248
357.68	40.315
358.04	39.588
358.40	39.351
358.77	40.376
359.13	39.305
359.49	40.157
359.85	38.810
360.21	38.995
360.57	41.089
360.93	40.692
361.29	40.741
361.66	40.402
362.02	41.418
362.38	41.977
362.74	40.253
363.10	40.192
363.46	40.499
363.82	41.345
364.18	41.189
364.54	43.091
364.90	41.785
365.26	42.132
365.62	41.855
365.98	41.198
366.35	40.688
366.71	42.950
367.07	42.316
367.43	43.033
367.79	41.827
368.15	43.391
368.51	41.206
368.87	42.327
369.23	41.990
369.59	42.867
369.95	43.529
370.31	43.234
370.67	43.261
371.03	44.794
371.39	44.023
371.75	42.868
372.11	43.670
372.47	43.915
372.83	44.452
373.19	42.847
373.55	44.642
373.91	44.845
374.27	42.612
374.63	43.782
374.99	44.986
375.35	44.033
375.71	43.660
376.07	44.033
376.42	44.911
376.78	45.858
377.14	44.301
377.50	44.834
377.86	43.617
378.22	44.437
378.58	44.048
378.94	44.186
379.30	45.229
379.66	46.764
380.02	45.332
380.38	44.202
380.74	45.918
381.09	46.149
381.45	45.790
381.81	46.376
382.17	45.350
382.53	44.969
382.89	45.802
383.25	45.091
383.61	46.221
383.97	45.904
384.32	45.976
384.68	44.734
385.04	46.527
385.40	44.396
385.76	46.253
386.12	46.114
386.48	46.444
386.83	47.274
387.19	46.753
387.55	47.001
387.91	44.740
388.27	46.168
388.62	46.773
388.98	45.762
389.34	45.682
389.70	45.677
390.06	46.261
390.42	45.914
390.77	46.247
391.13	47.224
391.49	46.003
391.85	45.894
392.20	43.912
392.56	45.391
392.92	45.085
393.28	44.615
393.64	44.904
393.99	44.105
394.35	45.285
394.71	44.793
395.07	45.234
395.42	45.674
395.78	45.356
396.14	44.941
396.50	45.238
396.85	45.582
397.21	45.314
397.57	44.637
397.92	45.373
398.28	42.825
398.64	43.847
399.00	44.544
399.35	44.388
399.71	44.329
400.07	44.352
400.42	44.479
400.78	44.692
401.14	44.146
401.49	44.060
401.85	43.436
402.21	41.856
402.57	44.109
402.92	44.073
403.28	43.348
403.63	43.564
403.99	44.013
404.35	42.303
404.70	43.885
405.06	42.632
405.42	44.105
405.77	42.457
406.13	42.720
406.49	43.170
406.84	42.115
407.20	42.730
407.55	42.119
407.91	43.667
408.27	43.586
408.62	42.866
408.98	41.973
409.34	43.173
409.69	42.839
410.05	42.255
410.40	42.018
410.76	41.816
411.11	42.280
411.47	41.406
411.83	42.150
412.18	42.115
412.54	43.337
412.89	42.590
413.25	42.562
413.60	42.866
413.96	40.680
414.31	42.284
414.67	43.029
415.03	42.318
415.38	43.363
415.74	42.572
416.09	43.697
416.45	42.972
416.80	43.688
417.16	44.973
417.51	42.402
417.87	43.031
418.22	43.659
418.58	44.416
418.93	43.120
419.29	44.621
419.64	44.458
420.00	43.659
420.35	42.841
420.71	45.427
421.06	43.675
421.42	44.327
421.77	45.460
422.12	43.459
422.48	44.037
422.83	43.972
423.19	45.193
423.54	45.792
423.90	45.681
424.25	45.114
424.61	45.119
424.96	46.822
425.31	46.124
425.67	45.787
426.02	46.857
426.38	48.230
426.73	47.689
427.09	48.450
427.44	47.556
427.79	47.556
428.15	48.274
428.50	48.332
428.85	48.331
429.21	48.647
429.56	48.263
429.92	48.314
430.27	48.262
430.62	49.002
430.98	49.611
431.33	48.608
431.68	50.209
432.04	48.882
432.39	51.057
432.74	50.748
433.10	50.368
433.45	52.303
433.80	51.441
434.16	51.870
434.51	51.158
434.86	53.022
435.22	52.696
435.57	53.495
435.92	52.955
436.28	53.559
436.63	52.483
436.98	52.891
437.34	55.098
437.69	54.842
438.04	54.750
438.39	55.701
438.75	55.259
439.10	54.022
439.45	54.073
439.81	56.495
440.16	55.110
440.51	55.302
440.86	55.993
441.22	56.118
441.57	55.361
441.92	55.681
442.27	56.512
442.63	55.450
442.98	57.859
443.33	56.522
443.68	56.995
444.03	57.735
444.39	56.183
444.74	59.091
445.09	58.598
445.44	57.846
445.79	58.090
446.15	57.491
446.50	57.997
446.85	59.353
447.20	59.306
447.55	59.241
447.91	59.570
448.26	59.822
448.61	59.525
448.96	60.576
449.31	61.024
449.66	59.539
450.02	60.334
450.37	59.410
450.72	60.857
451.07	60.085
451.42	59.878
451.77	61.245
452.12	61.028
452.47	60.697
452.83	60.256
453.18	60.697
453.53	61.101
453.88	61.016
454.23	61.028
454.58	63.053
454.93	63.891
455.28	61.721
455.63	60.801
455.98	63.810
456.34	62.940
456.69	62.993
457.04	62.972
457.39	63.004
457.74	63.262
458.09	62.277
458.44	61.859
458.79	60.954
459.14	62.867
459.49	62.814
459.84	61.773
460.19	62.640
460.54	60.301
460.89	63.467
461.24	64.117
461.59	63.393
461.94	63.009
462.29	63.680
462.64	61.902
462.99	63.110
463.34	62.933
463.69	63.665
464.04	61.739
464.39	61.971
464.74	63.220
465.09	62.907
465.44	62.548
465.79	63.702
466.14	62.343
466.49	62.291
466.84	63.106
467.19	62.281
467.54	64.625
467.89	62.125
468.24	63.525
468.59	63.553
468.94	63.348
469.29	64.846
469.64	64.391
469.99	65.359
470.34	65.852
470.68	64.583
471.03	65.986
471.38	66.644
471.73	65.956
472.08	65.724
472.43	64.698
472.78	65.635
473.13	66.303
473.48	65.730
473.83	66.159
474.17	64.717
474.52	65.509
474.87	66.083
475.22	65.003
475.57	63.944
475.92	64.843
476.27	64.769
476.61	65.030
476.96	65.695
477.31	65.149
477.66	65.263
478.01	64.767
478.36	66.208
478.70	65.057
479.05	65.442
479.40	64.944
479.75	65.684
480.10	65.606
480.45	63.398
480.79	64.071
481.14	66.096
481.49	65.164
481.84	64.380
482.19	65.334
482.53	64.083
482.88	65.519
483.23	65.888
483.58	65.514
483.92	64.480
484.27	62.832
484.62	65.388
484.97	64.052
485.31	66.027
485.66	63.348
486.01	61.883
486.36	59.314
486.70	58.748
487.05	60.239
487.40	61.925
487.75	62.267
488.09	63.634
488.44	63.742
488.79	65.895
489.13	66.387
489.48	65.783
489.83	66.379
490.17	66.594
490.52	64.880
490.87	66.260
491.22	65.302
491.56	64.374
491.91	64.821
492.26	64.309
492.60	63.733
492.95	65.248
493.30	64.252
493.64	65.656
493.99	64.995
494.34	66.050
494.68	64.973
495.03	65.555
495.37	64.495
495.72	66.374
496.07	66.961
496.41	64.336
496.76	65.391
497.11	65.691
497.45	65.487
497.80	66.123
498.14	65.700
498.49	66.098
498.84	65.292
499.18	65.857
499.53	66.619
499.87	66.170
500.22	64.955
500.56	67.184
500.91	66.394
501.26	65.055
501.60	66.825
501.95	65.261
502.29	65.417
502.64	66.061
502.98	66.293
503.33	65.631
503.67	65.429
504.02	66.043
504.36	65.746
504.71	67.220
505.06	65.639
505.40	67.769
505.75	66.345
506.09	64.917
506.44	67.390
506.78	67.219
507.13	66.885
507.47	67.071
507.82	66.717
508.16	67.832
508.51	68.493
508.85	66.683
509.19	68.112
509.54	67.041
509.88	67.543
510.23	67.404
510.57	68.937
510.92	68.928
511.26	67.163
511.61	68.309
511.95	67.380
512.30	69.247
512.64	68.941
512.98	69.239
513.33	68.790
513.67	67.289
514.02	68.398
514.36	68.378
514.70	69.729
515.05	68.991
515.39	67.695
515.74	68.806
516.08	69.536
516.42	68.424
516.77	69.677
517.11	69.811
517.46	69.752
517.80	70.209
518.14	68.384
518.49	70.303
518.83	70.398
519.17	69.746
519.52	70.232
519.86	69.082
520.20	69.711
520.55	71.873
520.89	70.925
521.23	69.964
521.58	71.008
521.92	71.525
522.26	69.372
522.61	71.651
522.95	69.920
523.29	71.089
523.64	72.134
523.98	71.165
524.32	70.386
524.66	69.272
525.01	71.262
525.35	70.694
525.69	69.150
526.04	70.467
526.38	70.897
526.72	69.755
527.06	71.249
527.41	69.059
527.75	71.318
528.09	71.227
528.43	70.746
528.78	69.269
529.12	70.424
529.46	70.300
529.80	71.101
530.15	70.156
530.49	68.246
530.83	69.114
531.17	71.867
531.51	72.244
531.86	69.677
532.20	69.883
532.54	69.699
532.88	70.026
533.22	69.394
533.57	68.951
533.91	69.055
534.25	68.955
534.59	68.883
534.93	69.126
535.27	68.437
535.62	68.620
535.96	70.245
536.30	70.248
536.64	68.577
536.98	70.405
537.32	69.256
537.66	71.200
538.01	70.375
538.35	69.037
538.69	69.879
539.03	68.616
539.37	68.435
539.71	68.179
540.05	68.693
540.39	70.100
540.73	68.693
541.07	69.695
541.42	70.907
541.76	69.742
542.10	67.982
542.44	68.874
542.78	70.092
543.12	67.626
543.46	68.328
543.80	69.226
544.14	67.266
544.48	68.381
544.82	68.056
545.16	69.811
545.50	68.252
545.84	69.892
546.18	69.226
546.52	69.718
546.86	70.309
547.20	69.319
547.54	69.339
547.88	69.515
548.22	68.244
548.56	70.189
548.90	67.926
549.24	69.293
549.58	69.441
549.92	69.162
550.26	70.241
550.60	70.055
550.94	71.479
551.28	70.739
551.62	71.531
551.96	69.895
552.30	69.898
552.64	69.980
552.98	70.780
553.32	69.993
553.66	70.007
554.00	71.860
554.34	69.565
554.68	72.675
555.02	71.298
555.36	69.729
555.69	69.012
556.03	70.525
556.37	70.600
556.71	69.986
557.05	70.868
557.39	71.728
557.73	71.630
558.07	72.589
558.41	70.984
558.75	72.520
559.08	70.694
559.42	74.225
559.76	71.250
560.10	70.236
560.44	69.113
560.78	70.858
561.12	69.855
561.45	70.078
561.79	68.359
562.13	70.020
562.47	70.697
562.81	72.106
563.15	69.298
563.48	69.629
563.82	70.841
564.16	69.130
564.50	68.294
564.84	67.636
565.17	69.820
565.51	69.265
565.85	69.734
566.19	68.629
566.52	69.348
566.86	66.486
567.20	68.278
567.54	67.751
567.88	66.540
568.21	66.455
568.55	66.987
568.89	65.175
569.23	65.508
569.56	63.036
569.90	62.906
570.24	62.540
570.57	62.700
570.91	62.411
571.25	62.353
571.59	61.208
571.92	61.838
572.26	62.132
572.60	62.523
572.93	62.039
573.27	61.757
573.61	61.586
573.95	61.240
574.28	60.151
574.62	61.516
574.96	60.263
575.29	59.942
575.63	60.976
575.97	61.000
576.30	61.179
576.64	60.829
576.98	60.282
577.31	60.189
577.65	59.848
577.98	60.213
578.32	59.174
578.66	60.084
578.99	60.466
579.33	60.228
579.67	59.694
580.00	60.585
580.34	61.248
580.67	61.215
581.01	60.872
581.35	60.544
581.68	60.554
582.02	59.192
582.35	59.855
582.69	60.034
583.02	60.619
583.36	61.379
583.70	61.713
584.03	62.670
584.37	62.266
584.70	62.278
585.04	62.427
585.37	62.209
585.71	62.336
586.04	61.947
586.38	62.748
586.72	63.408
587.05	62.510
587.39	61.741
587.72	62.510
588.06	63.180
588.39	63.731
588.73	63.860
589.06	64.070
589.40	65.825
589.73	65.012
590.07	65.089
590.40	65.108
590.73	65.418
591.07	66.911
591.40	65.542
591.74	67.186
592.07	65.925
592.41	65.606
592.74	63.970
593.08	64.390
593.41	63.999
593.75	62.399
594.08	63.426
594.41	64.228
594.75	65.028
595.08	65.068
595.42	64.553
595.75	64.281
596.09	66.279
596.42	66.012
596.75	66.230
597.09	67.316
597.42	66.315
597.75	67.227
598.09	65.913
598.42	66.838
598.76	66.194
599.09	64.120
599.42	63.901
599.76	65.190
600.09	64.736
600.42	64.755
600.76	63.393
601.09	64.954
601.42	66.400
601.76	65.161
602.09	65.692
602.42	65.963
602.76	65.861
603.09	66.955
603.42	66.302
603.76	65.625
604.09	64.986
604.42	66.368
604.76	66.512
605.09	67.235
605.42	66.011
605.75	66.142
606.09	66.490
606.42	66.449
606.75	65.409
607.09	65.802
607.42	65.982
607.75	65.570
608.08	66.218
608.42	67.190
608.75	66.321
609.08	66.096
609.41	65.873
609.75	67.080
610.08	66.211
610.41	66.667
610.74	67.455
611.07	67.540
611.41	67.763
611.74	67.773
612.07	67.857
612.40	68.678
612.73	68.211
613.07	68.534
613.40	67.720
613.73	67.069
614.06	68.602
614.39	66.754
614.72	66.737
615.06	68.067
615.39	68.259
615.72	67.025
616.05	66.879
616.38	68.872
616.71	69.299
617.05	69.847
617.38	68.972
617.71	70.931
618.04	69.471
618.37	69.190
618.70	68.824
619.03	71.184
619.36	70.808
619.69	71.972
620.03	71.291
620.36	68.984
620.69	71.438
621.02	71.829
621.35	70.713
621.68	71.651
622.01	70.743
622.34	71.558
622.67	72.624
623.00	70.946
623.33	70.836
623.66	70.979
623.99	71.649
624.32	71.683
624.65	71.045
624.99	69.688
625.32	70.094
625.65	71.225
625.98	73.098
626.31	71.384
626.64	72.980
626.97	73.400
627.30	72.652
627.63	73.585
627.96	73.844
628.29	71.741
628.62	73.651
628.95	74.340
629.28	74.361
629.61	73.969
629.94	77.143
630.26	74.929
630.59	75.214
