SpectraSuite Data File
++++++++++++++++++++++++++++++++++++
Date: Wed May 13 19:15:15 PDT 2015
User: schluterlab
Dark Spectrum Present: Yes
Reference Spectrum Present: Yes
Number of Sampled Component Spectra: 1
Spectrometers: USB2E3373
Integration Time (usec): 3000 (USB2E3373)
Spectra Averaged: 3 (USB2E3373)
Boxcar Smoothing: 0 (USB2E3373)
Correct for Electrical Dark: No (USB2E3373)
Strobe/Lamp Enabled: No (USB2E3373)
Correct for Detector Non-linearity: No (USB2E3373)
Correct for Stray Light: No (USB2E3373)
Number of Pixels in Processed Spectrum: 2048
>>>>>Begin Processed Spectral Data<<<<<
178.53	0.000
178.91	-1500.000
179.29	-1475.000
179.67	-227.778
180.04	-1400.000
180.42	3250.000
180.80	1020.000
181.18	-1125.000
181.56	942.857
181.94	0.000
182.31	-785.714
182.69	1933.333
183.07	-600.000
183.45	-600.000
183.83	572.727
184.20	-440.000
184.58	2750.000
184.96	6100.000
185.34	-900.000
185.72	-675.000
186.09	-2500.000
186.47	2800.000
186.85	2650.000
187.23	4000.000
187.61	-1666.667
187.98	1400.000
188.36	554.545
188.74	563.636
189.12	-1220.000
189.49	620.000
189.87	-4400.000
190.25	-1275.000
190.63	428.571
191.00	538.462
191.38	916.667
191.76	-1300.000
192.14	1550.000
192.51	775.000
192.89	1066.667
193.27	687.500
193.65	-1350.000
194.02	640.000
194.40	1140.000
194.78	600.000
195.15	575.000
195.53	690.000
195.91	-2450.000
196.29	437.500
196.66	331.579
197.04	-380.000
197.42	0.000
197.79	630.000
198.17	-6300.000
198.55	714.286
198.92	762.500
199.30	980.000
199.68	0.000
200.05	372.222
200.43	842.857
200.81	5300.000
201.18	1933.333
201.56	-1366.667
201.94	688.889
202.31	700.000
202.69	416.667
203.07	560.000
203.44	0.000
203.82	1275.000
204.19	928.571
204.57	521.429
204.95	750.000
205.32	1366.667
205.70	590.909
206.08	492.857
206.45	2950.000
206.83	393.750
207.20	1000.000
207.58	1040.000
207.96	333.333
208.33	800.000
208.71	-1033.333
209.08	800.000
209.46	666.667
209.84	536.364
210.21	-1766.667
210.59	1675.000
210.96	-650.000
211.34	3150.000
211.71	670.000
212.09	900.000
212.46	0.000
212.84	1766.667
213.22	1475.000
213.59	-5800.000
213.97	1133.333
214.34	828.571
214.72	709.091
215.09	1140.000
215.47	-2700.000
215.84	-2750.000
216.22	1733.333
216.59	428.571
216.97	1550.000
217.34	554.545
217.72	-700.000
218.09	0.000
218.47	-4900.000
218.84	744.444
219.22	857.143
219.59	2100.000
219.97	-700.000
220.34	1120.000
220.72	-1900.000
221.09	514.286
221.47	1500.000
221.84	-1050.000
222.22	0.000
222.59	1400.000
222.97	-2800.000
223.34	1240.000
223.72	492.308
224.09	1160.000
224.46	2550.000
224.84	-5100.000
225.21	-1240.000
225.59	-5000.000
225.96	620.000
226.34	335.000
226.71	3050.000
227.08	650.000
227.46	570.000
227.83	-1225.000
228.21	-2650.000
228.58	577.778
228.95	-2950.000
229.33	-3050.000
229.70	2166.667
230.08	842.857
230.45	-880.000
230.82	566.667
231.20	950.000
231.57	771.429
231.95	500.000
232.32	254.545
232.69	445.455
233.07	857.143
233.44	384.615
233.81	-2300.000
234.19	352.632
234.56	550.000
234.93	441.667
235.31	509.091
235.68	392.308
236.05	421.429
236.43	209.091
236.80	331.579
237.17	7100.000
237.55	342.857
237.92	282.143
238.29	361.905
238.67	248.387
239.04	234.483
239.41	191.667
239.79	191.304
240.16	195.238
240.53	181.818
240.91	162.745
241.28	168.000
241.65	176.000
242.02	143.478
242.40	143.548
242.77	153.333
243.14	108.602
243.51	130.337
243.89	112.941
244.26	108.889
244.63	113.978
245.00	108.511
245.38	109.901
245.75	104.673
246.12	98.165
246.49	98.540
246.87	111.200
247.24	102.308
247.61	100.714
247.98	85.621
248.36	87.838
248.73	85.987
249.10	101.274
249.47	80.226
249.84	83.422
250.22	80.749
250.59	79.882
250.96	82.828
251.33	85.782
251.70	80.198
252.08	79.524
252.45	77.130
252.82	78.261
253.19	82.979
253.56	76.471
253.94	77.178
254.31	76.172
254.68	74.615
255.05	69.742
255.42	72.764
255.79	75.735
256.16	76.534
256.54	68.551
256.91	75.089
257.28	70.504
257.65	72.937
258.02	71.739
258.39	69.085
258.76	72.575
259.14	69.048
259.51	68.693
259.88	65.839
260.25	67.976
260.62	63.584
260.99	69.565
261.36	70.571
261.73	67.622
262.10	69.767
262.47	67.324
262.85	67.409
263.22	64.103
263.59	68.376
263.96	65.659
264.33	65.535
264.70	65.526
265.07	66.496
265.44	65.152
265.81	60.827
266.18	66.332
266.55	66.585
266.92	67.076
267.29	64.352
267.66	60.780
268.03	64.545
268.40	64.252
268.77	63.962
269.14	61.036
269.51	62.302
269.88	64.569
270.25	61.174
270.62	62.022
270.99	61.505
271.36	61.159
271.73	60.981
272.10	63.913
272.47	62.581
272.84	62.987
273.21	59.539
273.58	60.699
273.95	60.587
274.32	59.298
274.69	61.242
275.06	59.449
275.43	62.979
275.80	59.118
276.17	60.081
276.54	60.499
276.91	59.486
277.28	58.594
277.65	59.574
278.02	62.319
278.39	59.180
278.76	56.727
279.13	61.321
279.50	57.914
279.87	60.159
280.23	60.878
280.60	59.574
280.97	59.889
281.34	59.115
281.71	58.364
282.08	59.693
282.45	54.727
282.82	54.352
283.19	56.506
283.56	57.368
283.92	59.391
284.29	58.025
284.66	57.895
285.03	56.962
285.40	55.458
285.77	55.892
286.14	55.959
286.51	57.000
286.87	55.556
287.24	56.026
287.61	51.685
287.98	54.383
288.35	53.566
288.72	54.206
289.08	51.174
289.45	52.554
289.82	50.894
290.19	52.747
290.56	51.608
290.93	50.302
291.29	51.534
291.66	50.147
292.03	51.017
292.40	51.689
292.77	47.929
293.13	49.552
293.50	48.688
293.87	47.704
294.24	47.852
294.60	47.889
294.97	46.512
295.34	47.673
295.71	48.580
296.08	45.157
296.44	46.630
296.81	44.914
297.18	46.477
297.55	43.272
297.91	44.591
298.28	46.051
298.65	46.214
299.02	46.377
299.38	44.887
299.75	41.375
300.12	43.167
300.48	42.625
300.85	41.184
301.22	42.166
301.59	42.172
301.95	43.829
302.32	44.031
302.69	41.099
303.05	42.303
303.42	41.728
303.79	41.563
304.15	40.559
304.52	41.020
304.89	40.302
305.25	39.327
305.62	40.770
305.99	40.850
306.35	41.163
306.72	41.704
307.09	39.512
307.45	40.878
307.82	40.290
308.19	38.521
308.55	39.482
308.92	40.279
309.29	39.493
309.65	39.449
310.02	37.421
310.38	38.387
310.75	38.015
311.12	37.973
311.48	39.603
311.85	39.727
312.22	39.126
312.58	38.254
312.95	40.760
313.31	36.214
313.68	39.189
314.05	40.237
314.41	39.296
314.78	39.174
315.14	38.332
315.51	38.105
315.87	38.515
316.24	39.027
316.61	37.135
316.97	37.965
317.34	37.378
317.70	37.189
318.07	37.825
318.43	38.258
318.80	37.488
319.16	37.759
319.53	37.148
319.89	37.524
320.26	36.600
320.62	36.905
320.99	37.778
321.35	36.364
321.72	37.372
322.08	38.500
322.45	39.104
322.81	38.566
323.18	38.439
323.54	38.497
323.91	37.830
324.27	37.667
324.64	35.974
325.00	36.880
325.37	36.579
325.73	37.343
326.10	37.070
326.46	36.470
326.83	36.842
327.19	36.721
327.56	35.192
327.92	37.445
328.29	38.243
328.65	36.372
329.01	37.726
329.38	36.355
329.74	36.380
330.11	36.569
330.47	37.006
330.84	35.754
331.20	36.157
331.56	35.596
331.93	36.667
332.29	35.936
332.66	37.345
333.02	35.375
333.38	36.856
333.75	36.809
334.11	36.121
334.48	35.404
334.84	36.213
335.20	36.364
335.57	35.539
335.93	34.464
336.29	35.348
336.66	35.077
337.02	34.480
337.38	35.833
337.75	35.383
338.11	35.363
338.47	36.280
338.84	35.564
339.20	34.128
339.56	36.314
339.93	34.818
340.29	35.417
340.65	35.294
341.02	34.119
341.38	35.320
341.74	33.772
342.11	34.236
342.47	34.802
342.83	33.733
343.20	35.238
343.56	34.794
343.92	34.649
344.28	34.439
344.65	34.050
345.01	33.586
345.37	34.305
345.73	34.518
346.10	34.356
346.46	33.390
346.82	34.926
347.19	32.999
347.55	34.154
347.91	33.091
348.27	33.854
348.63	33.779
349.00	34.304
349.36	33.251
349.72	32.959
350.08	32.415
350.45	32.465
350.81	32.819
351.17	33.144
351.53	32.269
351.89	32.673
352.26	33.386
352.62	33.761
352.98	32.415
353.34	34.018
353.70	31.833
354.07	32.581
354.43	32.143
354.79	32.341
355.15	31.844
355.51	33.333
355.87	33.714
356.24	32.899
356.60	31.034
356.96	33.467
357.32	32.379
357.68	32.992
358.04	32.542
358.40	32.937
358.77	31.221
359.13	32.044
359.49	32.235
359.85	32.143
360.21	32.217
360.57	32.996
360.93	31.077
361.29	30.385
361.66	31.811
362.02	32.015
362.38	31.255
362.74	31.027
363.10	31.458
363.46	31.401
363.82	30.537
364.18	30.837
364.54	32.318
364.90	31.445
365.26	31.471
365.62	31.337
365.98	30.898
366.35	30.086
366.71	30.658
367.07	31.100
367.43	30.914
367.79	31.049
368.15	31.466
368.51	30.233
368.87	30.764
369.23	30.139
369.59	30.702
369.95	29.338
370.31	30.556
370.67	30.217
371.03	31.161
371.39	31.195
371.75	31.103
372.11	30.299
372.47	30.425
372.83	31.772
373.19	30.997
373.55	31.190
373.91	30.928
374.27	29.485
374.63	29.382
374.99	30.508
375.35	29.798
375.71	29.815
376.07	29.424
376.42	31.087
376.78	30.285
377.14	29.647
377.50	29.868
377.86	29.322
378.22	29.456
378.58	29.574
378.94	29.290
379.30	29.707
379.66	30.013
380.02	29.730
380.38	28.112
380.74	29.232
381.09	29.707
381.45	29.379
381.81	30.160
382.17	28.854
382.53	28.239
382.89	29.691
383.25	28.956
383.61	30.235
383.97	30.269
384.32	29.070
384.68	28.563
385.04	29.625
385.40	28.545
385.76	27.887
386.12	28.562
386.48	29.956
386.83	29.506
387.19	30.118
387.55	29.437
387.91	27.570
388.27	28.694
388.62	28.888
388.98	28.071
389.34	29.537
389.70	28.817
390.06	29.531
390.42	29.248
390.77	29.389
391.13	28.781
391.49	28.680
391.85	28.708
392.20	27.950
392.56	28.157
392.92	29.194
393.28	27.160
393.64	29.257
393.99	29.505
394.35	28.350
394.71	28.984
395.07	26.854
395.42	28.307
395.78	27.735
396.14	28.430
396.50	29.574
396.85	29.625
397.21	28.052
397.57	29.696
397.92	29.507
398.28	26.906
398.64	28.435
399.00	28.316
399.35	27.919
399.71	27.778
400.07	28.622
400.42	27.791
400.78	28.709
401.14	28.598
401.49	27.881
401.85	28.312
402.21	27.006
402.57	28.501
402.92	28.941
403.28	28.295
403.63	28.465
403.99	28.344
404.35	28.121
404.70	27.578
405.06	27.432
405.42	28.072
405.77	27.429
406.13	27.596
406.49	28.918
406.84	27.998
407.20	28.605
407.55	28.526
407.91	28.800
408.27	28.653
408.62	27.453
408.98	27.267
409.34	28.106
409.69	28.581
410.05	27.447
410.40	26.789
410.76	27.718
411.11	27.322
411.47	27.540
411.83	27.550
412.18	28.077
412.54	27.958
412.89	26.928
413.25	27.332
413.60	28.166
413.96	27.808
414.31	27.461
414.67	27.757
415.03	28.079
415.38	28.544
415.74	28.810
416.09	28.021
416.45	28.046
416.80	28.685
417.16	28.753
417.51	27.870
417.87	26.525
418.22	28.265
418.58	28.212
418.93	28.133
419.29	27.817
419.64	27.708
420.00	27.622
420.35	28.000
420.71	27.675
421.06	28.222
421.42	27.953
421.77	28.251
422.12	27.456
422.48	27.091
422.83	28.130
423.19	27.348
423.54	27.742
423.90	28.000
424.25	27.973
424.61	27.738
424.96	27.580
425.31	27.575
425.67	26.685
426.02	27.829
426.38	28.755
426.73	26.799
427.09	27.477
427.44	27.372
427.79	27.257
428.15	27.976
428.50	27.677
428.85	28.188
429.21	27.609
429.56	27.579
429.92	27.328
430.27	26.365
430.62	27.035
430.98	26.829
431.33	26.959
431.68	27.749
432.04	27.263
432.39	27.870
432.74	27.887
433.10	28.410
433.45	26.939
433.80	27.605
434.16	26.175
434.51	27.158
434.86	27.423
435.22	27.293
435.57	27.477
435.92	27.267
436.28	27.699
436.63	27.925
436.98	27.590
437.34	27.728
437.69	28.821
438.04	26.981
438.39	27.522
438.75	27.310
439.10	28.045
439.45	27.273
439.81	26.828
440.16	27.724
440.51	28.471
440.86	27.910
441.22	27.308
441.57	27.601
441.92	26.612
442.27	26.642
442.63	26.066
442.98	27.718
443.33	27.174
443.68	26.536
444.03	27.428
444.39	26.339
444.74	27.219
445.09	27.278
445.44	28.321
445.79	27.462
446.15	27.369
446.50	26.710
446.85	27.595
447.20	27.231
447.55	27.917
447.91	28.296
448.26	28.047
448.61	26.625
448.96	28.184
449.31	27.278
449.66	27.518
450.02	27.075
450.37	26.927
450.72	27.919
451.07	27.361
451.42	27.234
451.77	28.186
452.12	27.194
452.47	28.172
452.83	26.865
453.18	27.200
453.53	27.767
453.88	26.580
454.23	27.436
454.58	28.770
454.93	27.781
455.28	27.120
455.63	26.578
455.98	28.690
456.34	27.701
456.69	27.176
457.04	27.926
457.39	27.119
457.74	27.220
458.09	27.890
458.44	27.594
458.79	26.464
459.14	27.878
459.49	27.729
459.84	27.091
460.19	27.519
460.54	27.951
460.89	26.659
461.24	27.808
461.59	28.762
461.94	27.620
462.29	28.546
462.64	28.526
462.99	27.261
463.34	28.000
463.69	27.017
464.04	27.536
464.39	27.246
464.74	27.986
465.09	27.624
465.44	26.870
465.79	26.846
466.14	26.218
466.49	27.419
466.84	27.204
467.19	27.218
467.54	27.312
467.89	27.611
468.24	28.272
468.59	28.388
468.94	26.940
469.29	28.149
469.64	28.648
469.99	28.755
470.34	28.137
470.68	28.664
471.03	26.259
471.38	28.145
471.73	27.448
472.08	27.697
472.43	27.136
472.78	27.781
473.13	27.343
473.48	26.404
473.83	27.439
474.17	26.385
474.52	27.605
474.87	27.496
475.22	26.814
475.57	27.082
475.92	26.447
476.27	27.001
476.61	27.579
476.96	27.543
477.31	26.635
477.66	27.681
478.01	26.503
478.36	27.604
478.70	26.895
479.05	27.157
479.40	26.459
479.75	26.741
480.10	26.938
480.45	26.178
480.79	25.609
481.14	27.006
481.49	26.341
481.84	26.155
482.19	26.170
482.53	26.927
482.88	26.059
483.23	26.776
483.58	26.979
483.92	26.382
484.27	25.490
484.62	26.681
484.97	25.936
485.31	26.301
485.66	24.730
486.01	23.747
486.36	22.849
486.70	23.792
487.05	24.741
487.40	25.051
487.75	25.849
488.09	26.934
488.44	27.085
488.79	28.029
489.13	27.082
489.48	27.080
489.83	26.284
490.17	26.655
490.52	25.819
490.87	25.961
491.22	25.966
491.56	25.239
491.91	25.826
492.26	25.861
492.60	24.885
492.95	25.304
493.30	26.168
493.64	26.598
493.99	26.834
494.34	25.902
494.68	26.832
495.03	26.269
495.37	25.872
495.72	26.998
496.07	26.775
496.41	25.221
496.76	25.989
497.11	25.844
497.45	26.735
497.80	26.488
498.14	25.894
498.49	26.878
498.84	26.414
499.18	25.857
499.53	25.926
499.87	26.980
500.22	25.530
500.56	26.845
500.91	25.337
501.26	25.557
501.60	26.388
501.95	25.298
502.29	26.101
502.64	26.816
502.98	26.134
503.33	25.548
503.67	25.661
504.02	26.660
504.36	25.971
504.71	27.113
505.06	26.458
505.40	26.155
505.75	26.085
506.09	25.850
506.44	26.838
506.78	26.693
507.13	26.199
507.47	26.717
507.82	25.887
508.16	25.937
508.51	26.636
508.85	25.323
509.19	25.867
509.54	26.122
509.88	26.018
510.23	26.015
510.57	26.367
510.92	26.256
511.26	26.259
511.61	26.245
511.95	26.044
512.30	26.882
512.64	26.384
512.98	26.206
513.33	27.034
513.67	25.987
514.02	26.028
514.36	27.198
514.70	27.172
515.05	26.882
515.39	26.865
515.74	26.802
516.08	27.278
516.42	26.082
516.77	27.035
517.11	25.305
517.46	27.088
517.80	27.178
518.14	25.941
518.49	26.196
518.83	26.761
519.17	26.963
519.52	26.486
519.86	26.355
520.20	26.821
520.55	27.229
520.89	27.737
521.23	27.141
521.58	26.951
521.92	26.822
522.26	26.419
522.61	27.788
522.95	26.703
523.29	26.841
523.64	26.890
523.98	26.987
524.32	25.573
524.66	27.300
525.01	26.532
525.35	26.456
525.69	26.478
526.04	26.417
526.38	27.395
526.72	25.767
527.06	27.119
527.41	25.743
527.75	27.781
528.09	27.425
528.43	26.322
528.78	27.289
529.12	26.848
529.46	26.761
529.80	26.423
530.15	27.103
530.49	25.846
530.83	27.722
531.17	28.068
531.51	27.886
531.86	26.774
532.20	27.314
532.54	27.354
532.88	27.343
533.22	25.734
533.57	27.099
533.91	25.045
534.25	26.610
534.59	27.212
534.93	26.889
535.27	26.916
535.62	26.313
535.96	27.935
536.30	26.828
536.64	27.688
536.98	27.140
537.32	27.123
537.66	27.000
538.01	26.531
538.35	27.602
538.69	27.760
539.03	26.641
539.37	26.006
539.71	25.081
540.05	26.797
540.39	27.243
540.73	26.908
541.07	27.515
541.42	27.789
541.76	27.548
542.10	26.973
542.44	27.483
542.78	28.327
543.12	26.104
543.46	27.934
543.80	27.912
544.14	25.802
544.48	27.238
544.82	26.620
545.16	26.545
545.50	26.157
545.84	27.487
546.18	27.542
546.52	27.529
546.86	27.766
547.20	27.984
547.54	26.854
547.88	27.423
548.22	27.584
548.56	27.547
548.90	26.569
549.24	27.071
549.58	28.172
549.92	27.473
550.26	27.912
550.60	27.593
550.94	27.324
551.28	26.628
551.62	26.887
551.96	26.737
552.30	27.372
552.64	27.316
552.98	27.119
553.32	27.579
553.66	26.926
554.00	27.248
554.34	27.122
554.68	28.326
555.02	27.574
555.36	26.862
555.69	26.793
556.03	27.389
556.37	27.626
556.71	27.149
557.05	27.871
557.39	27.852
557.73	26.888
558.07	28.716
558.41	27.713
558.75	27.627
559.08	27.069
559.42	27.211
559.76	27.279
560.10	27.195
560.44	26.765
560.78	26.680
561.12	26.319
561.45	27.771
561.79	27.093
562.13	27.230
562.47	27.869
562.81	27.894
563.15	27.358
563.48	27.255
563.82	26.484
564.16	26.750
564.50	27.344
564.84	26.991
565.17	27.091
565.51	26.773
565.85	27.538
566.19	26.675
566.52	26.662
566.86	25.618
567.20	27.123
567.54	26.826
567.88	25.584
568.21	26.190
568.55	25.986
568.89	25.924
569.23	25.045
569.56	24.858
569.90	25.245
570.24	25.188
570.57	25.094
570.91	24.402
571.25	24.676
571.59	24.713
571.92	25.029
572.26	24.899
572.60	25.165
572.93	25.007
573.27	25.702
573.61	25.321
573.95	24.987
574.28	24.322
574.62	24.587
574.96	24.397
575.29	24.224
575.63	24.873
575.97	25.072
576.30	25.226
576.64	24.640
576.98	24.842
577.31	24.538
577.65	24.495
577.98	24.749
578.32	23.908
578.66	25.073
578.99	24.789
579.33	25.224
579.67	24.568
580.00	24.790
580.34	25.344
580.67	25.077
581.01	25.253
581.35	24.381
581.68	24.344
582.02	23.824
582.35	24.231
582.69	24.237
583.02	24.775
583.36	25.248
583.70	26.099
584.03	25.418
584.37	25.613
584.70	25.549
585.04	25.489
585.37	24.884
585.71	25.141
586.04	24.813
586.38	25.810
586.72	25.794
587.05	24.613
587.39	24.723
587.72	25.329
588.06	25.400
588.39	25.295
588.73	25.814
589.06	26.021
589.40	26.566
589.73	25.801
590.07	25.765
590.40	25.502
590.73	26.230
591.07	26.699
591.40	26.529
591.74	26.537
592.07	26.353
592.41	25.630
592.74	24.869
593.08	24.750
593.41	24.866
593.75	23.985
594.08	25.344
594.41	25.733
594.75	26.100
595.08	26.235
595.42	25.464
595.75	25.570
596.09	26.324
596.42	26.483
596.75	26.425
597.09	26.537
597.42	25.253
597.75	26.693
598.09	26.130
598.42	26.074
598.76	24.970
599.09	25.466
599.42	24.381
599.76	25.220
600.09	24.918
600.42	24.799
600.76	24.964
601.09	25.355
601.42	25.875
601.76	26.528
602.09	26.166
602.42	26.712
602.76	26.723
603.09	26.161
603.42	25.381
603.76	25.114
604.09	25.397
604.42	25.968
604.76	26.487
605.09	25.950
605.42	25.310
605.75	26.118
606.09	26.230
606.42	26.277
606.75	26.338
607.09	25.366
607.42	25.845
607.75	25.781
608.08	25.445
608.42	26.221
608.75	25.924
609.08	26.179
609.41	26.416
609.75	25.869
610.08	26.861
610.41	25.885
610.74	25.970
611.07	26.630
611.41	26.251
611.74	26.998
612.07	26.553
612.40	27.072
612.73	26.368
613.07	27.694
613.40	26.646
613.73	26.062
614.06	26.022
614.39	26.481
614.72	26.579
615.06	26.628
615.39	26.062
615.72	25.716
616.05	26.422
616.38	26.570
616.71	26.603
617.05	27.974
617.38	26.458
617.71	26.547
618.04	27.644
618.37	26.611
618.70	26.820
619.03	28.158
619.36	27.563
619.69	27.042
620.03	27.266
620.36	26.671
620.69	28.014
621.02	27.876
621.35	26.468
621.68	26.791
622.01	27.477
622.34	27.534
622.67	27.300
623.00	26.853
623.33	26.162
623.66	27.591
623.99	28.056
624.32	26.961
624.65	26.554
624.99	25.637
625.32	27.154
625.65	27.348
625.98	28.286
626.31	27.760
626.64	28.163
626.97	28.595
627.30	28.512
627.63	28.794
627.96	28.680
628.29	27.647
628.62	27.996
628.95	29.811
629.28	27.828
629.61	27.864
629.94	29.524
630.26	28.408
