SpectraSuite Data File
++++++++++++++++++++++++++++++++++++
Date: Wed May 13 19:31:55 PDT 2015
User: schluterlab
Dark Spectrum Present: Yes
Reference Spectrum Present: Yes
Number of Sampled Component Spectra: 1
Spectrometers: USB2E3373
Integration Time (usec): 3000 (USB2E3373)
Spectra Averaged: 3 (USB2E3373)
Boxcar Smoothing: 0 (USB2E3373)
Correct for Electrical Dark: No (USB2E3373)
Strobe/Lamp Enabled: No (USB2E3373)
Correct for Detector Non-linearity: No (USB2E3373)
Correct for Stray Light: No (USB2E3373)
Number of Pixels in Processed Spectrum: 2048
>>>>>Begin Processed Spectral Data<<<<<
178.53	0.000
178.91	-1350.000
179.29	-1575.000
179.67	-277.778
180.04	-1375.000
180.42	2750.000
180.80	1000.000
181.18	-1100.000
181.56	828.571
181.94	0.000
182.31	-728.571
182.69	1666.667
183.07	-600.000
183.45	-500.000
183.83	600.000
184.20	-490.000
184.58	2250.000
184.96	6800.000
185.34	-1040.000
185.72	-687.500
186.09	-2050.000
186.47	3050.000
186.85	2850.000
187.23	5100.000
187.61	-1800.000
187.98	1325.000
188.36	645.455
188.74	500.000
189.12	-960.000
189.49	570.000
189.87	-5800.000
190.25	-1325.000
190.63	428.571
191.00	484.615
191.38	816.667
191.76	-1175.000
192.14	1600.000
192.51	712.500
192.89	1216.667
193.27	725.000
193.65	-1250.000
194.02	580.000
194.40	740.000
194.78	630.000
195.15	533.333
195.53	580.000
195.91	-2300.000
196.29	312.500
196.66	400.000
197.04	-330.000
197.42	0.000
197.79	630.000
198.17	-5600.000
198.55	900.000
198.92	825.000
199.30	920.000
199.68	0.000
200.05	372.222
200.43	900.000
200.81	5600.000
201.18	1566.667
201.56	-1766.667
201.94	655.556
202.31	611.111
202.69	391.667
203.07	620.000
203.44	0.000
203.82	1375.000
204.19	828.571
204.57	442.857
204.95	750.000
205.32	1766.667
205.70	500.000
206.08	435.714
206.45	2850.000
206.83	325.000
207.20	1066.667
207.58	860.000
207.96	388.889
208.33	675.000
208.71	-933.333
209.08	714.286
209.46	622.222
209.84	545.455
210.21	-1666.667
210.59	1600.000
210.96	-587.500
211.34	2650.000
211.71	580.000
212.09	733.333
212.46	0.000
212.84	1800.000
213.22	1425.000
213.59	-5000.000
213.97	833.333
214.34	842.857
214.72	527.273
215.09	1220.000
215.47	-2550.000
215.84	-3050.000
216.22	1766.667
216.59	385.714
216.97	1575.000
217.34	536.364
217.72	-833.333
218.09	0.000
218.47	-4800.000
218.84	677.778
219.22	828.571
219.59	1833.333
219.97	-785.714
220.34	1140.000
220.72	-1600.000
221.09	471.429
221.47	1575.000
221.84	-900.000
222.22	0.000
222.59	1575.000
222.97	-2850.000
223.34	1340.000
223.72	530.769
224.09	1020.000
224.46	2250.000
224.84	-5400.000
225.21	-1260.000
225.59	-5300.000
225.96	700.000
226.34	285.000
226.71	2750.000
227.08	800.000
227.46	570.000
227.83	-1025.000
228.21	-2400.000
228.58	577.778
228.95	-2250.000
229.33	-2250.000
229.70	1866.667
230.08	771.429
230.45	-960.000
230.82	458.333
231.20	916.667
231.57	657.143
231.95	541.667
232.32	281.818
232.69	409.091
233.07	800.000
233.44	330.769
233.81	-1600.000
234.19	326.316
234.56	516.667
234.93	533.333
235.31	527.273
235.68	369.231
236.05	392.857
236.43	187.879
236.80	273.684
237.17	5600.000
237.55	333.333
237.92	257.143
238.29	276.190
238.67	209.677
239.04	268.966
239.41	188.889
239.79	160.870
240.16	166.667
240.53	163.636
240.91	133.333
241.28	140.000
241.65	152.000
242.02	118.841
242.40	111.290
242.77	118.333
243.14	96.774
243.51	106.742
243.89	98.824
244.26	96.667
244.63	97.849
245.00	89.362
245.38	89.109
245.75	90.654
246.12	84.404
246.49	83.212
246.87	101.600
247.24	92.308
247.61	82.857
247.98	71.242
248.36	81.757
248.73	64.331
249.10	80.255
249.47	69.492
249.84	73.262
250.22	67.380
250.59	71.598
250.96	65.657
251.33	75.355
251.70	72.277
252.08	69.524
252.45	66.816
252.82	61.304
253.19	63.404
253.56	56.078
253.94	64.730
254.31	60.937
254.68	60.385
255.05	60.148
255.42	63.008
255.79	61.029
256.16	61.011
256.54	57.597
256.91	57.295
257.28	56.475
257.65	58.746
258.02	57.143
258.39	58.675
258.76	58.194
259.14	59.524
259.51	54.711
259.88	50.932
260.25	54.079
260.62	55.780
260.99	60.870
261.36	53.153
261.73	53.295
262.10	56.686
262.47	55.493
262.85	55.710
263.22	53.846
263.59	52.991
263.96	52.198
264.33	50.914
264.70	51.579
265.07	51.151
265.44	51.768
265.81	48.662
266.18	53.015
266.55	49.756
266.92	53.563
267.29	52.315
267.66	48.165
268.03	50.682
268.40	50.000
268.77	48.926
269.14	49.324
269.51	49.436
269.88	51.049
270.25	51.919
270.62	50.562
270.99	49.032
271.36	50.429
271.73	49.533
272.10	48.043
272.47	52.258
272.84	51.082
273.21	47.589
273.58	48.035
273.95	46.122
274.32	48.347
274.69	47.323
275.06	45.079
275.43	48.085
275.80	47.495
276.17	50.305
276.54	50.312
276.91	47.628
277.28	43.750
277.65	48.162
278.02	45.963
278.39	49.609
278.76	46.545
279.13	46.226
279.50	47.114
279.87	48.606
280.23	45.110
280.60	47.002
280.97	46.765
281.34	46.726
281.71	49.091
282.08	48.369
282.45	45.636
282.82	45.115
283.19	45.633
283.56	44.211
283.92	46.531
284.29	45.503
284.66	44.828
285.03	43.219
285.40	44.718
285.77	44.108
286.14	44.214
286.51	44.500
286.87	45.299
287.24	45.114
287.61	41.734
287.98	41.721
288.35	43.740
288.72	41.589
289.08	43.662
289.45	42.998
289.82	41.951
290.19	40.188
290.56	40.429
290.93	37.915
291.29	44.018
291.66	39.528
292.03	41.279
292.40	40.969
292.77	40.533
293.13	38.209
293.50	40.087
293.87	39.407
294.24	38.519
294.60	38.428
294.97	37.936
295.34	39.774
295.71	36.648
296.08	37.464
296.44	38.790
296.81	37.120
297.18	39.024
297.55	36.016
297.91	35.884
298.28	39.090
298.65	36.031
299.02	37.154
299.38	35.857
299.75	33.693
300.12	36.015
300.48	33.625
300.85	36.128
301.22	33.885
301.59	34.848
301.95	34.761
302.32	34.660
302.69	34.648
303.05	35.515
303.42	34.568
303.79	34.202
304.15	32.634
304.52	33.488
304.89	32.869
305.25	32.831
305.62	33.296
305.99	34.475
306.35	33.781
306.72	34.978
307.09	35.405
307.45	34.347
307.82	31.808
308.19	34.216
308.55	34.628
308.92	32.223
309.29	32.841
309.65	33.192
310.02	33.721
310.38	34.301
310.75	34.002
311.12	32.753
311.48	33.751
311.85	34.696
312.22	33.819
312.58	33.680
312.95	34.530
313.31	32.233
313.68	34.407
314.05	34.615
314.41	32.362
314.78	34.743
315.14	34.062
315.51	35.633
315.87	33.861
316.24	32.771
316.61	32.846
316.97	33.562
317.34	32.779
317.70	34.895
318.07	33.686
318.43	34.736
318.80	33.083
319.16	34.087
319.53	33.021
319.89	34.286
320.26	33.900
320.62	33.829
320.99	33.030
321.35	33.232
321.72	35.934
322.08	34.057
322.45	35.920
322.81	35.562
323.18	36.320
323.54	35.714
323.91	34.151
324.27	35.755
324.64	35.694
325.00	33.634
325.37	34.577
325.73	34.829
326.10	33.628
326.46	34.767
326.83	35.462
327.19	35.184
327.56	35.192
327.92	35.783
328.29	36.557
328.65	36.740
329.01	35.379
329.38	35.430
329.74	35.549
330.11	36.852
330.47	35.445
330.84	36.673
331.20	35.701
331.56	35.321
331.93	34.815
332.29	34.783
332.66	35.044
333.02	35.009
333.38	36.495
333.75	35.651
334.11	35.409
334.48	36.025
334.84	34.007
335.20	35.818
335.57	33.908
335.93	34.107
336.29	33.425
336.66	34.716
337.02	33.756
337.38	35.463
337.75	33.066
338.11	33.930
338.47	34.162
338.84	34.372
339.20	34.954
339.56	34.672
339.93	34.182
340.29	33.514
340.65	33.512
341.02	33.857
341.38	36.032
341.74	32.544
342.11	34.847
342.47	33.921
342.83	35.017
343.20	34.199
343.56	33.277
343.92	34.649
344.28	33.844
344.65	33.878
345.01	33.923
345.37	33.791
345.73	34.602
346.10	34.697
346.46	34.322
346.82	32.949
347.19	32.414
347.55	32.677
347.91	33.172
348.27	34.182
348.63	33.445
349.00	33.010
349.36	33.333
349.72	32.478
350.08	33.468
350.45	33.198
350.81	32.169
351.17	33.144
351.53	33.251
351.89	31.683
352.26	34.096
352.62	32.398
352.98	33.225
353.34	32.703
353.70	32.979
354.07	31.613
354.43	32.143
354.79	31.054
355.15	32.402
355.51	33.253
355.87	32.898
356.24	31.840
356.60	32.879
356.96	32.341
357.32	32.461
357.68	32.992
358.04	33.017
358.40	32.621
358.77	32.629
359.13	32.202
359.49	31.686
359.85	31.270
360.21	31.659
360.57	32.685
360.93	33.769
361.29	32.880
361.66	31.811
362.02	32.239
362.38	31.559
362.74	32.217
363.10	31.532
363.46	31.401
363.82	32.955
364.18	31.938
364.54	33.581
364.90	32.578
365.26	32.426
365.62	33.017
365.98	31.483
366.35	32.378
366.71	32.466
367.07	32.556
367.43	32.511
367.79	33.619
368.15	33.046
368.51	32.703
368.87	31.692
369.23	32.187
369.59	33.092
369.95	32.206
370.31	31.766
370.67	31.232
371.03	32.135
371.39	31.924
371.75	32.941
372.11	31.223
372.47	32.698
372.83	32.997
373.19	31.142
373.55	32.964
373.91	33.505
374.27	30.790
374.63	32.727
374.99	33.616
375.35	31.961
375.71	31.254
376.07	31.893
376.42	32.531
376.78	33.400
377.14	31.411
377.50	31.656
377.86	31.383
378.22	32.427
378.58	31.203
378.94	31.427
379.30	32.188
379.66	32.043
380.02	32.432
380.38	32.119
380.74	31.273
381.09	32.029
381.45	33.497
381.81	32.187
382.17	32.102
382.53	32.453
382.89	32.407
383.25	32.083
383.61	32.962
383.97	32.020
384.32	31.815
384.68	32.218
385.04	32.207
385.40	31.269
385.76	32.002
386.12	32.124
386.48	32.914
386.83	32.906
387.19	32.591
387.55	32.344
387.91	32.164
388.27	31.392
388.62	32.760
388.98	31.572
389.34	32.290
389.70	32.311
390.06	32.573
390.42	32.296
390.77	32.443
391.13	33.631
391.49	32.805
391.85	32.209
392.20	31.735
392.56	32.639
392.92	31.548
393.28	31.538
393.64	32.194
393.99	31.827
394.35	32.258
394.71	31.744
395.07	30.841
395.42	31.397
395.78	31.679
396.14	32.278
396.50	32.707
396.85	32.422
397.21	31.381
397.57	31.060
397.92	32.572
398.28	30.830
398.64	31.541
399.00	30.666
399.35	30.964
399.71	31.019
400.07	31.224
400.42	32.025
400.78	31.604
401.14	31.220
401.49	31.582
401.85	30.853
402.21	31.437
402.57	31.462
402.92	31.652
403.28	31.230
403.63	30.631
403.99	31.210
404.35	30.606
404.70	31.115
405.06	31.508
405.42	32.689
405.77	31.486
406.13	30.813
406.49	31.402
406.84	30.951
407.20	31.501
407.55	31.589
407.91	31.733
408.27	31.398
408.62	31.547
408.98	30.760
409.34	31.365
409.69	31.032
410.05	30.731
410.40	31.437
410.76	31.422
411.11	30.760
411.47	30.096
411.83	30.727
412.18	29.870
412.54	31.880
412.89	31.145
413.25	30.638
413.60	31.007
413.96	29.690
414.31	30.741
414.67	30.989
415.03	30.464
415.38	31.765
415.74	31.125
416.09	31.483
416.45	30.790
416.80	30.866
417.16	31.434
417.51	32.117
417.87	30.829
418.22	31.104
418.58	31.117
418.93	31.880
419.29	30.808
419.64	32.053
420.00	30.427
420.35	30.783
420.71	31.620
421.06	30.131
421.42	31.228
421.77	30.605
422.12	30.713
422.48	29.790
422.83	31.567
423.19	31.050
423.54	31.457
423.90	31.014
424.25	31.044
424.61	30.298
424.96	30.262
425.31	31.063
425.67	31.011
426.02	30.686
426.38	31.624
426.73	30.954
427.09	31.246
427.44	31.340
427.79	30.765
428.15	31.488
428.50	31.773
428.85	31.585
429.21	30.922
429.56	31.104
429.92	30.951
430.27	30.338
430.62	30.415
430.98	31.188
431.33	30.258
431.68	31.047
432.04	31.523
432.39	31.582
432.74	32.436
433.10	31.862
433.45	31.778
433.80	30.876
434.16	31.036
434.51	31.842
434.86	32.098
435.22	32.073
435.57	31.733
435.92	31.422
436.28	31.851
436.63	32.340
436.98	32.341
437.34	31.843
437.69	32.205
438.04	31.366
438.39	32.000
438.75	32.423
439.10	31.955
439.45	33.176
439.81	31.722
440.16	31.677
440.51	32.337
440.86	32.137
441.22	31.535
441.57	32.909
441.92	32.497
442.27	31.432
442.63	32.175
442.98	33.521
443.33	32.337
443.68	32.525
444.03	31.869
444.39	31.792
444.74	32.684
445.09	31.429
445.44	32.149
445.79	32.806
446.15	32.292
446.50	32.364
446.85	31.346
447.20	31.617
447.55	33.054
447.91	32.377
448.26	32.165
448.61	32.391
448.96	31.949
449.31	32.902
449.66	32.470
450.02	31.643
450.37	32.370
450.72	33.108
451.07	31.993
451.42	32.340
451.77	32.766
452.12	32.159
452.47	32.960
452.83	32.226
453.18	33.068
453.53	33.333
453.88	32.428
454.23	32.576
454.58	32.102
454.93	33.948
455.28	33.292
455.63	32.342
455.98	33.333
456.34	32.286
456.69	32.937
457.04	33.560
457.39	32.963
457.74	32.559
458.09	32.605
458.44	31.927
458.79	31.616
459.14	33.183
459.49	32.925
459.84	32.576
460.19	32.646
460.54	31.597
460.89	32.748
461.24	32.726
461.59	33.527
461.94	32.861
462.29	33.650
462.64	33.312
462.99	32.986
463.34	33.867
463.69	33.083
464.04	31.826
464.39	31.942
464.74	32.323
465.09	32.027
465.44	31.911
465.79	32.215
466.14	32.293
466.49	32.481
466.84	33.567
467.19	33.193
467.54	33.000
467.89	33.253
468.24	33.508
468.59	33.394
468.94	32.437
469.29	33.805
469.64	34.203
469.99	33.897
470.34	34.280
470.68	34.267
471.03	32.993
471.38	34.816
471.73	33.378
472.08	34.211
472.43	33.920
472.78	34.365
473.13	34.018
473.48	33.521
473.83	34.268
474.17	32.732
474.52	34.739
474.87	34.209
475.22	34.127
475.57	33.853
475.92	33.404
476.27	33.766
476.61	35.190
476.96	34.030
477.31	33.176
477.66	34.136
478.01	33.978
478.36	33.897
478.70	33.697
479.05	33.546
479.40	35.107
479.75	34.265
480.10	33.996
480.45	33.889
480.79	34.257
481.14	34.687
481.49	33.507
481.84	33.653
482.19	35.030
482.53	33.578
482.88	34.574
483.23	33.972
483.58	34.213
483.92	34.583
484.27	32.723
484.62	33.621
484.97	33.031
485.31	33.938
485.66	31.514
486.01	30.730
486.36	30.068
486.70	31.076
487.05	31.371
487.40	32.916
487.75	33.653
488.09	35.123
488.44	34.890
488.79	35.732
489.13	35.791
489.48	34.666
489.83	34.268
490.17	33.757
490.52	33.924
490.87	34.509
491.22	33.970
491.56	32.893
491.91	33.364
492.26	33.486
492.60	33.825
492.95	33.302
493.30	34.393
493.64	34.158
493.99	33.240
494.34	33.441
494.68	33.654
495.03	33.929
495.37	33.457
495.72	33.626
496.07	34.339
496.41	33.230
496.76	33.509
497.11	33.453
497.45	33.535
497.80	34.645
498.14	34.058
498.49	34.829
498.84	33.797
499.18	33.381
499.53	34.046
499.87	33.551
500.22	33.914
500.56	34.903
500.91	34.327
501.26	33.950
501.60	34.979
501.95	34.418
502.29	35.942
502.64	34.497
502.98	33.520
503.33	34.644
503.67	34.849
504.02	34.471
504.36	34.675
504.71	34.978
505.06	35.277
505.40	35.246
505.75	34.330
506.09	35.520
506.44	36.211
506.78	35.363
507.13	35.891
507.47	35.960
507.82	37.133
508.16	36.322
508.51	37.037
508.85	35.899
509.19	36.429
509.54	36.582
509.88	36.785
510.23	36.864
510.57	37.771
510.92	36.717
511.26	37.153
511.61	37.656
511.95	37.526
512.30	36.903
512.64	38.581
512.98	38.585
513.33	38.919
513.67	38.154
514.02	38.474
514.36	38.995
514.70	39.236
515.05	38.929
515.39	39.428
515.74	39.527
516.08	39.519
516.42	39.734
516.77	41.081
517.11	40.511
517.46	41.591
517.80	41.812
518.14	40.822
518.49	42.124
518.83	41.193
519.17	41.397
519.52	40.521
519.86	42.042
520.20	42.428
520.55	41.951
520.89	42.092
521.23	43.486
521.58	42.317
521.92	43.478
522.26	43.990
522.61	44.611
522.95	43.831
523.29	43.335
523.64	43.780
523.98	44.486
524.32	43.788
524.66	43.295
525.01	44.240
525.35	44.857
525.69	43.781
526.04	44.984
526.38	44.600
526.72	44.540
527.06	44.821
527.41	44.307
527.75	46.945
528.09	45.536
528.43	45.825
528.78	45.360
529.12	45.394
529.46	45.315
529.80	46.040
530.15	46.417
530.49	45.108
530.83	45.886
531.17	49.021
531.51	47.990
531.86	46.710
532.20	47.001
532.54	47.277
532.88	46.149
533.22	46.783
533.57	45.185
533.91	46.297
534.25	45.990
534.59	45.638
534.93	46.282
535.27	45.444
535.62	46.459
535.96	47.772
536.30	48.315
536.64	48.165
536.98	48.175
537.32	48.321
537.66	48.467
538.01	47.136
538.35	47.253
538.69	48.181
539.03	46.459
539.37	47.220
539.71	47.116
540.05	46.928
540.39	49.037
540.73	48.060
541.07	47.567
541.42	48.598
541.76	49.613
542.10	47.930
542.44	47.815
542.78	49.078
543.12	46.961
543.46	49.049
543.80	48.276
544.14	47.561
544.48	48.063
544.82	47.274
545.16	46.454
545.50	46.851
545.84	47.715
546.18	47.407
546.52	48.383
546.86	48.866
547.20	49.359
547.54	48.631
547.88	48.661
548.22	47.447
548.56	47.547
548.90	47.951
549.24	48.148
549.58	48.977
549.92	48.901
550.26	48.366
550.60	48.617
550.94	49.437
551.28	48.939
551.62	49.173
551.96	48.351
552.30	49.283
552.64	48.884
552.98	49.085
553.32	48.146
553.66	47.989
554.00	49.485
554.34	48.033
554.68	49.642
555.02	47.884
555.36	47.042
555.69	47.903
556.03	48.587
556.37	47.067
556.71	46.862
557.05	48.039
557.39	47.586
557.73	48.553
558.07	49.239
558.41	48.842
558.75	48.567
559.08	48.993
559.42	49.735
559.76	49.265
560.10	47.395
560.44	47.589
560.78	47.572
561.12	46.834
561.45	47.001
561.79	46.803
562.13	47.619
562.47	48.975
562.81	48.466
563.15	46.488
563.48	48.475
563.82	47.619
564.16	48.005
564.50	46.484
564.84	46.207
565.17	47.104
565.51	47.284
565.85	47.018
566.19	46.274
566.52	48.132
566.86	45.931
567.20	47.347
567.54	46.918
567.88	45.953
568.21	46.508
568.55	45.399
568.89	44.747
569.23	43.939
569.56	43.036
569.90	43.170
570.24	42.698
570.57	43.081
570.91	42.308
571.25	41.662
571.59	41.708
571.92	41.619
572.26	41.883
572.60	42.733
572.93	41.919
573.27	41.704
573.61	42.071
573.95	41.809
574.28	41.382
574.62	41.472
574.96	41.266
575.29	41.101
575.63	41.362
575.97	41.395
576.30	41.768
576.64	41.547
576.98	41.711
577.31	41.774
577.65	41.303
577.98	40.229
578.32	40.409
578.66	40.524
578.99	41.520
579.33	41.588
579.67	40.963
580.00	41.813
580.34	41.528
580.67	41.527
581.01	41.466
581.35	40.847
581.68	40.115
582.02	39.759
582.35	40.217
582.69	40.781
583.02	40.950
583.36	41.480
583.70	42.882
584.03	42.868
584.37	43.136
584.70	42.764
585.04	41.487
585.37	41.240
585.71	40.977
586.04	41.894
586.38	42.111
586.72	42.143
587.05	41.619
587.39	41.346
587.72	42.051
588.06	41.836
588.39	42.469
588.73	42.036
589.06	43.347
589.40	43.569
589.73	43.506
590.07	43.096
590.40	43.076
590.73	43.950
591.07	43.549
591.40	43.610
591.74	45.065
592.07	43.325
592.41	43.076
592.74	41.835
593.08	41.606
593.41	41.063
593.75	40.287
594.08	41.569
594.41	41.958
594.75	41.442
595.08	41.589
595.42	42.347
595.75	42.877
596.09	43.597
596.42	43.222
596.75	42.592
597.09	43.853
597.42	42.243
597.75	43.251
598.09	43.522
598.42	42.655
598.76	42.278
599.09	41.087
599.42	42.031
599.76	41.618
600.09	41.494
600.42	41.015
600.76	41.143
601.09	41.384
601.42	41.895
601.76	41.898
602.09	42.055
602.42	43.272
602.76	43.571
603.09	42.526
603.42	42.210
603.76	41.768
604.09	41.218
604.42	42.845
604.76	42.893
605.09	43.338
605.42	42.882
605.75	42.136
606.09	42.660
606.42	41.765
606.75	41.850
607.09	41.649
607.42	42.448
607.75	40.802
608.08	42.727
608.42	42.851
608.75	41.749
609.08	41.813
609.41	42.694
609.75	42.592
610.08	42.413
610.41	42.318
610.74	42.431
611.07	43.281
611.41	42.149
611.74	43.238
612.07	42.547
612.40	42.970
612.73	42.053
613.07	43.588
613.40	44.023
613.73	42.423
614.06	43.441
614.39	42.685
614.72	42.000
615.06	41.702
615.39	42.197
615.72	41.820
616.05	42.105
616.38	43.246
616.71	43.884
617.05	44.405
617.38	43.776
617.71	44.324
618.04	44.712
618.37	43.465
618.70	43.559
619.03	45.197
619.36	45.146
619.69	44.085
620.03	44.849
620.36	43.917
620.69	44.658
621.02	45.649
621.35	44.792
621.68	45.171
622.01	44.272
622.34	45.386
622.67	43.726
623.00	42.627
623.33	43.388
623.66	43.531
623.99	44.919
624.32	43.153
624.65	44.350
624.99	43.130
625.32	44.171
625.65	44.027
625.98	44.581
626.31	45.490
626.64	46.531
626.97	45.054
627.30	45.303
627.63	44.545
627.96	45.753
628.29	44.707
628.62	46.935
628.95	46.698
629.28	45.620
629.61	45.371
629.94	47.810
630.26	46.520
630.59	45.091
