SpectraSuite Data File
++++++++++++++++++++++++++++++++++++
Date: Wed May 13 19:28:11 PDT 2015
User: schluterlab
Dark Spectrum Present: Yes
Reference Spectrum Present: Yes
Number of Sampled Component Spectra: 1
Spectrometers: USB2E3373
Integration Time (usec): 3000 (USB2E3373)
Spectra Averaged: 3 (USB2E3373)
Boxcar Smoothing: 0 (USB2E3373)
Correct for Electrical Dark: No (USB2E3373)
Strobe/Lamp Enabled: No (USB2E3373)
Correct for Detector Non-linearity: No (USB2E3373)
Correct for Stray Light: No (USB2E3373)
Number of Pixels in Processed Spectrum: 2048
>>>>>Begin Processed Spectral Data<<<<<
178.53	0.000
178.91	-1200.000
179.29	-1200.000
179.67	-227.778
180.04	-1425.000
180.42	3050.000
180.80	1120.000
181.18	-1400.000
181.56	628.571
181.94	0.000
182.31	-657.143
182.69	1800.000
183.07	-537.500
183.45	-611.111
183.83	500.000
184.20	-550.000
184.58	2400.000
184.96	5000.000
185.34	-940.000
185.72	-450.000
186.09	-2300.000
186.47	2700.000
186.85	2350.000
187.23	5400.000
187.61	-2233.333
187.98	1425.000
188.36	618.182
188.74	509.091
189.12	-1060.000
189.49	490.000
189.87	-5500.000
190.25	-1075.000
190.63	435.714
191.00	430.769
191.38	833.333
191.76	-1325.000
192.14	1475.000
192.51	737.500
192.89	1100.000
193.27	637.500
193.65	-1225.000
194.02	530.000
194.40	1200.000
194.78	580.000
195.15	500.000
195.53	680.000
195.91	-2450.000
196.29	387.500
196.66	289.474
197.04	-400.000
197.42	0.000
197.79	660.000
198.17	-4600.000
198.55	785.714
198.92	637.500
199.30	1160.000
199.68	0.000
200.05	355.556
200.43	685.714
200.81	5600.000
201.18	1700.000
201.56	-1666.667
201.94	577.778
202.31	688.889
202.69	366.667
203.07	580.000
203.44	0.000
203.82	1275.000
204.19	942.857
204.57	485.714
204.95	675.000
205.32	1566.667
205.70	500.000
206.08	364.286
206.45	2450.000
206.83	337.500
207.20	933.333
207.58	700.000
207.96	283.333
208.33	800.000
208.71	-933.333
209.08	871.429
209.46	733.333
209.84	436.364
210.21	-1333.333
210.59	1450.000
210.96	-487.500
211.34	2350.000
211.71	570.000
212.09	816.667
212.46	0.000
212.84	1466.667
213.22	1450.000
213.59	-4800.000
213.97	766.667
214.34	900.000
214.72	572.727
215.09	1160.000
215.47	-2150.000
215.84	-2800.000
216.22	1600.000
216.59	400.000
216.97	1525.000
217.34	463.636
217.72	-683.333
218.09	0.000
218.47	-5100.000
218.84	688.889
219.22	857.143
219.59	1866.667
219.97	-571.429
220.34	960.000
220.72	-1933.333
221.09	492.857
221.47	1675.000
221.84	-1016.667
222.22	0.000
222.59	1200.000
222.97	-2400.000
223.34	1140.000
223.72	446.154
224.09	1020.000
224.46	2200.000
224.84	-4900.000
225.21	-1120.000
225.59	-5000.000
225.96	550.000
226.34	240.000
226.71	3000.000
227.08	750.000
227.46	530.000
227.83	-1275.000
228.21	-2100.000
228.58	700.000
228.95	-2400.000
229.33	-2350.000
229.70	1633.333
230.08	842.857
230.45	-780.000
230.82	391.667
231.20	816.667
231.57	742.857
231.95	483.333
232.32	186.364
232.69	454.545
233.07	714.286
233.44	369.231
233.81	-1833.333
234.19	278.947
234.56	400.000
234.93	408.333
235.31	436.364
235.68	292.308
236.05	371.429
236.43	163.636
236.80	294.737
237.17	4700.000
237.55	195.238
237.92	242.857
238.29	252.381
238.67	145.161
239.04	189.655
239.41	158.333
239.79	117.391
240.16	123.810
240.53	134.091
240.91	101.961
241.28	86.000
241.65	108.000
242.02	91.304
242.40	82.258
242.77	85.000
243.14	75.269
243.51	65.169
243.89	78.824
244.26	74.444
244.63	51.613
245.00	69.149
245.38	59.406
245.75	57.944
246.12	55.046
246.49	59.124
246.87	62.400
247.24	60.000
247.61	40.000
247.98	54.248
248.36	37.162
248.73	40.127
249.10	45.223
249.47	42.373
249.84	39.037
250.22	36.898
250.59	36.686
250.96	45.455
251.33	36.493
251.70	37.129
252.08	33.810
252.45	36.771
252.82	31.739
253.19	37.021
253.56	31.765
253.94	35.270
254.31	31.641
254.68	33.462
255.05	29.151
255.42	30.894
255.79	33.088
256.16	33.574
256.54	27.915
256.91	32.028
257.28	24.101
257.65	30.033
258.02	31.988
258.39	26.183
258.76	26.421
259.14	26.488
259.51	27.964
259.88	22.981
260.25	26.888
260.62	25.434
260.99	24.845
261.36	26.727
261.73	22.923
262.10	26.163
262.47	23.099
262.85	24.791
263.22	21.368
263.59	27.920
263.96	22.802
264.33	24.282
264.70	23.947
265.07	25.064
265.44	25.000
265.81	21.898
266.18	27.136
266.55	22.683
266.92	21.376
267.29	24.074
267.66	25.229
268.03	21.591
268.40	22.897
268.77	22.673
269.14	20.270
269.51	22.122
269.88	21.911
270.25	20.993
270.62	24.270
270.99	24.946
271.36	22.103
271.73	21.495
272.10	21.522
272.47	21.075
272.84	21.212
273.21	23.899
273.58	20.524
273.95	19.916
274.32	20.041
274.69	19.700
275.06	18.898
275.43	20.638
275.80	21.042
276.17	21.385
276.54	23.077
276.91	20.356
277.28	21.094
277.65	21.663
278.02	18.841
278.39	22.266
278.76	20.909
279.13	19.434
279.50	20.670
279.87	21.514
280.23	19.960
280.60	20.116
280.97	20.333
281.34	20.885
281.71	18.545
282.08	22.073
282.45	20.182
282.82	17.940
283.19	16.934
283.56	18.596
283.92	18.105
284.29	19.753
284.66	18.693
285.03	18.264
285.40	18.486
285.77	15.993
286.14	20.380
286.51	19.000
286.87	17.778
287.24	18.893
287.61	17.496
287.98	18.344
288.35	15.214
288.72	19.470
289.08	18.623
289.45	16.145
289.82	17.398
290.19	16.327
290.56	16.386
290.93	16.314
291.29	16.871
291.66	16.077
292.03	17.006
292.40	18.649
292.77	16.420
293.13	16.866
293.50	17.784
293.87	16.444
294.24	16.000
294.60	15.138
294.97	16.424
295.34	16.643
295.71	16.477
296.08	14.245
296.44	14.718
296.81	13.871
297.18	15.718
297.55	12.005
297.91	13.325
298.28	15.797
298.65	15.274
299.02	15.547
299.38	14.608
299.75	12.399
300.12	13.155
300.48	15.500
300.85	13.810
301.22	13.885
301.59	13.005
301.95	13.728
302.32	13.736
302.69	14.576
303.05	13.455
303.42	13.704
303.79	13.364
304.15	12.704
304.52	13.441
304.89	12.544
305.25	14.153
305.62	13.137
305.99	12.987
306.35	13.087
306.72	12.108
307.09	13.541
307.45	13.176
307.82	12.723
308.19	14.128
308.55	14.563
308.92	12.997
309.29	12.460
309.65	12.831
310.02	13.002
310.38	13.118
310.75	13.728
311.12	13.101
311.48	14.316
311.85	12.474
312.22	13.215
312.58	13.098
312.95	13.411
313.31	12.816
313.68	13.721
314.05	14.990
314.41	13.668
314.78	13.293
315.14	13.406
315.51	14.418
315.87	14.950
316.24	14.300
316.61	14.133
316.97	15.166
317.34	14.873
317.70	16.444
318.07	15.496
318.43	15.851
318.80	16.495
319.16	16.949
319.53	16.886
319.89	16.476
320.26	19.200
320.62	20.040
320.99	19.293
321.35	18.788
321.72	19.713
322.08	20.533
322.45	22.786
322.81	21.124
323.18	22.832
323.54	23.655
323.91	23.019
324.27	23.709
324.64	23.299
325.00	23.354
325.37	25.205
325.73	26.122
326.10	25.419
326.46	26.792
326.83	27.696
327.19	26.815
327.56	27.526
327.92	28.346
328.29	29.725
328.65	29.834
329.01	30.144
329.38	29.510
329.74	30.102
330.11	30.349
330.47	30.579
330.84	32.721
331.20	32.240
331.56	31.651
331.93	31.574
332.29	31.943
332.66	32.301
333.02	32.358
333.38	33.243
333.75	33.333
334.11	33.096
334.48	33.008
334.84	33.548
335.20	33.182
335.57	33.273
335.93	32.143
336.29	33.791
336.66	33.995
337.02	33.484
337.38	34.167
337.75	33.868
338.11	34.020
338.47	34.070
338.84	34.372
339.20	33.303
339.56	35.493
339.93	33.364
340.29	34.239
340.65	34.581
341.02	35.515
341.38	35.587
341.74	35.175
342.11	33.712
342.47	34.802
342.83	33.904
343.20	35.498
343.56	35.552
343.92	35.614
344.28	35.799
344.65	36.113
345.01	34.428
345.37	34.991
345.73	35.025
346.10	35.379
346.46	34.831
346.82	36.079
347.19	35.004
347.55	35.140
347.91	35.841
348.27	36.154
348.63	36.288
349.00	36.165
349.36	35.878
349.72	34.964
350.08	35.089
350.45	36.371
350.81	35.581
351.17	36.143
351.53	35.954
351.89	35.066
352.26	36.938
352.62	36.808
352.98	35.737
353.34	37.058
353.70	36.498
354.07	36.452
354.43	36.270
354.79	35.961
355.15	36.233
355.51	38.129
355.87	36.653
356.24	36.971
356.60	37.450
356.96	36.846
357.32	37.858
357.68	37.244
358.04	37.926
358.40	38.638
358.77	37.872
359.13	38.832
359.49	38.275
359.85	38.095
360.21	38.676
360.57	38.366
360.93	38.769
361.29	39.380
361.66	38.003
362.02	39.403
362.38	40.608
362.74	39.286
363.10	38.786
363.46	39.398
363.82	40.060
364.18	39.648
364.54	41.530
364.90	39.943
365.26	41.397
365.62	40.979
365.98	40.321
366.35	40.043
366.71	41.649
367.07	42.098
367.43	41.727
367.79	42.041
368.15	42.672
368.51	41.497
368.87	40.614
369.23	41.917
369.59	42.216
369.95	41.985
370.31	42.949
370.67	41.087
371.03	44.719
371.39	44.169
371.75	43.750
372.11	42.390
372.47	44.282
372.83	43.732
373.19	44.003
373.55	44.789
373.91	46.171
374.27	43.230
374.63	46.182
374.99	45.410
375.35	44.313
375.71	45.579
376.07	45.885
376.42	44.773
376.78	45.792
377.14	45.726
377.50	45.695
377.86	45.146
378.22	47.092
378.58	45.551
378.94	45.317
379.30	46.056
379.66	47.716
380.02	47.297
380.38	47.055
380.74	47.119
381.09	47.188
381.45	48.248
381.81	48.280
382.17	46.752
382.53	46.730
382.89	48.210
383.25	48.468
383.61	50.248
383.97	49.406
384.32	47.973
384.68	49.257
385.04	49.785
385.40	49.474
385.76	49.079
386.12	50.583
386.48	49.843
386.83	50.609
387.19	50.959
387.55	50.835
387.91	50.242
388.27	50.521
388.62	50.891
388.98	51.413
389.34	50.563
389.70	50.153
390.06	51.204
390.42	52.075
390.77	52.799
391.13	52.074
391.49	53.744
391.85	51.241
392.20	51.924
392.56	52.525
392.92	53.384
393.28	51.834
393.64	53.118
393.99	51.741
394.35	53.598
394.71	52.635
395.07	51.464
395.42	54.265
395.78	53.435
396.14	52.452
396.50	53.446
396.85	54.355
397.21	54.069
397.57	52.449
397.92	53.245
398.28	52.298
398.64	52.688
399.00	52.658
399.35	53.864
399.71	53.299
400.07	54.169
400.42	54.847
400.78	55.006
401.14	54.390
401.49	55.164
401.85	52.874
402.21	53.054
402.57	54.226
402.92	55.422
403.28	54.279
403.63	54.950
403.99	55.159
404.35	54.121
404.70	55.635
405.06	53.349
405.42	55.459
405.77	54.514
406.13	54.797
406.49	53.992
406.84	54.637
407.20	53.723
407.55	54.499
407.91	56.200
408.27	55.839
408.62	55.328
408.98	54.841
409.34	55.351
409.69	55.419
410.05	55.886
410.40	55.229
410.76	54.898
411.11	55.127
411.47	55.783
411.83	55.101
412.18	55.349
412.54	54.795
412.89	54.337
413.25	54.073
413.60	55.343
413.96	54.038
414.31	55.711
414.67	54.880
415.03	54.570
415.38	54.832
415.74	56.077
416.09	56.891
416.45	55.489
416.80	55.651
417.16	56.166
417.51	56.138
417.87	55.299
418.22	55.962
418.58	54.810
418.93	55.160
419.29	56.334
419.64	55.730
420.00	55.915
420.35	52.928
420.71	55.708
421.06	54.952
421.42	56.023
421.77	54.989
422.12	54.745
422.48	55.154
422.83	55.096
423.19	53.923
423.54	55.543
423.90	55.536
424.25	54.718
424.61	54.345
424.96	55.510
425.31	55.260
425.67	52.809
426.02	54.571
426.38	55.067
426.73	53.599
427.09	55.502
427.44	55.319
427.79	54.514
428.15	55.119
428.50	55.471
428.85	54.350
429.21	54.114
429.56	53.914
429.92	54.001
430.27	53.227
430.62	52.791
430.98	54.022
431.33	53.454
431.68	53.455
432.04	52.929
432.39	53.170
432.74	54.638
433.10	54.612
433.45	55.044
433.80	53.548
434.16	54.006
434.51	53.526
434.86	53.592
435.22	54.197
435.57	54.833
435.92	54.827
436.28	54.389
436.63	54.249
436.98	54.551
437.34	55.635
437.69	54.492
438.04	53.794
438.39	54.627
438.75	55.375
439.10	53.855
439.45	54.723
439.81	54.260
440.16	53.303
440.51	54.364
440.86	53.793
441.22	54.449
441.57	54.087
441.92	53.685
442.27	54.144
442.63	52.870
442.98	53.577
443.33	53.043
443.68	52.814
444.03	53.587
444.39	53.311
444.74	53.950
445.09	52.776
445.44	53.034
445.79	53.043
446.15	52.144
446.50	52.450
446.85	52.826
447.20	52.830
447.55	53.825
447.91	52.841
448.26	53.200
448.61	52.911
448.96	52.769
449.31	53.881
449.66	51.660
450.02	51.643
450.37	51.644
450.72	52.848
451.07	52.163
451.42	52.036
451.77	52.730
452.12	51.905
452.47	52.363
452.83	52.331
453.18	51.895
453.53	51.391
453.88	51.979
454.23	51.524
454.58	51.726
454.93	53.147
455.28	51.683
455.63	52.184
455.98	52.619
456.34	51.319
456.69	52.348
457.04	51.950
457.39	51.724
457.74	50.784
458.09	51.179
458.44	51.881
458.79	49.783
459.14	51.749
459.49	51.897
459.84	50.471
460.19	49.971
460.54	49.769
460.89	50.741
461.24	50.455
461.59	50.843
461.94	49.260
462.29	51.039
462.64	49.904
462.99	50.228
463.34	50.000
463.69	50.094
464.04	49.681
464.39	48.522
464.74	49.673
465.09	49.216
465.44	49.529
465.79	48.714
466.14	48.768
466.49	47.775
466.84	49.154
467.19	47.435
467.54	49.687
467.89	48.139
468.24	48.575
468.59	47.924
468.94	47.037
469.29	49.871
469.64	49.197
469.99	49.391
470.34	48.811
470.68	49.066
471.03	47.823
471.38	48.089
471.73	47.968
472.08	49.211
472.43	48.367
472.78	47.729
473.13	47.561
473.48	47.503
473.83	46.585
474.17	47.106
474.52	47.643
474.87	47.169
475.22	46.547
475.57	45.943
475.92	45.990
476.27	46.505
476.61	46.111
476.96	46.014
477.31	45.892
477.66	46.116
478.01	44.433
478.36	45.426
478.70	44.912
479.05	45.580
479.40	45.343
479.75	45.297
480.10	44.632
480.45	44.836
480.79	43.717
481.14	45.401
481.49	44.566
481.84	43.576
482.19	44.434
482.53	44.587
482.88	43.834
483.23	44.393
483.58	42.994
483.92	43.814
484.27	41.307
484.62	42.931
484.97	42.531
485.31	42.774
485.66	41.740
486.01	41.212
486.36	39.591
486.70	39.513
487.05	39.310
487.40	39.581
487.75	39.650
488.09	40.158
488.44	39.226
488.79	41.302
489.13	41.329
489.48	41.680
489.83	41.001
490.17	42.087
490.52	40.257
490.87	41.113
491.22	39.836
491.56	39.909
491.91	40.065
492.26	40.606
492.60	40.461
492.95	40.037
493.30	40.374
493.64	40.271
493.99	40.344
494.34	39.500
494.68	39.881
495.03	40.508
495.37	39.088
495.72	39.864
496.07	39.629
496.41	38.805
496.76	38.434
497.11	38.046
497.45	39.730
497.80	39.299
498.14	39.034
498.49	39.561
498.84	38.495
499.18	39.000
499.53	38.794
499.87	38.490
500.22	37.965
500.56	38.350
500.91	37.548
501.26	38.312
501.60	37.921
501.95	37.580
502.29	38.566
502.64	37.011
502.98	37.447
503.33	36.974
503.67	37.030
504.02	36.670
504.36	36.593
504.71	36.297
505.06	36.819
505.40	36.947
505.75	35.921
506.09	36.880
506.44	36.754
506.78	36.386
507.13	36.547
507.47	36.919
507.82	36.424
508.16	36.424
508.51	37.544
508.85	35.849
509.19	36.633
509.54	35.051
509.88	35.600
510.23	36.350
510.57	36.378
510.92	35.111
511.26	35.406
511.61	35.477
511.95	34.916
512.30	34.624
512.64	35.196
512.98	36.013
513.33	35.814
513.67	33.885
514.02	34.957
514.36	36.046
514.70	36.580
515.05	34.356
515.39	34.941
515.74	33.784
516.08	34.433
516.42	34.850
516.77	34.058
517.11	33.352
517.46	34.481
517.80	35.366
518.14	33.932
518.49	35.414
518.83	34.545
519.17	34.527
519.52	34.182
519.86	34.170
520.20	33.121
520.55	33.872
520.89	34.185
521.23	34.680
521.58	33.673
521.92	33.987
522.26	33.069
522.61	33.271
522.95	33.824
523.29	33.232
523.64	33.841
523.98	33.826
524.32	33.715
524.66	33.554
525.01	33.578
525.35	33.271
525.69	31.835
526.04	32.960
526.38	33.130
526.72	31.534
527.06	33.208
527.41	31.250
527.75	32.990
528.09	33.398
528.43	33.142
528.78	31.899
529.12	31.636
529.46	32.578
529.80	31.683
530.15	32.523
530.49	31.138
530.83	32.848
531.17	32.898
531.51	33.074
531.86	31.419
532.20	32.073
532.54	31.710
532.88	32.927
533.22	31.480
533.57	31.173
533.91	30.524
534.25	32.017
534.59	31.239
534.93	30.815
535.27	31.201
535.62	31.807
535.96	30.320
536.30	31.151
536.64	31.681
536.98	31.055
537.32	30.481
537.66	30.667
538.01	30.415
538.35	30.446
538.69	31.142
539.03	29.890
539.37	30.351
539.71	29.812
540.05	30.588
540.39	30.033
540.73	30.013
541.07	31.278
541.42	30.789
541.76	29.935
542.10	30.207
542.44	29.603
542.78	30.830
543.12	28.791
543.46	30.164
543.80	29.538
544.14	29.012
544.48	30.159
544.82	29.827
545.16	29.928
545.50	28.920
545.84	29.234
546.18	29.764
546.52	29.043
546.86	28.247
547.20	30.681
547.54	29.659
547.88	29.783
548.22	29.265
548.56	28.616
548.90	28.425
549.24	28.148
549.58	29.400
549.92	29.052
550.26	28.693
550.60	27.455
550.94	29.930
551.28	26.920
551.62	28.684
551.96	28.070
552.30	29.625
552.64	28.533
552.98	27.864
553.32	27.916
553.66	29.243
554.00	28.483
554.34	27.467
554.68	28.898
555.02	27.997
555.36	28.671
555.69	26.861
556.03	28.398
556.37	28.786
556.71	27.217
557.05	27.871
557.39	27.012
557.73	28.017
558.07	28.789
558.41	28.582
558.75	27.627
559.08	27.890
559.42	27.740
559.76	27.941
560.10	27.766
560.44	28.162
560.78	26.813
561.12	27.836
561.45	27.901
561.79	26.434
562.13	26.224
562.47	26.161
562.81	27.127
563.15	26.288
563.48	26.790
563.82	26.941
564.16	26.553
564.50	26.562
564.84	25.917
565.17	26.705
565.51	26.581
565.85	26.904
566.19	25.861
566.52	26.536
566.86	24.895
567.20	25.825
567.54	25.856
567.88	25.204
568.21	25.767
568.55	25.430
568.89	25.049
569.23	24.287
569.56	23.887
569.90	24.038
570.24	23.610
570.57	24.073
570.91	23.045
571.25	22.977
571.59	23.800
571.92	22.696
572.26	23.224
572.60	23.093
572.93	23.148
573.27	22.656
573.61	22.976
573.95	22.610
574.28	22.789
574.62	22.570
574.96	22.413
575.29	21.848
575.63	22.358
575.97	22.156
576.30	22.146
576.64	22.441
576.98	22.217
577.31	22.274
577.65	22.020
577.98	22.115
578.32	21.565
578.66	21.887
578.99	22.004
579.33	21.714
579.67	21.601
580.00	21.817
580.34	21.642
580.67	21.461
581.01	21.633
581.35	21.620
581.68	21.090
582.02	20.675
582.35	21.483
582.69	21.281
583.02	21.134
583.36	21.259
583.70	22.103
584.03	21.761
584.37	21.845
584.70	21.813
585.04	21.600
585.37	21.156
585.71	21.734
586.04	21.527
586.38	21.630
586.72	21.265
587.05	21.217
587.39	21.847
587.72	21.618
588.06	21.371
588.39	21.783
588.73	21.707
589.06	21.969
589.40	22.020
589.73	22.175
590.07	21.779
590.40	20.753
590.73	22.053
591.07	22.507
591.40	22.016
591.74	22.511
592.07	21.990
592.41	22.034
592.74	21.423
593.08	21.552
593.41	21.702
593.75	20.518
594.08	21.388
594.41	21.527
594.75	21.220
595.08	21.152
595.42	20.841
595.75	21.902
596.09	21.742
596.42	22.436
596.75	21.317
597.09	22.381
597.42	21.164
597.75	21.647
598.09	21.000
598.42	21.263
598.76	21.038
599.09	20.981
599.42	21.215
599.76	21.193
600.09	20.474
600.42	20.855
600.76	20.786
601.09	21.020
601.42	21.043
601.76	21.139
602.09	21.107
602.42	21.059
602.76	21.121
603.09	21.125
603.42	21.125
603.76	20.694
604.09	20.473
604.42	21.035
604.76	21.383
605.09	21.232
605.42	20.906
605.75	20.281
606.09	20.171
606.42	20.556
606.75	20.821
607.09	20.385
607.42	20.282
607.75	20.000
608.08	20.625
608.42	20.843
608.75	19.883
609.08	20.583
609.41	21.466
609.75	20.534
610.08	20.594
610.41	20.484
610.74	20.293
611.07	20.306
611.41	21.295
611.74	21.669
612.07	20.859
612.40	21.039
612.73	20.000
613.07	22.037
613.40	20.590
613.73	20.189
614.06	20.699
614.39	21.447
614.72	20.421
615.06	21.744
615.39	20.701
615.72	20.654
616.05	20.255
616.38	20.067
616.71	21.318
617.05	21.731
617.38	21.527
617.71	20.661
618.04	20.913
618.37	21.053
618.70	21.344
619.03	21.711
619.36	21.928
619.69	20.915
620.03	21.978
620.36	21.791
620.69	21.712
621.02	21.165
621.35	22.083
621.68	21.262
622.01	21.594
622.34	22.239
622.67	22.053
623.00	20.763
623.33	20.515
623.66	21.730
623.99	20.913
624.32	20.328
624.65	20.551
624.99	20.113
625.32	21.289
625.65	21.638
625.98	22.137
626.31	21.540
626.64	22.776
626.97	22.111
627.30	22.361
627.63	22.559
627.96	21.867
628.29	21.960
628.62	22.049
628.95	23.113
629.28	22.445
629.61	23.190
629.94	22.667
630.26	22.402
630.59	21.163
630.92	22.989
