SpectraSuite Data File
++++++++++++++++++++++++++++++++++++
Date: Wed May 13 19:54:31 PDT 2015
User: schluterlab
Dark Spectrum Present: Yes
Reference Spectrum Present: Yes
Number of Sampled Component Spectra: 1
Spectrometers: USB2E3373
Integration Time (usec): 3000 (USB2E3373)
Spectra Averaged: 3 (USB2E3373)
Boxcar Smoothing: 0 (USB2E3373)
Correct for Electrical Dark: No (USB2E3373)
Strobe/Lamp Enabled: No (USB2E3373)
Correct for Detector Non-linearity: No (USB2E3373)
Correct for Stray Light: No (USB2E3373)
Number of Pixels in Processed Spectrum: 2048
>>>>>Begin Processed Spectral Data<<<<<
178.53	0.000
178.91	-1475.000
179.29	-1400.000
179.67	-222.222
180.04	-1525.000
180.42	2750.000
180.80	980.000
181.18	-1075.000
181.56	757.143
181.94	0.000
182.31	-742.857
182.69	1866.667
183.07	-650.000
183.45	-544.444
183.83	427.273
184.20	-420.000
184.58	2000.000
184.96	5300.000
185.34	-1060.000
185.72	-737.500
186.09	-2500.000
186.47	3200.000
186.85	2500.000
187.23	4800.000
187.61	-1633.333
187.98	1550.000
188.36	554.545
188.74	445.455
189.12	-940.000
189.49	560.000
189.87	-5700.000
190.25	-1350.000
190.63	421.429
191.00	453.846
191.38	866.667
191.76	-1250.000
192.14	1550.000
192.51	725.000
192.89	1033.333
193.27	725.000
193.65	-1375.000
194.02	530.000
194.40	1060.000
194.78	620.000
195.15	541.667
195.53	670.000
195.91	-2250.000
196.29	350.000
196.66	305.263
197.04	-350.000
197.42	0.000
197.79	650.000
198.17	-4700.000
198.55	700.000
198.92	712.500
199.30	1060.000
199.68	0.000
200.05	361.111
200.43	828.571
200.81	4600.000
201.18	1933.333
201.56	-1733.333
201.94	577.778
202.31	577.778
202.69	466.667
203.07	570.000
203.44	0.000
203.82	1225.000
204.19	714.286
204.57	442.857
204.95	837.500
205.32	1733.333
205.70	500.000
206.08	392.857
206.45	2900.000
206.83	431.250
207.20	1050.000
207.58	880.000
207.96	316.667
208.33	712.500
208.71	-850.000
209.08	828.571
209.46	622.222
209.84	454.545
210.21	-1566.667
210.59	1375.000
210.96	-475.000
211.34	2950.000
211.71	580.000
212.09	883.333
212.46	0.000
212.84	1700.000
213.22	1275.000
213.59	-5300.000
213.97	966.667
214.34	857.143
214.72	618.182
215.09	1080.000
215.47	-2600.000
215.84	-2500.000
216.22	1600.000
216.59	478.571
216.97	1475.000
217.34	481.818
217.72	-683.333
218.09	0.000
218.47	-4600.000
218.84	611.111
219.22	828.571
219.59	1900.000
219.97	-714.286
220.34	1220.000
220.72	-1733.333
221.09	421.429
221.47	1575.000
221.84	-816.667
222.22	0.000
222.59	1150.000
222.97	-2650.000
223.34	1080.000
223.72	400.000
224.09	1200.000
224.46	2950.000
224.84	-5500.000
225.21	-880.000
225.59	-5300.000
225.96	720.000
226.34	325.000
226.71	2900.000
227.08	750.000
227.46	480.000
227.83	-1000.000
228.21	-3200.000
228.58	577.778
228.95	-2850.000
229.33	-2600.000
229.70	1800.000
230.08	857.143
230.45	-1060.000
230.82	425.000
231.20	950.000
231.57	714.286
231.95	450.000
232.32	272.727
232.69	481.818
233.07	685.714
233.44	384.615
233.81	-1766.667
234.19	289.474
234.56	508.333
234.93	400.000
235.31	527.273
235.68	400.000
236.05	371.429
236.43	184.848
236.80	310.526
237.17	4900.000
237.55	304.762
237.92	228.571
238.29	242.857
238.67	200.000
239.04	248.276
239.41	177.778
239.79	130.435
240.16	192.857
240.53	175.000
240.91	129.412
241.28	136.000
241.65	142.000
242.02	126.087
242.40	132.258
242.77	138.333
243.14	104.301
243.51	100.000
243.89	104.706
244.26	84.444
244.63	97.849
245.00	95.745
245.38	93.069
245.75	96.262
246.12	79.817
246.49	81.752
246.87	92.800
247.24	83.846
247.61	75.000
247.98	71.895
248.36	74.324
248.73	71.975
249.10	74.522
249.47	75.706
249.84	66.845
250.22	67.914
250.59	73.373
250.96	74.747
251.33	68.720
251.70	65.842
252.08	69.524
252.45	65.471
252.82	66.087
253.19	65.957
253.56	63.529
253.94	62.241
254.31	64.062
254.68	62.692
255.05	64.207
255.42	63.821
255.79	62.500
256.16	60.289
256.54	57.244
256.91	60.854
257.28	61.151
257.65	61.056
258.02	59.938
258.39	60.568
258.76	59.532
259.14	53.869
259.51	61.094
259.88	56.211
260.25	58.006
260.62	55.491
260.99	63.665
261.36	57.658
261.73	53.295
262.10	57.558
262.47	55.775
262.85	56.546
263.22	54.701
263.59	58.405
263.96	54.121
264.33	51.697
264.70	53.684
265.07	54.476
265.44	54.293
265.81	50.608
266.18	56.784
266.55	56.098
266.92	54.791
267.29	51.852
267.66	54.587
268.03	52.045
268.40	52.804
268.77	53.222
269.14	52.252
269.51	54.176
269.88	55.012
270.25	51.016
270.62	50.562
270.99	52.473
271.36	51.502
271.73	51.402
272.10	51.739
272.47	54.624
272.84	50.866
273.21	50.105
273.58	51.310
273.95	49.686
274.32	49.380
274.69	53.533
275.06	48.031
275.43	52.979
275.80	49.098
276.17	49.898
276.54	52.391
276.91	51.581
277.28	47.656
277.65	50.097
278.02	49.482
278.39	49.219
278.76	47.091
279.13	49.434
279.50	48.417
279.87	47.610
280.23	51.297
280.60	49.903
280.97	48.244
281.34	49.027
281.71	47.818
282.08	48.944
282.45	48.909
282.82	50.089
283.19	48.485
283.56	48.596
283.92	47.716
284.29	47.972
284.66	47.368
285.03	48.282
285.40	46.479
285.77	46.296
286.14	46.632
286.51	47.167
286.87	44.957
287.24	47.394
287.61	44.141
287.98	44.156
288.35	44.532
288.72	43.614
289.08	44.131
289.45	44.481
289.82	43.902
290.19	42.543
290.56	42.266
290.93	41.692
291.29	41.871
291.66	41.593
292.03	42.006
292.40	43.612
292.77	40.680
293.13	39.403
293.50	40.816
293.87	40.593
294.24	41.778
294.60	38.719
294.97	40.843
295.34	39.210
295.71	37.926
296.08	37.179
296.44	38.239
296.81	37.649
297.18	39.295
297.55	35.620
297.91	36.148
298.28	38.153
298.65	36.292
299.02	36.891
299.38	37.450
299.75	35.175
300.12	34.994
300.48	36.625
300.85	35.512
301.22	37.197
301.59	35.480
301.95	36.524
302.32	36.714
302.69	34.170
303.05	34.909
303.42	35.062
303.79	33.749
304.15	33.566
304.52	33.256
304.89	32.288
305.25	34.339
305.62	33.296
305.99	36.128
306.35	33.221
306.72	34.193
307.09	34.184
307.45	34.572
307.82	32.254
308.19	32.781
308.55	33.225
308.92	32.546
309.29	32.101
309.65	32.238
310.02	33.192
310.38	32.688
310.75	32.841
311.12	32.242
311.48	32.602
311.85	32.285
312.22	34.235
312.58	33.160
312.95	32.418
313.31	30.291
313.68	32.121
314.05	34.024
314.41	30.854
314.78	31.722
315.14	32.274
315.51	31.720
315.87	32.673
316.24	32.175
316.61	32.943
316.97	32.485
317.34	31.213
317.70	34.321
318.07	33.975
318.43	32.681
318.80	31.865
319.16	34.087
319.53	32.739
319.89	33.714
320.26	34.800
320.62	34.821
320.99	34.343
321.35	34.343
321.72	36.448
322.08	36.426
322.45	36.020
322.81	34.496
323.18	36.320
323.54	36.085
323.91	36.698
324.27	36.616
324.64	37.745
325.00	36.700
325.37	39.126
325.73	39.138
326.10	39.100
326.46	38.530
326.83	39.948
327.19	39.283
327.56	39.808
327.92	40.420
328.29	41.526
328.65	42.541
329.01	42.419
329.38	41.073
329.74	41.828
330.11	41.942
330.47	44.077
330.84	43.382
331.20	42.623
331.56	42.385
331.93	44.259
332.29	42.857
332.66	43.363
333.02	43.144
333.38	43.812
333.75	43.316
334.11	43.683
334.48	45.430
334.84	45.129
335.20	46.091
335.57	44.424
335.93	44.643
336.29	46.337
336.66	46.528
337.02	43.167
337.38	46.111
337.75	44.920
338.11	44.763
338.47	45.488
338.84	45.921
339.20	46.881
339.56	46.989
339.93	45.455
340.29	47.101
340.65	47.148
341.02	47.033
341.38	46.975
341.74	46.754
342.11	46.725
342.47	47.577
342.83	46.318
343.20	46.407
343.56	46.841
343.92	48.421
344.28	48.214
344.65	47.893
345.01	46.970
345.37	47.341
345.73	47.716
346.10	47.997
346.46	48.559
346.82	46.787
347.19	47.201
347.55	47.291
347.91	48.301
348.27	48.233
348.63	47.659
349.00	47.492
349.36	49.261
349.72	47.955
350.08	48.379
350.45	47.600
350.81	48.903
351.17	47.893
351.53	49.386
351.89	46.535
352.26	49.566
352.62	49.078
352.98	49.271
353.34	49.384
353.70	48.445
354.07	48.790
354.43	48.730
354.79	47.466
355.15	50.519
355.51	49.800
355.87	49.878
356.24	50.489
356.60	48.757
356.96	49.155
357.32	48.978
357.68	49.528
358.04	49.089
358.40	48.773
358.77	49.844
359.13	48.382
359.49	51.765
359.85	49.841
360.21	49.203
360.57	50.506
360.93	50.462
361.29	49.131
361.66	49.458
362.02	50.970
362.38	50.190
362.74	50.074
363.10	47.964
363.46	50.697
363.82	49.206
364.18	49.633
364.54	51.263
364.90	50.496
365.26	51.618
365.62	50.840
365.98	50.110
366.35	50.143
366.71	51.772
367.07	50.109
367.43	52.322
367.79	50.892
368.15	51.509
368.51	50.509
368.87	52.177
369.23	51.865
369.59	51.774
369.95	51.838
370.31	49.929
370.67	52.029
371.03	51.985
371.39	51.676
371.75	51.912
372.11	50.427
372.47	52.933
372.83	52.233
373.19	51.517
373.55	53.067
373.91	53.829
374.27	50.859
374.63	51.491
374.99	52.542
375.35	52.408
375.71	52.365
376.07	53.361
376.42	53.026
376.78	52.353
377.14	52.171
377.50	53.179
377.86	51.795
378.22	52.402
378.58	52.256
378.94	53.048
379.30	51.272
379.66	54.061
380.02	52.211
380.38	52.580
380.74	53.661
381.09	53.178
381.45	54.149
381.81	53.378
382.17	53.567
382.53	52.075
382.89	53.704
383.25	53.408
383.61	53.903
383.97	52.971
384.32	52.215
384.68	53.903
385.04	52.981
385.40	53.560
385.76	53.194
386.12	54.469
386.48	54.374
386.83	55.420
387.19	54.917
387.55	54.545
387.91	54.172
388.27	53.525
388.62	55.009
388.98	53.501
389.34	54.380
389.70	54.261
390.06	54.373
390.42	56.096
390.77	54.389
391.13	56.796
391.49	55.013
391.85	54.679
392.20	54.826
392.56	55.745
392.92	54.385
393.28	53.846
393.64	55.276
393.99	55.223
394.35	55.583
394.71	55.019
395.07	54.766
395.42	56.057
395.78	54.707
396.14	55.245
396.50	56.328
396.85	56.580
397.21	53.268
397.57	55.177
397.92	54.567
398.28	55.269
398.64	54.958
399.00	55.120
399.35	54.879
399.71	54.803
400.07	55.707
400.42	56.564
400.78	56.454
401.14	55.244
401.49	56.119
401.85	54.749
402.21	53.952
402.57	55.028
402.92	56.179
403.28	56.590
403.63	55.012
403.99	56.115
404.35	55.152
404.70	54.017
405.06	55.737
405.42	54.897
405.77	55.314
406.13	54.289
406.49	55.234
406.84	54.578
407.20	55.378
407.55	56.414
407.91	56.600
408.27	55.520
408.62	55.569
408.98	54.963
409.34	55.843
409.69	56.968
410.05	55.143
410.40	54.924
410.76	54.779
411.11	55.006
411.47	54.760
411.83	55.956
412.18	54.855
412.54	56.289
412.89	54.880
413.25	55.431
413.60	57.011
413.96	53.855
414.31	55.225
414.67	54.499
415.03	55.166
415.38	55.026
415.74	55.627
416.09	56.760
416.45	55.087
416.80	56.114
417.16	55.965
417.51	56.005
417.87	54.143
418.22	56.467
418.58	55.649
418.93	54.545
419.29	53.596
419.64	55.227
420.00	55.671
420.35	53.739
420.71	55.290
421.06	55.549
421.42	55.263
421.77	55.830
422.12	54.576
422.48	53.265
422.83	53.640
423.19	55.193
423.54	54.788
423.90	55.478
424.25	53.769
424.61	53.571
424.96	54.577
425.31	54.042
425.67	53.483
426.02	53.143
426.38	55.800
426.73	53.891
427.09	54.286
427.44	54.687
427.79	54.342
428.15	54.048
428.50	53.950
428.85	53.874
429.21	53.617
429.56	53.810
429.92	53.498
430.27	53.376
430.62	52.535
430.98	51.998
431.33	53.144
431.68	52.670
432.04	51.704
432.39	53.684
432.74	54.039
433.10	53.028
433.45	54.694
433.80	53.769
434.16	53.045
434.51	53.000
434.86	52.908
435.22	53.141
435.57	53.435
435.92	52.487
436.28	54.152
436.63	52.870
436.98	52.719
437.34	52.355
437.69	53.092
438.04	52.052
438.39	52.896
438.75	52.760
439.10	53.520
439.45	52.243
439.81	52.326
440.16	51.666
440.51	52.197
440.86	52.345
441.22	53.393
441.57	51.168
441.92	52.303
442.27	51.722
442.63	50.290
442.98	52.394
443.33	52.120
443.68	51.213
444.03	50.464
444.39	50.633
444.74	51.082
445.09	51.590
445.44	51.011
445.79	50.520
446.15	50.821
446.50	51.212
446.85	51.028
447.20	51.249
447.55	50.810
447.91	51.296
448.26	51.085
448.61	50.876
448.96	50.498
449.31	50.506
449.66	50.028
450.02	50.139
450.37	50.397
450.72	49.351
451.07	48.934
451.42	49.240
451.77	49.677
452.12	48.730
452.47	49.938
452.83	49.592
453.18	50.183
453.53	51.206
453.88	49.675
454.23	49.432
454.58	50.515
454.93	51.558
455.28	48.691
455.63	49.150
455.98	49.167
456.34	48.555
456.69	48.842
457.04	50.402
457.39	48.802
457.74	48.462
458.09	49.511
458.44	48.404
458.79	46.746
459.14	48.420
459.49	48.219
459.84	47.036
460.19	47.555
460.54	46.412
460.89	47.394
461.24	47.662
461.59	47.647
461.94	47.287
462.29	47.537
462.64	47.543
462.99	46.194
463.34	47.600
463.69	47.029
464.04	46.899
464.39	45.913
464.74	46.405
465.09	46.562
465.44	45.706
465.79	46.812
466.14	44.718
466.49	46.162
466.84	46.585
467.19	44.780
467.54	46.562
467.89	43.818
468.24	44.619
468.59	45.971
468.94	44.960
469.29	45.758
469.64	45.181
469.99	45.399
470.34	45.046
470.68	45.977
471.03	44.558
471.38	44.336
471.73	44.504
472.08	45.461
472.43	43.279
472.78	43.976
473.13	44.031
473.48	43.258
473.83	43.963
474.17	44.306
474.52	44.851
474.87	44.016
475.22	43.355
475.57	42.719
475.92	42.963
476.27	41.939
476.61	43.298
476.96	42.606
477.31	42.229
477.66	42.560
478.01	40.826
478.36	42.570
478.70	42.316
479.05	42.705
479.40	42.016
479.75	42.095
480.10	41.899
480.45	41.837
480.79	40.803
481.14	40.998
481.49	41.671
481.84	40.878
482.19	40.572
482.53	41.239
482.88	39.926
483.23	40.327
483.58	40.446
483.92	40.722
484.27	39.521
484.62	39.526
484.97	39.101
485.31	40.616
485.66	40.438
486.01	39.573
486.36	38.092
486.70	37.097
487.05	37.641
487.40	37.972
487.75	37.815
488.09	37.610
488.44	37.058
488.79	38.879
489.13	38.961
489.48	38.907
489.83	38.714
490.17	38.843
490.52	37.954
490.87	38.580
491.22	38.790
491.56	37.813
491.91	37.878
492.26	37.896
492.60	37.327
492.95	37.886
493.30	38.178
493.64	37.984
493.99	37.604
494.34	37.789
494.68	38.278
495.03	37.923
495.37	37.738
495.72	37.719
496.07	37.912
496.41	36.903
496.76	36.939
497.11	37.551
497.45	36.563
497.80	37.140
498.14	36.232
498.49	37.659
498.84	36.913
499.18	36.714
499.53	37.037
499.87	37.046
500.22	35.893
500.56	38.495
500.91	35.962
501.26	36.273
501.60	37.447
501.95	35.610
502.29	36.551
502.64	36.313
502.98	36.138
503.33	35.878
503.67	36.241
504.02	36.296
504.36	35.985
504.71	36.102
505.06	36.193
505.40	35.877
505.75	35.005
506.09	36.297
506.44	36.014
506.78	36.191
507.13	36.194
507.47	36.111
507.82	35.410
508.16	36.322
508.51	36.428
508.85	34.359
509.19	35.612
509.54	35.357
509.88	34.261
510.23	35.784
510.57	36.378
510.92	34.904
511.26	34.173
511.61	34.492
511.95	34.342
512.30	33.404
512.64	34.874
512.98	34.727
513.33	34.904
513.67	34.418
514.02	33.442
514.36	34.025
514.70	34.975
515.05	33.687
515.39	35.278
515.74	34.516
516.08	35.606
516.42	34.739
516.77	35.173
517.11	33.463
517.46	35.045
517.80	34.321
518.14	34.279
518.49	34.422
518.83	34.375
519.17	33.891
519.52	34.126
519.86	34.284
520.20	33.642
520.55	34.650
520.89	34.428
521.23	34.680
521.58	33.914
521.92	34.293
522.26	32.276
522.61	34.206
522.95	34.009
523.29	33.475
523.64	34.878
523.98	34.258
524.32	34.138
524.66	33.554
525.01	33.762
525.35	32.466
525.69	33.128
526.04	33.333
526.38	33.374
526.72	33.436
527.06	33.710
527.41	31.498
527.75	33.248
528.09	33.654
528.43	33.461
528.78	33.927
529.12	32.606
529.46	32.762
529.80	33.416
530.15	33.769
530.49	32.369
530.83	33.418
531.17	33.877
531.51	33.398
531.86	33.355
532.20	34.029
532.54	33.696
532.88	32.413
533.22	32.230
533.57	33.210
533.91	32.872
534.25	33.111
534.59	32.825
534.93	32.421
535.27	32.770
535.62	32.234
535.96	32.329
536.30	32.168
536.64	32.646
536.98	33.311
537.32	32.916
537.66	32.867
538.01	33.048
538.35	32.450
538.69	32.674
539.03	31.969
539.37	31.246
539.71	31.432
540.05	33.268
540.39	32.558
540.73	32.018
541.07	33.550
541.42	32.159
541.76	32.645
542.10	32.083
542.44	31.656
542.78	32.938
543.12	30.966
543.46	31.934
543.80	31.490
544.14	32.285
544.48	32.444
544.82	31.687
545.16	32.466
545.50	30.848
545.84	32.325
546.18	32.256
546.52	31.934
546.86	31.753
547.20	33.176
547.54	32.198
547.88	32.589
548.22	31.320
548.56	31.824
548.90	31.818
549.24	30.842
549.58	32.469
549.92	31.662
550.26	31.179
550.60	31.051
550.94	31.056
551.28	30.432
551.62	31.704
551.96	31.158
552.30	32.969
552.64	31.711
552.98	31.797
553.32	31.625
553.66	30.879
554.00	31.023
554.34	31.470
554.68	30.687
555.02	30.395
555.36	32.498
555.69	31.732
556.03	31.830
556.37	31.446
556.71	30.696
557.05	29.482
557.39	30.791
557.73	30.840
558.07	30.964
558.41	30.608
558.75	31.154
559.08	31.320
559.42	31.293
559.76	31.397
560.10	29.693
560.44	30.608
560.78	30.073
561.12	30.211
561.45	30.965
561.79	29.730
562.13	31.120
562.47	30.738
562.81	31.241
563.15	29.632
563.48	31.432
563.82	30.137
564.16	30.085
564.50	29.818
564.84	30.278
565.17	30.631
565.51	30.288
565.85	30.330
566.19	29.806
566.52	30.082
566.86	29.415
567.20	30.130
567.54	30.822
567.88	30.092
568.21	30.423
568.55	29.828
568.89	30.058
569.23	29.501
569.56	29.636
569.90	29.887
570.24	29.530
570.57	29.650
570.91	28.862
571.25	28.907
571.59	28.395
571.92	29.407
572.26	29.405
572.60	28.018
572.93	28.306
573.27	28.897
573.61	28.811
573.95	28.605
574.28	28.342
574.62	29.082
574.96	28.554
575.29	28.322
575.63	28.659
575.97	28.300
576.30	28.412
576.64	28.633
576.98	28.512
577.31	28.581
577.65	29.316
577.98	28.388
578.32	27.343
578.66	28.595
578.99	28.692
579.33	28.322
579.67	27.098
580.00	28.171
580.34	28.192
580.67	27.818
581.01	28.311
581.35	28.268
581.68	28.919
582.02	27.794
582.35	28.535
582.69	28.463
583.02	27.851
583.36	28.245
583.70	27.947
584.03	27.743
584.37	27.642
584.70	28.056
585.04	27.715
585.37	28.029
585.71	28.266
586.04	28.195
586.38	28.579
586.72	28.666
587.05	27.982
587.39	27.704
587.72	28.060
588.06	27.641
588.39	27.901
588.73	27.838
589.06	28.794
589.40	28.013
589.73	27.842
590.07	28.221
590.40	27.585
590.73	28.025
591.07	28.571
591.40	28.132
591.74	28.918
592.07	28.709
592.41	28.317
592.74	28.277
593.08	28.581
593.41	28.630
593.75	28.107
594.08	28.059
594.41	27.996
594.75	28.503
595.08	28.132
595.42	28.511
595.75	28.348
596.09	28.427
596.42	28.055
596.75	28.198
597.09	28.442
597.42	28.120
597.75	28.288
598.09	28.652
598.42	28.050
598.76	27.969
599.09	28.620
599.42	27.838
599.76	28.148
600.09	27.832
600.42	28.086
600.76	27.429
601.09	28.233
601.42	27.892
601.76	27.970
602.09	27.470
602.42	28.185
602.76	27.771
603.09	27.695
603.42	27.372
603.76	27.668
604.09	27.918
604.42	28.007
604.76	28.005
605.09	27.916
605.42	27.448
605.75	27.939
606.09	27.816
606.42	28.075
606.75	28.287
607.09	27.459
607.42	27.771
607.75	27.004
608.08	26.965
608.42	28.014
608.75	28.179
609.08	26.920
609.41	27.416
609.75	27.203
610.08	28.417
610.41	27.607
610.74	27.200
611.07	27.717
611.41	28.116
611.74	28.457
612.07	29.037
612.40	27.912
612.73	27.789
613.07	28.610
613.40	27.804
613.73	27.111
614.06	28.065
614.39	28.002
614.72	27.474
615.06	27.994
615.39	27.919
615.72	27.352
616.05	27.379
616.38	27.626
616.71	28.504
617.05	28.445
617.38	28.082
617.71	27.628
618.04	28.125
618.37	28.031
618.70	27.940
619.03	28.684
619.36	27.563
619.69	27.887
620.03	28.365
620.36	28.142
620.69	28.562
621.02	27.729
621.35	27.878
621.68	27.726
622.01	26.935
622.34	28.896
622.67	28.669
623.00	27.806
623.33	27.305
623.66	28.878
623.99	27.909
624.32	27.247
624.65	27.825
624.99	27.762
625.32	28.385
625.65	28.099
625.98	28.209
626.31	27.294
626.64	28.163
626.97	28.928
627.30	27.515
627.63	28.302
627.96	29.521
628.29	27.997
628.62	28.911
628.95	29.906
629.28	28.102
629.61	28.873
629.94	30.095
630.26	28.503
630.59	27.741
