SpectraSuite Data File
++++++++++++++++++++++++++++++++++++
Date: Wed May 13 19:33:58 PDT 2015
User: schluterlab
Dark Spectrum Present: Yes
Reference Spectrum Present: Yes
Number of Sampled Component Spectra: 1
Spectrometers: USB2E3373
Integration Time (usec): 3000 (USB2E3373)
Spectra Averaged: 3 (USB2E3373)
Boxcar Smoothing: 0 (USB2E3373)
Correct for Electrical Dark: No (USB2E3373)
Strobe/Lamp Enabled: No (USB2E3373)
Correct for Detector Non-linearity: No (USB2E3373)
Correct for Stray Light: No (USB2E3373)
Number of Pixels in Processed Spectrum: 2048
>>>>>Begin Processed Spectral Data<<<<<
178.53	0.000
178.91	-1225.000
179.29	-1425.000
179.67	-244.444
180.04	-1475.000
180.42	3100.000
180.80	1280.000
181.18	-1000.000
181.56	714.286
181.94	0.000
182.31	-914.286
182.69	1900.000
183.07	-537.500
183.45	-633.333
183.83	627.273
184.20	-390.000
184.58	2400.000
184.96	6100.000
185.34	-1080.000
185.72	-712.500
186.09	-2900.000
186.47	2550.000
186.85	2550.000
187.23	5400.000
187.61	-1766.667
187.98	1500.000
188.36	527.273
188.74	545.455
189.12	-960.000
189.49	620.000
189.87	-5000.000
190.25	-1250.000
190.63	471.429
191.00	384.615
191.38	950.000
191.76	-1300.000
192.14	1650.000
192.51	662.500
192.89	1016.667
193.27	650.000
193.65	-1175.000
194.02	490.000
194.40	980.000
194.78	640.000
195.15	533.333
195.53	650.000
195.91	-2350.000
196.29	400.000
196.66	310.526
197.04	-380.000
197.42	0.000
197.79	600.000
198.17	-5200.000
198.55	700.000
198.92	737.500
199.30	940.000
199.68	0.000
200.05	394.444
200.43	885.714
200.81	5000.000
201.18	1566.667
201.56	-1866.667
201.94	688.889
202.31	677.778
202.69	475.000
203.07	580.000
203.44	0.000
203.82	1425.000
204.19	828.571
204.57	478.571
204.95	712.500
205.32	1800.000
205.70	518.182
206.08	428.571
206.45	2500.000
206.83	362.500
207.20	866.667
207.58	840.000
207.96	322.222
208.33	687.500
208.71	-916.667
209.08	785.714
209.46	644.444
209.84	581.818
210.21	-1433.333
210.59	1650.000
210.96	-525.000
211.34	2800.000
211.71	560.000
212.09	800.000
212.46	0.000
212.84	1933.333
213.22	1450.000
213.59	-5100.000
213.97	983.333
214.34	971.429
214.72	654.545
215.09	860.000
215.47	-2950.000
215.84	-2800.000
216.22	1900.000
216.59	450.000
216.97	1225.000
217.34	509.091
217.72	-750.000
218.09	0.000
218.47	-5200.000
218.84	666.667
219.22	814.286
219.59	1666.667
219.97	-585.714
220.34	1060.000
220.72	-1933.333
221.09	464.286
221.47	1600.000
221.84	-883.333
222.22	0.000
222.59	1550.000
222.97	-2550.000
223.34	1340.000
223.72	492.308
224.09	1080.000
224.46	2650.000
224.84	-4800.000
225.21	-1060.000
225.59	-5000.000
225.96	670.000
226.34	315.000
226.71	2850.000
227.08	725.000
227.46	640.000
227.83	-975.000
228.21	-2100.000
228.58	600.000
228.95	-2500.000
229.33	-2450.000
229.70	1700.000
230.08	871.429
230.45	-820.000
230.82	500.000
231.20	750.000
231.57	814.286
231.95	483.333
232.32	218.182
232.69	436.364
233.07	814.286
233.44	353.846
233.81	-1866.667
234.19	336.842
234.56	466.667
234.93	400.000
235.31	500.000
235.68	407.692
236.05	378.571
236.43	224.242
236.80	336.842
237.17	4200.000
237.55	280.952
237.92	203.571
238.29	266.667
238.67	141.935
239.04	193.103
239.41	127.778
239.79	110.870
240.16	133.333
240.53	120.455
240.91	92.157
241.28	80.000
241.65	92.000
242.02	79.710
242.40	87.097
242.77	81.667
243.14	64.516
243.51	79.775
243.89	71.765
244.26	52.222
244.63	56.989
245.00	46.809
245.38	51.485
245.75	53.271
246.12	48.624
246.49	48.905
246.87	50.400
247.24	51.538
247.61	40.714
247.98	35.294
248.36	34.459
248.73	34.395
249.10	39.490
249.47	35.028
249.84	34.759
250.22	31.016
250.59	31.361
250.96	32.323
251.33	30.806
251.70	34.158
252.08	27.619
252.45	24.664
252.82	24.348
253.19	28.511
253.56	25.882
253.94	28.216
254.31	23.437
254.68	23.462
255.05	25.092
255.42	21.951
255.79	21.691
256.16	24.188
256.54	20.495
256.91	20.996
257.28	18.345
257.65	19.802
258.02	22.671
258.39	20.505
258.76	19.064
259.14	17.560
259.51	17.933
259.88	17.702
260.25	19.033
260.62	17.919
260.99	15.839
261.36	18.619
261.73	18.625
262.10	14.826
262.47	18.310
262.85	18.384
263.22	17.094
263.59	19.943
263.96	15.934
264.33	16.710
264.70	18.421
265.07	17.903
265.44	16.667
265.81	14.842
266.18	15.578
266.55	14.634
266.92	15.725
267.29	16.667
267.66	14.220
268.03	14.545
268.40	15.421
268.77	14.797
269.14	13.063
269.51	16.479
269.88	15.851
270.25	13.318
270.62	11.011
270.99	15.914
271.36	15.236
271.73	11.916
272.10	15.435
272.47	14.194
272.84	15.368
273.21	16.771
273.58	11.572
273.95	12.159
274.32	14.050
274.69	12.848
275.06	9.843
275.43	12.553
275.80	13.828
276.17	12.220
276.54	12.474
276.91	13.439
277.28	11.914
277.65	11.605
278.02	11.387
278.39	12.305
278.76	12.727
279.13	12.830
279.50	12.477
279.87	11.753
280.23	12.176
280.60	10.832
280.97	12.015
281.34	12.566
281.71	13.636
282.08	12.284
282.45	12.000
282.82	11.012
283.19	8.378
283.56	12.456
283.92	11.337
284.29	10.758
284.66	10.708
285.03	9.403
285.40	10.739
285.77	10.943
286.14	10.708
286.51	10.833
286.87	12.137
287.24	12.052
287.61	10.915
287.98	10.714
288.35	11.727
288.72	11.526
289.08	10.642
289.45	9.720
289.82	10.732
290.19	9.262
290.56	9.801
290.93	8.912
291.29	9.356
291.66	8.850
292.03	12.791
292.40	9.985
292.77	9.024
293.13	9.851
293.50	11.079
293.87	8.296
294.24	9.778
294.60	9.461
294.97	10.174
295.34	10.719
295.71	10.085
296.08	9.117
296.44	8.941
296.81	8.322
297.18	10.434
297.55	7.520
297.91	7.916
298.28	9.906
298.65	10.052
299.02	8.564
299.38	9.296
299.75	6.739
300.12	8.174
300.48	8.125
300.85	8.755
301.22	8.535
301.59	7.576
301.95	8.816
302.32	7.959
302.69	7.407
303.05	8.727
303.42	7.654
303.79	8.834
304.15	7.459
304.52	7.068
304.89	7.433
305.25	8.585
305.62	9.513
305.99	8.264
306.35	8.054
306.72	7.287
307.09	8.768
307.45	10.248
307.82	7.143
308.19	8.720
308.55	9.169
308.92	8.915
309.29	7.075
309.65	8.802
310.02	9.408
310.38	8.602
310.75	8.237
311.12	10.338
311.48	9.404
311.85	8.910
312.22	8.845
312.58	8.108
312.95	11.404
313.31	9.417
313.68	9.252
314.05	12.821
314.41	10.653
314.78	10.675
315.14	10.328
315.51	12.049
315.87	11.188
316.24	11.221
316.61	11.988
316.97	12.524
317.34	12.035
317.70	13.862
318.07	14.052
318.43	13.503
318.80	14.995
319.16	14.689
319.53	15.197
319.89	16.571
320.26	17.000
320.62	16.766
320.99	18.889
321.35	17.879
321.72	20.637
322.08	19.250
322.45	20.398
322.81	22.384
323.18	21.580
323.54	22.263
323.91	21.981
324.27	22.371
324.64	22.647
325.00	24.076
325.37	25.660
325.73	26.840
326.10	27.096
326.46	27.330
326.83	27.869
327.19	27.156
327.56	29.355
327.92	30.184
328.29	30.790
328.65	31.676
329.01	30.235
329.38	31.730
329.74	31.671
330.11	32.705
330.47	33.058
330.84	33.732
331.20	32.969
331.56	32.844
331.93	35.093
332.29	33.984
332.66	34.956
333.02	35.832
333.38	36.314
333.75	37.344
334.11	37.456
334.48	36.735
334.84	37.776
335.20	37.364
335.57	37.987
335.93	36.964
336.29	37.821
336.66	38.503
337.02	37.557
337.38	38.519
337.75	37.701
338.11	39.123
338.47	38.398
338.84	41.155
339.20	37.982
339.56	41.150
339.93	39.818
340.29	40.217
340.65	39.483
341.02	39.791
341.38	41.548
341.74	41.491
342.11	40.961
342.47	40.969
342.83	41.096
343.20	41.472
343.56	39.259
343.92	41.667
344.28	41.156
344.65	41.531
345.01	41.498
345.37	41.767
345.73	41.963
346.10	41.603
346.46	40.847
346.82	41.351
347.19	42.439
347.55	41.379
347.91	43.123
348.27	42.564
348.63	42.391
349.00	42.395
349.36	41.790
349.72	41.219
350.08	40.357
350.45	43.043
350.81	42.080
351.17	42.545
351.53	42.179
351.89	40.759
352.26	43.094
352.62	42.662
352.98	42.950
353.34	43.961
353.70	42.471
354.07	42.016
354.43	42.857
354.79	42.719
355.15	41.820
355.51	43.885
355.87	44.653
356.24	42.915
356.60	42.743
356.96	43.926
357.32	44.317
357.68	44.409
358.04	44.022
358.40	44.181
358.77	43.192
359.13	43.094
359.49	43.529
359.85	42.381
360.21	43.620
360.57	44.903
360.93	44.769
361.29	42.782
361.66	43.344
362.02	44.627
362.38	44.487
362.74	43.973
363.10	43.671
363.46	43.580
363.82	44.067
364.18	43.759
364.54	44.799
364.90	45.042
365.26	44.265
365.62	44.193
365.98	43.682
366.35	43.338
366.71	43.384
367.07	45.375
367.43	44.267
367.79	44.111
368.15	45.546
368.51	43.968
368.87	45.111
369.23	44.696
369.59	44.243
369.95	44.485
370.31	43.447
370.67	43.841
371.03	45.693
371.39	45.190
371.75	44.044
372.11	42.817
372.47	43.035
372.83	46.110
373.19	43.714
373.55	44.568
373.91	45.066
374.27	44.055
374.63	42.473
374.99	43.997
375.35	42.708
375.71	44.071
376.07	44.307
376.42	44.911
376.78	44.069
377.14	44.030
377.50	44.834
377.86	43.218
378.22	44.817
378.58	43.108
378.94	43.683
379.30	43.957
379.66	43.909
380.02	44.840
380.38	42.441
380.74	43.878
381.09	43.093
381.45	43.884
381.81	43.243
382.17	43.376
382.53	43.585
382.89	44.506
383.25	44.278
383.61	43.680
383.97	44.028
384.32	43.980
384.68	42.255
385.04	43.639
385.40	42.786
385.76	42.813
386.12	43.394
386.48	42.857
386.83	43.233
387.19	44.218
387.55	42.857
387.91	42.926
388.27	42.673
388.62	43.208
388.98	42.015
389.34	42.991
389.70	42.918
390.06	43.346
390.42	42.866
390.77	43.193
391.13	42.310
391.49	42.576
391.85	41.948
392.20	41.451
392.56	42.298
392.92	42.790
393.28	41.598
393.64	41.906
393.99	40.806
394.35	42.618
394.71	40.464
395.07	41.371
395.42	42.336
395.78	42.176
396.14	41.465
396.50	41.353
396.85	42.530
397.21	40.814
397.57	41.290
397.92	40.865
398.28	40.022
398.64	41.099
399.00	40.571
399.35	39.368
399.71	39.988
400.07	40.213
400.42	40.982
400.78	40.470
401.14	39.329
401.49	41.015
401.85	40.593
402.21	39.042
402.57	39.482
402.92	40.038
403.28	39.975
403.63	38.985
403.99	39.427
404.35	38.909
404.70	40.228
405.06	38.381
405.42	40.299
405.77	39.029
406.13	37.528
406.49	39.444
406.84	37.862
407.20	37.707
407.55	38.928
407.91	39.000
408.27	40.204
408.62	37.929
408.98	38.787
409.34	38.376
409.69	38.065
410.05	38.600
410.40	36.636
410.76	38.172
411.11	36.610
411.47	36.933
411.83	37.874
412.18	36.735
412.54	37.422
412.89	37.651
413.25	36.541
413.60	37.739
413.96	35.276
414.31	36.756
414.67	36.502
415.03	36.954
415.38	37.500
415.74	36.527
416.09	36.251
416.45	37.082
416.80	36.286
417.16	36.662
417.51	36.828
417.87	35.389
418.22	36.088
418.58	37.379
418.93	35.504
419.29	35.391
419.64	35.642
420.00	35.732
420.35	35.014
420.71	35.923
421.06	34.487
421.42	34.854
421.77	35.034
422.12	34.363
422.48	34.107
422.83	34.945
423.19	33.481
423.54	34.591
423.90	34.609
424.25	33.948
424.61	34.107
424.96	34.694
425.31	33.832
425.67	33.146
426.02	33.600
426.38	34.249
426.73	33.762
427.09	33.739
427.44	32.720
427.79	33.180
428.15	33.512
428.50	32.534
428.85	33.492
429.21	31.971
429.56	32.867
429.92	32.058
430.27	31.976
430.62	31.695
430.98	31.863
431.33	32.010
431.68	32.408
432.04	32.907
432.39	32.153
432.74	33.154
433.10	32.711
433.45	32.012
433.80	30.820
434.16	31.784
434.51	31.632
434.86	32.041
435.22	31.518
435.57	31.611
435.92	31.890
436.28	31.495
436.63	31.623
436.98	30.967
437.34	31.008
437.69	32.322
438.04	30.748
438.39	30.866
438.75	31.319
439.10	31.061
439.45	30.460
439.81	30.634
440.16	30.096
440.51	30.521
440.86	30.400
441.22	30.033
441.57	30.573
441.92	29.580
442.27	30.301
442.63	30.016
442.98	29.915
443.33	29.891
443.68	29.479
444.03	29.039
444.39	28.676
444.74	29.437
445.09	29.057
445.44	28.650
445.79	28.699
446.15	28.798
446.50	28.648
446.85	28.931
447.20	28.557
447.55	29.090
447.91	29.233
448.26	28.993
448.61	28.151
448.96	28.239
449.31	28.965
449.66	29.150
450.02	27.911
450.37	27.721
450.72	27.693
451.07	27.605
451.42	27.720
451.77	28.068
452.12	28.002
452.47	28.234
452.83	27.914
453.18	27.812
453.53	27.458
453.88	27.466
454.23	27.735
454.58	28.952
454.93	28.417
455.28	27.120
455.63	26.820
455.98	28.690
456.34	27.513
456.69	27.614
457.04	27.183
457.39	26.476
457.74	26.524
458.09	26.797
458.44	26.226
458.79	26.030
459.14	27.483
459.49	25.803
459.84	25.319
460.19	25.751
460.54	25.694
460.89	26.495
461.24	26.472
461.59	26.496
461.94	25.647
462.29	26.588
462.64	24.952
462.99	25.960
463.34	26.400
463.69	25.641
464.04	25.855
464.39	25.391
464.74	25.074
465.09	25.694
465.44	24.488
465.79	25.112
466.14	25.123
466.49	24.138
466.84	25.511
467.19	24.442
467.54	25.750
467.89	24.670
468.24	25.364
468.59	24.725
468.94	24.496
469.29	25.064
469.64	25.033
469.99	25.440
470.34	24.637
470.68	24.928
471.03	23.878
471.38	24.392
471.73	24.584
472.08	25.000
472.43	24.246
472.78	24.556
473.13	24.647
473.48	24.095
473.83	23.293
474.17	23.709
474.52	24.876
474.87	23.584
475.22	24.086
475.57	22.515
475.92	23.101
476.27	23.337
476.61	23.056
476.96	23.255
477.31	22.449
477.66	22.867
478.01	22.060
478.36	22.792
478.70	21.859
479.05	22.524
479.40	21.801
479.75	22.115
480.10	22.117
480.45	21.752
480.79	21.548
481.14	21.918
481.49	22.117
481.84	21.536
482.19	21.036
482.53	20.826
482.88	21.545
483.23	21.495
483.58	21.838
483.92	21.275
484.27	20.610
484.62	21.207
484.97	20.615
485.31	20.377
485.66	19.444
486.01	18.368
486.36	17.838
486.70	17.313
487.05	17.885
487.40	18.973
487.75	19.113
488.09	19.260
488.44	19.880
488.79	20.289
489.13	20.092
489.48	19.780
489.83	19.724
490.17	20.605
490.52	19.929
490.87	20.443
491.22	20.373
491.56	20.000
491.91	19.730
492.26	19.844
492.60	20.184
492.95	19.925
493.30	20.093
493.64	19.879
493.99	19.313
494.34	19.611
494.68	20.009
495.03	19.408
495.37	18.846
495.72	19.347
496.07	19.768
496.41	18.717
496.76	19.701
497.11	19.586
497.45	19.795
497.80	19.962
498.14	19.324
498.49	19.317
498.84	19.799
499.18	19.238
499.53	19.611
499.87	19.012
500.22	18.512
500.56	19.951
500.91	19.135
501.26	18.303
501.60	19.317
501.95	19.019
502.29	18.322
502.64	18.715
502.98	18.934
503.33	18.053
503.67	18.561
504.02	18.241
504.36	18.437
504.71	18.710
505.06	18.265
505.40	18.036
505.75	17.454
506.09	18.222
506.44	18.796
506.78	18.704
507.13	18.274
507.47	19.899
507.82	18.946
508.16	18.288
508.51	18.620
508.85	18.322
509.19	18.163
509.54	17.806
509.88	18.083
510.23	18.201
510.57	18.989
510.92	18.125
511.26	17.626
511.61	18.205
511.95	17.380
512.30	18.134
512.64	17.894
512.98	18.114
513.33	18.897
513.67	17.930
514.02	17.478
514.36	18.514
514.70	17.377
515.05	16.676
515.39	17.891
515.74	18.468
516.08	18.390
516.42	18.368
516.77	18.673
517.11	17.758
517.46	18.172
517.80	17.712
518.14	17.313
518.49	18.786
518.83	18.295
519.17	18.360
519.52	18.449
519.86	18.483
520.20	17.919
520.55	17.654
520.89	18.127
521.23	17.853
521.58	18.247
521.92	17.697
522.26	18.243
522.61	18.629
522.95	17.618
523.29	17.529
523.64	18.232
523.98	18.238
524.32	18.154
524.66	17.679
525.01	18.260
525.35	17.720
525.69	17.980
526.04	17.445
526.38	18.792
526.72	16.994
527.06	18.644
527.41	16.399
527.75	17.685
528.09	17.919
528.43	17.336
528.78	17.455
529.12	16.970
529.46	17.514
529.80	17.822
530.15	17.383
530.49	17.477
530.83	18.418
531.17	18.473
531.51	18.612
531.86	17.355
532.20	17.992
532.54	17.681
532.88	17.843
533.22	17.177
533.57	18.210
533.91	16.737
534.25	16.039
534.59	17.694
534.93	17.192
535.27	16.958
535.62	16.667
535.96	17.451
536.30	16.402
536.64	17.579
536.98	16.855
537.32	16.261
537.66	17.133
538.01	16.458
538.35	16.677
538.69	17.741
539.03	16.634
539.37	16.230
539.71	15.943
540.05	17.386
540.39	17.076
540.73	16.365
541.07	17.197
541.42	18.004
541.76	16.710
542.10	17.206
542.44	16.623
542.78	16.733
543.12	16.891
543.46	17.246
543.80	17.046
544.14	16.431
544.48	17.524
544.82	16.806
545.16	16.851
545.50	16.838
545.84	16.868
546.18	17.172
546.52	16.999
546.86	16.701
547.20	16.790
547.54	17.568
547.88	16.901
548.22	16.376
548.56	15.912
548.90	16.325
549.24	16.162
549.58	16.985
549.92	16.552
550.26	16.619
550.60	16.390
550.94	16.268
551.28	16.240
551.62	15.888
551.96	17.123
552.30	17.338
552.64	15.957
552.98	16.949
553.32	16.049
553.66	16.769
554.00	16.404
554.34	17.115
554.68	16.524
555.02	16.714
555.36	15.936
555.69	16.171
556.03	15.882
556.37	15.894
556.71	15.962
557.05	16.106
557.39	16.935
557.73	16.655
558.07	16.969
558.41	15.991
558.75	16.605
559.08	16.779
559.42	16.251
559.76	16.324
560.10	15.846
560.44	15.514
560.78	15.436
561.12	16.557
561.45	16.037
561.79	15.623
562.13	15.828
562.47	16.052
562.81	16.109
563.15	15.652
563.48	16.379
563.82	15.917
564.16	15.827
564.50	14.323
564.84	15.803
565.17	14.543
565.51	15.847
565.85	15.165
566.19	15.654
566.52	15.389
566.86	14.888
567.20	15.389
567.54	15.354
567.88	14.231
568.21	15.291
568.55	14.105
568.89	13.765
569.23	13.681
569.56	13.482
569.90	13.208
570.24	12.953
570.57	12.819
570.91	12.637
571.25	12.292
571.59	12.518
571.92	12.385
572.26	12.738
572.60	12.462
572.93	12.054
573.27	12.570
573.61	12.200
573.95	12.429
574.28	12.085
574.62	11.880
574.96	11.517
575.29	11.809
575.63	12.043
575.97	11.742
576.30	12.427
576.64	11.979
576.98	12.032
577.31	11.530
577.65	11.618
577.98	11.439
578.32	11.180
578.66	11.551
578.99	12.006
579.33	11.837
579.67	11.457
580.00	11.652
580.34	11.770
580.67	11.865
581.01	11.693
581.35	11.372
581.68	11.568
582.02	10.915
582.35	10.976
582.69	11.181
583.02	11.090
583.36	11.621
583.70	11.863
584.03	11.860
584.37	12.516
584.70	11.625
585.04	11.668
585.37	11.929
585.71	11.701
586.04	11.887
586.38	11.729
586.72	11.875
587.05	11.763
587.39	11.478
587.72	11.621
588.06	11.553
588.39	12.154
588.73	11.880
589.06	11.966
589.40	12.256
589.73	12.249
590.07	12.705
590.40	12.459
590.73	12.842
591.07	13.350
591.40	13.623
591.74	12.987
592.07	13.307
592.41	13.146
592.74	12.397
593.08	12.458
593.41	12.053
593.75	11.711
594.08	12.404
594.41	12.195
594.75	12.495
595.08	12.598
595.42	12.364
595.75	11.645
596.09	12.955
596.42	13.124
596.75	13.001
597.09	13.333
597.42	12.732
597.75	12.850
598.09	13.043
598.42	12.672
598.76	12.282
599.09	11.821
599.42	11.827
599.76	12.408
600.09	12.131
600.42	12.162
600.76	12.214
601.09	12.095
601.42	12.557
601.76	12.372
602.09	11.779
602.42	12.699
602.76	12.576
603.09	11.880
603.42	12.027
603.76	12.386
604.09	11.981
604.42	12.434
604.76	13.749
605.09	12.451
605.42	12.441
605.75	11.755
606.09	12.607
606.42	12.383
606.75	12.733
607.09	12.976
607.42	12.409
607.75	11.941
608.08	12.201
608.42	13.088
608.75	12.083
609.08	12.858
609.41	11.994
609.75	12.959
610.08	13.572
610.41	12.570
610.74	12.535
611.07	13.389
611.41	13.150
611.74	13.826
612.07	13.509
612.40	13.851
612.73	13.053
613.07	13.739
613.40	13.165
613.73	12.585
614.06	13.387
614.39	13.319
614.72	13.474
615.06	13.866
615.39	12.473
615.72	12.883
616.05	12.653
616.38	13.285
616.71	13.124
617.05	13.486
617.38	13.951
617.71	13.453
618.04	14.363
618.37	14.015
618.70	13.939
619.03	15.132
619.36	13.510
619.69	14.437
620.03	14.423
620.36	14.104
620.69	14.589
621.02	14.307
621.35	14.565
621.68	14.486
622.01	15.248
622.34	15.280
622.67	14.753
623.00	13.353
623.33	14.153
623.66	14.653
623.99	14.875
624.32	14.551
624.65	14.477
624.99	13.456
625.32	14.048
625.65	14.726
625.98	14.450
626.31	15.163
626.64	15.184
626.97	15.046
627.30	14.131
627.63	16.161
627.96	16.316
628.29	16.010
628.62	15.554
628.95	17.925
629.28	15.328
629.61	16.315
629.94	15.143
630.26	16.111
630.59	15.634
630.92	15.134
631.25	15.795
631.58	16.817
631.91	15.314
632.24	15.717
