SpectraSuite Data File
++++++++++++++++++++++++++++++++++++
Date: Wed May 13 19:58:18 PDT 2015
User: schluterlab
Dark Spectrum Present: Yes
Reference Spectrum Present: Yes
Number of Sampled Component Spectra: 1
Spectrometers: USB2E3373
Integration Time (usec): 3000 (USB2E3373)
Spectra Averaged: 3 (USB2E3373)
Boxcar Smoothing: 0 (USB2E3373)
Correct for Electrical Dark: No (USB2E3373)
Strobe/Lamp Enabled: No (USB2E3373)
Correct for Detector Non-linearity: No (USB2E3373)
Correct for Stray Light: No (USB2E3373)
Number of Pixels in Processed Spectrum: 2048
>>>>>Begin Processed Spectral Data<<<<<
178.53	0.000
178.91	-1250.000
179.29	-1275.000
179.67	-250.000
180.04	-1275.000
180.42	2800.000
180.80	1080.000
181.18	-1000.000
181.56	671.429
181.94	0.000
182.31	-685.714
182.69	1733.333
183.07	-650.000
183.45	-633.333
183.83	527.273
184.20	-450.000
184.58	2450.000
184.96	5900.000
185.34	-820.000
185.72	-525.000
186.09	-2200.000
186.47	2500.000
186.85	2400.000
187.23	4900.000
187.61	-1866.667
187.98	1250.000
188.36	590.909
188.74	518.182
189.12	-860.000
189.49	640.000
189.87	-5300.000
190.25	-1050.000
190.63	407.143
191.00	461.538
191.38	833.333
191.76	-850.000
192.14	1125.000
192.51	612.500
192.89	916.667
193.27	500.000
193.65	-1075.000
194.02	510.000
194.40	1040.000
194.78	520.000
195.15	508.333
195.53	650.000
195.91	-2250.000
196.29	318.750
196.66	321.053
197.04	-360.000
197.42	0.000
197.79	530.000
198.17	-5500.000
198.55	671.429
198.92	775.000
199.30	820.000
199.68	0.000
200.05	305.556
200.43	700.000
200.81	4000.000
201.18	1733.333
201.56	-1566.667
201.94	522.222
202.31	555.556
202.69	308.333
203.07	580.000
203.44	0.000
203.82	1125.000
204.19	728.571
204.57	471.429
204.95	550.000
205.32	1600.000
205.70	481.818
206.08	421.429
206.45	2700.000
206.83	325.000
207.20	800.000
207.58	840.000
207.96	338.889
208.33	662.500
208.71	-750.000
209.08	714.286
209.46	644.444
209.84	490.909
210.21	-1500.000
210.59	1500.000
210.96	-575.000
211.34	2600.000
211.71	520.000
212.09	766.667
212.46	0.000
212.84	1466.667
213.22	1350.000
213.59	-4500.000
213.97	783.333
214.34	757.143
214.72	572.727
215.09	940.000
215.47	-1950.000
215.84	-2400.000
216.22	1466.667
216.59	414.286
216.97	1400.000
217.34	409.091
217.72	-683.333
218.09	0.000
218.47	-3800.000
218.84	544.444
219.22	814.286
219.59	1566.667
219.97	-700.000
220.34	1000.000
220.72	-1600.000
221.09	378.571
221.47	1225.000
221.84	-1050.000
222.22	0.000
222.59	1300.000
222.97	-2400.000
223.34	1000.000
223.72	423.077
224.09	1080.000
224.46	2250.000
224.84	-3900.000
225.21	-960.000
225.59	-4700.000
225.96	680.000
226.34	335.000
226.71	2700.000
227.08	475.000
227.46	530.000
227.83	-1075.000
228.21	-2100.000
228.58	700.000
228.95	-2700.000
229.33	-2500.000
229.70	1633.333
230.08	757.143
230.45	-840.000
230.82	466.667
231.20	800.000
231.57	571.429
231.95	475.000
232.32	259.091
232.69	418.182
233.07	685.714
233.44	330.769
233.81	-1933.333
234.19	315.789
234.56	450.000
234.93	366.667
235.31	409.091
235.68	369.231
236.05	414.286
236.43	184.848
236.80	300.000
237.17	4500.000
237.55	242.857
237.92	225.000
238.29	271.429
238.67	200.000
239.04	200.000
239.41	141.667
239.79	108.696
240.16	142.857
240.53	143.182
240.91	117.647
241.28	112.000
241.65	108.000
242.02	108.696
242.40	95.161
242.77	95.000
243.14	76.344
243.51	76.404
243.89	80.000
244.26	77.778
244.63	77.419
245.00	78.723
245.38	68.317
245.75	72.897
246.12	62.385
246.49	69.343
246.87	70.400
247.24	68.462
247.61	60.000
247.98	60.784
248.36	54.054
248.73	56.051
249.10	56.688
249.47	52.542
249.84	56.684
250.22	48.663
250.59	44.970
250.96	53.030
251.33	52.133
251.70	49.505
252.08	47.143
252.45	44.843
252.82	44.348
253.19	48.511
253.56	48.627
253.94	46.888
254.31	39.844
254.68	48.077
255.05	42.804
255.42	47.967
255.79	43.382
256.16	45.848
256.54	40.989
256.91	42.705
257.28	40.288
257.65	43.894
258.02	41.304
258.39	40.063
258.76	40.134
259.14	44.048
259.51	38.298
259.88	36.646
260.25	41.692
260.62	41.618
260.99	42.547
261.36	43.544
261.73	40.115
262.10	37.209
262.47	42.254
262.85	37.883
263.22	37.322
263.59	38.746
263.96	38.462
264.33	38.642
264.70	38.684
265.07	39.130
265.44	38.131
265.81	36.253
266.18	39.698
266.55	37.073
266.92	38.084
267.29	36.806
267.66	36.927
268.03	35.455
268.40	37.383
268.77	38.663
269.14	36.036
269.51	37.020
269.88	37.995
270.25	38.375
270.62	37.528
270.99	37.634
271.36	35.408
271.73	34.813
272.10	36.522
272.47	37.849
272.84	38.312
273.21	36.059
273.58	34.934
273.95	35.430
274.32	33.058
274.69	36.617
275.06	34.055
275.43	35.106
275.80	32.866
276.17	34.012
276.54	33.680
276.91	35.573
277.28	33.398
277.65	33.656
278.02	34.161
278.39	33.984
278.76	33.636
279.13	35.849
279.50	35.009
279.87	34.462
280.23	34.331
280.60	34.816
280.97	34.381
281.34	33.982
281.71	33.091
282.08	34.933
282.45	30.909
282.82	32.149
283.19	33.333
283.56	33.158
283.92	31.641
284.29	31.217
284.66	33.575
285.03	31.284
285.40	32.218
285.77	32.997
286.14	32.470
286.51	32.000
286.87	31.111
287.24	33.388
287.61	30.177
287.98	30.032
288.35	30.586
288.72	30.841
289.08	28.482
289.45	32.290
289.82	30.894
290.19	28.885
290.56	30.168
290.93	28.248
291.29	28.988
291.66	26.991
292.03	30.378
292.40	29.662
292.77	27.071
293.13	27.463
293.50	27.988
293.87	26.370
294.24	27.407
294.60	26.346
294.97	26.744
295.34	28.068
295.71	26.420
296.08	24.786
296.44	26.960
296.81	26.288
297.18	25.474
297.55	24.142
297.91	25.198
298.28	25.703
298.65	25.196
299.02	25.560
299.38	24.568
299.75	23.989
300.12	23.116
300.48	25.125
300.85	23.181
301.22	24.204
301.59	24.495
301.95	24.307
302.32	24.134
302.69	24.731
303.05	22.909
303.42	23.704
303.79	24.915
304.15	21.678
304.52	22.827
304.89	22.416
305.25	21.810
305.62	22.310
305.99	22.668
306.35	22.595
306.72	23.767
307.09	23.418
307.45	23.874
307.82	22.879
308.19	22.296
308.55	22.114
308.92	21.805
309.29	21.647
309.65	21.633
310.02	22.410
310.38	22.043
310.75	22.598
311.12	21.187
311.48	21.735
311.85	23.585
312.22	21.748
312.58	21.102
312.95	22.598
313.31	21.456
313.68	20.894
314.05	24.063
314.41	21.005
314.78	21.047
315.14	21.748
315.51	21.524
315.87	21.584
316.24	20.755
316.61	20.858
316.97	20.744
317.34	19.472
317.70	20.937
318.07	21.270
318.43	20.059
318.80	21.181
319.16	20.056
319.53	21.482
319.89	22.000
320.26	21.400
320.62	21.627
320.99	20.606
321.35	21.515
321.72	22.793
322.08	22.211
322.45	23.682
322.81	22.190
323.18	23.410
323.54	21.058
323.91	22.925
324.27	22.275
324.64	22.554
325.00	20.649
325.37	21.747
325.73	21.813
326.10	21.889
326.46	21.774
326.83	22.261
327.19	22.374
327.56	21.167
327.92	23.272
328.29	22.538
328.65	22.376
329.01	22.202
329.38	21.184
329.74	21.330
330.11	21.866
330.47	23.600
330.84	22.702
331.20	21.129
331.56	22.477
331.93	21.852
332.29	21.917
332.66	21.327
333.02	21.755
333.38	22.132
333.75	21.658
334.11	21.530
334.48	20.586
334.84	21.967
335.20	22.364
335.57	20.399
335.93	20.982
336.29	21.154
336.66	21.371
337.02	21.086
337.38	22.037
337.75	20.588
338.11	20.233
338.47	21.547
338.84	22.273
339.20	20.826
339.56	22.628
339.93	21.545
340.29	21.558
340.65	21.212
341.02	21.553
341.38	20.907
341.74	20.702
342.11	20.961
342.47	21.057
342.83	20.548
343.20	20.866
343.56	20.640
343.92	21.316
344.28	20.493
344.65	21.152
345.01	19.865
345.37	19.039
345.73	20.643
346.10	20.460
346.46	20.508
346.82	21.087
347.19	20.134
347.55	20.197
347.91	22.168
348.27	20.789
348.63	21.321
349.00	19.013
349.36	19.458
349.72	20.048
350.08	19.854
350.45	19.935
350.81	19.903
351.17	20.583
351.53	19.820
351.89	19.307
352.26	20.600
352.62	19.968
352.98	19.449
353.34	19.967
353.70	19.231
354.07	19.677
354.43	18.889
354.79	19.469
355.15	19.473
355.51	20.384
355.87	19.837
356.24	18.974
356.60	18.605
356.96	19.228
357.32	18.479
357.68	19.370
358.04	18.686
358.40	19.477
358.77	19.014
359.13	19.337
359.49	18.667
359.85	16.667
360.21	19.777
360.57	19.611
360.93	18.538
361.29	18.972
361.66	18.808
362.02	18.955
362.38	18.327
362.74	18.750
363.10	17.839
363.46	18.635
363.82	18.519
364.18	19.016
364.54	18.722
364.90	19.263
365.26	18.235
365.62	19.211
365.98	18.554
366.35	18.052
366.71	17.570
367.07	18.208
367.43	18.650
367.79	18.630
368.15	18.247
368.51	18.314
368.87	19.272
369.23	18.142
369.59	18.682
369.95	18.529
370.31	18.590
370.67	18.043
371.03	18.427
371.39	19.534
371.75	17.500
372.11	18.208
372.47	19.062
372.83	18.372
373.19	17.919
373.55	18.847
373.91	18.557
374.27	17.595
374.63	17.091
374.99	17.302
375.35	18.074
375.71	17.204
376.07	17.970
376.42	18.157
376.78	18.091
377.14	17.300
377.50	18.079
377.86	17.221
378.22	17.446
378.58	16.667
378.94	17.096
379.30	17.748
379.66	17.259
380.02	17.875
380.38	16.697
380.74	17.467
381.09	17.237
381.45	17.947
381.81	17.568
382.17	17.834
382.53	16.730
382.89	17.593
383.25	16.823
383.61	16.605
383.97	16.448
384.32	17.280
384.68	16.853
385.04	17.947
385.40	16.285
385.76	17.199
386.12	16.062
386.48	17.181
386.83	17.383
387.19	17.069
387.55	17.069
387.91	16.385
388.27	17.045
388.62	17.701
388.98	16.892
389.34	17.710
389.70	17.474
390.06	16.793
390.42	16.472
390.77	16.985
391.13	17.167
391.49	17.893
391.85	16.232
392.20	15.899
392.56	17.361
392.92	17.657
393.28	15.976
393.64	16.906
393.99	17.166
394.35	16.501
394.71	16.499
395.07	16.199
395.42	16.873
395.78	17.430
396.14	16.201
396.50	16.917
396.85	16.592
397.21	16.338
397.57	16.863
397.92	16.406
398.28	15.863
398.64	16.786
399.00	15.837
399.35	16.300
399.71	16.377
400.07	16.617
400.42	16.380
400.78	16.888
401.14	16.341
401.49	16.776
401.85	16.576
402.21	15.629
402.57	16.533
402.92	16.709
403.28	16.864
403.63	16.522
403.99	16.815
404.35	16.667
404.70	16.607
405.06	16.249
405.42	16.532
405.77	16.343
406.13	15.632
406.49	16.440
406.84	16.361
407.20	15.780
407.55	15.954
407.91	16.933
408.27	16.018
408.62	15.533
408.98	15.993
409.34	15.437
409.69	16.516
410.05	15.923
410.40	16.697
410.76	15.890
411.11	17.250
411.47	16.230
411.83	17.715
412.18	16.141
412.54	16.438
412.89	16.386
413.25	15.998
413.60	17.233
413.96	15.665
414.31	16.160
414.67	16.793
415.03	16.424
415.38	16.753
415.74	16.399
416.09	16.590
416.45	15.863
416.80	16.656
417.16	17.359
417.51	16.855
417.87	15.735
418.22	16.972
418.58	16.850
418.93	16.216
419.29	16.550
419.64	16.940
420.00	16.463
420.35	16.754
420.71	16.318
421.06	16.110
421.42	16.550
421.77	17.433
422.12	16.283
422.48	14.517
422.83	16.016
423.19	16.243
423.54	16.019
423.90	17.391
424.25	16.527
424.61	16.250
424.96	16.501
425.31	16.168
425.67	15.449
426.02	15.829
426.38	16.361
426.73	15.916
427.09	16.170
427.44	16.791
427.79	15.814
428.15	17.262
428.50	16.735
428.85	16.925
429.21	15.185
429.56	15.656
429.92	15.752
430.27	15.988
430.62	15.412
430.98	15.620
431.33	16.237
431.68	16.178
432.04	16.294
432.39	16.790
432.74	17.355
433.10	16.582
433.45	17.201
433.80	16.020
434.16	16.560
434.51	16.368
434.86	15.964
435.22	16.064
435.57	16.292
435.92	16.676
436.28	16.667
436.63	16.943
436.98	16.485
437.34	16.279
437.69	16.803
438.04	15.739
438.39	16.896
438.75	17.083
439.10	15.922
439.45	16.824
439.81	16.254
440.16	15.923
440.51	15.934
440.86	16.734
441.22	15.907
441.57	16.454
441.92	16.479
442.27	16.146
442.63	16.008
442.98	16.845
443.33	16.413
443.68	16.366
444.03	15.715
444.39	15.044
444.74	16.126
445.09	16.496
445.44	15.528
445.79	17.071
446.15	17.046
446.50	15.886
446.85	15.827
447.20	16.318
447.55	15.969
447.91	15.940
448.26	16.472
448.61	15.489
448.96	16.224
449.31	16.367
449.66	16.657
450.02	15.655
450.37	16.043
450.72	16.469
451.07	15.966
451.42	15.076
451.77	15.913
452.12	16.397
452.47	16.604
452.83	16.142
453.18	16.320
453.53	16.821
453.88	15.357
454.23	16.378
454.58	16.717
454.93	17.228
455.28	16.584
455.63	15.837
455.98	16.548
456.34	16.332
456.69	16.844
457.04	16.471
457.39	16.189
457.74	16.773
458.09	17.021
458.44	16.306
458.79	15.401
459.14	16.761
459.49	16.696
459.84	16.343
460.19	16.205
460.54	16.088
460.89	16.237
461.24	16.940
461.59	17.606
461.94	16.708
462.29	16.439
462.64	16.592
462.99	16.135
463.34	18.267
463.69	17.073
464.04	16.812
464.39	16.174
464.74	16.696
465.09	16.526
465.44	15.512
465.79	15.101
466.14	16.201
466.49	16.796
466.84	16.404
467.19	15.932
467.54	17.562
467.89	16.146
468.24	16.405
468.59	16.545
468.94	15.638
469.29	16.517
469.64	16.533
469.99	17.050
470.34	16.116
470.68	16.164
471.03	17.687
471.38	15.427
471.73	16.322
472.08	16.974
472.43	16.332
472.78	15.866
473.13	16.303
473.48	16.979
473.83	16.829
474.17	16.241
474.52	16.501
474.87	16.696
475.22	16.657
475.57	16.497
475.92	16.410
476.27	16.065
476.61	15.885
476.96	16.108
477.31	16.588
477.66	16.083
478.01	15.578
478.36	16.288
478.70	16.096
479.05	16.294
479.40	15.916
479.75	15.302
480.10	16.203
480.45	15.516
480.79	15.862
481.14	15.802
481.49	15.804
481.84	15.821
482.19	16.493
482.53	15.917
482.88	16.101
483.23	15.888
483.58	15.514
483.92	15.933
484.27	15.163
484.62	15.216
484.97	15.215
485.31	15.274
485.66	13.594
486.01	13.559
486.36	13.084
486.70	13.324
487.05	14.051
487.40	14.658
487.75	14.595
488.09	15.590
488.44	14.943
488.79	15.588
489.13	15.470
489.48	15.905
489.83	14.976
490.17	15.037
490.52	16.209
490.87	15.604
491.22	15.416
491.56	14.943
491.91	15.449
492.26	15.710
492.60	15.899
492.95	15.014
493.30	15.327
493.64	15.072
493.99	15.227
494.34	15.957
494.68	15.934
495.03	15.695
495.37	15.682
495.72	15.546
496.07	15.452
496.41	14.381
496.76	14.644
497.11	15.669
497.45	15.277
497.80	15.355
498.14	15.266
498.49	15.171
498.84	15.628
499.18	14.857
499.53	15.337
499.87	14.818
500.22	15.026
500.56	16.068
500.91	15.673
501.26	15.363
501.60	15.520
501.95	15.124
502.29	15.698
502.64	15.596
502.98	15.101
503.33	15.585
503.67	15.545
504.02	15.388
504.36	15.115
504.71	15.877
505.06	15.614
505.40	15.070
505.75	15.429
506.09	16.035
506.44	16.231
506.78	16.025
507.13	15.447
507.47	15.909
507.82	15.603
508.16	15.653
508.51	15.779
508.85	15.492
509.19	15.204
509.54	15.510
509.88	15.044
510.23	15.013
510.57	16.151
510.92	15.847
511.26	16.033
511.61	16.390
511.95	15.814
512.30	15.429
512.64	15.261
512.98	16.774
513.33	16.702
513.67	15.208
514.02	15.747
514.36	15.838
514.70	16.049
515.05	15.784
515.39	16.489
515.74	15.991
516.08	16.825
516.42	16.870
516.77	16.834
517.11	15.316
517.46	16.084
517.80	16.899
518.14	16.618
518.49	15.753
518.83	16.591
519.17	16.513
519.52	16.016
519.86	15.744
520.20	16.705
520.55	16.338
520.89	16.363
521.23	16.526
521.58	15.666
521.92	17.208
522.26	16.473
522.61	16.760
522.95	15.347
523.29	16.190
523.64	16.707
523.98	16.389
524.32	16.828
524.66	16.115
525.01	16.912
525.35	16.667
525.69	16.010
526.04	16.760
526.38	15.802
526.72	16.871
527.06	16.886
527.41	15.594
527.75	15.820
528.09	16.185
528.43	16.699
528.78	15.734
529.12	15.758
529.46	16.289
529.80	16.522
530.15	16.199
530.49	15.692
530.83	16.519
531.17	17.167
531.51	17.250
531.86	16.710
532.20	17.145
532.54	17.168
532.88	16.688
533.22	15.865
533.57	17.160
533.91	16.195
534.25	16.464
534.59	15.619
534.93	16.002
535.27	16.355
535.62	16.422
535.96	15.882
536.30	17.228
536.64	16.677
536.98	16.457
537.32	16.327
537.66	16.067
538.01	17.117
538.35	16.548
538.69	16.847
539.03	15.724
539.37	15.974
539.71	15.230
540.05	15.882
540.39	16.877
540.73	16.106
541.07	16.677
541.42	17.156
541.76	17.419
542.10	17.206
542.44	15.563
542.78	17.655
543.12	16.187
543.46	16.656
543.80	16.656
544.14	16.046
544.48	17.651
544.82	15.843
545.16	16.396
545.50	15.874
545.84	16.868
546.18	16.902
546.52	16.655
546.86	17.045
547.20	17.195
547.54	16.433
547.88	16.263
548.22	16.189
548.56	15.849
548.90	15.237
549.24	16.296
549.58	17.190
549.92	16.758
550.26	17.045
550.60	17.289
550.94	17.183
551.28	14.996
551.62	16.607
551.96	16.491
552.30	17.270
552.64	16.903
552.98	16.475
553.32	15.914
553.66	17.860
554.00	16.609
554.34	16.701
554.68	17.096
555.02	16.502
555.36	16.771
555.69	15.900
556.03	16.756
556.37	16.371
556.71	16.030
557.05	17.227
557.39	16.305
557.73	16.302
558.07	16.389
558.41	16.425
558.75	17.267
559.08	17.897
559.42	17.158
559.76	17.647
560.10	16.488
560.44	16.143
560.78	15.968
561.12	16.293
561.45	17.210
561.79	16.018
562.13	16.700
562.47	16.872
562.81	16.248
563.15	16.388
563.48	16.711
563.82	15.851
564.16	15.827
564.50	15.755
564.84	16.751
565.17	16.088
565.51	16.613
565.85	16.688
566.19	15.905
566.52	16.023
566.86	15.250
567.20	16.981
567.54	16.153
567.88	15.535
568.21	16.772
568.55	15.571
568.89	15.661
569.23	15.419
569.56	14.980
569.90	15.170
570.24	14.604
570.57	14.587
570.91	14.059
571.25	14.392
571.59	14.433
571.92	14.171
572.26	14.500
572.60	14.595
572.93	13.913
573.27	14.552
573.61	14.601
573.95	14.496
574.28	14.221
574.62	13.703
574.96	14.002
575.29	14.064
575.63	14.278
575.97	14.137
576.30	14.286
576.64	13.773
576.98	13.831
577.31	13.540
577.65	13.789
577.98	13.510
578.32	13.562
578.66	13.795
578.99	14.084
579.33	14.282
579.67	14.133
580.00	14.073
580.34	14.001
580.67	14.252
581.01	14.077
581.35	13.847
581.68	13.539
582.02	13.399
582.35	13.671
582.69	14.061
583.02	13.810
583.36	13.996
583.70	14.735
584.03	14.159
584.37	14.809
584.70	14.237
585.04	14.335
585.37	14.329
585.71	14.286
586.04	14.303
586.38	14.446
586.72	14.775
587.05	14.099
587.39	14.222
587.72	14.300
588.06	14.168
588.39	14.650
588.73	14.374
589.06	14.864
589.40	14.444
589.73	14.819
590.07	14.875
590.40	14.980
590.73	14.754
591.07	15.181
591.40	15.943
591.74	15.714
592.07	15.707
592.41	15.254
592.74	14.532
593.08	14.257
593.41	14.363
593.75	14.085
594.08	14.247
594.41	14.776
594.75	14.750
595.08	14.782
595.42	14.501
595.75	14.957
596.09	15.246
596.42	15.285
596.75	15.872
597.09	15.974
597.42	15.177
597.75	15.265
598.09	16.043
598.42	14.991
598.76	14.674
599.09	14.139
599.42	14.410
599.76	14.971
600.09	14.244
600.42	14.719
600.76	14.607
601.09	14.499
601.42	14.878
601.76	14.725
602.09	14.941
602.42	15.287
602.76	15.115
603.09	14.241
603.42	14.955
603.76	14.748
604.09	14.851
604.42	14.798
604.76	15.352
605.09	15.247
605.42	14.493
605.75	14.735
606.09	14.884
606.42	14.671
606.75	14.517
607.09	15.362
607.42	14.249
607.75	14.684
608.08	14.242
608.42	15.329
608.75	14.653
609.08	14.755
609.41	15.278
609.75	15.198
610.08	15.410
610.41	14.618
610.74	14.948
611.07	15.958
611.41	15.456
611.74	15.887
612.07	15.373
612.40	15.425
612.73	15.632
613.07	15.409
613.40	15.587
613.73	14.525
614.06	15.914
614.39	15.836
614.72	15.211
615.06	15.231
615.39	15.021
615.72	15.184
616.05	15.045
616.38	15.397
616.71	16.093
617.05	16.137
617.38	15.995
617.71	15.736
618.04	16.166
618.37	15.553
618.70	16.304
619.03	16.053
619.36	17.176
619.69	16.338
620.03	16.690
620.36	16.845
620.69	17.192
621.02	16.814
621.35	16.758
621.68	16.199
622.01	16.563
622.34	16.868
622.67	16.730
623.00	15.774
623.33	16.011
623.66	16.512
623.99	16.642
624.32	16.976
624.65	15.960
624.99	15.722
625.32	16.510
625.65	16.454
625.98	17.141
626.31	16.407
626.64	17.143
626.97	17.041
627.30	15.711
627.63	17.309
627.96	17.325
628.29	17.060
628.62	18.298
628.95	19.151
629.28	17.427
629.61	17.965
629.94	17.143
630.26	17.159
630.59	18.112
630.92	17.912
