SpectraSuite Data File
++++++++++++++++++++++++++++++++++++
Date: Wed May 13 19:14:11 PDT 2015
User: schluterlab
Dark Spectrum Present: Yes
Reference Spectrum Present: Yes
Number of Sampled Component Spectra: 1
Spectrometers: USB2E3373
Integration Time (usec): 3000 (USB2E3373)
Spectra Averaged: 3 (USB2E3373)
Boxcar Smoothing: 0 (USB2E3373)
Correct for Electrical Dark: No (USB2E3373)
Strobe/Lamp Enabled: No (USB2E3373)
Correct for Detector Non-linearity: No (USB2E3373)
Correct for Stray Light: No (USB2E3373)
Number of Pixels in Processed Spectrum: 2048
>>>>>Begin Processed Spectral Data<<<<<
178.53	0.000
178.91	-1300.000
179.29	-1350.000
179.67	-250.000
180.04	-1325.000
180.42	2950.000
180.80	1060.000
181.18	-1125.000
181.56	800.000
181.94	0.000
182.31	-742.857
182.69	1766.667
183.07	-525.000
183.45	-633.333
183.83	581.818
184.20	-410.000
184.58	2250.000
184.96	4700.000
185.34	-1140.000
185.72	-662.500
186.09	-2500.000
186.47	3000.000
186.85	2650.000
187.23	5300.000
187.61	-1900.000
187.98	1300.000
188.36	545.455
188.74	618.182
189.12	-1060.000
189.49	610.000
189.87	-4800.000
190.25	-1275.000
190.63	450.000
191.00	453.846
191.38	1050.000
191.76	-1050.000
192.14	1700.000
192.51	750.000
192.89	1000.000
193.27	712.500
193.65	-1150.000
194.02	570.000
194.40	1080.000
194.78	600.000
195.15	575.000
195.53	740.000
195.91	-2600.000
196.29	425.000
196.66	289.474
197.04	-400.000
197.42	0.000
197.79	740.000
198.17	-5200.000
198.55	671.429
198.92	737.500
199.30	900.000
199.68	0.000
200.05	388.889
200.43	871.429
200.81	5300.000
201.18	1900.000
201.56	-1766.667
201.94	644.444
202.31	677.778
202.69	400.000
203.07	520.000
203.44	0.000
203.82	1450.000
204.19	757.143
204.57	392.857
204.95	675.000
205.32	1600.000
205.70	581.818
206.08	378.571
206.45	2650.000
206.83	387.500
207.20	983.333
207.58	980.000
207.96	366.667
208.33	762.500
208.71	-1000.000
209.08	928.571
209.46	744.444
209.84	463.636
210.21	-2000.000
210.59	1625.000
210.96	-625.000
211.34	3150.000
211.71	650.000
212.09	933.333
212.46	0.000
212.84	1766.667
213.22	1425.000
213.59	-6000.000
213.97	1066.667
214.34	857.143
214.72	663.636
215.09	1200.000
215.47	-2850.000
215.84	-2600.000
216.22	1733.333
216.59	435.714
216.97	1400.000
217.34	490.909
217.72	-866.667
218.09	0.000
218.47	-5600.000
218.84	677.778
219.22	771.429
219.59	2166.667
219.97	-657.143
220.34	1300.000
220.72	-2166.667
221.09	500.000
221.47	1675.000
221.84	-950.000
222.22	0.000
222.59	1750.000
222.97	-3300.000
223.34	1220.000
223.72	500.000
224.09	1080.000
224.46	2500.000
224.84	-4500.000
225.21	-1260.000
225.59	-5600.000
225.96	660.000
226.34	300.000
226.71	3350.000
227.08	725.000
227.46	690.000
227.83	-1200.000
228.21	-2750.000
228.58	700.000
228.95	-3050.000
229.33	-2750.000
229.70	2266.667
230.08	900.000
230.45	-920.000
230.82	466.667
231.20	883.333
231.57	800.000
231.95	591.667
232.32	272.727
232.69	454.545
233.07	785.714
233.44	338.462
233.81	-1866.667
234.19	352.632
234.56	566.667
234.93	466.667
235.31	518.182
235.68	446.154
236.05	471.429
236.43	209.091
236.80	336.842
237.17	5600.000
237.55	285.714
237.92	250.000
238.29	309.524
238.67	219.355
239.04	241.379
239.41	186.111
239.79	167.391
240.16	176.190
240.53	170.455
240.91	139.216
241.28	160.000
241.65	156.000
242.02	126.087
242.40	146.774
242.77	138.333
243.14	106.452
243.51	120.225
243.89	115.294
244.26	103.333
244.63	106.452
245.00	108.511
245.38	101.980
245.75	96.262
246.12	86.239
246.49	89.051
246.87	85.600
247.24	87.692
247.61	85.714
247.98	78.431
248.36	76.351
248.73	78.981
249.10	84.076
249.47	79.661
249.84	73.262
250.22	74.866
250.59	78.698
250.96	74.747
251.33	67.299
251.70	74.257
252.08	72.381
252.45	70.852
252.82	71.739
253.19	71.915
253.56	63.922
253.94	65.975
254.31	62.891
254.68	66.538
255.05	65.683
255.42	67.073
255.79	68.015
256.16	65.343
256.54	59.011
256.91	61.210
257.28	60.072
257.65	62.046
258.02	64.596
258.39	58.044
258.76	59.197
259.14	63.393
259.51	58.055
259.88	60.870
260.25	60.121
260.62	58.671
260.99	58.385
261.36	64.565
261.73	57.307
262.10	63.953
262.47	57.746
262.85	58.496
263.22	56.410
263.59	61.254
263.96	52.198
264.33	54.569
264.70	61.053
265.07	62.916
265.44	58.081
265.81	53.528
266.18	61.558
266.55	56.098
266.92	55.283
267.29	58.102
267.66	55.046
268.03	53.409
268.40	55.374
268.77	52.745
269.14	54.054
269.51	54.402
269.88	55.245
270.25	55.530
270.62	56.854
270.99	53.548
271.36	52.361
271.73	57.009
272.10	55.652
272.47	55.484
272.84	51.515
273.21	52.411
273.58	54.367
273.95	50.943
274.32	50.620
274.69	52.034
275.06	51.575
275.43	54.468
275.80	52.505
276.17	52.546
276.54	54.054
276.91	52.964
277.28	51.563
277.65	52.418
278.02	51.553
278.39	53.516
278.76	51.455
279.13	50.189
279.50	53.259
279.87	48.406
280.23	51.497
280.60	50.484
280.97	50.092
281.34	51.858
281.71	51.273
282.08	52.975
282.45	49.818
282.82	52.220
283.19	47.950
283.56	49.649
283.92	49.746
284.29	50.794
284.66	48.639
285.03	48.644
285.40	48.239
285.77	50.168
286.14	47.323
286.51	52.333
286.87	49.915
287.24	47.231
287.61	45.265
287.98	46.266
288.35	45.642
288.72	45.327
289.08	43.818
289.45	48.600
289.82	47.317
290.19	44.427
290.56	45.176
290.93	42.749
291.29	45.092
291.66	44.690
292.03	45.494
292.40	44.493
292.77	43.343
293.13	44.328
293.50	44.169
293.87	42.667
294.24	41.333
294.60	39.301
294.97	42.442
295.34	42.172
295.71	41.193
296.08	40.883
296.44	39.752
296.81	40.026
297.18	40.108
297.55	37.995
297.91	37.863
298.28	40.027
298.65	39.034
299.02	38.472
299.38	38.911
299.75	35.984
300.12	36.015
300.48	36.125
300.85	36.745
301.22	39.363
301.59	35.101
301.95	36.146
302.32	37.612
302.69	36.918
303.05	36.727
303.42	36.667
303.79	36.580
304.15	35.431
304.52	35.921
304.89	37.398
305.25	35.847
305.62	35.900
305.99	35.537
306.35	34.787
306.72	35.538
307.09	34.739
307.45	35.811
307.82	34.487
308.19	36.313
308.55	34.844
308.92	34.479
309.29	34.530
309.65	35.101
310.02	34.778
310.38	34.516
310.75	34.952
311.12	35.312
311.48	35.005
311.85	35.220
312.22	35.380
312.58	34.200
312.95	37.592
313.31	34.951
313.68	36.798
314.05	36.785
314.41	35.578
314.78	38.066
315.14	36.246
315.51	37.384
315.87	36.634
316.24	35.849
316.61	35.478
316.97	36.986
317.34	37.965
317.70	38.241
318.07	38.787
318.43	40.998
318.80	39.550
319.16	41.149
319.53	39.775
319.89	41.333
320.26	42.000
320.62	42.560
320.99	42.525
321.35	44.343
321.72	44.969
322.08	46.002
322.45	48.557
322.81	48.450
323.18	48.170
323.54	49.629
323.91	49.811
324.27	50.191
324.64	51.351
325.00	50.225
325.37	54.322
325.73	53.411
326.10	53.928
326.46	54.659
326.83	56.255
327.19	57.216
327.56	58.798
327.92	60.280
328.29	60.870
328.65	60.866
329.01	61.733
329.38	62.812
329.74	62.235
330.11	65.504
330.47	65.106
330.84	64.246
331.20	64.754
331.56	65.321
331.93	67.593
332.29	65.661
332.66	65.044
333.02	65.722
333.38	67.389
333.75	66.488
334.11	67.883
334.48	67.879
334.84	67.831
335.20	70.273
335.57	69.447
335.93	67.857
336.29	69.139
336.66	70.694
337.02	67.511
337.38	70.833
337.75	69.608
338.11	70.994
338.47	70.258
338.84	70.944
339.20	70.275
339.56	72.263
339.93	70.818
340.29	70.199
340.65	70.677
341.02	71.030
341.38	72.598
341.74	71.842
342.11	71.790
342.47	72.335
342.83	71.233
343.20	70.996
343.56	69.503
343.92	71.404
344.28	71.599
344.65	73.087
345.01	69.781
345.37	70.583
345.73	72.420
346.10	72.549
346.46	73.051
346.82	71.829
347.19	71.763
347.55	69.622
347.91	72.330
348.27	71.898
348.63	71.823
349.00	72.816
349.36	71.346
349.72	71.211
350.08	72.285
350.45	73.556
350.81	73.111
351.17	72.934
351.53	72.645
351.89	71.947
352.26	72.849
352.62	72.815
352.98	72.934
353.34	73.541
353.70	73.159
354.07	73.226
354.43	72.698
354.79	72.405
355.15	74.142
355.51	74.261
355.87	74.939
356.24	75.407
356.60	71.692
356.96	72.647
357.32	74.734
357.68	75.906
358.04	72.763
358.40	73.713
358.77	75.039
359.13	74.586
359.49	74.667
359.85	74.841
360.21	75.837
360.57	75.798
360.93	75.615
361.29	73.923
361.66	74.768
362.02	73.657
362.38	75.285
362.74	75.149
363.10	74.907
363.46	76.082
363.82	76.266
364.18	75.184
364.54	76.003
364.90	76.204
365.26	76.324
365.62	75.091
365.98	77.794
366.35	75.287
366.71	77.440
367.07	76.402
367.43	77.504
367.79	78.301
368.15	77.155
368.51	77.834
368.87	78.016
369.23	78.054
369.59	78.132
369.95	79.118
370.31	76.282
370.67	75.942
371.03	79.551
371.39	77.843
371.75	77.574
372.11	76.956
372.47	78.666
372.83	80.476
373.19	77.818
373.55	79.527
373.91	79.676
374.27	76.289
374.63	80.509
374.99	78.743
375.35	78.786
375.71	79.164
376.07	78.875
376.42	80.949
376.78	79.655
377.14	80.258
377.50	79.404
377.86	79.920
378.22	78.635
378.58	77.820
378.94	79.133
379.30	80.216
379.66	81.662
380.02	79.607
380.38	79.417
380.74	80.072
381.09	80.196
381.45	81.254
381.81	79.853
382.17	80.255
382.53	81.824
382.89	80.926
383.25	81.363
383.61	82.094
383.97	79.675
384.32	78.478
384.68	79.864
385.04	81.069
385.40	79.195
385.76	80.528
386.12	82.060
386.48	82.379
386.83	82.809
387.19	83.488
387.55	81.138
387.91	82.225
388.27	80.932
388.62	81.930
388.98	80.835
389.34	81.352
389.70	82.097
390.06	82.383
390.42	82.879
390.77	82.061
391.13	83.982
391.49	82.678
391.85	80.840
392.20	83.155
392.56	82.260
392.92	81.989
393.28	81.953
393.64	82.734
393.99	80.696
394.35	81.514
394.71	81.556
395.07	80.498
395.42	83.313
395.78	82.761
396.14	81.875
396.50	82.206
396.85	82.772
397.21	81.258
397.57	81.711
397.92	81.791
398.28	80.325
398.64	81.422
399.00	80.526
399.35	80.654
399.71	80.787
400.07	81.195
400.42	81.472
400.78	82.207
401.14	81.402
401.49	82.985
401.85	80.823
402.21	80.838
402.57	82.480
402.92	82.093
403.28	83.198
403.63	82.178
403.99	81.720
404.35	79.212
404.70	81.055
405.06	80.722
405.42	81.847
405.77	79.486
406.13	79.740
406.49	80.248
406.84	80.272
407.20	80.024
407.55	80.791
407.91	81.800
408.27	82.131
408.62	79.350
408.98	80.882
409.34	80.443
409.69	81.032
410.05	80.297
410.40	81.774
410.76	80.406
411.11	78.770
411.47	79.681
411.83	81.307
412.18	80.087
412.54	81.071
412.89	78.795
413.25	80.756
413.60	81.038
413.96	79.235
414.31	81.106
414.67	79.594
415.03	80.265
415.38	79.704
415.74	81.286
416.09	82.299
416.45	79.987
416.80	80.436
417.16	80.362
417.51	79.628
417.87	79.833
418.22	81.577
418.58	80.310
418.93	80.774
419.29	80.777
419.64	80.164
420.00	79.085
420.35	78.087
420.71	80.693
421.06	79.117
421.42	79.123
421.77	79.260
422.12	79.562
422.48	78.791
422.83	79.499
423.19	79.779
423.54	79.803
423.90	79.942
424.25	79.844
424.61	78.929
424.96	80.000
425.31	79.125
425.67	77.809
426.02	79.200
426.38	80.647
426.73	79.579
427.09	80.304
427.44	78.723
427.79	79.011
428.15	79.048
428.50	78.994
428.85	79.440
429.21	79.348
429.56	79.419
429.92	79.114
430.27	78.649
430.62	77.829
430.98	77.686
431.33	78.093
431.68	79.162
432.04	77.849
432.39	80.183
432.74	80.551
433.10	80.645
433.45	79.650
433.80	79.213
434.16	78.365
434.51	77.368
434.86	78.506
435.22	79.600
435.57	81.337
435.92	79.403
436.28	80.368
436.63	80.188
436.98	79.107
437.34	79.428
437.69	80.397
438.04	79.989
438.39	79.463
438.75	80.941
439.10	79.553
439.45	79.752
439.81	78.792
440.16	79.277
440.51	80.141
440.86	79.386
441.22	80.645
441.57	78.981
441.92	79.580
442.27	80.678
442.63	78.989
442.98	80.169
443.33	78.533
443.68	78.988
444.03	78.624
444.39	78.822
444.74	80.249
445.09	80.054
445.44	79.606
445.79	79.119
446.15	78.719
446.50	78.729
446.85	79.445
447.20	79.602
447.55	81.854
447.91	79.978
448.26	80.134
448.61	78.971
448.96	80.786
449.31	80.540
449.66	78.503
450.02	79.053
450.37	79.195
450.72	78.511
451.07	79.037
451.42	79.149
451.77	80.035
452.12	77.887
452.47	78.358
452.83	79.604
453.18	78.545
453.53	80.396
453.88	80.213
454.23	79.079
454.58	80.921
454.93	82.200
455.28	80.112
455.63	79.126
455.98	80.893
456.34	79.523
456.69	80.276
457.04	80.248
457.39	79.193
457.74	79.222
458.09	79.126
458.44	77.366
458.79	77.223
459.14	79.402
459.49	77.408
459.84	79.501
460.19	77.490
460.54	75.463
460.89	77.290
461.24	79.296
461.59	78.617
461.94	77.374
462.29	78.576
462.64	77.026
462.99	77.489
463.34	78.333
463.69	78.549
464.04	76.522
464.39	76.232
464.74	76.887
465.09	77.081
465.44	76.122
465.79	76.174
466.14	75.807
466.49	75.862
466.84	76.999
467.19	76.403
467.54	77.500
467.89	76.711
468.24	76.149
468.59	77.411
468.94	76.481
469.29	77.378
469.64	77.644
469.99	77.470
470.34	77.345
470.68	77.011
471.03	76.463
471.38	76.998
471.73	76.149
472.08	76.908
472.43	76.633
472.78	76.498
473.13	76.123
473.48	76.092
473.83	76.159
474.17	76.042
474.52	76.179
474.87	75.890
475.22	74.347
475.57	74.046
475.92	75.943
476.27	75.986
476.61	74.959
476.96	74.986
477.31	73.574
477.66	75.219
478.01	74.020
478.36	73.876
478.70	74.091
479.05	75.186
479.40	74.411
479.75	74.530
480.10	74.155
480.45	72.442
480.79	72.671
481.14	74.511
481.49	72.805
481.84	73.480
482.19	72.831
482.53	73.257
482.88	72.964
483.23	73.411
483.58	72.930
483.92	72.727
484.27	70.893
484.62	71.983
484.97	71.462
485.31	73.219
485.66	69.567
486.01	68.073
486.36	65.807
486.70	64.879
487.05	66.509
487.40	68.693
487.75	70.400
488.09	71.914
488.44	72.815
488.79	73.056
489.13	72.689
489.48	72.594
489.83	72.637
490.17	72.907
490.52	71.125
490.87	72.365
491.22	71.487
491.56	70.023
491.91	71.289
492.26	70.234
492.60	70.046
492.95	69.925
493.30	69.953
493.64	70.509
493.99	70.102
494.34	70.583
494.68	69.918
495.03	70.583
495.37	70.033
495.72	71.345
496.07	70.070
496.41	68.009
496.76	69.833
497.11	68.213
497.45	69.818
497.80	70.202
498.14	69.517
498.49	70.488
498.84	68.936
499.18	69.238
499.53	69.326
499.87	68.500
500.22	68.724
500.56	69.806
500.91	67.692
501.26	68.374
501.60	69.625
501.95	67.415
502.29	69.353
502.64	68.436
502.98	69.378
503.33	67.505
503.67	67.471
504.02	66.745
504.36	66.776
504.71	69.028
505.06	67.614
505.40	67.963
505.75	67.068
506.09	66.278
506.44	67.489
506.78	66.829
507.13	67.491
507.47	67.222
507.82	66.464
508.16	66.971
508.51	68.645
508.85	66.534
509.19	67.500
509.54	66.633
509.88	65.533
510.23	65.964
510.57	67.699
510.92	67.840
511.26	65.365
511.61	66.338
511.95	65.605
512.30	66.384
512.64	66.308
512.98	66.131
513.33	64.989
513.67	65.528
514.02	65.043
514.36	66.466
514.70	66.353
515.05	65.477
515.39	65.339
515.74	65.428
516.08	64.841
516.42	65.760
516.77	65.998
517.11	65.261
517.46	65.688
517.80	65.679
518.14	64.794
518.49	66.278
518.83	64.489
519.17	66.109
519.52	65.025
519.86	64.860
520.20	64.046
520.55	65.889
520.89	66.119
521.23	65.802
521.58	63.926
521.92	66.503
522.26	63.758
522.61	64.424
522.95	64.211
523.29	64.942
523.64	63.902
523.98	64.633
524.32	63.148
524.66	63.800
525.01	63.664
525.35	62.825
525.69	62.069
526.04	64.424
526.38	63.148
526.72	63.436
527.06	63.151
527.41	62.005
527.75	64.373
528.09	64.162
528.43	63.544
528.78	62.200
529.12	61.636
529.46	62.094
529.80	62.809
530.15	63.115
530.49	60.923
530.83	62.722
531.17	64.556
531.51	63.165
531.86	62.710
532.20	61.864
532.54	61.499
532.88	63.286
533.22	60.650
533.57	60.802
533.91	59.723
534.25	60.267
534.59	60.647
534.93	60.202
535.27	59.686
535.62	60.745
535.96	60.829
536.30	59.631
536.64	60.464
536.98	62.044
537.32	60.829
537.66	60.933
538.01	61.751
538.35	59.470
538.69	60.817
539.03	59.064
539.37	60.192
539.71	58.198
540.05	59.216
540.39	59.934
540.73	58.473
541.07	59.442
541.42	60.600
541.76	59.226
542.10	59.961
542.44	60.596
542.78	59.552
543.12	57.454
543.46	58.230
543.80	58.556
544.14	58.151
544.48	58.476
544.82	58.371
545.16	57.450
545.50	58.740
545.84	57.930
546.18	59.461
546.52	58.706
546.86	58.900
547.20	58.530
547.54	58.584
547.88	58.418
548.22	56.600
548.56	57.547
548.90	56.082
549.24	58.519
549.58	57.367
549.92	58.242
550.26	59.233
550.60	56.570
550.94	58.099
551.28	57.937
551.62	58.447
551.96	57.053
552.30	57.816
552.64	56.322
552.98	58.576
553.32	56.372
553.66	56.919
554.00	58.408
554.34	55.901
554.68	56.938
555.02	56.629
555.36	55.950
555.69	55.954
556.03	54.845
556.37	55.457
556.71	55.593
557.05	56.232
557.39	55.003
557.73	55.328
558.07	57.215
558.41	55.644
558.75	55.547
559.08	56.823
559.42	57.672
559.76	56.103
560.10	54.889
560.44	54.437
560.78	53.293
561.12	54.881
561.45	54.433
561.79	54.186
562.13	53.521
562.47	54.440
562.81	55.997
563.15	53.846
563.48	53.714
563.82	54.925
564.16	53.107
564.50	52.995
564.84	52.908
565.17	54.955
565.51	54.952
565.85	54.442
566.19	53.851
566.52	54.275
566.86	52.923
567.20	52.653
567.54	53.653
567.88	52.146
568.21	52.222
568.55	51.466
568.89	51.265
569.23	50.490
569.56	50.607
569.90	50.226
570.24	49.659
570.57	49.541
570.91	47.802
571.25	48.116
571.59	48.984
571.92	49.107
572.26	49.422
572.60	49.459
572.93	48.486
573.27	48.861
573.61	48.660
573.95	48.579
574.28	47.739
574.62	47.935
574.96	47.885
575.29	47.551
575.63	47.383
575.97	48.112
576.30	48.008
576.64	47.334
576.98	47.739
577.31	47.505
577.65	47.296
577.98	47.165
578.32	46.505
578.66	46.855
578.99	47.546
579.33	47.495
579.67	46.558
580.00	47.471
580.34	48.173
580.67	47.223
581.01	47.268
581.35	46.799
581.68	46.699
582.02	46.196
582.35	46.004
582.69	46.769
583.02	46.704
583.36	48.121
583.70	48.202
584.03	47.675
584.37	48.854
584.70	47.884
585.04	47.505
585.37	46.738
585.71	46.217
586.04	47.161
586.38	46.865
586.72	46.976
587.05	46.726
587.39	46.807
587.72	46.869
588.06	46.318
588.39	47.517
588.73	47.257
589.06	48.115
589.40	47.845
589.73	48.398
590.07	47.117
590.40	47.607
590.73	48.595
591.07	48.921
591.40	47.997
591.74	49.091
592.07	47.382
592.41	46.838
592.74	45.281
593.08	45.869
593.41	45.777
593.75	45.440
594.08	45.625
594.41	45.953
594.75	46.765
595.08	46.492
595.42	46.655
595.75	46.261
596.09	47.428
596.42	47.308
596.75	47.320
597.09	47.359
597.42	45.995
597.75	47.693
598.09	47.217
598.42	46.134
598.76	46.088
599.09	45.344
599.42	44.869
599.76	45.059
600.09	45.610
600.42	45.800
600.76	45.071
601.09	45.246
601.42	46.081
601.76	45.237
602.09	46.047
602.42	45.740
602.76	46.191
603.09	46.459
603.42	46.388
603.76	44.741
604.09	45.366
604.42	45.251
604.76	45.466
605.09	46.396
605.42	44.805
605.75	45.240
606.09	45.303
606.42	46.138
606.75	45.168
607.09	45.542
607.42	45.571
607.75	44.641
608.08	44.941
608.42	45.271
608.75	45.176
609.08	45.005
609.41	44.883
609.75	45.307
610.08	46.136
610.41	45.577
610.74	45.790
611.07	46.294
611.41	46.173
611.74	46.053
612.07	46.377
612.40	46.118
612.73	45.316
613.07	46.121
613.40	45.392
613.73	44.153
614.06	45.054
614.39	44.153
614.72	44.947
615.06	45.903
615.39	45.117
615.72	44.325
616.05	44.444
616.38	45.692
616.71	46.081
617.05	46.761
617.38	46.362
617.71	45.826
618.04	46.334
618.37	44.471
618.70	46.173
619.03	45.592
619.36	46.096
619.69	46.268
620.03	47.459
620.36	45.321
620.69	46.438
621.02	47.345
621.35	47.298
621.68	45.249
622.01	47.059
622.34	45.764
622.67	46.844
623.00	45.635
623.33	44.675
623.66	45.890
623.99	46.171
624.32	45.649
624.65	44.986
624.99	44.547
625.32	46.198
625.65	45.379
625.98	46.195
626.31	45.879
626.64	46.694
626.97	47.049
627.30	46.550
627.63	47.990
627.96	46.089
628.29	48.906
628.62	46.569
628.95	48.019
629.28	46.715
629.61	46.563
629.94	47.429
630.26	46.616
630.59	47.283
