SpectraSuite Data File
++++++++++++++++++++++++++++++++++++
Date: Wed May 13 19:39:10 PDT 2015
User: schluterlab
Dark Spectrum Present: Yes
Reference Spectrum Present: Yes
Number of Sampled Component Spectra: 1
Spectrometers: USB2E3373
Integration Time (usec): 3000 (USB2E3373)
Spectra Averaged: 3 (USB2E3373)
Boxcar Smoothing: 0 (USB2E3373)
Correct for Electrical Dark: No (USB2E3373)
Strobe/Lamp Enabled: No (USB2E3373)
Correct for Detector Non-linearity: No (USB2E3373)
Correct for Stray Light: No (USB2E3373)
Number of Pixels in Processed Spectrum: 2048
>>>>>Begin Processed Spectral Data<<<<<
178.53	0.000
178.91	-1450.000
179.29	-1075.000
179.67	-194.444
180.04	-1375.000
180.42	2800.000
180.80	1220.000
181.18	-1150.000
181.56	685.714
181.94	0.000
182.31	-785.714
182.69	1866.667
183.07	-612.500
183.45	-666.667
183.83	618.182
184.20	-460.000
184.58	2650.000
184.96	5700.000
185.34	-920.000
185.72	-662.500
186.09	-2400.000
186.47	2550.000
186.85	2800.000
187.23	5200.000
187.61	-1600.000
187.98	1425.000
188.36	527.273
188.74	536.364
189.12	-860.000
189.49	650.000
189.87	-5700.000
190.25	-1125.000
190.63	442.857
191.00	476.923
191.38	850.000
191.76	-1300.000
192.14	1525.000
192.51	662.500
192.89	1166.667
193.27	562.500
193.65	-1300.000
194.02	580.000
194.40	1020.000
194.78	550.000
195.15	575.000
195.53	690.000
195.91	-2050.000
196.29	350.000
196.66	315.789
197.04	-360.000
197.42	0.000
197.79	650.000
198.17	-4800.000
198.55	757.143
198.92	700.000
199.30	960.000
199.68	0.000
200.05	377.778
200.43	742.857
200.81	5500.000
201.18	1900.000
201.56	-1766.667
201.94	677.778
202.31	533.333
202.69	516.667
203.07	610.000
203.44	0.000
203.82	1225.000
204.19	842.857
204.57	464.286
204.95	612.500
205.32	1766.667
205.70	500.000
206.08	428.571
206.45	3000.000
206.83	437.500
207.20	950.000
207.58	720.000
207.96	344.444
208.33	775.000
208.71	-800.000
209.08	857.143
209.46	666.667
209.84	527.273
210.21	-1700.000
210.59	1450.000
210.96	-475.000
211.34	2650.000
211.71	650.000
212.09	983.333
212.46	0.000
212.84	1866.667
213.22	1475.000
213.59	-4100.000
213.97	1100.000
214.34	814.286
214.72	581.818
215.09	1080.000
215.47	-2400.000
215.84	-2300.000
216.22	1800.000
216.59	400.000
216.97	1475.000
217.34	563.636
217.72	-900.000
218.09	0.000
218.47	-5500.000
218.84	766.667
219.22	757.143
219.59	1500.000
219.97	-642.857
220.34	1080.000
220.72	-1766.667
221.09	400.000
221.47	1950.000
221.84	-950.000
222.22	0.000
222.59	1350.000
222.97	-2500.000
223.34	1140.000
223.72	430.769
224.09	1160.000
224.46	3050.000
224.84	-4800.000
225.21	-1040.000
225.59	-5200.000
225.96	610.000
226.34	320.000
226.71	2650.000
227.08	712.500
227.46	660.000
227.83	-1300.000
228.21	-2300.000
228.58	666.667
228.95	-2300.000
229.33	-2750.000
229.70	1733.333
230.08	828.571
230.45	-1160.000
230.82	450.000
231.20	966.667
231.57	785.714
231.95	533.333
232.32	231.818
232.69	427.273
233.07	728.571
233.44	361.538
233.81	-1500.000
234.19	315.789
234.56	416.667
234.93	333.333
235.31	463.636
235.68	369.231
236.05	342.857
236.43	206.061
236.80	194.737
237.17	3700.000
237.55	204.762
237.92	207.143
238.29	195.238
238.67	177.419
239.04	182.759
239.41	163.889
239.79	128.261
240.16	111.905
240.53	118.182
240.91	105.882
241.28	98.000
241.65	98.000
242.02	91.304
242.40	87.097
242.77	71.667
243.14	63.441
243.51	75.281
243.89	71.765
244.26	62.222
244.63	50.538
245.00	51.064
245.38	46.535
245.75	54.206
246.12	42.202
246.49	48.175
246.87	44.000
247.24	36.154
247.61	35.000
247.98	36.601
248.36	35.135
248.73	32.484
249.10	30.573
249.47	28.249
249.84	29.412
250.22	30.481
250.59	27.811
250.96	28.283
251.33	27.962
251.70	29.703
252.08	23.810
252.45	23.767
252.82	25.652
253.19	28.511
253.56	21.961
253.94	25.726
254.31	20.313
254.68	23.462
255.05	22.140
255.42	23.171
255.79	22.794
256.16	23.827
256.54	18.375
256.91	23.132
257.28	11.511
257.65	19.142
258.02	18.944
258.39	17.350
258.76	16.388
259.14	15.476
259.51	12.766
259.88	15.528
260.25	15.710
260.62	17.919
260.99	15.839
261.36	14.715
261.73	16.046
262.10	15.698
262.47	15.775
262.85	13.928
263.22	13.960
263.59	15.670
263.96	14.560
264.33	12.010
264.70	14.737
265.07	15.090
265.44	14.646
265.81	11.922
266.18	15.075
266.55	12.927
266.92	12.531
267.29	13.889
267.66	15.596
268.03	14.091
268.40	15.187
268.77	10.501
269.14	14.414
269.51	15.576
269.88	12.587
270.25	11.512
270.62	12.360
270.99	13.978
271.36	12.876
271.73	12.383
272.10	10.435
272.47	13.548
272.84	12.771
273.21	12.998
273.58	12.009
273.95	12.159
274.32	11.777
274.69	11.777
275.06	11.220
275.43	12.340
275.80	11.623
276.17	9.980
276.54	13.929
276.91	10.277
277.28	11.133
277.65	11.219
278.02	11.180
278.39	13.477
278.76	10.000
279.13	10.377
279.50	11.173
279.87	11.355
280.23	10.379
280.60	7.350
280.97	10.351
281.34	10.973
281.71	12.364
282.08	10.557
282.45	9.455
282.82	12.789
283.19	9.804
283.56	10.351
283.92	9.306
284.29	10.053
284.66	10.345
285.03	9.403
285.40	12.148
285.77	9.428
286.14	7.427
286.51	11.667
286.87	9.915
287.24	8.795
287.61	9.149
287.98	10.227
288.35	9.192
288.72	10.280
289.08	10.642
289.45	7.743
289.82	8.943
290.19	7.692
290.56	9.035
290.93	8.157
291.29	8.742
291.66	8.997
292.03	10.756
292.40	9.838
292.77	8.728
293.13	9.552
293.50	9.621
293.87	6.815
294.24	8.000
294.60	6.550
294.97	9.012
295.34	8.604
295.71	8.949
296.08	7.123
296.44	7.153
296.81	7.794
297.18	9.079
297.55	5.937
297.91	8.443
298.28	7.764
298.65	9.138
299.02	8.300
299.38	6.375
299.75	7.008
300.12	6.769
300.48	7.875
300.85	6.905
301.22	8.025
301.59	5.682
301.95	5.919
302.32	7.060
302.69	6.452
303.05	7.394
303.42	6.543
303.79	7.022
304.15	6.527
304.52	6.837
304.89	6.504
305.25	6.148
305.62	7.361
305.99	6.848
306.35	6.488
306.72	7.287
307.09	6.548
307.45	7.095
307.82	6.362
308.19	5.850
308.55	6.472
308.92	6.015
309.29	5.385
309.65	6.257
310.02	6.448
310.38	6.452
310.75	5.702
311.12	6.755
311.48	7.106
311.85	6.709
312.22	5.723
312.58	6.549
312.95	7.181
313.31	6.311
313.68	6.445
314.05	8.383
314.41	6.131
314.78	6.949
315.14	6.951
315.51	5.561
315.87	6.337
316.24	5.660
316.61	5.945
316.97	6.164
317.34	5.871
317.70	7.553
318.07	7.603
318.43	6.947
318.80	7.310
319.16	6.780
319.53	6.004
319.89	6.952
320.26	7.900
320.62	7.341
320.99	7.576
321.35	7.576
321.72	7.084
322.08	7.700
322.45	9.154
322.81	9.302
323.18	7.900
323.54	8.720
323.91	7.547
324.27	8.222
324.64	7.083
325.00	7.935
325.37	7.825
325.73	8.707
326.10	7.590
326.46	8.333
326.83	8.542
327.19	8.369
327.56	7.143
327.92	7.787
328.29	9.139
328.65	9.484
329.01	8.935
329.38	8.141
329.74	9.326
330.11	8.483
330.47	8.540
330.84	10.018
331.20	8.834
331.56	8.257
331.93	7.870
332.29	9.317
332.66	9.558
333.02	8.410
333.38	9.124
333.75	10.873
334.11	8.096
334.48	8.341
334.84	9.283
335.20	8.636
335.57	8.341
335.93	8.214
336.29	7.326
336.66	8.115
337.02	7.330
337.38	9.074
337.75	8.734
338.11	8.236
338.47	8.656
338.84	8.708
339.20	8.991
339.56	9.124
339.93	8.636
340.29	8.424
340.65	8.556
341.02	9.686
341.38	9.164
341.74	9.123
342.11	8.646
342.47	8.546
342.83	7.705
343.20	9.437
343.56	9.099
343.92	8.684
344.28	8.844
344.65	9.286
345.01	8.249
345.37	7.033
345.73	7.614
346.10	8.355
346.46	8.051
346.82	8.484
347.19	7.352
347.55	8.210
347.91	7.848
348.27	8.792
348.63	7.525
349.00	7.686
349.36	8.539
349.72	8.019
350.08	7.455
350.45	7.730
350.81	8.530
351.17	7.699
351.53	8.026
351.89	8.003
352.26	8.445
352.62	8.661
352.98	8.509
353.34	7.806
353.70	6.628
354.07	8.145
354.43	7.778
354.79	7.241
355.15	8.061
355.51	8.393
355.87	7.755
356.24	8.143
356.60	8.180
356.96	7.965
357.32	7.686
357.68	8.583
358.04	7.918
358.40	7.918
358.77	8.372
359.13	7.577
359.49	7.373
359.85	6.746
360.21	7.496
360.57	8.249
360.93	8.538
361.29	8.390
361.66	7.121
362.02	7.388
362.38	8.213
362.74	7.664
363.10	7.180
363.46	7.043
363.82	6.500
364.18	7.636
364.54	8.247
364.90	8.569
365.26	7.721
365.62	8.035
365.98	6.866
366.35	7.307
366.71	7.592
367.07	6.555
367.43	6.967
367.79	8.137
368.15	8.621
368.51	7.413
368.87	8.280
369.23	7.681
369.59	7.603
369.95	6.324
370.31	8.333
370.67	6.739
371.03	7.416
371.39	8.090
371.75	7.206
372.11	6.828
372.47	8.284
372.83	7.349
373.19	6.936
373.55	7.169
373.91	7.658
374.27	7.423
374.63	6.691
374.99	7.698
375.35	6.420
375.71	6.306
376.07	8.093
376.42	7.084
376.78	7.091
377.14	6.649
377.50	7.815
377.86	6.250
378.22	7.775
378.58	6.015
378.94	6.537
379.30	6.743
379.66	7.741
380.02	7.248
380.38	6.436
380.74	7.623
381.09	7.090
381.45	6.822
381.81	7.064
382.17	7.197
382.53	6.918
382.89	7.222
383.25	6.567
383.61	7.311
383.97	7.630
384.32	7.112
384.68	6.877
385.04	6.577
385.40	6.811
385.76	7.371
386.12	6.671
386.48	6.923
386.83	6.799
387.19	7.236
387.55	7.174
387.91	7.013
388.27	7.174
388.62	6.392
388.98	6.265
389.34	7.322
389.70	7.174
390.06	7.351
390.42	7.523
390.77	6.997
391.13	7.594
391.49	6.853
391.85	7.257
392.20	5.678
392.56	7.071
392.92	6.886
393.28	5.799
393.64	6.475
393.99	6.781
394.35	7.196
394.71	6.964
395.07	5.919
395.42	6.242
395.78	7.316
396.14	7.076
396.50	7.018
396.85	6.993
397.21	6.597
397.57	6.634
397.92	6.490
398.28	6.222
398.64	6.810
399.00	6.435
399.35	6.035
399.71	6.424
400.07	7.569
400.42	6.810
400.78	6.876
401.14	6.585
401.49	7.045
401.85	6.050
402.21	6.407
402.57	5.614
402.92	6.873
403.28	7.308
403.63	6.374
403.99	6.561
404.35	6.970
404.70	6.055
405.06	6.174
405.42	5.864
405.77	6.000
406.13	5.643
406.49	6.682
406.84	6.852
407.20	6.265
407.55	6.637
407.91	5.533
408.27	6.573
408.62	6.201
408.98	6.250
409.34	7.011
409.69	6.968
410.05	6.506
410.40	6.177
410.76	6.392
411.11	6.996
411.47	6.837
411.83	6.414
412.18	5.875
412.54	7.098
412.89	6.687
413.25	6.375
413.60	6.300
413.96	5.707
414.31	6.744
414.67	6.274
415.03	6.225
415.38	7.088
415.74	6.688
416.09	5.683
416.45	6.961
416.80	6.609
417.16	7.239
417.51	6.702
417.87	6.423
418.22	6.625
418.58	6.972
418.93	7.248
419.29	7.066
419.64	6.675
420.00	6.402
420.35	6.725
420.71	7.651
421.06	6.086
421.42	6.608
421.77	6.895
422.12	6.457
422.48	5.397
422.83	6.348
423.19	6.464
423.54	5.804
423.90	6.551
424.25	6.756
424.61	6.250
424.96	6.122
425.31	6.478
425.67	6.067
426.02	6.629
426.38	6.777
426.73	6.319
427.09	6.930
427.44	5.405
427.79	6.268
428.15	6.786
428.50	5.910
428.85	6.794
429.21	5.687
429.56	6.013
429.92	5.687
430.27	5.214
430.62	5.428
430.98	5.968
431.33	6.495
431.68	6.021
432.04	6.124
432.39	6.339
432.74	6.164
433.10	5.942
433.45	6.122
433.80	5.322
434.16	6.250
434.51	6.316
434.86	6.100
435.22	5.503
435.57	6.018
435.92	6.085
436.28	6.109
436.63	6.512
436.98	6.068
437.34	6.082
437.69	6.476
438.04	5.734
438.39	6.209
438.75	6.450
439.10	5.922
439.45	5.726
439.81	5.861
440.16	5.759
440.51	5.155
440.86	5.964
441.22	6.062
441.57	6.369
441.92	6.090
442.27	6.243
442.63	6.056
442.98	6.197
443.33	6.033
443.68	6.144
444.03	6.247
444.39	5.015
444.74	5.628
445.09	6.146
445.44	5.960
445.79	6.531
446.15	6.723
446.50	6.031
446.85	5.550
447.20	6.170
447.55	6.198
447.91	6.288
448.26	5.620
448.61	6.388
448.96	6.257
449.31	6.018
449.66	6.078
450.02	5.125
450.37	5.329
450.72	5.640
451.07	5.728
451.42	5.775
451.77	6.577
452.12	6.178
452.47	6.468
452.83	5.886
453.18	6.357
453.53	6.803
453.88	5.375
454.23	6.157
454.58	6.420
454.93	7.184
455.28	5.923
455.63	5.765
455.98	7.143
456.34	5.779
456.69	6.450
457.04	5.882
457.39	6.137
457.74	6.326
458.09	6.210
458.44	5.929
458.79	5.423
459.14	5.530
459.49	6.363
459.84	6.094
460.19	5.716
460.54	6.076
460.89	5.650
461.24	5.950
461.59	7.031
461.94	6.412
462.29	6.647
462.64	5.233
462.99	6.116
463.34	7.133
463.69	6.066
464.04	6.783
464.39	6.725
464.74	6.774
465.09	6.031
465.44	5.706
465.79	5.761
466.14	5.747
466.49	5.951
466.84	6.480
467.19	6.880
467.54	6.250
467.89	6.242
468.24	6.283
468.59	7.021
468.94	5.742
469.29	6.170
469.64	6.827
469.99	5.954
470.34	5.680
470.68	6.322
471.03	6.122
471.38	6.532
471.73	5.929
472.08	6.842
472.43	5.653
472.78	6.188
473.13	6.611
473.48	6.367
473.83	6.098
474.17	5.663
474.52	7.010
474.87	6.713
475.22	6.326
475.57	5.320
475.92	5.576
476.27	5.806
476.61	6.178
476.96	5.223
477.31	5.128
477.66	4.923
478.01	5.907
478.36	5.764
478.70	4.777
479.05	6.337
479.40	5.629
479.75	4.982
480.10	5.517
480.45	5.426
480.79	5.829
481.14	5.577
481.49	5.648
481.84	4.938
482.19	5.952
482.53	5.092
482.88	4.933
483.23	5.561
483.58	5.414
483.92	5.576
484.27	4.662
484.62	4.914
484.97	4.730
485.31	4.795
485.66	4.253
486.01	3.592
486.36	3.561
486.70	3.642
487.05	3.857
487.40	3.805
487.75	4.080
488.09	4.550
488.44	4.136
488.79	4.557
489.13	4.469
489.48	4.119
489.83	4.618
490.17	4.779
490.52	4.562
490.87	4.749
491.22	5.275
491.56	4.738
491.91	5.072
492.26	4.961
492.60	5.346
492.95	4.911
493.30	5.607
493.64	5.086
493.99	5.060
494.34	5.319
494.68	5.082
495.03	5.686
495.37	5.398
495.72	4.825
496.07	5.476
496.41	4.602
496.76	5.233
497.11	4.728
497.45	5.077
497.80	5.038
498.14	4.783
498.49	4.976
498.84	5.081
499.18	4.571
499.53	4.843
499.87	4.986
500.22	4.663
500.56	5.388
500.91	4.904
501.26	5.405
501.60	5.221
501.95	4.995
502.29	5.670
502.64	4.935
502.98	5.236
503.33	4.479
503.67	5.151
504.02	5.098
504.36	5.194
504.71	4.836
505.06	5.253
505.40	5.007
505.75	4.629
506.09	5.151
506.44	4.835
506.78	5.602
507.13	4.897
507.47	5.707
507.82	5.572
508.16	5.117
508.51	5.277
508.85	5.660
509.19	4.949
509.54	5.000
509.88	5.100
510.23	5.450
510.57	5.779
510.92	5.127
511.26	5.190
511.61	5.602
511.95	5.532
512.30	5.673
512.64	5.373
512.98	5.520
513.33	5.567
513.67	5.123
514.02	4.924
514.36	5.625
514.70	5.423
515.05	5.800
515.39	6.450
515.74	5.011
516.08	5.534
516.42	5.938
516.77	5.741
517.11	5.216
517.46	5.023
517.80	5.226
518.14	4.748
518.49	6.009
518.83	6.591
519.17	5.254
519.52	5.207
519.86	6.332
520.20	5.491
520.55	5.925
520.89	5.474
521.23	6.454
521.58	5.702
521.92	6.491
522.26	4.637
522.61	4.922
522.95	5.525
523.29	5.660
523.64	6.463
523.98	6.161
524.32	5.850
524.66	6.194
525.01	6.127
525.35	5.390
525.69	5.419
526.04	5.483
526.38	5.979
526.72	6.196
527.06	5.273
527.41	4.703
527.75	6.109
528.09	6.230
528.43	6.182
528.78	5.409
529.12	5.636
529.46	5.818
529.80	6.312
530.15	6.417
530.49	6.154
530.83	5.823
531.17	6.462
531.51	7.134
531.86	5.355
532.20	6.193
532.54	6.406
532.88	6.354
533.22	5.559
533.57	6.481
533.91	5.900
534.25	5.164
534.59	6.040
534.93	6.246
535.27	5.492
535.62	6.105
535.96	6.215
536.30	5.594
536.64	6.568
536.98	5.972
537.32	6.122
537.66	5.733
538.01	6.122
538.35	6.593
538.69	6.318
539.03	5.328
539.37	5.623
539.71	4.601
540.05	5.817
540.39	5.980
540.73	6.080
541.07	6.424
541.42	6.719
541.76	6.581
542.10	6.921
542.44	6.291
542.78	6.324
543.12	5.438
543.46	6.885
543.80	5.725
544.14	5.392
544.48	6.349
544.82	5.324
545.16	6.376
545.50	5.784
545.84	6.922
546.18	5.657
546.52	5.643
546.86	6.392
547.20	6.676
547.54	6.079
547.88	7.079
548.22	6.351
548.56	6.478
548.90	6.082
549.24	5.185
549.58	6.276
549.92	6.250
550.26	6.321
550.60	6.293
550.94	6.268
551.28	5.267
551.62	6.111
551.96	6.246
552.30	7.031
552.64	6.288
552.98	6.373
553.32	6.945
553.66	6.544
554.00	6.452
554.34	6.004
554.68	6.223
555.02	6.065
555.36	6.124
555.69	6.360
556.03	5.585
556.37	5.525
556.71	6.003
557.05	6.653
557.39	6.508
557.73	6.563
558.07	6.454
558.41	6.078
558.75	5.878
559.08	6.488
559.42	6.047
559.76	6.765
560.10	6.495
560.44	6.150
560.78	5.988
561.12	6.003
561.45	6.258
561.79	5.867
562.13	6.439
562.47	5.943
562.81	5.997
563.15	6.221
563.48	6.963
563.82	5.610
564.16	5.559
564.50	5.208
564.84	5.815
565.17	5.405
565.51	5.687
565.85	5.266
566.19	5.823
566.52	6.523
566.86	5.606
567.20	6.545
567.54	5.365
567.88	4.889
568.21	6.138
568.55	5.561
568.89	5.107
569.23	5.125
569.56	5.061
569.90	4.642
570.24	4.413
570.57	4.318
570.91	4.266
571.25	4.231
571.59	4.212
571.92	3.888
572.26	4.188
572.60	4.144
572.93	3.988
573.27	4.289
573.61	4.383
573.95	4.341
574.28	3.920
574.62	3.571
574.96	3.680
575.29	3.831
575.63	3.887
575.97	3.905
576.30	4.116
576.64	3.917
576.98	3.573
577.31	3.420
577.65	3.431
577.98	3.257
578.32	3.515
578.66	3.648
578.99	3.538
579.33	3.655
579.67	3.576
580.00	3.380
580.34	3.892
580.67	3.285
581.01	3.913
581.35	3.661
581.68	3.459
582.02	3.183
582.35	3.327
582.69	3.544
583.02	3.557
583.36	3.643
583.70	3.546
584.03	3.814
584.37	4.032
584.70	3.710
585.04	3.865
585.37	3.821
585.71	3.736
586.04	3.962
586.38	3.840
586.72	4.004
587.05	3.722
587.39	3.562
587.72	3.917
588.06	3.415
588.39	4.005
588.73	4.165
589.06	4.269
589.40	4.141
589.73	3.731
590.07	4.484
590.40	4.421
590.73	4.645
591.07	4.884
591.40	4.724
591.74	4.805
592.07	4.494
592.41	4.837
592.74	4.532
593.08	4.430
593.41	4.271
593.75	3.654
594.08	4.492
594.41	4.171
594.75	4.067
595.08	4.545
595.42	4.518
595.75	4.309
596.09	4.356
596.42	5.344
596.75	4.517
597.09	5.671
597.42	4.216
597.75	4.787
598.09	4.696
598.42	4.940
598.76	4.662
599.09	4.561
599.42	4.076
599.76	4.539
600.09	4.590
600.42	4.127
600.76	4.321
601.09	4.372
601.42	4.452
601.76	4.554
602.09	4.427
602.42	4.578
602.76	4.514
603.09	4.721
603.42	4.373
603.76	4.573
604.09	4.149
604.42	4.403
604.76	5.061
605.09	5.111
605.42	4.917
605.75	4.553
606.09	4.189
606.42	4.046
606.75	5.392
607.09	4.814
607.42	4.792
607.75	4.810
608.08	4.863
608.42	5.558
608.75	5.095
609.08	4.810
609.41	4.998
609.75	4.907
610.08	5.278
610.41	4.795
610.74	4.494
611.07	4.644
611.41	4.711
611.74	5.530
612.07	6.263
612.40	5.037
612.73	4.632
613.07	5.388
613.40	5.951
613.73	4.352
614.06	5.161
614.39	5.401
614.72	5.579
615.06	6.092
615.39	4.936
615.72	5.521
616.05	5.157
616.38	5.892
616.71	4.929
617.05	6.302
617.38	5.292
617.71	5.766
618.04	6.430
618.37	5.322
618.70	5.912
619.03	6.118
619.36	5.906
619.69	5.845
620.03	7.074
620.36	6.283
620.69	6.644
621.02	6.711
621.35	5.951
621.68	5.763
622.01	6.347
622.34	7.110
622.67	6.160
623.00	5.649
623.33	6.219
623.66	6.505
623.99	6.848
624.32	7.204
624.65	5.438
624.99	6.161
625.32	6.010
625.65	5.409
625.98	5.765
626.31	7.232
626.64	6.449
626.97	6.401
627.30	7.149
627.63	7.055
627.96	7.065
628.29	6.737
628.62	7.228
628.95	8.962
629.28	6.934
629.61	8.341
629.94	7.143
630.26	6.864
630.59	6.959
630.92	7.471
631.25	7.601
631.58	7.808
631.91	8.114
632.24	7.384
632.57	6.925
632.90	8.004
633.23	7.830
633.56	9.153
633.89	9.287
634.22	7.719
634.55	8.166
634.88	8.982
635.20	9.080
635.53	8.072
635.86	8.045
636.19	7.529
636.52	7.497
636.85	8.477
637.18	8.525
637.51	9.456
637.83	7.891
638.16	7.673
638.49	9.824
638.82	9.608
639.15	7.875
639.48	10.100
639.81	9.920
640.13	9.635
640.46	10.201
640.79	10.172
641.12	7.428
641.45	10.056
641.77	9.720
642.10	9.942
642.43	9.009
642.76	9.443
643.09	11.503
643.41	9.863
643.74	9.722
644.07	11.585
644.40	11.963
644.73	11.024
645.05	13.154
645.38	9.637
645.71	9.984
646.04	10.299
646.36	12.354
646.69	12.040
647.02	10.714
647.35	11.512
647.67	10.796
648.00	12.683
648.33	9.571
648.66	10.303
648.98	10.045
649.31	9.118
649.64	9.417
649.96	11.177
650.29	10.900
650.62	10.680
650.94	11.507
651.27	11.993
651.60	11.980
651.92	11.661
652.25	10.098
652.58	10.125
652.90	11.532
653.23	9.399
