SpectraSuite Data File
++++++++++++++++++++++++++++++++++++
Date: Wed May 13 19:29:07 PDT 2015
User: schluterlab
Dark Spectrum Present: Yes
Reference Spectrum Present: Yes
Number of Sampled Component Spectra: 1
Spectrometers: USB2E3373
Integration Time (usec): 3000 (USB2E3373)
Spectra Averaged: 3 (USB2E3373)
Boxcar Smoothing: 0 (USB2E3373)
Correct for Electrical Dark: No (USB2E3373)
Strobe/Lamp Enabled: No (USB2E3373)
Correct for Detector Non-linearity: No (USB2E3373)
Correct for Stray Light: No (USB2E3373)
Number of Pixels in Processed Spectrum: 2048
>>>>>Begin Processed Spectral Data<<<<<
178.53	0.000
178.91	-1475.000
179.29	-1250.000
179.67	-161.111
180.04	-1500.000
180.42	2500.000
180.80	900.000
181.18	-1050.000
181.56	757.143
181.94	0.000
182.31	-642.857
182.69	1566.667
183.07	-550.000
183.45	-600.000
183.83	563.636
184.20	-450.000
184.58	2400.000
184.96	5300.000
185.34	-920.000
185.72	-600.000
186.09	-2600.000
186.47	3250.000
186.85	2400.000
187.23	4800.000
187.61	-1466.667
187.98	1625.000
188.36	554.545
188.74	590.909
189.12	-1060.000
189.49	530.000
189.87	-5600.000
190.25	-1350.000
190.63	442.857
191.00	423.077
191.38	850.000
191.76	-1300.000
192.14	1275.000
192.51	675.000
192.89	1050.000
193.27	612.500
193.65	-1350.000
194.02	530.000
194.40	760.000
194.78	530.000
195.15	475.000
195.53	630.000
195.91	-2300.000
196.29	362.500
196.66	289.474
197.04	-390.000
197.42	0.000
197.79	590.000
198.17	-5200.000
198.55	842.857
198.92	650.000
199.30	1160.000
199.68	0.000
200.05	350.000
200.43	742.857
200.81	3900.000
201.18	1633.333
201.56	-1866.667
201.94	577.778
202.31	622.222
202.69	508.333
203.07	570.000
203.44	0.000
203.82	1275.000
204.19	885.714
204.57	514.286
204.95	500.000
205.32	1566.667
205.70	563.636
206.08	464.286
206.45	2750.000
206.83	431.250
207.20	950.000
207.58	980.000
207.96	311.111
208.33	712.500
208.71	-783.333
209.08	714.286
209.46	600.000
209.84	490.909
210.21	-1533.333
210.59	1400.000
210.96	-475.000
211.34	2550.000
211.71	570.000
212.09	816.667
212.46	0.000
212.84	1666.667
213.22	1550.000
213.59	-4800.000
213.97	866.667
214.34	814.286
214.72	600.000
215.09	1060.000
215.47	-2650.000
215.84	-2900.000
216.22	1766.667
216.59	435.714
216.97	1425.000
217.34	545.455
217.72	-866.667
218.09	0.000
218.47	-5700.000
218.84	644.444
219.22	785.714
219.59	2000.000
219.97	-700.000
220.34	1020.000
220.72	-1666.667
221.09	450.000
221.47	1675.000
221.84	-950.000
222.22	0.000
222.59	1250.000
222.97	-2150.000
223.34	1100.000
223.72	430.769
224.09	1120.000
224.46	2200.000
224.84	-5200.000
225.21	-1100.000
225.59	-4600.000
225.96	620.000
226.34	330.000
226.71	3150.000
227.08	712.500
227.46	550.000
227.83	-1275.000
228.21	-2000.000
228.58	600.000
228.95	-2850.000
229.33	-2350.000
229.70	2033.333
230.08	757.143
230.45	-780.000
230.82	441.667
231.20	833.333
231.57	657.143
231.95	450.000
232.32	245.455
232.69	500.000
233.07	714.286
233.44	400.000
233.81	-1833.333
234.19	363.158
234.56	508.333
234.93	458.333
235.31	581.818
235.68	430.769
236.05	392.857
236.43	175.758
236.80	315.789
237.17	5400.000
237.55	295.238
237.92	217.857
238.29	295.238
238.67	209.677
239.04	210.345
239.41	166.667
239.79	158.696
240.16	140.476
240.53	147.727
240.91	141.176
241.28	116.000
241.65	120.000
242.02	111.594
242.40	109.677
242.77	118.333
243.14	91.398
243.51	100.000
243.89	89.412
244.26	82.222
244.63	83.871
245.00	80.851
245.38	95.050
245.75	77.570
246.12	69.725
246.49	72.993
246.87	73.600
247.24	77.692
247.61	70.000
247.98	67.974
248.36	72.973
248.73	59.873
249.10	69.427
249.47	65.537
249.84	71.658
250.22	62.567
250.59	60.947
250.96	54.040
251.33	58.294
251.70	62.376
252.08	59.048
252.45	59.193
252.82	51.304
253.19	54.468
253.56	54.510
253.94	57.261
254.31	50.391
254.68	53.077
255.05	54.982
255.42	55.691
255.79	51.838
256.16	50.542
256.54	48.057
256.91	57.295
257.28	46.763
257.65	47.525
258.02	50.621
258.39	45.426
258.76	47.157
259.14	49.405
259.51	45.593
259.88	46.584
260.25	48.943
260.62	42.775
260.99	45.342
261.36	46.547
261.73	46.991
262.10	49.128
262.47	46.761
262.85	46.518
263.22	45.869
263.59	47.578
263.96	43.956
264.33	44.909
264.70	45.789
265.07	46.036
265.44	46.465
265.81	41.363
266.18	48.241
266.55	42.927
266.92	44.717
267.29	42.593
267.66	44.037
268.03	41.136
268.40	42.056
268.77	43.198
269.14	42.793
269.51	44.695
269.88	45.688
270.25	40.858
270.62	42.022
270.99	42.581
271.36	38.841
271.73	42.290
272.10	42.609
272.47	42.581
272.84	41.558
273.21	40.881
273.58	41.485
273.95	39.832
274.32	40.496
274.69	40.043
275.06	39.173
275.43	41.277
275.80	39.880
276.17	39.104
276.54	40.333
276.91	40.514
277.28	40.039
277.65	39.845
278.02	38.923
278.39	41.211
278.76	39.091
279.13	38.491
279.50	40.223
279.87	41.036
280.23	39.122
280.60	39.265
280.97	39.372
281.34	39.292
281.71	39.636
282.08	41.843
282.45	35.818
282.82	39.076
283.19	37.433
283.56	38.596
283.92	38.409
284.29	37.390
284.66	35.935
285.03	37.975
285.40	38.204
285.77	38.047
286.14	38.860
286.51	38.667
286.87	36.752
287.24	37.296
287.61	35.795
287.98	34.091
288.35	33.914
288.72	35.514
289.08	34.585
289.45	36.573
289.82	34.472
290.19	33.281
290.56	32.619
290.93	33.686
291.29	34.049
291.66	32.448
292.03	34.302
292.40	35.095
292.77	32.544
293.13	32.687
293.50	32.216
293.87	31.111
294.24	30.963
294.60	30.713
294.97	30.814
295.34	32.299
295.71	31.818
296.08	28.063
296.44	29.711
296.81	30.515
297.18	31.165
297.55	27.704
297.91	29.024
298.28	30.522
298.65	29.896
299.02	28.986
299.38	28.685
299.75	27.089
300.12	27.203
300.48	27.000
300.85	29.716
301.22	28.790
301.59	27.399
301.95	29.093
302.32	29.653
302.69	27.121
303.05	28.364
303.42	26.914
303.79	27.067
304.15	25.991
304.52	25.492
304.89	26.829
305.25	26.218
305.62	26.954
305.99	27.155
306.35	27.069
306.72	26.009
307.09	27.081
307.45	27.140
307.82	25.112
308.19	25.386
308.55	27.616
308.92	26.208
309.29	24.921
309.65	25.875
310.02	25.687
310.38	26.882
310.75	26.505
311.12	25.691
311.48	25.183
311.85	26.730
312.22	26.639
312.58	25.676
312.95	27.244
313.31	24.951
313.68	26.923
314.05	28.107
314.41	24.824
314.78	25.780
315.14	25.422
315.51	27.188
315.87	26.337
316.24	27.110
316.61	27.193
316.97	25.930
317.34	26.125
317.70	27.533
318.07	27.334
318.43	27.299
318.80	28.397
319.16	27.966
319.53	27.111
319.89	28.000
320.26	28.600
320.62	28.869
320.99	28.081
321.35	28.687
321.72	30.390
322.08	32.083
322.45	33.333
322.81	32.171
323.18	32.948
323.54	32.375
323.91	33.491
324.27	32.314
324.64	33.644
325.00	33.273
325.37	34.213
325.73	36.176
326.10	35.305
326.46	35.305
326.83	37.015
327.19	35.440
327.56	37.195
327.92	37.620
328.29	38.154
328.65	39.963
329.01	39.079
329.38	40.148
329.74	39.428
330.11	40.905
330.47	40.588
330.84	40.901
331.20	40.710
331.56	42.202
331.93	41.944
332.29	41.171
332.66	41.858
333.02	42.505
333.38	43.812
333.75	42.602
334.11	41.904
334.48	43.656
334.84	42.647
335.20	44.000
335.57	42.702
335.93	41.429
336.29	42.399
336.66	42.922
337.02	41.357
337.38	43.796
337.75	41.444
338.11	43.062
338.47	43.002
338.84	44.821
339.20	43.394
339.56	44.891
339.93	44.273
340.29	44.022
340.65	44.296
341.02	43.281
341.38	43.772
341.74	43.158
342.11	43.144
342.47	44.846
342.83	43.921
343.20	43.810
343.56	43.387
343.92	44.123
344.28	43.622
344.65	44.282
345.01	43.855
345.37	43.482
345.73	43.232
346.10	43.990
346.46	44.492
346.82	43.575
347.19	44.194
347.55	42.529
347.91	43.932
348.27	45.111
348.63	44.064
349.00	44.094
349.36	43.432
349.72	43.464
350.08	43.517
350.45	43.857
350.81	43.136
351.17	43.841
351.53	43.571
351.89	44.224
352.26	45.935
352.62	43.545
352.98	42.707
353.34	44.700
353.70	44.108
354.07	45.645
354.43	43.413
354.79	43.282
355.15	43.655
355.51	44.924
355.87	44.898
356.24	43.730
356.60	44.186
356.96	44.248
357.32	45.053
357.68	43.858
358.04	44.735
358.40	44.022
358.77	44.836
359.13	43.252
359.49	44.549
359.85	44.206
360.21	45.136
360.57	44.669
360.93	45.692
361.29	44.520
361.66	44.350
362.02	44.851
362.38	44.715
362.74	44.420
363.10	44.264
363.46	43.800
363.82	46.107
364.18	43.906
364.54	45.022
364.90	46.601
365.26	45.809
365.62	45.215
365.98	44.631
366.35	45.201
366.71	46.276
367.07	44.720
367.43	47.025
367.79	46.181
368.15	46.767
368.51	45.131
368.87	46.039
369.23	45.721
369.59	48.081
369.95	45.662
370.31	45.655
370.67	46.449
371.03	48.315
371.39	46.866
371.75	47.574
372.11	47.368
372.47	49.194
372.83	49.135
373.19	47.182
373.55	49.224
373.91	49.779
374.27	46.873
374.63	48.364
374.99	48.799
375.35	48.081
375.71	47.841
376.07	48.422
376.42	49.450
376.78	49.834
377.14	49.050
377.50	49.669
377.86	48.604
378.22	48.546
378.58	48.246
378.94	48.209
379.30	51.145
379.66	50.254
380.02	48.833
380.38	49.545
380.74	50.300
381.09	49.450
381.45	51.506
381.81	51.044
382.17	50.064
382.53	50.440
382.89	51.543
383.25	51.907
383.61	52.788
383.97	52.720
384.32	50.842
384.68	51.487
385.04	52.612
385.40	52.508
385.76	52.948
386.12	53.238
386.48	52.549
386.83	55.228
387.19	54.607
387.55	54.360
387.91	53.325
388.27	51.993
388.62	54.702
388.98	53.133
389.34	54.068
389.70	54.139
390.06	56.147
390.42	55.707
390.77	55.598
391.13	56.286
391.49	55.584
391.85	54.233
392.20	55.268
392.56	56.881
392.92	56.622
393.28	55.325
393.64	56.295
393.99	55.834
394.35	56.203
394.71	56.462
395.07	56.698
395.42	56.675
395.78	57.634
396.14	58.349
396.50	59.649
396.85	58.996
397.21	57.460
397.57	59.330
397.92	58.594
398.28	57.623
398.64	58.662
399.00	58.702
399.35	58.545
399.71	59.317
400.07	59.787
400.42	61.350
400.78	60.555
401.14	60.122
401.49	60.060
401.85	60.254
402.21	59.940
402.57	60.580
402.92	61.538
403.28	61.899
403.63	61.448
403.99	62.739
404.35	61.152
404.70	61.451
405.06	61.037
405.42	61.697
405.77	61.200
406.13	61.569
406.49	61.502
406.84	61.488
407.20	62.175
407.55	64.263
407.91	64.867
408.27	63.625
408.62	63.757
408.98	63.480
409.34	64.453
409.69	64.129
410.05	65.180
410.40	64.220
410.76	64.875
411.11	64.415
411.47	65.495
411.83	65.730
412.18	65.182
412.54	66.438
412.89	65.060
413.25	66.411
413.60	66.893
413.96	65.331
414.31	66.464
414.67	66.857
415.03	68.808
415.38	68.235
415.74	68.039
416.09	68.713
416.45	68.809
416.80	68.605
417.16	69.102
417.51	70.073
417.87	69.236
418.22	70.095
418.58	70.949
418.93	71.314
419.29	70.146
419.64	69.395
420.00	70.244
420.35	70.783
420.71	70.891
421.06	71.181
421.42	69.883
421.77	71.581
422.12	70.691
422.48	70.750
422.83	70.821
423.19	72.099
423.54	73.418
423.90	72.348
424.25	71.524
424.61	73.274
424.96	73.703
425.31	73.367
425.67	71.404
426.02	73.600
426.38	74.908
426.73	73.903
427.09	75.015
427.44	74.123
427.79	74.928
428.15	74.881
428.50	75.249
428.85	75.089
429.21	75.152
429.56	75.168
429.92	74.132
430.27	75.223
430.62	74.142
430.98	74.209
431.33	73.866
431.68	75.445
432.04	76.358
432.39	78.241
432.74	76.721
433.10	77.985
433.45	78.192
433.80	78.326
434.16	78.259
434.51	76.789
434.86	78.335
435.22	78.933
435.57	79.574
435.92	80.749
436.28	79.834
436.63	78.808
436.98	78.535
437.34	80.262
437.69	79.930
438.04	81.282
438.39	79.761
438.75	80.825
439.10	81.006
439.45	80.579
439.81	83.021
440.16	81.875
440.51	81.605
440.86	80.544
441.22	81.034
441.57	81.157
441.92	82.190
442.27	82.185
442.63	81.464
442.98	81.296
443.33	82.500
443.68	82.189
444.03	82.430
444.39	82.084
444.74	83.333
445.09	82.588
445.44	81.629
445.79	82.138
446.15	81.948
446.50	82.714
446.85	82.837
447.20	82.662
447.55	83.305
447.91	84.666
448.26	82.860
448.61	84.228
448.96	84.662
449.31	85.152
449.66	85.031
450.02	84.847
450.37	83.787
450.72	84.828
451.07	83.973
451.42	82.918
451.77	85.907
452.12	84.527
452.47	82.898
452.83	84.965
453.18	85.330
453.53	86.889
453.88	86.474
454.23	87.448
454.58	86.554
454.93	87.349
455.28	85.599
455.63	86.104
455.98	88.393
456.34	85.364
456.69	86.349
457.04	88.111
457.39	86.850
457.74	85.432
458.09	85.681
458.44	86.773
458.79	85.466
459.14	87.246
459.49	86.398
459.84	86.870
460.19	86.388
460.54	83.738
460.89	85.793
461.24	87.189
461.59	88.088
461.94	86.745
462.29	88.724
462.64	85.833
462.99	87.378
463.34	87.200
463.69	87.805
464.04	86.609
464.39	85.101
464.74	86.512
465.09	87.153
465.44	84.820
465.79	86.969
466.14	85.878
466.49	85.706
466.84	87.040
467.19	86.482
467.54	87.312
467.89	86.194
468.24	86.969
468.59	87.912
468.94	84.667
469.29	88.625
469.64	90.228
469.99	89.175
470.34	88.441
470.68	89.224
471.03	88.980
471.38	91.730
471.73	89.407
472.08	89.342
472.43	88.882
472.78	88.479
473.13	86.072
473.48	89.451
473.83	87.744
474.17	87.492
474.52	88.089
474.87	88.792
475.22	86.999
475.57	86.029
475.92	88.210
476.27	87.599
476.61	88.693
476.96	88.125
477.31	88.017
477.66	88.293
478.01	87.820
478.36	87.890
478.70	87.799
479.05	87.540
479.40	88.741
479.75	88.815
480.10	88.718
480.45	86.340
480.79	87.578
481.14	88.503
481.49	87.850
481.84	87.106
482.19	87.279
482.53	88.394
482.88	87.855
483.23	88.972
483.58	87.716
483.92	88.332
484.27	86.580
484.62	87.759
484.97	87.190
485.31	87.534
485.66	83.579
486.01	81.559
486.36	78.891
486.70	79.411
487.05	80.492
487.40	83.580
487.75	84.283
488.09	86.533
488.44	87.859
488.79	88.897
489.13	88.846
489.48	88.581
489.83	88.433
490.17	88.558
490.52	87.467
490.87	88.241
491.22	87.813
491.56	87.654
491.91	87.762
492.26	88.241
492.60	88.710
492.95	88.026
493.30	86.916
493.64	87.634
493.99	87.837
494.34	86.864
494.68	88.141
495.03	88.158
495.37	87.157
495.72	89.766
496.07	88.538
496.41	84.867
496.76	85.928
497.11	86.312
497.45	87.797
497.80	87.572
498.14	87.198
498.49	88.098
498.84	88.351
499.18	88.714
499.53	86.230
499.87	87.279
500.22	86.670
500.56	89.417
500.91	87.981
501.26	87.482
501.60	87.850
501.95	85.839
502.29	88.191
502.64	88.175
502.98	88.125
503.33	86.837
503.67	87.239
504.02	86.015
504.36	86.991
504.71	87.885
505.06	87.663
505.40	87.457
505.75	86.114
506.09	87.609
506.44	88.555
506.78	87.141
507.13	88.945
507.47	88.939
507.82	88.197
508.16	88.045
508.51	89.548
508.85	88.332
509.19	88.316
509.54	86.939
509.88	88.047
510.23	88.432
510.57	89.319
510.92	88.918
511.26	87.153
511.61	87.707
511.95	87.891
512.30	87.964
512.64	88.716
512.98	89.014
513.33	89.026
513.67	86.126
514.02	87.716
514.36	89.350
514.70	89.873
515.05	90.351
515.39	88.671
515.74	89.752
516.08	88.206
516.42	88.513
516.77	89.075
517.11	87.403
517.46	89.616
517.80	91.057
518.14	89.693
518.49	90.607
518.83	88.466
519.17	90.416
519.52	90.040
519.86	90.074
520.20	89.538
520.55	91.083
520.89	90.572
521.23	90.953
521.58	90.756
521.92	91.427
522.26	88.164
522.61	91.402
522.95	89.871
523.29	90.079
523.64	91.829
523.98	92.545
524.32	89.747
524.66	90.379
525.01	89.828
525.35	90.644
525.69	89.101
526.04	90.654
526.38	90.177
526.72	89.264
527.06	90.207
527.41	89.233
527.75	91.961
528.09	91.908
528.43	90.950
528.78	88.875
529.12	88.848
529.46	90.508
529.80	91.460
530.15	90.654
530.49	89.046
530.83	90.696
531.17	92.689
531.51	91.440
531.86	89.226
532.20	91.134
532.54	88.597
532.88	90.372
533.22	87.320
533.57	87.963
533.91	88.200
534.25	88.639
534.59	89.445
534.93	86.734
535.27	88.715
535.62	89.194
535.96	89.768
536.30	89.638
536.64	89.118
536.98	89.250
537.32	88.611
537.66	89.467
538.01	90.520
538.35	89.851
538.69	89.343
539.03	89.214
539.37	87.923
539.71	87.168
540.05	90.261
540.39	88.771
540.73	87.581
541.07	88.449
541.42	89.759
541.76	89.161
542.10	89.845
542.44	90.861
542.78	88.011
543.12	86.884
543.46	88.131
543.80	88.874
544.14	86.264
544.48	89.397
544.82	88.198
545.16	89.265
545.50	87.532
545.84	88.105
546.18	88.620
546.52	89.126
546.86	90.447
547.20	88.334
547.54	87.842
547.88	87.372
548.22	86.239
548.56	85.031
548.90	85.915
549.24	88.350
549.58	86.835
549.92	88.393
550.26	91.761
550.60	87.275
550.94	90.352
551.28	88.588
551.62	90.295
551.96	88.842
552.30	87.645
552.64	87.424
552.98	88.339
553.32	86.244
553.66	87.594
554.00	87.783
554.34	86.542
554.68	87.840
555.02	88.011
555.36	87.822
555.69	84.912
556.03	86.878
556.37	87.381
556.71	85.812
557.05	87.465
557.39	85.934
557.73	86.662
558.07	88.325
558.41	89.219
558.75	89.199
559.08	88.814
559.42	89.947
559.76	88.162
560.10	87.152
560.44	86.303
560.78	85.828
561.12	85.092
561.45	83.638
561.79	83.652
562.13	85.379
562.47	86.954
562.81	87.657
563.15	85.351
563.48	85.146
563.82	86.432
564.16	86.004
564.50	83.464
564.84	83.123
565.17	86.036
565.51	85.431
565.85	84.898
566.19	83.532
566.52	85.117
566.86	84.207
567.20	84.021
567.54	82.991
567.88	79.848
568.21	80.952
568.55	81.345
568.89	81.080
569.23	79.545
569.56	77.004
569.90	76.792
570.24	77.216
570.57	75.179
570.91	74.273
571.25	74.676
571.59	73.932
571.92	73.906
572.26	74.235
572.60	75.465
572.93	73.883
573.27	74.860
573.61	73.506
573.95	73.463
574.28	72.915
574.62	72.838
574.96	71.541
575.29	72.066
575.63	72.612
575.97	72.715
576.30	72.650
576.64	72.226
576.98	71.463
577.31	72.528
577.65	71.792
577.98	71.431
578.32	69.917
578.66	70.252
578.99	71.673
579.33	70.976
579.67	71.297
580.00	71.470
580.34	71.951
580.67	72.654
581.01	71.486
581.35	71.098
581.68	70.244
582.02	69.355
582.35	69.675
582.69	70.514
583.02	70.852
583.36	71.086
583.70	73.202
584.03	72.936
584.37	73.439
584.70	73.302
585.04	70.523
585.37	71.039
585.71	70.653
586.04	70.548
586.38	72.309
586.72	71.500
587.05	70.198
587.39	70.765
587.72	70.961
588.06	71.612
588.39	71.440
588.73	71.517
589.06	72.982
589.40	73.333
589.73	72.826
590.07	72.776
590.40	73.548
590.73	74.278
591.07	75.621
591.40	74.694
591.74	75.065
592.07	73.866
592.41	72.923
592.74	71.386
593.08	70.187
593.41	70.199
593.75	68.957
594.08	71.069
594.41	70.661
594.75	72.902
595.08	71.188
595.42	72.154
595.75	71.118
596.09	72.400
596.42	71.238
596.75	72.604
597.09	72.684
597.42	71.754
597.75	71.971
598.09	70.609
598.42	71.692
598.76	71.342
599.09	69.023
599.42	69.032
599.76	69.546
600.09	69.035
600.42	68.335
600.76	68.393
601.09	69.982
601.42	69.597
601.76	69.715
602.09	70.672
602.42	69.944
602.76	71.020
603.09	70.889
603.42	70.949
603.76	68.750
604.09	69.601
604.42	70.322
604.76	69.970
605.09	70.380
605.42	68.918
605.75	69.785
606.09	69.174
606.42	69.841
606.75	69.224
607.09	69.025
607.42	69.277
607.75	68.861
608.08	68.910
608.42	69.296
608.75	69.206
609.08	69.380
609.41	69.396
609.75	68.795
610.08	70.028
610.41	69.786
610.74	69.111
611.07	70.702
611.41	70.118
611.74	69.231
612.07	70.186
612.40	70.409
612.73	70.737
613.07	70.312
613.40	70.300
613.73	69.533
614.06	70.860
614.39	68.117
614.72	68.579
615.06	68.855
615.39	68.737
615.72	68.814
616.05	67.836
616.38	70.428
616.71	71.318
617.05	70.612
617.38	70.776
617.71	70.571
618.04	71.575
618.37	69.249
618.70	70.691
619.03	71.776
619.36	72.098
619.69	73.310
620.03	71.635
620.36	71.658
620.69	73.219
621.02	73.083
621.35	73.218
621.68	72.819
622.01	71.672
622.34	73.374
622.67	72.700
623.00	71.607
623.33	71.122
623.66	71.766
623.99	72.091
624.32	71.612
624.65	70.763
624.99	69.051
625.32	69.587
625.65	70.924
625.98	73.174
626.31	71.617
626.64	74.286
626.97	72.402
627.30	73.400
627.63	72.765
627.96	74.516
628.29	73.491
628.62	73.925
628.95	74.906
629.28	71.989
629.61	73.602
629.94	74.857
630.26	74.643
630.59	75.024
