SpectraSuite Data File
++++++++++++++++++++++++++++++++++++
Date: Wed May 13 19:35:55 PDT 2015
User: schluterlab
Dark Spectrum Present: Yes
Reference Spectrum Present: Yes
Number of Sampled Component Spectra: 1
Spectrometers: USB2E3373
Integration Time (usec): 3000 (USB2E3373)
Spectra Averaged: 3 (USB2E3373)
Boxcar Smoothing: 0 (USB2E3373)
Correct for Electrical Dark: No (USB2E3373)
Strobe/Lamp Enabled: No (USB2E3373)
Correct for Detector Non-linearity: No (USB2E3373)
Correct for Stray Light: No (USB2E3373)
Number of Pixels in Processed Spectrum: 2048
>>>>>Begin Processed Spectral Data<<<<<
178.53	0.000
178.91	-1350.000
179.29	-1175.000
179.67	-283.333
180.04	-1175.000
180.42	2750.000
180.80	1180.000
181.18	-1150.000
181.56	757.143
181.94	0.000
182.31	-757.143
182.69	1800.000
183.07	-437.500
183.45	-477.778
183.83	609.091
184.20	-420.000
184.58	2900.000
184.96	5200.000
185.34	-920.000
185.72	-612.500
186.09	-2450.000
186.47	3000.000
186.85	2750.000
187.23	6300.000
187.61	-2166.667
187.98	1575.000
188.36	581.818
188.74	563.636
189.12	-1040.000
189.49	500.000
189.87	-4700.000
190.25	-1400.000
190.63	500.000
191.00	484.615
191.38	933.333
191.76	-1000.000
192.14	1425.000
192.51	712.500
192.89	1133.333
193.27	612.500
193.65	-1200.000
194.02	630.000
194.40	1140.000
194.78	670.000
195.15	483.333
195.53	680.000
195.91	-2600.000
196.29	431.250
196.66	347.368
197.04	-420.000
197.42	0.000
197.79	630.000
198.17	-5000.000
198.55	842.857
198.92	625.000
199.30	1100.000
199.68	0.000
200.05	333.333
200.43	814.286
200.81	6000.000
201.18	1700.000
201.56	-1766.667
201.94	611.111
202.31	611.111
202.69	425.000
203.07	690.000
203.44	0.000
203.82	1225.000
204.19	957.143
204.57	414.286
204.95	775.000
205.32	1533.333
205.70	527.273
206.08	392.857
206.45	2400.000
206.83	406.250
207.20	1116.667
207.58	920.000
207.96	333.333
208.33	700.000
208.71	-900.000
209.08	742.857
209.46	688.889
209.84	581.818
210.21	-1333.333
210.59	1425.000
210.96	-462.500
211.34	2800.000
211.71	550.000
212.09	933.333
212.46	0.000
212.84	1966.667
213.22	1550.000
213.59	-4000.000
213.97	866.667
214.34	757.143
214.72	645.455
215.09	1020.000
215.47	-2700.000
215.84	-2650.000
216.22	1933.333
216.59	485.714
216.97	1550.000
217.34	463.636
217.72	-816.667
218.09	0.000
218.47	-5100.000
218.84	688.889
219.22	785.714
219.59	1833.333
219.97	-685.714
220.34	1140.000
220.72	-1900.000
221.09	428.571
221.47	1700.000
221.84	-950.000
222.22	0.000
222.59	1625.000
222.97	-2400.000
223.34	1260.000
223.72	438.462
224.09	1020.000
224.46	2500.000
224.84	-5300.000
225.21	-1160.000
225.59	-5000.000
225.96	550.000
226.34	330.000
226.71	2700.000
227.08	700.000
227.46	540.000
227.83	-1300.000
228.21	-2150.000
228.58	755.556
228.95	-2600.000
229.33	-2600.000
229.70	2000.000
230.08	814.286
230.45	-920.000
230.82	491.667
231.20	766.667
231.57	700.000
231.95	508.333
232.32	236.364
232.69	509.091
233.07	700.000
233.44	446.154
233.81	-1533.333
234.19	300.000
234.56	400.000
234.93	483.333
235.31	509.091
235.68	361.538
236.05	385.714
236.43	206.061
236.80	252.632
237.17	4200.000
237.55	266.667
237.92	192.857
238.29	214.286
238.67	187.097
239.04	217.241
239.41	136.111
239.79	119.565
240.16	119.048
240.53	129.545
240.91	94.118
241.28	78.000
241.65	94.000
242.02	86.957
242.40	83.871
242.77	83.333
243.14	62.366
243.51	61.798
243.89	62.353
244.26	57.778
244.63	55.914
245.00	51.064
245.38	48.515
245.75	44.860
246.12	39.450
246.49	51.825
246.87	52.000
247.24	47.692
247.61	38.571
247.98	35.948
248.36	33.784
248.73	39.490
249.10	35.032
249.47	32.768
249.84	34.225
250.22	29.412
250.59	33.728
250.96	30.303
251.33	32.701
251.70	32.673
252.08	28.571
252.45	26.009
252.82	21.304
253.19	25.532
253.56	25.490
253.94	29.876
254.31	22.656
254.68	23.846
255.05	23.616
255.42	21.545
255.79	24.632
256.16	20.939
256.54	20.848
256.91	20.996
257.28	19.065
257.65	18.152
258.02	20.807
258.39	21.767
258.76	19.064
259.14	20.536
259.51	17.629
259.88	14.596
260.25	19.637
260.62	17.630
260.99	14.596
261.36	16.517
261.73	14.613
262.10	13.081
262.47	18.310
262.85	18.384
263.22	13.105
263.59	18.519
263.96	16.209
264.33	17.493
264.70	13.158
265.07	14.578
265.44	14.646
265.81	14.842
266.18	14.573
266.55	14.634
266.92	12.285
267.29	16.204
267.66	13.991
268.03	14.545
268.40	13.551
268.77	12.411
269.14	14.865
269.51	14.221
269.88	13.287
270.25	15.124
270.62	12.809
270.99	15.699
271.36	12.446
271.73	10.047
272.10	14.348
272.47	11.398
272.84	13.420
273.21	13.627
273.58	11.572
273.95	11.950
274.32	12.397
274.69	11.991
275.06	10.630
275.43	12.979
275.80	11.824
276.17	13.238
276.54	12.474
276.91	10.870
277.28	12.305
277.65	12.959
278.02	10.145
278.39	13.281
278.76	10.364
279.13	12.830
279.50	11.732
279.87	11.952
280.23	10.778
280.60	11.219
280.97	11.830
281.34	10.796
281.71	12.000
282.08	11.708
282.45	10.909
282.82	10.657
283.19	8.378
283.56	10.877
283.92	13.029
284.29	11.817
284.66	10.163
285.03	8.680
285.40	10.915
285.77	9.428
286.14	8.636
286.51	10.000
286.87	10.598
287.24	10.261
287.61	10.273
287.98	9.416
288.35	9.984
288.72	9.502
289.08	10.329
289.45	9.390
289.82	10.081
290.19	8.006
290.56	9.954
290.93	6.647
291.29	8.436
291.66	9.440
292.03	9.884
292.40	11.601
292.77	7.692
293.13	10.000
293.50	10.204
293.87	8.593
294.24	9.037
294.60	7.860
294.97	9.448
295.34	10.437
295.71	8.665
296.08	8.120
296.44	7.565
296.81	7.794
297.18	10.163
297.55	5.409
297.91	7.124
298.28	7.631
298.65	9.269
299.02	7.378
299.38	8.499
299.75	6.199
300.12	6.258
300.48	8.250
300.85	7.028
301.22	7.516
301.59	6.313
301.95	8.312
302.32	7.317
302.69	8.363
303.05	7.515
303.42	7.284
303.79	7.701
304.15	7.692
304.52	5.910
304.89	6.852
305.25	5.916
305.62	6.682
305.99	7.202
306.35	6.711
306.72	6.951
307.09	7.103
307.45	7.883
307.82	5.469
308.19	7.506
308.55	7.012
308.92	8.056
309.29	6.336
309.65	6.681
310.02	7.082
310.38	8.172
310.75	7.392
311.12	7.677
311.48	7.628
311.85	7.442
312.22	6.764
312.58	6.653
312.95	8.342
313.31	7.087
313.68	7.900
314.05	8.481
314.41	7.437
314.78	7.351
315.14	7.944
315.51	8.239
315.87	7.426
316.24	9.335
316.61	8.674
316.97	8.219
317.34	8.806
317.70	9.178
318.07	10.010
318.43	9.589
318.80	11.153
319.16	10.452
319.53	9.662
319.89	10.857
320.26	10.800
320.62	10.714
320.99	13.939
321.35	12.222
321.72	11.910
322.08	12.734
322.45	13.433
322.81	14.826
323.18	13.584
323.54	13.358
323.91	15.755
324.27	14.627
324.64	13.886
325.00	14.067
325.37	16.288
325.73	16.338
326.10	16.328
326.46	15.681
326.83	17.256
327.19	17.336
327.56	16.812
327.92	17.935
328.29	18.545
328.65	18.508
329.01	17.419
329.38	18.779
329.74	16.898
330.11	19.227
330.47	18.641
330.84	21.324
331.20	18.944
331.56	20.183
331.93	21.296
332.29	20.319
332.66	21.327
333.02	20.658
333.38	20.506
333.75	21.390
334.11	21.263
334.48	20.763
334.84	21.691
335.20	21.636
335.57	20.762
335.93	19.643
336.29	21.429
336.66	21.461
337.02	21.267
337.38	22.685
337.75	20.766
338.11	21.576
338.47	21.363
338.84	22.456
339.20	20.459
339.56	22.080
339.93	22.545
340.29	21.286
340.65	22.549
341.02	22.251
341.38	23.132
341.74	22.018
342.11	22.969
342.47	22.819
342.83	22.346
343.20	22.597
343.56	22.494
343.92	22.895
344.28	22.194
344.65	22.872
345.01	22.811
345.37	22.470
345.73	22.843
346.10	23.359
346.46	23.220
346.82	22.900
347.19	22.974
347.55	22.003
347.91	24.029
348.27	23.747
348.63	23.662
349.00	23.786
349.36	22.578
349.72	22.935
350.08	22.366
350.45	22.864
350.81	22.340
351.17	23.258
351.53	23.915
351.89	22.360
352.26	25.493
352.62	24.459
352.98	23.096
353.34	24.404
353.70	23.732
354.07	23.548
354.43	24.127
354.79	23.974
355.15	25.060
355.51	25.340
355.87	25.306
356.24	25.407
356.60	23.336
356.96	24.779
357.32	25.348
357.68	25.591
358.04	23.515
358.40	24.941
358.77	23.944
359.13	24.862
359.49	25.333
359.85	24.921
360.21	25.439
360.57	25.837
360.93	24.462
361.29	25.246
361.66	24.381
362.02	25.299
362.38	25.475
362.74	26.042
363.10	25.241
363.46	24.872
363.82	25.019
364.18	25.551
364.54	26.895
364.90	25.708
365.26	25.221
365.62	27.173
365.98	24.982
366.35	25.358
366.71	26.320
367.07	26.511
367.43	27.068
367.79	26.410
368.15	27.371
368.51	26.672
368.87	27.480
369.23	25.750
369.59	26.792
369.95	25.809
370.31	26.923
370.67	26.884
371.03	27.865
371.39	27.770
371.75	28.456
372.11	26.458
372.47	27.566
372.83	29.323
373.19	27.457
373.55	28.751
373.91	29.161
374.27	27.285
374.63	28.727
374.99	27.966
375.35	26.936
375.71	27.896
376.07	29.012
376.42	28.680
376.78	28.363
377.14	27.408
377.50	29.603
377.86	27.593
378.22	29.267
378.58	26.817
378.94	28.096
379.30	27.990
379.66	28.680
380.02	28.071
380.38	27.930
380.74	28.752
381.09	27.995
381.45	29.318
381.81	29.853
382.17	28.471
382.53	29.182
382.89	29.383
383.25	29.456
383.61	30.297
383.97	29.206
384.32	30.193
384.68	29.182
385.04	29.564
385.40	29.598
385.76	29.238
386.12	29.793
386.48	30.208
386.83	30.276
387.19	31.416
387.55	29.994
387.91	29.686
388.27	29.491
388.62	30.854
388.98	29.791
389.34	30.476
389.70	30.166
390.06	30.165
390.42	30.091
390.77	31.107
391.13	30.823
391.49	30.520
391.85	30.617
392.20	29.274
392.56	30.871
392.92	29.900
393.28	29.586
393.64	31.595
393.99	30.544
394.35	31.390
394.71	30.803
395.07	30.717
395.42	30.655
395.78	30.725
396.14	30.292
396.50	31.767
396.85	30.960
397.21	30.148
397.57	29.758
397.92	30.529
398.28	30.605
398.64	30.944
399.00	30.330
399.35	29.611
399.71	30.671
400.07	30.692
400.42	30.429
400.78	31.363
401.14	30.000
401.49	30.328
401.85	30.430
402.21	30.180
402.57	30.475
402.92	30.832
403.28	31.230
403.63	30.569
403.99	30.446
404.35	31.091
404.70	29.916
405.06	30.577
405.42	30.505
405.77	30.400
406.13	29.910
406.49	30.337
406.84	30.360
407.20	29.905
407.55	31.078
407.91	31.400
408.27	31.078
408.62	29.982
408.98	30.699
409.34	30.750
409.69	30.645
410.05	30.112
410.40	29.358
410.76	31.243
411.11	29.795
411.47	29.968
411.83	30.177
412.18	30.303
412.54	29.950
412.89	30.542
413.25	29.752
413.60	29.895
413.96	28.719
414.31	28.736
414.67	29.404
415.03	30.397
415.38	30.606
415.74	30.161
416.09	30.960
416.45	28.983
416.80	29.874
417.16	30.630
417.51	30.325
417.87	28.773
418.22	30.978
418.58	30.213
418.93	29.791
419.29	29.854
419.64	30.479
420.00	29.329
420.35	28.986
420.71	30.006
421.06	30.430
421.42	30.058
421.77	30.101
422.12	29.646
422.48	27.901
422.83	29.878
423.19	29.503
423.54	29.541
423.90	29.159
424.25	30.653
424.61	30.000
424.96	30.029
425.31	29.181
425.67	28.371
426.02	29.543
426.38	28.632
426.73	28.262
427.09	28.875
427.44	28.522
427.79	28.637
428.15	28.750
428.50	28.613
428.85	29.142
429.21	28.934
429.56	29.497
429.92	28.284
430.27	28.451
430.62	27.547
430.98	28.749
431.33	28.557
431.68	28.429
432.04	28.647
432.39	28.155
432.74	28.486
433.10	28.240
433.45	28.280
433.80	28.991
434.16	28.045
434.51	27.842
434.86	28.962
435.22	27.849
435.57	28.024
435.92	27.736
436.28	28.944
436.63	28.918
436.98	27.418
437.34	28.563
437.69	28.821
438.04	28.274
438.39	29.015
438.75	28.704
439.10	27.598
439.45	28.099
439.81	27.915
440.16	27.442
440.51	27.768
440.86	28.315
441.22	28.198
441.57	28.503
441.92	28.250
442.27	27.610
442.63	27.541
442.98	28.732
443.33	27.391
443.68	27.930
444.03	27.623
444.39	27.215
444.74	27.219
445.09	27.763
445.44	26.736
445.79	27.561
446.15	27.475
446.50	26.817
446.85	27.287
447.20	26.874
447.55	27.471
447.91	26.531
448.26	27.435
448.61	26.795
448.96	27.132
449.31	26.772
449.66	26.730
450.02	26.741
450.37	27.098
450.72	26.622
451.07	26.204
451.42	26.201
451.77	27.129
452.12	26.617
452.47	27.114
452.83	26.690
453.18	27.139
453.53	26.654
453.88	26.462
454.23	26.121
454.58	27.196
454.93	27.336
455.28	26.247
455.63	26.820
455.98	27.500
456.34	27.764
456.69	26.612
457.04	25.820
457.39	25.833
457.74	26.407
458.09	26.797
458.44	25.770
458.79	24.187
459.14	25.621
459.49	25.978
459.84	25.374
460.19	25.280
460.54	25.231
460.89	24.849
461.24	25.865
461.59	25.915
461.94	25.216
462.29	25.341
462.64	24.505
462.99	24.854
463.34	24.800
463.69	26.079
464.04	25.855
464.39	25.217
464.74	25.074
465.09	24.367
465.44	23.657
465.79	23.770
466.14	23.919
466.49	24.027
466.84	24.985
467.19	24.200
467.54	24.375
467.89	24.190
468.24	24.607
468.59	24.420
468.94	23.946
469.29	24.486
469.64	23.695
469.99	23.951
470.34	24.108
470.68	23.060
471.03	23.265
471.38	25.226
471.73	22.652
472.08	23.553
472.43	24.058
472.78	23.831
473.13	23.235
473.48	22.722
473.83	23.659
474.17	22.402
474.52	23.077
474.87	22.709
475.22	22.867
475.57	21.924
475.92	21.880
476.27	21.759
476.61	22.339
476.96	21.770
477.31	21.507
477.66	21.991
478.01	21.694
478.36	20.994
478.70	21.080
479.05	21.832
479.40	20.880
479.75	21.607
480.10	20.477
480.45	20.324
480.79	20.449
481.14	21.233
481.49	21.310
481.84	20.530
482.19	20.082
482.53	21.239
482.88	20.661
483.23	20.187
483.58	19.927
483.92	20.150
484.27	19.216
484.62	19.828
484.97	19.038
485.31	20.137
485.66	19.764
486.01	18.920
486.36	18.514
486.70	17.570
487.05	17.952
487.40	18.335
487.75	18.237
488.09	18.441
488.44	18.245
488.79	18.734
489.13	19.022
489.48	17.700
489.83	18.645
490.17	18.632
490.52	18.291
490.87	19.086
491.22	18.827
491.56	17.904
491.91	18.241
492.26	18.190
492.60	18.341
492.95	17.820
493.30	17.617
493.64	18.665
493.99	17.456
494.34	18.039
494.68	17.857
495.03	18.233
495.37	17.636
495.72	17.982
496.07	17.680
496.41	17.345
496.76	17.326
497.11	17.920
497.45	17.373
497.80	17.898
498.14	17.053
498.49	17.171
498.84	17.066
499.18	16.476
499.53	17.189
499.87	17.102
500.22	17.522
500.56	17.379
500.91	17.404
501.26	17.022
501.60	16.896
501.95	16.774
502.29	17.338
502.64	16.806
502.98	16.036
503.33	16.590
503.67	16.705
504.02	17.212
504.36	16.986
504.71	16.903
505.06	16.964
505.40	16.383
505.75	16.683
506.09	16.084
506.44	16.330
506.78	16.464
507.13	16.153
507.47	16.717
507.82	16.464
508.16	16.160
508.51	16.489
508.85	16.336
509.19	15.714
509.54	15.867
509.88	16.641
510.23	15.219
510.57	16.305
510.92	16.002
511.26	16.393
511.61	16.338
511.95	16.284
512.30	15.376
512.64	15.583
512.98	16.131
513.33	15.739
513.67	15.208
514.02	15.963
514.36	15.565
514.70	15.661
515.05	15.282
515.39	16.153
515.74	15.541
516.08	15.707
516.42	15.649
516.77	16.276
517.11	15.538
517.46	15.801
517.80	15.854
518.14	14.476
518.49	15.519
518.83	14.659
519.17	15.358
519.52	14.488
519.86	16.030
520.20	15.549
520.55	15.081
520.89	15.450
521.23	15.199
521.58	14.706
521.92	15.677
522.26	15.497
522.61	15.140
522.95	15.040
523.29	15.338
523.64	15.122
523.98	14.787
524.32	14.656
524.66	15.574
525.01	14.890
525.35	15.118
525.69	14.409
526.04	15.265
526.38	14.399
526.72	14.110
527.06	14.940
527.41	13.428
527.75	15.177
528.09	14.322
528.43	14.468
528.78	15.181
529.12	14.364
529.46	15.003
529.80	15.161
530.15	14.579
530.49	14.523
530.83	14.177
531.17	15.666
531.51	15.240
531.86	14.387
532.20	15.580
532.54	15.247
532.88	14.827
533.22	13.679
533.57	14.568
533.91	14.630
534.25	14.702
534.59	13.423
534.93	14.337
535.27	14.605
535.62	13.614
535.96	14.124
536.30	13.859
536.64	15.454
536.98	14.267
537.32	13.891
537.66	14.333
538.01	13.627
538.35	13.898
538.69	14.614
539.03	13.385
539.37	13.802
539.71	12.443
540.05	13.399
540.39	13.156
540.73	13.583
541.07	14.601
541.42	13.764
541.76	13.742
542.10	14.295
542.44	13.841
542.78	14.163
543.12	13.500
543.46	13.508
543.80	14.118
544.14	13.671
544.48	13.714
544.82	13.470
545.16	12.687
545.50	13.046
545.84	13.575
546.18	13.535
546.52	13.558
546.86	13.746
547.20	13.486
547.54	13.560
547.88	14.031
548.22	13.387
548.56	13.899
548.90	12.868
549.24	13.131
549.58	13.506
549.92	13.942
550.26	12.713
550.60	13.278
550.94	11.831
551.28	13.314
551.62	12.653
551.96	13.263
552.30	13.720
552.64	13.252
552.98	13.627
553.32	12.610
553.66	13.701
554.00	14.139
554.34	13.043
554.68	13.662
555.02	13.117
555.36	13.083
555.69	13.058
556.03	13.055
556.37	13.574
556.71	13.233
557.05	13.025
557.39	12.736
557.73	13.409
558.07	13.416
558.41	13.169
558.75	12.932
559.08	14.691
559.42	12.925
559.76	12.868
560.10	12.705
560.44	14.116
560.78	13.506
561.12	12.599
561.45	13.690
561.79	13.184
562.13	13.347
562.47	12.705
562.81	12.971
563.15	12.709
563.48	12.467
563.82	12.264
564.16	13.015
564.50	12.174
564.84	12.895
565.17	11.905
565.51	12.588
565.85	11.992
566.19	12.398
566.52	12.350
566.86	11.332
567.20	12.264
567.54	11.986
567.88	11.570
568.21	12.804
568.55	12.032
568.89	11.479
569.23	11.453
569.56	11.296
569.90	11.358
570.24	11.015
570.57	10.643
570.91	10.440
571.25	10.469
571.59	10.869
571.92	10.455
572.26	10.687
572.60	10.450
572.93	10.375
573.27	10.648
573.61	10.664
573.95	10.413
574.28	10.402
574.62	9.985
574.96	10.131
575.29	9.796
575.63	10.137
575.97	9.971
576.30	10.090
576.64	10.109
576.98	10.258
577.31	9.658
577.65	9.750
577.98	9.570
578.32	9.631
578.66	10.147
578.99	9.884
579.33	9.538
579.67	9.681
580.00	9.614
580.34	9.919
580.67	9.785
581.01	9.939
581.35	9.777
581.68	9.782
582.02	9.603
582.35	9.421
582.69	9.570
583.02	9.458
583.36	9.869
583.70	9.640
584.03	9.927
584.37	10.198
584.70	9.848
585.04	9.883
585.37	9.925
585.71	10.033
586.04	9.640
586.38	10.005
586.72	10.052
587.05	9.780
587.39	9.499
587.72	9.946
588.06	10.085
588.39	10.233
588.73	9.651
589.06	10.190
589.40	10.135
589.73	10.032
590.07	10.427
590.40	9.974
590.73	10.148
591.07	11.152
591.40	10.966
591.74	11.039
592.07	11.038
592.41	10.707
592.74	10.749
593.08	10.726
593.41	10.282
593.75	9.900
594.08	10.526
594.41	10.498
594.75	10.166
595.08	10.451
595.42	10.578
595.75	10.078
596.09	10.477
596.42	11.041
596.75	10.680
597.09	10.519
597.42	9.823
597.75	10.522
598.09	10.652
598.42	10.868
598.76	10.215
599.09	9.730
599.42	9.934
599.76	10.249
600.09	9.800
600.42	10.044
600.76	9.357
601.09	9.654
601.42	9.741
601.76	10.361
602.09	9.644
602.42	10.788
602.76	10.641
603.09	10.189
603.42	9.606
603.76	10.290
604.09	10.198
604.42	10.355
604.76	10.502
605.09	10.834
605.42	10.389
605.75	10.182
606.09	9.882
606.42	9.890
606.75	10.369
607.09	9.753
607.42	9.671
607.75	9.958
608.08	10.030
608.42	10.533
608.75	10.280
609.08	10.222
609.41	10.328
609.75	9.814
610.08	10.697
610.41	9.916
610.74	10.454
611.07	10.277
611.41	10.500
611.74	10.608
612.07	10.818
612.40	11.228
612.73	10.158
613.07	10.884
613.40	10.742
613.73	9.649
614.06	10.753
614.39	11.064
614.72	10.895
615.06	11.134
615.39	9.979
615.72	10.992
616.05	10.154
616.38	10.784
616.71	10.511
617.05	11.131
617.38	11.124
617.71	11.351
618.04	10.637
618.37	10.940
618.70	11.077
619.03	12.632
619.36	10.251
619.69	11.056
620.03	11.882
620.36	11.430
620.69	12.192
621.02	11.947
621.35	11.511
621.68	11.682
622.01	11.455
622.34	11.573
622.67	11.787
623.00	11.445
623.33	10.793
623.66	11.651
623.99	11.856
624.32	11.412
624.65	11.299
624.99	10.694
625.32	11.079
625.65	11.645
625.98	12.221
626.31	11.975
626.64	12.408
626.97	12.718
627.30	11.388
627.63	12.551
627.96	13.036
628.29	12.248
628.62	12.351
628.95	13.868
629.28	11.861
629.61	13.291
629.94	12.381
630.26	11.153
630.59	12.393
630.92	13.218
631.25	11.846
631.58	12.012
631.91	12.272
632.24	13.291
632.57	13.012
632.90	13.706
633.23	13.423
633.56	13.333
