SpectraSuite Data File
++++++++++++++++++++++++++++++++++++
Date: Wed May 13 19:17:26 PDT 2015
User: schluterlab
Dark Spectrum Present: Yes
Reference Spectrum Present: Yes
Number of Sampled Component Spectra: 1
Spectrometers: USB2E3373
Integration Time (usec): 3000 (USB2E3373)
Spectra Averaged: 3 (USB2E3373)
Boxcar Smoothing: 0 (USB2E3373)
Correct for Electrical Dark: No (USB2E3373)
Strobe/Lamp Enabled: No (USB2E3373)
Correct for Detector Non-linearity: No (USB2E3373)
Correct for Stray Light: No (USB2E3373)
Number of Pixels in Processed Spectrum: 2048
>>>>>Begin Processed Spectral Data<<<<<
178.53	0.000
178.91	-1450.000
179.29	-1625.000
179.67	-294.444
180.04	-1650.000
180.42	3150.000
180.80	1180.000
181.18	-1100.000
181.56	871.429
181.94	0.000
182.31	-742.857
182.69	2133.333
183.07	-687.500
183.45	-688.889
183.83	481.818
184.20	-520.000
184.58	2700.000
184.96	5000.000
185.34	-1080.000
185.72	-662.500
186.09	-2750.000
186.47	3550.000
186.85	3250.000
187.23	5000.000
187.61	-1866.667
187.98	1550.000
188.36	618.182
188.74	545.455
189.12	-940.000
189.49	690.000
189.87	-5900.000
190.25	-1550.000
190.63	500.000
191.00	530.769
191.38	933.333
191.76	-1225.000
192.14	1350.000
192.51	600.000
192.89	1000.000
193.27	637.500
193.65	-1475.000
194.02	590.000
194.40	1140.000
194.78	510.000
195.15	541.667
195.53	670.000
195.91	-2250.000
196.29	406.250
196.66	384.211
197.04	-410.000
197.42	0.000
197.79	730.000
198.17	-6000.000
198.55	814.286
198.92	750.000
199.30	1040.000
199.68	0.000
200.05	344.444
200.43	800.000
200.81	4900.000
201.18	1900.000
201.56	-2100.000
201.94	588.889
202.31	633.333
202.69	491.667
203.07	700.000
203.44	0.000
203.82	1350.000
204.19	928.571
204.57	457.143
204.95	725.000
205.32	1666.667
205.70	572.727
206.08	435.714
206.45	3100.000
206.83	387.500
207.20	983.333
207.58	1000.000
207.96	338.889
208.33	750.000
208.71	-883.333
209.08	928.571
209.46	733.333
209.84	554.545
210.21	-1700.000
210.59	1700.000
210.96	-537.500
211.34	2800.000
211.71	660.000
212.09	933.333
212.46	0.000
212.84	2133.333
213.22	1500.000
213.59	-5800.000
213.97	950.000
214.34	914.286
214.72	690.909
215.09	1140.000
215.47	-2150.000
215.84	-2900.000
216.22	1866.667
216.59	471.429
216.97	1425.000
217.34	418.182
217.72	-733.333
218.09	0.000
218.47	-5200.000
218.84	711.111
219.22	857.143
219.59	1700.000
219.97	-728.571
220.34	1220.000
220.72	-2000.000
221.09	442.857
221.47	1600.000
221.84	-983.333
222.22	0.000
222.59	1600.000
222.97	-3300.000
223.34	1380.000
223.72	553.846
224.09	1000.000
224.46	2500.000
224.84	-5900.000
225.21	-1000.000
225.59	-4300.000
225.96	710.000
226.34	335.000
226.71	2850.000
227.08	862.500
227.46	590.000
227.83	-1100.000
228.21	-2750.000
228.58	622.222
228.95	-3050.000
229.33	-2150.000
229.70	1833.333
230.08	857.143
230.45	-980.000
230.82	575.000
231.20	716.667
231.57	685.714
231.95	575.000
232.32	309.091
232.69	518.182
233.07	728.571
233.44	415.385
233.81	-2266.667
234.19	315.789
234.56	508.333
234.93	475.000
235.31	590.909
235.68	353.846
236.05	385.714
236.43	206.061
236.80	315.789
237.17	5500.000
237.55	228.571
237.92	228.571
238.29	319.048
238.67	177.419
239.04	227.586
239.41	172.222
239.79	158.696
240.16	161.905
240.53	161.364
240.91	129.412
241.28	134.000
241.65	116.000
242.02	108.696
242.40	106.452
242.77	133.333
243.14	87.097
243.51	108.989
243.89	95.294
244.26	74.444
244.63	81.720
245.00	85.106
245.38	75.248
245.75	74.766
246.12	76.147
246.49	70.803
246.87	71.200
247.24	70.769
247.61	65.000
247.98	68.627
248.36	62.162
248.73	62.420
249.10	61.783
249.47	54.802
249.84	57.219
250.22	53.476
250.59	53.254
250.96	62.121
251.33	61.137
251.70	52.970
252.08	58.571
252.45	47.982
252.82	53.043
253.19	56.170
253.56	48.235
253.94	50.622
254.31	46.875
254.68	51.154
255.05	48.339
255.42	49.593
255.79	48.897
256.16	47.653
256.54	46.290
256.91	43.416
257.28	42.806
257.65	43.564
258.02	41.925
258.39	42.587
258.76	42.809
259.14	41.667
259.51	39.210
259.88	42.547
260.25	44.109
260.62	43.642
260.99	41.304
261.36	43.544
261.73	40.401
262.10	39.826
262.47	41.408
262.85	40.669
263.22	39.601
263.59	43.590
263.96	37.912
264.33	38.903
264.70	39.211
265.07	39.898
265.44	38.131
265.81	35.036
266.18	41.709
266.55	38.293
266.92	37.101
267.29	38.889
267.66	36.009
268.03	36.136
268.40	36.449
268.77	35.561
269.14	35.360
269.51	37.246
269.88	38.228
270.25	37.246
270.62	36.854
270.99	37.634
271.36	35.408
271.73	36.682
272.10	37.609
272.47	38.065
272.84	34.848
273.21	34.591
273.58	34.061
273.95	34.591
274.32	37.397
274.69	34.904
275.06	32.087
275.43	37.872
275.80	37.074
276.17	33.198
276.54	34.511
276.91	35.968
277.28	33.789
277.65	36.364
278.02	35.818
278.39	35.742
278.76	30.727
279.13	32.830
279.50	33.706
279.87	33.665
280.23	33.134
280.60	33.656
280.97	33.457
281.34	33.097
281.71	32.182
282.08	34.549
282.45	32.909
282.82	32.149
283.19	29.768
283.56	31.228
283.92	34.010
284.29	32.804
284.66	31.942
285.03	33.092
285.40	32.746
285.77	32.323
286.14	29.016
286.51	31.333
286.87	29.060
287.24	30.945
287.61	30.658
287.98	33.117
288.35	30.428
288.72	30.530
289.08	30.360
289.45	28.995
289.82	29.268
290.19	29.199
290.56	28.637
290.93	27.039
291.29	29.755
291.66	28.171
292.03	29.651
292.40	30.103
292.77	25.296
293.13	26.418
293.50	27.843
293.87	27.407
294.24	25.926
294.60	26.201
294.97	27.035
295.34	26.234
295.71	25.568
296.08	26.211
296.44	26.272
296.81	25.627
297.18	27.236
297.55	23.351
297.91	25.726
298.28	26.506
298.65	25.979
299.02	25.165
299.38	23.772
299.75	23.720
300.12	24.138
300.48	23.250
300.85	24.291
301.22	23.057
301.59	22.475
301.95	23.300
302.32	21.438
302.69	22.939
303.05	22.788
303.42	21.975
303.79	21.971
304.15	21.212
304.52	20.973
304.89	20.906
305.25	22.970
305.62	23.443
305.99	23.849
306.35	21.253
306.72	20.740
307.09	23.196
307.45	23.311
307.82	21.205
308.19	21.634
308.55	22.330
308.92	21.160
309.29	22.598
309.65	20.785
310.02	22.199
310.38	22.473
310.75	21.647
311.12	21.801
311.48	22.153
311.85	21.069
312.22	21.644
312.58	20.998
312.95	22.175
313.31	19.709
313.68	22.141
314.05	22.387
314.41	22.211
314.78	22.256
315.14	21.152
315.51	21.730
315.87	22.178
316.24	20.755
316.61	21.345
316.97	20.548
317.34	20.059
317.70	21.702
318.07	22.522
318.43	22.701
318.80	23.149
319.16	22.599
319.53	22.608
319.89	22.952
320.26	23.700
320.62	23.016
320.99	23.535
321.35	24.848
321.72	25.565
322.08	24.975
322.45	25.572
322.81	25.194
323.18	26.493
323.54	25.417
323.91	26.226
324.27	26.291
324.64	24.604
325.00	25.248
325.37	28.207
325.73	27.648
326.10	27.273
326.46	28.674
326.83	28.559
327.19	29.377
327.56	29.704
327.92	30.971
328.29	31.500
328.65	31.400
329.01	31.318
329.38	31.637
329.74	31.764
330.11	32.422
330.47	33.425
330.84	34.559
331.20	33.242
331.56	33.211
331.93	33.056
332.29	32.298
332.66	34.690
333.02	34.826
333.38	34.417
333.75	34.581
334.11	34.698
334.48	34.073
334.84	34.467
335.20	35.455
335.57	33.726
335.93	33.929
336.29	34.982
336.66	35.528
337.02	34.932
337.38	35.000
337.75	35.383
338.11	35.273
338.47	37.201
338.84	35.655
339.20	34.404
339.56	36.588
339.93	34.727
340.29	35.326
340.65	35.116
341.02	37.173
341.38	36.032
341.74	34.649
342.11	36.070
342.47	36.300
342.83	37.243
343.20	37.229
343.56	34.962
343.92	37.544
344.28	35.884
344.65	35.942
345.01	36.279
345.37	34.991
345.73	36.125
346.10	35.806
346.46	36.017
346.82	36.820
347.19	36.591
347.55	35.550
347.91	36.570
348.27	35.908
348.63	36.789
349.00	36.408
349.36	36.864
349.72	36.808
350.08	36.224
350.45	36.534
350.81	35.743
351.17	36.629
351.53	36.527
351.89	34.983
352.26	35.517
352.62	36.728
352.98	37.115
353.34	36.730
353.70	36.907
354.07	36.855
354.43	36.032
354.79	36.203
355.15	36.313
355.51	37.250
355.87	38.367
356.24	36.889
356.60	37.209
356.96	36.605
357.32	36.222
357.68	37.795
358.04	37.134
358.40	37.134
358.77	36.698
359.13	35.833
359.49	37.333
359.85	35.397
360.21	37.241
360.57	37.354
360.93	38.308
361.29	37.566
361.66	36.765
362.02	37.985
362.38	38.403
362.74	38.467
363.10	35.973
363.46	37.711
363.82	38.020
364.18	37.298
364.54	38.410
364.90	37.677
365.26	37.279
365.62	39.080
365.98	37.473
366.35	36.175
366.71	38.684
367.07	37.800
367.43	38.607
367.79	38.687
368.15	40.086
368.51	38.735
368.87	37.473
369.23	38.259
369.59	38.523
369.95	39.338
370.31	38.889
370.67	38.478
371.03	39.925
371.39	39.431
371.75	39.706
372.11	39.972
372.47	39.663
372.83	39.914
373.19	39.017
373.55	39.542
373.91	41.163
374.27	38.832
374.63	40.218
374.99	39.972
375.35	38.939
375.71	40.302
376.07	41.701
376.42	40.853
376.78	40.490
377.14	40.502
377.50	40.927
377.86	40.359
378.22	40.834
378.58	40.226
378.94	41.358
379.30	40.903
379.66	41.815
380.02	42.445
380.38	40.923
380.74	42.437
381.09	41.443
381.45	42.717
381.81	41.523
382.17	42.675
382.53	42.704
382.89	42.407
383.25	42.402
383.61	43.185
383.97	43.152
384.32	42.109
384.68	42.193
385.04	42.840
385.40	43.096
385.76	42.015
386.12	44.041
386.48	44.556
386.83	44.965
387.19	44.712
387.55	44.651
387.91	44.619
388.27	43.470
388.62	44.622
388.98	44.226
389.34	45.870
389.70	44.942
390.06	45.374
390.42	45.655
390.77	46.056
391.13	45.629
391.49	45.749
391.85	44.876
392.20	45.615
392.56	47.538
392.92	46.086
393.28	46.627
393.64	46.583
393.99	45.938
394.35	47.146
394.71	46.801
395.07	46.168
395.42	47.590
395.78	47.137
396.14	47.486
396.50	48.496
396.85	47.807
397.21	47.719
397.57	47.055
397.92	47.055
398.28	48.374
398.64	47.790
399.00	49.356
399.35	47.998
399.71	48.553
400.07	48.019
400.42	49.202
400.78	48.854
401.14	48.049
401.49	48.955
401.85	48.336
402.21	48.743
402.57	48.982
402.92	49.117
403.28	49.719
403.63	48.762
403.99	51.146
404.35	50.000
404.70	49.640
405.06	48.981
405.42	50.031
405.77	49.943
406.13	49.549
406.49	49.734
406.84	50.679
407.20	49.882
407.55	51.308
407.91	52.067
408.27	50.798
408.62	50.753
408.98	52.083
409.34	51.722
409.69	51.871
410.05	50.186
410.40	51.376
410.76	51.792
411.11	49.759
411.47	50.990
411.83	51.130
412.18	51.144
412.54	51.743
412.89	51.627
413.25	52.007
413.60	51.575
413.96	50.759
414.31	51.458
414.67	52.345
415.03	52.053
415.38	52.899
415.74	52.476
416.09	53.494
416.45	51.339
416.80	52.941
417.16	54.021
417.51	54.015
417.87	51.638
418.22	53.375
418.58	51.904
418.93	52.703
419.29	52.769
419.64	53.212
420.00	53.476
420.35	53.043
420.71	54.154
421.06	52.924
421.42	51.579
421.77	52.466
422.12	52.555
422.48	52.563
422.83	53.524
423.19	53.812
423.54	53.105
423.90	53.449
424.25	54.160
424.61	54.345
424.96	53.819
425.31	53.488
425.67	52.079
426.02	53.943
426.38	54.579
426.73	52.311
427.09	53.982
427.44	53.882
427.79	54.457
428.15	53.214
428.50	53.716
428.85	55.364
429.21	54.224
429.56	53.084
429.92	53.749
430.27	52.532
430.62	53.251
430.98	52.673
431.33	53.247
431.68	54.136
432.04	52.716
432.39	54.255
432.74	54.399
433.10	56.254
433.45	55.510
433.80	54.989
434.16	53.793
434.51	53.789
434.86	54.789
435.22	55.197
435.57	56.170
435.92	54.769
436.28	55.931
436.63	54.967
436.98	55.123
437.34	54.204
437.69	56.301
438.04	54.694
438.39	54.746
438.75	55.607
439.10	55.363
439.45	55.136
439.81	55.529
440.16	55.336
440.51	55.009
440.86	56.862
441.22	54.616
441.57	54.989
441.92	55.578
442.27	56.835
442.63	55.556
442.98	56.282
443.33	55.870
443.68	54.621
444.03	56.467
444.39	55.599
444.74	56.115
445.09	55.526
445.44	56.370
445.79	54.676
446.15	54.738
446.50	55.897
446.85	55.498
447.20	55.278
447.55	56.170
447.91	56.702
448.26	56.205
448.61	55.851
448.96	56.700
449.31	56.468
449.66	56.106
450.02	55.710
450.37	56.519
450.72	56.909
451.07	56.246
451.42	55.562
451.77	57.134
452.12	55.774
452.47	56.157
452.83	57.401
453.18	56.601
453.53	57.390
453.88	56.822
454.23	56.366
454.58	57.117
454.93	57.533
455.28	55.798
455.63	57.160
455.98	57.500
456.34	56.219
456.69	56.544
457.04	56.533
457.39	56.108
457.74	55.427
458.09	56.297
458.44	56.100
458.79	56.020
459.14	56.095
459.49	56.684
459.84	57.064
460.19	56.570
460.54	54.398
460.89	56.061
461.24	57.498
461.59	55.782
461.94	54.316
462.29	56.677
462.64	55.839
462.99	54.977
463.34	57.067
463.69	55.972
464.04	56.174
464.39	54.899
464.74	55.556
465.09	56.755
465.44	55.125
465.79	55.872
466.14	53.585
466.49	55.061
466.84	55.400
467.19	55.281
467.54	55.562
467.89	55.102
468.24	55.497
468.59	56.593
468.94	53.635
469.29	55.013
469.64	56.359
469.99	56.157
470.34	55.218
470.68	56.466
471.03	54.150
471.38	55.455
471.73	55.163
472.08	55.855
472.43	54.209
472.78	56.945
473.13	55.584
473.48	55.556
473.83	55.122
474.17	53.765
474.52	55.583
474.87	55.984
475.22	54.614
475.57	53.197
475.92	54.063
476.27	53.664
476.61	54.550
476.96	54.426
477.31	53.741
477.66	55.033
478.01	53.581
478.36	54.045
478.70	53.998
479.05	54.207
479.40	53.941
479.75	54.042
480.10	54.423
480.45	53.118
480.79	53.798
481.14	53.474
481.49	53.346
481.84	52.995
482.19	52.749
482.53	53.073
482.88	53.886
483.23	53.411
483.58	53.458
483.92	54.311
484.27	51.983
484.62	52.371
484.97	52.148
485.31	53.356
485.66	52.507
486.01	50.663
486.36	49.033
486.70	48.152
487.05	48.917
487.40	50.536
487.75	49.671
488.09	51.441
488.44	51.401
488.79	54.069
489.13	53.094
489.48	52.692
489.83	52.525
490.17	53.222
490.52	52.214
490.87	51.967
491.22	52.115
491.56	51.481
491.91	52.257
492.26	51.493
492.60	52.857
492.95	51.684
493.30	51.776
493.64	51.797
493.99	51.950
494.34	52.451
494.68	52.152
495.03	53.195
495.37	51.373
495.72	53.216
496.07	52.761
496.41	50.310
496.76	51.099
497.11	50.338
497.45	51.095
497.80	52.111
498.14	51.546
498.49	51.415
498.84	51.103
499.18	50.905
499.53	51.235
499.87	51.538
500.22	50.871
500.56	52.136
500.91	50.962
501.26	51.446
501.60	52.729
501.95	50.275
502.29	51.265
502.64	51.210
502.98	50.491
503.33	50.731
503.67	51.230
504.02	50.234
504.36	50.398
504.71	49.536
505.06	51.084
505.40	50.705
505.75	50.145
506.09	50.194
506.44	51.751
506.78	50.609
507.13	52.095
507.47	51.364
507.82	51.216
508.16	51.317
508.51	51.801
508.85	50.298
509.19	51.224
509.54	50.969
509.88	51.520
510.23	51.054
510.57	51.600
510.92	51.942
511.26	50.822
511.61	51.504
511.95	49.896
512.30	50.583
512.64	51.102
512.98	51.501
513.33	51.017
513.67	50.480
514.02	50.649
514.36	50.847
514.70	49.917
515.05	50.753
515.39	51.318
515.74	50.676
516.08	51.425
516.42	51.054
516.77	52.731
517.11	50.888
517.46	50.959
517.80	51.278
518.14	50.376
518.49	52.275
518.83	50.852
519.17	50.404
519.52	50.990
519.86	50.656
520.20	49.884
520.55	51.287
520.89	51.764
521.23	51.206
521.58	51.561
521.92	51.317
522.26	50.336
522.61	51.402
522.95	51.136
523.29	49.787
523.64	50.610
523.98	50.893
524.32	51.327
524.66	51.112
525.01	50.735
525.35	50.743
525.69	50.369
526.04	50.156
526.38	50.153
526.72	50.859
527.06	51.977
527.41	49.196
527.75	51.383
528.09	51.317
528.43	50.287
528.78	50.645
529.12	50.485
529.46	50.582
529.80	51.733
530.15	50.779
530.49	49.354
530.83	50.506
531.17	51.762
531.51	50.973
531.86	51.806
532.20	51.434
532.54	51.698
532.88	50.963
533.22	50.156
533.57	49.753
533.91	50.331
534.25	50.729
534.59	50.092
534.93	50.149
535.27	50.815
535.62	50.794
535.96	50.659
536.30	50.159
536.64	51.191
536.98	50.232
537.32	51.086
537.66	51.067
538.01	50.033
538.35	50.356
538.69	50.287
539.03	48.343
539.37	49.265
539.71	48.801
540.05	49.739
540.39	50.166
540.73	49.159
541.07	50.487
541.42	51.142
541.76	51.677
542.10	49.741
542.44	49.801
542.78	50.461
543.12	48.880
543.46	49.967
543.80	50.228
544.14	48.460
544.48	48.635
544.82	49.519
545.16	50.943
545.50	49.550
545.84	50.739
546.18	49.697
546.52	49.759
546.86	50.790
547.20	49.966
547.54	48.697
547.88	49.490
548.22	48.692
548.56	47.925
548.90	47.887
549.24	48.687
549.58	49.250
549.92	50.000
550.26	49.858
550.60	49.170
550.94	49.155
551.28	49.378
551.62	49.533
551.96	49.333
552.30	50.444
552.64	48.141
552.98	50.441
553.32	47.943
553.66	49.080
554.00	49.554
554.34	47.619
554.68	50.787
555.02	48.096
555.36	48.156
555.69	48.376
556.03	48.520
556.37	48.636
556.71	47.817
557.05	47.479
557.39	48.006
557.73	48.342
558.07	48.949
558.41	47.178
558.75	49.008
559.08	48.919
559.42	49.660
559.76	48.382
560.10	47.323
560.44	48.358
560.78	46.906
561.12	47.164
561.45	48.240
561.79	47.001
562.13	47.082
562.47	46.516
562.81	47.978
563.15	47.023
563.48	47.878
563.82	47.750
564.16	46.109
564.50	46.680
564.84	46.903
565.17	46.911
565.51	46.454
565.85	47.081
566.19	46.337
566.52	47.055
566.86	45.509
567.20	46.344
567.54	45.320
567.88	45.464
568.21	46.667
568.55	45.753
568.89	46.158
569.23	43.939
569.56	42.267
569.90	44.340
570.24	43.595
570.57	42.877
570.91	42.534
571.25	42.156
571.59	42.504
571.92	41.964
572.26	42.663
572.60	42.252
572.93	42.069
573.27	42.502
573.61	42.518
573.95	42.532
574.28	41.558
574.62	41.642
574.96	41.314
575.29	40.955
575.63	42.048
575.97	41.474
576.30	41.822
576.64	41.799
576.98	41.565
577.31	41.543
577.65	41.281
577.98	40.893
578.32	40.369
578.66	40.985
578.99	40.676
579.33	40.789
579.67	40.404
580.00	40.782
580.34	41.054
580.67	41.054
581.01	41.444
581.35	40.949
581.68	41.324
582.02	40.021
582.35	40.163
582.69	40.440
583.02	40.511
583.36	40.881
583.70	41.334
584.03	41.693
584.37	41.976
584.70	41.458
585.04	40.558
585.37	40.867
585.71	40.742
586.04	40.879
586.38	41.118
586.72	41.646
587.05	40.587
587.39	40.818
587.72	40.273
588.06	40.502
588.39	41.317
588.73	41.009
589.06	41.041
589.40	42.054
589.73	41.570
590.07	41.637
590.40	41.542
590.73	41.959
591.07	43.183
591.40	42.556
591.74	42.727
592.07	41.841
592.41	42.042
592.74	40.899
593.08	40.240
593.41	40.335
593.75	39.382
594.08	39.725
594.41	40.933
594.75	40.998
595.08	41.052
595.42	40.911
595.75	41.417
596.09	40.819
596.42	42.240
596.75	41.705
597.09	41.645
597.42	40.556
597.75	40.793
598.09	40.609
598.42	41.323
598.76	40.413
599.09	39.757
599.42	39.374
599.76	40.959
600.09	39.417
600.42	39.774
600.76	39.357
601.09	39.454
601.42	40.373
601.76	40.531
602.09	40.119
602.42	40.963
602.76	39.984
603.09	40.637
603.42	41.117
603.76	40.625
604.09	39.628
604.42	40.236
604.76	40.616
605.09	40.367
605.42	40.402
605.75	40.439
606.09	39.650
606.42	39.926
606.75	40.398
607.09	39.682
607.42	40.094
607.75	40.084
608.08	39.948
608.42	40.251
608.75	39.991
609.08	39.870
609.41	39.981
609.75	40.591
610.08	40.386
610.41	39.618
610.74	39.688
611.07	40.119
611.41	40.383
611.74	40.674
612.07	41.097
612.40	40.504
612.73	40.842
613.07	41.703
613.40	40.600
613.73	40.220
614.06	40.591
614.39	39.486
614.72	40.316
615.06	39.601
615.39	40.127
615.72	39.519
616.05	38.596
616.38	40.411
616.71	40.202
617.05	41.578
617.38	40.649
617.71	41.562
618.04	40.745
618.37	39.326
618.70	40.946
619.03	40.658
619.36	41.412
619.69	40.704
620.03	41.827
620.36	41.176
620.69	41.370
621.02	41.298
621.35	41.269
621.68	41.978
622.01	40.944
622.34	41.831
622.67	40.837
623.00	40.205
623.33	39.028
623.66	40.743
623.99	39.543
624.32	39.943
624.65	41.314
624.99	40.156
625.32	40.406
625.65	40.947
625.98	41.353
626.31	41.835
626.64	41.551
626.97	41.895
627.30	40.898
627.63	41.509
627.96	40.959
628.29	42.957
628.62	41.446
628.95	44.340
629.28	42.609
629.61	42.530
629.94	42.571
630.26	42.135
630.59	42.517
