SpectraSuite Data File
++++++++++++++++++++++++++++++++++++
Date: Wed May 13 19:29:28 PDT 2015
User: schluterlab
Dark Spectrum Present: Yes
Reference Spectrum Present: Yes
Number of Sampled Component Spectra: 1
Spectrometers: USB2E3373
Integration Time (usec): 3000 (USB2E3373)
Spectra Averaged: 3 (USB2E3373)
Boxcar Smoothing: 0 (USB2E3373)
Correct for Electrical Dark: No (USB2E3373)
Strobe/Lamp Enabled: No (USB2E3373)
Correct for Detector Non-linearity: No (USB2E3373)
Correct for Stray Light: No (USB2E3373)
Number of Pixels in Processed Spectrum: 2048
>>>>>Begin Processed Spectral Data<<<<<
178.53	0.000
178.91	-1225.000
179.29	-1500.000
179.67	-261.111
180.04	-1400.000
180.42	2350.000
180.80	1100.000
181.18	-1075.000
181.56	728.571
181.94	0.000
182.31	-728.571
182.69	1633.333
183.07	-587.500
183.45	-644.444
183.83	527.273
184.20	-440.000
184.58	2700.000
184.96	6400.000
185.34	-660.000
185.72	-762.500
186.09	-2350.000
186.47	2550.000
186.85	2950.000
187.23	5500.000
187.61	-1300.000
187.98	1350.000
188.36	563.636
188.74	454.545
189.12	-940.000
189.49	530.000
189.87	-6100.000
190.25	-1275.000
190.63	442.857
191.00	484.615
191.38	833.333
191.76	-1100.000
192.14	1475.000
192.51	687.500
192.89	1050.000
193.27	562.500
193.65	-1075.000
194.02	490.000
194.40	840.000
194.78	590.000
195.15	558.333
195.53	630.000
195.91	-1950.000
196.29	381.250
196.66	284.211
197.04	-400.000
197.42	0.000
197.79	680.000
198.17	-4800.000
198.55	657.143
198.92	737.500
199.30	860.000
199.68	0.000
200.05	338.889
200.43	785.714
200.81	4500.000
201.18	1933.333
201.56	-1633.333
201.94	644.444
202.31	622.222
202.69	450.000
203.07	520.000
203.44	0.000
203.82	1250.000
204.19	785.714
204.57	485.714
204.95	750.000
205.32	1566.667
205.70	472.727
206.08	450.000
206.45	2450.000
206.83	375.000
207.20	950.000
207.58	800.000
207.96	322.222
208.33	725.000
208.71	-850.000
209.08	728.571
209.46	522.222
209.84	490.909
210.21	-1233.333
210.59	1225.000
210.96	-550.000
211.34	2850.000
211.71	650.000
212.09	783.333
212.46	0.000
212.84	1833.333
213.22	1350.000
213.59	-4800.000
213.97	916.667
214.34	742.857
214.72	700.000
215.09	1000.000
215.47	-2000.000
215.84	-2800.000
216.22	1700.000
216.59	400.000
216.97	1150.000
217.34	409.091
217.72	-700.000
218.09	0.000
218.47	-5300.000
218.84	655.556
219.22	714.286
219.59	1500.000
219.97	-614.286
220.34	980.000
220.72	-1700.000
221.09	392.857
221.47	1650.000
221.84	-1033.333
222.22	0.000
222.59	1375.000
222.97	-2650.000
223.34	1200.000
223.72	446.154
224.09	1200.000
224.46	2050.000
224.84	-5600.000
225.21	-1000.000
225.59	-5600.000
225.96	560.000
226.34	260.000
226.71	2650.000
227.08	625.000
227.46	540.000
227.83	-875.000
228.21	-2500.000
228.58	633.333
228.95	-2500.000
229.33	-2050.000
229.70	1966.667
230.08	771.429
230.45	-760.000
230.82	458.333
231.20	950.000
231.57	600.000
231.95	500.000
232.32	268.182
232.69	363.636
233.07	700.000
233.44	430.769
233.81	-1733.333
234.19	278.947
234.56	466.667
234.93	291.667
235.31	481.818
235.68	315.385
236.05	357.143
236.43	175.758
236.80	284.211
237.17	4500.000
237.55	276.190
237.92	225.000
238.29	271.429
238.67	148.387
239.04	193.103
239.41	172.222
239.79	130.435
240.16	107.143
240.53	115.909
240.91	105.882
241.28	98.000
241.65	90.000
242.02	88.406
242.40	77.419
242.77	81.667
243.14	84.946
243.51	74.157
243.89	75.294
244.26	68.889
244.63	62.366
245.00	62.766
245.38	59.406
245.75	58.879
246.12	56.881
246.49	60.584
246.87	68.800
247.24	56.154
247.61	49.286
247.98	44.444
248.36	46.622
248.73	49.682
249.10	38.217
249.47	38.418
249.84	45.455
250.22	41.711
250.59	40.828
250.96	39.394
251.33	41.706
251.70	41.089
252.08	39.524
252.45	38.117
252.82	37.826
253.19	35.745
253.56	34.510
253.94	35.270
254.31	30.859
254.68	37.308
255.05	35.793
255.42	31.707
255.79	30.515
256.16	34.296
256.54	28.975
256.91	32.028
257.28	25.899
257.65	30.693
258.02	30.745
258.39	28.391
258.76	33.779
259.14	28.869
259.51	26.748
259.88	22.671
260.25	28.399
260.62	24.566
260.99	27.019
261.36	29.730
261.73	25.788
262.10	25.291
262.47	29.014
262.85	28.691
263.22	25.926
263.59	31.624
263.96	24.725
264.33	24.804
264.70	24.737
265.07	25.831
265.44	24.242
265.81	23.844
266.18	25.126
266.55	24.634
266.92	25.553
267.29	25.926
267.66	25.229
268.03	21.818
268.40	24.533
268.77	21.480
269.14	24.099
269.51	24.153
269.88	26.340
270.25	21.670
270.62	21.348
270.99	26.022
271.36	23.176
271.73	22.430
272.10	20.217
272.47	22.796
272.84	24.026
273.21	24.319
273.58	21.179
273.95	20.545
274.32	23.140
274.69	21.627
275.06	19.882
275.43	21.702
275.80	21.443
276.17	20.774
276.54	21.830
276.91	22.530
277.28	22.266
277.65	21.277
278.02	19.669
278.39	21.680
278.76	21.636
279.13	21.321
279.50	23.277
279.87	21.514
280.23	21.756
280.60	20.503
280.97	21.996
281.34	19.469
281.71	21.273
282.08	20.921
282.45	19.273
282.82	22.913
283.19	17.112
283.56	20.877
283.92	21.827
284.29	21.517
284.66	19.782
285.03	19.530
285.40	20.246
285.77	17.508
286.14	18.653
286.51	21.833
286.87	19.487
287.24	19.055
287.61	20.867
287.98	19.643
288.35	19.017
288.72	18.692
289.08	18.310
289.45	18.781
289.82	18.211
290.19	17.582
290.56	18.836
290.93	15.559
291.29	18.405
291.66	16.814
292.03	19.041
292.40	20.117
292.77	17.456
293.13	17.015
293.50	18.805
293.87	16.000
294.24	16.000
294.60	16.448
294.97	15.552
295.34	17.630
295.71	18.324
296.08	14.957
296.44	16.644
296.81	16.380
297.18	16.667
297.55	14.380
297.91	16.887
298.28	17.135
298.65	17.493
299.02	16.074
299.38	15.405
299.75	13.208
300.12	15.837
300.48	15.250
300.85	14.057
301.22	14.140
301.59	13.763
301.95	15.113
302.32	16.303
302.69	15.054
303.05	14.182
303.42	15.432
303.79	14.609
304.15	13.520
304.52	14.716
304.89	14.634
305.25	14.965
305.62	15.742
305.99	15.466
306.35	14.206
306.72	15.471
307.09	14.650
307.45	15.090
307.82	13.170
308.19	14.018
308.55	14.779
308.92	14.178
309.29	12.883
309.65	13.574
310.02	14.799
310.38	14.194
310.75	14.678
311.12	13.613
311.48	14.943
311.85	14.151
312.22	15.297
312.58	13.202
312.95	15.312
313.31	14.757
313.68	14.345
314.05	16.963
314.41	16.784
314.78	15.609
315.14	15.988
315.51	16.478
315.87	16.337
316.24	16.187
316.61	17.349
316.97	17.221
317.34	16.634
317.70	17.973
318.07	18.479
318.43	18.297
318.80	18.369
319.16	18.832
319.53	18.856
319.89	20.095
320.26	20.800
320.62	20.833
320.99	20.404
321.35	20.404
321.72	22.998
322.08	23.001
322.45	23.383
322.81	23.547
323.18	22.929
323.54	23.006
323.91	22.736
324.27	24.570
324.64	23.486
325.00	23.445
325.37	25.933
325.73	25.583
326.10	26.390
326.46	26.344
326.83	27.610
327.19	27.669
327.56	27.265
327.92	27.297
328.29	28.305
328.65	28.453
329.01	28.339
329.38	29.232
329.74	28.440
330.11	28.652
330.47	30.303
330.84	31.618
331.20	31.239
331.56	31.560
331.93	30.185
332.29	30.257
332.66	31.150
333.02	30.622
333.38	31.346
333.75	31.016
334.11	30.961
334.48	30.080
334.84	32.353
335.20	33.000
335.57	31.913
335.93	31.786
336.29	31.685
336.66	31.921
337.02	31.131
337.38	32.685
337.75	31.462
338.11	31.961
338.47	33.057
338.84	32.814
339.20	32.202
339.56	33.212
339.93	31.909
340.29	30.163
340.65	33.066
341.02	33.159
341.38	33.274
341.74	31.930
342.11	31.528
342.47	33.304
342.83	31.849
343.20	33.074
343.56	31.508
343.92	33.246
344.28	34.609
344.65	32.244
345.01	32.660
345.37	32.075
345.73	32.403
346.10	34.442
346.46	32.966
346.82	31.796
347.19	32.080
347.55	31.527
347.91	33.576
348.27	34.018
348.63	34.114
349.00	32.929
349.36	33.498
349.72	32.318
350.08	33.225
350.45	33.442
350.81	33.063
351.17	33.549
351.53	34.070
351.89	33.581
352.26	33.149
352.62	34.643
352.98	33.793
353.34	33.279
353.70	33.633
354.07	34.677
354.43	33.889
354.79	33.870
355.15	33.520
355.51	34.452
355.87	34.612
356.24	35.016
356.60	34.242
356.96	34.352
357.32	35.159
357.68	34.882
358.04	34.204
358.40	35.946
358.77	34.898
359.13	34.333
359.49	35.451
359.85	35.476
360.21	34.769
360.57	36.031
360.93	36.462
361.29	35.450
361.66	36.920
362.02	35.821
362.38	36.350
362.74	36.384
363.10	35.233
363.46	35.877
363.82	36.357
364.18	34.949
364.54	37.816
364.90	37.465
365.26	35.956
365.62	37.473
365.98	36.815
366.35	35.745
366.71	36.876
367.07	36.926
367.43	37.954
367.79	38.044
368.15	38.506
368.51	37.427
368.87	38.401
369.23	38.332
369.59	39.247
369.95	37.426
370.31	38.177
370.67	38.116
371.03	39.326
371.39	39.431
371.75	39.412
372.11	38.407
372.47	40.836
372.83	40.130
373.19	39.017
373.55	39.616
373.91	40.722
374.27	39.931
374.63	39.927
374.99	40.537
375.35	40.614
375.71	40.027
376.07	40.123
376.42	40.784
376.78	40.027
377.14	40.027
377.50	41.722
377.86	41.556
378.22	41.340
378.58	40.977
378.94	40.855
379.30	41.094
379.66	42.069
380.02	41.892
380.38	41.773
380.74	42.017
381.09	42.054
381.45	42.778
381.81	43.059
382.17	42.739
382.53	42.201
382.89	43.086
383.25	43.965
383.61	43.123
383.97	43.027
384.32	43.356
384.68	43.185
385.04	44.683
385.40	43.034
385.76	43.919
386.12	44.560
386.48	45.249
386.83	44.772
387.19	45.702
387.55	44.280
387.91	44.921
388.27	44.145
388.62	44.007
388.98	43.980
389.34	45.995
389.70	44.329
390.06	46.705
390.42	46.757
390.77	45.356
391.13	47.479
391.49	46.003
391.85	46.022
392.20	45.174
392.56	46.023
392.92	45.792
393.28	45.799
393.64	46.103
393.99	46.671
394.35	45.596
394.71	46.424
395.07	44.922
395.42	46.477
395.78	47.074
396.14	46.245
396.50	47.870
396.85	47.235
397.21	47.226
397.57	46.807
397.92	46.274
398.28	46.469
398.64	47.670
399.00	44.936
399.35	46.249
399.71	46.586
400.07	47.546
400.42	47.178
400.78	47.045
401.14	47.500
401.49	46.866
401.85	46.824
402.21	47.246
402.57	47.008
402.92	47.667
403.28	47.408
403.63	46.535
403.99	47.898
404.35	46.727
404.70	47.002
405.06	46.709
405.42	47.848
405.77	46.286
406.13	46.050
406.49	47.073
406.84	46.958
407.20	47.577
407.55	47.671
407.91	48.533
408.27	48.819
408.62	46.779
408.98	47.978
409.34	48.093
409.69	48.452
410.05	46.468
410.40	47.706
410.76	47.013
411.11	47.407
411.47	46.901
411.83	46.915
412.18	46.011
412.54	46.949
412.89	47.410
413.25	47.226
413.60	47.375
413.96	47.480
414.31	46.902
414.67	47.655
415.03	46.954
415.38	48.067
415.74	47.074
416.09	47.943
416.45	47.724
416.80	47.323
417.16	48.861
417.51	47.578
417.87	46.435
418.22	47.760
418.58	47.902
418.93	48.280
419.29	45.831
419.64	46.914
420.00	47.561
420.35	47.072
420.71	47.101
421.06	46.659
421.42	47.836
421.77	46.357
422.12	46.828
422.48	46.573
422.83	46.709
423.19	46.464
423.54	47.243
423.90	47.246
424.25	46.678
424.61	47.083
424.96	46.706
425.31	46.788
425.67	44.719
426.02	46.743
426.38	46.642
426.73	47.045
427.09	47.356
427.44	47.441
427.79	46.003
428.15	47.560
428.50	46.343
428.85	46.603
429.21	46.715
429.56	47.486
429.92	47.056
430.27	46.077
430.62	46.441
430.98	46.393
431.33	45.412
431.68	46.283
432.04	45.261
432.39	46.887
432.74	47.277
433.10	45.954
433.45	46.239
433.80	45.787
434.16	46.795
434.51	44.842
434.86	47.434
435.22	47.137
435.57	45.957
435.92	45.992
436.28	47.212
436.63	45.033
436.98	45.220
437.34	46.392
437.69	46.266
438.04	46.655
438.39	46.388
438.75	45.671
439.10	45.587
439.45	46.635
439.81	45.861
440.16	45.850
440.51	46.456
440.86	45.918
441.22	45.106
441.57	45.648
441.92	45.189
442.27	44.618
442.63	45.340
442.98	44.958
443.33	44.348
443.68	45.070
444.03	46.022
444.39	44.888
444.74	45.563
445.09	44.420
445.44	44.451
445.79	44.582
446.15	45.421
446.50	45.773
446.85	45.015
447.20	44.569
447.55	45.840
447.91	44.291
448.26	44.964
448.61	44.262
448.96	45.404
449.31	44.769
449.66	44.513
450.02	43.733
450.37	43.764
450.72	44.106
451.07	43.815
451.42	44.438
451.77	44.216
452.12	44.515
452.47	44.154
452.83	46.212
453.18	44.010
453.53	44.836
453.88	44.241
454.23	44.351
454.58	45.124
454.93	45.455
455.28	43.703
455.63	44.903
455.98	44.583
456.34	43.844
456.69	43.895
457.04	44.830
457.39	42.490
457.74	43.993
458.09	43.531
458.44	44.128
458.79	41.757
459.14	42.777
459.49	43.024
459.84	41.994
460.19	42.310
460.54	41.493
460.89	42.622
461.24	43.837
461.59	42.824
461.94	42.417
462.29	43.442
462.64	42.119
462.99	41.184
463.34	43.133
463.69	42.089
464.04	41.159
464.39	40.986
464.74	41.830
465.09	40.350
465.44	40.886
465.79	41.611
466.14	40.613
466.49	40.768
466.84	40.864
467.19	40.857
467.54	41.187
467.89	40.696
468.24	40.140
468.59	40.232
468.94	39.890
469.29	41.324
469.64	41.165
469.99	40.122
470.34	40.225
470.68	40.589
471.03	39.932
471.38	40.584
471.73	40.440
472.08	40.724
472.43	39.824
472.78	39.236
473.13	38.768
473.48	39.513
473.83	38.659
474.17	39.079
474.52	39.268
474.87	39.988
475.22	38.015
475.57	37.722
475.92	38.237
476.27	37.880
476.61	38.831
476.96	37.823
477.31	38.148
477.66	38.348
478.01	36.749
478.36	37.916
478.70	36.656
479.05	37.433
479.40	37.103
479.75	37.214
480.10	36.332
480.45	37.601
480.79	36.312
481.14	36.595
481.49	36.687
481.84	36.260
482.19	36.438
482.53	36.376
482.88	36.389
483.23	35.981
483.58	36.033
483.92	35.942
484.27	34.510
484.62	36.466
484.97	34.608
485.31	34.692
485.66	34.218
486.01	33.364
486.36	32.469
486.70	32.430
487.05	32.860
487.40	33.350
487.75	33.653
488.09	33.667
488.44	33.489
488.79	34.358
489.13	34.607
489.48	33.728
489.83	34.009
490.17	33.976
490.52	33.260
490.87	33.650
491.22	33.379
491.56	32.392
491.91	32.387
492.26	32.614
492.60	32.949
492.95	33.209
493.30	32.150
493.64	32.664
493.99	32.173
494.34	32.331
494.68	33.791
495.03	32.754
495.37	31.968
495.72	32.310
496.07	32.483
496.41	30.796
496.76	31.926
497.11	31.787
497.45	32.510
497.80	32.054
498.14	30.918
498.49	31.902
498.84	31.256
499.18	31.381
499.53	32.051
499.87	31.500
500.22	30.947
500.56	31.505
500.91	30.865
501.26	30.299
501.60	31.941
501.95	30.247
502.29	31.209
502.64	30.633
502.98	30.575
503.33	30.576
503.67	30.302
504.02	29.841
504.36	30.042
504.71	30.972
505.06	29.976
505.40	29.266
505.75	29.026
506.09	29.495
506.44	29.354
506.78	29.372
507.13	30.338
507.47	29.545
507.82	30.142
508.16	29.534
508.51	29.680
508.85	28.947
509.19	28.878
509.54	28.367
509.88	28.954
510.23	29.357
510.57	29.257
510.92	29.259
511.26	28.571
511.61	28.475
511.95	28.445
512.30	28.314
512.64	28.372
512.98	28.617
513.33	28.854
513.67	27.962
514.02	27.327
514.36	28.454
514.70	27.670
515.05	28.277
515.39	28.828
515.74	28.604
516.08	28.452
516.42	28.579
516.77	28.651
517.11	27.192
517.46	27.709
517.80	28.571
518.14	27.331
518.49	28.005
518.83	28.409
519.17	27.714
519.52	27.504
519.86	27.781
520.20	28.382
520.55	27.409
520.89	27.920
521.23	28.649
521.58	26.651
521.92	26.638
522.26	26.113
522.61	27.664
522.95	27.072
523.29	26.354
523.64	27.256
523.98	27.234
524.32	26.297
524.66	27.240
525.01	27.083
525.35	26.704
525.69	26.416
526.04	26.106
526.38	26.663
526.72	25.890
527.06	26.742
527.41	26.361
527.75	26.624
528.09	26.590
528.43	26.705
528.78	26.490
529.12	25.333
529.46	25.597
529.80	27.042
530.15	26.667
530.49	24.923
530.83	26.329
531.17	26.567
531.51	26.589
531.86	25.613
532.20	26.010
532.54	26.778
532.88	26.508
533.22	25.297
533.57	25.679
533.91	25.045
534.25	25.152
534.59	25.625
534.93	25.402
535.27	24.744
535.62	26.374
535.96	25.110
536.30	24.857
536.64	25.692
536.98	24.618
537.32	23.897
537.66	24.867
538.01	24.358
538.35	25.145
538.69	25.399
539.03	24.301
539.37	24.537
539.71	23.526
540.05	25.033
540.39	24.385
540.73	23.933
541.07	24.919
541.42	24.658
541.76	24.710
542.10	25.291
542.44	23.907
542.78	24.704
543.12	24.056
543.46	24.656
543.80	25.179
544.14	24.840
544.48	24.254
544.82	23.348
545.16	23.357
545.50	23.843
545.84	24.530
546.18	23.906
546.52	24.088
546.86	24.261
547.20	24.882
547.54	22.846
547.88	24.617
548.22	23.537
548.56	24.151
548.90	23.431
549.24	22.424
549.58	24.420
549.92	23.901
550.26	24.219
550.60	23.444
550.94	23.592
551.28	23.263
551.62	22.646
551.96	23.368
552.30	23.959
552.64	22.515
552.98	22.780
553.32	23.803
553.66	24.744
554.00	24.022
554.34	22.774
554.68	24.106
555.02	23.272
555.36	22.686
555.69	22.192
556.03	22.476
556.37	22.783
556.71	22.442
557.05	23.319
557.39	23.303
557.73	22.442
558.07	22.408
558.41	22.721
558.75	22.777
559.08	23.490
559.42	22.600
559.76	23.529
560.10	22.198
560.44	22.082
560.78	21.890
561.12	22.955
561.45	22.751
561.79	22.676
562.13	22.401
562.47	22.199
562.81	23.082
563.15	21.538
563.48	23.011
563.82	21.918
564.16	22.498
564.50	21.159
564.84	22.377
565.17	21.557
565.51	21.917
565.85	21.574
566.19	21.415
566.52	21.786
566.86	20.555
567.20	21.580
567.54	21.575
567.88	20.967
568.21	21.852
568.55	20.829
568.89	20.866
569.23	20.455
569.56	19.919
569.90	19.887
570.24	19.376
570.57	20.401
570.91	19.295
571.25	19.209
571.59	19.499
571.92	19.528
572.26	19.151
572.60	19.279
572.93	19.130
573.27	19.314
573.61	19.040
573.95	19.302
574.28	18.719
574.62	18.586
574.96	18.542
575.29	18.938
575.63	18.623
575.97	18.250
576.30	18.826
576.64	18.549
576.98	18.279
577.31	18.438
577.65	18.480
577.98	18.436
578.32	17.792
578.66	18.721
578.99	18.512
579.33	18.470
579.67	18.244
580.00	18.485
580.34	18.652
580.67	18.388
581.01	18.574
581.35	18.163
581.68	18.356
582.02	17.807
582.35	17.939
582.69	17.946
583.02	18.184
583.36	18.607
583.70	18.581
584.03	18.861
584.37	18.762
584.70	18.051
585.04	18.371
585.37	18.313
585.71	18.069
586.04	18.169
586.38	18.365
586.72	18.724
587.05	17.984
587.39	18.206
587.72	18.578
588.06	18.036
588.39	18.656
588.73	18.040
589.06	18.635
589.40	18.788
589.73	18.655
590.07	18.434
590.40	18.122
590.73	18.657
591.07	18.885
591.40	19.022
591.74	19.740
592.07	18.674
592.41	18.892
592.74	18.352
593.08	18.554
593.41	17.969
593.75	17.708
594.08	18.170
594.41	18.310
594.75	18.410
595.08	18.074
595.42	18.319
595.75	18.020
596.09	18.663
596.42	18.389
596.75	18.320
597.09	19.264
597.42	17.833
597.75	18.499
598.09	18.609
598.42	18.342
598.76	17.998
599.09	17.750
599.42	17.758
599.76	18.119
600.09	17.377
600.42	17.787
600.76	17.857
601.09	17.887
601.42	18.455
601.76	17.989
602.09	17.549
602.42	18.352
602.76	18.017
603.09	17.663
603.42	18.391
603.76	18.140
604.09	17.798
604.42	17.856
604.76	18.600
605.09	18.218
605.42	18.042
605.75	17.881
606.09	17.934
606.42	18.145
606.75	17.669
607.09	18.292
607.42	17.544
607.75	17.046
608.08	17.977
608.42	18.646
608.75	18.530
609.08	17.530
609.41	17.944
609.75	18.056
610.08	18.426
610.41	17.505
610.74	17.455
611.07	18.132
611.41	18.155
611.74	18.502
612.07	18.478
612.40	18.993
612.73	17.789
613.07	19.073
613.40	18.852
613.73	17.724
614.06	17.903
614.39	17.881
614.72	18.000
615.06	17.962
615.39	18.047
615.72	18.098
616.05	17.438
616.38	18.844
616.71	18.468
617.05	18.728
617.38	18.641
617.71	18.198
618.04	18.389
618.37	18.451
618.70	18.731
619.03	18.092
619.36	18.262
619.69	19.014
620.03	18.956
620.36	18.717
620.69	19.247
621.02	18.879
621.35	18.637
621.68	18.614
622.01	19.659
622.34	19.516
622.67	18.859
623.00	18.782
623.33	17.513
623.66	19.228
623.99	17.820
624.32	18.688
624.65	18.008
624.99	18.909
625.32	18.972
625.65	18.257
625.98	19.216
626.31	20.373
626.64	19.429
626.97	19.701
627.30	19.036
627.63	19.114
627.96	19.428
628.29	19.423
628.62	20.403
628.95	20.660
629.28	18.613
629.61	21.173
629.94	20.095
630.26	19.638
630.59	18.875
630.92	20.785
