SpectraSuite Data File
++++++++++++++++++++++++++++++++++++
Date: Wed May 13 19:37:29 PDT 2015
User: schluterlab
Dark Spectrum Present: Yes
Reference Spectrum Present: Yes
Number of Sampled Component Spectra: 1
Spectrometers: USB2E3373
Integration Time (usec): 3000 (USB2E3373)
Spectra Averaged: 3 (USB2E3373)
Boxcar Smoothing: 0 (USB2E3373)
Correct for Electrical Dark: No (USB2E3373)
Strobe/Lamp Enabled: No (USB2E3373)
Correct for Detector Non-linearity: No (USB2E3373)
Correct for Stray Light: No (USB2E3373)
Number of Pixels in Processed Spectrum: 2048
>>>>>Begin Processed Spectral Data<<<<<
178.53	0.000
178.91	-1475.000
179.29	-1450.000
179.67	-272.222
180.04	-1600.000
180.42	2850.000
180.80	1160.000
181.18	-1250.000
181.56	628.571
181.94	0.000
182.31	-800.000
182.69	2033.333
183.07	-662.500
183.45	-533.333
183.83	672.727
184.20	-500.000
184.58	2350.000
184.96	6200.000
185.34	-760.000
185.72	-587.500
186.09	-2450.000
186.47	3150.000
186.85	2550.000
187.23	5400.000
187.61	-1800.000
187.98	1550.000
188.36	609.091
188.74	600.000
189.12	-960.000
189.49	610.000
189.87	-4600.000
190.25	-1450.000
190.63	421.429
191.00	384.615
191.38	883.333
191.76	-1400.000
192.14	1625.000
192.51	625.000
192.89	1116.667
193.27	625.000
193.65	-1250.000
194.02	580.000
194.40	1140.000
194.78	610.000
195.15	500.000
195.53	650.000
195.91	-1900.000
196.29	375.000
196.66	347.368
197.04	-410.000
197.42	0.000
197.79	710.000
198.17	-5300.000
198.55	857.143
198.92	737.500
199.30	900.000
199.68	0.000
200.05	383.333
200.43	785.714
200.81	4600.000
201.18	1566.667
201.56	-1833.333
201.94	622.222
202.31	566.667
202.69	441.667
203.07	600.000
203.44	0.000
203.82	1225.000
204.19	871.429
204.57	471.429
204.95	650.000
205.32	1566.667
205.70	600.000
206.08	435.714
206.45	2900.000
206.83	368.750
207.20	950.000
207.58	920.000
207.96	355.556
208.33	837.500
208.71	-933.333
209.08	857.143
209.46	588.889
209.84	463.636
210.21	-1766.667
210.59	1525.000
210.96	-550.000
211.34	2900.000
211.71	630.000
212.09	750.000
212.46	0.000
212.84	1766.667
213.22	1250.000
213.59	-4600.000
213.97	883.333
214.34	814.286
214.72	600.000
215.09	1200.000
215.47	-2600.000
215.84	-2900.000
216.22	1966.667
216.59	464.286
216.97	1450.000
217.34	509.091
217.72	-866.667
218.09	0.000
218.47	-5100.000
218.84	588.889
219.22	757.143
219.59	1766.667
219.97	-614.286
220.34	1060.000
220.72	-1766.667
221.09	435.714
221.47	1625.000
221.84	-933.333
222.22	0.000
222.59	1500.000
222.97	-3350.000
223.34	1240.000
223.72	476.923
224.09	1120.000
224.46	1900.000
224.84	-5200.000
225.21	-1060.000
225.59	-5600.000
225.96	650.000
226.34	285.000
226.71	2550.000
227.08	787.500
227.46	600.000
227.83	-1050.000
228.21	-2600.000
228.58	700.000
228.95	-2300.000
229.33	-2200.000
229.70	2000.000
230.08	714.286
230.45	-1020.000
230.82	458.333
231.20	1016.667
231.57	685.714
231.95	408.333
232.32	245.455
232.69	418.182
233.07	685.714
233.44	369.231
233.81	-2000.000
234.19	300.000
234.56	391.667
234.93	408.333
235.31	481.818
235.68	353.846
236.05	442.857
236.43	172.727
236.80	284.211
237.17	4600.000
237.55	209.524
237.92	214.286
238.29	242.857
238.67	167.742
239.04	196.552
239.41	136.111
239.79	102.174
240.16	128.571
240.53	138.636
240.91	88.235
241.28	96.000
241.65	72.000
242.02	88.406
242.40	74.194
242.77	73.333
243.14	66.667
243.51	66.292
243.89	58.824
244.26	52.222
244.63	53.763
245.00	48.936
245.38	53.465
245.75	48.598
246.12	34.862
246.49	48.175
246.87	50.400
247.24	45.385
247.61	42.143
247.98	33.333
248.36	31.081
248.73	37.580
249.10	33.121
249.47	36.723
249.84	34.225
250.22	30.481
250.59	30.178
250.96	32.323
251.33	26.540
251.70	33.663
252.08	27.143
252.45	24.664
252.82	20.435
253.19	24.681
253.56	29.020
253.94	21.577
254.31	22.266
254.68	26.538
255.05	23.616
255.42	23.171
255.79	22.059
256.16	22.383
256.54	18.375
256.91	20.996
257.28	17.986
257.65	17.162
258.02	18.944
258.39	16.719
258.76	19.398
259.14	18.155
259.51	15.198
259.88	15.217
260.25	18.731
260.62	16.763
260.99	15.528
261.36	16.517
261.73	17.192
262.10	14.244
262.47	15.211
262.85	15.599
263.22	13.675
263.59	18.234
263.96	16.758
264.33	16.188
264.70	17.105
265.07	15.345
265.44	15.404
265.81	12.895
266.18	15.075
266.55	13.659
266.92	13.022
267.29	12.963
267.66	13.532
268.03	14.545
268.40	12.383
268.77	12.649
269.14	12.613
269.51	15.350
269.88	13.520
270.25	13.770
270.62	11.910
270.99	16.129
271.36	12.876
271.73	12.850
272.10	13.261
272.47	13.763
272.84	14.719
273.21	12.369
273.58	13.755
273.95	13.627
274.32	11.157
274.69	12.206
275.06	12.008
275.43	13.830
275.80	12.224
276.17	10.387
276.54	12.058
276.91	12.451
277.28	12.891
277.65	11.219
278.02	10.559
278.39	12.695
278.76	11.273
279.13	10.566
279.50	11.359
279.87	11.952
280.23	9.780
280.60	9.478
280.97	10.721
281.34	11.150
281.71	11.636
282.08	13.244
282.45	10.727
282.82	9.414
283.19	9.269
283.56	9.649
283.92	10.152
284.29	10.229
284.66	10.345
285.03	11.031
285.40	8.803
285.77	10.943
286.14	9.845
286.51	11.333
286.87	10.427
287.24	10.912
287.61	10.754
287.98	11.526
288.35	9.192
288.72	9.813
289.08	9.703
289.45	8.237
289.82	10.569
290.19	6.907
290.56	10.567
290.93	8.006
291.29	9.663
291.66	10.619
292.03	10.029
292.40	10.426
292.77	8.728
293.13	9.104
293.50	8.601
293.87	9.037
294.24	7.852
294.60	8.006
294.97	8.140
295.34	10.719
295.71	9.943
296.08	8.689
296.44	7.015
296.81	7.530
297.18	10.163
297.55	8.575
297.91	6.992
298.28	9.371
298.65	7.963
299.02	9.486
299.38	9.163
299.75	7.412
300.12	6.769
300.48	7.875
300.85	9.248
301.22	8.535
301.59	7.197
301.95	8.438
302.32	6.418
302.69	7.049
303.05	7.152
303.42	7.160
303.79	7.361
304.15	6.177
304.52	6.721
304.89	6.736
305.25	8.005
305.62	8.154
305.99	8.737
306.35	8.389
306.72	7.399
307.09	8.102
307.45	8.221
307.82	6.250
308.19	8.278
308.55	7.983
308.92	7.197
309.29	6.441
309.65	6.893
310.02	6.977
310.38	6.989
310.75	5.913
311.12	7.779
311.48	7.315
311.85	8.491
312.22	7.700
312.58	7.484
312.95	7.392
313.31	7.282
313.68	6.653
314.05	10.158
314.41	7.538
314.78	8.056
315.14	7.746
315.51	8.960
315.87	8.515
316.24	8.739
316.61	8.577
316.97	9.393
317.34	8.806
317.70	8.126
318.07	9.913
318.43	10.274
318.80	11.528
319.16	10.923
319.53	10.600
319.89	11.619
320.26	12.500
320.62	12.202
320.99	12.929
321.35	12.626
321.72	13.552
322.08	14.610
322.45	14.129
322.81	15.116
323.18	14.355
323.54	15.306
323.91	16.132
324.27	15.583
324.64	15.564
325.00	15.690
325.37	16.561
325.73	18.043
326.10	17.034
326.46	17.563
326.83	19.068
327.19	19.641
327.56	18.728
327.92	20.735
328.29	21.473
328.65	20.258
329.01	21.390
329.38	21.277
329.74	21.884
330.11	21.018
330.47	22.039
330.84	21.967
331.20	21.494
331.56	22.661
331.93	22.500
332.29	22.893
332.66	23.009
333.02	23.583
333.38	24.481
333.75	24.153
334.11	24.466
334.48	23.602
334.84	24.173
335.20	24.818
335.57	23.391
335.93	22.232
336.29	23.993
336.66	24.346
337.02	23.801
337.38	24.907
337.75	23.886
338.11	23.993
338.47	25.322
338.84	24.748
339.20	24.495
339.56	27.099
339.93	24.000
340.29	24.909
340.65	25.045
341.02	25.044
341.38	25.712
341.74	25.263
342.11	25.502
342.47	25.991
342.83	25.942
343.20	25.455
343.56	24.263
343.92	24.649
344.28	26.020
344.65	25.021
345.01	23.148
345.37	23.413
345.73	24.535
346.10	25.234
346.46	25.254
346.82	24.300
347.19	23.726
347.55	24.466
347.91	25.081
348.27	24.404
348.63	26.003
349.00	24.353
349.36	24.384
349.72	24.860
350.08	23.825
350.45	24.817
350.81	24.939
351.17	23.825
351.53	24.161
351.89	25.000
352.26	25.178
352.62	25.902
352.98	24.959
353.34	24.897
353.70	24.386
354.07	25.484
354.43	24.206
354.79	24.457
355.15	23.863
355.51	25.659
355.87	25.143
356.24	25.651
356.60	24.779
356.96	25.020
357.32	25.266
357.68	25.276
358.04	24.782
358.40	25.574
358.77	24.961
359.13	24.941
359.49	25.176
359.85	24.286
360.21	24.402
360.57	24.981
360.93	26.077
361.29	24.641
361.66	24.226
362.02	24.403
362.38	26.692
362.74	25.744
363.10	23.834
363.46	23.918
363.82	25.094
364.18	24.449
364.54	25.557
364.90	25.425
365.26	24.779
365.62	25.201
365.98	24.836
366.35	23.567
366.71	24.657
367.07	24.326
367.43	24.891
367.79	24.054
368.15	25.144
368.51	24.491
368.87	25.268
369.23	25.165
369.59	24.620
369.95	24.191
370.31	25.285
370.67	24.493
371.03	25.243
371.39	24.781
371.75	25.147
372.11	24.609
372.47	25.000
372.83	25.072
373.19	24.350
373.55	24.760
373.91	25.184
374.27	24.811
374.63	24.364
374.99	25.282
375.35	23.866
375.71	24.469
376.07	24.897
376.42	24.347
376.78	25.050
377.14	25.102
377.50	24.768
377.86	24.468
378.22	24.968
378.58	23.935
378.94	23.570
379.30	24.809
379.66	25.254
380.02	25.307
380.38	23.376
380.74	24.490
381.09	24.572
381.45	24.647
381.81	24.509
382.17	24.076
382.53	24.151
382.89	24.444
383.25	23.515
383.61	24.969
383.97	24.453
384.32	24.579
384.68	24.473
385.04	23.786
385.40	23.344
385.76	24.017
386.12	24.611
386.48	24.355
386.83	23.990
387.19	24.181
387.55	24.675
387.91	23.640
388.27	23.666
388.62	24.647
388.98	23.587
389.34	23.905
389.70	24.341
390.06	24.968
390.42	24.060
390.77	24.618
391.13	23.931
391.49	24.239
391.85	23.297
392.20	23.596
392.56	23.801
392.92	23.131
393.28	22.899
393.64	23.741
393.99	23.458
394.35	23.821
394.71	24.090
395.07	23.302
395.42	23.733
395.78	23.473
396.14	23.464
396.50	23.935
396.85	24.031
397.21	23.551
397.57	23.249
397.92	23.137
398.28	22.422
398.64	23.895
399.00	22.776
399.35	22.899
399.71	22.859
400.07	23.536
400.42	23.436
400.78	23.764
401.14	23.354
401.49	22.866
401.85	21.779
402.21	22.635
402.57	22.825
402.92	22.951
403.28	23.235
403.63	22.277
403.99	22.803
404.35	22.242
404.70	21.823
405.06	22.190
405.42	23.082
405.77	21.429
406.13	22.630
406.49	22.827
406.84	22.623
407.20	22.518
407.55	22.463
407.91	22.867
408.27	22.144
408.62	22.336
408.98	22.059
409.34	22.509
409.69	22.387
410.05	23.110
410.40	22.936
410.76	21.924
411.11	23.100
411.47	21.789
411.83	22.053
412.18	21.892
412.54	22.354
412.89	22.892
413.25	22.668
413.60	22.545
413.96	21.433
414.31	22.053
414.67	22.497
415.03	21.457
415.38	21.714
415.74	21.736
416.09	22.208
416.45	21.553
416.80	21.150
417.16	22.319
417.51	22.893
417.87	22.158
418.22	22.082
418.58	22.918
418.93	21.806
419.29	21.579
419.64	21.725
420.00	22.012
420.35	21.913
420.71	21.877
421.06	21.659
421.42	21.813
421.77	21.188
422.12	21.336
422.48	21.047
422.83	21.374
423.19	21.989
423.54	22.113
423.90	21.855
424.25	22.055
424.61	21.369
424.96	22.449
425.31	21.595
425.67	21.573
426.02	22.000
426.38	21.978
426.73	21.006
427.09	21.459
427.44	22.024
427.79	21.507
428.15	22.560
428.50	21.533
428.85	21.692
429.21	21.425
429.56	21.462
429.92	20.835
430.27	21.450
430.62	20.686
430.98	22.055
431.33	21.082
431.68	20.838
432.04	21.299
432.39	21.074
432.74	21.903
433.10	20.770
433.45	21.924
433.80	20.843
434.16	22.009
434.51	21.684
434.86	21.608
435.22	21.957
435.57	22.249
435.92	21.767
436.28	21.767
436.63	21.523
436.98	21.923
437.34	22.302
437.69	22.462
438.04	21.922
438.39	21.552
438.75	22.080
439.10	22.123
439.45	21.901
439.81	21.208
440.16	22.134
440.51	22.144
440.86	22.293
441.22	21.580
441.57	21.285
441.92	21.392
442.27	21.744
442.63	21.485
442.98	22.197
443.33	21.359
443.68	21.322
444.03	20.693
444.39	20.789
444.74	21.429
445.09	21.941
445.44	21.870
445.79	21.029
446.15	21.810
446.50	21.809
446.85	21.223
447.20	21.418
447.55	21.999
447.91	21.291
448.26	21.703
448.61	21.198
448.96	21.650
449.31	21.541
449.66	21.441
450.02	21.003
450.37	21.315
450.72	21.151
451.07	21.938
451.42	20.729
451.77	22.314
452.12	21.247
452.47	21.517
452.83	21.620
453.18	22.066
453.53	22.202
453.88	21.028
454.23	20.921
454.58	22.350
454.93	22.123
455.28	21.945
455.63	21.602
455.98	22.679
456.34	21.608
456.69	21.353
457.04	21.486
457.39	20.690
457.74	21.474
458.09	20.874
458.44	21.722
458.79	21.150
459.14	20.937
459.49	22.242
459.84	20.443
460.19	20.625
460.54	20.312
460.89	20.187
461.24	20.886
461.59	22.080
461.94	21.147
462.29	21.365
462.64	21.506
462.99	20.494
463.34	21.600
463.69	20.638
464.04	21.275
464.39	20.638
464.74	20.618
465.09	20.688
465.44	18.892
465.79	19.799
466.14	21.073
466.49	20.078
466.84	21.133
467.19	20.640
467.54	20.500
467.89	19.928
468.24	20.535
468.59	20.696
468.94	19.792
469.29	20.501
469.64	20.683
469.99	21.583
470.34	20.013
470.68	20.474
471.03	19.116
471.38	19.944
471.73	20.187
472.08	20.526
472.43	19.849
472.78	20.540
473.13	20.218
473.48	19.975
473.83	20.427
474.17	19.664
474.52	20.161
474.87	20.257
475.22	19.965
475.57	19.667
475.92	19.490
476.27	19.560
476.61	19.912
476.96	18.857
477.31	18.367
477.66	19.475
478.01	17.930
478.36	19.408
478.70	19.834
479.05	19.862
479.40	19.140
479.75	19.115
480.10	18.986
480.45	18.658
480.79	18.299
481.14	18.444
481.49	18.747
481.84	19.250
482.19	18.946
482.53	18.211
482.88	18.893
483.23	18.879
483.58	18.426
483.92	18.416
484.27	17.647
484.62	17.974
484.97	17.540
485.31	18.116
485.66	16.740
486.01	15.973
486.36	15.614
486.70	15.611
487.05	16.171
487.40	16.547
487.75	16.840
488.09	17.137
488.44	17.312
488.79	17.505
489.13	17.303
489.48	17.496
489.83	17.609
490.17	17.975
490.52	17.715
490.87	17.503
491.22	17.372
491.56	16.856
491.91	17.310
492.26	17.455
492.60	17.558
492.95	16.838
493.30	17.243
493.64	17.685
493.99	16.945
494.34	17.669
494.68	18.361
495.03	17.904
495.37	17.217
495.72	17.593
496.07	17.680
496.41	16.681
496.76	16.359
497.11	17.830
497.45	17.746
497.80	17.370
498.14	17.005
498.49	17.512
498.84	17.210
499.18	17.286
499.53	17.189
499.87	17.008
500.22	16.722
500.56	17.718
500.91	16.971
501.26	17.639
501.60	17.276
501.95	16.178
502.29	17.573
502.64	16.853
502.98	16.597
503.33	16.728
503.67	17.216
504.02	17.212
504.36	17.501
504.71	17.294
505.06	16.627
505.40	17.307
505.75	17.165
506.09	16.715
506.44	17.168
506.78	17.000
507.13	17.567
507.47	17.525
507.82	17.072
508.16	17.882
508.51	17.555
508.85	16.733
509.19	16.633
509.54	16.786
509.88	16.899
510.23	16.812
510.57	17.389
510.92	17.607
511.26	16.855
511.61	16.805
511.95	15.814
512.30	16.066
512.64	16.604
512.98	17.310
513.33	17.131
513.67	16.275
514.02	15.801
514.36	17.258
514.70	16.547
515.05	16.676
515.39	16.657
515.74	17.117
516.08	17.775
516.42	17.536
516.77	17.391
517.11	16.482
517.46	16.253
517.80	16.957
518.14	15.866
518.49	16.686
518.83	16.932
519.17	16.513
519.52	16.355
519.86	17.228
520.20	16.705
520.55	16.637
520.89	16.971
521.23	16.948
521.58	17.347
521.92	17.269
522.26	16.534
522.61	16.386
522.95	16.636
523.29	16.129
523.64	17.012
523.98	16.513
524.32	17.069
524.66	17.679
525.01	16.912
525.35	17.658
525.69	16.441
526.04	16.137
526.38	17.633
526.72	16.994
527.06	16.886
527.41	15.903
527.75	16.977
528.09	16.891
528.43	17.145
528.78	17.394
529.12	16.424
529.46	16.840
529.80	17.141
530.15	16.511
530.49	16.677
530.83	16.329
531.17	17.493
531.51	17.510
531.86	16.968
532.20	17.014
532.54	16.848
532.88	17.458
533.22	16.552
533.57	16.852
533.91	16.014
534.25	16.586
534.59	15.863
534.93	16.062
535.27	16.958
535.62	15.995
535.96	15.945
536.30	15.702
536.64	16.999
536.98	16.987
537.32	16.656
537.66	16.733
538.01	16.327
538.35	17.001
538.69	17.358
539.03	15.724
539.37	15.016
539.71	16.137
540.05	16.471
540.39	16.013
540.73	16.300
541.07	16.937
541.42	16.308
541.76	16.903
542.10	17.464
542.44	16.755
542.78	16.930
543.12	16.315
543.46	17.049
543.80	16.721
544.14	15.789
544.48	16.952
544.82	16.806
545.16	16.591
545.50	16.003
545.84	16.734
546.18	17.643
546.52	17.412
546.86	15.876
547.20	17.397
547.54	17.034
547.88	17.347
548.22	16.127
548.56	15.975
548.90	15.109
549.24	15.488
549.58	16.303
549.92	16.071
550.26	15.767
550.60	16.528
550.94	16.620
551.28	15.508
551.62	17.398
551.96	16.140
552.30	17.065
552.64	16.565
552.98	16.610
553.32	16.386
553.66	15.815
554.00	16.747
554.34	16.080
554.68	17.239
555.02	17.137
555.36	16.075
555.69	15.291
556.03	16.420
556.37	16.030
556.71	16.166
557.05	15.896
557.39	16.025
557.73	16.020
558.07	17.621
558.41	15.485
558.75	16.679
559.08	16.704
559.42	17.007
559.76	16.397
560.10	15.703
560.44	15.514
560.78	16.035
561.12	15.567
561.45	16.949
561.79	15.359
562.13	16.231
562.47	16.052
562.81	15.272
563.15	16.522
563.48	15.650
563.82	15.329
564.16	15.370
564.50	15.365
564.84	15.360
565.17	16.023
565.51	15.463
565.85	15.355
566.19	14.903
566.52	15.579
566.86	14.828
567.20	15.743
567.54	15.068
567.88	14.340
568.21	15.291
568.55	14.863
568.89	13.521
569.23	13.948
569.56	13.644
569.90	13.283
570.24	13.348
570.57	13.227
570.91	13.219
571.25	12.724
571.59	12.784
571.92	12.817
572.26	13.345
572.60	13.063
572.93	12.744
573.27	12.629
573.61	12.982
573.95	13.127
574.28	12.186
574.62	12.731
574.96	12.401
575.29	12.197
575.63	12.246
575.97	12.288
576.30	13.224
576.64	12.509
576.98	12.664
577.31	12.223
577.65	12.052
577.98	12.083
578.32	11.557
578.66	12.034
578.99	12.029
579.33	12.297
579.67	12.065
580.00	12.299
580.34	12.316
580.67	12.148
581.01	12.233
581.35	12.088
581.68	11.791
582.02	11.387
582.35	12.206
582.69	12.128
583.02	11.948
583.36	11.875
583.70	12.562
584.03	12.513
584.37	12.859
584.70	12.173
585.04	12.304
585.37	12.325
585.71	12.617
586.04	12.056
586.38	12.487
586.72	12.897
587.05	12.008
587.39	11.953
587.72	12.291
588.06	12.300
588.39	12.812
588.73	12.614
589.06	12.558
589.40	13.064
589.73	12.707
590.07	13.203
590.40	13.080
590.73	13.271
591.07	13.390
591.40	13.370
591.74	13.333
592.07	14.136
592.41	13.270
592.74	12.921
593.08	12.858
593.41	12.306
593.75	12.211
594.08	12.001
594.41	12.937
594.75	12.421
595.08	12.992
595.42	12.469
595.75	12.821
596.09	13.106
596.42	13.674
596.75	13.466
597.09	13.983
597.42	12.563
597.75	12.937
598.09	13.348
598.42	13.101
598.76	12.890
599.09	12.619
599.42	12.263
599.76	12.335
600.09	12.605
600.42	12.783
600.76	12.536
601.09	12.605
601.42	12.633
601.76	12.182
602.09	12.727
602.42	12.619
602.76	12.737
603.09	12.746
603.42	13.159
603.76	12.081
604.09	12.253
604.42	12.841
604.76	13.159
605.09	13.062
605.42	12.869
605.75	12.873
606.09	12.281
606.42	12.505
606.75	12.899
607.09	13.227
607.42	13.179
607.75	12.110
608.08	12.375
608.42	13.088
608.75	12.804
609.08	12.442
609.41	12.803
609.75	13.244
610.08	13.242
610.41	11.825
610.74	13.009
611.07	13.093
611.41	13.297
611.74	13.675
612.07	13.768
612.40	13.536
612.73	13.684
613.07	13.470
613.40	13.902
613.73	12.323
614.06	13.333
614.39	12.900
614.72	13.526
615.06	13.708
615.39	12.686
615.72	12.730
616.05	13.397
616.38	13.118
616.71	13.955
617.05	13.840
617.38	13.229
617.71	12.793
618.04	14.062
618.37	13.661
618.70	13.690
619.03	13.816
619.36	13.714
619.69	14.085
620.03	15.316
620.36	13.837
620.69	14.932
621.02	14.454
621.35	14.487
621.68	14.642
622.01	14.861
622.34	14.372
622.67	13.308
623.00	13.206
623.33	14.081
623.66	14.868
623.99	14.654
624.32	12.910
624.65	14.195
624.99	13.314
625.32	12.672
625.65	13.298
625.98	14.374
626.31	14.152
626.64	15.184
626.97	15.129
627.30	13.965
627.63	14.930
627.96	14.382
628.29	15.136
628.62	15.645
628.95	16.415
629.28	16.150
629.61	16.040
629.94	15.905
630.26	14.776
630.59	14.967
630.92	15.230
631.25	14.709
631.58	15.516
631.91	15.314
632.24	15.401
632.57	15.320
