SpectraSuite Data File
++++++++++++++++++++++++++++++++++++
Date: Wed May 13 19:15:56 PDT 2015
User: schluterlab
Dark Spectrum Present: Yes
Reference Spectrum Present: Yes
Number of Sampled Component Spectra: 1
Spectrometers: USB2E3373
Integration Time (usec): 3000 (USB2E3373)
Spectra Averaged: 3 (USB2E3373)
Boxcar Smoothing: 0 (USB2E3373)
Correct for Electrical Dark: No (USB2E3373)
Strobe/Lamp Enabled: No (USB2E3373)
Correct for Detector Non-linearity: No (USB2E3373)
Correct for Stray Light: No (USB2E3373)
Number of Pixels in Processed Spectrum: 2048
>>>>>Begin Processed Spectral Data<<<<<
178.53	0.000
178.91	-1575.000
179.29	-1675.000
179.67	-233.333
180.04	-1400.000
180.42	2250.000
180.80	1180.000
181.18	-1125.000
181.56	814.286
181.94	0.000
182.31	-842.857
182.69	2000.000
183.07	-625.000
183.45	-566.667
183.83	681.818
184.20	-460.000
184.58	2750.000
184.96	4900.000
185.34	-1080.000
185.72	-650.000
186.09	-2700.000
186.47	3050.000
186.85	2650.000
187.23	5100.000
187.61	-1633.333
187.98	1450.000
188.36	581.818
188.74	563.636
189.12	-980.000
189.49	620.000
189.87	-5400.000
190.25	-1375.000
190.63	500.000
191.00	484.615
191.38	983.333
191.76	-1325.000
192.14	1475.000
192.51	687.500
192.89	1183.333
193.27	662.500
193.65	-1300.000
194.02	680.000
194.40	1120.000
194.78	630.000
195.15	500.000
195.53	690.000
195.91	-2450.000
196.29	412.500
196.66	373.684
197.04	-400.000
197.42	0.000
197.79	670.000
198.17	-5600.000
198.55	871.429
198.92	737.500
199.30	1100.000
199.68	0.000
200.05	372.222
200.43	728.571
200.81	4600.000
201.18	1900.000
201.56	-1666.667
201.94	644.444
202.31	600.000
202.69	516.667
203.07	520.000
203.44	0.000
203.82	1250.000
204.19	842.857
204.57	507.143
204.95	687.500
205.32	1766.667
205.70	618.182
206.08	450.000
206.45	2800.000
206.83	387.500
207.20	1133.333
207.58	940.000
207.96	344.444
208.33	775.000
208.71	-916.667
209.08	1028.571
209.46	700.000
209.84	527.273
210.21	-1733.333
210.59	1650.000
210.96	-525.000
211.34	2600.000
211.71	620.000
212.09	833.333
212.46	0.000
212.84	2266.667
213.22	1725.000
213.59	-4700.000
213.97	866.667
214.34	900.000
214.72	581.818
215.09	1140.000
215.47	-2150.000
215.84	-2900.000
216.22	1733.333
216.59	450.000
216.97	1500.000
217.34	554.545
217.72	-933.333
218.09	0.000
218.47	-5200.000
218.84	811.111
219.22	828.571
219.59	1966.667
219.97	-742.857
220.34	980.000
220.72	-2166.667
221.09	457.143
221.47	1450.000
221.84	-1050.000
222.22	0.000
222.59	1600.000
222.97	-2900.000
223.34	1280.000
223.72	453.846
224.09	1140.000
224.46	2350.000
224.84	-6500.000
225.21	-960.000
225.59	-5700.000
225.96	690.000
226.34	340.000
226.71	2450.000
227.08	787.500
227.46	600.000
227.83	-1250.000
228.21	-2700.000
228.58	633.333
228.95	-3100.000
229.33	-2300.000
229.70	2366.667
230.08	857.143
230.45	-920.000
230.82	466.667
231.20	966.667
231.57	857.143
231.95	516.667
232.32	254.545
232.69	436.364
233.07	685.714
233.44	415.385
233.81	-1933.333
234.19	347.368
234.56	508.333
234.93	508.333
235.31	445.455
235.68	369.231
236.05	428.571
236.43	178.788
236.80	310.526
237.17	5100.000
237.55	271.429
237.92	210.714
238.29	290.476
238.67	180.645
239.04	237.931
239.41	177.778
239.79	145.652
240.16	159.524
240.53	147.727
240.91	121.569
241.28	126.000
241.65	124.000
242.02	114.493
242.40	125.806
242.77	130.000
243.14	87.097
243.51	107.865
243.89	75.294
244.26	71.111
244.63	88.172
245.00	77.660
245.38	75.248
245.75	68.224
246.12	61.468
246.49	73.723
246.87	73.600
247.24	69.231
247.61	70.000
247.98	66.013
248.36	55.405
248.73	59.236
249.10	59.873
249.47	50.282
249.84	58.824
250.22	52.941
250.59	51.479
250.96	54.545
251.33	52.607
251.70	56.931
252.08	51.905
252.45	47.534
252.82	48.696
253.19	50.638
253.56	49.020
253.94	47.718
254.31	46.875
254.68	45.769
255.05	43.542
255.42	42.276
255.79	43.382
256.16	44.404
256.54	41.343
256.91	39.146
257.28	40.288
257.65	39.934
258.02	40.062
258.39	43.218
258.76	40.134
259.14	40.774
259.51	38.602
259.88	42.547
260.25	39.577
260.62	38.439
260.99	37.888
261.36	40.240
261.73	38.395
262.10	35.756
262.47	41.127
262.85	39.833
263.22	36.182
263.59	39.886
263.96	37.088
264.33	36.292
264.70	35.526
265.07	35.550
265.44	34.596
265.81	34.063
266.18	34.925
266.55	37.561
266.92	36.855
267.29	36.806
267.66	36.009
268.03	32.727
268.40	33.411
268.77	32.936
269.14	31.982
269.51	34.763
269.88	32.867
270.25	31.828
270.62	34.831
270.99	34.409
271.36	34.120
271.73	31.075
272.10	33.043
272.47	35.484
272.84	32.468
273.21	34.172
273.58	32.751
273.95	32.704
274.32	30.992
274.69	34.047
275.06	30.709
275.43	35.532
275.80	29.659
276.17	32.587
276.54	32.225
276.91	30.830
277.28	32.227
277.65	31.721
278.02	31.263
278.39	32.422
278.76	30.727
279.13	33.396
279.50	30.726
279.87	30.080
280.23	32.136
280.60	31.335
280.97	33.087
281.34	31.504
281.71	31.636
282.08	32.821
282.45	28.545
282.82	29.485
283.19	28.342
283.56	30.526
283.92	31.810
284.29	30.511
284.66	29.401
285.03	27.667
285.40	28.873
285.77	29.125
286.14	29.879
286.51	29.333
286.87	29.060
287.24	29.642
287.61	27.448
287.98	28.896
288.35	28.051
288.72	27.103
289.08	28.795
289.45	27.677
289.82	28.455
290.19	26.217
290.56	27.106
290.93	27.341
291.29	28.834
291.66	26.696
292.03	26.744
292.40	27.313
292.77	26.627
293.13	25.373
293.50	25.802
293.87	26.074
294.24	25.185
294.60	23.581
294.97	24.564
295.34	26.375
295.71	24.858
296.08	24.217
296.44	25.722
296.81	23.646
297.18	25.068
297.55	21.372
297.91	21.900
298.28	24.498
298.65	24.674
299.02	23.320
299.38	23.373
299.75	22.372
300.12	21.839
300.48	21.875
300.85	21.578
301.22	22.930
301.59	20.707
301.95	22.292
302.32	21.181
302.69	22.700
303.05	21.333
303.42	21.235
303.79	22.310
304.15	20.396
304.52	20.510
304.89	21.254
305.25	21.114
305.62	21.744
305.99	22.078
306.35	22.036
306.72	22.646
307.09	21.421
307.45	21.509
307.82	18.304
308.19	22.075
308.55	21.791
308.92	21.375
309.29	20.803
309.65	19.936
310.02	20.719
310.38	20.968
310.75	20.697
311.12	19.959
311.48	19.645
311.85	21.279
312.22	22.164
312.58	21.310
312.95	21.964
313.31	20.874
313.68	20.582
314.05	22.781
314.41	21.809
314.78	21.047
315.14	21.946
315.51	22.142
315.87	21.881
316.24	21.549
316.61	21.930
316.97	22.114
317.34	21.526
317.70	22.562
318.07	24.350
318.43	23.679
318.80	23.430
319.16	24.011
319.53	24.578
319.89	24.952
320.26	26.500
320.62	26.190
320.99	26.263
321.35	27.273
321.72	27.310
322.08	28.134
322.45	29.751
322.81	28.585
323.18	30.925
323.54	29.963
323.91	30.283
324.27	31.358
324.64	30.848
325.00	31.650
325.37	32.575
325.73	33.124
326.10	33.892
326.46	34.857
326.83	34.167
327.19	34.927
327.56	36.324
327.92	37.533
328.29	36.380
328.65	36.740
329.01	37.094
329.38	38.205
329.74	37.304
330.11	38.737
330.47	37.741
330.84	38.971
331.20	39.526
331.56	40.183
331.93	40.833
332.29	39.752
332.66	40.000
333.02	39.945
333.38	40.199
333.75	40.196
334.11	39.146
334.48	40.728
334.84	41.636
335.20	40.091
335.57	40.888
335.93	40.625
336.29	39.927
336.66	41.118
337.02	40.814
337.38	41.759
337.75	39.661
338.11	41.361
338.47	41.160
338.84	40.238
339.20	41.468
339.56	42.609
339.93	41.364
340.29	40.670
340.65	42.870
341.02	41.361
341.38	41.281
341.74	42.368
342.11	43.144
342.47	42.555
342.83	41.182
343.20	41.472
343.56	41.618
343.92	41.491
344.28	41.752
344.65	41.874
345.01	40.488
345.37	41.081
345.73	42.217
346.10	42.114
346.46	41.525
346.82	41.763
347.19	41.270
347.55	40.312
347.91	44.013
348.27	42.564
348.63	43.395
349.00	41.667
349.36	41.954
349.72	40.417
350.08	41.734
350.45	42.229
350.81	43.136
351.17	41.815
351.53	40.868
351.89	41.997
352.26	41.752
352.62	42.422
352.98	40.762
353.34	41.578
353.70	40.998
354.07	41.774
354.43	40.556
354.79	41.352
355.15	40.303
355.51	43.725
355.87	43.265
356.24	43.974
356.60	40.577
356.96	42.317
357.32	43.581
357.68	43.228
358.04	42.280
358.40	42.914
358.77	43.036
359.13	41.752
359.49	41.725
359.85	41.825
360.21	42.584
360.57	42.957
360.93	42.692
361.29	43.159
361.66	43.034
362.02	43.209
362.38	43.422
362.74	43.676
363.10	44.115
363.46	42.333
363.82	44.142
364.18	43.979
364.54	44.651
364.90	43.343
365.26	44.779
365.62	44.777
365.98	44.047
366.35	43.696
366.71	43.890
367.07	44.647
367.43	44.122
367.79	46.039
368.15	45.259
368.51	44.477
368.87	46.324
369.23	45.574
369.59	46.416
369.95	44.926
370.31	44.231
370.67	43.768
371.03	46.367
371.39	45.991
371.75	46.765
372.11	44.595
372.47	46.774
372.83	46.398
373.19	46.460
373.55	47.967
373.91	47.717
374.27	45.292
374.63	46.182
374.99	47.105
375.35	46.406
375.71	47.293
376.07	46.845
376.42	48.281
376.78	47.979
377.14	46.879
377.50	47.152
377.86	46.676
378.22	47.472
378.58	46.742
378.94	46.512
379.30	47.964
379.66	48.731
380.02	48.157
380.38	47.966
380.74	47.839
381.09	48.472
381.45	48.433
381.81	48.157
382.17	48.726
382.53	48.239
382.89	48.395
383.25	49.281
383.61	49.318
383.97	49.406
384.32	48.097
384.68	48.575
385.04	48.679
385.40	48.483
385.76	48.464
386.12	49.676
386.48	50.283
386.83	50.545
387.19	51.144
387.55	50.464
387.91	50.121
388.27	50.399
388.62	48.924
388.98	49.324
389.34	50.250
389.70	48.375
390.06	49.747
390.42	50.649
390.77	49.109
391.13	50.862
391.49	49.873
391.85	49.013
392.20	49.905
392.56	49.621
392.92	49.912
393.28	48.462
393.64	49.820
393.99	50.153
394.35	49.938
394.71	50.000
395.07	49.720
395.42	51.731
395.78	50.000
396.14	48.790
396.50	52.193
396.85	50.858
397.21	49.075
397.57	50.341
397.92	49.940
398.28	49.832
398.64	49.462
399.00	49.748
399.35	49.295
399.71	49.537
400.07	50.621
400.42	49.755
400.78	49.276
401.14	50.671
401.49	50.209
401.85	49.909
402.21	49.641
402.57	50.771
402.92	50.189
403.28	50.593
403.63	49.938
403.99	51.083
404.35	51.152
404.70	50.420
405.06	49.971
405.42	50.842
405.77	49.657
406.13	49.041
406.49	49.083
406.84	49.439
407.20	50.000
407.55	48.947
407.91	49.000
408.27	51.244
408.62	49.247
408.98	49.632
409.34	49.016
409.69	49.806
410.05	49.876
410.40	50.520
410.76	49.223
411.11	47.708
411.47	50.351
411.83	50.275
412.18	49.165
412.54	50.187
412.89	49.036
413.25	48.878
413.60	48.672
413.96	48.512
414.31	49.757
414.67	49.303
415.03	49.205
415.38	50.258
415.74	48.875
416.09	49.379
416.45	50.268
416.80	48.976
417.16	49.598
417.51	49.900
417.87	48.748
418.22	50.410
418.58	50.291
418.93	48.771
419.29	47.740
419.64	48.552
420.00	48.293
420.35	48.580
420.71	48.595
421.06	48.091
421.42	48.480
421.77	47.926
422.12	48.007
422.48	48.408
422.83	48.923
423.19	48.895
423.54	48.230
423.90	48.522
424.25	48.353
424.61	47.917
424.96	50.379
425.31	48.173
425.67	48.202
426.02	48.571
426.38	49.817
426.73	47.923
427.09	48.875
427.44	47.556
427.79	47.729
428.15	47.679
428.50	48.157
428.85	49.523
429.21	48.371
429.56	48.782
429.92	47.660
430.27	48.808
430.62	47.517
430.98	47.587
431.33	47.680
431.68	48.115
432.04	47.444
432.39	47.915
432.74	48.534
433.10	48.274
433.45	48.630
433.80	48.725
434.16	49.252
434.51	47.158
434.86	47.320
435.22	48.694
435.57	48.146
435.92	48.215
436.28	48.992
436.63	48.510
436.98	48.483
437.34	48.181
437.69	49.417
438.04	48.791
438.39	49.194
438.75	49.041
439.10	48.492
439.45	48.996
439.81	47.795
440.16	48.278
440.51	49.619
440.86	48.871
441.22	47.553
441.57	47.505
441.92	48.823
442.27	48.224
442.63	48.025
442.98	49.239
443.33	47.554
443.68	47.961
444.03	47.145
444.39	47.030
444.74	47.998
445.09	48.787
445.44	47.458
445.79	47.155
446.15	47.115
446.50	47.065
446.85	48.613
447.20	47.272
447.55	48.074
447.91	48.042
448.26	47.468
448.61	47.880
448.96	48.117
449.31	47.807
449.66	47.890
450.02	47.298
450.37	47.732
450.72	47.265
451.07	46.740
451.42	46.930
451.77	47.974
452.12	46.882
452.47	47.015
452.83	47.960
453.18	45.844
453.53	47.310
453.88	46.781
454.23	46.922
454.58	48.213
454.93	48.379
455.28	46.945
455.63	47.633
455.98	48.095
456.34	47.676
456.69	47.714
457.04	47.492
457.39	46.523
457.74	47.533
458.09	46.463
458.44	47.035
458.79	45.282
459.14	47.348
459.49	47.169
459.84	45.928
460.19	45.551
460.54	44.965
460.89	46.297
461.24	47.237
461.59	46.717
461.94	46.671
462.29	46.409
462.64	45.692
462.99	45.348
463.34	45.800
463.69	45.716
464.04	45.739
464.39	44.928
464.74	45.692
465.09	45.838
465.44	44.543
465.79	44.631
466.14	44.992
466.49	44.383
466.84	45.126
467.19	45.745
467.54	45.000
467.89	43.818
468.24	45.550
468.59	46.337
468.94	43.311
469.29	45.051
469.64	45.382
469.99	45.535
470.34	43.923
470.68	45.402
471.03	44.898
471.38	46.004
471.73	44.504
472.08	46.053
472.43	44.849
472.78	44.371
473.13	44.608
473.48	43.258
473.83	43.476
474.17	42.999
474.52	43.921
474.87	44.133
475.22	43.993
475.57	42.719
475.92	42.857
476.27	43.236
476.61	42.250
476.96	42.331
477.31	41.444
477.66	43.764
478.01	41.401
478.36	43.046
478.70	42.783
479.05	42.865
479.40	42.528
479.75	42.806
480.10	42.247
480.45	40.980
480.79	41.376
481.14	42.025
481.49	41.766
481.84	41.564
482.19	41.935
482.53	41.239
482.88	41.926
483.23	41.262
483.58	40.218
483.92	41.753
484.27	39.651
484.62	40.560
484.97	40.560
485.31	40.788
485.66	39.651
486.01	38.172
486.36	36.610
486.70	35.761
487.05	36.581
487.40	37.104
487.75	37.514
488.09	38.156
488.44	37.558
488.79	39.024
489.13	38.846
489.48	39.111
489.83	39.145
490.17	39.807
490.52	39.238
490.87	38.942
491.22	38.790
491.56	38.041
491.91	38.483
492.26	38.401
492.60	37.465
492.95	38.073
493.30	37.804
493.64	38.357
493.99	37.094
494.34	38.298
494.68	38.324
495.03	38.534
495.37	37.832
495.72	37.427
496.07	38.005
496.41	36.858
496.76	38.127
497.11	37.371
497.45	36.609
497.80	37.332
498.14	36.812
498.49	37.659
498.84	36.961
499.18	36.667
499.53	37.464
499.87	36.952
500.22	36.552
500.56	36.845
500.91	36.298
501.26	36.226
501.60	37.731
501.95	35.472
502.29	36.457
502.64	36.778
502.98	36.092
503.33	35.969
503.67	35.870
504.02	36.062
504.36	35.143
504.71	35.906
505.06	35.614
505.40	36.364
505.75	34.860
506.09	35.520
506.44	36.507
506.78	34.876
507.13	35.386
507.47	36.061
507.82	35.512
508.16	35.410
508.51	35.261
508.85	35.353
509.19	34.796
509.54	34.439
509.88	35.240
510.23	33.933
510.57	36.171
510.92	36.044
511.26	34.995
511.61	35.270
511.95	33.873
512.30	34.358
512.64	34.820
512.98	35.370
513.33	35.011
513.67	33.671
514.02	33.496
514.36	34.517
514.70	35.252
515.05	33.965
515.39	33.819
515.74	34.234
516.08	33.482
516.42	35.350
516.77	34.615
517.11	33.851
517.46	34.199
517.80	34.495
518.14	33.121
518.49	34.481
518.83	33.750
519.17	33.603
519.52	33.843
519.86	33.485
520.20	34.566
520.55	34.590
520.89	34.550
521.23	33.836
521.58	33.433
521.92	33.680
522.26	34.411
522.61	33.894
522.95	34.131
523.29	33.110
523.64	34.390
523.98	34.689
524.32	33.595
524.66	33.794
525.01	33.578
525.35	31.722
525.69	32.451
526.04	33.084
526.38	33.984
526.72	33.129
527.06	32.454
527.41	32.178
527.75	33.441
528.09	32.755
528.43	32.951
528.78	33.436
529.12	32.000
529.46	32.578
529.80	33.973
530.15	33.645
530.49	32.123
530.83	33.228
531.17	33.420
531.51	33.593
531.86	32.839
532.20	33.246
532.54	32.607
532.88	32.221
533.22	32.417
533.57	32.716
533.91	31.668
534.25	32.685
534.59	33.130
534.93	31.588
535.27	31.623
535.62	31.319
535.96	31.387
536.30	31.341
536.64	31.616
536.98	32.648
537.32	31.271
537.66	31.000
538.01	31.007
538.35	32.062
538.69	32.163
539.03	31.579
539.37	31.438
539.71	30.136
540.05	32.026
540.39	31.096
540.73	30.595
541.07	31.149
541.42	30.920
541.76	31.806
542.10	30.401
542.44	30.927
542.78	31.818
543.12	30.070
543.46	31.410
543.80	30.774
544.14	30.103
544.48	31.429
544.82	29.570
545.16	30.449
545.50	29.692
545.84	30.780
546.18	30.303
546.52	30.420
546.86	30.103
547.20	31.086
547.54	30.862
547.88	30.804
548.22	28.954
548.56	30.189
548.90	29.065
549.24	30.303
549.58	29.809
549.92	29.739
550.26	31.037
550.60	30.429
550.94	29.577
551.28	29.554
551.62	30.050
551.96	29.965
552.30	30.239
552.64	29.141
552.98	30.102
553.32	28.995
553.66	29.448
554.00	29.375
554.34	29.124
554.68	31.116
555.02	29.831
555.36	29.993
555.69	28.620
556.03	29.408
556.37	28.990
556.71	29.673
557.05	29.272
557.39	28.621
557.73	28.299
558.07	29.079
558.41	28.871
558.75	29.464
559.08	30.276
559.42	28.647
559.76	30.074
560.10	28.337
560.44	28.791
560.78	27.944
561.12	27.704
561.45	28.488
561.79	28.939
562.13	28.437
562.47	28.620
562.81	27.824
563.15	27.358
563.48	28.249
563.82	28.376
564.16	28.450
564.50	27.018
564.84	28.255
565.17	27.477
565.51	27.859
565.85	26.904
566.19	27.865
566.52	27.612
566.86	26.823
567.20	27.064
567.54	27.511
567.88	26.996
568.21	26.825
568.55	26.946
568.89	25.778
569.23	26.203
569.56	26.032
569.90	25.962
570.24	25.117
570.57	24.889
570.91	24.370
571.25	25.015
571.59	24.507
571.92	24.309
572.26	24.292
572.60	24.384
572.93	24.648
573.27	24.460
573.61	24.288
573.95	24.186
574.28	24.020
574.62	23.761
574.96	23.250
575.29	23.327
575.63	24.314
575.97	23.848
576.30	24.057
576.64	23.932
576.98	23.943
577.31	23.544
577.65	23.605
577.98	23.382
578.32	22.955
578.66	23.606
578.99	23.465
579.33	23.578
579.67	22.963
580.00	23.280
580.34	23.612
580.67	23.541
581.01	23.611
581.35	23.665
581.68	23.489
582.02	23.334
582.35	22.929
582.69	22.892
583.02	23.268
583.36	23.127
583.70	23.751
584.03	23.772
584.37	23.557
584.70	23.877
585.04	23.263
585.37	23.253
585.71	23.402
586.04	23.605
586.38	23.772
586.72	23.640
587.05	23.418
587.39	23.536
587.72	23.241
588.06	23.292
588.39	23.182
588.73	23.673
589.06	24.089
589.40	23.401
589.73	24.358
590.07	24.306
590.40	23.347
590.73	23.966
591.07	24.013
591.40	24.167
591.74	25.152
592.07	23.735
592.41	24.721
592.74	23.483
593.08	23.384
593.41	23.505
593.75	23.298
594.08	23.500
594.41	23.330
594.75	23.290
595.08	23.801
595.42	23.853
595.75	23.326
596.09	23.507
596.42	24.361
596.75	23.850
597.09	23.810
597.42	23.988
597.75	23.890
598.09	23.435
598.42	23.797
598.76	23.348
599.09	23.527
599.42	23.290
599.76	23.316
600.09	22.805
600.42	22.644
600.76	22.821
601.09	23.024
601.42	23.326
601.76	22.770
602.09	23.597
602.42	23.527
602.76	23.740
603.09	23.367
603.42	23.272
603.76	23.323
604.09	23.149
604.42	22.788
604.76	23.998
605.09	22.892
605.42	23.258
605.75	23.469
606.09	22.936
606.42	23.416
606.75	23.144
607.09	23.734
607.42	22.893
607.75	23.333
608.08	23.535
608.42	23.442
608.75	23.715
609.08	23.219
609.41	23.513
609.75	23.344
610.08	24.175
610.41	22.952
610.74	23.273
611.07	23.123
611.41	24.239
611.74	24.032
612.07	24.275
612.40	24.239
612.73	23.263
613.07	23.437
613.40	23.697
613.73	22.653
614.06	24.032
614.39	23.283
614.72	23.579
615.06	23.739
615.39	23.514
615.72	23.057
616.05	23.764
616.38	23.680
616.71	23.990
617.05	23.910
617.38	24.173
617.71	23.964
618.04	24.760
618.37	24.305
618.70	24.144
619.03	25.395
619.36	24.372
619.69	25.000
620.03	24.588
620.36	24.332
620.69	24.110
621.02	24.926
621.35	24.354
621.68	24.143
622.01	24.768
622.34	24.660
622.67	24.487
623.00	23.698
623.33	24.232
623.66	23.517
623.99	24.521
624.32	24.180
624.65	23.799
624.99	22.805
625.32	23.896
625.65	23.742
625.98	24.827
626.31	24.417
626.64	24.490
626.97	24.356
627.30	23.857
627.63	25.513
627.96	25.399
628.29	25.984
628.62	24.428
628.95	26.038
629.28	24.544
629.61	26.031
629.94	24.762
630.26	24.404
630.59	26.120
