SpectraSuite Data File
++++++++++++++++++++++++++++++++++++
Date: Wed May 13 19:40:37 PDT 2015
User: schluterlab
Dark Spectrum Present: Yes
Reference Spectrum Present: Yes
Number of Sampled Component Spectra: 1
Spectrometers: USB2E3373
Integration Time (usec): 3000 (USB2E3373)
Spectra Averaged: 3 (USB2E3373)
Boxcar Smoothing: 0 (USB2E3373)
Correct for Electrical Dark: No (USB2E3373)
Strobe/Lamp Enabled: No (USB2E3373)
Correct for Detector Non-linearity: No (USB2E3373)
Correct for Stray Light: No (USB2E3373)
Number of Pixels in Processed Spectrum: 2048
>>>>>Begin Processed Spectral Data<<<<<
178.53	0.000
178.91	-1500.000
179.29	-1525.000
179.67	-311.111
180.04	-1275.000
180.42	2800.000
180.80	1120.000
181.18	-1100.000
181.56	742.857
181.94	0.000
182.31	-771.429
182.69	1566.667
183.07	-650.000
183.45	-577.778
183.83	627.273
184.20	-400.000
184.58	2450.000
184.96	5500.000
185.34	-980.000
185.72	-775.000
186.09	-2500.000
186.47	2700.000
186.85	2500.000
187.23	5600.000
187.61	-1466.667
187.98	1425.000
188.36	572.727
188.74	500.000
189.12	-940.000
189.49	570.000
189.87	-4200.000
190.25	-1450.000
190.63	414.286
191.00	453.846
191.38	983.333
191.76	-1350.000
192.14	1475.000
192.51	762.500
192.89	1000.000
193.27	562.500
193.65	-1175.000
194.02	540.000
194.40	1080.000
194.78	610.000
195.15	525.000
195.53	570.000
195.91	-2300.000
196.29	387.500
196.66	300.000
197.04	-400.000
197.42	0.000
197.79	620.000
198.17	-4200.000
198.55	671.429
198.92	762.500
199.30	1160.000
199.68	0.000
200.05	344.444
200.43	857.143
200.81	5100.000
201.18	1900.000
201.56	-1566.667
201.94	400.000
202.31	688.889
202.69	425.000
203.07	600.000
203.44	0.000
203.82	1350.000
204.19	857.143
204.57	400.000
204.95	700.000
205.32	1600.000
205.70	545.455
206.08	428.571
206.45	2750.000
206.83	362.500
207.20	1066.667
207.58	840.000
207.96	366.667
208.33	612.500
208.71	-866.667
209.08	828.571
209.46	666.667
209.84	545.455
210.21	-1500.000
210.59	1475.000
210.96	-550.000
211.34	2350.000
211.71	720.000
212.09	833.333
212.46	0.000
212.84	1800.000
213.22	1075.000
213.59	-5300.000
213.97	966.667
214.34	771.429
214.72	718.182
215.09	1180.000
215.47	-2000.000
215.84	-2950.000
216.22	1700.000
216.59	464.286
216.97	1275.000
217.34	509.091
217.72	-716.667
218.09	0.000
218.47	-5400.000
218.84	577.778
219.22	771.429
219.59	1800.000
219.97	-600.000
220.34	820.000
220.72	-1700.000
221.09	492.857
221.47	1625.000
221.84	-1050.000
222.22	0.000
222.59	1250.000
222.97	-3200.000
223.34	1200.000
223.72	461.538
224.09	1200.000
224.46	2850.000
224.84	-4900.000
225.21	-960.000
225.59	-5100.000
225.96	590.000
226.34	355.000
226.71	2850.000
227.08	750.000
227.46	560.000
227.83	-1375.000
228.21	-2550.000
228.58	588.889
228.95	-2250.000
229.33	-2400.000
229.70	1800.000
230.08	942.857
230.45	-780.000
230.82	391.667
231.20	1000.000
231.57	585.714
231.95	550.000
232.32	245.455
232.69	481.818
233.07	628.571
233.44	392.308
233.81	-1566.667
234.19	263.158
234.56	391.667
234.93	441.667
235.31	472.727
235.68	230.769
236.05	364.286
236.43	172.727
236.80	257.895
237.17	4400.000
237.55	242.857
237.92	178.571
238.29	233.333
238.67	167.742
239.04	193.103
239.41	138.889
239.79	97.826
240.16	114.286
240.53	106.818
240.91	78.431
241.28	96.000
241.65	88.000
242.02	84.058
242.40	88.710
242.77	91.667
243.14	59.140
243.51	67.416
243.89	60.000
244.26	55.556
244.63	66.667
245.00	47.872
245.38	55.446
245.75	45.794
246.12	44.954
246.49	51.825
246.87	53.600
247.24	42.308
247.61	35.000
247.98	41.176
248.36	26.351
248.73	31.210
249.10	38.217
249.47	32.768
249.84	38.503
250.22	30.481
250.59	25.444
250.96	29.798
251.33	29.858
251.70	35.149
252.08	24.286
252.45	21.973
252.82	22.174
253.19	26.809
253.56	21.961
253.94	21.577
254.31	21.094
254.68	22.692
255.05	25.461
255.42	19.512
255.79	19.853
256.16	23.466
256.54	20.141
256.91	20.285
257.28	17.986
257.65	20.462
258.02	18.323
258.39	17.666
258.76	19.398
259.14	18.155
259.51	16.717
259.88	15.839
260.25	19.637
260.62	18.208
260.99	13.665
261.36	17.718
261.73	15.186
262.10	14.535
262.47	17.183
262.85	17.270
263.22	15.954
263.59	19.943
263.96	16.209
264.33	16.710
264.70	15.526
265.07	15.601
265.44	13.889
265.81	11.436
266.18	15.829
266.55	12.927
266.92	15.479
267.29	15.278
267.66	14.679
268.03	14.091
268.40	14.019
268.77	13.126
269.14	13.964
269.51	14.898
269.88	13.520
270.25	13.544
270.62	13.483
270.99	14.624
271.36	14.592
271.73	10.280
272.10	14.348
272.47	12.688
272.84	13.420
273.21	14.046
273.58	11.354
273.95	9.224
274.32	11.983
274.69	13.490
275.06	12.402
275.43	12.766
275.80	12.826
276.17	11.405
276.54	12.058
276.91	11.858
277.28	11.523
277.65	11.412
278.02	11.594
278.39	13.672
278.76	12.182
279.13	12.453
279.50	14.153
279.87	11.753
280.23	9.381
280.60	11.605
280.97	8.688
281.34	9.735
281.71	13.455
282.08	10.557
282.45	10.545
282.82	10.480
283.19	8.556
283.56	12.281
283.92	10.660
284.29	10.229
284.66	9.074
285.03	10.127
285.40	10.035
285.77	9.596
286.14	10.535
286.51	10.000
286.87	12.479
287.24	10.586
287.61	8.989
287.98	10.877
288.35	9.033
288.72	9.502
289.08	9.546
289.45	8.731
289.82	9.431
290.19	8.163
290.56	9.342
290.93	8.610
291.29	8.896
291.66	8.112
292.03	10.029
292.40	10.279
292.77	9.467
293.13	9.701
293.50	9.913
293.87	9.481
294.24	7.111
294.60	9.025
294.97	8.866
295.34	10.014
295.71	8.239
296.08	7.407
296.44	9.078
296.81	8.587
297.18	8.266
297.55	6.464
297.91	7.124
298.28	9.639
298.65	8.877
299.02	8.432
299.38	8.499
299.75	6.469
300.12	7.407
300.48	7.125
300.85	8.138
301.22	8.153
301.59	7.323
301.95	6.801
302.32	8.216
302.69	6.930
303.05	6.424
303.42	6.667
303.79	7.701
304.15	5.478
304.52	6.489
304.89	6.620
305.25	6.381
305.62	7.248
305.99	7.556
306.35	6.711
306.72	7.960
307.09	7.103
307.45	7.770
307.82	5.580
308.19	7.726
308.55	6.580
308.92	7.411
309.29	6.019
309.65	6.257
310.02	7.188
310.38	7.312
310.75	6.441
311.12	5.937
311.48	6.792
311.85	7.128
312.22	6.348
312.58	6.237
312.95	6.653
313.31	6.505
313.68	6.965
314.05	9.665
314.41	7.739
314.78	6.546
315.14	7.349
315.51	7.621
315.87	7.921
316.24	7.249
316.61	6.725
316.97	6.458
317.34	6.556
317.70	7.648
318.07	6.833
318.43	9.198
318.80	8.622
319.16	7.815
319.53	6.379
319.89	7.619
320.26	8.500
320.62	8.234
320.99	8.687
321.35	8.586
321.72	8.932
322.08	10.267
322.45	10.149
322.81	10.659
323.18	10.405
323.54	10.111
323.91	11.321
324.27	9.751
324.64	9.599
325.00	9.107
325.37	10.555
325.73	10.772
326.10	11.209
326.46	8.961
326.83	10.181
327.19	10.675
327.56	10.801
327.92	11.199
328.29	11.979
328.65	11.050
329.01	11.372
329.38	11.378
329.74	10.342
330.11	11.781
330.47	12.213
330.84	13.603
331.20	11.749
331.56	11.560
331.93	11.944
332.29	12.777
332.66	12.655
333.02	12.249
333.38	12.918
333.75	12.389
334.11	12.100
334.48	11.269
334.84	11.397
335.20	12.000
335.57	11.877
335.93	12.054
336.29	11.996
336.66	12.804
337.02	10.860
337.38	13.704
337.75	12.389
338.11	12.892
338.47	12.339
338.84	12.741
339.20	11.193
339.56	13.321
339.93	12.364
340.29	12.591
340.65	11.586
341.02	13.089
341.38	12.811
341.74	12.719
342.11	12.576
342.47	12.863
342.83	11.986
343.20	13.506
343.56	11.794
343.92	10.965
344.28	11.820
344.65	11.866
345.01	12.290
345.37	11.664
345.73	12.014
346.10	12.361
346.46	12.288
346.82	12.191
347.19	12.114
347.55	12.890
347.91	11.812
348.27	13.065
348.63	12.625
349.00	12.136
349.36	11.905
349.72	11.628
350.08	11.588
350.45	12.693
350.81	12.510
351.17	13.533
351.53	12.531
351.89	10.561
352.26	12.391
352.62	12.109
352.98	12.237
353.34	11.175
353.70	12.111
354.07	11.694
354.43	11.984
354.79	12.631
355.15	11.812
355.51	12.310
355.87	12.327
356.24	11.889
356.60	12.189
356.96	12.068
357.32	11.938
357.68	12.283
358.04	12.906
358.40	11.956
358.77	11.659
359.13	11.050
359.49	12.235
359.85	9.921
360.21	11.085
360.57	12.296
360.93	11.000
361.29	11.413
361.66	10.526
362.02	12.388
362.38	11.407
362.74	11.979
363.10	10.733
363.46	11.225
363.82	10.053
364.18	11.894
364.54	12.927
364.90	11.969
365.26	11.103
365.62	12.126
365.98	11.395
366.35	10.888
366.71	11.714
367.07	11.435
367.43	11.466
367.79	11.278
368.15	12.787
368.51	10.538
368.87	12.277
369.23	10.827
369.59	11.875
369.95	10.882
370.31	11.752
370.67	11.449
371.03	11.835
371.39	11.808
371.75	11.838
372.11	11.878
372.47	11.730
372.83	11.671
373.19	10.910
373.55	11.973
373.91	12.150
374.27	11.409
374.63	11.782
374.99	11.653
375.35	10.328
375.71	11.446
376.07	12.071
376.42	11.279
376.78	11.398
377.14	11.398
377.50	11.854
377.86	10.572
378.22	11.188
378.58	10.840
378.94	10.685
379.30	10.305
379.66	11.294
380.02	10.872
380.38	10.868
380.74	11.345
381.09	11.002
381.45	10.879
381.81	10.811
382.17	11.975
382.53	10.252
382.89	11.111
383.25	10.882
383.61	11.152
383.97	11.507
384.32	11.167
384.68	10.843
385.04	11.063
385.40	11.022
385.76	11.609
386.12	10.427
386.48	11.328
386.83	10.776
387.19	11.503
387.55	11.626
387.91	11.185
388.27	10.668
388.62	11.555
388.98	10.135
389.34	11.327
389.70	11.404
390.06	11.597
390.42	11.414
390.77	11.387
391.13	11.168
391.49	10.914
391.85	10.821
392.20	10.410
392.56	10.606
392.92	11.242
393.28	10.473
393.64	11.151
393.99	11.118
394.35	10.794
394.71	10.790
395.07	10.280
395.42	11.001
395.78	11.005
396.14	11.546
396.50	11.529
396.85	10.935
397.21	10.419
397.57	11.407
397.92	11.358
398.28	9.922
398.64	11.051
399.00	10.912
399.35	10.716
399.71	10.880
400.07	11.768
400.42	11.227
400.78	10.856
401.14	10.122
401.49	10.448
401.85	10.466
402.21	10.120
402.57	10.672
402.92	10.151
403.28	11.555
403.63	10.334
403.99	10.000
404.35	11.091
404.70	10.432
405.06	9.785
405.42	10.605
405.77	11.029
406.13	9.707
406.49	10.231
406.84	10.927
407.20	9.693
407.55	10.530
407.91	10.133
408.27	10.274
408.62	10.295
408.98	10.049
409.34	10.394
409.69	10.581
410.05	9.789
410.40	9.847
410.76	9.857
411.11	10.736
411.47	9.649
411.83	10.324
412.18	9.586
412.54	10.399
412.89	10.542
413.25	9.386
413.60	10.439
413.96	9.532
414.31	10.146
414.67	9.759
415.03	10.662
415.38	11.534
415.74	9.839
416.09	10.516
416.45	9.906
416.80	10.046
417.16	11.059
417.51	11.148
417.87	9.249
418.22	10.978
418.58	10.781
418.93	9.521
419.29	10.057
419.64	10.327
420.00	10.366
420.35	9.797
420.71	10.341
421.06	9.547
421.42	9.708
421.77	9.585
422.12	9.433
422.48	8.635
422.83	9.435
423.19	9.558
423.54	9.228
423.90	9.971
424.25	9.101
424.61	9.345
424.96	9.854
425.31	9.468
425.67	8.596
426.02	9.257
426.38	9.951
426.73	9.830
427.09	9.970
427.44	9.431
427.79	8.856
428.15	9.107
428.50	9.538
428.85	10.310
429.21	8.945
429.56	9.072
429.92	9.109
430.27	9.235
430.62	8.602
430.98	9.393
431.33	9.124
431.68	8.586
432.04	9.691
432.39	8.681
432.74	8.857
433.10	9.111
433.45	9.096
433.80	8.703
434.16	9.295
434.51	8.368
434.86	8.609
435.22	9.061
435.57	8.815
435.92	9.187
436.28	9.964
436.63	8.996
436.98	8.357
437.34	9.183
437.69	9.452
438.04	8.938
438.39	9.672
438.75	9.239
439.10	9.218
439.45	8.973
439.81	8.822
440.16	9.091
440.51	8.787
440.86	8.512
441.22	7.898
441.57	8.280
441.92	8.649
442.27	8.827
442.63	8.373
442.98	9.634
443.33	8.533
443.68	8.622
444.03	8.736
444.39	7.887
444.74	8.820
445.09	8.571
445.44	9.021
445.79	9.302
446.15	8.788
446.50	9.047
446.85	8.736
447.20	8.414
447.55	8.264
447.91	8.384
448.26	8.792
448.61	9.271
448.96	8.915
449.31	8.661
449.66	8.610
450.02	8.245
450.37	8.673
450.72	8.178
451.07	8.714
451.42	8.693
451.77	9.160
452.12	8.661
452.47	8.644
452.83	8.275
453.18	8.619
453.53	7.854
453.88	8.387
454.23	8.846
454.58	9.388
454.93	8.582
455.28	8.853
455.63	9.102
455.98	9.643
456.34	8.606
456.69	8.704
457.04	9.226
457.39	8.241
457.74	9.344
458.09	9.718
458.44	8.552
458.79	7.538
459.14	8.296
459.49	8.990
459.84	8.698
460.19	7.543
460.54	9.086
460.89	8.064
461.24	8.743
461.59	9.471
461.94	8.015
462.29	9.080
462.64	8.424
462.99	8.198
463.34	9.867
463.69	8.443
464.04	8.638
464.39	8.522
464.74	8.794
465.09	8.625
465.44	8.476
465.79	7.886
466.14	8.539
466.49	8.621
466.84	8.406
467.19	8.570
467.54	9.313
467.89	8.643
468.24	8.610
468.59	9.219
468.94	7.941
469.29	8.869
469.64	9.237
469.99	8.728
470.34	8.653
470.68	9.339
471.03	7.755
471.38	9.104
471.73	8.927
472.08	9.013
472.43	8.794
472.78	9.085
473.13	8.729
473.48	9.114
473.83	7.744
474.17	8.152
474.52	8.685
474.87	8.698
475.22	8.183
475.57	7.953
475.92	7.647
476.27	8.117
476.61	7.722
476.96	7.971
477.31	7.431
477.66	7.768
478.01	7.737
478.36	8.355
478.70	7.529
479.05	8.520
479.40	8.240
479.75	7.372
480.10	7.604
480.45	7.711
480.79	6.976
481.14	7.681
481.49	7.214
481.84	7.590
482.19	7.678
482.53	7.661
482.88	7.399
483.23	7.196
483.58	7.097
483.92	7.545
484.27	6.841
484.62	7.198
484.97	6.977
485.31	7.055
485.66	6.121
486.01	5.361
486.36	5.269
486.70	5.362
487.05	5.931
487.40	6.154
487.75	6.134
488.09	6.733
488.44	6.471
488.79	6.944
489.13	7.143
489.48	6.648
489.83	7.035
490.17	6.708
490.52	7.086
490.87	7.508
491.22	6.503
491.56	6.697
491.91	6.840
492.26	7.074
492.60	7.465
492.95	6.455
493.30	7.056
493.64	7.373
493.99	7.428
494.34	7.123
494.68	7.280
495.03	7.284
495.37	7.259
495.72	7.602
496.07	7.100
496.41	7.257
496.76	7.168
497.11	7.114
497.45	7.080
497.80	7.246
498.14	7.246
498.49	7.220
498.84	7.095
499.18	7.143
499.53	7.028
499.87	6.990
500.22	7.254
500.56	7.476
500.91	6.827
501.26	7.349
501.60	6.787
501.95	7.058
502.29	6.795
502.64	7.635
502.98	7.059
503.33	6.764
503.67	7.657
504.02	6.829
504.36	7.440
504.71	6.986
505.06	7.614
505.40	7.778
505.75	6.750
506.09	7.046
506.44	7.005
506.78	7.306
507.13	7.521
507.47	7.727
507.82	6.991
508.16	7.295
508.51	7.915
508.85	6.554
509.19	6.786
509.54	7.143
509.88	7.470
510.23	6.581
510.57	8.411
510.92	7.457
511.26	6.835
511.61	7.832
511.95	7.516
512.30	6.946
512.64	7.308
512.98	7.395
513.33	8.030
513.67	7.257
514.02	7.576
514.36	7.264
514.70	7.194
515.05	6.581
515.39	7.796
515.74	6.982
516.08	7.881
516.42	7.214
516.77	7.525
517.11	7.658
517.46	7.619
517.80	8.711
518.14	7.180
518.49	7.585
518.83	7.443
519.17	7.044
519.52	7.470
519.86	7.074
520.20	7.861
520.55	7.840
520.89	7.968
521.23	7.660
521.58	8.223
521.92	7.716
522.26	7.444
522.61	7.726
522.95	7.551
523.29	7.973
523.64	8.293
523.98	7.086
524.32	7.961
524.66	7.998
525.01	8.150
525.35	7.311
525.69	7.697
526.04	8.037
526.38	8.298
526.72	8.344
527.06	7.847
527.41	7.302
527.75	8.746
528.09	7.836
528.43	8.222
528.78	8.175
529.12	8.000
529.46	7.655
529.80	7.797
530.15	7.788
530.49	7.815
530.83	8.228
531.17	8.681
531.51	9.792
531.86	7.806
532.20	8.670
532.54	8.648
532.88	7.766
533.22	7.433
533.57	8.025
533.91	7.706
534.25	8.384
534.59	7.322
534.93	7.852
535.27	8.449
535.62	8.120
535.96	8.161
536.30	7.120
536.64	8.049
536.98	8.096
537.32	7.439
537.66	7.800
538.01	8.690
538.35	7.628
538.69	9.764
539.03	8.057
539.37	7.923
539.71	6.999
540.05	8.366
540.39	8.306
540.73	7.762
541.07	8.501
541.42	8.089
541.76	8.194
542.10	8.344
542.44	7.285
542.78	8.235
543.12	7.806
543.46	8.328
543.80	8.458
544.14	7.895
544.48	8.190
544.82	8.082
545.16	7.482
545.50	7.326
545.84	7.594
546.18	8.350
546.52	7.846
546.86	7.904
547.20	8.361
547.54	8.617
547.88	8.865
548.22	8.593
548.56	7.547
548.90	7.426
549.24	7.946
549.58	7.776
549.92	8.654
550.26	8.097
550.60	8.714
550.94	8.662
551.28	7.169
551.62	8.555
551.96	8.000
552.30	9.010
552.64	8.722
552.98	8.814
553.32	8.699
553.66	8.521
554.00	8.648
554.34	8.213
554.68	8.155
555.02	8.392
555.36	8.559
555.69	8.322
556.03	7.672
556.37	7.776
556.71	8.049
557.05	8.403
557.39	8.467
557.73	7.975
558.07	8.557
558.41	7.887
558.75	8.597
559.08	8.576
559.42	7.634
559.76	8.456
560.10	7.780
560.44	8.386
560.78	8.184
561.12	8.047
561.45	9.192
561.79	7.053
562.13	8.384
562.47	8.675
562.81	8.159
563.15	8.227
563.48	7.891
563.82	8.023
564.16	7.979
564.50	6.641
564.84	7.206
565.17	6.885
565.51	7.604
565.85	7.931
566.19	7.201
566.52	7.410
566.86	7.052
567.20	7.842
567.54	7.877
567.88	6.627
568.21	7.460
568.55	7.432
568.89	6.858
569.23	7.219
569.56	6.599
569.90	6.415
570.24	6.243
570.57	5.950
570.91	5.947
571.25	5.683
571.59	6.009
571.92	5.530
572.26	5.373
572.60	5.886
572.93	5.817
573.27	6.211
573.61	5.807
573.95	6.202
574.28	5.352
574.62	5.588
574.96	5.424
575.29	5.383
575.63	5.412
575.97	5.598
576.30	5.921
576.64	5.484
576.98	5.396
577.31	5.476
577.65	5.429
577.98	5.127
578.32	5.123
578.66	5.241
578.99	5.410
579.33	5.084
579.67	4.841
580.00	5.322
580.34	5.529
580.67	5.483
581.01	5.577
581.35	5.236
581.68	5.449
582.02	5.073
582.35	5.009
582.69	5.135
583.02	5.106
583.36	5.234
583.70	5.370
584.03	5.538
584.37	5.692
584.70	5.277
585.04	5.553
585.37	5.592
585.71	5.545
586.04	5.871
586.38	5.643
586.72	5.910
587.05	5.596
587.39	5.251
587.72	5.643
588.06	5.443
588.39	5.679
588.73	5.515
589.06	5.921
589.40	5.960
589.73	6.160
590.07	6.121
590.40	5.590
590.73	5.972
591.07	7.041
591.40	6.790
591.74	6.840
592.07	6.457
592.41	6.821
592.74	5.768
593.08	6.262
593.41	5.947
593.75	5.746
594.08	5.967
594.41	6.539
594.75	6.137
595.08	6.442
595.42	6.200
595.75	5.627
596.09	6.722
596.42	7.191
596.75	6.543
597.09	7.359
597.42	6.239
597.75	6.813
598.09	7.130
598.42	6.271
598.76	5.797
599.09	6.119
599.42	6.186
599.76	5.893
600.09	6.375
600.42	5.807
600.76	6.071
601.09	5.938
601.42	5.708
601.76	6.148
602.09	6.126
602.42	6.927
602.76	6.731
603.09	6.648
603.42	6.482
603.76	6.479
604.09	5.855
604.42	6.563
604.76	7.254
605.09	6.597
605.42	6.584
605.75	6.498
606.09	5.897
606.42	6.130
606.75	6.429
607.09	7.242
607.42	6.162
607.75	5.738
608.08	6.557
608.42	6.544
608.75	6.583
609.08	6.846
609.41	6.997
609.75	6.289
610.08	7.257
610.41	6.611
610.74	6.291
611.07	7.065
611.41	7.262
611.74	7.592
612.07	6.418
612.40	7.608
612.73	7.053
613.07	7.489
613.40	7.899
613.73	6.660
614.06	7.043
614.39	7.604
614.72	7.316
615.06	7.668
615.39	6.582
615.72	7.055
616.05	6.592
616.38	6.726
616.71	7.779
617.05	7.185
617.38	7.336
617.71	7.027
618.04	7.632
618.37	7.392
618.70	7.156
619.03	8.355
619.36	8.758
619.69	7.394
620.03	8.379
620.36	8.021
620.69	8.973
621.02	8.407
621.35	8.222
621.68	8.255
622.01	8.437
622.34	9.077
622.67	7.681
623.00	7.850
623.33	6.791
623.66	8.077
623.99	8.616
624.32	8.488
624.65	8.404
624.99	6.728
625.32	7.603
625.65	8.189
625.98	8.455
626.31	9.720
626.64	8.816
626.97	8.894
627.30	7.648
627.63	9.352
627.96	9.588
628.29	8.136
628.62	9.149
628.95	10.377
629.28	9.672
629.61	9.716
629.94	9.429
630.26	9.628
630.59	9.724
630.92	9.387
631.25	9.082
631.58	9.710
631.91	9.331
632.24	8.439
632.57	10.073
632.90	9.868
633.23	9.732
633.56	10.621
633.89	10.193
634.22	9.989
634.55	10.414
634.88	10.778
635.20	9.797
635.53	11.928
635.86	9.777
636.19	10.588
636.52	10.496
636.85	10.195
637.18	10.369
637.51	11.702
637.83	9.741
638.16	11.125
638.49	10.957
638.82	11.125
639.15	11.500
639.48	11.596
639.81	12.064
640.13	11.589
640.46	11.678
640.79	12.417
641.12	9.766
641.45	11.034
641.77	13.255
642.10	11.696
642.43	10.961
642.76	9.288
643.09	13.344
643.41	11.988
643.74	12.037
644.07	12.652
644.40	12.577
644.73	13.543
645.05	14.105
645.38	13.270
645.71	11.594
646.04	12.791
646.36	14.858
646.69	13.545
647.02	13.435
