SpectraSuite Data File
++++++++++++++++++++++++++++++++++++
Date: Wed May 13 19:33:30 PDT 2015
User: schluterlab
Dark Spectrum Present: Yes
Reference Spectrum Present: Yes
Number of Sampled Component Spectra: 1
Spectrometers: USB2E3373
Integration Time (usec): 3000 (USB2E3373)
Spectra Averaged: 3 (USB2E3373)
Boxcar Smoothing: 0 (USB2E3373)
Correct for Electrical Dark: No (USB2E3373)
Strobe/Lamp Enabled: No (USB2E3373)
Correct for Detector Non-linearity: No (USB2E3373)
Correct for Stray Light: No (USB2E3373)
Number of Pixels in Processed Spectrum: 2048
>>>>>Begin Processed Spectral Data<<<<<
178.53	0.000
178.91	-1325.000
179.29	-1450.000
179.67	-194.444
180.04	-1400.000
180.42	2350.000
180.80	960.000
181.18	-1150.000
181.56	714.286
181.94	0.000
182.31	-642.857
182.69	2033.333
183.07	-612.500
183.45	-600.000
183.83	536.364
184.20	-520.000
184.58	2150.000
184.96	6400.000
185.34	-880.000
185.72	-637.500
186.09	-2250.000
186.47	3050.000
186.85	3000.000
187.23	5200.000
187.61	-1533.333
187.98	1600.000
188.36	572.727
188.74	545.455
189.12	-840.000
189.49	620.000
189.87	-6000.000
190.25	-1300.000
190.63	435.714
191.00	507.692
191.38	916.667
191.76	-1475.000
192.14	1600.000
192.51	737.500
192.89	950.000
193.27	637.500
193.65	-1450.000
194.02	550.000
194.40	1000.000
194.78	570.000
195.15	525.000
195.53	570.000
195.91	-2550.000
196.29	350.000
196.66	331.579
197.04	-450.000
197.42	0.000
197.79	590.000
198.17	-5300.000
198.55	728.571
198.92	650.000
199.30	1040.000
199.68	0.000
200.05	338.889
200.43	714.286
200.81	4000.000
201.18	1633.333
201.56	-1733.333
201.94	488.889
202.31	700.000
202.69	450.000
203.07	590.000
203.44	0.000
203.82	1350.000
204.19	914.286
204.57	564.286
204.95	612.500
205.32	1400.000
205.70	545.455
206.08	371.429
206.45	2750.000
206.83	400.000
207.20	950.000
207.58	1040.000
207.96	300.000
208.33	837.500
208.71	-933.333
209.08	771.429
209.46	622.222
209.84	545.455
210.21	-1533.333
210.59	1300.000
210.96	-612.500
211.34	3200.000
211.71	620.000
212.09	850.000
212.46	0.000
212.84	1733.333
213.22	1400.000
213.59	-4300.000
213.97	833.333
214.34	857.143
214.72	672.727
215.09	1120.000
215.47	-2050.000
215.84	-2400.000
216.22	1766.667
216.59	428.571
216.97	1400.000
217.34	618.182
217.72	-700.000
218.09	0.000
218.47	-5300.000
218.84	622.222
219.22	771.429
219.59	1866.667
219.97	-742.857
220.34	980.000
220.72	-2066.667
221.09	421.429
221.47	1500.000
221.84	-883.333
222.22	0.000
222.59	1325.000
222.97	-2700.000
223.34	1160.000
223.72	400.000
224.09	1220.000
224.46	2150.000
224.84	-5500.000
225.21	-1140.000
225.59	-5400.000
225.96	560.000
226.34	290.000
226.71	2700.000
227.08	850.000
227.46	580.000
227.83	-1150.000
228.21	-2600.000
228.58	666.667
228.95	-2150.000
229.33	-2650.000
229.70	1700.000
230.08	800.000
230.45	-900.000
230.82	475.000
231.20	733.333
231.57	842.857
231.95	450.000
232.32	263.636
232.69	472.727
233.07	614.286
233.44	453.846
233.81	-1800.000
234.19	357.895
234.56	408.333
234.93	441.667
235.31	463.636
235.68	369.231
236.05	357.143
236.43	181.818
236.80	178.947
237.17	4300.000
237.55	161.905
237.92	167.857
238.29	252.381
238.67	193.548
239.04	203.448
239.41	111.111
239.79	102.174
240.16	126.190
240.53	113.636
240.91	100.000
241.28	102.000
241.65	100.000
242.02	95.652
242.40	90.323
242.77	90.000
243.14	62.366
243.51	65.169
243.89	57.647
244.26	57.778
244.63	51.613
245.00	50.000
245.38	44.554
245.75	35.514
246.12	34.862
246.49	44.526
246.87	50.400
247.24	47.692
247.61	40.000
247.98	36.601
248.36	25.676
248.73	31.210
249.10	31.210
249.47	30.508
249.84	34.759
250.22	35.829
250.59	36.095
250.96	31.818
251.33	30.806
251.70	27.228
252.08	23.333
252.45	21.525
252.82	29.565
253.19	22.979
253.56	24.314
253.94	24.896
254.31	22.656
254.68	21.538
255.05	21.771
255.42	21.951
255.79	20.588
256.16	20.578
256.54	14.488
256.91	20.641
257.28	15.108
257.65	19.802
258.02	18.944
258.39	19.558
258.76	21.070
259.14	20.238
259.51	15.805
259.88	16.460
260.25	16.012
260.62	15.896
260.99	13.665
261.36	16.817
261.73	14.613
262.10	10.756
262.47	13.803
262.85	13.649
263.22	9.687
263.59	15.670
263.96	14.560
264.33	14.099
264.70	15.000
265.07	14.066
265.44	13.636
265.81	11.192
266.18	12.563
266.55	11.220
266.92	11.302
267.29	17.361
267.66	13.303
268.03	13.409
268.40	13.084
268.77	13.126
269.14	12.162
269.51	13.318
269.88	13.753
270.25	11.738
270.62	10.787
270.99	15.699
271.36	12.017
271.73	11.215
272.10	10.652
272.47	13.763
272.84	12.554
273.21	14.046
273.58	11.572
273.95	11.740
274.32	10.744
274.69	12.206
275.06	10.039
275.43	12.766
275.80	10.020
276.17	12.831
276.54	12.058
276.91	9.684
277.28	11.523
277.65	11.992
278.02	10.145
278.39	10.742
278.76	11.636
279.13	12.264
279.50	12.291
279.87	10.757
280.23	10.778
280.60	10.445
280.97	10.536
281.34	10.619
281.71	10.909
282.08	11.516
282.45	10.000
282.82	10.657
283.19	9.269
283.56	11.228
283.92	10.998
284.29	9.700
284.66	8.167
285.03	8.680
285.40	10.387
285.77	8.081
286.14	8.117
286.51	9.833
286.87	10.085
287.24	10.423
287.61	8.668
287.98	9.578
288.35	9.826
288.72	9.657
289.08	10.329
289.45	8.896
289.82	9.756
290.19	9.105
290.56	8.423
290.93	8.157
291.29	8.282
291.66	8.112
292.03	11.047
292.40	9.398
292.77	7.692
293.13	9.254
293.50	7.434
293.87	7.556
294.24	5.778
294.60	6.841
294.97	7.413
295.34	8.745
295.71	8.381
296.08	7.550
296.44	8.116
296.81	8.190
297.18	8.130
297.55	5.277
297.91	6.332
298.28	8.568
298.65	8.225
299.02	8.169
299.38	6.773
299.75	4.987
300.12	6.513
300.48	7.250
300.85	7.645
301.22	4.841
301.59	5.682
301.95	6.297
302.32	6.290
302.69	7.049
303.05	6.061
303.42	5.432
303.79	6.342
304.15	5.361
304.52	5.910
304.89	5.575
305.25	5.220
305.62	7.361
305.99	7.084
306.35	6.823
306.72	6.839
307.09	6.881
307.45	6.869
307.82	6.027
308.19	6.071
308.55	6.580
308.92	6.230
309.29	5.280
309.65	5.090
310.02	7.188
310.38	6.559
310.75	6.125
311.12	7.165
311.48	5.434
311.85	6.604
312.22	6.035
312.58	5.613
312.95	6.547
313.31	5.534
313.68	5.925
314.05	7.495
314.41	5.729
314.78	5.740
315.14	5.561
315.51	6.076
315.87	5.941
316.24	6.157
316.61	4.971
316.97	6.458
317.34	5.382
317.70	5.641
318.07	4.524
318.43	5.773
318.80	6.186
319.16	5.744
319.53	5.535
319.89	6.571
320.26	7.200
320.62	5.556
320.99	6.263
321.35	5.556
321.72	5.749
322.08	6.910
322.45	7.861
322.81	6.686
323.18	7.514
323.54	6.772
323.91	6.321
324.27	6.405
324.64	4.287
325.00	4.418
325.37	7.006
325.73	6.463
326.10	6.531
326.46	5.466
326.83	6.126
327.19	6.149
327.56	6.359
327.92	5.774
328.29	6.477
328.65	6.169
329.01	6.137
329.38	6.475
329.74	6.371
330.11	6.880
330.47	6.428
330.84	7.721
331.20	5.373
331.56	6.789
331.93	5.370
332.29	7.010
332.66	7.257
333.02	5.759
333.38	6.685
333.75	7.041
334.11	6.673
334.48	6.655
334.84	7.169
335.20	6.000
335.57	6.074
335.93	5.714
336.29	6.136
336.66	6.583
337.02	6.063
337.38	7.222
337.75	5.793
338.11	6.177
338.47	6.722
338.84	6.324
339.20	4.771
339.56	7.391
339.93	5.273
340.29	6.159
340.65	6.417
341.02	6.457
341.38	6.406
341.74	5.965
342.11	7.424
342.47	5.903
342.83	5.565
343.20	6.580
343.56	6.571
343.92	5.965
344.28	6.548
344.65	6.879
345.01	6.481
345.37	5.575
345.73	6.345
346.10	6.394
346.46	5.424
346.82	5.684
347.19	4.845
347.55	5.829
347.91	6.311
348.27	7.149
348.63	6.605
349.00	4.935
349.36	5.911
349.72	6.335
350.08	5.835
350.45	6.672
350.81	5.768
351.17	5.997
351.53	4.996
351.89	5.446
352.26	6.393
352.62	6.415
352.98	5.186
353.34	5.670
353.70	4.910
354.07	6.210
354.43	6.349
354.79	5.390
355.15	5.587
355.51	6.395
355.87	5.796
356.24	6.352
356.60	4.972
356.96	5.068
357.32	4.742
357.68	6.220
358.04	5.938
358.40	5.938
358.77	5.634
359.13	6.235
359.49	5.490
359.85	4.286
360.21	4.705
360.57	5.447
360.93	5.308
361.29	5.291
361.66	5.960
362.02	5.746
362.38	5.779
362.74	5.357
363.10	5.033
363.46	4.989
363.82	5.064
364.18	5.433
364.54	5.795
364.90	5.949
365.26	5.588
365.62	5.625
365.98	4.748
366.35	4.155
366.71	5.929
367.07	5.025
367.43	5.878
367.79	5.282
368.15	6.322
368.51	4.142
368.87	4.996
369.23	4.828
369.59	5.648
369.95	4.706
370.31	6.125
370.67	5.652
371.03	5.618
371.39	5.029
371.75	4.853
372.11	5.263
372.47	5.718
372.83	5.620
373.19	5.058
373.55	4.730
373.91	5.302
374.27	5.155
374.63	3.709
374.99	4.873
375.35	4.117
375.71	4.866
376.07	6.310
376.42	4.264
376.78	5.500
377.14	4.071
377.50	5.430
377.86	4.588
378.22	5.247
378.58	4.449
378.94	4.337
379.30	4.326
379.66	3.871
380.02	4.730
380.38	4.250
380.74	4.922
381.09	4.584
381.45	5.409
381.81	5.283
382.17	5.096
382.53	3.962
382.89	5.062
383.25	4.253
383.61	4.275
383.97	5.629
384.32	3.805
384.68	4.027
385.04	4.671
385.40	4.396
385.76	5.098
386.12	4.922
386.48	4.028
386.83	4.811
387.19	4.886
387.55	4.700
387.91	4.534
388.27	4.721
388.62	5.593
388.98	4.484
389.34	5.006
389.70	4.905
390.06	5.323
390.42	4.540
390.77	4.835
391.13	4.531
391.49	5.393
391.85	4.710
392.20	3.407
392.56	4.482
392.92	4.532
393.28	3.432
393.64	4.976
393.99	4.948
394.35	3.784
394.71	5.144
395.07	4.112
395.42	4.574
395.78	4.580
396.14	4.469
396.50	4.950
396.85	5.022
397.21	4.131
397.57	5.332
397.92	5.168
398.28	4.428
398.64	4.958
399.00	4.813
399.35	4.569
399.71	4.051
400.07	5.027
400.42	4.540
400.78	4.825
401.14	4.024
401.49	3.881
401.85	3.932
402.21	4.551
402.57	4.503
402.92	4.792
403.28	4.310
403.63	4.641
403.99	4.013
404.35	4.667
404.70	5.096
405.06	3.844
405.42	4.429
405.77	4.057
406.13	4.966
406.49	4.790
406.84	4.430
407.20	3.842
407.55	4.531
407.91	4.733
408.27	4.020
408.62	4.455
408.98	4.779
409.34	4.059
409.69	4.387
410.05	4.089
410.40	4.709
410.76	4.182
411.11	5.247
411.47	4.409
411.83	5.070
412.18	4.700
412.54	4.857
412.89	5.361
413.25	4.073
413.60	4.694
413.96	4.250
414.31	4.496
414.67	4.626
415.03	4.172
415.38	5.412
415.74	5.209
416.09	4.833
416.45	4.953
416.80	4.825
417.16	5.429
417.51	4.977
417.87	4.945
418.22	4.795
418.58	5.487
418.93	5.405
419.29	4.519
419.64	4.660
420.00	4.024
420.35	4.986
420.71	5.559
421.06	4.594
421.42	4.795
421.77	4.484
422.12	4.155
422.48	3.994
422.83	4.834
423.19	5.138
423.54	4.063
423.90	4.870
424.25	5.081
424.61	4.702
424.96	4.723
425.31	5.371
425.67	3.596
426.02	4.114
426.38	5.678
426.73	5.149
427.09	4.985
427.44	4.198
427.79	4.658
428.15	4.762
428.50	4.330
428.85	5.542
429.21	4.307
429.56	4.095
429.92	4.479
430.27	4.270
430.62	3.943
430.98	4.515
431.33	4.794
431.68	4.607
432.04	4.899
432.39	4.683
432.74	5.087
433.10	4.641
433.45	4.665
433.80	4.102
434.16	5.075
434.51	4.737
434.86	4.960
435.22	4.836
435.57	4.559
435.92	3.394
436.28	4.745
436.63	5.740
436.98	4.064
437.34	4.234
437.69	4.492
438.04	4.666
438.39	5.075
438.75	4.590
439.10	4.358
439.45	3.719
439.81	4.592
440.16	4.687
440.51	4.628
440.86	4.922
441.22	4.116
441.57	5.042
441.92	4.145
442.27	4.682
442.63	4.476
442.98	4.732
443.33	5.163
443.68	4.543
444.03	4.490
444.39	3.992
444.74	4.816
445.09	4.798
445.44	4.210
445.79	4.354
446.15	5.082
446.50	4.362
446.85	4.419
447.20	4.488
447.55	4.802
447.91	4.854
448.26	4.563
448.61	4.522
448.96	4.651
449.31	4.724
449.66	4.389
450.02	4.624
450.37	4.252
450.72	4.738
451.07	4.509
451.42	4.377
451.77	5.109
452.12	5.023
452.47	5.162
452.83	4.429
453.18	5.134
453.53	5.009
453.88	3.898
454.23	4.662
454.58	5.270
454.93	6.167
455.28	5.050
455.63	5.158
455.98	5.119
456.34	5.088
456.69	5.510
457.04	5.325
457.39	4.851
457.74	4.353
458.09	5.003
458.44	4.903
458.79	4.393
459.14	4.797
459.49	4.670
459.84	4.709
460.19	3.712
460.54	5.093
460.89	4.388
461.24	5.161
461.59	5.869
461.94	4.624
462.29	4.985
462.64	5.105
462.99	4.880
463.34	6.133
463.69	5.128
464.04	5.855
464.39	4.812
464.74	4.753
465.09	5.308
465.44	4.654
465.79	4.251
466.14	5.364
466.49	5.284
466.84	5.254
467.19	5.371
467.54	5.437
467.89	5.162
468.24	4.538
468.59	5.495
468.94	5.498
469.29	5.077
469.64	6.292
469.99	5.616
470.34	5.086
470.68	5.532
471.03	5.306
471.38	4.864
471.73	5.929
472.08	5.263
472.43	5.590
472.78	4.542
473.13	5.392
473.48	4.557
473.83	5.061
474.17	4.916
474.52	5.211
474.87	4.962
475.22	4.643
475.57	4.245
475.92	4.195
476.27	4.735
476.61	4.744
476.96	4.893
477.31	4.396
477.66	4.595
478.01	4.548
478.36	4.283
478.70	4.102
479.05	4.153
479.40	4.606
479.75	4.474
480.10	4.125
480.45	4.331
480.79	3.822
481.14	4.501
481.49	4.746
481.84	4.344
482.19	4.498
482.53	4.633
482.88	4.328
483.23	4.299
483.58	4.823
483.92	4.405
484.27	3.486
484.62	4.052
484.97	3.942
485.31	3.733
485.66	2.925
486.01	2.671
486.36	2.578
486.70	2.727
487.05	3.022
487.40	3.166
487.75	3.012
488.09	3.336
488.44	3.302
488.79	3.906
489.13	3.667
489.48	3.793
489.83	4.143
490.17	4.253
490.52	3.809
490.87	4.116
491.22	3.683
491.56	3.872
491.91	4.328
492.26	3.583
492.60	4.470
492.95	3.601
493.30	4.206
493.64	3.966
493.99	3.900
494.34	4.070
494.68	4.853
495.03	4.370
495.37	4.281
495.72	3.752
496.07	3.852
496.41	3.938
496.76	4.310
497.11	3.962
497.45	4.285
497.80	4.079
498.14	3.913
498.49	3.756
498.84	4.314
499.18	3.762
499.53	4.274
499.87	3.961
500.22	4.381
500.56	4.806
500.91	4.279
501.26	4.220
501.60	4.461
501.95	4.262
502.29	4.545
502.64	4.190
502.98	3.974
503.33	3.976
503.67	4.316
504.02	4.116
504.36	4.399
504.71	4.250
505.06	4.627
505.40	3.938
505.75	3.954
506.09	4.276
506.44	3.996
506.78	3.994
507.13	4.594
507.47	4.798
507.82	4.559
508.16	4.863
508.51	4.313
508.85	4.220
509.19	4.337
509.54	4.133
509.88	4.482
510.23	3.856
510.57	5.057
510.92	4.557
511.26	5.190
511.61	4.409
511.95	4.593
512.30	4.348
512.64	4.460
512.98	4.394
513.33	5.032
513.67	4.429
514.02	4.058
514.36	4.533
514.70	4.261
515.05	4.685
515.39	4.936
515.74	4.786
516.08	5.534
516.42	5.050
516.77	5.072
517.11	4.606
517.46	5.023
517.80	4.820
518.14	4.401
518.49	5.251
518.83	5.398
519.17	4.792
519.52	4.527
519.86	4.906
520.20	5.260
520.55	5.566
520.89	5.170
521.23	5.187
521.58	5.462
521.92	4.470
522.26	4.942
522.61	4.237
522.95	4.236
523.29	4.747
523.64	4.817
523.98	4.621
524.32	4.885
524.66	5.592
525.01	5.147
525.35	4.957
525.69	5.049
526.04	5.296
526.38	4.698
526.72	4.663
527.06	5.399
527.41	4.084
527.75	5.466
528.09	5.588
528.43	4.716
528.78	5.163
529.12	5.212
529.46	5.573
529.80	4.889
530.15	5.607
530.49	5.477
530.83	5.316
531.17	5.744
531.51	6.420
531.86	4.710
532.20	6.128
532.54	6.214
532.88	5.584
533.22	5.122
533.57	5.185
533.91	5.539
534.25	5.286
534.59	4.942
534.93	5.175
535.27	5.009
535.62	5.800
535.96	5.964
536.30	5.277
536.64	5.795
536.98	5.242
537.32	5.201
537.66	5.267
538.01	5.596
538.35	5.236
538.69	5.935
539.03	4.873
539.37	4.473
539.71	4.277
540.05	4.706
540.39	5.316
540.73	5.369
541.07	6.165
541.42	5.023
541.76	6.129
542.10	6.210
542.44	5.960
542.78	6.390
543.12	4.862
543.46	5.574
543.80	5.986
544.14	5.006
544.48	5.460
544.82	5.131
545.16	5.010
545.50	5.077
545.84	4.973
546.18	5.051
546.52	5.919
546.86	5.498
547.20	6.406
547.54	5.144
547.88	6.441
548.22	5.978
548.56	4.906
548.90	4.802
549.24	4.916
549.58	6.480
549.92	5.769
550.26	6.250
550.60	6.501
550.94	5.845
551.28	4.901
551.62	5.679
551.96	5.474
552.30	5.939
552.64	6.964
552.98	5.966
553.32	5.799
553.66	6.612
554.00	5.491
554.34	6.487
554.68	6.438
555.02	5.571
555.36	5.428
555.69	5.277
556.03	4.913
556.37	6.071
556.71	4.911
557.05	6.443
557.39	6.718
557.73	5.646
558.07	6.309
558.41	4.631
558.75	6.613
559.08	5.593
559.42	5.367
559.76	6.250
560.10	5.282
560.44	5.311
560.78	4.990
561.12	5.475
561.45	6.584
561.79	5.603
562.13	5.366
562.47	6.079
562.81	5.370
563.15	5.151
563.48	5.438
563.82	4.892
564.16	5.625
564.50	4.622
564.84	6.005
565.17	4.569
565.51	5.367
565.85	5.140
566.19	4.759
566.52	5.636
566.86	4.762
567.20	5.542
567.54	4.852
567.88	4.889
568.21	5.132
568.55	4.904
568.89	4.426
569.23	4.234
569.56	4.049
569.90	4.264
570.24	3.732
570.57	3.638
570.91	3.620
571.25	3.644
571.59	3.505
571.92	3.571
572.26	3.524
572.60	3.874
572.93	3.598
573.27	3.815
573.61	3.573
573.95	3.204
574.28	3.342
574.62	3.110
574.96	3.297
575.29	3.371
575.63	2.947
575.97	3.489
576.30	3.532
576.64	3.210
576.98	3.136
577.31	2.796
577.65	3.192
577.98	3.076
578.32	3.137
578.66	3.249
578.99	3.173
579.33	3.099
579.67	2.870
580.00	3.357
580.34	3.109
580.67	3.238
581.01	3.306
581.35	3.150
581.68	3.180
582.02	2.816
582.35	3.002
582.69	2.767
583.02	3.076
583.36	3.366
583.70	3.222
584.03	3.448
584.37	3.557
584.70	2.926
585.04	3.718
585.37	3.075
585.71	3.571
586.04	3.479
586.38	3.396
586.72	3.645
587.05	3.396
587.39	2.797
587.72	3.324
588.06	3.228
588.39	3.813
588.73	3.403
589.06	3.615
589.40	3.872
589.73	3.942
590.07	3.808
590.40	3.581
590.73	3.708
591.07	4.518
591.40	4.133
591.74	3.939
592.07	4.625
592.41	5.002
592.74	4.419
593.08	3.864
593.41	3.796
593.75	3.841
594.08	3.922
594.41	4.136
594.75	3.956
595.08	4.259
595.42	3.993
595.75	3.811
596.09	4.168
596.42	4.558
596.75	4.052
597.09	4.892
597.42	4.005
597.75	4.528
598.09	3.913
598.42	4.124
598.76	4.175
599.09	3.877
599.42	4.148
599.76	4.100
600.09	4.080
600.42	3.579
600.76	4.143
601.09	4.189
601.42	3.957
601.76	3.681
602.09	3.992
602.42	4.459
602.76	4.474
603.09	4.091
603.42	4.490
603.76	4.230
604.09	4.382
604.42	4.077
604.76	4.429
605.09	4.631
605.42	4.275
605.75	4.387
606.09	3.579
606.42	4.005
606.75	4.106
607.09	4.353
607.42	4.065
607.75	3.797
608.08	4.125
608.42	4.796
608.75	4.373
609.08	4.672
609.41	4.712
609.75	4.812
610.08	4.383
610.41	4.050
610.74	3.690
611.07	4.694
611.41	4.563
611.74	5.530
612.07	5.280
612.40	5.142
612.73	4.842
613.07	4.849
613.40	4.792
613.73	4.719
614.06	5.000
614.39	5.506
614.72	5.474
615.06	5.042
615.39	4.565
615.72	4.550
616.05	4.519
616.38	4.780
616.71	5.285
617.05	5.654
617.38	5.352
617.71	4.565
618.04	5.168
618.37	5.795
618.70	5.663
619.03	6.579
619.36	5.499
619.69	5.493
620.03	5.632
620.36	5.949
620.69	6.164
621.02	6.416
621.35	5.951
621.68	5.530
622.01	5.960
622.34	6.657
622.67	6.464
623.00	5.503
623.33	5.790
623.66	5.647
623.99	5.523
624.32	5.849
624.65	6.215
624.99	4.745
625.32	5.576
625.65	5.785
625.98	6.841
626.31	6.610
626.64	6.122
626.97	6.650
627.30	5.902
627.63	6.727
627.96	5.803
628.29	6.562
628.62	7.685
628.95	8.491
629.28	6.843
629.61	7.058
629.94	7.143
630.26	6.196
630.59	7.340
630.92	7.663
631.25	6.417
631.58	7.407
631.91	7.911
632.24	6.962
632.57	7.345
632.90	7.785
633.23	7.159
633.56	8.588
633.89	8.494
634.22	8.286
634.55	8.166
634.88	7.665
635.20	8.124
635.53	10.120
635.86	8.416
636.19	8.706
636.52	8.420
636.85	7.675
637.18	7.488
637.51	10.402
637.83	7.398
638.16	7.417
638.49	9.572
638.82	9.355
639.15	8.750
639.48	8.603
639.81	8.579
640.13	8.594
640.46	9.933
640.79	8.851
641.12	7.153
641.45	8.799
641.77	6.627
642.10	9.795
642.43	8.859
642.76	8.824
643.09	9.969
643.41	8.042
643.74	9.259
644.07	10.518
644.40	9.816
644.73	9.764
645.05	11.410
645.38	10.742
645.71	10.467
646.04	10.465
646.36	11.853
646.69	10.535
647.02	10.204
647.35	10.825
647.67	10.265
648.00	11.545
648.33	11.221
648.66	9.394
648.98	11.394
649.31	8.670
649.64	10.015
649.96	11.177
650.29	11.532
650.62	9.061
650.94	11.183
651.27	11.318
651.60	10.150
651.92	10.863
652.25	8.632
652.58	11.371
652.90	11.848
653.23	9.399
653.56	11.024
