SpectraSuite Data File
++++++++++++++++++++++++++++++++++++
Date: Wed May 13 19:26:35 PDT 2015
User: schluterlab
Dark Spectrum Present: Yes
Reference Spectrum Present: Yes
Number of Sampled Component Spectra: 1
Spectrometers: USB2E3373
Integration Time (usec): 3000 (USB2E3373)
Spectra Averaged: 3 (USB2E3373)
Boxcar Smoothing: 0 (USB2E3373)
Correct for Electrical Dark: No (USB2E3373)
Strobe/Lamp Enabled: No (USB2E3373)
Correct for Detector Non-linearity: No (USB2E3373)
Correct for Stray Light: No (USB2E3373)
Number of Pixels in Processed Spectrum: 2048
>>>>>Begin Processed Spectral Data<<<<<
178.53	0.000
178.91	-1300.000
179.29	-1350.000
179.67	-227.778
180.04	-1325.000
180.42	2650.000
180.80	1140.000
181.18	-1175.000
181.56	728.571
181.94	0.000
182.31	-728.571
182.69	1866.667
183.07	-550.000
183.45	-511.111
183.83	490.909
184.20	-470.000
184.58	2450.000
184.96	5800.000
185.34	-900.000
185.72	-675.000
186.09	-2650.000
186.47	2800.000
186.85	2400.000
187.23	5500.000
187.61	-1800.000
187.98	1425.000
188.36	627.273
188.74	527.273
189.12	-1020.000
189.49	620.000
189.87	-5100.000
190.25	-1300.000
190.63	421.429
191.00	430.769
191.38	1100.000
191.76	-1300.000
192.14	1350.000
192.51	587.500
192.89	966.667
193.27	587.500
193.65	-1300.000
194.02	560.000
194.40	1000.000
194.78	670.000
195.15	466.667
195.53	650.000
195.91	-2450.000
196.29	381.250
196.66	289.474
197.04	-400.000
197.42	0.000
197.79	670.000
198.17	-5600.000
198.55	728.571
198.92	850.000
199.30	1140.000
199.68	0.000
200.05	344.444
200.43	714.286
200.81	4600.000
201.18	2033.333
201.56	-1966.667
201.94	511.111
202.31	677.778
202.69	383.333
203.07	630.000
203.44	0.000
203.82	1450.000
204.19	871.429
204.57	428.571
204.95	725.000
205.32	1766.667
205.70	545.455
206.08	371.429
206.45	2800.000
206.83	387.500
207.20	1083.333
207.58	880.000
207.96	344.444
208.33	787.500
208.71	-950.000
209.08	771.429
209.46	511.111
209.84	572.727
210.21	-1700.000
210.59	1525.000
210.96	-475.000
211.34	2800.000
211.71	570.000
212.09	700.000
212.46	0.000
212.84	1800.000
213.22	1325.000
213.59	-4600.000
213.97	766.667
214.34	928.571
214.72	663.636
215.09	1160.000
215.47	-2400.000
215.84	-2350.000
216.22	1700.000
216.59	414.286
216.97	1225.000
217.34	454.545
217.72	-733.333
218.09	0.000
218.47	-4800.000
218.84	566.667
219.22	814.286
219.59	1866.667
219.97	-814.286
220.34	1080.000
220.72	-1766.667
221.09	371.429
221.47	1425.000
221.84	-933.333
222.22	0.000
222.59	1475.000
222.97	-3000.000
223.34	1020.000
223.72	446.154
224.09	1180.000
224.46	2600.000
224.84	-4400.000
225.21	-1080.000
225.59	-5100.000
225.96	660.000
226.34	335.000
226.71	2850.000
227.08	625.000
227.46	540.000
227.83	-1375.000
228.21	-2400.000
228.58	688.889
228.95	-2300.000
229.33	-2300.000
229.70	1900.000
230.08	771.429
230.45	-1020.000
230.82	400.000
231.20	816.667
231.57	671.429
231.95	500.000
232.32	272.727
232.69	390.909
233.07	642.857
233.44	346.154
233.81	-1966.667
234.19	278.947
234.56	508.333
234.93	391.667
235.31	427.273
235.68	361.538
236.05	321.429
236.43	175.758
236.80	294.737
237.17	4400.000
237.55	214.286
237.92	200.000
238.29	266.667
238.67	170.968
239.04	213.793
239.41	130.556
239.79	136.957
240.16	142.857
240.53	134.091
240.91	117.647
241.28	104.000
241.65	122.000
242.02	102.899
242.40	79.032
242.77	100.000
243.14	67.742
243.51	76.404
243.89	61.176
244.26	61.111
244.63	59.140
245.00	61.702
245.38	49.505
245.75	44.860
246.12	46.789
246.49	56.204
246.87	62.400
247.24	49.231
247.61	48.571
247.98	37.255
248.36	35.135
248.73	42.038
249.10	40.764
249.47	38.418
249.84	39.037
250.22	34.225
250.59	42.604
250.96	37.374
251.33	42.180
251.70	35.149
252.08	33.333
252.45	28.251
252.82	29.130
253.19	31.064
253.56	28.235
253.94	34.025
254.31	28.125
254.68	33.077
255.05	28.044
255.42	30.894
255.79	28.676
256.16	27.076
256.54	26.855
256.91	26.335
257.28	21.223
257.65	20.792
258.02	26.087
258.39	28.076
258.76	26.087
259.14	26.488
259.51	23.100
259.88	21.739
260.25	24.773
260.62	23.988
260.99	22.981
261.36	25.225
261.73	18.911
262.10	19.767
262.47	24.789
262.85	23.677
263.22	16.524
263.59	21.937
263.96	21.703
264.33	20.627
264.70	20.263
265.07	25.320
265.44	19.192
265.81	21.168
266.18	22.362
266.55	18.293
266.92	18.428
267.29	21.528
267.66	19.725
268.03	19.773
268.40	18.692
268.77	18.138
269.14	17.793
269.51	21.219
269.88	20.047
270.25	18.962
270.62	19.101
270.99	20.430
271.36	20.815
271.73	20.093
272.10	18.478
272.47	18.925
272.84	19.048
273.21	20.964
273.58	15.502
273.95	17.191
274.32	17.975
274.69	19.486
275.06	16.929
275.43	19.149
275.80	16.032
276.17	18.534
276.54	18.087
276.91	16.206
277.28	16.211
277.65	17.602
278.02	16.770
278.39	18.555
278.76	17.636
279.13	16.604
279.50	17.505
279.87	16.932
280.23	16.966
280.60	16.441
280.97	17.560
281.34	16.460
281.71	17.273
282.08	17.850
282.45	14.182
282.82	14.742
283.19	14.617
283.56	17.368
283.92	16.413
284.29	14.991
284.66	17.241
285.03	15.371
285.40	16.197
285.77	14.983
286.14	13.990
286.51	14.000
286.87	16.581
287.24	15.472
287.61	16.693
287.98	15.097
288.35	15.848
288.72	14.798
289.08	13.928
289.45	14.333
289.82	14.797
290.19	14.600
290.56	13.476
290.93	12.085
291.29	13.037
291.66	14.307
292.03	16.424
292.40	14.684
292.77	13.018
293.13	14.776
293.50	13.265
293.87	14.963
294.24	12.889
294.60	12.664
294.97	11.919
295.34	14.104
295.71	14.915
296.08	13.105
296.44	11.692
296.81	12.153
297.18	14.905
297.55	10.290
297.91	12.269
298.28	13.655
298.65	14.099
299.02	12.121
299.38	13.147
299.75	11.725
300.12	13.027
300.48	11.000
300.85	12.207
301.22	12.102
301.59	12.121
301.95	12.469
302.32	12.452
302.69	11.350
303.05	12.121
303.42	11.481
303.79	11.438
304.15	9.907
304.52	10.776
304.89	11.731
305.25	12.181
305.62	12.458
305.99	12.397
306.35	11.298
306.72	11.211
307.09	11.765
307.45	13.288
307.82	10.379
308.19	11.810
308.55	11.758
308.92	11.171
309.29	10.348
309.65	11.347
310.02	10.994
310.38	11.398
310.75	11.827
311.12	11.975
311.48	12.017
311.85	12.055
312.22	11.342
312.58	9.979
312.95	11.404
313.31	10.777
313.68	11.850
314.05	13.511
314.41	13.065
314.78	10.876
315.14	12.512
315.51	12.873
315.87	12.673
316.24	12.214
316.61	11.306
316.97	11.644
317.34	10.959
317.70	11.855
318.07	12.127
318.43	11.155
318.80	13.121
319.16	12.241
319.53	11.726
319.89	12.667
320.26	13.400
320.62	12.698
320.99	13.434
321.35	13.636
321.72	13.552
322.08	14.215
322.45	15.920
322.81	15.019
323.18	14.933
323.54	14.750
323.91	15.189
324.27	15.488
324.64	14.166
325.00	13.616
325.37	14.832
325.73	16.427
326.10	16.593
326.46	14.247
326.83	15.962
327.19	15.884
327.56	15.941
327.92	16.185
328.29	17.036
328.65	16.022
329.01	16.426
329.38	16.744
329.74	16.343
330.11	16.965
330.47	17.080
330.84	17.923
331.20	17.122
331.56	17.064
331.93	15.556
332.29	17.835
332.66	17.699
333.02	16.728
333.38	17.164
333.75	18.538
334.11	17.171
334.48	17.746
334.84	17.923
335.20	16.636
335.57	17.498
335.93	15.804
336.29	17.125
336.66	16.952
337.02	15.928
337.38	18.241
337.75	16.756
338.11	18.621
338.47	16.483
338.84	16.774
339.20	16.330
339.56	18.066
339.93	17.000
340.29	16.123
340.65	17.469
341.02	17.714
341.38	18.238
341.74	16.228
342.11	17.904
342.47	18.062
342.83	17.723
343.20	17.835
343.56	17.270
343.92	16.667
344.28	17.347
344.65	16.939
345.01	16.835
345.37	16.467
345.73	17.174
346.10	17.988
346.46	17.797
346.82	17.792
347.19	16.124
347.55	16.749
347.91	17.638
348.27	17.913
348.63	17.057
349.00	16.990
349.36	16.749
349.72	17.482
350.08	16.856
350.45	17.494
350.81	16.734
351.17	18.071
351.53	17.199
351.89	16.254
352.26	18.548
352.62	17.963
352.98	17.018
353.34	16.598
353.70	16.939
354.07	17.661
354.43	16.984
354.79	17.297
355.15	16.600
355.51	17.906
355.87	17.388
356.24	17.752
356.60	17.081
356.96	17.216
357.32	17.334
357.68	17.638
358.04	18.131
358.40	18.369
358.77	17.762
359.13	16.259
359.49	17.647
359.85	16.508
360.21	16.986
360.57	18.521
360.93	18.231
361.29	16.629
361.66	17.415
362.02	17.239
362.38	17.338
362.74	16.890
363.10	16.802
363.46	17.168
363.82	16.100
364.18	18.282
364.54	17.682
364.90	17.847
365.26	17.132
365.62	17.677
365.98	17.531
366.35	16.762
366.71	17.932
367.07	17.990
367.43	17.997
367.79	19.415
368.15	18.175
368.51	18.169
368.87	18.772
369.23	18.069
369.59	18.899
369.95	18.309
370.31	17.949
370.67	17.971
371.03	18.277
371.39	19.096
371.75	18.897
372.11	18.634
372.47	18.548
372.83	18.588
373.19	18.425
373.55	18.847
373.91	19.146
374.27	17.801
374.63	18.545
374.99	19.280
375.35	18.004
375.71	18.711
376.07	19.136
376.42	18.569
376.78	19.616
377.14	18.860
377.50	18.742
377.86	18.019
378.22	18.963
378.58	18.358
378.94	18.542
379.30	18.957
379.66	19.099
380.02	19.902
380.38	19.065
380.74	18.968
381.09	18.582
381.45	19.115
381.81	19.349
382.17	19.172
382.53	18.994
382.89	20.062
383.25	18.887
383.61	19.579
383.97	19.825
384.32	19.464
384.68	19.517
385.04	19.791
385.40	19.876
385.76	19.717
386.12	19.754
386.48	20.327
386.83	20.398
387.19	20.903
387.55	20.470
387.91	20.193
388.27	19.804
388.62	20.652
388.98	20.700
389.34	20.526
389.70	20.233
390.06	20.596
390.42	20.039
390.77	20.420
391.13	20.294
391.49	21.574
391.85	20.878
392.20	20.757
392.56	21.149
392.92	21.248
393.28	20.059
393.64	21.823
393.99	21.381
394.35	21.402
394.71	20.954
395.07	20.997
395.42	22.373
395.78	21.883
396.14	21.850
396.50	21.930
396.85	22.314
397.21	21.208
397.57	22.691
397.92	21.514
398.28	22.029
398.64	22.521
399.00	21.600
399.35	21.320
399.71	21.991
400.07	22.590
400.42	21.963
400.78	23.040
401.14	22.073
401.49	23.164
401.85	22.444
402.21	22.754
402.57	22.640
402.92	23.077
403.28	23.423
403.63	22.834
403.99	23.185
404.35	22.667
404.70	23.022
405.06	22.481
405.42	22.458
405.77	23.257
406.13	22.686
406.49	22.945
406.84	23.804
407.20	22.459
407.55	24.314
407.91	24.267
408.27	24.378
408.62	23.961
408.98	23.591
409.34	24.170
409.69	24.129
410.05	24.845
410.40	24.343
410.76	24.134
411.11	25.211
411.47	24.601
411.83	24.740
412.18	24.242
412.54	24.159
412.89	23.976
413.25	24.203
413.60	25.201
413.96	24.044
414.31	24.787
414.67	25.792
415.03	25.232
415.38	25.515
415.74	25.723
416.09	26.519
416.45	25.971
416.80	25.777
417.16	26.340
417.51	26.410
417.87	25.369
418.22	26.751
418.58	26.340
418.93	26.229
419.29	27.116
419.64	26.511
420.00	26.707
420.35	26.609
420.71	27.077
421.06	26.372
421.42	26.433
421.77	26.850
422.12	26.165
422.48	26.606
422.83	28.130
423.19	27.072
423.54	27.046
423.90	28.000
424.25	27.247
424.61	26.726
424.96	27.813
425.31	27.907
425.67	27.247
426.02	27.200
426.38	27.656
426.73	28.087
427.09	28.328
427.44	27.947
427.79	28.350
428.15	28.750
428.50	28.028
428.85	29.678
429.21	27.940
429.56	28.460
429.92	28.485
430.27	28.103
430.62	27.957
430.98	28.801
431.33	28.247
431.68	29.319
432.04	28.914
432.39	29.126
432.74	29.264
433.10	29.655
433.45	29.738
433.80	28.659
434.16	29.541
434.51	29.368
434.86	30.103
435.22	30.461
435.57	29.483
435.92	29.725
436.28	31.198
436.63	30.353
436.98	29.365
437.34	30.650
437.69	30.105
438.04	29.623
438.39	30.866
438.75	30.854
439.10	30.447
439.45	30.638
439.81	30.332
440.16	31.169
440.51	30.580
440.86	30.979
441.22	30.812
441.57	30.679
441.92	30.757
442.27	30.140
442.63	30.490
442.98	32.113
443.33	30.652
443.68	31.079
444.03	30.356
444.39	30.039
444.74	31.385
445.09	31.213
445.44	31.766
445.79	31.272
446.15	30.386
446.50	29.887
446.85	30.832
447.20	31.566
447.55	31.435
447.91	30.667
448.26	30.885
448.61	31.091
448.96	32.447
449.31	32.958
449.66	31.739
450.02	31.253
450.37	31.236
450.72	31.698
451.07	30.286
451.42	30.456
451.77	31.591
452.12	31.640
452.47	32.649
452.83	32.517
453.18	31.846
453.53	31.354
453.88	31.364
454.23	31.739
454.58	32.041
454.93	33.376
455.28	31.234
455.63	31.129
455.98	33.393
456.34	32.349
456.69	33.062
457.04	31.827
457.39	32.086
457.74	31.921
458.09	31.282
458.44	31.984
458.79	31.236
459.14	32.280
459.49	32.399
459.84	31.302
460.19	31.408
460.54	30.903
460.89	31.761
461.24	31.998
461.59	32.830
461.94	31.813
462.29	32.760
462.64	32.163
462.99	31.165
463.34	32.067
463.69	32.270
464.04	32.000
464.39	31.536
464.74	32.680
465.09	31.906
465.44	31.634
465.79	30.817
466.14	30.816
466.49	32.036
466.84	31.699
467.19	32.710
467.54	32.063
467.89	31.633
468.24	32.054
468.59	33.028
468.94	31.704
469.29	32.841
469.64	33.133
469.99	33.018
470.34	31.638
470.68	33.621
471.03	33.129
471.38	33.426
471.73	33.444
472.08	33.947
472.43	32.601
472.78	32.982
473.13	32.670
473.48	32.959
473.83	32.256
474.17	31.923
474.52	33.313
474.87	32.808
475.22	32.618
475.57	32.563
475.92	31.545
476.27	32.187
476.61	32.322
476.96	32.051
477.31	32.182
477.66	32.330
478.01	32.358
478.36	31.729
478.70	31.360
479.05	32.961
479.40	31.679
479.75	30.808
480.10	32.356
480.45	32.080
480.79	30.913
481.14	31.947
481.49	32.131
481.84	31.047
482.19	31.486
482.53	31.789
482.88	31.875
483.23	31.028
483.58	31.620
483.92	31.724
484.27	30.937
484.62	30.905
484.97	30.706
485.31	31.712
485.66	29.621
486.01	29.164
486.36	28.005
486.70	27.745
487.05	28.394
487.40	28.958
487.75	29.299
488.09	29.451
488.44	30.287
488.79	30.633
489.13	30.328
489.48	30.343
489.83	30.384
490.17	31.039
490.52	30.602
490.87	30.529
491.22	30.969
491.56	31.207
491.91	30.479
492.26	31.098
492.60	30.876
492.95	30.075
493.30	29.813
493.64	30.378
493.99	31.012
494.34	31.175
494.68	30.540
495.03	30.921
495.37	30.200
495.72	31.043
496.07	31.276
496.41	30.531
496.76	29.903
497.11	29.986
497.45	29.995
497.80	31.382
498.14	30.628
498.49	30.293
498.84	30.249
499.18	30.762
499.53	30.959
499.87	30.755
500.22	30.900
500.56	31.650
500.91	30.337
501.26	29.872
501.60	31.039
501.95	29.193
502.29	31.068
502.64	30.354
502.98	30.435
503.33	30.210
503.67	30.255
504.02	30.730
504.36	30.838
504.71	31.216
505.06	30.458
505.40	30.676
505.75	30.135
506.09	31.098
506.44	30.883
506.78	31.271
507.13	31.297
507.47	30.960
507.82	31.206
508.16	30.243
508.51	31.507
508.85	30.487
509.19	30.918
509.54	30.561
509.88	30.242
510.23	30.283
510.57	31.579
510.92	31.176
511.26	30.781
511.61	30.342
511.95	30.428
512.30	30.488
512.64	30.897
512.98	31.243
513.33	30.996
513.67	30.309
514.02	30.087
514.36	31.240
514.70	31.489
515.05	31.233
515.39	31.520
515.74	31.475
516.08	30.911
516.42	31.521
516.77	31.215
517.11	30.522
517.46	30.361
517.80	31.417
518.14	30.921
518.49	32.089
518.83	32.330
519.17	30.716
519.52	31.692
519.86	31.546
520.20	31.214
520.55	31.658
520.89	32.847
521.23	32.207
521.58	31.813
521.92	32.578
522.26	30.995
522.61	31.776
522.95	31.001
523.29	32.015
523.64	32.073
523.98	32.224
524.32	31.544
524.66	32.351
525.01	32.292
525.35	31.413
525.69	30.357
526.04	32.399
526.38	31.178
526.72	31.963
527.06	30.697
527.41	30.384
527.75	31.640
528.09	31.214
528.43	31.294
528.78	31.285
529.12	30.727
529.46	31.843
529.80	32.240
530.15	32.212
530.49	30.831
530.83	31.266
531.17	32.833
531.51	32.944
531.86	31.355
532.20	32.399
532.54	32.095
532.88	31.194
533.22	31.168
533.57	31.049
533.91	30.343
534.25	30.437
534.59	31.117
534.93	30.577
535.27	30.296
535.62	30.708
535.96	30.571
536.30	30.515
536.64	31.037
536.98	31.719
537.32	31.205
537.66	31.133
538.01	31.402
538.35	31.351
538.69	30.377
539.03	29.760
539.37	29.585
539.71	30.071
540.05	30.915
540.39	30.764
540.73	30.078
541.07	31.019
541.42	30.789
541.76	29.935
542.10	30.595
542.44	30.331
542.78	31.423
543.12	29.047
543.46	30.689
543.80	29.798
544.14	29.332
544.48	30.349
544.82	29.827
545.16	30.579
545.50	29.113
545.84	29.637
546.18	29.697
546.52	30.145
546.86	29.485
547.20	31.086
547.54	29.593
547.88	30.612
548.22	29.514
548.56	29.434
548.90	29.385
549.24	29.495
549.58	29.059
549.92	30.151
550.26	29.830
550.60	28.700
550.94	30.000
551.28	28.749
551.62	30.482
551.96	28.842
552.30	30.717
552.64	30.426
552.98	30.034
553.32	29.804
553.66	30.402
554.00	29.513
554.34	29.814
554.68	30.114
555.02	28.984
555.36	28.532
555.69	28.890
556.03	29.542
556.37	28.786
556.71	28.172
557.05	28.852
557.39	28.621
557.73	29.005
558.07	29.224
558.41	29.161
558.75	28.508
559.08	29.157
559.42	28.571
559.76	28.824
560.10	28.266
560.44	28.512
560.78	28.609
561.12	27.639
561.45	29.205
561.79	28.807
562.13	27.431
562.47	28.689
562.81	28.243
563.15	27.625
563.48	27.918
563.82	27.854
564.16	27.207
564.50	26.953
564.84	26.738
565.17	26.705
565.51	26.645
565.85	27.157
566.19	26.800
566.52	27.612
566.86	27.486
567.20	27.653
567.54	27.055
567.88	26.236
568.21	26.772
568.55	26.795
568.89	26.119
569.23	25.223
569.56	25.142
569.90	25.019
570.24	24.830
570.57	24.073
570.91	24.337
571.25	24.336
571.59	24.065
571.92	23.848
572.26	23.975
572.60	23.964
572.93	23.688
573.27	23.307
573.61	23.841
573.95	23.592
574.28	23.291
574.62	23.154
574.96	22.820
575.29	22.575
575.63	23.349
575.97	23.431
576.30	22.703
576.64	23.098
576.98	22.849
577.31	22.620
577.65	22.454
577.98	22.638
578.32	22.081
578.66	22.348
578.99	22.735
579.33	22.682
579.67	21.844
580.00	22.561
580.34	22.140
580.67	22.690
581.01	22.465
581.35	22.459
581.68	22.131
582.02	21.445
582.35	21.935
582.69	22.172
583.02	22.055
583.36	22.527
583.70	22.577
584.03	22.597
584.37	22.556
584.70	22.335
585.04	22.334
585.37	22.134
585.71	22.486
586.04	22.010
586.38	22.388
586.72	22.314
587.05	22.195
587.39	21.926
587.72	22.237
588.06	22.439
588.39	22.277
588.73	22.705
589.06	22.686
589.40	22.559
589.73	22.598
590.07	22.242
590.40	22.579
590.73	23.107
591.07	23.525
591.40	22.311
591.74	23.333
592.07	23.037
592.41	23.191
592.74	22.622
593.08	22.052
593.41	21.829
593.75	21.861
594.08	21.690
594.41	22.587
594.75	22.255
595.08	22.083
595.42	22.452
595.75	22.044
596.09	22.080
596.42	22.318
596.75	22.541
597.09	22.814
597.42	22.681
597.75	22.510
598.09	22.565
598.42	22.294
598.76	22.375
599.09	21.551
599.42	21.725
599.76	21.852
600.09	21.858
600.42	21.256
600.76	20.964
601.09	21.858
601.42	21.233
601.76	21.822
602.09	21.265
602.42	21.656
602.76	21.846
603.09	22.069
603.42	22.023
603.76	21.265
604.09	21.908
604.42	21.362
604.76	22.227
605.09	21.800
605.42	21.462
605.75	21.813
606.09	21.147
606.42	21.455
606.75	21.485
607.09	21.850
607.42	21.780
607.75	20.464
608.08	21.928
608.42	21.605
608.75	21.010
609.08	21.508
609.41	21.323
609.75	20.724
610.08	21.772
610.41	21.276
610.74	21.239
611.07	22.184
611.41	21.786
611.74	22.122
612.07	21.222
612.40	21.826
612.73	21.316
613.07	21.983
613.40	20.853
613.73	21.290
614.06	21.505
614.39	21.133
614.72	21.474
615.06	21.324
615.39	21.497
615.72	21.063
616.05	21.478
616.38	21.623
616.71	21.556
617.05	21.849
617.38	21.287
617.71	21.201
618.04	21.815
618.37	21.585
618.70	22.029
619.03	22.039
619.36	21.928
619.69	21.972
620.03	23.695
620.36	22.059
620.69	23.219
621.02	22.419
621.35	23.101
621.68	21.729
622.01	23.220
622.34	23.298
622.67	21.977
623.00	22.084
623.33	21.515
623.66	21.944
623.99	21.429
624.32	21.755
624.65	22.458
624.99	22.167
625.32	22.375
625.65	22.615
625.98	22.214
626.31	22.939
626.64	23.673
626.97	23.525
627.30	22.028
627.63	22.477
627.96	22.960
628.29	23.010
628.62	22.598
628.95	24.528
629.28	22.993
629.61	23.281
629.94	22.857
630.26	22.116
630.59	24.214
