SpectraSuite Data File
++++++++++++++++++++++++++++++++++++
Date: Wed May 13 19:54:06 PDT 2015
User: schluterlab
Dark Spectrum Present: Yes
Reference Spectrum Present: Yes
Number of Sampled Component Spectra: 1
Spectrometers: USB2E3373
Integration Time (usec): 3000 (USB2E3373)
Spectra Averaged: 3 (USB2E3373)
Boxcar Smoothing: 0 (USB2E3373)
Correct for Electrical Dark: No (USB2E3373)
Strobe/Lamp Enabled: No (USB2E3373)
Correct for Detector Non-linearity: No (USB2E3373)
Correct for Stray Light: No (USB2E3373)
Number of Pixels in Processed Spectrum: 2048
>>>>>Begin Processed Spectral Data<<<<<
178.53	0.000
178.91	-1400.000
179.29	-1500.000
179.67	-227.778
180.04	-1175.000
180.42	2550.000
180.80	1180.000
181.18	-1100.000
181.56	671.429
181.94	0.000
182.31	-642.857
182.69	1566.667
183.07	-675.000
183.45	-622.222
183.83	481.818
184.20	-440.000
184.58	2550.000
184.96	6500.000
185.34	-840.000
185.72	-712.500
186.09	-2250.000
186.47	2450.000
186.85	2750.000
187.23	5600.000
187.61	-1900.000
187.98	1275.000
188.36	590.909
188.74	463.636
189.12	-920.000
189.49	580.000
189.87	-5100.000
190.25	-1475.000
190.63	478.571
191.00	430.769
191.38	833.333
191.76	-1025.000
192.14	1300.000
192.51	662.500
192.89	966.667
193.27	775.000
193.65	-1275.000
194.02	650.000
194.40	880.000
194.78	530.000
195.15	575.000
195.53	640.000
195.91	-2100.000
196.29	331.250
196.66	310.526
197.04	-360.000
197.42	0.000
197.79	640.000
198.17	-5300.000
198.55	700.000
198.92	825.000
199.30	980.000
199.68	0.000
200.05	338.889
200.43	814.286
200.81	4700.000
201.18	1366.667
201.56	-1566.667
201.94	711.111
202.31	600.000
202.69	450.000
203.07	570.000
203.44	0.000
203.82	1350.000
204.19	771.429
204.57	392.857
204.95	625.000
205.32	1600.000
205.70	600.000
206.08	407.143
206.45	2350.000
206.83	400.000
207.20	883.333
207.58	740.000
207.96	327.778
208.33	775.000
208.71	-950.000
209.08	942.857
209.46	777.778
209.84	518.182
210.21	-1300.000
210.59	1450.000
210.96	-537.500
211.34	2650.000
211.71	600.000
212.09	750.000
212.46	0.000
212.84	1500.000
213.22	1600.000
213.59	-4300.000
213.97	933.333
214.34	857.143
214.72	527.273
215.09	1080.000
215.47	-1900.000
215.84	-2750.000
216.22	1700.000
216.59	414.286
216.97	1325.000
217.34	445.455
217.72	-833.333
218.09	0.000
218.47	-5000.000
218.84	633.333
219.22	771.429
219.59	1600.000
219.97	-500.000
220.34	1140.000
220.72	-1900.000
221.09	414.286
221.47	1525.000
221.84	-1050.000
222.22	0.000
222.59	1400.000
222.97	-2300.000
223.34	1000.000
223.72	415.385
224.09	1220.000
224.46	2350.000
224.84	-5200.000
225.21	-1120.000
225.59	-4700.000
225.96	530.000
226.34	305.000
226.71	2800.000
227.08	662.500
227.46	600.000
227.83	-1325.000
228.21	-2400.000
228.58	655.556
228.95	-2450.000
229.33	-2500.000
229.70	1700.000
230.08	700.000
230.45	-880.000
230.82	525.000
231.20	966.667
231.57	628.571
231.95	516.667
232.32	250.000
232.69	436.364
233.07	642.857
233.44	384.615
233.81	-1800.000
234.19	294.737
234.56	525.000
234.93	441.667
235.31	463.636
235.68	392.308
236.05	414.286
236.43	172.727
236.80	294.737
237.17	5300.000
237.55	252.381
237.92	217.857
238.29	247.619
238.67	209.677
239.04	234.483
239.41	147.222
239.79	134.783
240.16	128.571
240.53	127.273
240.91	121.569
241.28	108.000
241.65	88.000
242.02	108.696
242.40	87.097
242.77	95.000
243.14	76.344
243.51	88.764
243.89	65.882
244.26	73.333
244.63	66.667
245.00	73.404
245.38	63.366
245.75	59.813
246.12	56.881
246.49	60.584
246.87	65.600
247.24	56.154
247.61	60.000
247.98	50.980
248.36	46.622
248.73	49.682
249.10	49.045
249.47	53.672
249.84	49.733
250.22	44.385
250.59	50.296
250.96	44.949
251.33	43.128
251.70	42.079
252.08	37.619
252.45	43.498
252.82	38.696
253.19	40.000
253.56	34.118
253.94	43.154
254.31	39.453
254.68	37.692
255.05	36.900
255.42	36.179
255.79	36.765
256.16	40.794
256.54	37.102
256.91	38.078
257.28	34.532
257.65	36.634
258.02	36.646
258.39	34.700
258.76	32.776
259.14	32.440
259.51	31.003
259.88	29.503
260.25	33.837
260.62	34.971
260.99	32.298
261.36	36.036
261.73	28.653
262.10	32.849
262.47	34.366
262.85	32.312
263.22	29.630
263.59	31.909
263.96	33.791
264.33	29.243
264.70	30.789
265.07	32.225
265.44	33.838
265.81	31.630
266.18	30.151
266.55	31.463
266.92	27.518
267.29	30.787
267.66	26.376
268.03	29.091
268.40	29.439
268.77	25.776
269.14	27.252
269.51	29.120
269.88	28.904
270.25	28.894
270.62	28.315
270.99	29.892
271.36	30.258
271.73	25.000
272.10	28.261
272.47	28.387
272.84	31.385
273.21	29.350
273.58	27.948
273.95	25.157
274.32	27.273
274.69	28.051
275.06	27.953
275.43	28.085
275.80	27.455
276.17	27.902
276.54	29.522
276.91	26.482
277.28	25.781
277.65	26.692
278.02	28.157
278.39	28.125
278.76	27.091
279.13	26.604
279.50	25.698
279.87	27.888
280.23	26.547
280.60	24.758
280.97	25.139
281.34	25.664
281.71	26.727
282.08	25.912
282.45	24.364
282.82	25.400
283.19	24.064
283.56	24.211
283.92	25.550
284.29	23.104
284.66	24.864
285.03	24.774
285.40	23.063
285.77	23.737
286.14	25.389
286.51	24.000
286.87	25.299
287.24	24.756
287.61	24.077
287.98	24.675
288.35	22.979
288.72	23.364
289.08	23.944
289.45	22.735
289.82	23.415
290.19	22.292
290.56	22.052
290.93	21.903
291.29	21.319
291.66	22.419
292.03	22.238
292.40	23.495
292.77	19.527
293.13	22.239
293.50	20.700
293.87	20.000
294.24	20.148
294.60	20.087
294.97	21.657
295.34	22.285
295.71	21.165
296.08	19.373
296.44	21.458
296.81	19.551
297.18	21.138
297.55	17.018
297.91	19.657
298.28	21.954
298.65	20.104
299.02	20.949
299.38	19.124
299.75	16.981
300.12	19.413
300.48	18.375
300.85	18.249
301.22	19.236
301.59	18.056
301.95	18.766
302.32	18.485
302.69	19.952
303.05	19.273
303.42	19.012
303.79	19.139
304.15	17.949
304.52	17.845
304.89	17.770
305.25	16.937
305.62	18.007
305.99	19.244
306.35	18.456
306.72	18.386
307.09	18.757
307.45	19.707
307.82	16.629
308.19	17.660
308.55	18.447
308.92	18.367
309.29	16.895
309.65	17.179
310.02	18.182
310.38	17.527
310.75	18.057
311.12	18.833
311.48	17.555
311.85	17.400
312.22	17.586
312.58	16.840
312.95	18.374
313.31	17.573
313.68	17.983
314.05	18.245
314.41	16.683
314.78	17.925
315.14	17.875
315.51	17.405
315.87	16.634
316.24	16.485
316.61	16.472
316.97	17.123
317.34	15.460
317.70	17.113
318.07	16.266
318.43	17.123
318.80	17.432
319.16	17.232
319.53	16.229
319.89	17.048
320.26	16.600
320.62	17.560
320.99	16.566
321.35	17.677
321.72	16.838
322.08	17.078
322.45	18.209
322.81	16.957
323.18	17.437
323.54	16.883
323.91	17.453
324.27	16.444
324.64	15.564
325.00	15.870
325.37	17.743
325.73	17.415
326.10	16.681
326.46	15.591
326.83	16.393
327.19	16.909
327.56	16.028
327.92	15.836
328.29	16.327
328.65	16.206
329.01	16.245
329.38	16.096
329.74	15.605
330.11	15.551
330.47	16.437
330.84	16.636
331.20	16.120
331.56	16.422
331.93	15.648
332.29	15.883
332.66	17.168
333.02	16.179
333.38	16.260
333.75	16.488
334.11	16.370
334.48	15.617
334.84	16.544
335.20	15.545
335.57	16.500
335.93	14.911
336.29	15.476
336.66	14.878
337.02	15.113
337.38	16.204
337.75	14.795
338.11	14.951
338.47	15.654
338.84	15.399
339.20	14.587
339.56	16.150
339.93	13.727
340.29	15.308
340.65	15.330
341.02	15.969
341.38	15.658
341.74	14.825
342.11	15.197
342.47	14.626
342.83	15.497
343.20	14.978
343.56	14.912
343.92	15.088
344.28	14.286
344.65	14.961
345.01	13.889
345.37	13.551
345.73	15.228
346.10	15.260
346.46	14.661
346.82	15.651
347.19	14.871
347.55	14.286
347.91	15.696
348.27	15.530
348.63	15.385
349.00	14.968
349.36	14.122
349.72	14.916
350.08	14.506
350.45	14.158
350.81	14.703
351.17	14.668
351.53	14.169
351.89	13.366
352.26	15.706
352.62	14.274
352.98	13.776
353.34	14.790
353.70	13.502
354.07	14.919
354.43	13.810
354.79	13.113
355.15	13.887
355.51	14.628
355.87	14.204
356.24	15.147
356.60	14.274
356.96	13.194
357.32	14.391
357.68	14.961
358.04	14.410
358.40	14.489
358.77	14.476
359.13	13.418
359.49	13.255
359.85	12.143
360.21	13.397
360.57	15.486
360.93	13.846
361.29	14.739
361.66	13.854
362.02	14.030
362.38	13.612
362.74	13.393
363.10	13.472
363.46	13.133
363.82	13.832
364.18	13.583
364.54	13.967
364.90	13.244
365.26	12.574
365.62	13.002
365.98	13.002
366.35	12.894
366.71	14.100
367.07	13.474
367.43	13.498
367.79	13.776
368.15	13.362
368.51	13.081
368.87	13.847
369.23	13.314
369.59	13.324
369.95	13.015
370.31	14.174
370.67	13.406
371.03	14.007
371.39	13.411
371.75	13.750
372.11	13.229
372.47	13.710
372.83	12.392
373.19	13.584
373.55	13.156
373.91	14.065
374.27	13.265
374.63	12.291
374.99	13.489
375.35	12.840
375.71	13.434
376.07	13.992
376.42	12.999
376.78	13.386
377.14	13.569
377.50	12.980
377.86	12.500
378.22	13.148
378.58	12.719
378.94	12.005
379.30	12.405
379.66	12.437
380.02	11.732
380.38	12.325
380.74	12.665
381.09	12.653
381.45	12.477
381.81	13.391
382.17	11.975
382.53	12.390
382.89	12.346
383.25	11.632
383.61	12.330
383.97	12.695
384.32	11.978
384.68	12.515
385.04	12.047
385.40	11.950
385.76	12.285
386.12	11.334
386.48	12.587
386.83	11.995
387.19	12.369
387.55	12.121
387.91	11.971
388.27	11.772
388.62	11.801
388.98	11.732
389.34	12.203
389.70	12.017
390.06	12.674
390.42	12.257
390.77	12.277
391.13	11.295
391.49	11.802
391.85	11.903
392.20	10.915
392.56	11.742
392.92	11.830
393.28	10.651
393.64	11.511
393.99	11.240
394.35	11.538
394.71	11.731
395.07	12.087
395.42	11.805
395.78	11.323
396.14	11.732
396.50	12.218
396.85	11.634
397.21	11.652
397.57	11.965
397.92	11.779
398.28	10.874
398.64	12.007
399.00	11.248
399.35	10.998
399.71	10.764
400.07	11.886
400.42	11.779
400.78	11.942
401.14	11.098
401.49	11.522
401.85	11.071
402.21	10.898
402.57	11.043
402.92	11.160
403.28	11.743
403.63	11.510
403.99	11.146
404.35	11.697
404.70	10.612
405.06	11.415
405.42	11.478
405.77	10.743
406.13	11.851
406.49	11.118
406.84	11.341
407.20	11.229
407.55	11.359
407.91	11.467
408.27	11.168
408.62	11.258
408.98	11.336
409.34	11.316
409.69	10.645
410.05	10.409
410.40	11.498
410.76	11.410
411.11	11.460
411.47	10.799
411.83	11.301
412.18	11.317
412.54	11.083
412.89	11.386
413.25	11.452
413.60	11.180
413.96	9.957
414.31	10.450
414.67	11.343
415.03	11.325
415.38	11.405
415.74	10.997
416.09	11.692
416.45	10.576
416.80	11.566
417.16	11.461
417.51	11.281
417.87	11.561
418.22	11.293
418.58	12.008
418.93	10.995
419.29	11.776
419.64	12.028
420.00	10.976
420.35	11.304
420.71	11.835
421.06	10.859
421.42	11.228
421.77	11.379
422.12	10.500
422.48	10.146
422.83	11.066
423.19	10.939
423.54	11.608
423.90	11.304
424.25	11.167
424.61	10.833
424.96	11.137
425.31	10.963
425.67	10.787
426.02	11.543
426.38	11.783
426.73	10.942
427.09	11.550
427.44	10.868
427.79	10.638
428.15	11.548
428.50	11.527
428.85	11.561
429.21	11.099
429.56	10.679
429.92	10.518
430.27	10.576
430.62	10.394
430.98	11.053
431.33	11.186
431.68	10.942
432.04	10.703
432.39	11.422
432.74	11.730
433.10	12.054
433.45	11.370
433.80	11.031
434.16	11.378
434.51	11.474
434.86	10.832
435.22	11.228
435.57	11.064
435.92	11.118
436.28	11.269
436.63	12.307
436.98	10.933
437.34	10.674
437.69	12.194
438.04	10.736
438.39	12.000
438.75	12.318
439.10	11.341
439.45	11.216
439.81	11.722
440.16	11.632
440.51	11.599
440.86	11.754
441.22	10.957
441.57	11.837
441.92	10.952
442.27	11.141
442.63	11.374
442.98	12.169
443.33	11.522
443.68	11.203
444.03	11.420
444.39	10.565
444.74	11.742
445.09	11.536
445.44	11.154
445.79	11.479
446.15	11.858
446.50	11.309
446.85	10.946
447.20	11.270
447.55	11.837
447.91	10.921
448.26	11.519
448.61	12.267
448.96	11.628
449.31	12.373
449.66	12.212
450.02	11.588
450.37	11.168
450.72	11.280
451.07	11.822
451.42	11.185
451.77	12.507
452.12	12.760
452.47	12.500
452.83	12.005
453.18	12.531
453.53	12.801
453.88	11.931
454.23	11.775
454.58	12.538
454.93	13.032
455.28	12.032
455.63	12.743
455.98	13.274
456.34	11.746
456.69	12.962
457.04	12.074
457.39	11.864
457.74	11.724
458.09	12.536
458.44	11.859
458.79	11.876
459.14	12.528
459.49	12.434
459.84	12.299
460.19	11.903
460.54	12.442
460.89	11.684
461.24	12.690
461.59	13.306
461.94	12.947
462.29	13.175
462.64	12.508
462.99	12.557
463.34	12.600
463.69	12.508
464.04	13.043
464.39	13.507
464.74	12.715
465.09	11.942
465.44	12.133
465.79	11.745
466.14	12.808
466.49	12.125
466.84	12.201
467.19	13.156
467.54	13.500
467.89	11.945
468.24	12.973
468.59	13.797
468.94	12.523
469.29	12.789
469.64	13.655
469.99	12.991
470.34	13.210
470.68	13.362
471.03	13.129
471.38	13.343
471.73	13.857
472.08	14.079
472.43	12.814
472.78	12.377
473.13	12.901
473.48	13.171
473.83	13.232
474.17	12.632
474.52	12.903
474.87	13.193
475.22	12.420
475.57	12.144
475.92	11.577
476.27	12.289
476.61	12.796
476.96	12.644
477.31	11.983
477.66	12.910
478.01	12.703
478.36	13.273
478.70	12.409
479.05	12.513
479.40	12.794
479.75	12.811
480.10	12.376
480.45	11.851
480.79	11.849
481.14	12.818
481.49	12.482
481.84	12.300
482.19	12.676
482.53	12.569
482.88	12.238
483.23	12.757
483.58	13.239
483.92	12.933
484.27	11.939
484.62	11.897
484.97	12.298
485.31	12.158
485.66	10.988
486.01	10.483
486.36	10.168
486.70	10.377
487.05	10.622
487.40	11.134
487.75	11.309
488.09	11.586
488.44	11.574
488.79	12.369
489.13	11.956
489.48	11.990
489.83	11.739
490.17	12.407
490.52	12.400
490.87	12.438
491.22	12.187
491.56	11.891
491.91	12.006
492.26	12.402
492.60	12.396
492.95	11.833
493.30	12.570
493.64	12.646
493.99	12.163
494.34	12.118
494.68	13.049
495.03	12.923
495.37	12.471
495.72	12.719
496.07	12.900
496.41	11.991
496.76	12.841
497.11	12.607
497.45	12.809
497.80	12.044
498.14	12.657
498.49	12.244
498.84	12.943
499.18	12.333
499.53	12.726
499.87	12.209
500.22	12.906
500.56	13.252
500.91	11.971
501.26	12.897
501.60	12.767
501.95	12.695
502.29	12.465
502.64	12.849
502.98	12.669
503.33	12.340
503.67	12.436
504.02	12.816
504.36	12.775
504.71	12.311
505.06	12.627
505.40	12.737
505.75	12.102
506.09	12.974
506.44	12.136
506.78	12.908
507.13	12.872
507.47	13.030
507.82	12.969
508.16	12.867
508.51	13.546
508.85	12.959
509.19	12.704
509.54	13.367
509.88	12.571
510.23	12.853
510.57	13.674
510.92	13.154
511.26	13.618
511.61	13.849
511.95	13.100
512.30	12.619
512.64	13.057
512.98	13.987
513.33	13.651
513.67	12.807
514.02	12.933
514.36	13.435
514.70	13.226
515.05	13.274
515.39	13.685
515.74	13.514
516.08	14.645
516.42	14.095
516.77	14.437
517.11	13.818
517.46	13.262
517.80	13.589
518.14	13.376
518.49	13.769
518.83	13.466
519.17	13.164
519.52	13.299
519.86	13.805
520.20	14.740
520.55	14.183
520.89	13.869
521.23	14.174
521.58	14.466
521.92	13.901
522.26	13.423
522.61	14.206
522.95	13.505
523.29	13.694
523.64	14.268
523.98	13.185
524.32	13.812
524.66	14.612
525.01	14.154
525.35	14.002
525.69	14.594
526.04	12.960
526.38	14.033
526.72	13.742
527.06	13.559
527.41	11.757
527.75	14.148
528.09	14.194
528.43	13.767
528.78	13.952
529.12	13.758
529.46	12.921
529.80	14.604
530.15	14.019
530.49	13.415
530.83	13.734
531.17	14.556
531.51	14.202
531.86	14.129
532.20	14.407
532.54	14.222
532.88	14.634
533.22	13.429
533.57	13.827
533.91	12.402
534.25	13.244
534.59	13.179
534.93	13.504
535.27	12.975
535.62	13.004
535.96	13.120
536.30	13.223
536.64	13.071
536.98	14.399
537.32	13.562
537.66	13.800
538.01	14.549
538.35	14.803
538.69	13.848
539.03	13.710
539.37	13.738
539.71	12.767
540.05	13.529
540.39	12.957
540.73	12.872
541.07	12.459
541.42	13.177
541.76	13.484
542.10	14.036
542.44	13.444
542.78	14.032
543.12	13.564
543.46	13.246
543.80	14.509
544.14	11.874
544.48	14.159
544.82	12.829
545.16	13.142
545.50	13.496
545.84	12.634
546.18	12.997
546.52	14.384
546.86	13.196
547.20	14.160
547.54	14.362
547.88	14.031
548.22	13.512
548.56	13.522
548.90	12.996
549.24	12.862
549.58	13.574
549.92	14.080
550.26	12.997
550.60	13.970
550.94	13.944
551.28	13.021
551.62	14.306
551.96	13.965
552.30	14.130
552.64	14.131
552.98	13.898
553.32	14.160
553.66	13.497
554.00	14.207
554.34	13.941
554.68	14.306
555.02	14.951
555.36	14.196
555.69	13.599
556.03	13.526
556.37	14.256
556.71	14.393
557.05	13.585
557.39	14.486
557.73	14.044
558.07	14.721
558.41	13.821
558.75	15.430
559.08	15.063
559.42	13.908
559.76	14.779
560.10	14.775
560.44	14.885
560.78	13.839
561.12	13.786
561.45	14.146
561.79	14.634
562.13	14.621
562.47	13.661
562.81	13.459
563.15	13.712
563.48	13.992
563.82	14.220
564.16	13.865
564.50	13.672
564.84	12.579
565.17	13.642
565.51	13.610
565.85	14.086
566.19	13.400
566.52	13.806
566.86	13.020
567.20	13.502
567.54	12.842
567.88	12.765
568.21	13.545
568.55	12.841
568.89	12.354
569.23	12.478
569.56	12.186
569.90	12.302
570.24	11.984
570.57	11.833
570.91	11.312
571.25	11.272
571.59	11.635
571.92	11.089
572.26	11.525
572.60	11.622
572.93	11.154
573.27	11.210
573.61	11.307
573.95	11.550
574.28	10.754
574.62	10.763
574.96	10.824
575.29	10.742
575.63	11.306
575.97	10.857
576.30	11.152
576.64	10.766
576.98	11.011
577.31	11.067
577.65	10.923
577.98	10.776
578.32	10.584
578.66	10.671
578.99	10.819
579.33	10.700
579.67	11.165
580.00	11.005
580.34	11.035
580.67	10.919
581.01	11.356
581.35	11.086
581.68	10.768
582.02	10.897
582.35	10.759
582.69	11.048
583.02	11.195
583.36	11.114
583.70	11.613
584.03	11.964
584.37	11.937
584.70	11.912
585.04	11.570
585.37	11.719
585.71	12.124
586.04	11.790
586.38	12.043
586.72	12.096
587.05	12.143
587.39	12.322
587.72	12.059
588.06	12.220
588.39	12.455
588.73	12.438
589.06	13.088
589.40	13.266
589.73	13.340
590.07	13.274
590.40	13.007
590.73	13.193
591.07	14.001
591.40	13.792
591.74	13.636
592.07	13.918
592.41	14.014
592.74	12.996
593.08	13.258
593.41	13.002
593.75	12.586
594.08	13.376
594.41	13.786
594.75	13.826
595.08	13.529
595.42	13.800
595.75	13.497
596.09	14.345
596.42	14.695
596.75	14.183
597.09	15.022
597.42	13.153
597.75	14.360
598.09	14.478
598.42	13.617
598.76	13.174
599.09	13.835
599.42	13.501
599.76	13.909
600.09	13.260
600.42	13.587
600.76	13.464
601.09	13.479
601.42	13.889
601.76	13.928
602.09	13.320
602.42	14.132
602.76	14.107
603.09	13.965
603.42	13.784
603.76	14.024
604.09	13.610
604.42	13.861
604.76	14.382
605.09	14.067
605.42	14.151
605.75	13.825
606.09	13.420
606.42	13.690
606.75	14.226
607.09	14.650
607.42	14.163
607.75	13.376
608.08	13.895
608.42	14.657
608.75	14.518
609.08	13.876
609.41	14.564
609.75	14.435
610.08	14.326
610.41	14.339
610.74	14.617
611.07	15.020
611.41	13.935
611.74	14.781
612.07	14.752
612.40	15.058
612.73	14.368
613.07	14.709
613.40	14.376
613.73	13.319
614.06	14.301
614.39	14.421
614.72	14.000
615.06	14.496
615.39	14.968
615.72	14.571
616.05	14.567
616.38	14.619
616.71	14.252
617.05	14.605
617.38	14.732
617.71	15.195
618.04	14.964
618.37	14.311
618.70	14.686
619.03	15.789
619.36	14.460
619.69	15.634
620.03	15.385
620.36	15.040
620.69	15.685
621.02	14.676
621.35	15.348
621.68	15.343
622.01	15.248
622.34	15.582
622.67	14.753
623.00	15.334
623.33	14.939
623.66	15.368
623.99	14.654
624.32	14.622
624.65	14.760
624.99	14.943
625.32	14.772
625.65	15.177
625.98	15.527
626.31	16.330
626.64	15.429
626.97	16.791
627.30	15.711
627.63	16.981
627.96	15.896
628.29	16.535
628.62	17.658
628.95	17.925
629.28	15.602
629.61	16.774
629.94	16.286
630.26	15.634
630.59	15.634
630.92	15.709
