SpectraSuite Data File
++++++++++++++++++++++++++++++++++++
Date: Wed May 13 19:35:24 PDT 2015
User: schluterlab
Dark Spectrum Present: Yes
Reference Spectrum Present: Yes
Number of Sampled Component Spectra: 1
Spectrometers: USB2E3373
Integration Time (usec): 3000 (USB2E3373)
Spectra Averaged: 3 (USB2E3373)
Boxcar Smoothing: 0 (USB2E3373)
Correct for Electrical Dark: No (USB2E3373)
Strobe/Lamp Enabled: No (USB2E3373)
Correct for Detector Non-linearity: No (USB2E3373)
Correct for Stray Light: No (USB2E3373)
Number of Pixels in Processed Spectrum: 2048
>>>>>Begin Processed Spectral Data<<<<<
178.53	0.000
178.91	-1400.000
179.29	-1400.000
179.67	-272.222
180.04	-1200.000
180.42	2750.000
180.80	1020.000
181.18	-1350.000
181.56	871.429
181.94	0.000
182.31	-685.714
182.69	1800.000
183.07	-650.000
183.45	-577.778
183.83	518.182
184.20	-510.000
184.58	2850.000
184.96	6000.000
185.34	-880.000
185.72	-662.500
186.09	-2550.000
186.47	3400.000
186.85	2600.000
187.23	5300.000
187.61	-1833.333
187.98	1575.000
188.36	572.727
188.74	545.455
189.12	-840.000
189.49	620.000
189.87	-5000.000
190.25	-1375.000
190.63	528.571
191.00	484.615
191.38	916.667
191.76	-1125.000
192.14	1525.000
192.51	687.500
192.89	1150.000
193.27	700.000
193.65	-1225.000
194.02	510.000
194.40	1040.000
194.78	590.000
195.15	633.333
195.53	630.000
195.91	-2350.000
196.29	387.500
196.66	326.316
197.04	-450.000
197.42	0.000
197.79	620.000
198.17	-4700.000
198.55	771.429
198.92	762.500
199.30	1100.000
199.68	0.000
200.05	338.889
200.43	971.429
200.81	5100.000
201.18	1800.000
201.56	-1733.333
201.94	633.333
202.31	611.111
202.69	466.667
203.07	580.000
203.44	0.000
203.82	1350.000
204.19	742.857
204.57	442.857
204.95	612.500
205.32	1766.667
205.70	554.545
206.08	364.286
206.45	2500.000
206.83	412.500
207.20	1083.333
207.58	880.000
207.96	288.889
208.33	862.500
208.71	-850.000
209.08	842.857
209.46	633.333
209.84	500.000
210.21	-1600.000
210.59	1600.000
210.96	-450.000
211.34	2350.000
211.71	570.000
212.09	816.667
212.46	0.000
212.84	1966.667
213.22	1325.000
213.59	-5500.000
213.97	883.333
214.34	785.714
214.72	618.182
215.09	940.000
215.47	-2650.000
215.84	-2600.000
216.22	1933.333
216.59	492.857
216.97	1500.000
217.34	572.727
217.72	-800.000
218.09	0.000
218.47	-5100.000
218.84	600.000
219.22	885.714
219.59	1900.000
219.97	-771.429
220.34	1020.000
220.72	-1866.667
221.09	378.571
221.47	1700.000
221.84	-916.667
222.22	0.000
222.59	1550.000
222.97	-3000.000
223.34	1240.000
223.72	415.385
224.09	1020.000
224.46	2400.000
224.84	-5500.000
225.21	-1200.000
225.59	-5100.000
225.96	610.000
226.34	355.000
226.71	2900.000
227.08	662.500
227.46	540.000
227.83	-1225.000
228.21	-2750.000
228.58	766.667
228.95	-2700.000
229.33	-2300.000
229.70	1800.000
230.08	814.286
230.45	-940.000
230.82	491.667
231.20	833.333
231.57	757.143
231.95	475.000
232.32	236.364
232.69	445.455
233.07	671.429
233.44	392.308
233.81	-1933.333
234.19	300.000
234.56	466.667
234.93	391.667
235.31	527.273
235.68	346.154
236.05	335.714
236.43	175.758
236.80	315.789
237.17	4200.000
237.55	242.857
237.92	214.286
238.29	238.095
238.67	154.839
239.04	203.448
239.41	125.000
239.79	139.130
240.16	142.857
240.53	125.000
240.91	101.961
241.28	92.000
241.65	90.000
242.02	92.754
242.40	87.097
242.77	81.667
243.14	65.591
243.51	66.292
243.89	67.059
244.26	55.556
244.63	58.065
245.00	61.702
245.38	53.465
245.75	50.467
246.12	38.532
246.49	47.445
246.87	56.800
247.24	45.385
247.61	48.571
247.98	33.333
248.36	27.703
248.73	33.758
249.10	34.395
249.47	32.768
249.84	36.898
250.22	32.086
250.59	27.811
250.96	29.798
251.33	30.332
251.70	32.178
252.08	26.667
252.45	24.664
252.82	21.304
253.19	24.681
253.56	23.922
253.94	25.726
254.31	21.875
254.68	23.846
255.05	23.616
255.42	19.106
255.79	22.794
256.16	21.661
256.54	21.908
256.91	18.505
257.28	17.986
257.65	19.472
258.02	18.944
258.39	16.719
258.76	17.726
259.14	15.774
259.51	18.541
259.88	13.975
260.25	16.918
260.62	15.318
260.99	15.839
261.36	19.219
261.73	17.192
262.10	13.663
262.47	16.338
262.85	16.435
263.22	14.530
263.59	16.809
263.96	15.934
264.33	15.405
264.70	15.263
265.07	17.903
265.44	15.909
265.81	14.112
266.18	15.578
266.55	13.659
266.92	14.988
267.29	15.972
267.66	14.220
268.03	14.773
268.40	12.617
268.77	10.979
269.14	13.739
269.51	14.221
269.88	13.986
270.25	15.801
270.62	13.034
270.99	15.699
271.36	12.446
271.73	11.449
272.10	11.739
272.47	14.194
272.84	13.203
273.21	12.998
273.58	10.262
273.95	11.321
274.32	12.190
274.69	13.704
275.06	12.795
275.43	10.851
275.80	12.024
276.17	11.813
276.54	12.058
276.91	12.648
277.28	12.305
277.65	11.799
278.02	10.352
278.39	11.328
278.76	11.273
279.13	11.698
279.50	12.104
279.87	11.355
280.23	10.379
280.60	9.284
280.97	11.275
281.34	12.920
281.71	12.727
282.08	10.940
282.45	10.182
282.82	11.012
283.19	9.269
283.56	11.053
283.92	11.337
284.29	10.406
284.66	9.619
285.03	10.669
285.40	11.092
285.77	9.428
286.14	9.326
286.51	10.667
286.87	10.598
287.24	11.238
287.61	12.199
287.98	10.552
288.35	9.350
288.72	9.346
289.08	10.485
289.45	10.214
289.82	9.106
290.19	8.791
290.56	8.729
290.93	7.402
291.29	9.202
291.66	9.735
292.03	12.209
292.40	11.013
292.77	9.615
293.13	9.851
293.50	9.038
293.87	9.630
294.24	8.000
294.60	9.170
294.97	7.558
295.34	9.591
295.71	9.091
296.08	9.687
296.44	7.703
296.81	8.454
297.18	10.027
297.55	6.596
297.91	6.728
298.28	9.371
298.65	8.877
299.02	6.719
299.38	7.304
299.75	6.199
300.12	7.663
300.48	8.625
300.85	6.782
301.22	8.280
301.59	7.449
301.95	8.186
302.32	8.087
302.69	8.363
303.05	8.121
303.42	6.914
303.79	7.361
304.15	7.343
304.52	6.721
304.89	6.969
305.25	6.845
305.62	7.928
305.99	7.438
306.35	7.047
306.72	6.951
307.09	7.547
307.45	8.446
307.82	6.808
308.19	7.174
308.55	7.335
308.92	7.197
309.29	5.174
309.65	6.151
310.02	6.765
310.38	6.774
310.75	6.336
311.12	7.165
311.48	7.001
311.85	7.128
312.22	6.452
312.58	5.405
312.95	6.758
313.31	5.146
313.68	7.588
314.05	8.087
314.41	6.834
314.78	6.647
315.14	6.852
315.51	7.312
315.87	6.733
316.24	5.660
316.61	6.140
316.97	6.067
317.34	5.675
317.70	6.501
318.07	7.218
318.43	6.262
318.80	7.966
319.16	7.439
319.53	6.660
319.89	7.048
320.26	7.500
320.62	6.647
320.99	7.576
321.35	6.263
321.72	6.366
322.08	6.811
322.45	7.960
322.81	7.752
323.18	7.803
323.54	7.050
323.91	7.453
324.27	7.170
324.64	6.244
325.00	6.583
325.37	7.461
325.73	7.989
326.10	7.767
326.46	7.527
326.83	7.420
327.19	6.917
327.56	6.882
327.92	7.787
328.29	7.453
328.65	6.906
329.01	7.491
329.38	6.383
329.74	7.479
330.11	7.163
330.47	8.173
330.84	9.651
331.20	7.013
331.56	6.972
331.93	7.315
332.29	7.631
332.66	9.115
333.02	7.587
333.38	7.227
333.75	8.734
334.11	7.473
334.48	7.453
334.84	7.721
335.20	8.091
335.57	7.434
335.93	6.429
336.29	8.059
336.66	8.476
337.02	7.059
337.38	7.685
337.75	7.754
338.11	7.431
338.47	6.722
338.84	6.508
339.20	5.963
339.56	8.759
339.93	6.909
340.29	7.156
340.65	8.200
341.02	7.504
341.38	8.363
341.74	7.544
342.11	7.424
342.47	7.401
342.83	7.534
343.20	7.879
343.56	7.077
343.92	7.456
344.28	7.398
344.65	6.965
345.01	6.987
345.37	5.832
345.73	8.291
346.10	7.246
346.46	6.949
346.82	7.084
347.19	6.182
347.55	6.814
347.91	7.605
348.27	7.724
348.63	7.191
349.00	6.877
349.36	6.404
349.72	7.939
350.08	6.726
350.45	7.323
350.81	6.336
351.17	7.293
351.53	5.979
351.89	5.941
352.26	7.656
352.62	6.977
352.98	6.564
353.34	7.231
353.70	6.137
354.07	6.371
354.43	6.508
354.79	6.114
355.15	5.986
355.51	7.434
355.87	6.449
356.24	5.537
356.60	7.137
356.96	5.632
357.32	6.296
357.68	6.693
358.04	6.809
358.40	7.601
358.77	6.964
359.13	6.472
359.49	6.980
359.85	5.000
360.21	6.140
360.57	7.004
360.93	6.846
361.29	6.803
361.66	6.656
362.02	7.388
362.38	6.464
362.74	5.952
363.10	5.699
363.46	6.310
363.82	6.198
364.18	6.094
364.54	6.686
364.90	7.153
365.26	5.809
365.62	6.428
365.98	5.478
366.35	6.089
366.71	5.568
367.07	6.264
367.43	5.951
367.79	6.353
368.15	6.897
368.51	6.032
368.87	7.066
369.23	5.925
369.59	6.589
369.95	6.691
370.31	6.054
370.67	6.304
371.03	6.142
371.39	6.341
371.75	6.103
372.11	5.477
372.47	6.818
372.83	6.052
373.19	5.853
373.55	5.913
373.91	6.922
374.27	5.017
374.63	5.527
374.99	6.073
375.35	4.815
375.71	6.237
376.07	6.379
376.42	5.365
376.78	5.898
377.14	5.902
377.50	6.026
377.86	5.053
378.22	5.942
378.58	4.762
378.94	5.028
379.30	5.153
379.66	5.520
380.02	5.528
380.38	5.647
380.74	4.682
381.09	6.174
381.45	5.716
381.81	6.204
382.17	5.350
382.53	5.472
382.89	5.062
383.25	5.316
383.61	5.762
383.97	6.004
384.32	5.552
384.68	5.638
385.04	5.286
385.40	5.387
385.76	5.098
386.12	5.505
386.48	5.160
386.83	4.939
387.19	5.504
387.55	5.690
387.91	5.260
388.27	4.844
388.62	5.224
388.98	5.037
389.34	6.070
389.70	5.641
390.06	6.147
390.42	5.188
390.77	6.107
391.13	5.743
391.49	5.393
391.85	5.092
392.20	4.732
392.56	5.871
392.92	5.474
393.28	4.556
393.64	5.096
393.99	6.048
394.35	4.839
394.71	5.144
395.07	4.798
395.42	5.501
395.78	5.216
396.14	5.835
396.50	5.639
396.85	5.213
397.21	5.425
397.57	5.208
397.92	5.349
398.28	4.765
398.64	6.332
399.00	5.148
399.35	5.076
399.71	5.498
400.07	5.618
400.42	5.706
400.78	6.212
401.14	4.756
401.49	5.373
401.85	5.142
402.21	5.210
402.57	5.305
402.92	5.612
403.28	5.497
403.63	4.889
403.99	5.159
404.35	5.758
404.70	4.616
405.06	4.892
405.42	5.864
405.77	4.686
406.13	4.910
406.49	5.441
406.84	5.375
407.20	5.496
407.55	4.914
407.91	5.800
408.27	5.233
408.62	5.418
408.98	5.086
409.34	5.412
409.69	6.129
410.05	5.204
410.40	6.055
410.76	5.556
411.11	5.428
411.47	5.751
411.83	5.925
412.18	5.195
412.54	6.351
412.89	5.783
413.25	4.959
413.60	5.744
413.96	5.647
414.31	5.468
414.67	5.894
415.03	5.894
415.38	5.799
415.74	6.109
416.09	5.617
416.45	5.957
416.80	4.825
417.16	6.971
417.51	6.503
417.87	5.395
418.22	5.868
418.58	6.520
418.93	6.511
419.29	5.983
419.64	6.297
420.00	5.549
420.35	5.681
420.71	6.216
421.06	5.788
421.42	6.082
421.77	5.998
422.12	4.548
422.48	5.127
422.83	5.358
423.19	5.801
423.54	5.514
423.90	5.855
424.25	5.639
424.61	5.655
424.96	5.481
425.31	5.980
425.67	5.843
426.02	5.086
426.38	5.617
426.73	5.734
427.09	5.836
427.44	5.348
427.79	5.865
428.15	5.833
428.50	5.793
428.85	6.675
429.21	5.411
429.56	4.562
429.92	5.586
430.27	5.164
430.62	5.018
430.98	5.708
431.33	5.619
431.68	6.178
432.04	5.485
432.39	6.111
432.74	5.805
433.10	5.376
433.45	6.064
433.80	5.820
434.16	5.823
434.51	5.789
434.86	6.100
435.22	5.503
435.57	5.350
435.92	6.085
436.28	6.880
436.63	6.236
436.98	5.438
437.34	5.903
437.69	6.301
438.04	5.902
438.39	6.507
438.75	6.334
439.10	5.922
439.45	6.434
439.81	5.619
440.16	5.929
440.51	6.327
440.86	5.964
441.22	6.062
441.57	5.626
441.92	6.039
442.27	6.351
442.63	6.056
442.98	6.197
443.33	6.413
443.68	6.144
444.03	5.515
444.39	4.820
444.74	5.519
445.09	6.253
445.44	5.741
445.79	5.641
446.15	6.141
446.50	5.816
446.85	6.064
447.20	6.221
447.55	6.142
447.91	5.681
448.26	6.066
448.61	7.123
448.96	6.257
449.31	6.468
449.66	6.134
450.02	5.237
450.37	6.349
450.72	6.543
451.07	6.216
451.42	6.809
451.77	6.166
452.12	7.102
452.47	6.157
452.83	6.235
453.18	6.907
453.53	7.236
453.88	5.375
454.23	6.575
454.58	6.602
454.93	6.675
455.28	6.172
455.63	6.311
455.98	7.083
456.34	6.344
456.69	6.387
457.04	6.811
457.39	6.897
457.74	6.616
458.09	6.440
458.44	6.385
458.79	5.803
459.14	6.208
459.49	6.188
459.84	5.928
460.19	6.070
460.54	6.539
460.89	6.089
461.24	6.618
461.59	7.496
461.94	6.658
462.29	7.003
462.64	6.828
462.99	6.311
463.34	7.133
463.69	6.629
464.04	6.957
464.39	6.435
464.74	6.892
465.09	5.850
465.44	5.928
465.79	5.761
466.14	6.787
466.49	6.174
466.84	7.180
467.19	6.880
467.54	6.937
467.89	6.903
468.24	6.748
468.59	6.532
468.94	6.842
469.29	6.620
469.64	7.296
469.99	7.037
470.34	6.737
470.68	6.968
471.03	6.531
471.38	7.853
471.73	7.262
472.08	7.500
472.43	6.847
472.78	7.110
473.13	6.739
473.48	7.054
473.83	6.585
474.17	6.347
474.52	7.072
474.87	7.180
475.22	7.313
475.57	6.663
475.92	6.267
476.27	6.483
476.61	6.122
476.96	5.992
477.31	6.332
477.66	6.072
478.01	6.325
478.36	6.452
478.70	6.023
479.05	6.496
479.40	7.011
479.75	6.304
480.10	6.064
480.45	6.283
480.79	5.638
481.14	6.262
481.49	6.739
481.84	6.356
482.19	5.816
482.53	6.514
482.88	6.142
483.23	6.215
483.58	6.233
483.92	5.998
484.27	5.664
484.62	6.164
484.97	5.164
485.31	5.445
485.66	4.769
486.01	4.108
486.36	4.061
486.70	3.971
487.05	4.488
487.40	4.622
487.75	5.148
488.09	5.096
488.44	5.137
488.79	5.570
489.13	5.806
489.48	5.465
489.83	5.740
490.17	6.181
490.52	6.200
490.87	5.473
491.22	6.230
491.56	5.285
491.91	6.049
492.26	6.201
492.60	6.037
492.95	5.426
493.30	5.701
493.64	5.646
493.99	6.035
494.34	6.152
494.68	5.540
495.03	5.968
495.37	6.282
495.72	5.750
496.07	6.172
496.41	5.796
496.76	6.157
497.11	6.213
497.45	5.962
497.80	5.950
498.14	5.700
498.49	5.951
498.84	6.520
499.18	6.143
499.53	5.888
499.87	6.058
500.22	6.406
500.56	6.942
500.91	6.106
501.26	6.259
501.60	6.360
501.95	5.958
502.29	6.092
502.64	6.006
502.98	5.470
503.33	5.759
503.67	6.172
504.02	6.408
504.36	6.458
504.71	6.595
505.06	6.747
505.40	6.368
505.75	6.461
506.09	5.782
506.44	5.673
506.78	6.430
507.13	6.461
507.47	6.818
507.82	6.687
508.16	6.180
508.51	7.052
508.85	6.852
509.19	6.735
509.54	6.276
509.88	6.801
510.23	6.118
510.57	7.121
510.92	6.473
511.26	6.989
511.61	6.691
511.95	6.367
512.30	6.628
512.64	6.394
512.98	6.592
513.33	6.906
513.67	6.777
514.02	6.331
514.36	7.318
514.70	6.198
515.05	6.302
515.39	6.786
515.74	7.545
516.08	6.987
516.42	7.436
516.77	7.525
517.11	6.715
517.46	7.167
517.80	6.911
518.14	6.427
518.49	7.118
518.83	7.727
519.17	6.755
519.52	7.357
519.86	7.416
520.20	7.457
520.55	7.481
520.89	7.299
521.23	8.263
521.58	7.563
521.92	7.471
522.26	7.016
522.61	7.165
522.95	7.060
523.29	6.634
523.64	7.378
523.98	6.962
524.32	7.660
524.66	8.298
525.01	7.475
525.35	7.311
525.69	7.512
526.04	7.726
526.38	7.627
526.72	7.914
527.06	7.470
527.41	7.302
527.75	7.846
528.09	7.386
528.43	8.477
528.78	8.052
529.12	7.091
529.46	7.410
529.80	7.611
530.15	7.664
530.49	8.000
530.83	7.975
531.17	7.833
531.51	8.560
531.86	7.613
532.20	8.214
532.54	8.905
532.88	7.510
533.22	7.808
533.57	7.593
533.91	7.345
534.25	7.898
534.59	7.566
534.93	8.507
535.27	7.544
535.62	7.814
535.96	8.223
536.30	7.883
536.64	8.628
536.98	8.825
537.32	8.097
537.66	8.200
538.01	8.229
538.35	8.597
538.69	9.317
539.03	8.317
539.37	7.029
539.71	7.194
540.05	7.516
540.39	7.907
540.73	8.279
541.07	8.436
541.42	8.741
541.76	8.645
542.10	8.862
542.44	7.815
542.78	9.025
543.12	7.678
543.46	8.852
543.80	8.783
544.14	7.895
544.48	8.698
544.82	8.018
545.16	8.263
545.50	7.905
545.84	8.669
546.18	9.024
546.52	9.016
546.86	7.973
547.20	8.564
547.54	8.350
547.88	9.375
548.22	8.780
548.56	8.679
548.90	8.003
549.24	7.744
549.58	8.868
549.92	9.341
550.26	8.949
550.60	8.575
550.94	8.944
551.28	8.413
551.62	9.561
551.96	7.719
552.30	8.259
552.64	9.060
552.98	9.424
553.32	9.912
553.66	9.611
554.00	8.511
554.34	8.765
554.68	9.657
555.02	8.463
555.36	9.395
555.69	8.593
556.03	8.748
556.37	9.413
556.71	8.868
557.05	8.613
557.39	8.887
557.73	9.809
558.07	8.484
558.41	8.321
558.75	9.258
559.08	9.321
559.42	8.239
559.76	8.309
560.10	8.994
560.44	9.154
560.78	8.849
561.12	9.301
561.45	9.192
561.79	8.570
562.13	7.981
562.47	8.743
562.81	9.135
563.15	8.829
563.48	9.615
563.82	8.415
564.16	8.241
564.50	7.357
564.84	9.292
565.17	8.623
565.51	8.626
565.85	8.883
566.19	8.140
566.52	8.486
566.86	8.559
567.20	8.432
567.54	8.162
567.88	7.659
568.21	8.519
568.55	7.583
568.89	7.247
569.23	7.620
569.56	7.530
569.90	7.396
570.24	6.961
570.57	6.868
570.91	6.820
571.25	6.856
571.59	6.598
571.92	6.336
572.26	6.759
572.60	6.757
572.93	6.447
573.27	6.832
573.61	6.644
573.95	6.641
574.28	6.457
574.62	6.438
574.96	5.902
575.29	6.499
575.63	6.225
575.97	6.248
576.30	6.957
576.64	6.090
576.98	5.980
577.31	6.493
577.65	6.254
577.98	5.931
578.32	5.997
578.66	6.101
578.99	6.072
579.33	6.366
579.67	5.984
580.00	6.234
580.34	6.455
580.67	6.192
581.01	6.499
581.35	6.054
581.68	6.100
582.02	5.930
582.35	6.112
582.69	6.291
583.02	5.859
583.36	6.641
583.70	6.718
584.03	6.296
584.37	6.693
584.70	6.374
585.04	6.531
585.37	6.361
585.71	6.814
586.04	6.741
586.38	6.505
586.72	6.904
587.05	6.493
587.39	6.227
587.72	6.674
588.06	6.537
588.39	6.584
588.73	6.512
589.06	7.105
589.40	6.599
589.73	6.723
590.07	7.758
590.40	6.650
590.73	6.831
591.07	7.530
591.40	7.592
591.74	7.835
592.07	7.766
592.41	7.152
592.74	7.266
593.08	6.929
593.41	7.181
593.75	7.089
594.08	6.906
594.41	7.176
594.75	6.654
595.08	7.480
595.42	7.110
595.75	6.695
596.09	7.886
596.42	7.701
596.75	6.965
597.09	8.052
597.42	6.872
597.75	8.064
598.09	7.870
598.42	7.775
598.76	7.013
599.09	7.336
599.42	7.351
599.76	7.247
600.09	7.505
600.42	6.684
600.76	6.750
601.09	6.958
601.42	7.306
601.76	7.135
602.09	7.391
602.42	7.803
602.76	7.739
603.09	7.081
603.42	7.458
603.76	7.431
604.09	7.290
604.42	7.419
604.76	8.140
605.09	7.296
605.42	7.995
605.75	7.492
606.09	7.239
606.42	7.111
606.75	7.673
607.09	8.162
607.42	7.531
607.75	7.173
608.08	7.295
608.42	8.068
608.75	7.800
609.08	7.539
609.41	8.139
609.75	7.575
610.08	8.106
610.41	7.542
610.74	7.521
611.07	7.609
611.41	8.342
611.74	8.346
612.07	8.644
612.40	7.817
612.73	8.105
613.07	8.405
613.40	8.636
613.73	7.656
614.06	8.011
614.39	9.019
614.72	8.421
615.06	7.931
615.39	7.909
615.72	8.333
616.05	8.187
616.38	8.894
616.71	9.086
617.05	9.069
617.38	8.719
617.71	8.649
618.04	8.954
618.37	8.397
618.70	9.210
619.03	9.803
619.36	9.029
619.69	9.437
620.03	9.478
620.36	9.291
620.69	9.795
621.02	9.808
621.35	9.945
621.68	8.956
622.01	9.830
622.34	9.531
622.67	9.506
623.00	9.318
623.33	8.292
623.66	10.150
623.99	9.647
624.32	9.772
624.65	9.605
624.99	9.065
625.32	8.979
625.65	9.617
625.98	9.608
626.31	10.809
626.64	10.041
626.97	9.892
627.30	9.393
627.63	10.993
627.96	10.008
628.29	10.061
628.62	11.253
628.95	10.849
629.28	11.223
629.61	11.457
629.94	11.524
630.26	11.249
630.59	10.677
630.92	10.824
631.25	10.563
631.58	11.612
631.91	10.852
632.24	11.814
632.57	11.123
632.90	10.965
633.23	11.969
633.56	12.090
633.89	12.344
634.22	12.713
634.55	12.071
634.88	11.737
635.20	13.740
635.53	11.566
635.86	12.871
636.19	11.294
636.52	12.687
636.85	11.913
637.18	11.751
637.51	12.293
637.83	12.207
638.16	11.509
638.49	13.980
638.82	12.769
639.15	12.875
639.48	12.843
639.81	13.137
640.13	13.411
640.46	13.154
640.79	13.474
641.12	11.554
641.45	13.128
641.77	12.960
642.10	14.327
642.43	13.363
642.76	13.932
643.09	13.344
643.41	13.354
643.74	14.969
644.07	15.396
644.40	15.951
644.73	14.488
645.05	14.897
645.38	13.744
645.71	13.527
646.04	13.621
646.36	17.028
646.69	14.716
647.02	15.306
647.35	14.777
647.67	15.398
648.00	15.122
648.33	13.696
648.66	13.485
648.98	14.843
649.31	12.556
649.64	13.602
649.96	13.711
650.29	13.902
650.62	11.650
650.94	15.397
651.27	16.554
651.60	12.978
651.92	15.176
