SpectraSuite Data File
++++++++++++++++++++++++++++++++++++
Date: Wed May 13 19:44:46 PDT 2015
User: schluterlab
Dark Spectrum Present: Yes
Reference Spectrum Present: Yes
Number of Sampled Component Spectra: 1
Spectrometers: USB2E3373
Integration Time (usec): 3000 (USB2E3373)
Spectra Averaged: 3 (USB2E3373)
Boxcar Smoothing: 0 (USB2E3373)
Correct for Electrical Dark: No (USB2E3373)
Strobe/Lamp Enabled: No (USB2E3373)
Correct for Detector Non-linearity: No (USB2E3373)
Correct for Stray Light: No (USB2E3373)
Number of Pixels in Processed Spectrum: 2048
>>>>>Begin Processed Spectral Data<<<<<
178.53	0.000
178.91	-1275.000
179.29	-1250.000
179.67	-183.333
180.04	-1375.000
180.42	2150.000
180.80	1100.000
181.18	-1125.000
181.56	614.286
181.94	0.000
182.31	-685.714
182.69	1800.000
183.07	-550.000
183.45	-477.778
183.83	490.909
184.20	-430.000
184.58	1950.000
184.96	5000.000
185.34	-840.000
185.72	-562.500
186.09	-2650.000
186.47	2200.000
186.85	2350.000
187.23	4200.000
187.61	-1433.333
187.98	1425.000
188.36	436.364
188.74	536.364
189.12	-840.000
189.49	510.000
189.87	-4400.000
190.25	-1125.000
190.63	421.429
191.00	400.000
191.38	700.000
191.76	-1175.000
192.14	1150.000
192.51	725.000
192.89	1000.000
193.27	650.000
193.65	-1300.000
194.02	460.000
194.40	1040.000
194.78	580.000
195.15	458.333
195.53	640.000
195.91	-2050.000
196.29	362.500
196.66	257.895
197.04	-340.000
197.42	0.000
197.79	650.000
198.17	-4500.000
198.55	771.429
198.92	725.000
199.30	1000.000
199.68	0.000
200.05	355.556
200.43	785.714
200.81	3600.000
201.18	1533.333
201.56	-1600.000
201.94	466.667
202.31	511.111
202.69	433.333
203.07	650.000
203.44	0.000
203.82	1225.000
204.19	757.143
204.57	378.571
204.95	687.500
205.32	1900.000
205.70	536.364
206.08	335.714
206.45	2750.000
206.83	350.000
207.20	816.667
207.58	860.000
207.96	327.778
208.33	712.500
208.71	-850.000
209.08	700.000
209.46	488.889
209.84	472.727
210.21	-1433.333
210.59	1350.000
210.96	-425.000
211.34	2800.000
211.71	660.000
212.09	683.333
212.46	0.000
212.84	1700.000
213.22	1225.000
213.59	-4500.000
213.97	983.333
214.34	742.857
214.72	518.182
215.09	1160.000
215.47	-2350.000
215.84	-2350.000
216.22	1533.333
216.59	428.571
216.97	1250.000
217.34	500.000
217.72	-750.000
218.09	0.000
218.47	-4800.000
218.84	633.333
219.22	771.429
219.59	1466.667
219.97	-585.714
220.34	720.000
220.72	-1400.000
221.09	421.429
221.47	1300.000
221.84	-783.333
222.22	0.000
222.59	1350.000
222.97	-2600.000
223.34	1020.000
223.72	430.769
224.09	1200.000
224.46	2600.000
224.84	-5200.000
225.21	-1060.000
225.59	-4900.000
225.96	660.000
226.34	295.000
226.71	2500.000
227.08	712.500
227.46	540.000
227.83	-925.000
228.21	-2850.000
228.58	566.667
228.95	-2150.000
229.33	-2800.000
229.70	1600.000
230.08	728.571
230.45	-980.000
230.82	483.333
231.20	900.000
231.57	671.429
231.95	408.333
232.32	213.636
232.69	418.182
233.07	742.857
233.44	284.615
233.81	-1266.667
234.19	273.684
234.56	366.667
234.93	358.333
235.31	463.636
235.68	330.769
236.05	307.143
236.43	157.576
236.80	236.842
237.17	4500.000
237.55	247.619
237.92	178.571
238.29	247.619
238.67	154.839
239.04	210.345
239.41	130.556
239.79	119.565
240.16	107.143
240.53	84.091
240.91	82.353
241.28	108.000
241.65	100.000
242.02	81.159
242.40	75.806
242.77	73.333
243.14	59.140
243.51	67.416
243.89	52.941
244.26	53.333
244.63	51.613
245.00	51.064
245.38	46.535
245.75	48.598
246.12	44.954
246.49	48.905
246.87	51.200
247.24	37.692
247.61	42.143
247.98	43.791
248.36	29.730
248.73	33.758
249.10	32.484
249.47	32.203
249.84	33.155
250.22	25.134
250.59	26.627
250.96	26.768
251.33	27.962
251.70	27.723
252.08	26.190
252.45	22.870
252.82	22.174
253.19	25.106
253.56	26.275
253.94	22.822
254.31	23.437
254.68	23.077
255.05	18.081
255.42	15.854
255.79	18.750
256.16	21.661
256.54	16.608
256.91	19.217
257.28	18.345
257.65	17.162
258.02	17.391
258.39	17.981
258.76	17.726
259.14	18.750
259.51	12.766
259.88	14.907
260.25	17.523
260.62	18.786
260.99	14.596
261.36	16.817
261.73	14.900
262.10	15.407
262.47	14.930
262.85	15.599
263.22	13.390
263.59	15.385
263.96	15.110
264.33	16.188
264.70	13.421
265.07	14.322
265.44	14.899
265.81	14.599
266.18	14.070
266.55	13.902
266.92	14.496
267.29	12.500
267.66	13.073
268.03	13.409
268.40	12.850
268.77	9.308
269.14	15.315
269.51	15.801
269.88	13.520
270.25	13.093
270.62	11.461
270.99	14.409
271.36	12.446
271.73	8.879
272.10	11.739
272.47	12.258
272.84	11.255
273.21	13.627
273.58	10.262
273.95	10.901
274.32	11.157
274.69	13.490
275.06	12.008
275.43	12.766
275.80	11.824
276.17	11.609
276.54	12.682
276.91	11.067
277.28	11.133
277.65	11.219
278.02	10.559
278.39	12.695
278.76	10.727
279.13	12.264
279.50	13.780
279.87	10.956
280.23	10.579
280.60	9.478
280.97	9.612
281.34	10.796
281.71	10.727
282.08	11.708
282.45	8.909
282.82	11.012
283.19	9.804
283.56	10.175
283.92	13.198
284.29	10.229
284.66	9.256
285.03	9.403
285.40	8.627
285.77	9.428
286.14	7.945
286.51	8.833
286.87	11.282
287.24	10.586
287.61	9.791
287.98	10.390
288.35	8.875
288.72	10.436
289.08	11.111
289.45	9.226
289.82	10.732
290.19	8.948
290.56	9.954
290.93	8.006
291.29	6.595
291.66	10.177
292.03	9.738
292.40	9.838
292.77	8.580
293.13	8.358
293.50	9.184
293.87	8.296
294.24	8.000
294.60	7.569
294.97	9.157
295.34	9.732
295.71	8.665
296.08	8.832
296.44	8.666
296.81	8.719
297.18	9.621
297.55	6.332
297.91	8.311
298.28	8.969
298.65	8.486
299.02	8.037
299.38	8.499
299.75	6.334
300.12	7.152
300.48	8.000
300.85	7.152
301.22	7.134
301.59	6.566
301.95	6.927
302.32	7.189
302.69	8.363
303.05	6.909
303.42	6.049
303.79	8.607
304.15	7.459
304.52	7.184
304.89	6.969
305.25	7.425
305.62	8.720
305.99	7.556
306.35	8.389
306.72	8.072
307.09	7.436
307.45	8.671
307.82	6.138
308.19	7.064
308.55	7.983
308.92	7.626
309.29	7.075
309.65	7.529
310.02	7.188
310.38	8.065
310.75	6.230
311.12	8.393
311.48	7.001
311.85	7.862
312.22	7.492
312.58	8.004
312.95	9.504
313.31	6.990
313.68	7.588
314.05	9.961
314.41	9.045
314.78	6.949
315.14	8.441
315.51	7.724
315.87	6.931
316.24	7.349
316.61	6.433
316.97	7.828
317.34	5.871
317.70	7.457
318.07	6.737
318.43	6.751
318.80	8.529
319.16	7.062
319.53	6.473
319.89	7.429
320.26	7.300
320.62	7.341
320.99	8.485
321.35	9.192
321.72	6.776
322.08	7.404
322.45	8.060
322.81	7.752
323.18	7.611
323.54	7.607
323.91	8.396
324.27	7.839
324.64	6.431
325.00	6.673
325.37	8.189
325.73	8.707
326.10	7.679
326.46	7.616
326.83	8.369
327.19	7.600
327.56	6.620
327.92	8.574
328.29	7.631
328.65	7.182
329.01	8.213
329.38	7.586
329.74	8.033
330.11	7.917
330.47	8.173
330.84	8.640
331.20	7.468
331.56	8.440
331.93	6.759
332.29	8.518
332.66	8.142
333.02	7.495
333.38	7.859
333.75	7.754
334.11	7.918
334.48	6.211
334.84	7.169
335.20	7.364
335.57	6.709
335.93	6.786
336.29	6.868
336.66	7.394
337.02	6.787
337.38	6.667
337.75	7.130
338.11	7.252
338.47	6.906
338.84	7.699
339.20	7.156
339.56	7.664
339.93	7.000
340.29	6.793
340.65	6.417
341.02	6.806
341.38	6.673
341.74	6.053
342.11	6.725
342.47	7.753
342.83	7.449
343.20	8.139
343.56	7.329
343.92	6.579
344.28	7.398
344.65	7.137
345.01	6.650
345.37	6.690
345.73	6.430
346.10	6.991
346.46	6.864
346.82	6.672
347.19	6.516
347.55	6.322
347.91	6.634
348.27	6.984
348.63	6.856
349.00	6.553
349.36	6.732
349.72	7.298
350.08	6.564
350.45	7.323
350.81	6.661
351.17	6.483
351.53	6.143
351.89	6.271
352.26	6.946
352.62	7.298
352.98	6.969
353.34	6.163
353.70	5.728
354.07	5.968
354.43	6.111
354.79	6.436
355.15	6.704
355.51	6.475
355.87	6.857
356.24	6.433
356.60	5.934
356.96	6.195
357.32	6.378
357.68	7.087
358.04	5.384
358.40	7.205
358.77	5.947
359.13	5.525
359.49	6.039
359.85	4.286
360.21	4.067
360.57	6.226
360.93	6.231
361.29	6.954
361.66	5.263
362.02	7.239
362.38	5.779
362.74	5.952
363.10	5.033
363.46	5.723
363.82	5.820
364.18	6.461
364.54	5.795
364.90	6.303
365.26	6.029
365.62	6.793
365.98	5.551
366.35	4.728
366.71	6.218
367.07	5.462
367.43	5.080
367.79	5.782
368.15	6.537
368.51	5.451
368.87	5.924
369.23	5.779
369.59	5.431
369.95	4.559
370.31	5.057
370.67	5.435
371.03	6.142
371.39	5.904
371.75	4.779
372.11	6.330
372.47	5.425
372.83	6.124
373.19	5.636
373.55	5.174
373.91	6.701
374.27	5.155
374.63	5.236
374.99	5.579
375.35	4.885
375.71	5.346
376.07	6.516
376.42	5.227
376.78	6.494
377.14	5.224
377.50	5.099
377.86	4.920
378.22	5.563
378.58	4.261
378.94	4.651
379.30	4.707
379.66	4.505
380.02	4.914
380.38	4.250
380.74	4.802
381.09	4.890
381.45	4.856
381.81	5.098
382.17	5.350
382.53	5.660
382.89	5.432
383.25	4.503
383.61	5.514
383.97	5.003
384.32	5.303
384.68	4.213
385.04	4.425
385.40	4.520
385.76	5.283
386.12	4.339
386.48	5.475
386.83	4.875
387.19	5.257
387.55	5.442
387.91	5.139
388.27	4.660
388.62	5.224
388.98	3.993
389.34	5.382
389.70	5.212
390.06	5.830
390.42	5.058
390.77	4.962
391.13	5.169
391.49	5.140
391.85	4.456
392.20	4.038
392.56	3.914
392.92	4.709
393.28	3.136
393.64	4.916
393.99	4.948
394.35	4.280
394.71	4.580
395.07	4.112
395.42	4.821
395.78	4.835
396.14	4.469
396.50	5.639
396.85	4.450
397.21	4.747
397.57	4.836
397.92	4.507
398.28	4.260
398.64	4.241
399.00	4.365
399.35	3.948
399.71	4.861
400.07	5.441
400.42	5.215
400.78	5.247
401.14	3.902
401.49	4.478
401.85	4.477
402.21	4.431
402.57	4.195
402.92	3.909
403.28	4.372
403.63	3.960
403.99	3.885
404.35	4.485
404.70	4.197
405.06	4.718
405.42	4.616
405.77	4.171
406.13	4.628
406.49	5.086
406.84	4.666
407.20	4.669
407.55	4.914
407.91	4.267
408.27	3.829
408.62	4.937
408.98	4.350
409.34	4.182
409.69	4.581
410.05	4.027
410.40	4.832
410.76	3.345
411.11	4.825
411.47	4.473
411.83	4.398
412.18	4.143
412.54	4.421
412.89	5.241
413.25	4.191
413.60	4.818
413.96	4.554
414.31	4.192
414.67	4.689
415.03	3.974
415.38	5.219
415.74	5.080
416.09	5.029
416.45	4.819
416.80	4.164
417.16	5.764
417.51	5.109
417.87	4.496
418.22	4.606
418.58	5.552
418.93	5.405
419.29	4.456
419.64	5.038
420.00	4.756
420.35	4.696
420.71	4.722
421.06	3.341
421.42	4.503
421.77	4.540
422.12	4.043
422.48	3.670
422.83	4.252
423.19	4.254
423.54	4.527
423.90	4.348
424.25	4.858
424.61	4.107
424.96	4.315
425.31	4.485
425.67	4.213
426.02	4.171
426.38	4.457
426.73	4.623
427.09	4.438
427.44	4.255
427.79	3.565
428.15	5.060
428.50	4.623
428.85	4.887
429.21	4.307
429.56	3.836
429.92	3.926
430.27	3.674
430.62	4.045
430.98	4.307
431.33	4.330
431.68	4.450
432.04	4.260
432.39	3.655
432.74	4.369
433.10	3.792
433.45	4.082
433.80	3.603
434.16	4.434
434.51	4.421
434.86	4.504
435.22	4.058
435.57	4.255
435.92	3.862
436.28	3.915
436.63	5.464
436.98	4.408
437.34	4.532
437.69	4.609
438.04	3.598
438.39	4.179
438.75	4.590
439.10	4.693
439.45	4.368
439.81	4.653
440.16	4.235
440.51	4.569
440.86	4.111
441.22	3.782
441.57	3.981
441.92	3.429
442.27	4.467
442.63	3.897
442.98	4.507
443.33	4.130
443.68	3.924
444.03	3.465
444.39	3.651
444.74	4.275
445.09	4.205
445.44	4.538
445.79	4.107
446.15	4.923
446.50	3.716
446.85	3.905
447.20	4.029
447.55	4.523
447.91	4.082
448.26	4.229
448.61	3.844
448.96	4.762
449.31	4.499
449.66	4.615
450.02	4.345
450.37	3.968
450.72	3.779
451.07	4.083
451.42	4.559
451.77	5.050
452.12	4.908
452.47	4.851
452.83	4.487
453.18	4.707
453.53	4.824
453.88	4.548
454.23	4.722
454.58	4.724
454.93	4.514
455.28	3.803
455.63	4.915
455.98	4.762
456.34	3.643
456.69	4.759
457.04	3.777
457.39	3.799
457.74	4.353
458.09	4.600
458.44	4.504
458.79	3.742
459.14	4.571
459.49	4.612
459.84	4.266
460.19	3.654
460.54	4.225
460.89	4.388
461.24	4.614
461.59	5.404
461.94	4.316
462.29	4.748
462.64	4.914
462.99	4.359
463.34	4.867
463.69	5.003
464.04	5.101
464.39	4.986
464.74	4.516
465.09	4.463
465.44	3.657
465.79	4.306
466.14	4.433
466.49	4.338
466.84	4.145
467.19	4.647
467.54	5.062
467.89	4.442
468.24	4.538
468.59	5.067
468.94	4.337
469.29	4.370
469.64	4.752
469.99	4.871
470.34	4.359
470.68	4.598
471.03	4.830
471.38	4.795
471.73	5.330
472.08	5.329
472.43	4.711
472.78	4.806
473.13	5.199
473.48	5.056
473.83	5.122
474.17	4.356
474.52	4.963
474.87	4.729
475.22	4.295
475.57	4.191
475.92	4.142
476.27	4.059
476.61	4.357
476.96	4.288
477.31	4.134
477.66	3.884
478.01	4.391
478.36	4.231
478.70	3.998
479.05	4.526
479.40	4.299
479.75	4.067
480.10	3.529
480.45	3.617
480.79	3.966
481.14	3.816
481.49	3.987
481.84	3.567
482.19	3.680
482.53	3.945
482.88	3.816
483.23	3.551
483.58	4.459
483.92	3.749
484.27	3.486
484.62	3.836
484.97	3.469
485.31	3.664
485.66	2.778
486.01	2.395
486.36	2.481
486.70	2.379
487.05	2.616
487.40	2.554
487.75	2.656
488.09	2.972
488.44	3.002
488.79	3.508
489.13	3.056
489.48	3.263
489.83	3.151
490.17	4.077
490.52	3.676
490.87	3.754
491.22	3.001
491.56	3.872
491.91	3.816
492.26	3.583
492.60	3.594
492.95	3.882
493.30	4.393
493.64	3.686
493.99	3.714
494.34	3.839
494.68	4.304
495.03	4.088
495.37	4.188
495.72	3.606
496.07	4.130
496.41	3.761
496.76	3.782
497.11	3.692
497.45	4.192
497.80	3.791
498.14	3.430
498.49	3.463
498.84	4.219
499.18	3.762
499.53	3.656
499.87	4.240
500.22	3.862
500.56	4.369
500.91	3.654
501.26	3.698
501.60	4.699
501.95	3.162
502.29	3.655
502.64	4.004
502.98	3.413
503.33	3.428
503.67	3.852
504.02	3.742
504.36	3.837
504.71	3.615
505.06	3.566
505.40	3.889
505.75	3.664
506.09	4.130
506.44	4.095
506.78	4.335
507.13	4.240
507.47	4.040
507.82	4.154
508.16	4.053
508.51	4.262
508.85	4.071
509.19	3.878
509.54	3.724
509.88	4.276
510.23	4.113
510.57	4.902
510.92	4.195
511.26	4.060
511.61	4.616
511.95	4.541
512.30	4.189
512.64	4.245
512.98	4.930
513.33	4.657
513.67	4.109
514.02	4.058
514.36	4.642
514.70	4.704
515.05	4.183
515.39	4.431
515.74	4.955
516.08	5.143
516.42	4.495
516.77	4.849
517.11	4.550
517.46	4.910
517.80	4.646
518.14	4.574
518.49	4.492
518.83	4.886
519.17	4.330
519.52	4.584
519.86	5.533
520.20	4.740
520.55	5.266
520.89	5.049
521.23	5.187
521.58	5.402
521.92	4.654
522.26	4.027
522.61	5.047
522.95	4.972
523.29	5.113
523.64	5.427
523.98	4.868
524.32	5.066
524.66	5.051
525.01	4.963
525.35	4.957
525.69	5.542
526.04	5.047
526.38	5.430
526.72	4.663
527.06	4.896
527.41	4.641
527.75	5.788
528.09	5.716
528.43	5.417
528.78	5.532
529.12	4.364
529.46	5.940
529.80	5.136
530.15	5.670
530.49	5.292
530.83	6.139
531.17	5.091
531.51	6.355
531.86	4.710
532.20	6.258
532.54	5.573
532.88	5.648
533.22	4.872
533.57	4.630
533.91	4.816
534.25	5.893
534.59	5.125
534.93	5.175
535.27	5.613
535.62	5.067
535.96	5.022
536.30	5.340
536.64	5.280
536.98	5.906
537.32	4.872
537.66	5.333
538.01	5.332
538.35	5.236
538.69	6.190
539.03	5.003
539.37	4.217
539.71	4.601
540.05	4.902
540.39	4.784
540.73	4.851
541.07	5.256
541.42	5.414
541.76	5.806
542.10	5.951
542.44	5.166
542.78	6.390
543.12	5.118
543.46	6.033
543.80	5.921
544.14	4.942
544.48	5.206
544.82	4.618
545.16	5.465
545.50	4.756
545.84	6.384
546.18	5.320
546.52	5.712
546.86	5.430
547.20	6.271
547.54	5.812
547.88	6.186
548.22	4.919
548.56	5.346
548.90	4.866
549.24	5.657
549.58	5.662
549.92	5.632
550.26	7.102
550.60	5.463
550.94	5.563
551.28	4.974
551.62	6.039
551.96	5.754
552.30	5.529
552.64	6.085
552.98	6.237
553.32	5.799
553.66	6.271
554.00	5.285
554.34	5.245
554.68	5.651
555.02	5.853
555.36	5.915
555.69	4.533
556.03	5.384
556.37	5.116
556.71	5.389
557.05	6.162
557.39	5.738
557.73	5.857
558.07	5.294
558.41	4.993
558.75	6.319
559.08	6.413
559.42	5.291
559.76	6.029
560.10	4.640
560.44	5.521
560.78	5.855
561.12	4.749
561.45	6.584
561.79	5.537
562.13	5.500
562.47	5.533
562.81	5.927
563.15	5.017
563.48	5.570
563.82	4.827
564.16	5.363
564.50	4.753
564.84	5.120
565.17	5.598
565.51	5.240
565.85	6.091
566.19	5.322
566.52	5.256
566.86	4.039
567.20	5.071
567.54	4.852
567.88	4.943
568.21	5.026
568.55	5.308
568.89	4.572
569.23	3.877
569.56	4.332
569.90	3.849
570.24	3.983
570.57	3.740
570.91	3.555
571.25	3.799
571.59	3.741
571.92	3.341
572.26	3.466
572.60	3.754
572.93	3.628
573.27	3.727
573.61	3.713
573.95	3.618
574.28	3.216
574.62	3.571
574.96	3.345
575.29	3.322
575.63	3.277
575.97	3.124
576.30	3.717
576.64	3.033
576.98	2.893
577.31	3.189
577.65	2.953
577.98	3.136
578.32	2.979
578.66	3.082
578.99	3.081
579.33	2.735
579.67	3.065
580.00	3.261
580.34	3.370
580.67	2.931
581.01	3.306
581.35	2.925
581.68	3.013
582.02	3.026
582.35	2.767
582.69	3.203
583.02	2.909
583.36	3.274
583.70	3.072
584.03	3.292
584.37	4.058
584.70	3.004
585.04	3.449
585.37	2.912
585.71	3.454
586.04	3.044
586.38	3.344
586.72	3.949
587.05	2.907
587.39	3.166
587.72	3.298
588.06	3.095
588.39	3.759
588.73	3.403
589.06	3.989
589.40	3.603
589.73	3.414
590.07	4.342
590.40	3.471
590.73	3.942
591.07	4.233
591.40	3.922
591.74	4.502
592.07	4.276
592.41	4.258
592.74	4.270
593.08	4.131
593.41	3.954
593.75	3.685
594.08	4.123
594.41	3.959
594.75	3.734
595.08	4.223
595.42	4.168
595.75	4.131
596.09	3.905
596.42	4.558
596.75	4.306
597.09	5.368
597.42	4.216
597.75	4.097
598.09	4.739
598.42	4.768
598.76	3.567
599.09	3.801
599.42	4.148
599.76	4.209
600.09	3.716
600.42	3.908
600.76	4.036
601.09	4.408
601.42	3.234
601.76	4.023
602.09	3.676
602.42	4.737
602.76	4.555
603.09	3.344
603.42	4.139
603.76	3.925
604.09	3.955
604.42	3.791
604.76	4.639
605.09	4.325
605.42	4.361
605.75	4.553
606.09	3.538
606.42	4.005
606.75	4.314
607.09	4.437
607.42	3.979
607.75	4.177
608.08	3.908
608.42	4.617
608.75	3.968
609.08	4.255
609.41	4.522
609.75	4.526
610.08	4.948
610.41	3.445
610.74	4.068
611.07	4.298
611.41	4.318
611.74	4.827
612.07	4.503
612.40	4.460
612.73	4.474
613.07	4.903
613.40	5.635
613.73	4.248
614.06	4.140
614.39	5.087
614.72	5.474
615.06	4.832
615.39	4.565
615.72	5.215
616.05	4.891
616.38	4.725
616.71	5.048
617.05	5.241
617.38	4.450
617.71	4.865
618.04	5.048
618.37	4.908
618.70	4.978
619.03	5.526
619.36	5.092
619.69	5.563
620.03	5.632
620.36	6.217
620.69	6.575
621.02	5.457
621.35	4.855
621.68	5.452
622.01	6.347
622.34	7.110
622.67	5.551
623.00	5.062
623.33	5.361
623.66	5.575
623.99	5.670
624.32	5.777
624.65	5.862
624.99	4.603
625.32	5.358
625.65	5.785
625.98	5.688
626.31	5.988
626.64	6.612
626.97	5.569
627.30	6.318
627.63	6.563
627.96	5.046
628.29	6.562
628.62	7.319
628.95	7.453
629.28	6.843
629.61	7.058
629.94	6.286
630.26	5.910
630.59	6.292
630.92	7.280
631.25	5.429
631.58	7.608
631.91	6.288
632.24	5.907
632.57	7.135
632.90	7.018
633.23	7.159
633.56	8.023
633.89	7.701
634.22	7.491
634.55	8.402
634.88	6.826
635.20	8.363
635.53	8.313
635.86	7.302
636.19	7.529
636.52	8.766
636.85	6.529
637.18	7.143
637.51	7.565
637.83	6.289
638.16	8.056
638.49	8.690
638.82	8.850
639.15	7.625
639.48	8.603
639.81	8.981
640.13	8.333
640.46	8.993
640.79	8.719
641.12	7.015
641.45	9.218
641.77	9.278
642.10	9.795
642.43	7.207
642.76	9.907
643.09	10.890
643.41	7.891
643.74	10.031
644.07	9.146
644.40	10.123
644.73	12.283
645.05	11.094
645.38	9.163
645.71	9.662
646.04	9.635
646.36	10.851
646.69	11.037
647.02	10.034
647.35	10.825
647.67	9.735
648.00	10.244
648.33	7.756
648.66	9.091
648.98	10.495
649.31	10.463
649.64	8.969
649.96	9.985
650.29	9.163
650.62	8.091
650.94	10.859
651.27	11.486
651.60	10.150
651.92	11.022
652.25	9.772
652.58	9.346
652.90	10.585
653.23	8.937
653.56	8.031
