SpectraSuite Data File
++++++++++++++++++++++++++++++++++++
Date: Wed May 13 19:52:48 PDT 2015
User: schluterlab
Dark Spectrum Present: Yes
Reference Spectrum Present: Yes
Number of Sampled Component Spectra: 1
Spectrometers: USB2E3373
Integration Time (usec): 3000 (USB2E3373)
Spectra Averaged: 3 (USB2E3373)
Boxcar Smoothing: 0 (USB2E3373)
Correct for Electrical Dark: No (USB2E3373)
Strobe/Lamp Enabled: No (USB2E3373)
Correct for Detector Non-linearity: No (USB2E3373)
Correct for Stray Light: No (USB2E3373)
Number of Pixels in Processed Spectrum: 2048
>>>>>Begin Processed Spectral Data<<<<<
178.53	0.000
178.91	-1525.000
179.29	-1325.000
179.67	-288.889
180.04	-1225.000
180.42	3050.000
180.80	1060.000
181.18	-1175.000
181.56	785.714
181.94	0.000
182.31	-642.857
182.69	1633.333
183.07	-625.000
183.45	-533.333
183.83	609.091
184.20	-440.000
184.58	3050.000
184.96	4400.000
185.34	-940.000
185.72	-662.500
186.09	-2600.000
186.47	2550.000
186.85	2550.000
187.23	5200.000
187.61	-2000.000
187.98	1475.000
188.36	463.636
188.74	509.091
189.12	-1000.000
189.49	590.000
189.87	-5100.000
190.25	-1525.000
190.63	471.429
191.00	469.231
191.38	833.333
191.76	-1275.000
192.14	1525.000
192.51	625.000
192.89	1116.667
193.27	562.500
193.65	-1100.000
194.02	570.000
194.40	1120.000
194.78	470.000
195.15	475.000
195.53	730.000
195.91	-2350.000
196.29	331.250
196.66	289.474
197.04	-440.000
197.42	0.000
197.79	720.000
198.17	-5300.000
198.55	571.429
198.92	787.500
199.30	1080.000
199.68	0.000
200.05	338.889
200.43	1000.000
200.81	4400.000
201.18	1666.667
201.56	-1866.667
201.94	566.667
202.31	666.667
202.69	375.000
203.07	530.000
203.44	0.000
203.82	1475.000
204.19	885.714
204.57	485.714
204.95	725.000
205.32	1666.667
205.70	509.091
206.08	392.857
206.45	2750.000
206.83	387.500
207.20	1000.000
207.58	940.000
207.96	372.222
208.33	812.500
208.71	-933.333
209.08	771.429
209.46	600.000
209.84	536.364
210.21	-1500.000
210.59	1550.000
210.96	-587.500
211.34	3350.000
211.71	600.000
212.09	866.667
212.46	0.000
212.84	1900.000
213.22	1600.000
213.59	-4400.000
213.97	783.333
214.34	757.143
214.72	600.000
215.09	900.000
215.47	-2100.000
215.84	-2850.000
216.22	1833.333
216.59	385.714
216.97	1250.000
217.34	527.273
217.72	-666.667
218.09	0.000
218.47	-6100.000
218.84	666.667
219.22	800.000
219.59	1833.333
219.97	-714.286
220.34	980.000
220.72	-1733.333
221.09	392.857
221.47	1575.000
221.84	-750.000
222.22	0.000
222.59	1450.000
222.97	-2650.000
223.34	1120.000
223.72	484.615
224.09	1200.000
224.46	2000.000
224.84	-5300.000
225.21	-1160.000
225.59	-4700.000
225.96	680.000
226.34	285.000
226.71	2450.000
227.08	662.500
227.46	490.000
227.83	-925.000
228.21	-2600.000
228.58	688.889
228.95	-2250.000
229.33	-2050.000
229.70	1700.000
230.08	814.286
230.45	-1060.000
230.82	433.333
231.20	816.667
231.57	728.571
231.95	533.333
232.32	218.182
232.69	472.727
233.07	642.857
233.44	300.000
233.81	-1766.667
234.19	278.947
234.56	508.333
234.93	408.333
235.31	445.455
235.68	292.308
236.05	321.429
236.43	196.970
236.80	315.789
237.17	4300.000
237.55	238.095
237.92	207.143
238.29	276.190
238.67	164.516
239.04	179.310
239.41	138.889
239.79	128.261
240.16	121.429
240.53	138.636
240.91	90.196
241.28	94.000
241.65	76.000
242.02	91.304
242.40	88.710
242.77	80.000
243.14	58.065
243.51	69.663
243.89	56.471
244.26	52.222
244.63	49.462
245.00	51.064
245.38	42.574
245.75	48.598
246.12	42.202
246.49	51.825
246.87	52.800
247.24	39.231
247.61	38.571
247.98	35.948
248.36	25.676
248.73	30.573
249.10	36.943
249.47	27.684
249.84	40.107
250.22	37.433
250.59	26.627
250.96	23.737
251.33	29.384
251.70	33.168
252.08	29.048
252.45	24.215
252.82	25.217
253.19	23.404
253.56	25.882
253.94	27.386
254.31	22.266
254.68	23.846
255.05	19.557
255.42	20.325
255.79	21.691
256.16	20.578
256.54	17.668
256.91	21.708
257.28	16.187
257.65	18.152
258.02	20.497
258.39	18.612
258.76	18.060
259.14	16.667
259.51	16.413
259.88	18.944
260.25	17.825
260.62	16.185
260.99	14.286
261.36	18.018
261.73	17.479
262.10	12.500
262.47	14.930
262.85	14.206
263.22	12.536
263.59	16.239
263.96	14.835
264.33	15.927
264.70	13.684
265.07	18.670
265.44	15.404
265.81	13.139
266.18	12.312
266.55	13.902
266.92	14.496
267.29	16.204
267.66	14.908
268.03	14.318
268.40	13.084
268.77	12.649
269.14	12.387
269.51	12.641
269.88	13.287
270.25	13.093
270.62	12.135
270.99	14.624
271.36	15.665
271.73	9.112
272.10	13.696
272.47	12.903
272.84	13.420
273.21	11.111
273.58	8.952
273.95	12.998
274.32	10.950
274.69	12.420
275.06	11.024
275.43	12.553
275.80	11.824
276.17	10.183
276.54	13.721
276.91	10.672
277.28	11.914
277.65	12.186
278.02	11.801
278.39	10.547
278.76	12.727
279.13	10.943
279.50	10.987
279.87	11.554
280.23	10.778
280.60	7.930
280.97	9.057
281.34	10.796
281.71	9.636
282.08	9.981
282.45	9.273
282.82	10.835
283.19	6.595
283.56	10.526
283.92	11.168
284.29	8.289
284.66	9.256
285.03	9.042
285.40	8.803
285.77	8.923
286.14	7.945
286.51	10.500
286.87	10.769
287.24	10.423
287.61	9.149
287.98	11.039
288.35	8.875
288.72	8.723
289.08	10.016
289.45	10.049
289.82	10.407
290.19	8.948
290.56	9.495
290.93	8.912
291.29	8.129
291.66	9.145
292.03	10.610
292.40	11.307
292.77	9.615
293.13	10.149
293.50	9.038
293.87	8.741
294.24	6.815
294.60	7.860
294.97	6.977
295.34	8.886
295.71	8.239
296.08	7.835
296.44	8.803
296.81	6.869
297.18	10.298
297.55	5.541
297.91	7.256
298.28	9.103
298.65	8.747
299.02	6.983
299.38	5.843
299.75	6.334
300.12	7.024
300.48	6.250
300.85	7.768
301.22	7.898
301.59	6.313
301.95	6.045
302.32	7.189
302.69	7.049
303.05	7.515
303.42	7.531
303.79	8.947
304.15	6.993
304.52	5.678
304.89	5.226
305.25	6.613
305.62	7.814
305.99	7.674
306.35	6.823
306.72	7.063
307.09	6.992
307.45	9.009
307.82	6.473
308.19	6.843
308.55	7.228
308.92	5.908
309.29	5.280
309.65	6.151
310.02	7.400
310.38	4.946
310.75	5.808
311.12	6.141
311.48	6.583
311.85	6.709
312.22	6.972
312.58	7.277
312.95	6.653
313.31	5.825
313.68	6.861
314.05	8.679
314.41	6.633
314.78	6.042
315.14	6.753
315.51	6.694
315.87	7.129
316.24	7.051
316.61	6.335
316.97	7.730
317.34	6.360
317.70	7.553
318.07	7.988
318.43	7.045
318.80	7.873
319.16	8.192
319.53	7.129
319.89	8.095
320.26	7.400
320.62	7.540
320.99	8.788
321.35	8.283
321.72	8.214
322.08	8.095
322.45	9.751
322.81	9.302
323.18	8.960
323.54	9.555
323.91	9.528
324.27	9.082
324.64	7.829
325.00	9.468
325.37	10.100
325.73	10.054
326.10	8.473
326.46	8.692
326.83	9.664
327.19	9.223
327.56	9.669
327.92	9.711
328.29	10.027
328.65	10.129
329.01	11.191
329.38	9.343
329.74	10.988
330.11	10.368
330.47	10.376
330.84	11.121
331.20	10.109
331.56	10.275
331.93	10.093
332.29	10.736
332.66	12.124
333.02	9.781
333.38	11.924
333.75	10.160
334.11	11.388
334.48	10.115
334.84	11.489
335.20	10.727
335.57	9.973
335.93	9.107
336.29	10.165
336.66	11.001
337.02	8.959
337.38	11.296
337.75	9.893
338.11	10.116
338.47	9.945
338.84	11.091
339.20	10.183
339.56	11.223
339.93	10.455
340.29	10.688
340.65	11.141
341.02	11.344
341.38	10.320
341.74	10.614
342.11	11.441
342.47	10.485
342.83	10.274
343.20	13.160
343.56	10.952
343.92	10.877
344.28	11.224
344.65	11.350
345.01	9.764
345.37	9.949
345.73	10.829
346.10	10.656
346.46	11.271
346.82	10.873
347.19	11.111
347.55	10.016
347.91	11.731
348.27	11.504
348.63	11.455
349.00	11.165
349.36	11.166
349.72	11.788
350.08	11.183
350.45	11.310
350.81	11.129
351.17	10.616
351.53	11.138
351.89	10.726
352.26	11.602
352.62	12.029
352.98	10.616
353.34	11.915
353.70	10.638
354.07	11.855
354.43	10.079
354.79	10.941
355.15	11.093
355.51	11.671
355.87	11.265
356.24	11.075
356.60	10.986
356.96	10.941
357.32	11.365
357.68	11.811
358.04	11.481
358.40	12.589
358.77	11.659
359.13	11.208
359.49	11.137
359.85	9.841
360.21	11.005
360.57	12.607
360.93	12.538
361.29	10.582
361.66	11.842
362.02	11.866
362.38	11.787
362.74	11.458
363.10	11.029
363.46	11.372
363.82	11.187
364.18	11.454
364.54	12.184
364.90	12.394
365.26	12.426
365.62	11.760
365.98	11.322
366.35	10.817
366.71	11.786
367.07	12.527
367.43	12.990
367.79	12.777
368.15	12.859
368.51	11.337
368.87	11.635
369.23	11.558
369.59	12.672
369.95	10.809
370.31	12.536
370.67	11.957
371.03	12.959
371.39	12.172
371.75	13.015
372.11	12.447
372.47	12.463
372.83	12.536
373.19	12.283
373.55	12.860
373.91	13.844
374.27	12.165
374.63	12.145
374.99	12.782
375.35	12.003
375.71	12.474
376.07	14.129
376.42	12.999
376.78	12.326
377.14	12.822
377.50	12.848
377.86	11.902
378.22	13.085
378.58	12.218
378.94	13.199
379.30	12.150
379.66	12.817
380.02	12.654
380.38	12.265
380.74	13.085
381.09	13.203
381.45	12.969
381.81	13.452
382.17	13.248
382.53	11.950
382.89	13.148
383.25	13.133
383.61	12.825
383.97	13.133
384.32	13.163
384.68	12.701
385.04	13.092
385.40	12.198
385.76	13.206
386.12	12.889
386.48	13.531
386.83	13.598
387.19	14.286
387.55	13.420
387.91	12.999
388.27	12.692
388.62	14.567
388.98	13.391
389.34	14.268
389.70	14.102
390.06	14.829
390.42	14.397
390.77	13.804
391.13	14.167
391.49	14.530
391.85	13.176
392.20	12.871
392.56	13.573
392.92	13.714
393.28	13.136
393.64	13.849
393.99	14.111
394.35	13.958
394.71	14.429
395.07	14.393
395.42	14.524
395.78	14.059
396.14	13.532
396.50	14.787
396.85	14.495
397.21	14.303
397.57	14.197
397.92	14.303
398.28	13.509
398.64	13.859
399.00	13.654
399.35	13.706
399.71	13.542
400.07	13.956
400.42	15.276
400.78	13.329
401.14	13.963
401.49	13.851
401.85	13.249
402.21	13.114
402.57	13.880
402.92	13.619
403.28	14.366
403.63	13.861
403.99	14.076
404.35	14.000
404.70	14.508
405.06	13.920
405.42	14.722
405.77	13.886
406.13	13.093
406.49	14.666
406.84	14.589
407.20	14.125
407.55	13.912
407.91	14.467
408.27	14.295
408.62	15.232
408.98	13.848
409.34	14.576
409.69	14.645
410.05	14.746
410.40	14.251
410.76	14.158
411.11	14.596
411.47	14.121
411.83	14.783
412.18	14.719
412.54	14.757
412.89	14.096
413.25	14.758
413.60	14.700
413.96	13.965
414.31	14.399
414.67	14.195
415.03	14.636
415.38	15.013
415.74	14.920
416.09	15.153
416.45	14.659
416.80	14.937
417.16	16.019
417.51	15.328
417.87	14.772
418.22	15.394
418.58	15.365
418.93	15.848
419.29	15.468
419.64	15.239
420.00	15.183
420.35	14.841
420.71	15.123
421.06	14.081
421.42	15.088
421.77	15.078
422.12	14.318
422.48	14.571
422.83	14.677
423.19	14.641
423.54	14.742
423.90	15.768
424.25	14.740
424.61	15.893
424.96	15.219
425.31	15.172
425.67	13.876
426.02	15.314
426.38	15.568
426.73	15.038
427.09	15.015
427.44	15.296
427.79	15.584
428.15	15.774
428.50	16.033
428.85	15.375
429.21	14.412
429.56	14.982
429.92	14.796
430.27	15.243
430.62	13.774
430.98	14.842
431.33	15.361
431.68	15.393
432.04	14.856
432.39	15.306
432.74	15.560
433.10	15.054
433.45	15.277
433.80	14.856
434.16	15.331
434.51	15.105
434.86	15.507
435.22	15.120
435.57	15.988
435.92	15.038
436.28	15.718
436.63	16.170
436.98	14.997
437.34	15.921
437.69	15.694
438.04	15.346
438.39	15.761
438.75	15.456
439.10	15.754
439.45	15.762
439.81	15.287
440.16	15.020
440.51	15.583
440.86	15.634
441.22	15.017
441.57	15.340
441.92	15.404
442.27	14.962
442.63	14.903
442.98	15.493
443.33	15.870
443.68	15.643
444.03	15.129
444.39	14.946
444.74	15.422
445.09	15.148
445.44	14.817
445.79	15.141
446.15	15.881
446.50	15.240
446.85	15.519
447.20	16.012
447.55	15.410
447.91	14.837
448.26	15.971
448.61	15.602
448.96	16.556
449.31	15.861
449.66	15.476
450.02	14.485
450.37	15.193
450.72	15.398
451.07	15.235
451.42	15.076
451.77	16.031
452.12	15.589
452.47	15.609
452.83	15.734
453.18	15.648
453.53	15.832
453.88	15.121
454.23	15.182
454.58	16.535
454.93	15.957
455.28	14.963
455.63	14.927
455.98	16.190
456.34	14.950
456.69	15.466
457.04	16.223
457.39	14.319
457.74	14.393
458.09	16.044
458.44	15.165
458.79	14.317
459.14	15.293
459.49	15.412
459.84	14.792
460.19	15.321
460.54	14.931
460.89	15.250
461.24	15.301
461.59	15.863
461.94	15.105
462.29	15.549
462.64	15.890
462.99	15.094
463.34	15.267
463.69	15.385
464.04	15.594
464.39	15.072
464.74	15.270
465.09	14.536
465.44	14.737
465.79	14.877
466.14	14.340
466.49	14.238
466.84	14.769
467.19	15.329
467.54	15.688
467.89	14.526
468.24	14.834
468.59	15.995
468.94	14.783
469.29	14.910
469.64	15.797
469.99	14.817
470.34	15.588
470.68	16.595
471.03	15.442
471.38	16.331
471.73	15.723
472.08	15.197
472.43	14.447
472.78	14.615
473.13	15.083
473.48	15.106
473.83	14.512
474.17	14.188
474.52	15.447
474.87	14.594
475.22	15.380
475.57	14.293
475.92	14.233
476.27	14.092
476.61	13.844
476.96	14.404
477.31	13.867
477.66	14.551
478.01	13.905
478.36	13.538
478.70	13.811
479.05	14.271
479.40	14.278
479.75	13.676
480.10	13.320
480.45	13.755
480.79	13.378
481.14	14.237
481.49	14.143
481.84	13.535
482.19	13.494
482.53	13.578
482.88	14.518
483.23	13.178
483.58	13.831
483.92	13.449
484.27	12.810
484.62	12.931
484.97	12.968
485.31	12.842
485.66	11.431
486.01	11.146
486.36	10.554
486.70	10.560
487.05	11.344
487.40	11.440
487.75	11.418
488.09	12.314
488.44	12.175
488.79	12.839
489.13	12.987
489.48	12.724
489.83	12.732
490.17	13.064
490.52	12.755
490.87	12.347
491.22	12.415
491.56	12.711
491.91	13.169
492.26	13.183
492.60	12.903
492.95	11.927
493.30	13.037
493.64	13.112
493.99	12.906
494.34	13.645
494.68	12.866
495.03	12.970
495.37	12.750
495.72	12.671
496.07	13.086
496.41	12.124
496.76	12.753
497.11	12.382
497.45	12.529
497.80	11.948
498.14	13.043
498.49	12.390
498.84	12.464
499.18	11.905
499.53	12.678
499.87	12.488
500.22	12.812
500.56	13.883
500.91	12.356
501.26	12.897
501.60	12.008
501.95	11.962
502.29	12.371
502.64	12.384
502.98	13.090
503.33	12.249
503.67	12.436
504.02	11.974
504.36	12.728
504.71	12.555
505.06	12.723
505.40	12.251
505.75	12.199
506.09	12.536
506.44	12.087
506.78	12.567
507.13	12.923
507.47	12.980
507.82	12.462
508.16	12.614
508.51	12.582
508.85	11.668
509.19	12.704
509.54	12.449
509.88	12.468
510.23	11.774
510.57	13.467
510.92	12.636
511.26	12.590
511.61	12.033
511.95	12.109
512.30	11.930
512.64	12.896
512.98	12.165
513.33	12.741
513.67	11.953
514.02	11.797
514.36	12.889
514.70	12.009
515.05	12.103
515.39	12.675
515.74	13.063
516.08	13.359
516.42	12.653
516.77	13.489
517.11	11.987
517.46	12.302
517.80	12.544
518.14	11.581
518.49	12.660
518.83	13.239
519.17	11.894
519.52	12.224
519.86	12.721
520.20	13.237
520.55	12.926
520.89	13.443
521.23	13.148
521.58	12.665
521.92	13.043
522.26	12.874
522.61	12.461
522.95	13.076
523.29	12.295
523.64	12.622
523.98	12.015
524.32	13.088
524.66	12.928
525.01	12.929
525.35	12.392
525.69	12.131
526.04	12.897
526.38	13.057
526.72	12.515
527.06	12.241
527.41	11.015
527.75	13.055
528.09	12.653
528.43	13.257
528.78	13.215
529.12	12.303
529.46	12.676
529.80	13.428
530.15	13.209
530.49	12.677
530.83	12.658
531.17	12.990
531.51	13.554
531.86	13.097
532.20	13.168
532.54	13.133
532.88	12.644
533.22	12.992
533.57	12.840
533.91	11.740
534.25	12.454
534.59	12.508
534.93	11.600
535.27	12.734
535.62	12.637
535.96	12.555
536.30	12.715
536.64	12.621
536.98	12.807
537.32	12.179
537.66	12.667
538.01	12.113
538.35	12.411
538.69	13.146
539.03	11.761
539.37	11.374
539.71	11.795
540.05	12.222
540.39	12.492
540.73	12.807
541.07	12.524
541.42	12.655
541.76	12.323
542.10	12.937
542.44	11.722
542.78	12.451
543.12	11.772
543.46	13.180
543.80	12.947
544.14	12.323
544.48	11.937
544.82	11.546
545.16	11.906
545.50	11.825
545.84	12.231
546.18	12.525
546.52	11.769
546.86	12.027
547.20	12.812
547.54	12.224
547.88	13.202
548.22	11.644
548.56	11.447
548.90	11.908
549.24	11.785
549.58	12.619
549.92	12.569
550.26	12.216
550.60	12.379
550.94	11.972
551.28	11.924
551.62	12.653
551.96	11.509
552.30	12.287
552.64	12.103
552.98	12.203
553.32	12.610
553.66	13.361
554.00	12.148
554.34	11.456
554.68	12.732
555.02	11.495
555.36	11.900
555.69	11.028
556.03	11.777
556.37	11.937
556.71	11.392
557.05	12.115
557.39	11.267
557.73	11.433
558.07	12.763
558.41	11.795
558.75	11.315
559.08	12.453
559.42	12.396
559.76	12.500
560.10	12.348
560.44	12.509
560.78	10.645
561.12	11.609
561.45	11.995
561.79	11.206
562.13	11.402
562.47	12.568
562.81	11.925
563.15	10.836
563.48	11.671
563.82	11.220
564.16	11.053
564.50	10.742
564.84	11.252
565.17	10.682
565.51	11.182
565.85	11.231
566.19	10.645
566.52	10.830
566.86	10.850
567.20	10.672
567.54	10.788
567.88	9.995
568.21	10.476
568.55	10.415
568.89	9.874
569.23	9.848
569.56	9.190
569.90	9.547
570.24	8.934
570.57	8.977
570.91	8.694
571.25	8.493
571.59	8.601
571.92	8.554
572.26	8.521
572.60	8.589
572.93	8.216
573.27	8.607
573.61	8.403
573.95	8.062
574.28	7.940
574.62	8.382
574.96	7.981
575.29	8.075
575.63	8.079
575.97	7.993
576.30	7.993
576.64	7.885
576.98	7.997
577.31	7.925
577.65	7.883
577.98	7.600
578.32	7.288
578.66	8.029
578.99	7.624
579.33	8.109
579.67	7.979
580.00	7.864
580.34	7.950
580.67	8.060
581.01	7.646
581.35	7.404
581.68	7.644
582.02	7.242
582.35	7.396
582.69	7.372
583.02	7.721
583.36	8.116
583.70	8.117
584.03	7.994
584.37	8.353
584.70	7.837
585.04	7.975
585.37	7.875
585.71	7.848
586.04	7.973
586.38	8.229
586.72	8.202
587.05	7.851
587.39	7.784
587.72	8.271
588.06	7.951
588.39	8.313
588.73	8.155
589.06	8.632
589.40	8.215
589.73	8.483
590.07	8.541
590.40	8.440
590.73	8.587
591.07	8.547
591.40	9.068
591.74	9.091
592.07	8.988
592.41	8.929
592.74	8.502
593.08	8.261
593.41	7.941
593.75	8.026
594.08	8.146
594.41	8.484
594.75	8.429
595.08	8.482
595.42	8.301
595.75	8.369
596.09	8.825
596.42	8.723
596.75	9.160
597.09	9.394
597.42	8.811
597.75	8.711
598.09	9.217
598.42	8.591
598.76	8.553
599.09	8.096
599.42	7.897
599.76	7.943
600.09	8.270
600.42	8.145
600.76	8.000
601.09	8.051
601.42	8.143
601.76	8.463
602.09	7.905
602.42	8.400
602.76	8.867
603.09	7.986
603.42	8.708
603.76	8.155
604.09	8.569
604.42	7.909
604.76	9.279
605.09	8.475
605.42	8.679
605.75	8.278
606.09	8.052
606.42	7.805
606.75	8.669
607.09	8.748
607.42	8.472
607.75	8.608
608.08	8.033
608.42	8.696
608.75	8.747
609.08	8.788
609.41	8.948
609.75	8.909
610.08	8.860
610.41	8.240
610.74	8.940
611.07	9.091
611.41	9.372
611.74	9.854
612.07	9.265
612.40	8.867
612.73	9.053
613.07	9.213
613.40	9.057
613.73	8.547
614.06	8.656
614.39	9.701
614.72	9.684
615.06	9.244
615.39	8.705
615.72	8.896
616.05	9.197
616.38	8.727
616.71	9.561
617.05	9.423
617.38	9.381
617.71	8.889
618.04	9.495
618.37	9.521
618.70	9.521
619.03	9.934
619.36	9.912
619.69	10.141
620.03	10.714
620.36	10.829
620.69	10.890
621.02	10.251
621.35	10.415
621.68	10.748
622.01	9.288
622.34	10.212
622.67	9.430
623.00	9.318
623.33	10.150
623.66	10.150
623.99	9.573
624.32	10.556
624.65	9.534
624.99	9.065
625.32	9.920
625.65	10.293
625.98	10.992
626.31	10.653
626.64	10.694
626.97	10.973
627.30	10.224
627.63	10.993
627.96	10.681
628.29	11.199
628.62	11.528
628.95	11.792
629.28	12.044
629.61	12.191
629.94	10.667
630.26	11.916
630.59	11.344
630.92	10.632
631.25	9.872
631.58	11.812
631.91	12.779
632.24	10.970
632.57	12.487
632.90	11.732
633.23	11.633
633.56	12.203
633.89	11.552
634.22	13.507
634.55	12.663
634.88	11.856
635.20	14.695
635.53	13.253
635.86	12.871
636.19	13.529
636.52	12.803
636.85	12.027
637.18	12.097
