SpectraSuite Data File
++++++++++++++++++++++++++++++++++++
Date: Wed May 13 19:31:48 PDT 2015
User: schluterlab
Dark Spectrum Present: Yes
Reference Spectrum Present: Yes
Number of Sampled Component Spectra: 1
Spectrometers: USB2E3373
Integration Time (usec): 3000 (USB2E3373)
Spectra Averaged: 3 (USB2E3373)
Boxcar Smoothing: 0 (USB2E3373)
Correct for Electrical Dark: No (USB2E3373)
Strobe/Lamp Enabled: No (USB2E3373)
Correct for Detector Non-linearity: No (USB2E3373)
Correct for Stray Light: No (USB2E3373)
Number of Pixels in Processed Spectrum: 2048
>>>>>Begin Processed Spectral Data<<<<<
178.53	0.000
178.91	-1375.000
179.29	-1275.000
179.67	-238.889
180.04	-1275.000
180.42	2450.000
180.80	1100.000
181.18	-1125.000
181.56	757.143
181.94	0.000
182.31	-628.571
182.69	2000.000
183.07	-637.500
183.45	-677.778
183.83	527.273
184.20	-450.000
184.58	2400.000
184.96	5900.000
185.34	-1060.000
185.72	-637.500
186.09	-2400.000
186.47	3150.000
186.85	2300.000
187.23	5900.000
187.61	-1933.333
187.98	1225.000
188.36	554.545
188.74	563.636
189.12	-720.000
189.49	590.000
189.87	-4200.000
190.25	-1100.000
190.63	428.571
191.00	376.923
191.38	716.667
191.76	-1150.000
192.14	1550.000
192.51	787.500
192.89	983.333
193.27	712.500
193.65	-1325.000
194.02	570.000
194.40	960.000
194.78	520.000
195.15	500.000
195.53	660.000
195.91	-2050.000
196.29	406.250
196.66	305.263
197.04	-470.000
197.42	0.000
197.79	600.000
198.17	-5600.000
198.55	600.000
198.92	812.500
199.30	940.000
199.68	0.000
200.05	344.444
200.43	785.714
200.81	5300.000
201.18	1733.333
201.56	-1700.000
201.94	588.889
202.31	677.778
202.69	433.333
203.07	630.000
203.44	0.000
203.82	1400.000
204.19	785.714
204.57	428.571
204.95	550.000
205.32	1800.000
205.70	481.818
206.08	414.286
206.45	3100.000
206.83	425.000
207.20	1016.667
207.58	960.000
207.96	344.444
208.33	750.000
208.71	-900.000
209.08	828.571
209.46	755.556
209.84	436.364
210.21	-1633.333
210.59	1450.000
210.96	-587.500
211.34	2500.000
211.71	600.000
212.09	816.667
212.46	0.000
212.84	2133.333
213.22	1450.000
213.59	-5100.000
213.97	783.333
214.34	885.714
214.72	636.364
215.09	1140.000
215.47	-3000.000
215.84	-2900.000
216.22	1700.000
216.59	385.714
216.97	1150.000
217.34	427.273
217.72	-766.667
218.09	0.000
218.47	-4800.000
218.84	744.444
219.22	785.714
219.59	1566.667
219.97	-728.571
220.34	1100.000
220.72	-1800.000
221.09	428.571
221.47	1575.000
221.84	-900.000
222.22	0.000
222.59	1725.000
222.97	-2950.000
223.34	1220.000
223.72	438.462
224.09	1260.000
224.46	2450.000
224.84	-4300.000
225.21	-1040.000
225.59	-5100.000
225.96	570.000
226.34	315.000
226.71	3250.000
227.08	725.000
227.46	550.000
227.83	-1150.000
228.21	-2700.000
228.58	588.889
228.95	-2700.000
229.33	-2500.000
229.70	1766.667
230.08	800.000
230.45	-980.000
230.82	491.667
231.20	983.333
231.57	657.143
231.95	475.000
232.32	263.636
232.69	500.000
233.07	728.571
233.44	407.692
233.81	-1633.333
234.19	331.579
234.56	500.000
234.93	450.000
235.31	472.727
235.68	392.308
236.05	414.286
236.43	227.273
236.80	284.211
237.17	4400.000
237.55	280.952
237.92	246.429
238.29	257.143
238.67	209.677
239.04	210.345
239.41	161.111
239.79	128.261
240.16	135.714
240.53	159.091
240.91	121.569
241.28	106.000
241.65	114.000
242.02	100.000
242.40	103.226
242.77	98.333
243.14	90.323
243.51	87.640
243.89	76.471
244.26	86.667
244.63	64.516
245.00	76.596
245.38	70.297
245.75	64.486
246.12	75.229
246.49	69.343
246.87	69.600
247.24	62.308
247.61	55.000
247.98	60.784
248.36	48.649
248.73	52.866
249.10	53.503
249.47	52.542
249.84	51.337
250.22	45.989
250.59	43.787
250.96	50.505
251.33	53.555
251.70	49.505
252.08	48.571
252.45	46.188
252.82	40.000
253.19	41.702
253.56	45.882
253.94	41.079
254.31	41.797
254.68	40.385
255.05	42.804
255.42	37.805
255.79	40.074
256.16	41.877
256.54	40.283
256.91	40.925
257.28	34.892
257.65	37.624
258.02	41.304
258.39	36.909
258.76	37.124
259.14	36.607
259.51	39.818
259.88	33.851
260.25	38.066
260.62	37.572
260.99	35.714
261.36	36.937
261.73	36.390
262.10	33.721
262.47	34.930
262.85	34.819
263.22	30.769
263.59	37.892
263.96	35.989
264.33	37.076
264.70	34.474
265.07	34.271
265.44	34.343
265.81	34.063
266.18	32.663
266.55	31.220
266.92	32.924
267.29	32.870
267.66	33.028
268.03	30.455
268.40	33.178
268.77	30.549
269.14	30.180
269.51	34.086
269.88	32.401
270.25	30.474
270.62	33.483
270.99	33.118
271.36	34.335
271.73	31.776
272.10	30.000
272.47	31.398
272.84	33.333
273.21	31.237
273.58	28.821
273.95	29.350
274.32	28.512
274.69	29.764
275.06	29.724
275.43	30.851
275.80	30.862
276.17	29.124
276.54	31.185
276.91	31.028
277.28	29.492
277.65	29.981
278.02	29.193
278.39	31.641
278.76	30.909
279.13	30.755
279.50	31.657
279.87	29.482
280.23	28.543
280.60	29.014
280.97	27.357
281.34	30.619
281.71	29.818
282.08	29.175
282.45	28.545
282.82	31.439
283.19	29.055
283.56	27.544
283.92	29.103
284.29	30.688
284.66	27.768
285.03	27.306
285.40	26.056
285.77	28.283
286.14	27.116
286.51	27.833
286.87	28.034
287.24	29.153
287.61	27.608
287.98	27.273
288.35	26.624
288.72	26.168
289.08	27.230
289.45	26.359
289.82	26.341
290.19	24.176
290.56	24.196
290.93	23.716
291.29	23.466
291.66	24.484
292.03	26.744
292.40	24.816
292.77	22.929
293.13	25.373
293.50	23.907
293.87	23.111
294.24	22.370
294.60	24.454
294.97	22.965
295.34	24.401
295.71	23.864
296.08	22.222
296.44	20.633
296.81	22.853
297.18	23.442
297.55	21.108
297.91	22.691
298.28	23.427
298.65	22.454
299.02	21.871
299.38	22.178
299.75	20.350
300.12	21.456
300.48	22.375
300.85	21.332
301.22	20.892
301.59	19.571
301.95	21.159
302.32	20.411
302.69	20.908
303.05	19.758
303.42	21.111
303.79	19.026
304.15	20.047
304.52	19.119
304.89	19.396
305.25	18.097
305.62	19.366
305.99	19.481
306.35	18.792
306.72	19.619
307.09	19.978
307.45	19.144
307.82	16.518
308.19	19.536
308.55	20.173
308.92	18.045
309.29	19.113
309.65	18.240
310.02	19.133
310.38	18.925
310.75	19.958
311.12	18.833
311.48	20.481
311.85	18.344
312.22	18.626
312.58	17.983
312.95	19.641
313.31	17.379
313.68	18.607
314.05	19.625
314.41	18.492
314.78	18.328
315.14	17.974
315.51	18.435
315.87	18.515
316.24	18.173
316.61	17.836
316.97	17.025
317.34	17.417
317.70	17.591
318.07	18.191
318.43	17.906
318.80	18.182
319.16	19.115
319.53	17.448
319.89	19.238
320.26	18.600
320.62	18.452
320.99	17.374
321.35	19.798
321.72	17.351
322.08	17.769
322.45	18.806
322.81	19.671
323.18	19.942
323.54	18.089
323.91	18.208
324.27	19.025
324.64	17.801
325.00	17.944
325.37	19.654
325.73	18.223
326.10	18.976
326.46	17.563
326.83	19.327
327.19	18.617
327.56	17.509
327.92	18.985
328.29	18.545
328.65	18.877
329.01	19.043
329.38	17.576
329.74	18.560
330.11	19.039
330.47	19.100
330.84	19.485
331.20	19.490
331.56	18.807
331.93	18.426
332.29	18.456
332.66	18.319
333.02	18.464
333.38	18.519
333.75	18.627
334.11	19.484
334.48	19.432
334.84	18.290
335.20	18.818
335.57	18.132
335.93	18.214
336.29	18.773
336.66	17.674
337.02	17.738
337.38	17.778
337.75	17.291
338.11	18.442
338.47	17.772
338.84	18.882
339.20	17.523
339.56	18.339
339.93	16.909
340.29	18.116
340.65	17.469
341.02	17.365
341.38	18.238
341.74	18.070
342.11	17.991
342.47	18.767
342.83	17.551
343.20	18.701
343.56	17.186
343.92	16.930
344.28	18.622
344.65	17.713
345.01	17.256
345.37	16.467
345.73	17.428
346.10	17.477
346.46	17.119
346.82	17.545
347.19	16.458
347.55	17.077
347.91	17.395
348.27	18.077
348.63	16.890
349.00	16.586
349.36	17.159
349.72	17.161
350.08	16.288
350.45	16.843
350.81	16.897
351.17	16.045
351.53	16.052
351.89	17.162
352.26	16.732
352.62	16.439
352.98	16.126
353.34	16.516
353.70	15.876
354.07	16.935
354.43	15.635
354.79	16.090
355.15	16.760
355.51	17.826
355.87	16.327
356.24	16.531
356.60	16.520
356.96	16.171
357.32	16.353
357.68	16.772
358.04	16.785
358.40	16.548
358.77	16.510
359.13	15.075
359.49	15.765
359.85	15.000
360.21	15.789
360.57	16.809
360.93	14.923
361.29	15.344
361.66	15.325
362.02	16.343
362.38	16.350
362.74	16.071
363.10	14.730
363.46	16.067
363.82	15.949
364.18	15.345
364.54	15.750
364.90	15.581
365.26	15.000
365.62	15.705
365.98	14.901
366.35	15.043
366.71	15.546
367.07	15.805
367.43	16.546
367.79	15.989
368.15	16.020
368.51	14.898
368.87	15.632
369.23	14.996
369.59	15.134
369.95	15.588
370.31	15.812
370.67	14.783
371.03	16.030
371.39	15.306
371.75	15.368
372.11	15.292
372.47	15.469
372.83	15.562
373.19	14.812
373.55	15.743
373.91	14.801
374.27	14.570
374.63	14.982
374.99	15.678
375.35	14.794
375.71	14.805
376.07	15.226
376.42	14.718
376.78	15.706
377.14	14.858
377.50	15.828
377.86	14.162
378.22	15.487
378.58	13.784
378.94	15.022
379.30	14.186
379.66	15.673
380.02	14.681
380.38	13.965
380.74	14.286
381.09	14.731
381.45	14.628
381.81	14.558
382.17	14.777
382.53	13.774
382.89	15.309
383.25	14.822
383.61	14.808
383.97	14.321
384.32	14.286
384.68	13.817
385.04	14.690
385.40	13.932
385.76	14.558
386.12	14.573
386.48	14.475
386.83	14.176
387.19	14.719
387.55	14.595
387.91	13.603
388.27	14.347
388.62	14.444
388.98	13.821
389.34	14.330
389.70	13.795
390.06	15.146
390.42	14.073
390.77	14.822
391.13	14.678
391.49	14.277
391.85	14.195
392.20	13.375
392.56	14.141
392.92	14.538
393.28	12.485
393.64	13.969
393.99	14.417
394.35	14.082
394.71	13.864
395.07	13.645
395.42	14.400
395.78	13.550
396.14	14.153
396.50	14.724
396.85	14.558
397.21	13.625
397.57	13.887
397.92	14.423
398.28	12.612
398.64	14.038
399.00	13.990
399.35	12.860
399.71	14.294
400.07	14.311
400.42	13.252
400.78	14.717
401.14	13.354
401.49	13.970
401.85	13.309
402.21	13.174
402.57	13.572
402.92	13.934
403.28	14.241
403.63	13.552
403.99	12.930
404.35	13.758
404.70	13.729
405.06	13.512
405.42	13.662
405.77	13.714
406.13	13.205
406.49	14.193
406.84	13.585
407.20	13.416
407.55	14.167
407.91	14.333
408.27	13.657
408.62	14.269
408.98	13.603
409.34	14.022
409.69	13.419
410.05	13.011
410.40	13.761
410.76	13.501
411.11	13.691
411.47	13.802
411.83	14.294
412.18	13.049
412.54	14.197
412.89	13.373
413.25	13.695
413.60	13.280
413.96	13.479
414.31	12.819
414.67	14.005
415.03	13.377
415.38	14.497
415.74	14.019
416.09	14.435
416.45	13.186
416.80	12.822
417.16	14.678
417.51	14.134
417.87	13.359
418.22	13.880
418.58	13.880
418.93	13.821
419.29	14.258
419.64	14.295
420.00	13.476
420.35	14.029
420.71	13.210
421.06	13.902
421.42	12.924
421.77	13.677
422.12	12.858
422.48	12.520
422.83	12.930
423.19	13.204
423.54	13.697
423.90	13.507
424.25	13.903
424.61	13.571
424.96	13.644
425.31	13.898
425.67	13.258
426.02	13.200
426.38	13.736
426.73	12.932
427.09	14.225
427.44	13.226
427.79	13.341
428.15	13.810
428.50	13.517
428.85	13.945
429.21	12.700
429.56	13.219
429.92	12.783
430.27	13.108
430.62	12.801
430.98	12.870
431.33	13.351
431.68	13.665
432.04	13.951
432.39	13.478
432.74	13.704
433.10	13.356
433.45	13.353
433.80	12.916
434.16	13.034
434.51	13.737
434.86	13.569
435.22	12.507
435.57	13.617
435.92	13.400
436.28	13.523
436.63	14.404
436.98	13.165
437.34	14.550
437.69	13.944
438.04	13.772
438.39	13.612
438.75	13.074
439.10	13.687
439.45	13.577
439.81	13.897
440.16	13.100
440.51	14.470
440.86	13.492
441.22	13.459
441.57	13.323
441.92	13.664
442.27	13.509
442.63	13.428
442.98	14.423
443.33	13.641
443.68	13.939
444.03	13.519
444.39	12.658
444.74	13.474
445.09	14.124
445.44	13.833
445.79	13.805
446.15	13.499
446.50	13.678
446.85	13.669
447.20	14.278
447.55	13.791
447.91	13.569
448.26	13.411
448.61	13.963
448.96	13.898
449.31	13.723
449.66	13.956
450.02	13.148
450.37	14.002
450.72	13.649
451.07	13.894
451.42	13.191
451.77	13.858
452.12	13.626
452.47	14.366
452.83	14.044
453.18	14.914
453.53	14.533
453.88	13.822
454.23	13.987
454.58	14.718
454.93	15.194
455.28	13.404
455.63	14.138
455.98	15.595
456.34	13.756
456.69	13.651
457.04	14.303
457.39	14.144
457.74	14.452
458.09	14.836
458.44	13.683
458.79	13.829
459.14	14.616
459.49	14.653
459.84	14.183
460.19	14.850
460.54	14.641
460.89	14.427
461.24	14.876
461.59	15.340
461.94	14.550
462.29	15.015
462.64	14.359
462.99	13.923
463.34	15.067
463.69	14.384
464.04	14.783
464.39	14.551
464.74	14.617
465.09	13.993
465.44	14.072
465.79	13.479
466.14	14.012
466.49	13.682
466.84	14.769
467.19	14.424
467.54	14.938
467.89	14.466
468.24	13.962
468.59	14.408
468.94	14.417
469.29	14.781
469.64	14.659
469.99	14.953
470.34	14.597
470.68	14.440
471.03	14.966
471.38	15.566
471.73	15.390
472.08	16.118
472.43	15.327
472.78	14.022
473.13	15.533
473.48	14.607
473.83	15.000
474.17	14.686
474.52	15.199
474.87	15.820
475.22	14.916
475.57	14.508
475.92	14.233
476.27	14.262
476.61	14.286
476.96	13.964
477.31	14.024
477.66	14.551
478.01	13.905
478.36	14.384
478.70	13.603
479.05	13.898
479.40	14.790
479.75	14.743
480.10	14.115
480.45	14.184
480.79	13.856
481.14	14.286
481.49	14.001
481.84	13.946
482.19	14.266
482.53	13.716
482.88	14.007
483.23	14.065
483.58	14.741
483.92	14.433
484.27	13.028
484.62	13.621
484.97	12.929
485.31	13.459
485.66	12.070
486.01	11.478
486.36	11.183
486.70	11.091
487.05	11.570
487.40	12.053
487.75	12.322
488.09	12.557
488.44	12.608
488.79	12.911
489.13	13.407
489.48	14.396
489.83	13.120
490.17	14.117
490.52	14.083
490.87	13.976
491.22	14.279
491.56	13.485
491.91	13.495
492.26	14.286
492.60	14.055
492.95	13.704
493.30	14.346
493.64	14.046
493.99	13.324
494.34	14.107
494.68	14.377
495.03	14.709
495.37	13.913
495.72	14.522
496.07	14.571
496.41	13.628
496.76	13.896
497.11	13.372
497.45	14.113
497.80	14.395
498.14	13.768
498.49	14.293
498.84	14.142
499.18	13.857
499.53	14.150
499.87	14.492
500.22	14.084
500.56	14.903
500.91	14.375
501.26	13.798
501.60	14.048
501.95	13.428
502.29	14.808
502.64	13.920
502.98	13.698
503.33	14.351
503.67	13.968
504.02	14.219
504.36	14.085
504.71	13.825
505.06	14.361
505.40	14.390
505.75	14.417
506.09	14.383
506.44	14.258
506.78	14.759
507.13	14.740
507.47	14.899
507.82	14.742
508.16	14.691
508.51	14.967
508.85	14.300
509.19	14.847
509.54	14.745
509.88	15.147
510.23	14.859
510.57	15.273
510.92	14.966
511.26	14.954
511.61	15.093
511.95	14.562
512.30	14.369
512.64	15.583
512.98	14.791
513.33	15.525
513.67	14.568
514.02	14.989
514.36	16.057
514.70	15.440
515.05	15.337
515.39	15.423
515.74	15.372
516.08	16.657
516.42	15.427
516.77	16.221
517.11	14.983
517.46	16.140
517.80	16.318
518.14	15.229
518.49	15.461
518.83	15.568
519.17	15.185
519.52	15.620
519.86	15.630
520.20	16.243
520.55	16.517
520.89	15.815
521.23	16.526
521.58	15.246
521.92	15.799
522.26	15.619
522.61	15.888
522.95	15.040
523.29	16.129
523.64	15.793
523.98	16.266
524.32	16.285
524.66	16.657
525.01	16.238
525.35	16.171
525.69	15.825
526.04	15.950
526.38	15.436
526.72	16.319
527.06	16.321
527.41	15.037
527.75	16.399
528.09	16.956
528.43	16.762
528.78	16.902
529.12	16.242
529.46	16.718
529.80	16.708
530.15	17.757
530.49	16.492
530.83	16.456
531.17	17.885
531.51	17.704
531.86	16.710
532.20	16.819
532.54	16.976
532.88	16.752
533.22	16.177
533.57	15.988
533.91	15.593
534.25	15.857
534.59	16.412
534.93	16.121
535.27	15.691
535.62	15.995
535.96	16.698
536.30	16.147
536.64	16.806
536.98	16.523
537.32	16.261
537.66	16.533
538.01	16.327
538.35	17.130
538.69	17.230
539.03	16.049
539.37	16.230
539.71	15.165
540.05	16.471
540.39	16.545
540.73	16.429
541.07	17.002
541.42	16.765
541.76	16.903
542.10	17.141
542.44	16.490
542.78	16.667
543.12	16.315
543.46	16.590
543.80	16.005
544.14	16.303
544.48	16.000
544.82	15.779
545.16	16.331
545.50	16.324
545.84	15.927
546.18	16.162
546.52	16.862
546.86	16.151
547.20	17.465
547.54	16.500
547.88	17.156
548.22	16.750
548.56	16.164
548.90	16.517
549.24	15.017
549.58	16.030
549.92	17.514
550.26	17.543
550.60	16.528
550.94	16.620
551.28	16.313
551.62	16.679
551.96	16.351
552.30	16.997
552.64	16.971
552.98	17.356
553.32	16.993
553.66	18.064
554.00	16.541
554.34	16.287
554.68	17.668
555.02	17.066
555.36	16.910
555.69	16.238
556.03	16.756
556.37	16.576
556.71	16.508
557.05	15.756
557.39	16.445
557.73	16.725
558.07	17.404
558.41	16.281
558.75	16.973
559.08	17.301
559.42	16.402
559.76	16.471
560.10	16.203
560.44	15.584
560.78	15.502
561.12	16.161
561.45	16.688
561.79	16.018
562.13	16.365
562.47	16.325
562.81	16.597
563.15	16.455
563.48	17.042
563.82	15.721
564.16	15.697
564.50	15.299
564.84	15.676
565.17	16.474
565.51	15.463
565.85	15.673
566.19	15.216
566.52	16.023
566.86	15.491
567.20	15.920
567.54	15.468
567.88	14.666
568.21	15.820
568.55	14.813
568.89	14.251
569.23	14.082
569.56	14.049
569.90	13.547
570.24	13.384
570.57	13.635
570.91	12.993
571.25	13.002
571.59	12.842
571.92	12.298
572.26	12.478
572.60	13.153
572.93	12.234
573.27	12.363
573.61	12.591
573.95	12.636
574.28	12.035
574.62	12.221
574.96	11.995
575.29	12.027
575.63	12.017
575.97	11.924
576.30	12.454
576.64	11.751
576.98	11.983
577.31	11.853
577.65	11.618
577.98	11.460
578.32	11.398
578.66	11.782
578.99	11.755
579.33	11.910
579.67	11.603
580.00	11.724
580.34	11.865
580.67	11.818
581.01	11.693
581.35	11.945
581.68	11.586
582.02	11.335
582.35	11.555
582.69	11.408
583.02	11.613
583.36	11.782
583.70	11.988
584.03	12.278
584.37	12.780
584.70	12.173
585.04	11.962
585.37	12.139
585.71	12.148
586.04	12.273
586.38	12.043
586.72	12.731
587.05	12.442
587.39	11.979
587.72	12.342
588.06	12.353
588.39	12.702
588.73	12.408
589.06	13.182
589.40	12.828
589.73	12.777
590.07	13.203
590.40	13.226
590.73	13.193
591.07	13.635
591.40	14.256
591.74	14.416
592.07	13.787
592.41	13.807
592.74	13.408
593.08	13.358
593.41	12.812
593.75	12.648
594.08	12.906
594.41	13.432
594.75	13.198
595.08	12.598
595.42	13.170
595.75	13.105
596.09	13.143
596.42	13.870
596.75	13.930
597.09	14.762
597.42	13.786
597.75	13.842
598.09	14.609
598.42	13.488
598.76	13.417
599.09	13.265
599.42	13.282
599.76	13.141
600.09	13.005
600.42	13.075
600.76	12.821
601.09	12.860
601.42	13.242
601.76	13.321
602.09	13.162
602.42	12.938
602.76	13.744
603.09	13.415
603.42	13.940
603.76	13.377
604.09	12.873
604.42	13.168
604.76	14.551
605.09	13.412
605.42	13.938
605.75	13.369
606.09	13.420
606.42	13.036
606.75	13.397
607.09	13.562
607.42	13.693
607.75	13.333
608.08	13.200
608.42	14.209
608.75	13.931
609.08	14.292
609.41	13.517
609.75	14.054
610.08	14.043
610.41	13.687
610.74	13.765
611.07	14.328
611.41	14.181
611.74	15.033
612.07	14.803
612.40	14.638
612.73	14.263
613.07	15.787
613.40	14.587
613.73	14.316
614.06	15.054
614.39	14.316
614.72	14.421
615.06	14.601
615.39	15.074
615.72	14.571
616.05	14.301
616.38	15.342
616.71	15.499
617.05	14.605
617.38	16.236
617.71	14.835
618.04	15.745
618.37	14.843
618.70	15.432
619.03	15.197
619.36	15.954
619.69	15.986
620.03	15.728
620.36	16.845
620.69	16.164
621.02	16.077
621.35	15.975
621.68	15.966
622.01	16.563
622.34	17.247
622.67	16.502
623.00	15.994
623.33	15.154
623.66	16.226
623.99	16.421
624.32	16.049
624.65	16.031
624.99	15.227
625.32	15.424
625.65	16.454
625.98	16.679
626.31	17.341
626.64	16.980
626.97	16.209
627.30	16.625
627.63	17.145
627.96	17.914
628.29	16.798
628.62	17.658
628.95	19.906
629.28	18.066
629.61	18.790
629.94	17.810
630.26	17.922
630.59	16.683
630.92	18.487
