SpectraSuite Data File
++++++++++++++++++++++++++++++++++++
Date: Wed May 13 19:25:23 PDT 2015
User: schluterlab
Dark Spectrum Present: Yes
Reference Spectrum Present: Yes
Number of Sampled Component Spectra: 1
Spectrometers: USB2E3373
Integration Time (usec): 3000 (USB2E3373)
Spectra Averaged: 3 (USB2E3373)
Boxcar Smoothing: 0 (USB2E3373)
Correct for Electrical Dark: No (USB2E3373)
Strobe/Lamp Enabled: No (USB2E3373)
Correct for Detector Non-linearity: No (USB2E3373)
Correct for Stray Light: No (USB2E3373)
Number of Pixels in Processed Spectrum: 2048
>>>>>Begin Processed Spectral Data<<<<<
178.53	0.000
178.91	-1175.000
179.29	-1550.000
179.67	-261.111
180.04	-1400.000
180.42	2950.000
180.80	1060.000
181.18	-1225.000
181.56	714.286
181.94	0.000
182.31	-742.857
182.69	1766.667
183.07	-587.500
183.45	-488.889
183.83	609.091
184.20	-370.000
184.58	2700.000
184.96	5500.000
185.34	-940.000
185.72	-737.500
186.09	-2450.000
186.47	2500.000
186.85	2700.000
187.23	6000.000
187.61	-1533.333
187.98	1375.000
188.36	572.727
188.74	481.818
189.12	-1100.000
189.49	600.000
189.87	-5100.000
190.25	-1325.000
190.63	457.143
191.00	492.308
191.38	983.333
191.76	-1425.000
192.14	1550.000
192.51	687.500
192.89	1050.000
193.27	587.500
193.65	-1250.000
194.02	580.000
194.40	1120.000
194.78	560.000
195.15	508.333
195.53	670.000
195.91	-2450.000
196.29	431.250
196.66	347.368
197.04	-420.000
197.42	0.000
197.79	610.000
198.17	-6000.000
198.55	657.143
198.92	800.000
199.30	1100.000
199.68	0.000
200.05	327.778
200.43	842.857
200.81	5400.000
201.18	1933.333
201.56	-1833.333
201.94	600.000
202.31	633.333
202.69	383.333
203.07	650.000
203.44	0.000
203.82	1350.000
204.19	828.571
204.57	492.857
204.95	687.500
205.32	2000.000
205.70	563.636
206.08	335.714
206.45	2750.000
206.83	381.250
207.20	1050.000
207.58	880.000
207.96	394.444
208.33	837.500
208.71	-983.333
209.08	900.000
209.46	611.111
209.84	463.636
210.21	-1766.667
210.59	1600.000
210.96	-650.000
211.34	2950.000
211.71	580.000
212.09	933.333
212.46	0.000
212.84	1900.000
213.22	1325.000
213.59	-5000.000
213.97	933.333
214.34	828.571
214.72	645.455
215.09	1020.000
215.47	-2450.000
215.84	-3100.000
216.22	1666.667
216.59	435.714
216.97	1275.000
217.34	445.455
217.72	-866.667
218.09	0.000
218.47	-4400.000
218.84	766.667
219.22	757.143
219.59	2033.333
219.97	-700.000
220.34	920.000
220.72	-1966.667
221.09	400.000
221.47	1725.000
221.84	-1016.667
222.22	0.000
222.59	1675.000
222.97	-2950.000
223.34	1400.000
223.72	476.923
224.09	1300.000
224.46	1900.000
224.84	-4600.000
225.21	-1260.000
225.59	-4200.000
225.96	700.000
226.34	315.000
226.71	3250.000
227.08	812.500
227.46	650.000
227.83	-1200.000
228.21	-2850.000
228.58	633.333
228.95	-2750.000
229.33	-2750.000
229.70	1833.333
230.08	914.286
230.45	-1040.000
230.82	416.667
231.20	900.000
231.57	857.143
231.95	525.000
232.32	272.727
232.69	563.636
233.07	700.000
233.44	446.154
233.81	-1700.000
234.19	289.474
234.56	516.667
234.93	450.000
235.31	545.455
235.68	400.000
236.05	428.571
236.43	196.970
236.80	342.105
237.17	5200.000
237.55	257.143
237.92	257.143
238.29	266.667
238.67	209.677
239.04	220.690
239.41	183.333
239.79	154.348
240.16	154.762
240.53	159.091
240.91	125.490
241.28	122.000
241.65	140.000
242.02	108.696
242.40	108.065
242.77	123.333
243.14	97.849
243.51	103.371
243.89	94.118
244.26	95.556
244.63	84.946
245.00	82.979
245.38	92.079
245.75	81.308
246.12	74.312
246.49	85.401
246.87	85.600
247.24	80.000
247.61	79.286
247.98	63.399
248.36	64.865
248.73	69.427
249.10	75.796
249.47	60.452
249.84	67.914
250.22	65.775
250.59	67.456
250.96	62.626
251.33	62.085
251.70	68.317
252.08	58.571
252.45	59.641
252.82	57.826
253.19	60.000
253.56	54.902
253.94	61.411
254.31	56.250
254.68	58.462
255.05	54.244
255.42	54.472
255.79	56.250
256.16	56.318
256.54	50.177
256.91	55.516
257.28	47.842
257.65	47.855
258.02	48.447
258.39	47.319
258.76	50.167
259.14	52.381
259.51	50.760
259.88	49.068
260.25	50.453
260.62	48.266
260.99	49.068
261.36	50.150
261.73	46.418
262.10	51.453
262.47	48.169
262.85	50.696
263.22	43.875
263.59	48.433
263.96	48.626
264.33	47.258
264.70	48.421
265.07	46.547
265.44	45.960
265.81	43.309
266.18	44.724
266.55	43.415
266.92	44.226
267.29	48.148
267.66	45.413
268.03	45.909
268.40	45.327
268.77	45.346
269.14	45.045
269.51	44.470
269.88	47.786
270.25	45.824
270.62	44.270
270.99	44.516
271.36	45.064
271.73	44.159
272.10	45.435
272.47	46.452
272.84	44.805
273.21	42.977
273.58	44.760
273.95	43.187
274.32	44.835
274.69	42.398
275.06	38.189
275.43	41.702
275.80	43.888
276.17	43.177
276.54	45.530
276.91	42.885
277.28	42.773
277.65	41.779
278.02	42.443
278.39	45.703
278.76	39.455
279.13	41.887
279.50	41.713
279.87	41.633
280.23	41.916
280.60	40.812
280.97	40.296
281.34	39.292
281.71	39.091
282.08	43.570
282.45	40.909
282.82	41.385
283.19	40.107
283.56	41.053
283.92	41.117
284.29	39.153
284.66	39.927
285.03	37.613
285.40	39.437
285.77	40.404
286.14	40.242
286.51	39.167
286.87	38.974
287.24	39.577
287.61	36.437
287.98	36.688
288.35	37.084
288.72	37.539
289.08	35.994
289.45	37.727
289.82	38.374
290.19	36.264
290.56	35.528
290.93	36.858
291.29	38.037
291.66	34.808
292.03	36.337
292.40	35.389
292.77	34.763
293.13	34.776
293.50	34.402
293.87	32.444
294.24	34.815
294.60	32.169
294.97	32.122
295.34	34.838
295.71	32.386
296.08	31.766
296.44	32.187
296.81	33.157
297.18	33.062
297.55	29.156
297.91	31.662
298.28	31.191
298.65	31.984
299.02	32.411
299.38	30.412
299.75	30.054
300.12	29.885
300.48	30.000
300.85	29.963
301.22	30.828
301.59	28.157
301.95	29.975
302.32	30.295
302.69	30.108
303.05	29.697
303.42	28.889
303.79	29.105
304.15	28.205
304.52	27.810
304.89	28.455
305.25	29.582
305.62	29.219
305.99	28.217
306.35	28.076
306.72	29.148
307.09	28.302
307.45	30.518
307.82	27.232
308.19	28.035
308.55	29.342
308.92	26.960
309.29	26.505
309.65	27.466
310.02	26.850
310.38	27.957
310.75	27.455
311.12	28.147
311.48	29.049
311.85	28.931
312.22	28.928
312.58	27.963
312.95	29.673
313.31	28.058
313.68	31.081
314.05	29.783
314.41	30.452
314.78	29.104
315.14	30.089
315.51	30.381
315.87	30.396
316.24	31.082
316.61	31.189
316.97	32.192
317.34	31.605
317.70	32.600
318.07	33.301
318.43	34.540
318.80	35.333
319.16	35.311
319.53	34.615
319.89	37.143
320.26	38.500
320.62	38.095
320.99	38.990
321.35	37.879
321.72	40.041
322.08	40.079
322.45	42.289
322.81	42.442
323.18	42.678
323.54	42.579
323.91	45.943
324.27	44.551
324.64	47.717
325.00	47.430
325.37	49.227
325.73	51.436
326.10	49.868
326.46	53.584
326.83	52.373
327.19	55.167
327.56	56.620
327.92	56.868
328.29	58.208
328.65	59.945
329.01	61.011
329.38	61.055
329.74	62.604
330.11	62.017
330.47	63.820
330.84	65.533
331.20	64.117
331.56	64.954
331.93	68.611
332.29	66.105
332.66	68.319
333.02	67.550
333.38	69.828
333.75	69.875
334.11	70.285
334.48	70.985
334.84	70.864
335.20	72.000
335.57	70.716
335.93	70.000
336.29	74.908
336.66	74.211
337.02	72.670
337.38	73.519
337.75	71.569
338.11	73.232
338.47	77.716
338.84	75.527
339.20	74.037
339.56	77.464
339.93	74.909
340.29	75.453
340.65	77.362
341.02	75.131
341.38	77.847
341.74	76.667
342.11	78.603
342.47	78.502
342.83	77.397
343.20	78.268
343.56	76.917
343.92	77.719
344.28	78.146
344.65	80.739
345.01	77.778
345.37	76.758
345.73	79.019
346.10	77.920
346.46	77.881
346.82	78.995
347.19	80.284
347.55	77.340
347.91	80.259
348.27	80.362
348.63	81.187
349.00	78.964
349.36	78.161
349.72	79.551
350.08	79.254
350.45	80.228
350.81	80.097
351.17	79.903
351.53	81.818
351.89	80.528
352.26	80.663
352.62	81.957
352.98	80.470
353.34	82.580
353.70	81.178
354.07	80.161
354.43	80.238
354.79	79.244
355.15	80.527
355.51	83.373
355.87	82.939
356.24	81.759
356.60	79.872
356.96	82.220
357.32	82.093
357.68	81.654
358.04	81.869
358.40	81.869
358.77	82.707
359.13	80.426
359.49	81.412
359.85	81.270
360.21	79.904
360.57	80.545
360.93	82.846
361.29	81.028
361.66	81.424
362.02	80.224
362.38	82.586
362.74	81.473
363.10	81.643
363.46	81.291
363.82	82.389
364.18	79.589
364.54	81.649
364.90	80.312
365.26	82.059
365.62	82.688
365.98	81.446
366.35	79.943
366.71	80.983
367.07	80.626
367.43	83.309
367.79	80.942
368.15	82.040
368.51	81.032
368.87	82.298
369.23	81.492
369.59	82.476
369.95	81.471
370.31	81.624
370.67	79.130
371.03	82.397
371.39	80.831
371.75	81.324
372.11	79.801
372.47	81.232
372.83	83.646
373.19	80.491
373.55	81.596
373.91	82.180
374.27	79.450
374.63	81.091
374.99	80.085
375.35	81.298
375.71	80.055
376.07	80.247
376.42	80.330
376.78	80.451
377.14	79.444
377.50	80.199
377.86	79.721
378.22	80.784
378.58	78.634
378.94	79.384
379.30	80.153
379.66	80.647
380.02	80.160
380.38	79.356
380.74	80.432
381.09	79.034
381.45	80.025
381.81	80.160
382.17	79.427
382.53	79.182
382.89	80.926
383.25	79.675
383.61	79.740
383.97	78.924
384.32	78.104
384.68	77.757
385.04	79.103
385.40	78.019
385.76	78.378
386.12	79.080
386.48	80.176
386.83	80.629
387.19	79.530
387.55	77.798
387.91	79.504
388.27	79.338
388.62	79.041
388.98	76.904
389.34	79.349
389.70	77.498
390.06	79.975
390.42	79.442
390.77	76.654
391.13	80.345
391.49	78.807
391.85	78.039
392.20	78.486
392.56	77.273
392.92	77.752
393.28	76.864
393.64	76.739
393.99	75.626
394.35	78.412
394.71	76.537
395.07	75.452
395.42	78.307
395.78	75.827
396.14	75.605
396.50	78.070
396.85	77.559
397.21	76.510
397.57	76.131
397.92	76.863
398.28	75.392
398.64	74.671
399.00	75.322
399.35	75.240
399.71	76.157
400.07	76.464
400.42	74.969
400.78	76.598
401.14	76.646
401.49	76.597
401.85	75.257
402.21	74.072
402.57	75.077
402.92	74.968
403.28	76.015
403.63	74.691
403.99	74.968
404.35	74.788
404.70	74.580
405.06	73.559
405.42	74.922
405.77	73.486
406.13	73.307
406.49	74.335
406.84	73.892
407.20	73.227
407.55	75.239
407.91	76.000
408.27	75.112
408.62	72.787
408.98	74.265
409.34	73.555
409.69	74.452
410.05	73.048
410.40	72.966
410.76	72.401
411.11	72.075
411.47	70.799
411.83	72.694
412.18	71.367
412.54	73.973
412.89	71.506
413.25	72.255
413.60	73.626
413.96	71.585
414.31	70.778
414.67	72.053
415.03	72.318
415.38	71.585
415.74	72.219
416.09	72.306
416.45	70.683
416.80	72.902
417.16	71.783
417.51	72.462
417.87	71.805
418.22	71.798
418.58	70.755
418.93	69.902
419.29	70.210
419.64	71.537
420.00	71.159
420.35	70.493
420.71	71.309
421.06	69.690
421.42	70.409
421.77	68.946
422.12	69.175
422.48	67.674
422.83	69.307
423.19	68.453
423.54	69.878
423.90	67.884
424.25	68.733
424.61	69.405
424.96	69.796
425.31	69.048
425.67	67.584
426.02	68.514
426.38	70.574
426.73	67.232
427.09	68.511
427.44	70.098
427.79	69.465
428.15	67.321
428.50	67.934
428.85	67.700
429.21	68.526
429.56	68.377
429.92	67.891
430.27	66.981
430.62	65.131
430.98	66.943
431.33	65.876
431.68	67.749
432.04	64.696
432.39	67.904
432.74	68.522
433.10	67.742
433.45	68.571
433.80	67.572
434.16	65.438
434.51	66.579
434.86	66.876
435.22	67.204
435.57	67.173
435.92	66.589
436.28	66.429
436.63	66.943
436.98	66.400
437.34	68.098
437.69	66.919
438.04	66.610
438.39	66.448
438.75	67.461
439.10	66.369
439.45	66.470
439.81	66.828
440.16	65.613
440.51	65.964
440.86	66.184
441.22	65.462
441.57	66.932
441.92	65.865
442.27	64.424
442.63	64.297
442.98	65.408
443.33	64.620
443.68	64.843
444.03	65.495
444.39	63.973
444.74	65.422
445.09	63.558
445.44	63.915
445.79	64.325
446.15	63.526
446.50	63.759
446.85	65.159
447.20	64.253
447.55	66.108
447.91	63.486
448.26	64.608
448.61	65.291
448.96	64.064
449.31	64.511
449.66	64.547
450.02	63.287
450.37	63.492
450.72	63.508
451.07	64.595
451.42	63.100
451.77	63.124
452.12	63.453
452.47	63.557
452.83	64.918
453.18	61.797
453.53	64.502
453.88	63.024
454.23	63.120
454.58	63.356
454.93	65.162
455.28	63.716
455.63	63.167
455.98	64.583
456.34	64.070
456.69	63.118
457.04	64.706
457.39	62.653
457.74	62.623
458.09	62.220
458.44	63.113
458.79	61.551
459.14	62.867
459.49	63.339
459.84	61.108
460.19	62.110
460.54	60.590
460.89	62.205
461.24	62.356
461.59	62.696
461.94	61.221
462.29	62.315
462.64	60.944
462.99	61.483
463.34	63.200
463.69	61.726
464.04	62.029
464.39	60.638
464.74	61.141
465.09	61.158
465.44	61.219
465.79	59.676
466.14	58.949
466.49	59.789
466.84	61.821
467.19	60.893
467.54	61.625
467.89	59.544
468.24	59.744
468.59	61.111
468.94	59.866
469.29	60.797
469.64	62.918
469.99	62.788
470.34	62.417
470.68	62.428
471.03	60.680
471.38	62.821
471.73	61.959
472.08	61.974
472.43	61.432
472.78	61.883
473.13	60.847
473.48	59.363
473.83	61.829
474.17	59.365
474.52	61.104
474.87	60.479
475.22	60.186
475.57	58.087
475.92	58.577
476.27	59.132
476.61	59.184
476.96	59.153
477.31	58.817
477.66	59.026
478.01	58.442
478.36	58.593
478.70	58.204
479.05	58.839
479.40	59.417
479.75	58.973
480.10	57.157
480.45	56.830
480.79	57.573
481.14	58.219
481.49	57.760
481.84	57.202
482.19	57.474
482.53	56.972
482.88	57.143
483.23	57.150
483.58	58.417
483.92	58.201
484.27	56.645
484.62	56.250
484.97	56.248
485.31	55.788
485.66	52.335
486.01	50.497
486.36	48.614
486.70	47.914
487.05	49.887
487.40	51.124
487.75	51.917
488.09	52.836
488.44	53.569
488.79	55.588
489.13	55.233
489.48	56.607
489.83	55.848
490.17	57.080
490.52	56.643
490.87	56.038
491.22	56.844
491.56	55.216
491.91	56.212
492.26	55.765
492.60	55.853
492.95	55.987
493.30	55.981
493.64	56.043
493.99	56.500
494.34	55.874
494.68	56.227
495.03	56.015
495.37	55.188
495.72	55.945
496.07	56.288
496.41	54.292
496.76	55.629
497.11	54.120
497.45	55.147
497.80	56.814
498.14	56.522
498.49	55.756
498.84	56.999
499.18	55.714
499.53	54.701
499.87	56.011
500.22	55.016
500.56	56.553
500.91	55.096
501.26	54.813
501.60	56.051
501.95	54.445
502.29	55.342
502.64	55.633
502.98	54.932
503.33	54.707
503.67	55.035
504.02	54.911
504.36	55.077
504.71	55.936
505.06	54.988
505.40	54.594
505.75	54.966
506.09	55.685
506.44	56.685
506.78	54.749
507.13	55.628
507.47	55.354
507.82	55.319
508.16	56.282
508.51	56.621
508.85	55.214
509.19	55.255
509.54	55.051
509.88	55.075
510.23	56.452
510.57	56.656
510.92	56.033
511.26	55.550
511.61	55.965
511.95	56.106
512.30	55.514
512.64	57.281
512.98	56.431
513.33	56.103
513.67	54.963
514.02	55.790
514.36	56.253
514.70	57.443
515.05	56.442
515.39	57.543
515.74	58.221
516.08	57.350
516.42	56.271
516.77	58.528
517.11	57.048
517.46	56.603
517.80	58.420
518.14	57.499
518.49	58.460
518.83	56.648
519.17	57.621
519.52	57.159
519.86	57.501
520.20	57.572
520.55	59.066
520.89	59.489
521.23	58.866
521.58	57.863
521.92	59.339
522.26	57.230
522.61	59.751
522.95	58.441
523.29	57.821
523.64	58.780
523.98	58.842
524.32	58.926
524.66	58.268
525.01	58.272
525.35	57.993
525.69	58.313
526.04	59.190
526.38	57.535
526.72	57.607
527.06	58.694
527.41	56.559
527.75	58.650
528.09	58.895
528.43	58.062
528.78	57.898
529.12	56.242
529.46	56.828
529.80	59.158
530.15	57.383
530.49	56.308
530.83	58.038
531.17	59.138
531.51	59.533
531.86	57.677
532.20	58.475
532.54	57.335
532.88	57.959
533.22	55.965
533.57	56.358
533.91	55.810
534.25	55.468
534.59	55.949
534.93	55.324
535.27	55.763
535.62	56.227
535.96	55.995
536.30	56.135
536.64	57.630
536.98	56.470
537.32	55.102
537.66	57.400
538.01	56.880
538.35	56.303
538.69	56.796
539.03	55.750
539.37	55.335
539.71	55.995
540.05	56.667
540.39	57.143
540.73	54.592
541.07	55.743
541.42	56.686
541.76	56.516
542.10	56.145
542.44	56.821
542.78	56.653
543.12	54.639
543.46	55.344
543.80	56.018
544.14	53.851
544.48	54.857
544.82	55.292
545.16	55.237
545.50	55.141
545.84	56.384
546.18	56.431
546.52	57.330
546.86	55.739
547.20	56.642
547.54	54.776
547.88	55.421
548.22	54.421
548.56	54.403
548.90	54.161
549.24	54.815
549.58	55.593
549.92	55.426
550.26	56.179
550.60	54.426
550.94	56.479
551.28	55.304
551.62	57.513
551.96	55.018
552.30	56.041
552.64	55.781
552.98	55.525
553.32	55.091
553.66	56.169
554.00	56.555
554.34	55.280
554.68	56.438
555.02	55.501
555.36	55.880
555.69	54.398
556.03	54.711
556.37	55.116
556.71	53.274
557.05	53.922
557.39	54.654
557.73	55.328
558.07	55.983
558.41	55.210
558.75	56.943
559.08	56.525
559.42	57.218
559.76	55.441
560.10	53.605
560.44	55.136
560.78	54.225
561.12	54.551
561.45	54.433
561.79	53.790
562.13	54.326
562.47	55.601
562.81	54.812
563.15	54.849
563.48	54.111
563.82	53.620
564.16	53.107
564.50	52.865
564.84	53.097
565.17	53.282
565.51	53.994
565.85	52.221
566.19	52.536
566.52	53.578
566.86	52.381
567.20	51.592
567.54	51.427
567.88	48.561
568.21	49.894
568.55	48.180
568.89	48.492
569.23	47.415
569.56	45.587
569.90	45.887
570.24	45.533
570.57	43.829
570.91	42.889
571.25	42.526
571.59	43.004
571.92	41.705
572.26	42.172
572.60	42.763
572.93	41.769
573.27	41.852
573.61	41.904
573.95	41.499
574.28	40.603
574.62	40.622
574.96	40.550
575.29	40.519
575.63	39.939
575.97	40.901
576.30	40.998
576.64	40.384
576.98	40.204
577.31	40.042
577.65	39.175
577.98	39.264
578.32	38.860
578.66	38.826
578.99	39.603
579.33	39.603
579.67	39.528
580.00	39.799
580.34	39.677
580.67	39.045
581.01	39.285
581.35	39.435
581.68	38.553
582.02	38.202
582.35	37.685
582.69	38.431
583.02	38.837
583.36	39.359
583.70	39.760
584.03	39.368
584.37	39.657
584.70	40.178
585.04	39.066
585.37	39.329
585.71	39.262
586.04	39.575
586.38	40.047
586.72	40.238
587.05	39.473
587.39	39.631
587.72	39.835
588.06	40.395
588.39	39.671
588.73	40.892
589.06	40.698
589.40	41.818
589.73	41.851
590.07	42.206
590.40	42.090
590.73	43.286
591.07	44.078
591.40	42.893
591.74	43.593
592.07	43.106
592.41	43.406
592.74	42.734
593.08	40.773
593.41	41.158
593.75	40.037
594.08	41.100
594.41	40.969
594.75	42.181
595.08	41.052
595.42	41.331
595.75	41.560
596.09	42.095
596.42	42.672
596.75	43.689
597.09	43.463
597.42	42.622
597.75	43.165
598.09	42.957
598.42	42.612
598.76	42.238
599.09	41.315
599.42	41.048
599.76	41.471
600.09	41.056
600.42	40.541
600.76	40.036
601.09	41.275
601.42	41.933
601.76	41.252
602.09	40.553
602.42	41.401
602.76	42.604
603.09	41.896
603.42	40.961
603.76	40.663
604.09	41.140
604.42	41.989
604.76	42.556
605.09	42.071
605.42	43.095
605.75	41.515
606.09	41.033
606.42	41.030
606.75	41.228
607.09	41.942
607.42	42.276
607.75	40.633
608.08	41.641
608.42	42.806
608.75	42.290
609.08	42.969
609.41	43.455
609.75	43.735
610.08	42.931
610.41	43.156
610.74	43.046
611.07	44.022
611.41	43.621
611.74	44.093
612.07	44.979
612.40	45.016
612.73	43.895
613.07	45.259
613.40	44.181
613.73	43.786
614.06	44.409
614.39	43.786
614.72	44.579
615.06	45.221
615.39	44.108
615.72	44.172
616.05	44.019
616.38	45.303
616.71	46.378
617.05	46.172
617.38	45.881
617.71	45.405
618.04	45.793
618.37	46.008
618.70	46.795
619.03	47.763
619.36	47.794
619.69	48.521
620.03	48.352
620.36	46.992
620.69	48.151
621.02	48.746
621.35	48.786
621.68	48.131
622.01	48.762
622.34	50.530
622.67	50.722
623.00	48.936
623.33	47.534
623.66	49.249
623.99	48.748
624.32	48.716
624.65	48.729
624.99	47.734
625.32	47.502
625.65	49.136
625.98	49.808
626.31	49.689
626.64	50.694
626.97	50.457
627.30	51.870
627.63	50.533
627.96	52.397
628.29	52.143
628.62	53.065
628.95	54.245
629.28	53.923
629.61	53.804
629.94	53.810
630.26	54.623
630.59	52.526
