SpectraSuite Data File
++++++++++++++++++++++++++++++++++++
Date: Wed May 13 19:46:45 PDT 2015
User: schluterlab
Dark Spectrum Present: Yes
Reference Spectrum Present: Yes
Number of Sampled Component Spectra: 1
Spectrometers: USB2E3373
Integration Time (usec): 3000 (USB2E3373)
Spectra Averaged: 3 (USB2E3373)
Boxcar Smoothing: 0 (USB2E3373)
Correct for Electrical Dark: No (USB2E3373)
Strobe/Lamp Enabled: No (USB2E3373)
Correct for Detector Non-linearity: No (USB2E3373)
Correct for Stray Light: No (USB2E3373)
Number of Pixels in Processed Spectrum: 2048
>>>>>Begin Processed Spectral Data<<<<<
178.53	0.000
178.91	-1500.000
179.29	-1300.000
179.67	-227.778
180.04	-1450.000
180.42	2500.000
180.80	1040.000
181.18	-975.000
181.56	771.429
181.94	0.000
182.31	-700.000
182.69	1666.667
183.07	-500.000
183.45	-444.444
183.83	509.091
184.20	-380.000
184.58	2400.000
184.96	5700.000
185.34	-880.000
185.72	-612.500
186.09	-2400.000
186.47	2550.000
186.85	2500.000
187.23	4600.000
187.61	-1766.667
187.98	1475.000
188.36	563.636
188.74	463.636
189.12	-1000.000
189.49	560.000
189.87	-4100.000
190.25	-1300.000
190.63	350.000
191.00	407.692
191.38	983.333
191.76	-1500.000
192.14	1300.000
192.51	700.000
192.89	983.333
193.27	625.000
193.65	-1150.000
194.02	590.000
194.40	960.000
194.78	610.000
195.15	483.333
195.53	680.000
195.91	-2150.000
196.29	350.000
196.66	310.526
197.04	-350.000
197.42	0.000
197.79	670.000
198.17	-4900.000
198.55	700.000
198.92	750.000
199.30	1000.000
199.68	0.000
200.05	316.667
200.43	800.000
200.81	4900.000
201.18	1733.333
201.56	-1700.000
201.94	522.222
202.31	611.111
202.69	458.333
203.07	580.000
203.44	0.000
203.82	1525.000
204.19	885.714
204.57	435.714
204.95	675.000
205.32	1333.333
205.70	527.273
206.08	371.429
206.45	2750.000
206.83	381.250
207.20	883.333
207.58	940.000
207.96	305.556
208.33	787.500
208.71	-916.667
209.08	700.000
209.46	644.444
209.84	400.000
210.21	-1400.000
210.59	1275.000
210.96	-575.000
211.34	2400.000
211.71	600.000
212.09	783.333
212.46	0.000
212.84	1800.000
213.22	1325.000
213.59	-3900.000
213.97	816.667
214.34	814.286
214.72	627.273
215.09	1040.000
215.47	-1950.000
215.84	-2650.000
216.22	1600.000
216.59	421.429
216.97	1400.000
217.34	472.727
217.72	-783.333
218.09	0.000
218.47	-4700.000
218.84	722.222
219.22	842.857
219.59	1233.333
219.97	-728.571
220.34	1080.000
220.72	-1900.000
221.09	435.714
221.47	1775.000
221.84	-716.667
222.22	0.000
222.59	1500.000
222.97	-2900.000
223.34	1120.000
223.72	423.077
224.09	1140.000
224.46	2050.000
224.84	-5600.000
225.21	-860.000
225.59	-5000.000
225.96	690.000
226.34	370.000
226.71	2750.000
227.08	637.500
227.46	550.000
227.83	-1075.000
228.21	-2500.000
228.58	644.444
228.95	-2950.000
229.33	-2350.000
229.70	1800.000
230.08	714.286
230.45	-940.000
230.82	416.667
231.20	866.667
231.57	585.714
231.95	391.667
232.32	236.364
232.69	481.818
233.07	585.714
233.44	430.769
233.81	-2033.333
234.19	347.368
234.56	483.333
234.93	433.333
235.31	563.636
235.68	376.923
236.05	378.571
236.43	172.727
236.80	268.421
237.17	4400.000
237.55	223.810
237.92	250.000
238.29	276.190
238.67	177.419
239.04	210.345
239.41	161.111
239.79	141.304
240.16	152.381
240.53	161.364
240.91	119.608
241.28	116.000
241.65	138.000
242.02	108.696
242.40	127.419
242.77	108.333
243.14	84.946
243.51	98.876
243.89	85.882
244.26	70.000
244.63	74.194
245.00	71.277
245.38	83.168
245.75	66.355
246.12	66.972
246.49	67.153
246.87	75.200
247.24	62.308
247.61	61.429
247.98	62.745
248.36	57.432
248.73	57.962
249.10	63.694
249.47	50.282
249.84	54.011
250.22	52.406
250.59	56.213
250.96	61.111
251.33	54.028
251.70	53.960
252.08	52.857
252.45	48.430
252.82	50.000
253.19	48.511
253.56	47.451
253.94	49.793
254.31	47.266
254.68	48.077
255.05	45.756
255.42	44.715
255.79	48.529
256.16	48.014
256.54	44.170
256.91	46.263
257.28	39.568
257.65	45.215
258.02	45.031
258.39	42.271
258.76	36.455
259.14	46.131
259.51	40.729
259.88	38.509
260.25	38.369
260.62	42.775
260.99	44.099
261.36	43.243
261.73	40.974
262.10	39.826
262.47	43.099
262.85	39.276
263.22	37.892
263.59	42.735
263.96	41.209
264.33	39.687
264.70	37.105
265.07	41.432
265.44	38.384
265.81	36.010
266.18	37.688
266.55	39.512
266.92	38.575
267.29	39.120
267.66	37.844
268.03	39.091
268.40	38.084
268.77	39.379
269.14	37.613
269.51	38.375
269.88	40.326
270.25	37.020
270.62	37.303
270.99	39.355
271.36	36.695
271.73	41.355
272.10	36.304
272.47	37.849
272.84	36.580
273.21	37.107
273.58	34.934
273.95	35.430
274.32	36.570
274.69	37.045
275.06	34.055
275.43	35.745
275.80	33.868
276.17	37.067
276.54	38.254
276.91	35.771
277.28	33.203
277.65	35.010
278.02	37.060
278.39	35.156
278.76	33.818
279.13	36.038
279.50	34.823
279.87	37.052
280.23	35.130
280.60	34.623
280.97	33.641
281.34	33.451
281.71	35.818
282.08	35.125
282.45	33.818
282.82	34.103
283.19	31.373
283.56	33.333
283.92	32.149
284.29	33.333
284.66	33.031
285.03	33.092
285.40	33.979
285.77	32.155
286.14	31.779
286.51	32.500
286.87	31.111
287.24	37.622
287.61	30.177
287.98	32.305
288.35	31.220
288.72	32.866
289.08	31.142
289.45	32.125
289.82	30.894
290.19	30.455
290.56	28.025
290.93	29.003
291.29	30.828
291.66	28.909
292.03	31.105
292.40	28.781
292.77	27.367
293.13	27.761
293.50	27.697
293.87	28.444
294.24	27.704
294.60	26.638
294.97	27.035
295.34	29.196
295.71	27.131
296.08	26.211
296.44	26.685
296.81	27.741
297.18	28.049
297.55	25.594
297.91	25.726
298.28	26.238
298.65	25.718
299.02	24.506
299.38	26.428
299.75	25.202
300.12	26.054
300.48	25.000
300.85	24.044
301.22	26.624
301.59	24.747
301.95	25.063
302.32	25.032
302.69	23.059
303.05	24.606
303.42	22.840
303.79	24.575
304.15	24.592
304.52	23.175
304.89	23.693
305.25	22.854
305.62	22.990
305.99	24.085
306.35	21.924
306.72	24.776
307.09	23.973
307.45	24.662
307.82	22.433
308.19	23.289
308.55	24.919
308.92	23.201
309.29	22.703
309.65	22.800
310.02	22.622
310.38	23.226
310.75	23.548
311.12	22.416
311.48	23.197
311.85	23.480
312.22	22.164
312.58	22.661
312.95	23.020
313.31	22.816
313.68	24.636
314.05	25.049
314.41	23.518
314.78	23.162
315.14	23.635
315.51	25.232
315.87	24.752
316.24	24.429
316.61	23.879
316.97	24.951
317.34	24.951
317.70	26.769
318.07	27.045
318.43	27.593
318.80	27.929
319.16	27.024
319.53	27.298
319.89	28.381
320.26	29.200
320.62	29.167
320.99	31.010
321.35	30.808
321.72	32.546
322.08	33.465
322.45	35.323
322.81	34.496
323.18	35.645
323.54	35.900
323.91	36.887
324.27	38.145
324.64	39.236
325.00	39.585
325.37	42.493
325.73	43.627
326.10	42.895
326.46	43.190
326.83	46.678
327.19	47.395
327.56	49.390
327.92	50.394
328.29	52.440
328.65	53.315
329.01	52.888
329.38	53.932
329.74	54.571
330.11	57.210
330.47	58.219
330.84	57.077
331.20	59.199
331.56	60.092
331.93	61.019
332.29	61.491
332.66	61.150
333.02	61.609
333.38	62.963
333.75	62.389
334.11	64.591
334.48	64.596
334.84	65.257
335.20	65.727
335.57	66.999
335.93	66.071
336.29	67.399
336.66	67.809
337.02	66.516
337.38	68.981
337.75	68.449
338.11	70.098
338.47	69.521
338.84	71.127
339.20	69.908
339.56	73.358
339.93	70.636
340.29	70.199
340.65	72.995
341.02	71.815
341.38	72.153
341.74	70.877
342.11	72.838
342.47	74.449
342.83	73.288
343.20	74.719
343.56	73.041
343.92	72.632
344.28	74.235
344.65	75.924
345.01	72.643
345.37	72.213
345.73	74.619
346.10	74.595
346.46	75.508
346.82	74.629
347.19	74.937
347.55	74.056
347.91	75.647
348.27	76.746
348.63	76.003
349.00	76.456
349.36	76.026
349.72	75.060
350.08	74.959
350.45	78.031
350.81	77.660
351.17	76.823
351.53	78.460
351.89	76.650
352.26	76.717
352.62	79.150
352.98	78.525
353.34	78.636
353.70	78.723
354.07	78.468
354.43	76.905
354.79	78.278
355.15	77.255
355.51	80.655
355.87	80.571
356.24	79.397
356.60	79.391
356.96	80.129
357.32	81.439
357.68	81.024
358.04	80.206
358.40	81.314
358.77	79.734
359.13	80.821
359.49	81.725
359.85	82.143
360.21	82.695
360.57	83.346
360.93	83.077
361.29	83.673
361.66	82.585
362.02	82.687
362.38	83.422
362.74	84.524
363.10	82.679
363.46	83.786
363.82	84.732
364.18	82.379
364.54	85.364
364.90	85.694
365.26	86.397
365.62	85.537
365.98	86.633
366.35	82.450
366.71	85.394
367.07	85.943
367.43	86.357
367.79	88.508
368.15	88.147
368.51	85.392
368.87	86.081
369.23	85.589
369.59	87.111
369.95	87.279
370.31	85.613
370.67	86.159
371.03	88.315
371.39	89.869
371.75	88.088
372.11	85.704
372.47	88.636
372.83	88.833
373.19	88.078
373.55	89.874
373.91	88.586
374.27	87.904
374.63	89.891
374.99	89.124
375.35	86.881
375.71	88.074
376.07	87.929
376.42	90.028
376.78	89.993
377.14	88.602
377.50	89.801
377.86	89.229
378.22	89.444
378.58	88.409
378.94	89.001
379.30	90.331
379.66	92.195
380.02	90.172
380.38	89.132
380.74	90.936
381.09	91.259
381.45	90.350
381.81	90.233
382.17	89.809
382.53	90.189
382.89	90.185
383.25	90.932
383.61	92.317
383.97	91.432
384.32	89.832
384.68	89.715
385.04	91.149
385.40	89.721
385.76	90.418
386.12	92.876
386.48	90.812
386.83	93.714
387.19	93.816
387.55	90.909
387.91	90.447
388.27	89.638
388.62	91.518
388.98	88.943
389.34	91.176
389.70	90.619
390.06	91.318
390.42	92.931
390.77	91.031
391.13	91.385
391.49	91.244
391.85	90.643
392.20	90.789
392.56	91.540
392.92	92.466
393.28	91.006
393.64	90.408
393.99	89.310
394.35	89.206
394.71	89.147
395.07	88.474
395.42	92.027
395.78	90.649
396.14	90.379
396.50	92.544
396.85	90.273
397.21	90.197
397.57	90.081
397.92	91.406
398.28	89.574
398.64	90.860
399.00	89.647
399.35	90.130
399.71	89.583
400.07	91.011
400.42	90.123
400.78	90.712
401.14	90.122
401.49	91.045
401.85	90.018
402.21	89.341
402.57	90.068
402.92	89.723
403.28	91.318
403.63	89.418
403.99	91.019
404.35	88.485
404.70	89.089
405.06	89.458
405.42	88.896
405.77	88.400
406.13	86.512
406.49	89.001
406.84	87.478
407.20	88.002
407.55	88.449
407.91	90.667
408.27	89.087
408.62	88.682
408.98	88.542
409.34	88.438
409.69	88.323
410.05	87.051
410.40	88.196
410.76	88.889
411.11	87.756
411.47	87.987
411.83	88.088
412.18	87.013
412.54	89.415
412.89	86.988
413.25	88.312
413.60	88.697
413.96	85.853
414.31	86.513
414.67	87.452
415.03	87.086
415.38	87.178
415.74	87.846
416.09	88.831
416.45	88.889
416.80	87.640
417.16	87.131
417.51	88.321
417.87	86.513
418.22	87.003
418.58	87.605
418.93	88.698
419.29	88.224
419.64	86.965
420.00	87.012
420.35	86.087
420.71	88.344
421.06	86.993
421.42	87.018
421.77	87.388
422.12	86.468
422.48	85.969
422.83	88.410
423.19	86.022
423.54	88.915
423.90	86.203
424.25	86.823
424.61	87.738
424.96	87.930
425.31	86.822
425.67	86.404
426.02	87.314
426.38	90.110
426.73	87.888
427.09	89.970
427.44	87.004
427.79	87.407
428.15	87.262
428.50	86.425
428.85	87.187
429.21	87.355
429.56	88.077
429.92	86.915
430.27	86.544
430.62	86.738
430.98	86.767
431.33	87.680
431.68	88.325
432.04	86.635
432.39	89.149
432.74	90.006
433.10	89.417
433.45	89.913
433.80	87.805
434.16	88.462
434.51	86.421
434.86	87.229
435.22	89.161
435.57	90.152
435.92	88.590
436.28	89.324
436.63	88.687
436.98	88.151
437.34	89.147
437.69	89.848
438.04	88.139
438.39	88.657
438.75	89.425
439.10	89.609
439.45	88.430
439.81	89.366
440.16	88.481
440.51	90.861
440.86	89.288
441.22	90.434
441.57	88.163
441.92	89.816
442.27	89.290
442.63	89.152
442.98	89.352
443.33	89.239
443.68	88.952
444.03	90.044
444.39	88.851
444.74	90.422
445.09	88.302
445.44	88.300
445.79	89.362
446.15	88.989
446.50	87.991
446.85	89.774
447.20	89.801
447.55	91.122
447.91	91.065
448.26	88.592
448.61	88.751
448.96	89.590
449.31	90.382
449.66	88.801
450.02	89.248
450.37	89.059
450.72	89.679
451.07	89.580
451.42	87.964
451.77	89.724
452.12	88.164
452.47	87.438
452.83	90.559
453.18	87.714
453.53	91.033
453.88	90.136
454.23	88.225
454.58	89.340
454.93	89.256
455.28	89.401
455.63	90.291
455.98	89.940
456.34	89.259
456.69	90.357
457.04	89.350
457.39	91.116
457.74	88.276
458.09	87.694
458.44	89.225
458.79	88.937
459.14	89.842
459.49	89.375
459.84	87.978
460.19	86.859
460.54	84.954
460.89	88.700
461.24	89.132
461.59	88.205
461.94	86.375
462.29	88.546
462.64	87.492
462.99	87.573
463.34	89.000
463.69	89.118
464.04	86.725
464.39	85.391
464.74	87.819
465.09	86.791
465.44	86.482
465.79	86.130
466.14	84.401
466.49	85.373
466.84	86.982
467.19	85.878
467.54	86.875
467.89	84.694
468.24	85.980
468.59	87.057
468.94	87.111
469.29	87.147
469.64	87.015
469.99	88.836
470.34	87.583
470.68	88.506
471.03	86.463
471.38	89.646
471.73	87.608
472.08	87.105
472.43	86.055
472.78	85.451
473.13	86.521
473.48	84.332
473.83	86.341
474.17	84.630
474.52	86.476
474.87	85.698
475.22	83.633
475.57	84.901
475.92	84.758
476.27	85.231
476.61	84.611
476.96	84.992
477.31	84.772
477.66	85.941
478.01	81.913
478.36	85.034
478.70	83.489
479.05	84.185
479.40	84.903
479.75	85.613
480.10	82.952
480.45	81.866
480.79	83.134
481.14	84.051
481.49	82.914
481.84	83.585
482.19	83.916
482.53	82.615
482.88	83.760
483.23	83.271
483.58	82.120
483.92	83.458
484.27	81.307
484.62	83.922
484.97	80.725
485.31	81.747
485.66	79.277
486.01	75.829
486.36	73.928
486.70	73.920
487.05	76.477
487.40	78.294
487.75	79.710
488.09	81.347
488.44	80.720
488.79	83.291
489.13	82.850
489.48	82.096
489.83	81.830
490.17	82.464
490.52	81.355
490.87	82.044
491.22	80.537
491.56	81.321
491.91	81.852
492.26	80.661
492.60	79.585
492.95	80.589
493.30	80.467
493.64	81.895
493.99	79.898
494.34	81.129
494.68	80.632
495.03	80.028
495.37	78.920
495.72	81.238
496.07	80.882
496.41	78.805
496.76	79.244
497.11	79.199
497.45	80.671
497.80	79.655
498.14	79.807
498.49	81.220
498.84	79.914
499.18	79.095
499.53	79.060
499.87	80.009
500.22	78.568
500.56	80.825
500.91	78.654
501.26	78.236
501.60	80.731
501.95	78.368
502.29	80.037
502.64	79.655
502.98	80.037
503.33	77.834
503.67	78.190
504.02	78.952
504.36	77.960
504.71	79.043
505.06	77.494
505.40	78.367
505.75	77.387
506.09	78.766
506.44	80.069
506.78	78.860
507.13	79.001
507.47	78.636
507.82	78.318
508.16	79.230
508.51	79.452
508.85	77.855
509.19	79.031
509.54	76.837
509.88	77.743
510.23	78.458
510.57	79.360
510.92	78.094
511.26	78.212
511.61	78.371
511.95	76.775
512.30	77.519
512.64	77.861
512.98	78.242
513.33	78.105
513.67	76.201
514.02	77.814
514.36	77.826
514.70	77.643
515.05	79.810
515.39	77.678
515.74	78.322
516.08	77.529
516.42	78.468
516.77	78.038
517.11	78.191
517.46	77.427
517.80	78.455
518.14	76.723
518.49	78.763
518.83	76.080
519.17	79.330
519.52	76.853
519.86	77.809
520.20	78.150
520.55	79.234
520.89	79.197
521.23	78.528
521.58	78.451
521.92	77.465
522.26	77.730
522.61	78.131
522.95	77.778
523.29	77.419
523.64	77.683
523.98	78.620
524.32	77.021
524.66	76.669
525.01	76.287
525.35	76.580
525.69	76.108
526.04	78.006
526.38	77.852
526.72	76.626
527.06	77.338
527.41	74.876
527.75	78.071
528.09	77.778
528.43	77.119
528.78	76.091
529.12	75.515
529.46	76.852
529.80	76.238
530.15	78.380
530.49	73.785
530.83	75.886
531.17	78.721
531.51	78.534
531.86	76.387
532.20	76.923
532.54	75.785
532.88	76.958
533.22	75.016
533.57	75.062
533.91	73.269
534.25	74.544
534.59	74.619
534.93	74.182
535.27	74.291
535.62	75.275
535.96	75.895
536.30	75.906
536.64	75.789
536.98	75.780
537.32	73.930
537.66	76.200
538.01	74.852
538.35	75.307
538.69	74.793
539.03	73.554
539.37	73.802
539.71	72.975
540.05	75.556
540.39	75.349
540.73	73.739
541.07	75.081
541.42	75.147
541.76	75.290
542.10	74.450
542.44	74.967
542.78	74.440
543.12	72.681
543.46	73.639
543.80	73.650
544.14	73.684
544.48	73.079
544.82	73.188
545.16	75.016
545.50	72.943
545.84	73.790
546.18	75.421
546.52	75.430
546.86	74.570
547.20	74.848
547.54	72.612
547.88	73.980
548.22	72.291
548.56	72.138
548.90	72.535
549.24	74.074
549.58	73.533
549.92	74.725
550.26	74.858
550.60	72.960
550.94	73.662
551.28	74.031
551.62	74.551
551.96	74.035
552.30	73.515
552.64	74.915
552.98	74.034
553.32	71.881
553.66	73.074
554.00	73.988
554.34	72.809
554.68	75.322
555.02	71.932
555.36	73.486
555.69	70.974
556.03	71.736
556.37	72.783
556.71	72.374
557.05	73.669
557.39	73.688
557.73	72.830
558.07	75.199
558.41	73.806
558.75	73.843
559.08	74.198
559.42	73.847
559.76	73.971
560.10	72.805
560.44	71.698
560.78	70.925
561.12	72.032
561.45	71.838
561.79	72.643
562.13	73.038
562.47	71.995
562.81	72.873
563.15	71.104
563.48	71.950
563.82	70.841
564.16	71.746
564.50	70.443
564.84	69.216
565.17	71.557
565.51	71.757
565.85	69.924
566.19	70.006
566.52	71.818
566.86	68.897
567.20	69.399
567.54	68.950
567.88	68.550
568.21	67.566
568.55	67.442
568.89	68.385
569.23	65.775
569.56	66.194
569.90	64.189
570.24	65.052
570.57	63.618
570.91	62.185
571.25	63.095
571.59	62.356
571.92	63.105
572.26	62.709
572.60	62.492
572.93	62.489
573.27	62.467
573.61	62.312
573.95	61.550
574.28	61.859
574.62	61.030
574.96	60.860
575.29	60.863
575.63	61.560
575.97	61.312
576.30	61.524
576.64	61.511
576.98	60.719
577.31	61.899
577.65	60.630
577.98	59.791
578.32	59.849
578.66	60.587
578.99	61.721
579.33	60.131
579.67	60.107
580.00	60.393
580.34	61.414
580.67	60.695
581.01	60.738
581.35	60.053
581.68	59.699
582.02	58.650
582.35	59.892
582.69	59.030
583.02	60.473
583.36	61.425
583.70	61.838
584.03	61.860
584.37	62.714
584.70	61.573
585.04	60.690
585.37	60.578
585.71	60.667
586.04	60.208
586.38	62.121
586.72	61.558
587.05	60.636
587.39	60.765
587.72	60.964
588.06	60.779
588.39	61.399
588.73	62.100
589.06	61.359
589.40	63.401
589.73	62.337
590.07	62.883
590.40	62.623
590.73	63.505
591.07	64.062
591.40	63.728
591.74	65.065
592.07	64.267
592.41	64.655
592.74	61.648
593.08	60.859
593.41	60.993
593.75	59.588
594.08	61.247
594.41	61.400
594.75	61.848
595.08	61.918
595.42	61.681
595.75	61.895
596.09	63.162
596.42	63.576
596.75	63.656
597.09	64.069
597.42	61.678
597.75	62.570
598.09	62.609
598.42	62.328
598.76	61.613
599.09	60.357
599.42	60.189
599.76	60.615
600.09	60.255
600.42	60.263
600.76	60.036
601.09	60.947
601.42	60.807
601.76	60.569
602.09	60.949
602.42	62.062
602.76	61.628
603.09	60.779
603.42	61.851
603.76	60.328
604.09	61.148
604.42	61.965
604.76	62.084
605.09	62.123
605.42	62.035
605.75	60.637
606.09	60.431
606.42	60.891
606.75	60.348
607.09	59.900
607.42	61.061
607.75	59.747
608.08	61.572
608.42	61.139
608.75	61.317
609.08	59.806
609.41	61.685
609.75	60.124
610.08	60.697
610.41	62.058
610.74	62.394
611.07	62.945
611.41	61.874
611.74	62.443
612.07	62.164
612.40	62.382
612.73	61.789
613.07	63.362
613.40	62.875
613.73	60.461
614.06	62.742
614.39	60.252
614.72	62.211
615.06	61.029
615.39	62.261
615.72	60.174
616.05	60.287
616.38	62.757
616.71	63.242
617.05	63.663
617.38	62.177
617.71	62.462
618.04	63.522
618.37	61.739
618.70	62.788
619.03	63.421
619.36	64.223
619.69	65.141
620.03	64.011
620.36	64.639
620.69	63.904
621.02	65.487
621.35	65.936
621.68	65.343
622.01	64.241
622.34	63.994
622.67	63.878
623.00	63.683
623.33	63.831
623.66	63.903
623.99	64.728
624.32	62.767
624.65	62.924
624.99	62.181
625.32	63.577
625.65	65.214
625.98	65.257
626.31	63.919
626.64	64.653
626.97	65.170
627.30	66.833
627.63	65.874
627.96	65.013
628.29	66.054
628.62	65.965
628.95	67.736
629.28	66.332
629.61	66.269
629.94	69.333
630.26	67.779
630.59	67.016
630.92	65.805
