SpectraSuite Data File
++++++++++++++++++++++++++++++++++++
Date: Wed May 13 19:37:32 PDT 2015
User: schluterlab
Dark Spectrum Present: Yes
Reference Spectrum Present: Yes
Number of Sampled Component Spectra: 1
Spectrometers: USB2E3373
Integration Time (usec): 3000 (USB2E3373)
Spectra Averaged: 3 (USB2E3373)
Boxcar Smoothing: 0 (USB2E3373)
Correct for Electrical Dark: No (USB2E3373)
Strobe/Lamp Enabled: No (USB2E3373)
Correct for Detector Non-linearity: No (USB2E3373)
Correct for Stray Light: No (USB2E3373)
Number of Pixels in Processed Spectrum: 2048
>>>>>Begin Processed Spectral Data<<<<<
178.53	0.000
178.91	-1375.000
179.29	-1150.000
179.67	-227.778
180.04	-1300.000
180.42	2700.000
180.80	1080.000
181.18	-975.000
181.56	714.286
181.94	0.000
182.31	-685.714
182.69	1633.333
183.07	-837.500
183.45	-566.667
183.83	590.909
184.20	-450.000
184.58	2600.000
184.96	6100.000
185.34	-1020.000
185.72	-625.000
186.09	-2600.000
186.47	3100.000
186.85	2900.000
187.23	5600.000
187.61	-2033.333
187.98	1450.000
188.36	545.455
188.74	663.636
189.12	-960.000
189.49	630.000
189.87	-5400.000
190.25	-1300.000
190.63	407.143
191.00	430.769
191.38	950.000
191.76	-1450.000
192.14	1475.000
192.51	687.500
192.89	1200.000
193.27	662.500
193.65	-1250.000
194.02	520.000
194.40	900.000
194.78	560.000
195.15	541.667
195.53	660.000
195.91	-2850.000
196.29	381.250
196.66	326.316
197.04	-450.000
197.42	0.000
197.79	680.000
198.17	-4800.000
198.55	814.286
198.92	737.500
199.30	1040.000
199.68	0.000
200.05	388.889
200.43	828.571
200.81	5300.000
201.18	1666.667
201.56	-1866.667
201.94	611.111
202.31	644.444
202.69	466.667
203.07	520.000
203.44	0.000
203.82	975.000
204.19	800.000
204.57	450.000
204.95	650.000
205.32	1600.000
205.70	590.909
206.08	385.714
206.45	2700.000
206.83	368.750
207.20	933.333
207.58	1140.000
207.96	311.111
208.33	812.500
208.71	-850.000
209.08	785.714
209.46	688.889
209.84	554.545
210.21	-1933.333
210.59	1700.000
210.96	-700.000
211.34	2900.000
211.71	600.000
212.09	816.667
212.46	0.000
212.84	1833.333
213.22	1825.000
213.59	-4500.000
213.97	866.667
214.34	785.714
214.72	654.545
215.09	1160.000
215.47	-2800.000
215.84	-2800.000
216.22	2133.333
216.59	450.000
216.97	1525.000
217.34	572.727
217.72	-816.667
218.09	0.000
218.47	-6100.000
218.84	566.667
219.22	700.000
219.59	1866.667
219.97	-728.571
220.34	1180.000
220.72	-2100.000
221.09	450.000
221.47	1500.000
221.84	-1016.667
222.22	0.000
222.59	1300.000
222.97	-2650.000
223.34	1140.000
223.72	476.923
224.09	1340.000
224.46	2450.000
224.84	-4900.000
225.21	-1160.000
225.59	-5700.000
225.96	690.000
226.34	340.000
226.71	3100.000
227.08	787.500
227.46	610.000
227.83	-1075.000
228.21	-2450.000
228.58	666.667
228.95	-2700.000
229.33	-3000.000
229.70	1900.000
230.08	742.857
230.45	-920.000
230.82	466.667
231.20	850.000
231.57	771.429
231.95	558.333
232.32	286.364
232.69	490.909
233.07	771.429
233.44	430.769
233.81	-1966.667
234.19	326.316
234.56	516.667
234.93	400.000
235.31	536.364
235.68	392.308
236.05	378.571
236.43	196.970
236.80	300.000
237.17	5200.000
237.55	261.905
237.92	214.286
238.29	290.476
238.67	170.968
239.04	206.897
239.41	188.889
239.79	119.565
240.16	166.667
240.53	156.818
240.91	129.412
241.28	122.000
241.65	114.000
242.02	108.696
242.40	95.161
242.77	115.000
243.14	78.495
243.51	88.764
243.89	75.294
244.26	74.444
244.63	73.118
245.00	65.957
245.38	79.208
245.75	69.159
246.12	58.716
246.49	68.613
246.87	63.200
247.24	58.462
247.61	57.857
247.98	49.020
248.36	48.649
248.73	55.414
249.10	54.777
249.47	50.282
249.84	54.545
250.22	45.455
250.59	47.929
250.96	49.495
251.33	48.815
251.70	46.535
252.08	46.190
252.45	45.291
252.82	40.870
253.19	39.574
253.56	42.353
253.94	43.568
254.31	42.969
254.68	40.000
255.05	42.435
255.42	38.618
255.79	38.971
256.16	39.711
256.54	37.456
256.91	38.078
257.28	38.129
257.65	36.634
258.02	36.025
258.39	32.492
258.76	34.783
259.14	35.417
259.51	35.562
259.88	36.335
260.25	35.650
260.62	31.503
260.99	33.851
261.36	37.237
261.73	32.378
262.10	30.523
262.47	36.901
262.85	33.983
263.22	30.484
263.59	36.182
263.96	33.516
264.33	32.637
264.70	33.947
265.07	32.481
265.44	32.828
265.81	30.657
266.18	34.673
266.55	30.732
266.92	30.958
267.29	28.009
267.66	26.147
268.03	32.273
268.40	31.542
268.77	31.026
269.14	31.081
269.51	32.506
269.88	30.536
270.25	27.314
270.62	28.315
270.99	33.333
271.36	29.614
271.73	30.607
272.10	31.957
272.47	29.462
272.84	29.437
273.21	31.656
273.58	26.856
273.95	27.044
274.32	27.273
274.69	28.694
275.06	29.134
275.43	31.702
275.80	27.255
276.17	27.902
276.54	27.443
276.91	29.842
277.28	27.148
277.65	28.046
278.02	26.915
278.39	28.906
278.76	29.636
279.13	28.113
279.50	28.864
279.87	26.494
280.23	26.148
280.60	27.853
280.97	25.878
281.34	29.204
281.71	29.273
282.08	27.831
282.45	26.182
282.82	28.597
283.19	26.381
283.56	27.368
283.92	27.411
284.29	26.102
284.66	24.864
285.03	26.221
285.40	25.880
285.77	24.579
286.14	25.561
286.51	24.167
286.87	25.812
287.24	26.384
287.61	26.485
287.98	25.000
288.35	24.247
288.72	24.922
289.08	25.196
289.45	23.064
289.82	23.740
290.19	22.920
290.56	23.124
290.93	22.961
291.29	23.466
291.66	23.599
292.03	23.837
292.40	24.523
292.77	21.450
293.13	24.030
293.50	22.595
293.87	22.074
294.24	21.481
294.60	20.961
294.97	22.674
295.34	24.401
295.71	22.585
296.08	20.370
296.44	20.908
296.81	20.343
297.18	21.274
297.55	18.470
297.91	19.657
298.28	20.214
298.65	20.888
299.02	20.026
299.38	20.717
299.75	18.733
300.12	20.307
300.48	20.500
300.85	20.592
301.22	19.363
301.59	19.571
301.95	20.151
302.32	20.282
302.69	19.713
303.05	20.121
303.42	19.753
303.79	20.272
304.15	18.881
304.52	18.192
304.89	17.886
305.25	17.749
305.62	19.819
305.99	17.828
306.35	17.450
306.72	19.395
307.09	19.867
307.45	19.032
307.82	16.741
308.19	19.536
308.55	19.849
308.92	17.723
309.29	17.740
309.65	17.603
310.02	18.499
310.38	18.817
310.75	19.007
311.12	18.526
311.48	18.809
311.85	19.497
312.22	18.418
312.58	17.879
312.95	18.902
313.31	18.350
313.68	19.751
314.05	20.611
314.41	20.101
314.78	20.040
315.14	19.265
315.51	20.185
315.87	21.782
316.24	18.967
316.61	19.688
316.97	19.667
317.34	20.059
317.70	22.658
318.07	22.522
318.43	23.581
318.80	22.962
319.16	23.258
319.53	23.077
319.89	24.667
320.26	26.100
320.62	24.802
320.99	26.970
321.35	26.566
321.72	26.694
322.08	27.345
322.45	30.249
322.81	30.039
323.18	31.888
323.54	30.519
323.91	32.170
324.27	33.078
324.64	33.644
325.00	33.634
325.37	34.759
325.73	36.086
326.10	36.099
326.46	36.559
326.83	37.274
327.19	37.831
327.56	38.937
327.92	40.420
328.29	42.236
328.65	42.081
329.01	41.336
329.38	43.571
329.74	42.936
330.11	44.204
330.47	45.271
330.84	44.485
331.20	43.898
331.56	44.495
331.93	47.315
332.29	46.229
332.66	46.549
333.02	46.984
333.38	48.419
333.75	48.663
334.11	49.466
334.48	47.294
334.84	48.070
335.20	49.000
335.57	48.957
335.93	48.125
336.29	48.810
336.66	49.955
337.02	48.507
337.38	50.741
337.75	49.198
338.11	50.134
338.47	50.737
338.84	48.396
339.20	50.550
339.56	52.372
339.93	51.636
340.29	50.453
340.65	51.159
341.02	50.698
341.38	51.068
341.74	51.579
342.11	51.703
342.47	51.366
342.83	51.027
343.20	52.554
343.56	50.885
343.92	52.544
344.28	52.041
344.65	51.763
345.01	51.263
345.37	51.372
345.73	51.438
346.10	51.918
346.46	52.119
346.82	53.707
347.19	53.968
347.55	52.709
347.91	53.317
348.27	53.081
348.63	52.425
349.00	53.155
349.36	54.598
349.72	53.809
350.08	51.459
350.45	53.865
350.81	53.128
351.17	54.376
351.53	54.054
351.89	53.218
352.26	53.197
352.62	54.210
352.98	53.079
353.34	54.889
353.70	54.010
354.07	54.194
354.43	52.381
354.79	54.143
355.15	54.988
355.51	56.675
355.87	56.408
356.24	55.212
356.60	56.536
356.96	56.154
357.32	56.337
357.68	56.457
358.04	56.057
358.40	56.374
358.77	57.355
359.13	56.827
359.49	56.235
359.85	55.556
360.21	56.778
360.57	58.210
360.93	57.846
361.29	56.160
361.66	55.418
362.02	57.313
362.38	57.110
362.74	55.878
363.10	56.995
363.46	56.860
363.82	58.277
364.18	58.737
364.54	58.544
364.90	59.490
365.26	58.971
365.62	59.386
365.98	57.706
366.35	58.596
366.71	59.074
367.07	58.121
367.43	60.450
367.79	58.530
368.15	58.261
368.51	59.230
368.87	59.886
369.23	59.985
369.59	60.898
369.95	60.588
370.31	60.328
370.67	59.783
371.03	60.974
371.39	58.892
371.75	59.853
372.11	59.602
372.47	61.070
372.83	61.599
373.19	60.838
373.55	62.602
373.91	63.328
374.27	58.144
374.63	60.945
374.99	61.582
375.35	60.293
375.71	60.384
376.07	60.905
376.42	61.210
376.78	61.299
377.14	62.212
377.50	60.927
377.86	60.572
378.22	62.642
378.58	61.466
378.94	61.974
379.30	62.150
379.66	62.881
380.02	62.654
380.38	61.263
380.74	62.545
381.09	61.736
381.45	62.385
381.81	62.592
382.17	62.866
382.53	63.396
382.89	63.210
383.25	63.039
383.61	64.374
383.97	62.914
384.32	62.633
384.68	63.135
385.04	62.569
385.40	63.096
385.76	62.469
386.12	62.953
386.48	63.625
386.83	64.464
387.19	63.389
387.55	63.451
387.91	63.059
388.27	61.741
388.62	62.569
388.98	62.899
389.34	63.642
389.70	62.968
390.06	63.371
390.42	64.332
390.77	63.868
391.13	65.029
391.49	64.340
391.85	64.099
392.20	62.208
392.56	62.753
392.92	64.803
393.28	63.018
393.64	62.710
393.99	63.225
394.35	61.787
394.71	62.986
395.07	62.118
395.42	63.164
395.78	63.550
396.14	63.377
396.50	63.095
396.85	64.717
397.21	61.776
397.57	63.112
397.92	62.861
398.28	61.659
398.64	62.425
399.00	61.612
399.35	61.985
399.71	61.806
400.07	63.099
400.42	62.699
400.78	63.631
401.14	62.622
401.49	62.507
401.85	61.585
402.21	60.240
402.57	62.986
402.92	62.043
403.28	62.586
403.63	63.057
403.99	61.592
404.35	61.939
404.70	61.751
405.06	60.804
405.42	62.570
405.77	60.800
406.13	60.666
406.49	61.561
406.84	60.189
407.20	60.875
407.55	61.902
407.91	64.067
408.27	63.114
408.62	60.807
408.98	61.949
409.34	61.747
409.69	62.774
410.05	60.967
410.40	60.245
410.76	61.231
411.11	59.710
411.47	60.447
411.83	61.515
412.18	60.359
412.54	60.897
412.89	60.542
413.25	60.980
413.60	62.199
413.96	59.988
414.31	60.510
414.67	61.153
415.03	59.470
415.38	61.082
415.74	60.193
416.09	61.724
416.45	60.174
416.80	61.599
417.16	61.796
417.51	61.314
417.87	60.180
418.22	59.621
418.58	61.846
418.93	59.889
419.29	59.071
419.64	61.209
420.00	61.280
420.35	59.884
420.71	60.610
421.06	60.740
421.42	61.111
421.77	60.762
422.12	59.966
422.48	60.874
422.83	60.163
423.19	60.552
423.54	61.579
423.90	60.696
424.25	59.408
424.61	60.655
424.96	61.983
425.31	60.465
425.67	58.876
426.02	60.400
426.38	62.515
426.73	60.503
427.09	60.000
427.44	60.897
427.79	61.645
428.15	60.952
428.50	60.328
428.85	61.979
429.21	59.856
429.56	61.897
429.92	60.594
430.27	60.576
430.62	60.010
430.98	60.664
431.33	59.897
431.68	60.890
432.04	59.744
432.39	61.051
432.74	62.118
433.10	61.686
433.45	61.516
433.80	61.142
434.16	60.897
434.51	60.053
434.86	60.832
435.22	61.201
435.57	62.492
435.92	61.439
436.28	62.159
436.63	61.369
436.98	61.591
437.34	61.419
437.69	62.894
438.04	60.877
438.39	61.373
438.75	61.534
439.10	62.961
439.45	61.511
439.81	61.692
440.16	60.587
440.51	61.219
440.86	61.610
441.22	61.624
441.57	60.563
441.92	61.617
442.27	61.895
442.63	61.401
442.98	62.254
443.33	59.728
443.68	60.867
444.03	60.908
444.39	60.029
444.74	60.335
445.09	59.730
445.44	60.470
445.79	60.564
446.15	59.132
446.50	61.712
446.85	61.614
447.20	59.816
447.55	60.860
447.91	60.783
448.26	61.046
448.61	60.543
448.96	62.182
449.31	61.811
449.66	60.720
450.02	60.223
450.37	59.751
450.72	59.842
451.07	60.207
451.42	60.243
451.77	61.773
452.12	60.219
452.47	60.945
452.83	60.548
453.18	59.780
453.53	59.926
453.88	59.598
454.23	60.909
454.58	60.812
454.93	61.856
455.28	60.162
455.63	60.194
455.98	61.131
456.34	60.553
456.69	60.927
457.04	60.991
457.39	59.439
457.74	59.141
458.09	59.344
458.44	59.863
458.79	58.134
459.14	59.537
459.49	59.136
459.84	58.670
460.19	57.867
460.54	57.523
460.89	59.627
461.24	59.502
461.59	59.617
461.94	57.090
462.29	59.466
462.64	59.030
462.99	58.686
463.34	59.000
463.69	60.225
464.04	59.478
464.39	57.565
464.74	58.170
465.09	58.082
465.44	57.507
465.79	57.271
466.14	56.322
466.49	56.507
466.84	57.443
467.19	57.393
467.54	57.812
467.89	56.483
468.24	57.243
468.59	57.875
468.94	55.895
469.29	58.098
469.64	57.564
469.99	58.863
470.34	57.860
470.68	57.543
471.03	57.007
471.38	58.721
471.73	56.429
472.08	58.026
472.43	55.716
472.78	56.024
473.13	57.253
473.48	56.492
473.83	55.915
474.17	56.067
474.52	56.452
474.87	55.984
475.22	55.949
475.57	55.239
475.92	55.178
476.27	55.017
476.61	56.095
476.96	56.075
477.31	55.207
477.66	56.127
478.01	54.208
478.36	55.843
478.70	55.452
479.05	55.431
479.40	55.322
479.75	54.957
480.10	55.517
480.45	54.069
480.79	53.082
481.14	53.816
481.49	53.156
481.84	54.184
482.19	53.430
482.53	53.303
482.88	53.467
483.23	55.000
483.58	53.367
483.92	53.889
484.27	52.549
484.62	52.802
484.97	52.542
485.31	52.637
485.66	51.622
486.01	50.074
486.36	48.340
486.70	47.621
487.05	48.489
487.40	49.898
487.75	50.685
488.09	51.774
488.44	51.701
488.79	52.658
489.13	53.132
489.48	52.243
489.83	51.316
490.17	52.477
490.52	51.107
490.87	52.148
491.22	51.432
491.56	50.387
491.91	51.885
492.26	51.493
492.60	50.829
492.95	50.374
493.30	50.187
493.64	51.423
493.99	50.511
494.34	51.249
494.68	51.282
495.03	51.598
495.37	49.791
495.72	52.242
496.07	50.812
496.41	50.619
496.76	50.616
497.11	50.563
497.45	49.744
497.80	51.200
498.14	49.179
498.49	50.488
498.84	50.575
499.18	49.524
499.53	49.668
499.87	49.674
500.22	48.893
500.56	50.340
500.91	49.375
501.26	49.265
501.60	51.400
501.95	49.450
502.29	50.141
502.64	49.721
502.98	49.462
503.33	48.218
503.67	48.817
504.02	49.579
504.36	48.292
504.71	48.803
505.06	48.771
505.40	48.955
505.75	47.878
506.09	47.570
506.44	49.926
506.78	49.635
507.13	50.530
507.47	48.636
507.82	50.152
508.16	48.936
508.51	49.924
508.85	48.560
509.19	48.367
509.54	49.082
509.88	47.913
510.23	48.946
510.57	49.742
510.92	48.783
511.26	47.996
511.61	48.444
511.95	47.756
512.30	48.303
512.64	47.501
512.98	49.357
513.33	48.126
513.67	47.599
514.02	46.483
514.36	49.208
514.70	47.537
515.05	47.407
515.39	47.841
515.74	47.917
516.08	48.072
516.42	48.224
516.77	47.492
517.11	48.002
517.46	47.630
517.80	48.955
518.14	47.713
518.49	47.141
518.83	47.955
519.17	47.171
519.52	48.048
519.86	47.519
520.20	47.399
520.55	48.235
520.89	47.749
521.23	49.638
521.58	46.218
521.92	48.377
522.26	46.492
522.61	48.723
522.95	46.225
523.29	47.048
523.64	48.171
523.98	47.813
524.32	46.864
524.66	46.542
525.01	45.895
525.35	45.911
525.69	45.998
526.04	47.227
526.38	45.272
526.72	45.521
527.06	47.207
527.41	45.606
527.75	47.331
528.09	46.949
528.43	46.208
528.78	47.511
529.12	44.424
529.46	46.908
529.80	45.297
530.15	45.919
530.49	45.046
530.83	45.696
531.17	47.520
531.51	46.563
531.86	45.548
532.20	46.480
532.54	45.676
532.88	44.994
533.22	45.659
533.57	45.000
533.91	43.588
534.25	45.018
534.59	45.210
534.93	44.735
535.27	44.599
535.62	44.872
535.96	45.198
536.30	44.882
536.64	44.881
536.98	45.189
537.32	44.832
537.66	44.733
538.01	45.030
538.35	44.861
538.69	44.671
539.03	43.925
539.37	43.323
539.71	43.422
540.05	44.575
540.39	44.385
540.73	44.825
541.07	44.452
541.42	44.749
541.76	44.452
542.10	44.567
542.44	44.570
542.78	43.742
543.12	42.738
543.46	44.525
543.80	45.348
544.14	43.774
544.48	43.238
544.82	43.682
545.16	44.242
545.50	43.059
545.84	44.220
546.18	44.512
546.52	44.253
546.86	44.399
547.20	43.358
547.54	42.285
547.88	44.133
548.22	42.964
548.56	43.333
548.90	41.421
549.24	43.973
549.58	44.270
549.92	44.231
550.26	44.318
550.60	41.909
550.94	43.099
551.28	43.965
551.62	44.644
551.96	43.439
552.30	43.072
552.64	44.490
552.98	43.119
553.32	42.751
553.66	43.354
554.00	43.445
554.34	42.098
554.68	43.848
555.02	42.948
555.36	42.937
555.69	42.490
556.03	42.194
556.37	42.087
556.71	42.019
557.05	42.507
557.39	41.917
557.73	42.272
558.07	42.495
558.41	42.692
558.75	41.954
559.08	42.207
559.42	43.840
559.76	43.235
560.10	42.256
560.44	41.719
560.78	40.719
561.12	41.623
561.45	40.808
561.79	41.859
562.13	41.650
562.47	42.008
562.81	41.702
563.15	40.535
563.48	40.981
563.82	41.748
564.16	40.942
564.50	40.690
564.84	40.961
565.17	41.892
565.51	41.534
565.85	39.848
566.19	39.637
566.52	40.722
566.86	40.145
567.20	41.922
567.54	40.297
567.88	38.729
568.21	40.159
568.55	39.838
568.89	39.883
569.23	38.770
569.56	38.138
569.90	37.698
570.24	37.890
570.57	36.858
570.91	36.942
571.25	37.461
571.59	36.907
571.92	36.780
572.26	36.684
572.60	36.486
572.93	36.372
573.27	37.030
573.61	37.800
573.95	36.589
574.28	36.256
574.62	36.224
574.96	35.484
575.29	35.912
575.63	36.331
575.97	36.319
576.30	36.245
576.64	36.063
576.98	35.975
577.31	35.906
577.65	35.461
577.98	35.485
578.32	35.008
578.66	35.556
578.99	35.266
579.33	35.802
579.67	34.639
580.00	35.939
580.34	36.402
580.67	35.334
581.01	35.979
581.35	35.754
581.68	35.336
582.02	34.966
582.35	35.118
582.69	34.395
583.02	35.196
583.36	36.016
583.70	36.414
584.03	35.502
584.37	36.337
584.70	36.233
585.04	35.274
585.37	35.857
585.71	35.714
586.04	35.371
586.38	36.416
586.72	36.426
587.05	35.289
587.39	35.145
587.72	35.661
588.06	36.073
588.39	35.473
588.73	35.905
589.06	35.743
589.40	36.061
589.73	37.064
590.07	36.797
590.40	35.915
590.73	36.924
591.07	37.485
591.40	36.862
591.74	37.662
592.07	36.998
592.41	36.213
592.74	36.180
593.08	35.376
593.41	35.717
593.75	34.510
594.08	35.065
594.41	35.737
594.75	36.414
595.08	35.326
595.42	35.867
595.75	35.648
596.09	36.575
596.42	36.660
596.75	35.922
597.09	37.576
597.42	35.708
597.75	36.050
598.09	36.217
598.42	36.040
598.76	35.063
599.09	34.778
599.42	34.716
599.76	35.066
600.09	34.608
600.42	35.062
600.76	34.643
601.09	35.009
601.42	34.932
601.76	34.877
602.09	35.455
602.42	35.311
602.76	36.155
603.09	35.090
603.42	35.689
603.76	34.870
604.09	34.703
604.42	35.793
604.76	35.512
605.09	35.955
605.42	34.716
605.75	35.803
606.09	35.055
606.42	34.900
606.75	35.297
607.09	35.077
607.42	34.917
607.75	34.473
608.08	34.607
608.42	35.589
608.75	35.122
609.08	35.153
609.41	35.317
609.75	34.636
610.08	36.475
610.41	34.451
610.74	35.620
611.07	35.721
611.41	34.200
611.74	36.099
612.07	36.439
612.40	35.572
612.73	35.737
613.07	36.422
613.40	35.545
613.73	34.819
614.06	34.785
614.39	34.504
614.72	35.000
615.06	35.819
615.39	35.350
615.72	34.356
616.05	34.662
616.38	35.909
616.71	35.511
617.05	36.101
617.38	36.140
617.71	35.736
618.04	36.418
618.37	35.896
618.70	35.594
619.03	36.842
619.36	35.234
619.69	36.549
620.03	37.363
620.36	36.564
620.69	36.301
621.02	37.758
621.35	36.492
621.68	36.059
622.01	36.997
622.34	36.914
622.67	35.894
623.00	34.996
623.33	35.525
623.66	35.954
623.99	36.524
624.32	36.234
624.65	35.664
624.99	35.907
625.32	35.844
625.65	36.138
625.98	36.741
626.31	36.470
626.64	36.735
626.97	36.243
627.30	35.993
627.63	37.080
627.96	38.940
628.29	37.620
628.62	37.786
628.95	40.000
629.28	36.588
629.61	37.947
629.94	38.381
630.26	37.655
630.59	36.320
