SpectraSuite Data File
++++++++++++++++++++++++++++++++++++
Date: Wed May 13 19:32:10 PDT 2015
User: schluterlab
Dark Spectrum Present: Yes
Reference Spectrum Present: Yes
Number of Sampled Component Spectra: 1
Spectrometers: USB2E3373
Integration Time (usec): 3000 (USB2E3373)
Spectra Averaged: 3 (USB2E3373)
Boxcar Smoothing: 0 (USB2E3373)
Correct for Electrical Dark: No (USB2E3373)
Strobe/Lamp Enabled: No (USB2E3373)
Correct for Detector Non-linearity: No (USB2E3373)
Correct for Stray Light: No (USB2E3373)
Number of Pixels in Processed Spectrum: 2048
>>>>>Begin Processed Spectral Data<<<<<
178.53	0.000
178.91	-1325.000
179.29	-1600.000
179.67	-222.222
180.04	-1350.000
180.42	2850.000
180.80	1100.000
181.18	-1300.000
181.56	828.571
181.94	0.000
182.31	-614.286
182.69	2133.333
183.07	-587.500
183.45	-588.889
183.83	527.273
184.20	-450.000
184.58	2450.000
184.96	5700.000
185.34	-700.000
185.72	-575.000
186.09	-2400.000
186.47	3350.000
186.85	2400.000
187.23	5600.000
187.61	-2000.000
187.98	1200.000
188.36	627.273
188.74	518.182
189.12	-1080.000
189.49	680.000
189.87	-5200.000
190.25	-1225.000
190.63	428.571
191.00	453.846
191.38	883.333
191.76	-1350.000
192.14	1200.000
192.51	712.500
192.89	933.333
193.27	600.000
193.65	-1400.000
194.02	530.000
194.40	1080.000
194.78	580.000
195.15	500.000
195.53	720.000
195.91	-2150.000
196.29	325.000
196.66	315.789
197.04	-450.000
197.42	0.000
197.79	650.000
198.17	-5000.000
198.55	842.857
198.92	800.000
199.30	880.000
199.68	0.000
200.05	322.222
200.43	857.143
200.81	5500.000
201.18	1866.667
201.56	-2033.333
201.94	622.222
202.31	677.778
202.69	408.333
203.07	570.000
203.44	0.000
203.82	1250.000
204.19	800.000
204.57	478.571
204.95	787.500
205.32	1666.667
205.70	618.182
206.08	421.429
206.45	2950.000
206.83	343.750
207.20	1050.000
207.58	860.000
207.96	305.556
208.33	800.000
208.71	-983.333
209.08	757.143
209.46	533.333
209.84	563.636
210.21	-1933.333
210.59	1550.000
210.96	-450.000
211.34	3000.000
211.71	640.000
212.09	800.000
212.46	0.000
212.84	1866.667
213.22	1500.000
213.59	-5000.000
213.97	1000.000
214.34	742.857
214.72	609.091
215.09	1240.000
215.47	-2200.000
215.84	-2850.000
216.22	1800.000
216.59	464.286
216.97	1475.000
217.34	445.455
217.72	-866.667
218.09	0.000
218.47	-5600.000
218.84	655.556
219.22	942.857
219.59	1800.000
219.97	-657.143
220.34	940.000
220.72	-1800.000
221.09	485.714
221.47	1550.000
221.84	-916.667
222.22	0.000
222.59	1500.000
222.97	-2650.000
223.34	1380.000
223.72	453.846
224.09	1060.000
224.46	2800.000
224.84	-5500.000
225.21	-1080.000
225.59	-5200.000
225.96	650.000
226.34	320.000
226.71	2750.000
227.08	712.500
227.46	500.000
227.83	-875.000
228.21	-2550.000
228.58	600.000
228.95	-2900.000
229.33	-2650.000
229.70	1933.333
230.08	785.714
230.45	-1000.000
230.82	483.333
231.20	900.000
231.57	800.000
231.95	483.333
232.32	245.455
232.69	490.909
233.07	828.571
233.44	330.769
233.81	-1800.000
234.19	326.316
234.56	458.333
234.93	416.667
235.31	427.273
235.68	384.615
236.05	321.429
236.43	206.061
236.80	305.263
237.17	4700.000
237.55	266.667
237.92	214.286
238.29	314.286
238.67	187.097
239.04	231.034
239.41	161.111
239.79	117.391
240.16	166.667
240.53	131.818
240.91	117.647
241.28	122.000
241.65	126.000
242.02	113.043
242.40	103.226
242.77	105.000
243.14	94.624
243.51	92.135
243.89	89.412
244.26	96.667
244.63	77.419
245.00	79.787
245.38	76.238
245.75	66.355
246.12	62.385
246.49	77.372
246.87	68.000
247.24	69.231
247.61	60.000
247.98	64.706
248.36	60.135
248.73	48.408
249.10	56.688
249.47	57.627
249.84	49.198
250.22	55.080
250.59	53.254
250.96	51.010
251.33	53.081
251.70	53.960
252.08	46.190
252.45	52.466
252.82	46.087
253.19	53.191
253.56	44.314
253.94	48.548
254.31	43.359
254.68	47.692
255.05	43.173
255.42	47.154
255.79	45.221
256.16	47.292
256.54	44.170
256.91	43.772
257.28	42.086
257.65	45.215
258.02	43.168
258.39	41.640
258.76	45.819
259.14	43.750
259.51	37.690
259.88	39.130
260.25	41.088
260.62	36.127
260.99	41.615
261.36	41.742
261.73	38.968
262.10	41.279
262.47	38.873
262.85	36.212
263.22	36.182
263.59	38.746
263.96	36.538
264.33	37.337
264.70	36.579
265.07	39.386
265.44	40.909
265.81	34.550
266.18	38.191
266.55	39.512
266.92	40.049
267.29	38.194
267.66	34.633
268.03	35.682
268.40	37.150
268.77	35.322
269.14	36.937
269.51	38.600
269.88	38.928
270.25	35.892
270.62	35.506
270.99	39.140
271.36	37.124
271.73	35.047
272.10	34.348
272.47	37.419
272.84	36.364
273.21	36.059
273.58	34.934
273.95	33.543
274.32	32.645
274.69	35.332
275.06	33.465
275.43	35.957
275.80	33.267
276.17	36.456
276.54	37.214
276.91	35.178
277.28	34.570
277.65	34.816
278.02	34.369
278.39	35.547
278.76	32.000
279.13	32.830
279.50	32.588
279.87	34.263
280.23	34.731
280.60	33.269
280.97	32.717
281.34	34.159
281.71	33.455
282.08	35.509
282.45	32.182
282.82	32.327
283.19	30.481
283.56	33.333
283.92	34.856
284.29	33.157
284.66	34.120
285.03	33.092
285.40	31.690
285.77	33.333
286.14	29.534
286.51	32.667
286.87	32.821
287.24	32.736
287.61	28.892
287.98	30.195
288.35	31.379
288.72	30.062
289.08	30.516
289.45	30.148
289.82	29.756
290.19	28.100
290.56	30.322
290.93	29.758
291.29	29.294
291.66	28.319
292.03	31.250
292.40	28.341
292.77	26.775
293.13	28.060
293.50	29.446
293.87	28.444
294.24	28.148
294.60	27.220
294.97	27.035
295.34	30.324
295.71	26.989
296.08	28.775
296.44	25.447
296.81	27.213
297.18	26.423
297.55	24.538
297.91	25.330
298.28	28.112
298.65	26.762
299.02	24.901
299.38	26.029
299.75	24.394
300.12	25.543
300.48	25.000
300.85	24.908
301.22	27.389
301.59	24.242
301.95	25.189
302.32	25.931
302.69	24.134
303.05	26.303
303.42	25.802
303.79	24.462
304.15	23.660
304.52	24.797
304.89	24.390
305.25	23.782
305.62	25.595
305.99	25.856
306.35	23.937
306.72	24.776
307.09	24.972
307.45	26.014
307.82	23.661
308.19	26.159
308.55	24.164
308.92	24.275
309.29	23.759
309.65	23.224
310.02	24.841
310.38	25.699
310.75	25.026
311.12	25.486
311.48	25.810
311.85	26.415
312.22	27.575
312.58	25.676
312.95	27.666
313.31	24.854
313.68	27.235
314.05	29.389
314.41	28.442
314.78	26.385
315.14	27.507
315.51	27.806
315.87	28.515
316.24	29.891
316.61	28.265
316.97	29.159
317.34	27.789
317.70	29.637
318.07	29.740
318.43	31.703
318.80	31.771
319.16	32.298
319.53	29.925
319.89	31.333
320.26	32.600
320.62	32.639
320.99	32.323
321.35	34.444
321.72	35.524
322.08	35.637
322.45	37.512
322.81	38.857
323.18	38.247
323.54	38.126
323.91	38.774
324.27	39.197
324.64	38.397
325.00	40.036
325.37	40.036
325.73	41.113
326.10	42.365
326.46	41.667
326.83	42.709
327.19	45.004
327.56	45.819
327.92	45.494
328.29	47.382
328.65	47.238
329.01	45.939
329.38	46.809
329.74	46.445
330.11	47.879
330.47	48.209
330.84	48.162
331.20	49.271
331.56	49.633
331.93	49.444
332.29	49.423
332.66	51.770
333.02	50.548
333.38	50.678
333.75	49.465
334.11	49.021
334.48	50.577
334.84	50.368
335.20	51.909
335.57	49.773
335.93	49.643
336.29	51.648
336.66	53.832
337.02	49.050
337.38	51.296
337.75	50.980
338.11	51.835
338.47	52.210
338.84	52.704
339.20	50.734
339.56	52.190
339.93	51.455
340.29	51.721
340.65	51.426
341.02	52.269
341.38	52.135
341.74	52.193
342.11	53.624
342.47	52.952
342.83	51.627
343.20	53.853
343.56	50.126
343.92	52.544
344.28	52.891
344.65	52.279
345.01	53.030
345.37	51.801
345.73	52.453
346.10	53.026
346.46	52.034
346.82	50.824
347.19	52.130
347.55	51.724
347.91	53.964
348.27	52.753
348.63	53.512
349.00	52.508
349.36	53.202
349.72	52.285
350.08	53.728
350.45	52.726
350.81	51.747
351.17	51.540
351.53	53.399
351.89	51.485
352.26	51.697
352.62	53.248
352.98	51.540
353.34	52.506
353.70	52.946
354.07	52.177
354.43	50.794
354.79	52.615
355.15	52.195
355.51	53.397
355.87	54.449
356.24	53.257
356.60	52.847
356.96	52.776
357.32	52.085
357.68	53.622
358.04	52.336
358.40	53.127
358.77	52.113
359.13	51.381
359.49	54.039
359.85	52.857
360.21	53.030
360.57	54.319
360.93	54.000
361.29	53.137
361.66	51.858
362.02	53.881
362.38	53.308
362.74	53.199
363.10	53.812
363.46	51.871
363.82	52.608
364.18	53.157
364.54	53.938
364.90	53.895
365.26	51.912
365.62	54.858
365.98	52.958
366.35	52.937
366.71	53.001
367.07	53.897
367.43	53.991
367.79	55.532
368.15	54.310
368.51	53.416
368.87	52.605
369.23	53.621
369.59	53.512
369.95	53.897
370.31	53.134
370.67	53.406
371.03	55.206
371.39	54.883
371.75	53.971
372.11	53.627
372.47	54.326
372.83	56.196
373.19	52.818
373.55	54.841
373.91	56.259
374.27	52.646
374.63	54.691
374.99	54.308
375.35	53.385
375.71	54.626
376.07	53.841
376.42	54.333
376.78	54.142
377.14	55.020
377.50	54.702
377.86	53.524
378.22	54.362
378.58	53.008
378.94	52.860
379.30	54.580
379.66	53.236
380.02	53.993
380.38	52.823
380.74	54.862
381.09	53.790
381.45	55.255
381.81	54.115
382.17	55.287
382.53	53.585
382.89	53.333
383.25	54.221
383.61	55.514
383.97	53.533
384.32	52.838
384.68	54.027
385.04	54.763
385.40	53.313
385.76	53.071
386.12	54.858
386.48	54.626
386.83	55.548
387.19	54.298
387.55	53.061
387.91	52.902
388.27	52.299
388.62	54.087
388.98	52.826
389.34	54.193
389.70	53.648
390.06	53.929
390.42	55.318
390.77	52.417
391.13	54.690
391.49	53.173
391.85	53.087
392.20	53.817
392.56	54.167
392.92	53.973
393.28	53.195
393.64	52.518
393.99	52.657
394.35	54.094
394.71	52.886
395.07	53.707
395.42	54.141
395.78	54.198
396.14	52.266
396.50	54.762
396.85	53.274
397.21	53.021
397.57	53.193
397.92	52.103
398.28	52.018
398.64	51.792
399.00	52.043
399.35	52.171
399.71	51.852
400.07	52.277
400.42	52.393
400.78	52.171
401.14	52.439
401.49	51.821
401.85	51.785
402.21	51.856
402.57	52.807
402.92	53.279
403.28	53.529
403.63	51.856
403.99	52.293
404.35	52.000
404.70	51.559
405.06	50.612
405.42	54.398
405.77	51.486
406.13	51.580
406.49	51.567
406.84	50.443
407.20	51.596
407.55	51.691
407.91	52.067
408.27	52.393
408.62	49.729
408.98	50.429
409.34	50.861
409.69	50.387
410.05	51.921
410.40	51.315
410.76	51.493
411.11	50.784
411.47	50.607
411.83	51.374
412.18	51.020
412.54	48.755
412.89	50.602
413.25	51.181
413.60	51.760
413.96	48.877
414.31	50.365
414.67	51.711
415.03	50.728
415.38	50.515
415.74	51.190
416.09	52.123
416.45	50.134
416.80	51.421
417.16	50.737
417.51	50.763
417.87	48.876
418.22	50.599
418.58	49.774
418.93	50.369
419.29	50.796
419.64	51.322
420.00	50.793
420.35	49.855
420.71	50.926
421.06	49.045
421.42	50.175
421.77	49.720
422.12	50.197
422.48	50.513
422.83	49.738
423.19	50.442
423.54	50.261
423.90	50.783
424.25	50.195
424.61	50.238
424.96	51.079
425.31	50.443
425.67	49.494
426.02	49.657
426.38	52.625
426.73	50.205
427.09	51.246
427.44	49.741
427.79	51.006
428.15	50.833
428.50	50.205
428.85	50.715
429.21	48.702
429.56	49.922
429.92	49.421
430.27	49.206
430.62	49.872
430.98	49.455
431.33	48.505
431.68	50.628
432.04	50.000
432.39	50.485
432.74	51.885
433.10	50.764
433.45	51.254
433.80	50.443
434.16	49.573
434.51	49.684
434.86	48.974
435.22	50.250
435.57	49.787
435.92	49.795
436.28	52.017
436.63	50.221
436.98	50.143
437.34	50.984
437.69	51.225
438.04	50.646
438.39	50.567
438.75	50.784
439.10	50.391
439.45	50.118
439.81	50.151
440.16	48.899
440.51	51.728
440.86	50.318
441.22	51.112
441.57	50.000
441.92	51.126
442.27	50.161
442.63	49.605
442.98	52.113
443.33	50.217
443.68	49.974
444.03	49.976
444.39	48.491
444.74	49.405
445.09	50.243
445.44	49.262
445.79	49.283
446.15	49.232
446.50	49.488
446.85	50.360
447.20	49.516
447.55	50.530
447.91	50.083
448.26	49.193
448.61	49.859
448.96	50.000
449.31	50.731
449.66	49.297
450.02	49.638
450.37	49.887
450.72	51.495
451.07	48.751
451.42	48.936
451.77	50.440
452.12	48.672
452.47	48.259
452.83	49.650
453.18	48.472
453.53	50.031
453.88	49.675
454.23	49.851
454.58	50.575
454.93	50.477
455.28	49.626
455.63	49.090
455.98	51.429
456.34	50.440
456.69	49.843
457.04	49.969
457.39	48.568
457.74	49.623
458.09	48.936
458.44	49.031
458.79	48.536
459.14	49.153
459.49	49.037
459.84	48.864
460.19	48.615
460.54	47.743
460.89	48.601
461.24	48.877
461.59	48.809
461.94	47.719
462.29	48.961
462.64	48.309
462.99	47.430
463.34	49.267
463.69	48.218
464.04	48.638
464.39	47.420
464.74	47.891
465.09	47.346
465.44	46.981
465.79	46.756
466.14	47.126
466.49	46.774
466.84	47.752
467.19	46.771
467.54	47.562
467.89	46.999
468.24	46.597
468.59	48.474
468.94	47.404
469.29	48.522
469.64	48.929
469.99	49.256
470.34	48.349
470.68	48.635
471.03	47.347
471.38	50.452
471.73	47.035
472.08	48.092
472.43	47.487
472.78	47.795
473.13	47.304
473.48	47.503
473.83	47.561
474.17	46.982
474.52	45.844
474.87	47.052
475.22	46.198
475.57	44.868
475.92	46.044
476.27	45.378
476.61	46.001
476.96	46.014
477.31	45.474
477.66	46.554
478.01	45.687
478.36	45.426
478.70	45.275
479.05	45.847
479.40	46.520
479.75	46.263
480.10	44.980
480.45	45.502
480.79	43.908
481.14	44.080
481.49	44.993
481.84	43.713
482.19	44.571
482.53	44.908
482.88	44.858
483.23	45.093
483.58	44.631
483.92	44.892
484.27	43.007
484.62	44.483
484.97	43.398
485.31	43.082
485.66	40.683
486.01	39.315
486.36	38.721
486.70	38.214
487.05	39.693
487.40	40.807
487.75	41.840
488.09	42.645
488.44	43.763
488.79	44.448
489.13	44.652
489.48	44.657
489.83	44.411
490.17	44.191
490.52	43.003
490.87	43.645
491.22	43.383
491.56	42.551
491.91	42.578
492.26	42.995
492.60	43.088
492.95	42.142
493.30	42.944
493.64	42.277
493.99	43.268
494.34	42.461
494.68	43.636
495.03	43.421
495.37	42.485
495.72	43.080
496.07	42.784
496.41	41.637
496.76	42.700
497.11	40.973
497.45	41.081
497.80	43.042
498.14	41.739
498.49	43.610
498.84	43.145
499.18	42.143
499.53	42.593
499.87	42.171
500.22	41.262
500.56	43.107
500.91	40.913
501.26	41.299
501.60	42.572
501.95	40.834
502.29	41.799
502.64	41.480
502.98	41.281
503.33	40.768
503.67	40.835
504.02	41.020
504.36	41.132
504.71	41.768
505.06	41.349
505.40	42.149
505.75	41.225
506.09	41.545
506.44	41.293
506.78	41.159
507.13	42.655
507.47	42.222
507.82	41.743
508.16	40.932
508.51	40.791
508.85	41.112
509.19	41.531
509.54	40.510
509.88	40.958
510.23	40.668
510.57	41.538
510.92	40.704
511.26	40.904
511.61	41.338
511.95	41.493
512.30	40.509
512.64	40.999
512.98	41.265
513.33	41.542
513.67	40.608
514.02	40.909
514.36	41.180
514.70	41.671
515.05	41.104
515.39	40.550
515.74	40.991
516.08	41.140
516.42	41.676
516.77	40.914
517.11	39.789
517.46	41.084
517.80	41.870
518.14	40.938
518.49	41.657
518.83	40.568
519.17	41.051
519.52	40.068
519.86	40.958
520.20	41.040
520.55	40.754
520.89	41.484
521.23	41.797
521.58	41.417
521.92	40.110
522.26	39.414
522.61	41.558
522.95	40.393
523.29	40.536
523.64	42.256
523.98	40.357
524.32	40.350
524.66	40.649
525.01	39.400
525.35	39.343
525.69	40.148
526.04	40.623
526.38	40.268
526.72	40.061
527.06	40.552
527.41	38.614
527.75	40.900
528.09	39.435
528.43	39.516
528.78	39.398
529.12	39.030
529.46	40.355
529.80	40.347
530.15	40.187
530.49	38.646
530.83	39.051
531.17	40.927
531.51	40.078
531.86	39.419
532.20	40.091
532.54	39.718
532.88	39.987
533.22	38.413
533.57	38.889
533.91	38.290
534.25	38.153
534.59	39.048
534.93	37.478
535.27	37.960
535.62	38.095
535.96	39.736
536.30	38.398
536.64	39.987
536.98	38.553
537.32	38.512
537.66	40.000
538.01	39.763
538.35	39.173
538.69	38.162
539.03	38.012
539.37	37.508
539.71	36.682
540.05	38.889
540.39	38.339
540.73	37.775
541.07	38.222
541.42	38.226
541.76	38.645
542.10	38.875
542.44	38.411
542.78	38.933
543.12	36.596
543.46	37.574
543.80	39.362
544.14	36.970
544.48	37.651
544.82	37.396
545.16	37.541
545.50	38.368
545.84	37.634
546.18	37.576
546.52	38.197
546.86	38.282
547.20	38.301
547.54	37.609
547.88	37.245
548.22	36.115
548.56	37.736
548.90	37.068
549.24	36.700
549.58	37.926
549.92	37.912
550.26	38.281
550.60	37.068
550.94	37.887
551.28	37.601
551.62	38.605
551.96	37.263
552.30	37.474
552.64	37.931
552.98	37.695
553.32	36.278
553.66	37.355
554.00	37.612
554.34	37.198
554.68	37.983
555.02	35.543
555.36	37.439
555.69	36.671
556.03	36.608
556.37	37.449
556.71	36.016
557.05	37.605
557.39	36.669
557.73	36.344
558.07	37.346
558.41	36.324
558.75	36.738
559.08	37.509
559.42	37.113
559.76	37.426
560.10	36.046
560.44	37.456
560.78	34.930
561.12	36.873
561.45	36.571
561.79	36.322
562.13	35.949
562.47	35.929
562.81	36.402
563.15	35.719
563.48	36.737
563.82	35.812
564.16	35.186
564.50	34.570
564.84	35.714
565.17	35.779
565.51	35.144
565.85	34.645
566.19	33.375
566.52	36.542
566.86	34.177
567.20	35.259
567.54	34.475
567.88	33.080
568.21	34.233
568.55	32.659
568.89	33.512
569.23	32.442
569.56	31.700
569.90	31.811
570.24	30.678
570.57	31.248
570.91	30.155
571.25	30.296
571.59	30.191
571.92	30.645
572.26	30.618
572.60	30.661
572.93	30.345
573.27	30.553
573.61	30.151
573.95	30.233
574.28	29.447
574.62	29.155
574.96	29.486
575.29	29.437
575.63	29.726
575.97	30.357
576.30	29.846
576.64	29.113
576.98	29.436
577.31	29.228
577.65	29.555
577.98	29.071
578.32	28.773
578.66	29.140
578.99	29.696
579.33	29.363
579.67	29.020
580.00	29.489
580.34	29.568
580.67	29.780
581.01	29.301
581.35	29.229
581.68	28.733
582.02	27.847
582.35	28.698
582.69	28.899
583.02	29.588
583.36	29.168
583.70	30.445
584.03	30.617
584.37	30.435
584.70	30.225
585.04	29.428
585.37	29.543
585.71	29.488
586.04	29.355
586.38	29.963
586.72	29.854
587.05	28.960
587.39	28.760
587.72	29.528
588.06	29.376
588.39	29.794
588.73	29.481
589.06	30.321
589.40	30.471
589.73	31.785
590.07	30.534
590.40	30.435
590.73	31.460
591.07	31.624
591.40	32.012
591.74	31.818
592.07	31.894
592.41	30.302
592.74	29.438
593.08	29.514
593.41	29.010
593.75	28.888
594.08	29.869
594.41	29.834
594.75	30.129
595.08	29.957
595.42	29.842
595.75	29.843
596.09	30.830
596.42	30.766
596.75	30.899
597.09	31.948
597.42	30.523
597.75	31.005
598.09	30.261
598.42	30.155
598.76	29.712
599.09	29.532
599.42	29.185
599.76	29.539
600.09	29.144
600.42	28.999
600.76	28.893
601.09	28.707
601.42	30.479
601.76	29.639
602.09	29.605
602.42	30.852
602.76	30.472
603.09	30.016
603.42	30.066
603.76	29.154
604.09	29.818
604.42	30.045
604.76	30.240
605.09	29.227
605.42	29.885
605.75	30.008
606.09	29.240
606.42	30.119
606.75	29.656
607.09	29.720
607.42	29.782
607.75	29.198
608.08	29.961
608.42	30.300
608.75	30.388
609.08	29.695
609.41	29.795
609.75	30.824
610.08	30.443
610.41	29.795
610.74	29.943
611.07	31.621
611.41	29.637
611.74	31.171
612.07	30.590
612.40	31.952
612.73	31.263
613.07	31.789
613.40	31.174
613.73	30.729
614.06	30.430
614.39	30.676
614.72	30.053
615.06	30.357
615.39	30.414
615.72	29.499
616.05	30.356
616.38	30.906
616.71	32.245
617.05	32.450
617.38	30.968
617.71	30.511
618.04	31.731
618.37	30.574
618.70	30.616
619.03	31.974
619.36	32.315
619.69	32.606
620.03	31.937
620.36	31.150
620.69	31.712
621.02	32.596
621.35	32.576
621.68	33.489
622.01	32.508
622.34	32.451
622.67	32.091
623.00	31.768
623.33	32.023
623.66	31.808
623.99	31.664
624.32	30.742
624.65	29.802
624.99	30.666
625.32	32.223
625.65	32.156
625.98	32.052
626.31	32.737
626.64	32.980
626.97	32.668
627.30	33.084
627.63	33.388
627.96	32.885
628.29	34.208
628.62	33.852
628.95	34.623
629.28	34.215
629.61	33.822
629.94	34.286
630.26	34.318
630.59	34.318
