SpectraSuite Data File
++++++++++++++++++++++++++++++++++++
Date: Wed May 13 19:10:15 PDT 2015
User: schluterlab
Dark Spectrum Present: Yes
Reference Spectrum Present: Yes
Number of Sampled Component Spectra: 1
Spectrometers: USB2E3373
Integration Time (usec): 3000 (USB2E3373)
Spectra Averaged: 3 (USB2E3373)
Boxcar Smoothing: 0 (USB2E3373)
Correct for Electrical Dark: No (USB2E3373)
Strobe/Lamp Enabled: No (USB2E3373)
Correct for Detector Non-linearity: No (USB2E3373)
Correct for Stray Light: No (USB2E3373)
Number of Pixels in Processed Spectrum: 2048
>>>>>Begin Processed Spectral Data<<<<<
178.53	0.000
178.91	-1425.000
179.29	-1325.000
179.67	-311.111
180.04	-1525.000
180.42	2750.000
180.80	1320.000
181.18	-1350.000
181.56	800.000
181.94	0.000
182.31	-771.429
182.69	1766.667
183.07	-712.500
183.45	-766.667
183.83	636.364
184.20	-580.000
184.58	2650.000
184.96	4300.000
185.34	-1040.000
185.72	-587.500
186.09	-2600.000
186.47	3550.000
186.85	2550.000
187.23	5400.000
187.61	-2066.667
187.98	1400.000
188.36	618.182
188.74	700.000
189.12	-1100.000
189.49	740.000
189.87	-5000.000
190.25	-1450.000
190.63	464.286
191.00	469.231
191.38	933.333
191.76	-1400.000
192.14	1500.000
192.51	750.000
192.89	983.333
193.27	587.500
193.65	-1200.000
194.02	580.000
194.40	1240.000
194.78	590.000
195.15	516.667
195.53	660.000
195.91	-2550.000
196.29	381.250
196.66	357.895
197.04	-330.000
197.42	0.000
197.79	670.000
198.17	-5400.000
198.55	757.143
198.92	700.000
199.30	1100.000
199.68	0.000
200.05	350.000
200.43	942.857
200.81	4100.000
201.18	2066.667
201.56	-2066.667
201.94	688.889
202.31	633.333
202.69	491.667
203.07	580.000
203.44	0.000
203.82	1325.000
204.19	785.714
204.57	392.857
204.95	725.000
205.32	1666.667
205.70	654.545
206.08	400.000
206.45	2900.000
206.83	450.000
207.20	1166.667
207.58	1100.000
207.96	411.111
208.33	725.000
208.71	-1183.333
209.08	800.000
209.46	733.333
209.84	545.455
210.21	-1366.667
210.59	1475.000
210.96	-650.000
211.34	2900.000
211.71	630.000
212.09	883.333
212.46	0.000
212.84	1866.667
213.22	1375.000
213.59	-5700.000
213.97	983.333
214.34	1000.000
214.72	700.000
215.09	1240.000
215.47	-2500.000
215.84	-2850.000
216.22	2100.000
216.59	464.286
216.97	1125.000
217.34	472.727
217.72	-816.667
218.09	0.000
218.47	-5600.000
218.84	700.000
219.22	885.714
219.59	1766.667
219.97	-757.143
220.34	1160.000
220.72	-1833.333
221.09	478.571
221.47	1600.000
221.84	-1000.000
222.22	0.000
222.59	1600.000
222.97	-2750.000
223.34	1240.000
223.72	376.923
224.09	1400.000
224.46	2750.000
224.84	-5500.000
225.21	-1080.000
225.59	-6100.000
225.96	590.000
226.34	325.000
226.71	3000.000
227.08	675.000
227.46	560.000
227.83	-1225.000
228.21	-2550.000
228.58	677.778
228.95	-3050.000
229.33	-2350.000
229.70	2300.000
230.08	814.286
230.45	-920.000
230.82	550.000
231.20	1050.000
231.57	714.286
231.95	533.333
232.32	313.636
232.69	463.636
233.07	700.000
233.44	453.846
233.81	-1966.667
234.19	347.368
234.56	416.667
234.93	491.667
235.31	600.000
235.68	407.692
236.05	350.000
236.43	203.030
236.80	326.316
237.17	5600.000
237.55	257.143
237.92	217.857
238.29	314.286
238.67	219.355
239.04	275.862
239.41	177.778
239.79	141.304
240.16	130.952
240.53	140.909
240.91	115.686
241.28	134.000
241.65	108.000
242.02	104.348
242.40	114.516
242.77	110.000
243.14	91.398
243.51	100.000
243.89	91.765
244.26	76.667
244.63	79.570
245.00	77.660
245.38	76.238
245.75	67.290
246.12	59.633
246.49	64.234
246.87	69.600
247.24	65.385
247.61	58.571
247.98	54.248
248.36	52.703
248.73	58.599
249.10	53.503
249.47	51.977
249.84	51.872
250.22	48.663
250.59	43.787
250.96	47.980
251.33	52.133
251.70	48.515
252.08	44.286
252.45	44.843
252.82	43.043
253.19	42.979
253.56	38.431
253.94	45.643
254.31	40.234
254.68	39.615
255.05	40.959
255.42	39.837
255.79	38.235
256.16	37.906
256.54	35.689
256.91	38.434
257.28	34.173
257.65	36.304
258.02	36.335
258.39	33.123
258.76	35.117
259.14	35.119
259.51	33.435
259.88	29.193
260.25	34.743
260.62	32.081
260.99	37.267
261.36	35.736
261.73	32.951
262.10	34.593
262.47	34.648
262.85	29.248
263.22	29.630
263.59	33.333
263.96	31.593
264.33	32.376
264.70	28.947
265.07	31.458
265.44	30.808
265.81	28.224
266.18	28.141
266.55	30.732
266.92	30.713
267.29	28.009
267.66	29.587
268.03	30.000
268.40	30.140
268.77	25.298
269.14	28.604
269.51	29.345
269.88	29.138
270.25	27.765
270.62	29.213
270.99	30.968
271.36	29.185
271.73	29.439
272.10	26.522
272.47	29.462
272.84	28.355
273.21	27.883
273.58	25.983
273.95	25.367
274.32	25.207
274.69	30.407
275.06	25.984
275.43	28.936
275.80	27.054
276.17	29.328
276.54	25.572
276.91	27.075
277.28	25.586
277.65	25.725
278.02	26.708
278.39	26.953
278.76	26.909
279.13	25.472
279.50	26.257
279.87	26.494
280.23	25.948
280.60	24.758
280.97	26.248
281.34	25.310
281.71	26.727
282.08	27.639
282.45	22.000
282.82	23.979
283.19	24.242
283.56	26.667
283.92	24.704
284.29	24.515
284.66	24.501
285.03	21.700
285.40	24.824
285.77	24.242
286.14	22.798
286.51	24.333
286.87	24.957
287.24	24.593
287.61	23.114
287.98	24.351
288.35	23.138
288.72	23.676
289.08	24.570
289.45	24.712
289.82	24.065
290.19	23.077
290.56	22.511
290.93	20.393
291.29	22.086
291.66	22.271
292.03	23.547
292.40	22.026
292.77	23.225
293.13	22.090
293.50	21.866
293.87	22.815
294.24	22.963
294.60	20.670
294.97	21.948
295.34	20.310
295.71	21.023
296.08	20.228
296.44	19.807
296.81	19.947
297.18	20.732
297.55	18.865
297.91	19.129
298.28	21.017
298.65	19.321
299.02	20.553
299.38	20.452
299.75	18.464
300.12	18.774
300.48	19.750
300.85	19.605
301.22	19.363
301.59	18.939
301.95	19.899
302.32	20.282
302.69	19.833
303.05	19.515
303.42	18.519
303.79	18.800
304.15	18.881
304.52	17.845
304.89	17.770
305.25	19.722
305.62	18.460
305.99	18.418
306.35	17.450
306.72	19.170
307.09	18.646
307.45	19.144
307.82	17.857
308.19	18.212
308.55	18.770
308.92	16.434
309.29	17.529
309.65	18.028
310.02	19.027
310.38	19.140
310.75	17.423
311.12	18.014
311.48	18.286
311.85	19.078
312.22	18.002
312.58	17.775
312.95	18.268
313.31	17.282
313.68	17.775
314.05	18.836
314.41	18.693
314.78	18.530
315.14	17.577
315.51	17.817
315.87	18.713
316.24	17.776
316.61	16.862
316.97	17.515
317.34	17.515
317.70	18.834
318.07	17.998
318.43	17.025
318.80	18.182
319.16	17.420
319.53	17.636
319.89	17.905
320.26	18.900
320.62	17.560
320.99	17.980
321.35	18.081
321.72	19.199
322.08	17.670
322.45	19.303
322.81	18.702
323.18	18.979
323.54	18.275
323.91	18.585
324.27	17.973
324.64	16.682
325.00	16.952
325.37	18.289
325.73	19.031
326.10	17.387
326.46	16.219
326.83	17.601
327.19	16.994
327.56	16.812
327.92	17.410
328.29	17.924
328.65	17.587
329.01	17.058
329.38	16.559
329.74	16.713
330.11	16.871
330.47	16.896
330.84	18.290
331.20	16.576
331.56	18.440
331.93	16.759
332.29	16.593
332.66	17.965
333.02	15.722
333.38	17.344
333.75	18.004
334.11	17.082
334.48	15.439
334.84	16.544
335.20	17.000
335.57	15.684
335.93	15.446
336.29	16.850
336.66	17.223
337.02	16.109
337.38	17.778
337.75	16.310
338.11	15.756
338.47	15.838
338.84	16.590
339.20	15.963
339.56	16.697
339.93	16.273
340.29	16.033
340.65	16.756
341.02	16.667
341.38	15.302
341.74	15.965
342.11	16.769
342.47	15.683
342.83	16.438
343.20	16.710
343.56	16.512
343.92	16.842
344.28	16.241
344.65	17.455
345.01	15.993
345.37	14.237
345.73	15.905
346.10	15.686
346.46	15.593
346.82	15.898
347.19	14.536
347.55	15.435
347.91	15.615
348.27	16.516
348.63	16.221
349.00	15.534
349.36	15.353
349.72	15.397
350.08	14.992
350.45	14.809
350.81	14.785
351.17	15.073
351.53	15.479
351.89	15.017
352.26	16.180
352.62	15.718
352.98	15.154
353.34	15.859
353.70	13.912
354.07	15.242
354.43	14.841
354.79	14.562
355.15	15.243
355.51	16.067
355.87	15.510
356.24	15.391
356.60	15.076
356.96	14.803
357.32	15.454
357.68	15.118
358.04	14.727
358.40	16.231
358.77	15.258
359.13	13.970
359.49	15.137
359.85	12.619
360.21	13.876
360.57	14.553
360.93	15.308
361.29	14.437
361.66	14.087
362.02	15.224
362.38	14.373
362.74	14.211
363.10	13.768
363.46	14.453
363.82	14.286
364.18	13.803
364.54	14.562
364.90	15.156
365.26	14.118
365.62	14.536
365.98	13.660
366.35	13.467
366.71	14.678
367.07	14.639
367.43	14.296
367.79	14.204
368.15	15.230
368.51	14.680
368.87	14.276
369.23	13.972
369.59	14.337
369.95	14.191
370.31	13.746
370.67	14.275
371.03	15.206
371.39	14.213
371.75	14.485
372.11	13.656
372.47	15.176
372.83	14.409
373.19	14.306
373.55	14.117
373.91	14.507
374.27	14.227
374.63	13.818
374.99	13.983
375.35	13.259
375.71	13.777
376.07	13.855
376.42	13.480
376.78	13.585
377.14	13.976
377.50	14.238
377.86	12.168
378.22	14.475
378.58	13.158
378.94	13.388
379.30	13.041
379.66	13.388
380.02	14.189
380.38	12.933
380.74	14.046
381.09	13.814
381.45	13.583
381.81	13.391
382.17	14.076
382.53	12.390
382.89	13.889
383.25	13.196
383.61	13.383
383.97	12.695
384.32	13.537
384.68	13.135
385.04	13.645
385.40	12.879
385.76	13.391
386.12	12.889
386.48	13.845
386.83	12.251
387.19	13.605
387.55	13.667
387.91	12.757
388.27	12.753
388.62	13.460
388.98	12.776
389.34	13.204
389.70	13.366
390.06	13.561
390.42	13.100
390.77	13.359
391.13	13.082
391.49	13.515
391.85	12.794
392.20	11.987
392.56	13.384
392.92	12.537
393.28	12.426
393.64	12.110
393.99	13.500
394.35	13.524
394.71	12.108
395.07	12.773
395.42	13.535
395.78	12.786
396.14	13.408
396.50	13.596
396.85	13.414
397.21	12.392
397.57	12.833
397.92	12.981
398.28	11.996
398.64	12.246
399.00	11.863
399.35	11.957
399.71	12.384
400.07	12.419
400.42	13.497
400.78	12.545
401.14	12.256
401.49	13.254
401.85	11.978
402.21	12.156
402.57	12.708
402.92	12.610
403.28	12.742
403.63	12.438
403.99	12.229
404.35	12.909
404.70	12.050
405.06	12.231
405.42	13.350
405.77	12.343
406.13	12.077
406.49	13.069
406.84	12.345
407.20	11.820
407.55	11.997
407.91	12.267
408.27	13.019
408.62	12.462
408.98	12.255
409.34	12.485
409.69	12.452
410.05	12.392
410.40	12.477
410.76	11.708
411.11	12.123
411.47	11.949
411.83	12.156
412.18	12.369
412.54	12.391
412.89	12.048
413.25	11.924
413.60	12.168
413.96	12.265
414.31	11.665
414.67	12.294
415.03	11.788
415.38	12.564
415.74	12.283
416.09	13.390
416.45	11.914
416.80	12.227
417.16	12.534
417.51	13.072
417.87	12.588
418.22	13.438
418.58	13.105
418.93	13.268
419.29	12.476
419.64	12.972
420.00	12.256
420.35	12.290
420.71	12.612
421.06	13.007
421.42	13.275
421.77	12.836
422.12	11.567
422.48	12.035
422.83	12.522
423.19	12.873
423.54	12.014
423.90	13.101
424.25	12.898
424.61	12.202
424.96	13.120
425.31	12.292
425.67	11.742
426.02	12.057
426.38	13.065
426.73	11.761
427.09	13.131
427.44	12.996
427.79	12.823
428.15	13.214
428.50	12.229
428.85	12.694
429.21	12.700
429.56	11.768
429.92	12.079
430.27	12.413
430.62	12.238
430.98	12.662
431.33	11.907
431.68	12.356
432.04	12.939
432.39	13.250
432.74	13.166
433.10	13.016
433.45	13.120
433.80	13.137
434.16	12.607
434.51	12.895
434.86	12.714
435.22	12.340
435.57	13.070
435.92	12.405
436.28	13.938
436.63	13.907
436.98	12.364
437.34	13.655
437.69	13.127
438.04	12.816
438.39	13.134
438.75	13.539
439.10	13.296
439.45	13.341
439.81	12.749
440.16	12.761
440.51	12.888
440.86	13.665
441.22	13.014
441.57	12.792
441.92	12.538
442.27	12.379
442.63	12.322
442.98	13.690
443.33	12.609
443.68	12.958
444.03	12.738
444.39	12.269
444.74	12.662
445.09	13.261
445.44	12.575
445.79	13.409
446.15	13.976
446.50	12.655
446.85	13.772
447.20	12.851
447.55	13.233
447.91	13.734
448.26	12.966
448.61	13.624
448.96	13.566
449.31	14.004
449.66	13.562
450.02	12.869
450.37	12.415
450.72	13.142
451.07	13.285
451.42	13.435
451.77	14.034
452.12	13.279
452.47	13.806
452.83	13.287
453.18	13.447
453.53	14.286
453.88	12.581
454.23	14.824
454.58	13.749
454.93	14.876
455.28	13.529
455.63	13.835
455.98	14.464
456.34	13.505
456.69	13.463
457.04	13.808
457.39	13.209
457.74	13.871
458.09	14.606
458.44	13.113
458.79	13.015
459.14	13.657
459.49	14.186
459.84	13.241
460.19	13.435
460.54	13.715
460.89	13.769
461.24	13.600
461.59	14.585
461.94	13.748
462.29	14.659
462.64	14.103
462.99	13.728
463.34	14.667
463.69	13.946
464.04	14.435
464.39	14.203
464.74	13.310
465.09	13.390
465.44	13.795
465.79	13.143
466.14	13.246
466.49	13.404
466.84	14.011
467.19	14.363
467.54	15.125
467.89	13.565
468.24	13.613
468.59	14.774
468.94	14.233
469.29	14.010
469.64	15.863
469.99	14.344
470.34	14.003
470.68	14.440
471.03	14.218
471.38	13.899
471.73	14.191
472.08	15.197
472.43	13.945
472.78	14.812
473.13	14.634
473.48	14.482
473.83	14.329
474.17	13.441
474.52	15.074
474.87	14.361
475.22	13.871
475.57	13.057
475.92	13.595
476.27	13.191
476.61	14.065
476.96	13.854
477.31	13.605
477.66	14.059
478.01	13.278
478.36	13.485
478.70	13.811
479.05	13.206
479.40	13.869
479.75	13.625
480.10	13.419
480.45	13.375
480.79	13.426
481.14	13.356
481.49	13.336
481.84	13.717
482.19	13.267
482.53	13.670
482.88	13.681
483.23	13.645
483.58	13.285
483.92	13.449
484.27	12.375
484.62	13.233
484.97	12.771
485.31	12.568
485.66	11.406
486.01	11.091
486.36	10.635
486.70	10.835
487.05	11.840
487.40	11.517
487.75	11.911
488.09	12.587
488.44	12.608
488.79	12.803
489.13	13.140
489.48	12.806
489.83	12.732
490.17	13.634
490.52	13.596
490.87	13.207
491.22	13.779
491.56	12.984
491.91	13.913
492.26	13.045
492.60	14.101
492.95	13.003
493.30	13.411
493.64	13.532
493.99	13.324
494.34	13.969
494.68	14.103
495.03	13.581
495.37	13.681
495.72	13.060
496.07	13.132
496.41	12.832
496.76	12.885
497.11	13.643
497.45	13.740
497.80	13.388
498.14	13.478
498.49	13.756
498.84	13.710
499.18	13.667
499.53	13.390
499.87	14.073
500.22	13.189
500.56	14.709
500.91	13.894
501.26	13.893
501.60	14.143
501.95	13.657
502.29	13.355
502.64	13.734
502.98	13.417
503.33	13.208
503.67	13.179
504.02	13.891
504.36	13.477
504.71	13.825
505.06	13.687
505.40	13.709
505.75	13.308
506.09	13.703
506.44	13.370
506.78	13.492
507.13	13.730
507.47	13.889
507.82	13.475
508.16	14.032
508.51	14.409
508.85	13.903
509.19	13.367
509.54	13.929
509.88	13.962
510.23	14.190
510.57	15.119
510.92	14.656
511.26	14.080
511.61	15.197
511.95	13.361
512.30	14.316
512.64	14.777
512.98	14.737
513.33	14.507
513.67	14.568
514.02	14.123
514.36	14.036
514.70	14.222
515.05	13.720
515.39	14.807
515.74	14.583
516.08	14.421
516.42	15.372
516.77	14.604
517.11	14.317
517.46	14.898
517.80	15.389
518.14	14.476
518.49	14.994
518.83	14.886
519.17	14.607
519.52	14.544
519.86	15.231
520.20	15.838
520.55	15.021
520.89	15.693
521.23	15.802
521.58	15.366
521.92	14.758
522.26	14.826
522.61	14.642
522.95	14.733
523.29	14.790
523.64	15.671
523.98	15.280
524.32	15.742
524.66	15.574
525.01	14.706
525.35	15.180
525.69	14.840
526.04	15.140
526.38	15.131
526.72	15.153
527.06	16.196
527.41	14.851
527.75	16.270
528.09	15.735
528.43	15.679
528.78	15.734
529.12	14.909
529.46	15.554
529.80	15.347
530.15	16.885
530.49	15.200
530.83	15.759
531.17	16.253
531.51	17.315
531.86	16.065
532.20	16.884
532.54	15.951
532.88	16.367
533.22	15.240
533.57	15.185
533.91	15.713
534.25	15.553
534.59	15.680
534.93	15.110
535.27	14.725
535.62	15.140
535.96	16.070
536.30	15.448
536.64	15.132
536.98	15.328
537.32	15.471
537.66	15.000
538.01	15.734
538.35	16.096
538.69	15.954
539.03	16.114
539.37	15.527
539.71	14.776
540.05	15.425
540.39	15.548
540.73	15.395
541.07	15.834
541.42	16.308
541.76	17.032
542.10	16.688
542.44	15.894
542.78	16.535
543.12	15.739
543.46	15.803
543.80	15.680
544.14	15.148
544.48	16.190
544.82	15.266
545.16	15.420
545.50	15.231
545.84	15.591
546.18	15.892
546.52	16.173
546.86	15.533
547.20	15.644
547.54	16.299
547.88	15.242
548.22	15.816
548.56	15.849
548.90	15.685
549.24	15.892
549.58	16.235
549.92	16.621
550.26	16.903
550.60	17.151
550.94	16.690
551.28	16.752
551.62	16.391
551.96	15.860
552.30	15.904
552.64	16.498
552.98	16.542
553.32	16.993
553.66	16.769
554.00	17.296
554.34	16.149
554.68	17.024
555.02	16.291
555.36	16.075
555.69	15.426
556.03	16.353
556.37	16.576
556.71	14.939
557.05	16.106
557.39	16.585
557.73	16.937
558.07	16.751
558.41	15.991
558.75	16.165
559.08	17.450
559.42	17.158
559.76	17.353
560.10	16.774
560.44	16.282
560.78	15.835
561.12	15.765
561.45	16.558
561.79	16.084
562.13	15.895
562.47	17.828
562.81	15.760
563.15	16.589
563.48	16.711
563.82	16.308
564.16	16.743
564.50	15.755
564.84	15.424
565.17	15.959
565.51	16.613
565.85	16.561
566.19	15.091
566.52	16.276
566.86	15.431
567.20	16.215
567.54	15.126
567.88	14.231
568.21	14.974
568.55	14.510
568.89	14.348
569.23	13.904
569.56	13.644
569.90	13.849
570.24	13.204
570.57	12.751
570.91	12.896
571.25	12.693
571.59	13.078
571.92	12.903
572.26	13.316
572.60	13.393
572.93	13.223
573.27	13.162
573.61	12.395
573.95	12.765
574.28	12.563
574.62	12.318
574.96	12.306
575.29	12.367
575.63	12.068
575.97	12.497
576.30	12.958
576.64	12.509
576.98	12.202
577.31	12.384
577.65	12.356
577.98	11.982
578.32	11.616
578.66	12.285
578.99	12.646
579.33	12.491
579.67	12.187
580.00	12.155
580.34	12.577
580.67	12.527
581.01	12.638
581.35	12.313
581.68	11.940
582.02	12.017
582.35	11.971
582.69	12.204
583.02	12.095
583.36	12.728
583.70	12.937
584.03	12.748
584.37	13.202
584.70	12.513
585.04	12.794
585.37	12.325
585.71	12.852
586.04	12.491
586.38	13.062
586.72	13.339
587.05	12.741
587.39	12.401
587.72	13.012
588.06	13.127
588.39	13.004
588.73	12.936
589.06	13.182
589.40	13.502
589.73	13.728
590.07	13.986
590.40	13.774
590.73	14.208
591.07	14.042
591.40	14.509
591.74	14.675
592.07	14.834
592.41	14.262
592.74	13.558
593.08	13.658
593.41	13.255
593.75	12.898
594.08	13.476
594.41	14.069
594.75	13.752
595.08	13.601
595.42	13.940
595.75	13.675
596.09	13.894
596.42	14.263
596.75	14.057
597.09	14.459
597.42	14.039
597.75	15.006
598.09	14.522
598.42	14.519
598.76	13.660
599.09	13.531
599.42	13.355
599.76	13.763
600.09	13.078
600.42	13.879
600.76	13.750
601.09	13.770
601.42	14.079
601.76	14.156
602.09	13.953
602.42	14.729
602.76	14.188
603.09	14.241
603.42	13.706
603.76	13.300
604.09	14.114
604.42	13.779
604.76	14.466
605.09	13.936
605.42	14.365
605.75	14.445
606.09	13.989
606.42	14.140
606.75	14.600
607.09	14.692
607.42	14.163
607.75	13.629
608.08	14.286
608.42	14.433
608.75	14.608
609.08	14.339
609.41	14.850
609.75	14.435
610.08	15.316
610.41	13.780
610.74	14.238
611.07	14.822
611.41	14.426
611.74	15.133
612.07	15.269
612.40	15.582
612.73	14.947
613.07	15.571
613.40	15.166
613.73	14.578
614.06	15.215
614.39	15.364
614.72	15.895
615.06	16.124
615.39	15.340
615.72	14.928
616.05	14.886
616.38	15.120
616.71	14.964
617.05	15.783
617.38	16.055
617.71	14.895
618.04	15.505
618.37	15.316
618.70	15.059
619.03	16.711
619.36	15.479
619.69	15.634
620.03	16.896
620.36	16.511
620.69	16.918
621.02	16.519
621.35	16.993
621.68	16.978
622.01	16.486
622.34	17.474
622.67	17.719
623.00	16.654
623.33	16.297
623.66	16.869
623.99	15.611
624.32	16.619
624.65	16.384
624.99	15.510
625.32	17.306
625.65	16.529
625.98	17.218
626.31	17.341
626.64	16.980
626.97	17.789
627.30	17.789
627.63	17.063
627.96	17.325
628.29	19.073
628.62	18.390
628.95	19.528
629.28	18.613
629.61	19.340
629.94	18.476
630.26	18.112
630.59	18.112
