SpectraSuite Data File
++++++++++++++++++++++++++++++++++++
Date: Wed May 13 19:30:29 PDT 2015
User: schluterlab
Dark Spectrum Present: Yes
Reference Spectrum Present: Yes
Number of Sampled Component Spectra: 1
Spectrometers: USB2E3373
Integration Time (usec): 3000 (USB2E3373)
Spectra Averaged: 3 (USB2E3373)
Boxcar Smoothing: 0 (USB2E3373)
Correct for Electrical Dark: No (USB2E3373)
Strobe/Lamp Enabled: No (USB2E3373)
Correct for Detector Non-linearity: No (USB2E3373)
Correct for Stray Light: No (USB2E3373)
Number of Pixels in Processed Spectrum: 2048
>>>>>Begin Processed Spectral Data<<<<<
178.53	0.000
178.91	-1400.000
179.29	-1350.000
179.67	-250.000
180.04	-1275.000
180.42	2550.000
180.80	1040.000
181.18	-1150.000
181.56	785.714
181.94	0.000
182.31	-657.143
182.69	1700.000
183.07	-700.000
183.45	-577.778
183.83	536.364
184.20	-400.000
184.58	2550.000
184.96	6400.000
185.34	-800.000
185.72	-512.500
186.09	-2400.000
186.47	2700.000
186.85	2300.000
187.23	5700.000
187.61	-1833.333
187.98	1200.000
188.36	663.636
188.74	618.182
189.12	-880.000
189.49	560.000
189.87	-5300.000
190.25	-1350.000
190.63	378.571
191.00	484.615
191.38	933.333
191.76	-1400.000
192.14	1275.000
192.51	775.000
192.89	966.667
193.27	675.000
193.65	-1275.000
194.02	560.000
194.40	1120.000
194.78	550.000
195.15	566.667
195.53	600.000
195.91	-2100.000
196.29	356.250
196.66	278.947
197.04	-300.000
197.42	0.000
197.79	660.000
198.17	-4800.000
198.55	814.286
198.92	675.000
199.30	1000.000
199.68	0.000
200.05	405.556
200.43	771.429
200.81	4800.000
201.18	1666.667
201.56	-1666.667
201.94	522.222
202.31	666.667
202.69	441.667
203.07	630.000
203.44	0.000
203.82	1150.000
204.19	842.857
204.57	471.429
204.95	562.500
205.32	1533.333
205.70	481.818
206.08	378.571
206.45	3000.000
206.83	393.750
207.20	950.000
207.58	860.000
207.96	344.444
208.33	662.500
208.71	-783.333
209.08	828.571
209.46	700.000
209.84	509.091
210.21	-1733.333
210.59	1475.000
210.96	-462.500
211.34	2750.000
211.71	620.000
212.09	850.000
212.46	0.000
212.84	1833.333
213.22	1500.000
213.59	-4900.000
213.97	1000.000
214.34	771.429
214.72	590.909
215.09	1140.000
215.47	-2250.000
215.84	-2900.000
216.22	1833.333
216.59	450.000
216.97	1350.000
217.34	527.273
217.72	-733.333
218.09	0.000
218.47	-5400.000
218.84	655.556
219.22	742.857
219.59	1600.000
219.97	-700.000
220.34	920.000
220.72	-2200.000
221.09	421.429
221.47	1550.000
221.84	-966.667
222.22	0.000
222.59	1400.000
222.97	-3050.000
223.34	1160.000
223.72	438.462
224.09	1120.000
224.46	2250.000
224.84	-5600.000
225.21	-960.000
225.59	-5200.000
225.96	580.000
226.34	345.000
226.71	3000.000
227.08	637.500
227.46	570.000
227.83	-1300.000
228.21	-2450.000
228.58	688.889
228.95	-2750.000
229.33	-2750.000
229.70	1766.667
230.08	785.714
230.45	-880.000
230.82	433.333
231.20	866.667
231.57	771.429
231.95	508.333
232.32	231.818
232.69	518.182
233.07	728.571
233.44	446.154
233.81	-1700.000
234.19	357.895
234.56	450.000
234.93	441.667
235.31	418.182
235.68	361.538
236.05	450.000
236.43	175.758
236.80	278.947
237.17	5100.000
237.55	266.667
237.92	228.571
238.29	261.905
238.67	196.774
239.04	258.621
239.41	180.556
239.79	117.391
240.16	154.762
240.53	118.182
240.91	129.412
241.28	128.000
241.65	134.000
242.02	111.594
242.40	106.452
242.77	120.000
243.14	88.172
243.51	83.146
243.89	78.824
244.26	66.667
244.63	74.194
245.00	72.340
245.38	71.287
245.75	63.551
246.12	61.468
246.49	75.182
246.87	83.200
247.24	71.538
247.61	61.429
247.98	54.902
248.36	43.919
248.73	56.688
249.10	56.051
249.47	50.847
249.84	52.941
250.22	50.267
250.59	57.396
250.96	50.000
251.33	52.607
251.70	52.475
252.08	45.238
252.45	41.256
252.82	43.043
253.19	48.085
253.56	48.627
253.94	44.398
254.31	42.187
254.68	45.385
255.05	45.756
255.42	43.496
255.79	41.176
256.16	39.711
256.54	37.809
256.91	43.416
257.28	34.532
257.65	37.954
258.02	38.509
258.39	37.224
258.76	37.793
259.14	39.286
259.51	38.298
259.88	35.714
260.25	38.066
260.62	34.971
260.99	35.404
261.36	36.336
261.73	37.249
262.10	34.884
262.47	34.930
262.85	35.655
263.22	34.188
263.59	37.607
263.96	30.495
264.33	34.465
264.70	33.421
265.07	35.038
265.44	31.313
265.81	32.360
266.18	34.171
266.55	32.683
266.92	33.661
267.29	31.944
267.66	32.569
268.03	30.455
268.40	35.514
268.77	29.117
269.14	29.730
269.51	34.086
269.88	30.536
270.25	31.603
270.62	32.135
270.99	33.978
271.36	29.828
271.73	30.374
272.10	30.870
272.47	32.903
272.84	30.952
273.21	33.124
273.58	28.166
273.95	29.350
274.32	28.306
274.69	30.193
275.06	30.315
275.43	30.638
275.80	28.858
276.17	30.346
276.54	31.185
276.91	29.644
277.28	28.711
277.65	27.466
278.02	27.743
278.39	30.273
278.76	27.455
279.13	29.057
279.50	26.629
279.87	30.279
280.23	28.543
280.60	27.466
280.97	27.726
281.34	30.619
281.71	28.727
282.08	28.599
282.45	27.455
282.82	29.307
283.19	24.955
283.56	28.246
283.92	27.580
284.29	27.337
284.66	27.223
285.03	27.125
285.40	26.585
285.77	26.263
286.14	25.561
286.51	25.833
286.87	25.470
287.24	26.384
287.61	23.114
287.98	24.675
288.35	23.296
288.72	26.168
289.08	25.352
289.45	25.206
289.82	25.691
290.19	23.391
290.56	24.502
290.93	24.018
291.29	24.693
291.66	25.074
292.03	25.727
292.40	27.019
292.77	23.373
293.13	22.836
293.50	23.907
293.87	21.481
294.24	21.778
294.60	22.853
294.97	23.256
295.34	23.413
295.71	21.591
296.08	22.222
296.44	22.558
296.81	21.400
297.18	23.171
297.55	19.921
297.91	20.976
298.28	22.356
298.65	22.585
299.02	21.739
299.38	20.850
299.75	19.272
300.12	21.328
300.48	20.750
300.85	20.222
301.22	20.000
301.59	21.212
301.95	21.662
302.32	21.951
302.69	22.342
303.05	20.121
303.42	20.000
303.79	19.706
304.15	18.881
304.52	19.467
304.89	19.280
305.25	21.230
305.62	20.385
305.99	21.606
306.35	19.799
306.72	20.740
307.09	19.756
307.45	22.410
307.82	18.973
308.19	21.082
308.55	21.143
308.92	21.053
309.29	20.697
309.65	19.300
310.02	21.459
310.38	21.398
310.75	21.119
311.12	20.368
311.48	22.257
311.85	22.956
312.22	21.228
312.58	21.206
312.95	21.436
313.31	20.971
313.68	22.661
314.05	21.992
314.41	21.910
314.78	22.457
315.14	22.542
315.51	22.966
315.87	22.574
316.24	22.542
316.61	22.222
316.97	22.114
317.34	22.309
317.70	23.518
318.07	23.484
318.43	25.049
318.80	23.430
319.16	23.164
319.53	24.672
319.89	24.571
320.26	25.000
320.62	25.099
320.99	24.848
321.35	25.859
321.72	25.873
322.08	25.469
322.45	28.657
322.81	26.647
323.18	27.746
323.54	25.974
323.91	27.736
324.27	26.769
324.64	25.815
325.00	27.051
325.37	27.298
325.73	28.995
326.10	28.244
326.46	29.032
326.83	29.422
327.19	29.291
327.56	27.787
327.92	29.309
328.29	29.902
328.65	29.834
329.01	29.242
329.38	29.787
329.74	30.009
330.11	30.160
330.47	30.487
330.84	31.526
331.20	30.874
331.56	30.550
331.93	30.093
332.29	31.322
332.66	30.796
333.02	29.799
333.38	30.804
333.75	30.927
334.11	31.495
334.48	30.701
334.84	31.158
335.20	30.909
335.57	30.553
335.93	27.679
336.29	30.952
336.66	31.289
337.02	30.407
337.38	31.296
337.75	29.947
338.11	30.260
338.47	31.308
338.84	31.714
339.20	30.459
339.56	32.208
339.93	31.182
340.29	30.707
340.65	31.194
341.02	31.850
341.38	31.139
341.74	30.702
342.11	31.266
342.47	30.573
342.83	31.507
343.20	32.208
343.56	31.087
343.92	30.877
344.28	31.888
344.65	32.072
345.01	30.724
345.37	30.103
345.73	31.472
346.10	31.032
346.46	31.949
346.82	31.631
347.19	30.911
347.55	31.034
347.91	31.311
348.27	32.128
348.63	32.274
349.00	30.906
349.36	31.445
349.72	31.275
350.08	32.415
350.45	31.570
350.81	31.357
351.17	30.875
351.53	31.777
351.89	31.271
352.26	31.886
352.62	31.756
352.98	31.686
353.34	31.882
353.70	31.751
354.07	31.694
354.43	32.063
354.79	31.295
355.15	31.445
355.51	31.735
355.87	32.980
356.24	32.085
356.60	30.954
356.96	32.502
357.32	32.052
357.68	33.071
358.04	32.542
358.40	31.354
358.77	32.081
359.13	31.018
359.49	31.686
359.85	30.238
360.21	31.898
360.57	32.685
360.93	32.077
361.29	31.595
361.66	31.115
362.02	31.567
362.38	32.091
362.74	31.027
363.10	30.422
363.46	31.255
363.82	32.200
364.18	30.470
364.54	31.798
364.90	32.578
365.26	31.838
365.62	32.213
365.98	31.045
366.35	30.802
366.71	32.683
367.07	32.265
367.43	31.640
367.79	31.977
368.15	32.687
368.51	31.977
368.87	31.620
369.23	32.699
369.59	32.947
369.95	32.426
370.31	32.977
370.67	32.464
371.03	33.184
371.39	34.111
371.75	32.426
372.11	32.006
372.47	32.771
372.83	34.870
373.19	32.514
373.55	33.333
373.91	34.536
374.27	33.196
374.63	33.091
374.99	33.333
375.35	32.449
375.71	32.145
376.07	32.853
376.42	33.769
376.78	33.333
377.14	34.396
377.50	34.702
377.86	33.178
378.22	33.312
378.58	32.018
378.94	32.998
379.30	32.316
379.66	34.264
380.02	33.415
380.38	33.819
380.74	34.574
381.09	35.024
381.45	35.157
381.81	34.828
382.17	34.522
382.53	34.906
382.89	34.630
383.25	33.959
383.61	34.077
383.97	35.022
384.32	34.934
384.68	35.068
385.04	33.989
385.40	35.789
385.76	35.319
386.12	34.909
386.48	35.746
386.83	35.985
387.19	36.240
387.55	34.632
387.91	35.792
388.27	34.764
388.62	35.833
388.98	35.627
389.34	37.359
389.70	36.052
390.06	36.248
390.42	35.344
390.77	36.641
391.13	36.694
391.49	36.485
391.85	36.728
392.20	36.088
392.56	36.869
392.92	37.198
393.28	36.746
393.64	37.410
393.99	36.164
394.35	37.469
394.71	37.327
395.07	37.196
395.42	38.010
395.78	36.768
396.14	37.803
396.50	38.471
396.85	38.652
397.21	38.594
397.57	38.686
397.92	38.462
398.28	37.556
398.64	38.769
399.00	38.836
399.35	37.394
399.71	37.616
400.07	38.557
400.42	38.834
400.78	38.721
401.14	38.598
401.49	39.701
401.85	39.625
402.21	39.042
402.57	39.605
402.92	39.344
403.28	40.475
403.63	40.037
403.99	39.873
404.35	40.182
404.70	39.988
405.06	39.720
405.42	40.424
405.77	39.771
406.13	40.124
406.49	40.272
406.84	40.579
407.20	40.307
407.55	40.779
407.91	41.533
408.27	41.289
408.62	40.578
408.98	41.238
409.34	41.759
409.69	42.839
410.05	41.450
410.40	43.058
410.76	42.593
411.11	42.220
411.47	41.534
411.83	42.944
412.18	41.064
412.54	42.715
412.89	41.325
413.25	42.503
413.60	43.360
413.96	42.623
414.31	43.074
414.67	43.790
415.03	44.570
415.38	43.621
415.74	43.408
416.09	43.762
416.45	44.311
416.80	43.225
417.16	45.442
417.51	43.995
417.87	43.738
418.22	43.407
418.58	44.868
418.93	44.042
419.29	45.130
419.64	44.458
420.00	43.902
420.35	44.928
420.71	44.471
421.06	44.093
421.42	45.380
421.77	45.067
422.12	44.694
422.48	43.875
422.83	45.486
423.19	45.304
423.54	44.806
423.90	45.043
424.25	45.003
424.61	44.226
424.96	45.364
425.31	44.020
425.67	43.989
426.02	44.743
426.38	46.764
426.73	45.758
427.09	45.410
427.44	44.911
427.79	45.083
428.15	45.060
428.50	45.699
428.85	46.126
429.21	44.782
429.56	45.205
429.92	44.892
430.27	45.283
430.62	43.984
430.98	44.577
431.33	44.639
431.68	45.550
432.04	44.675
432.39	46.716
432.74	46.080
433.10	47.085
433.45	46.997
433.80	45.621
434.16	45.406
434.51	45.526
434.86	45.952
435.22	46.359
435.57	44.802
435.92	46.109
436.28	46.501
436.63	46.302
436.98	46.823
437.34	46.810
437.69	46.733
438.04	46.093
438.39	47.104
438.75	47.414
439.10	47.039
439.45	46.576
439.81	47.613
440.16	45.285
440.51	47.686
440.86	47.829
441.22	47.052
441.57	47.187
441.92	47.339
442.27	46.932
442.63	45.445
442.98	46.704
443.33	45.815
443.68	47.186
444.03	45.876
444.39	46.397
444.74	46.429
445.09	47.062
445.44	46.747
445.79	46.066
446.15	46.056
446.50	46.419
446.85	45.889
447.20	46.354
447.55	47.515
447.91	46.773
448.26	46.800
448.61	46.806
448.96	47.730
449.31	46.907
449.66	46.708
450.02	46.685
450.37	47.052
450.72	46.644
451.07	47.532
451.42	46.809
451.77	47.270
452.12	47.517
452.47	47.264
452.83	47.436
453.18	47.311
453.53	47.186
453.88	48.021
454.23	47.280
454.58	48.213
454.93	48.824
455.28	47.257
455.63	48.119
455.98	48.155
456.34	48.241
456.69	48.842
457.04	47.678
457.39	47.516
457.74	48.114
458.09	46.636
458.44	48.290
458.79	46.150
459.14	48.251
459.49	48.336
459.84	48.587
460.19	47.908
460.54	45.833
460.89	46.846
461.24	47.845
461.59	48.751
461.94	47.719
462.29	47.834
462.64	47.096
462.99	47.625
463.34	48.667
463.69	46.467
464.04	48.290
464.39	47.304
464.74	47.059
465.09	48.070
465.44	46.870
465.79	47.204
466.14	46.853
466.49	46.774
466.84	47.285
467.19	47.858
467.54	48.125
467.89	46.879
468.24	47.644
468.59	47.680
468.94	47.343
469.29	48.779
469.64	47.858
469.99	49.256
470.34	49.075
470.68	48.348
471.03	47.755
471.38	48.367
471.73	48.701
472.08	48.684
472.43	48.430
472.78	48.585
473.13	47.946
473.48	47.940
473.83	47.317
474.17	48.475
474.52	48.201
474.87	47.694
475.22	47.591
475.57	46.749
475.92	47.053
476.27	47.294
476.61	47.325
476.96	47.883
477.31	45.945
477.66	48.085
478.01	46.210
478.36	46.801
478.70	46.729
479.05	46.219
479.40	46.981
479.75	47.585
480.10	47.813
480.45	47.073
480.79	46.632
481.14	47.065
481.49	46.939
481.84	45.999
482.19	47.115
482.53	45.963
482.88	46.161
483.23	46.449
483.58	47.134
483.92	47.142
484.27	46.013
484.62	45.474
484.97	44.896
485.31	46.267
485.66	44.469
486.01	43.331
486.36	41.798
486.70	40.831
487.05	41.971
487.40	42.722
487.75	42.963
488.09	43.342
488.44	43.896
488.79	45.750
489.13	45.722
489.48	46.085
489.83	44.756
490.17	46.383
490.52	46.457
490.87	46.540
491.22	46.658
491.56	45.330
491.91	46.394
492.26	45.935
492.60	45.945
492.95	46.024
493.30	45.841
493.64	46.850
493.99	45.543
494.34	46.207
494.68	46.932
495.03	46.382
495.37	45.510
495.72	46.735
496.07	47.378
496.41	45.133
496.76	46.262
497.11	45.835
497.45	45.925
497.80	45.345
498.14	45.942
498.49	45.756
498.84	45.542
499.18	46.048
499.53	45.726
499.87	46.179
500.22	45.690
500.56	46.456
500.91	45.962
501.26	45.661
501.60	46.512
501.95	44.821
502.29	47.095
502.64	45.950
502.98	45.442
503.33	45.430
503.67	45.893
504.02	46.024
504.36	45.765
504.71	45.628
505.06	45.157
505.40	45.649
505.75	45.323
506.09	45.092
506.44	46.423
506.78	45.494
507.13	46.845
507.47	46.061
507.82	45.745
508.16	46.099
508.51	46.575
508.85	45.978
509.19	46.173
509.54	46.480
509.88	45.286
510.23	46.478
510.57	47.420
510.92	46.919
511.26	45.375
511.61	45.643
511.95	44.990
512.30	46.182
512.64	46.265
512.98	45.927
513.33	45.931
513.67	46.958
514.02	45.076
514.36	46.860
514.70	46.320
515.05	45.956
515.39	46.551
515.74	46.565
516.08	46.451
516.42	45.893
516.77	47.492
517.11	45.505
517.46	45.598
517.80	46.632
518.14	45.570
518.49	45.624
518.83	46.136
519.17	46.709
519.52	46.406
519.86	45.921
520.20	46.936
520.55	46.858
520.89	47.324
521.23	47.226
521.58	46.038
521.92	45.560
522.26	45.943
522.61	47.103
522.95	46.532
523.29	47.596
523.64	46.463
523.98	45.410
524.32	46.019
524.66	46.061
525.01	46.201
525.35	46.964
525.69	46.121
526.04	46.480
526.38	46.309
526.72	45.644
527.06	46.202
527.41	45.050
527.75	46.688
528.09	47.335
528.43	46.463
528.78	46.650
529.12	45.636
529.46	45.989
529.80	46.101
530.15	46.916
530.49	45.108
530.83	47.342
531.17	48.564
531.51	47.730
531.86	46.258
532.20	47.458
532.54	47.149
532.88	45.956
533.22	45.659
533.57	45.062
533.91	44.311
534.25	44.775
534.59	44.783
534.93	45.568
535.27	45.444
535.62	44.444
535.96	45.825
536.30	44.692
536.64	44.495
536.98	45.388
537.32	45.095
537.66	45.733
538.01	45.425
538.35	46.606
538.69	46.203
539.03	45.809
539.37	43.962
539.71	44.718
540.05	45.752
540.39	45.781
540.73	44.696
541.07	45.750
541.42	44.814
541.76	46.323
542.10	44.825
542.44	45.166
542.78	45.191
543.12	44.594
543.46	45.180
543.80	44.437
544.14	44.737
544.48	45.016
544.82	45.029
545.16	45.934
545.50	43.509
545.84	44.355
546.18	43.098
546.52	45.217
546.86	45.498
547.20	46.123
547.54	43.287
547.88	44.388
548.22	43.587
548.56	44.906
548.90	43.662
549.24	43.636
549.58	43.656
549.92	44.712
550.26	44.744
550.60	42.669
550.94	43.732
551.28	42.648
551.62	43.853
551.96	43.860
552.30	43.345
552.64	43.002
552.98	43.864
553.32	44.370
553.66	45.194
554.00	43.445
554.34	43.478
554.68	45.207
555.02	44.006
555.36	43.006
555.69	42.490
556.03	42.396
556.37	42.769
556.71	43.042
557.05	43.557
557.39	42.057
557.73	42.908
558.07	44.235
558.41	43.994
558.75	43.277
559.08	43.475
559.42	44.218
559.76	43.750
560.10	43.683
560.44	42.348
560.78	41.450
561.12	42.810
561.45	43.872
561.79	42.057
562.13	42.857
562.47	43.169
562.81	42.608
563.15	41.873
563.48	41.976
563.82	42.466
564.16	42.250
564.50	41.602
564.84	41.340
565.17	41.763
565.51	41.534
565.85	40.102
566.19	39.637
566.52	41.799
566.86	41.230
567.20	41.745
567.54	40.639
567.88	39.381
568.21	41.111
568.55	39.990
568.89	40.175
569.23	38.503
569.56	37.247
569.90	38.000
570.24	36.850
570.57	36.416
570.91	35.197
571.25	35.578
571.59	35.906
571.92	35.916
572.26	35.962
572.60	35.706
572.93	35.622
573.27	35.936
573.61	35.902
573.95	35.323
574.28	34.849
574.62	34.427
574.96	34.432
575.29	33.948
575.63	34.426
575.97	33.819
576.30	34.705
576.64	33.889
576.98	34.127
577.31	34.150
577.65	33.941
577.98	34.077
578.32	33.499
578.66	33.187
578.99	34.079
579.33	33.672
579.67	33.666
580.00	33.781
580.34	33.555
580.67	33.633
581.01	33.213
581.35	34.076
581.68	32.974
582.02	32.937
582.35	33.110
582.69	33.295
583.02	33.145
583.36	33.779
583.70	33.966
584.03	32.889
584.37	33.412
584.70	33.359
585.04	33.293
585.37	33.271
585.71	33.341
586.04	33.704
586.38	33.595
586.72	33.554
587.05	32.953
587.39	33.456
587.72	33.058
588.06	33.164
588.39	32.702
588.73	33.001
589.06	34.092
589.40	34.074
589.73	33.861
590.07	33.559
590.40	34.381
590.73	34.426
591.07	35.043
591.40	34.795
591.74	35.455
592.07	33.944
592.41	35.138
592.74	34.419
593.08	33.777
593.41	33.312
593.75	32.605
594.08	33.389
594.41	34.111
594.75	33.309
595.08	33.107
595.42	32.609
595.75	33.298
596.09	34.360
596.42	33.870
596.75	33.643
597.09	35.022
597.42	33.769
597.75	33.333
598.09	33.435
598.42	33.720
598.76	32.874
599.09	33.333
599.42	32.096
599.76	32.943
600.09	32.605
600.42	32.286
600.76	32.536
601.09	32.532
601.42	32.725
601.76	33.245
602.09	32.451
602.42	32.922
602.76	34.180
603.09	33.556
603.42	33.190
603.76	33.346
604.09	32.416
604.42	32.328
604.76	33.361
605.09	33.814
605.42	33.262
605.75	33.195
606.09	32.615
606.42	33.306
606.75	32.891
607.09	32.357
607.42	33.077
607.75	32.658
608.08	32.827
608.42	32.900
608.75	33.003
609.08	32.100
609.41	33.270
609.75	32.825
610.08	33.742
610.41	33.054
610.74	33.302
611.07	33.844
611.41	32.875
611.74	34.087
612.07	33.540
612.40	33.526
612.73	33.684
613.07	34.321
613.40	33.544
613.73	32.459
614.06	33.280
614.39	33.193
614.72	32.526
615.06	32.668
615.39	32.484
615.72	32.566
616.05	32.323
616.38	32.574
616.71	33.432
617.05	33.922
617.38	35.238
617.71	33.574
618.04	33.293
618.37	33.885
618.70	33.603
619.03	34.474
619.36	33.944
619.69	34.507
620.03	35.302
620.36	33.824
620.69	34.041
621.02	35.029
621.35	34.847
621.68	35.592
622.01	35.449
622.34	35.930
622.67	35.361
623.00	33.456
623.33	33.810
623.66	34.310
623.99	34.389
624.32	34.379
624.65	33.616
624.99	33.711
625.32	34.251
625.65	34.786
625.98	35.281
626.31	36.003
626.64	34.449
626.97	36.243
627.30	34.331
627.63	35.357
627.96	35.408
628.29	35.083
628.62	36.780
628.95	37.453
629.28	35.310
629.61	36.939
629.94	36.667
630.26	36.225
630.59	36.606
630.92	36.782
