SpectraSuite Data File
++++++++++++++++++++++++++++++++++++
Date: Wed May 13 19:35:45 PDT 2015
User: schluterlab
Dark Spectrum Present: Yes
Reference Spectrum Present: Yes
Number of Sampled Component Spectra: 1
Spectrometers: USB2E3373
Integration Time (usec): 3000 (USB2E3373)
Spectra Averaged: 3 (USB2E3373)
Boxcar Smoothing: 0 (USB2E3373)
Correct for Electrical Dark: No (USB2E3373)
Strobe/Lamp Enabled: No (USB2E3373)
Correct for Detector Non-linearity: No (USB2E3373)
Correct for Stray Light: No (USB2E3373)
Number of Pixels in Processed Spectrum: 2048
>>>>>Begin Processed Spectral Data<<<<<
178.53	0.000
178.91	-1650.000
179.29	-1350.000
179.67	-255.556
180.04	-1225.000
180.42	2900.000
180.80	1220.000
181.18	-1225.000
181.56	800.000
181.94	0.000
182.31	-800.000
182.69	1900.000
183.07	-687.500
183.45	-555.556
183.83	554.545
184.20	-390.000
184.58	2600.000
184.96	6500.000
185.34	-1060.000
185.72	-650.000
186.09	-2250.000
186.47	3400.000
186.85	3100.000
187.23	5500.000
187.61	-1766.667
187.98	1425.000
188.36	527.273
188.74	590.909
189.12	-900.000
189.49	650.000
189.87	-5300.000
190.25	-1225.000
190.63	485.714
191.00	484.615
191.38	800.000
191.76	-1575.000
192.14	1525.000
192.51	687.500
192.89	966.667
193.27	750.000
193.65	-1425.000
194.02	590.000
194.40	1020.000
194.78	590.000
195.15	541.667
195.53	690.000
195.91	-2550.000
196.29	356.250
196.66	326.316
197.04	-420.000
197.42	0.000
197.79	730.000
198.17	-5100.000
198.55	728.571
198.92	675.000
199.30	860.000
199.68	0.000
200.05	366.667
200.43	1057.143
200.81	5600.000
201.18	2000.000
201.56	-1733.333
201.94	677.778
202.31	711.111
202.69	483.333
203.07	470.000
203.44	0.000
203.82	1250.000
204.19	757.143
204.57	507.143
204.95	612.500
205.32	1733.333
205.70	536.364
206.08	435.714
206.45	3050.000
206.83	400.000
207.20	966.667
207.58	1060.000
207.96	316.667
208.33	762.500
208.71	-833.333
209.08	971.429
209.46	722.222
209.84	518.182
210.21	-1866.667
210.59	1525.000
210.96	-575.000
211.34	2900.000
211.71	610.000
212.09	1050.000
212.46	0.000
212.84	1833.333
213.22	1450.000
213.59	-5600.000
213.97	866.667
214.34	885.714
214.72	600.000
215.09	880.000
215.47	-2750.000
215.84	-3050.000
216.22	1500.000
216.59	421.429
216.97	1250.000
217.34	672.727
217.72	-900.000
218.09	0.000
218.47	-6100.000
218.84	922.222
219.22	928.571
219.59	1900.000
219.97	-828.571
220.34	980.000
220.72	-2133.333
221.09	485.714
221.47	1550.000
221.84	-1016.667
222.22	0.000
222.59	1575.000
222.97	-3500.000
223.34	1440.000
223.72	469.231
224.09	1160.000
224.46	2450.000
224.84	-6100.000
225.21	-1080.000
225.59	-5600.000
225.96	690.000
226.34	290.000
226.71	3250.000
227.08	825.000
227.46	620.000
227.83	-1225.000
228.21	-2600.000
228.58	622.222
228.95	-2450.000
229.33	-2700.000
229.70	1833.333
230.08	842.857
230.45	-900.000
230.82	458.333
231.20	983.333
231.57	828.571
231.95	525.000
232.32	254.545
232.69	490.909
233.07	642.857
233.44	369.231
233.81	-1600.000
234.19	336.842
234.56	466.667
234.93	350.000
235.31	600.000
235.68	353.846
236.05	371.429
236.43	163.636
236.80	289.474
237.17	4100.000
237.55	271.429
237.92	221.429
238.29	271.429
238.67	203.226
239.04	241.379
239.41	116.667
239.79	117.391
240.16	161.905
240.53	152.273
240.91	121.569
241.28	116.000
241.65	128.000
242.02	98.551
242.40	101.613
242.77	100.000
243.14	73.118
243.51	87.640
243.89	82.353
244.26	65.556
244.63	67.742
245.00	60.638
245.38	64.356
245.75	49.533
246.12	58.716
246.49	61.314
246.87	74.400
247.24	64.615
247.61	52.857
247.98	49.020
248.36	50.000
248.73	48.408
249.10	58.599
249.47	46.893
249.84	42.246
250.22	42.246
250.59	51.479
250.96	42.424
251.33	48.341
251.70	43.564
252.08	41.905
252.45	37.668
252.82	39.130
253.19	42.979
253.56	45.490
253.94	42.324
254.31	37.500
254.68	39.231
255.05	42.804
255.42	34.959
255.79	38.971
256.16	36.101
256.54	33.216
256.91	37.367
257.28	33.813
257.65	34.983
258.02	37.267
258.39	31.230
258.76	33.779
259.14	33.929
259.51	31.611
259.88	32.298
260.25	32.326
260.62	33.237
260.99	31.056
261.36	34.234
261.73	31.805
262.10	30.814
262.47	30.704
262.85	29.526
263.22	29.915
263.59	32.479
263.96	31.868
264.33	30.026
264.70	29.211
265.07	32.225
265.44	28.030
265.81	29.684
266.18	28.392
266.55	29.024
266.92	29.730
267.29	28.472
267.66	27.752
268.03	27.500
268.40	26.402
268.77	27.208
269.14	27.928
269.51	28.894
269.88	28.438
270.25	28.442
270.62	26.742
270.99	31.183
271.36	27.468
271.73	28.505
272.10	27.391
272.47	27.097
272.84	27.273
273.21	28.302
273.58	26.638
273.95	25.157
274.32	26.860
274.69	28.051
275.06	25.394
275.43	27.447
275.80	26.854
276.17	25.458
276.54	27.443
276.91	24.901
277.28	25.781
277.65	26.306
278.02	26.915
278.39	26.758
278.76	24.000
279.13	25.094
279.50	24.767
279.87	25.100
280.23	25.749
280.60	26.112
280.97	25.508
281.34	25.133
281.71	26.545
282.08	26.104
282.45	24.545
282.82	23.446
283.19	25.134
283.56	22.982
283.92	25.719
284.29	22.399
284.66	23.593
285.03	22.604
285.40	24.296
285.77	23.064
286.14	23.834
286.51	25.333
286.87	23.761
287.24	25.244
287.61	23.756
287.98	23.539
288.35	23.138
288.72	21.495
289.08	21.596
289.45	22.570
289.82	23.415
290.19	20.251
290.56	20.368
290.93	21.450
291.29	20.552
291.66	20.649
292.03	22.965
292.40	21.586
292.77	21.302
293.13	20.448
293.50	20.554
293.87	22.074
294.24	19.111
294.60	20.524
294.97	20.930
295.34	21.580
295.71	19.886
296.08	21.795
296.44	21.183
296.81	19.419
297.18	18.293
297.55	18.470
297.91	17.810
298.28	20.080
298.65	20.235
299.02	21.739
299.38	19.124
299.75	17.385
300.12	16.986
300.48	18.375
300.85	18.866
301.22	19.363
301.59	17.929
301.95	17.758
302.32	17.843
302.69	16.726
303.05	17.939
303.42	19.012
303.79	17.667
304.15	17.366
304.52	17.149
304.89	18.235
305.25	18.213
305.62	18.120
305.99	17.591
306.35	18.233
306.72	16.816
307.09	18.757
307.45	18.018
307.82	16.964
308.19	17.550
308.55	18.986
308.92	17.401
309.29	16.473
309.65	17.603
310.02	17.759
310.38	18.172
310.75	18.268
311.12	17.912
311.48	18.704
311.85	19.287
312.22	19.563
312.58	18.711
312.95	20.591
313.31	18.252
313.68	18.919
314.05	20.414
314.41	20.603
314.78	19.940
315.14	21.450
315.51	22.760
315.87	22.178
316.24	21.450
316.61	22.515
316.97	22.896
317.34	23.288
317.70	25.048
318.07	25.024
318.43	25.930
318.80	26.148
319.16	26.648
319.53	25.985
319.89	29.143
320.26	29.600
320.62	31.052
320.99	30.707
321.35	32.626
321.72	35.318
322.08	35.341
322.45	36.716
322.81	37.984
323.18	39.595
323.54	39.147
323.91	39.245
324.27	42.065
324.64	44.362
325.00	42.651
325.37	48.408
325.73	49.641
326.10	49.515
326.46	52.419
326.83	53.322
327.19	55.850
327.56	57.056
327.92	59.143
328.29	59.184
328.65	60.773
329.01	61.552
329.38	64.200
329.74	63.250
330.11	67.295
330.47	66.942
330.84	68.474
331.20	67.395
331.56	68.440
331.93	71.204
332.29	69.210
332.66	71.327
333.02	72.029
333.38	73.984
333.75	72.727
334.11	73.399
334.48	74.002
334.84	76.838
335.20	75.818
335.57	75.703
335.93	76.786
336.29	76.007
336.66	78.539
337.02	76.290
337.38	78.981
337.75	79.501
338.11	78.245
338.47	81.308
338.84	79.010
339.20	78.624
339.56	81.478
339.93	80.545
340.29	80.254
340.65	81.729
341.02	80.716
341.38	83.897
341.74	80.351
342.11	83.493
342.47	83.789
342.83	82.449
343.20	82.771
343.56	80.876
343.92	83.596
344.28	83.929
344.65	84.781
345.01	81.481
345.37	83.362
345.73	84.349
346.10	84.314
346.46	83.390
346.82	84.020
347.19	83.709
347.55	82.512
347.91	84.871
348.27	85.292
348.63	85.702
349.00	84.709
349.36	85.057
349.72	85.164
350.08	84.927
350.45	86.330
350.81	86.353
351.17	85.251
351.53	85.995
351.89	84.488
352.26	86.504
352.62	87.330
352.98	86.548
353.34	86.606
353.70	86.088
354.07	86.694
354.43	85.714
354.79	86.404
355.15	86.433
355.51	88.729
355.87	88.816
356.24	87.622
356.60	85.565
356.96	88.898
357.32	87.653
357.68	87.244
358.04	86.619
358.40	86.382
358.77	87.089
359.13	85.556
359.49	88.314
359.85	87.937
360.21	89.314
360.57	89.650
360.93	87.846
361.29	87.604
361.66	87.926
362.02	87.537
362.38	88.973
362.74	88.095
363.10	88.823
363.46	88.555
363.82	87.831
364.18	88.106
364.54	90.193
364.90	89.377
365.26	89.559
365.62	88.824
365.98	88.313
366.35	88.539
366.71	89.009
367.07	88.492
367.43	89.115
367.79	90.007
368.15	89.296
368.51	88.735
368.87	88.080
369.23	89.832
369.59	89.211
369.95	89.118
370.31	88.034
370.67	86.667
371.03	90.262
371.39	88.703
371.75	90.074
372.11	87.553
372.47	89.296
372.83	89.769
373.19	88.006
373.55	91.870
373.91	91.458
374.27	87.354
374.63	89.600
374.99	87.006
375.35	90.161
375.71	87.731
376.07	88.134
376.42	90.096
376.78	89.861
377.14	89.077
377.50	90.331
377.86	88.697
378.22	88.496
378.58	86.404
378.94	88.561
379.30	88.931
379.66	89.975
380.02	88.759
380.38	88.039
380.74	87.695
381.09	88.631
381.45	88.138
381.81	87.654
382.17	89.299
382.53	90.440
382.89	88.086
383.25	89.493
383.61	90.025
383.97	87.992
384.32	87.773
384.68	87.113
385.04	87.093
385.40	86.068
385.76	85.749
386.12	88.925
386.48	89.176
386.83	88.711
387.19	90.105
387.55	87.631
387.91	86.397
388.27	86.327
388.62	87.953
388.98	86.609
389.34	87.610
389.70	86.021
390.06	87.452
390.42	88.327
390.77	86.450
391.13	89.279
391.49	87.056
391.85	85.869
392.20	85.615
392.56	87.374
392.92	86.933
393.28	86.450
393.64	86.391
393.99	85.706
394.35	85.732
394.71	85.320
395.07	85.794
395.42	87.268
395.78	85.623
396.14	82.744
396.50	85.965
396.85	86.904
397.21	85.265
397.57	85.183
397.92	84.796
398.28	84.641
398.64	85.424
399.00	83.828
399.35	83.756
399.71	83.391
400.07	85.216
400.42	84.049
400.78	84.318
401.14	84.817
401.49	84.537
401.85	85.057
402.21	83.473
402.57	84.207
402.92	84.048
403.28	85.259
403.63	83.663
403.99	85.032
404.35	83.212
404.70	84.293
405.06	83.576
405.42	85.090
405.77	82.114
406.13	81.377
406.49	82.377
406.84	81.926
407.20	82.033
407.55	82.706
407.91	83.867
408.27	82.770
408.62	81.878
408.98	81.556
409.34	82.349
409.69	82.903
410.05	81.041
410.40	81.590
410.76	81.601
411.11	79.916
411.47	80.192
411.83	81.674
412.18	80.829
412.54	83.126
412.89	79.458
413.25	81.287
413.60	81.902
413.96	79.114
414.31	80.437
414.67	81.559
415.03	80.265
415.38	81.250
415.74	81.222
416.09	81.907
416.45	80.455
416.80	80.635
417.16	82.775
417.51	81.420
417.87	77.970
418.22	80.505
418.58	79.600
418.93	80.897
419.29	80.840
419.64	79.660
420.00	79.329
420.35	78.087
420.71	80.155
421.06	79.535
421.42	77.661
421.77	78.027
422.12	78.046
422.48	77.118
422.83	78.626
423.19	78.177
423.54	79.919
423.90	78.667
424.25	77.164
424.61	77.560
424.96	78.834
425.31	76.910
425.67	76.517
426.02	78.457
426.38	80.708
426.73	77.004
427.09	78.541
427.44	78.033
427.79	77.516
428.15	78.393
428.50	77.882
428.85	77.592
429.21	76.201
429.56	77.657
429.92	76.648
430.27	76.713
430.62	75.883
430.98	74.676
431.33	75.722
431.68	77.225
432.04	74.441
432.39	77.898
432.74	76.960
433.10	78.551
433.45	78.834
433.80	77.328
434.16	76.603
434.51	75.211
434.86	76.112
435.22	76.209
435.57	77.143
435.92	77.063
436.28	77.165
436.63	75.662
436.98	77.161
437.34	77.340
437.69	77.305
438.04	77.572
438.39	77.254
438.75	76.409
439.10	76.145
439.45	76.505
439.81	76.495
440.16	76.002
440.51	76.684
440.86	75.854
441.22	75.695
441.57	76.168
441.92	74.411
442.27	75.565
442.63	73.565
442.98	75.380
443.33	74.837
443.68	73.826
444.03	73.939
444.39	74.586
444.74	76.353
445.09	74.070
445.44	73.045
445.79	74.122
446.15	73.743
446.50	74.852
446.85	74.769
447.20	73.891
447.55	75.489
447.91	73.966
448.26	74.513
448.61	74.392
448.96	75.083
449.31	74.241
449.66	73.101
450.02	74.095
450.37	72.562
450.72	73.717
451.07	74.040
451.42	72.584
451.77	72.930
452.12	73.095
452.47	74.378
452.83	74.301
453.18	73.105
453.53	74.459
453.88	74.247
454.23	73.341
454.58	74.197
454.93	76.669
455.28	72.693
455.63	73.240
455.98	75.060
456.34	73.492
456.69	73.450
457.04	74.427
457.39	73.115
457.74	71.909
458.09	71.938
458.44	73.660
458.79	70.933
459.14	72.178
459.49	71.921
459.84	71.025
460.19	71.951
460.54	70.718
460.89	71.914
461.24	72.313
461.59	72.167
461.94	71.147
462.29	70.742
462.64	71.921
462.99	71.243
463.34	72.600
463.69	70.982
464.04	70.493
464.39	69.739
464.74	70.469
465.09	71.110
465.44	69.584
465.79	69.519
466.14	69.130
466.49	67.909
466.84	69.294
467.19	69.704
467.54	69.812
467.89	68.908
468.24	69.401
468.59	70.879
468.94	68.479
469.29	70.823
469.64	70.415
469.99	70.568
470.34	70.410
470.68	71.767
471.03	69.524
471.38	71.161
471.73	70.087
472.08	70.526
472.43	69.158
472.78	69.585
473.13	68.999
473.48	68.664
473.83	68.963
474.17	67.517
474.52	70.409
474.87	69.002
475.22	69.124
475.57	66.523
475.92	67.499
476.27	68.207
476.61	66.630
476.96	66.850
477.31	66.719
477.66	68.162
478.01	66.649
478.36	67.689
478.70	67.030
479.05	66.933
479.40	65.353
479.75	66.650
480.10	66.501
480.45	66.207
480.79	64.931
481.14	67.025
481.49	65.116
481.84	64.883
482.19	65.879
482.53	64.587
482.88	64.542
483.23	66.121
483.58	64.468
483.92	65.745
484.27	63.791
484.62	64.310
484.97	63.185
485.31	64.897
485.66	62.021
486.01	59.672
486.36	57.541
486.70	57.376
487.05	58.097
487.40	60.342
487.75	60.926
488.09	61.935
488.44	63.042
488.79	64.593
489.13	63.675
489.48	63.662
489.83	63.358
490.17	64.226
490.52	63.862
490.87	63.546
491.22	63.165
491.56	62.415
491.91	63.285
492.26	63.023
492.60	62.627
492.95	61.880
493.30	62.336
493.64	62.249
493.99	62.674
494.34	62.535
494.68	62.912
495.03	62.735
495.37	62.355
495.72	63.060
496.07	61.624
496.41	60.221
496.76	61.785
497.11	61.369
497.45	62.320
497.80	61.708
498.14	61.159
498.49	62.000
498.84	61.122
499.18	61.476
499.53	61.633
499.87	61.510
500.22	60.292
500.56	61.311
500.91	60.962
501.26	59.839
501.60	62.079
501.95	60.312
502.29	61.246
502.64	61.685
502.98	59.841
503.33	59.369
503.67	59.629
504.02	60.196
504.36	58.259
504.71	61.016
505.06	59.904
505.40	59.553
505.75	58.775
506.09	58.649
506.44	60.335
506.78	60.643
507.13	60.121
507.47	58.838
507.82	59.929
508.16	60.233
508.51	60.984
508.85	58.888
509.19	59.643
509.54	60.153
509.88	59.969
510.23	59.743
510.57	61.146
510.92	59.606
511.26	59.558
511.61	58.766
511.95	57.255
512.30	59.650
512.64	58.947
512.98	59.486
513.33	60.653
513.67	58.591
514.02	59.145
514.36	59.858
514.70	59.989
515.05	59.677
515.39	59.506
515.74	58.727
516.08	58.971
516.42	58.768
516.77	60.535
517.11	58.824
517.46	59.594
517.80	60.105
518.14	59.236
518.49	59.393
518.83	58.807
519.17	58.430
519.52	58.065
519.86	59.612
520.20	57.977
520.55	59.425
520.89	60.036
521.23	59.590
521.58	58.643
521.92	59.829
522.26	57.596
522.61	57.445
522.95	57.827
523.29	58.734
523.64	58.598
523.98	59.211
524.32	58.022
524.66	58.449
525.01	57.966
525.35	58.302
525.69	57.204
526.04	58.318
526.38	57.169
526.72	57.730
527.06	57.250
527.41	57.054
527.75	59.421
528.09	58.189
528.43	57.043
528.78	58.205
529.12	56.848
529.46	57.624
529.80	56.374
530.15	56.947
530.49	56.000
530.83	55.949
531.17	58.486
531.51	58.625
531.86	58.000
532.20	57.692
532.54	56.823
532.88	56.804
533.22	55.403
533.57	55.617
533.91	55.509
534.25	54.800
534.59	55.278
534.93	54.372
535.27	55.703
535.62	56.227
535.96	55.807
536.30	55.690
536.64	54.604
536.98	56.337
537.32	55.563
537.66	57.133
538.01	56.155
538.35	55.398
538.69	54.754
539.03	53.996
539.37	53.482
539.71	53.662
540.05	54.967
540.39	56.412
540.73	55.304
541.07	54.315
541.42	55.055
541.76	54.323
542.10	55.110
542.44	54.967
542.78	55.534
543.12	52.399
543.46	54.295
543.80	54.327
544.14	52.632
544.48	54.095
544.82	53.624
545.16	55.368
545.50	53.470
545.84	54.234
546.18	53.535
546.52	54.852
546.86	53.402
547.20	54.282
547.54	54.175
547.88	52.997
548.22	52.242
548.56	53.333
548.90	52.881
549.24	53.266
549.58	53.411
549.92	53.091
550.26	53.977
550.60	53.181
550.94	53.944
551.28	53.621
551.62	53.055
551.96	53.123
552.30	53.584
552.64	53.414
552.98	52.271
553.32	52.529
553.66	53.579
554.00	54.427
554.34	52.588
554.68	53.219
555.02	52.257
555.36	52.331
555.69	52.030
556.03	52.019
556.37	52.046
556.71	52.729
557.05	52.521
557.39	51.714
557.73	52.152
558.07	52.792
558.41	52.026
558.75	52.535
559.08	52.200
559.42	53.515
559.76	52.794
560.10	52.177
560.44	52.341
560.78	51.497
561.12	51.319
561.45	51.499
561.79	49.110
562.13	51.777
562.47	51.981
562.81	52.371
563.15	50.167
563.48	48.873
563.82	51.729
564.16	50.360
564.50	50.521
564.84	50.253
565.17	48.842
565.51	50.799
565.85	50.127
566.19	48.842
566.52	49.652
566.86	49.307
567.20	49.587
567.54	48.459
567.88	47.529
568.21	47.989
568.55	47.068
568.89	47.130
569.23	46.212
569.56	45.466
569.90	44.491
570.24	44.672
570.57	43.523
570.91	43.568
571.25	42.959
571.59	42.710
571.92	42.569
572.26	42.172
572.60	43.243
572.93	42.309
573.27	43.212
573.61	42.658
573.95	42.403
574.28	41.985
574.62	40.986
574.96	40.812
575.29	41.392
575.63	41.667
575.97	41.708
576.30	41.848
576.64	41.294
576.98	41.541
577.31	40.873
577.65	40.999
577.98	40.209
578.32	39.515
578.66	40.587
578.99	40.676
579.33	40.692
579.67	40.331
580.00	40.830
580.34	40.579
580.67	40.700
581.01	40.792
581.35	40.560
581.68	39.967
582.02	39.286
582.35	39.638
582.69	39.473
583.02	40.448
583.36	40.766
583.70	41.508
584.03	41.719
584.37	41.476
584.70	41.745
585.04	40.705
585.37	40.424
585.71	40.437
586.04	39.744
586.38	41.118
586.72	40.790
587.05	40.206
587.39	40.264
587.72	40.222
588.06	40.875
588.39	41.043
588.73	41.214
589.06	42.007
589.40	42.492
589.73	43.154
590.07	42.100
590.40	41.140
590.73	42.506
591.07	43.223
591.40	42.556
591.74	43.810
592.07	43.412
592.41	42.001
592.74	40.974
593.08	40.640
593.41	39.861
593.75	39.694
594.08	40.664
594.41	40.686
594.75	41.701
595.08	39.871
595.42	40.876
595.75	41.738
596.09	42.246
596.42	41.729
596.75	42.296
597.09	42.035
597.42	40.936
597.75	42.820
598.09	41.261
598.42	40.979
598.76	41.508
599.09	39.833
599.42	40.539
599.76	39.678
600.09	39.526
600.42	40.504
600.76	40.143
601.09	40.364
601.42	40.563
601.76	40.114
602.09	40.909
602.42	40.804
602.76	41.153
603.09	40.795
603.42	40.804
603.76	39.787
604.09	40.364
604.42	40.807
604.76	42.008
605.09	41.241
605.42	40.316
605.75	40.397
606.09	40.382
606.42	40.662
606.75	40.398
607.09	40.352
607.42	40.864
607.75	39.620
608.08	41.033
608.42	40.341
608.75	40.577
609.08	40.934
609.41	41.266
609.75	40.972
610.08	40.669
610.41	40.270
610.74	41.012
611.07	41.897
611.41	41.658
611.74	40.774
612.07	41.874
612.40	42.025
612.73	41.895
613.07	41.810
613.40	42.443
613.73	40.587
614.06	42.204
614.39	42.213
614.72	40.789
615.06	41.387
615.39	40.977
615.72	40.746
616.05	41.255
616.38	42.079
616.71	42.874
617.05	42.933
617.38	42.874
617.71	42.462
618.04	42.849
618.37	42.283
618.70	42.875
619.03	43.882
619.36	41.480
619.69	44.014
620.03	43.819
620.36	42.714
620.69	43.767
621.02	43.363
621.35	43.305
621.68	44.159
622.01	44.427
622.34	43.419
622.67	45.323
623.00	43.067
623.33	41.744
623.66	42.816
623.99	43.520
624.32	42.083
624.65	42.302
624.99	41.572
625.32	42.505
625.65	43.576
625.98	43.582
626.31	44.012
626.64	44.408
626.97	44.389
627.30	44.140
627.63	44.545
627.96	45.416
628.29	46.719
628.62	45.746
628.95	47.264
629.28	45.255
629.61	46.654
629.94	47.524
630.26	45.567
630.59	45.758
