SpectraSuite Data File
++++++++++++++++++++++++++++++++++++
Date: Wed May 13 19:36:58 PDT 2015
User: schluterlab
Dark Spectrum Present: Yes
Reference Spectrum Present: Yes
Number of Sampled Component Spectra: 1
Spectrometers: USB2E3373
Integration Time (usec): 3000 (USB2E3373)
Spectra Averaged: 3 (USB2E3373)
Boxcar Smoothing: 0 (USB2E3373)
Correct for Electrical Dark: No (USB2E3373)
Strobe/Lamp Enabled: No (USB2E3373)
Correct for Detector Non-linearity: No (USB2E3373)
Correct for Stray Light: No (USB2E3373)
Number of Pixels in Processed Spectrum: 2048
>>>>>Begin Processed Spectral Data<<<<<
178.53	0.000
178.91	-1325.000
179.29	-1625.000
179.67	-261.111
180.04	-1500.000
180.42	2600.000
180.80	1080.000
181.18	-1275.000
181.56	585.714
181.94	0.000
182.31	-671.429
182.69	1666.667
183.07	-562.500
183.45	-655.556
183.83	590.909
184.20	-480.000
184.58	2900.000
184.96	5400.000
185.34	-900.000
185.72	-587.500
186.09	-2150.000
186.47	2600.000
186.85	3300.000
187.23	5100.000
187.61	-1933.333
187.98	1450.000
188.36	572.727
188.74	518.182
189.12	-1120.000
189.49	630.000
189.87	-4900.000
190.25	-1300.000
190.63	428.571
191.00	461.538
191.38	866.667
191.76	-1350.000
192.14	1400.000
192.51	662.500
192.89	1066.667
193.27	737.500
193.65	-1600.000
194.02	550.000
194.40	980.000
194.78	620.000
195.15	500.000
195.53	710.000
195.91	-2450.000
196.29	356.250
196.66	310.526
197.04	-440.000
197.42	0.000
197.79	710.000
198.17	-4800.000
198.55	671.429
198.92	750.000
199.30	1000.000
199.68	0.000
200.05	344.444
200.43	728.571
200.81	5000.000
201.18	1866.667
201.56	-1500.000
201.94	577.778
202.31	588.889
202.69	550.000
203.07	620.000
203.44	0.000
203.82	1175.000
204.19	728.571
204.57	450.000
204.95	825.000
205.32	1666.667
205.70	609.091
206.08	478.571
206.45	2750.000
206.83	412.500
207.20	833.333
207.58	1000.000
207.96	388.889
208.33	825.000
208.71	-1016.667
209.08	914.286
209.46	588.889
209.84	472.727
210.21	-1400.000
210.59	1475.000
210.96	-600.000
211.34	3000.000
211.71	640.000
212.09	950.000
212.46	0.000
212.84	1900.000
213.22	1600.000
213.59	-4100.000
213.97	966.667
214.34	928.571
214.72	581.818
215.09	1000.000
215.47	-2650.000
215.84	-2600.000
216.22	1766.667
216.59	450.000
216.97	1275.000
217.34	463.636
217.72	-800.000
218.09	0.000
218.47	-5800.000
218.84	611.111
219.22	814.286
219.59	2100.000
219.97	-700.000
220.34	1040.000
220.72	-1966.667
221.09	464.286
221.47	1600.000
221.84	-966.667
222.22	0.000
222.59	1700.000
222.97	-2750.000
223.34	1100.000
223.72	476.923
224.09	1180.000
224.46	2900.000
224.84	-5900.000
225.21	-1020.000
225.59	-4900.000
225.96	640.000
226.34	305.000
226.71	2600.000
227.08	737.500
227.46	620.000
227.83	-1300.000
228.21	-3250.000
228.58	588.889
228.95	-2650.000
229.33	-1900.000
229.70	1933.333
230.08	914.286
230.45	-940.000
230.82	433.333
231.20	833.333
231.57	757.143
231.95	516.667
232.32	277.273
232.69	363.636
233.07	871.429
233.44	400.000
233.81	-1766.667
234.19	352.632
234.56	491.667
234.93	450.000
235.31	472.727
235.68	384.615
236.05	407.143
236.43	209.091
236.80	284.211
237.17	4200.000
237.55	242.857
237.92	242.857
238.29	309.524
238.67	200.000
239.04	220.690
239.41	213.889
239.79	136.957
240.16	173.810
240.53	165.909
240.91	129.412
241.28	138.000
241.65	126.000
242.02	108.696
242.40	117.742
242.77	123.333
243.14	102.151
243.51	103.371
243.89	92.941
244.26	83.333
244.63	93.548
245.00	89.362
245.38	85.149
245.75	77.570
246.12	73.394
246.49	72.263
246.87	80.000
247.24	83.077
247.61	75.714
247.98	72.549
248.36	68.243
248.73	63.057
249.10	68.790
249.47	64.972
249.84	65.241
250.22	59.358
250.59	62.722
250.96	63.636
251.33	63.507
251.70	63.366
252.08	59.048
252.45	58.296
252.82	55.217
253.19	55.745
253.56	58.039
253.94	56.432
254.31	55.469
254.68	58.462
255.05	55.351
255.42	54.878
255.79	58.824
256.16	55.235
256.54	51.943
256.91	54.804
257.28	49.640
257.65	49.175
258.02	53.106
258.39	51.420
258.76	50.167
259.14	51.488
259.51	46.809
259.88	49.068
260.25	52.568
260.62	48.555
260.99	51.553
261.36	49.550
261.73	47.564
262.10	47.384
262.47	51.549
262.85	47.075
263.22	47.863
263.59	50.427
263.96	45.604
264.33	48.825
264.70	47.632
265.07	43.990
265.44	48.990
265.81	41.119
266.18	45.980
266.55	48.780
266.92	46.437
267.29	46.065
267.66	47.477
268.03	48.409
268.40	45.093
268.77	44.153
269.14	45.270
269.51	47.178
269.88	46.853
270.25	42.438
270.62	45.393
270.99	45.591
271.36	44.421
271.73	44.860
272.10	44.130
272.47	44.301
272.84	40.909
273.21	42.977
273.58	37.773
273.95	40.881
274.32	41.736
274.69	45.182
275.06	39.370
275.43	43.830
275.80	41.683
276.17	42.566
276.54	42.204
276.91	42.292
277.28	41.797
277.65	42.360
278.02	42.443
278.39	44.141
278.76	41.455
279.13	40.189
279.50	41.713
279.87	42.829
280.23	43.513
280.60	41.779
280.97	41.220
281.34	41.593
281.71	40.909
282.08	42.994
282.45	41.273
282.82	41.741
283.19	37.968
283.56	41.579
283.92	39.594
284.29	39.330
284.66	39.927
285.03	39.964
285.40	39.789
285.77	39.562
286.14	38.342
286.51	39.667
286.87	37.265
287.24	40.065
287.61	38.684
287.98	37.825
288.35	38.035
288.72	36.137
289.08	37.559
289.45	37.562
289.82	37.236
290.19	35.165
290.56	36.141
290.93	35.498
291.29	33.282
291.66	35.841
292.03	36.773
292.40	35.242
292.77	34.172
293.13	34.328
293.50	33.236
293.87	34.370
294.24	34.519
294.60	33.624
294.97	31.395
295.34	33.286
295.71	33.381
296.08	32.336
296.44	34.250
296.81	31.968
297.18	34.553
297.55	29.156
297.91	32.058
298.28	33.066
298.65	32.507
299.02	30.435
299.38	29.880
299.75	29.245
300.12	30.268
300.48	28.500
300.85	30.949
301.22	31.592
301.59	29.167
301.95	29.471
302.32	30.295
302.69	28.913
303.05	29.091
303.42	29.012
303.79	28.766
304.15	28.205
304.52	26.767
304.89	27.875
305.25	28.074
305.62	28.992
305.99	28.926
306.35	29.866
306.72	27.242
307.09	27.414
307.45	29.505
307.82	27.902
308.19	27.483
308.55	27.400
308.92	27.605
309.29	26.822
309.65	26.617
310.02	26.850
310.38	26.344
310.75	27.350
311.12	26.714
311.48	26.959
311.85	28.092
312.22	28.096
312.58	27.027
312.95	28.828
313.31	25.631
313.68	27.443
314.05	27.811
314.41	26.231
314.78	27.190
315.14	26.713
315.51	26.159
315.87	28.812
316.24	26.912
316.61	25.634
316.97	24.560
317.34	26.321
317.70	27.533
318.07	26.083
318.43	25.636
318.80	26.992
319.16	27.401
319.53	24.859
319.89	26.095
320.26	26.100
320.62	27.480
320.99	26.263
321.35	25.960
321.72	26.797
322.08	26.851
322.45	27.861
322.81	26.357
323.18	26.590
323.54	26.716
323.91	26.226
324.27	26.195
324.64	24.884
325.00	25.609
325.37	26.479
325.73	26.750
326.10	26.037
326.46	25.538
326.83	27.006
327.19	26.558
327.56	25.871
327.92	26.159
328.29	28.838
328.65	27.716
329.01	26.083
329.38	25.717
329.74	25.946
330.11	26.013
330.47	26.446
330.84	27.390
331.20	27.596
331.56	26.422
331.93	27.222
332.29	27.773
332.66	26.814
333.02	27.422
333.38	26.920
333.75	26.827
334.11	26.868
334.48	26.619
334.84	27.757
335.20	25.727
335.57	26.292
335.93	24.732
336.29	26.832
336.66	25.518
337.02	25.973
337.38	26.111
337.75	24.688
338.11	25.425
338.47	25.783
338.84	26.948
339.20	26.514
339.56	27.099
339.93	25.182
340.29	25.725
340.65	26.025
341.02	25.305
341.38	25.534
341.74	25.175
342.11	25.852
342.47	25.551
342.83	25.856
343.20	26.234
343.56	25.358
343.92	25.526
344.28	26.020
344.65	25.795
345.01	26.094
345.37	24.957
345.73	24.873
346.10	25.831
346.46	25.508
346.82	25.288
347.19	24.144
347.55	25.123
347.91	25.000
348.27	25.555
348.63	26.003
349.00	25.405
349.36	24.631
349.72	25.180
350.08	25.203
350.45	26.119
350.81	25.264
351.17	24.878
351.53	24.898
351.89	23.845
352.26	25.888
352.62	23.897
352.98	24.635
353.34	24.897
353.70	22.586
354.07	24.032
354.43	24.286
354.79	23.250
355.15	24.022
355.51	24.860
355.87	23.755
356.24	24.756
356.60	23.095
356.96	23.894
357.32	24.530
357.68	24.488
358.04	23.832
358.40	24.070
358.77	24.883
359.13	23.757
359.49	23.765
359.85	22.778
360.21	23.365
360.57	23.813
360.93	24.231
361.29	23.356
361.66	23.684
362.02	24.478
362.38	23.498
362.74	23.065
363.10	21.836
363.46	22.817
363.82	23.054
364.18	23.862
364.54	23.403
364.90	23.017
365.26	22.941
365.62	23.448
365.98	23.083
366.35	22.350
366.71	23.717
367.07	23.452
367.43	23.657
367.79	23.983
368.15	24.425
368.51	22.238
368.87	23.483
369.23	23.555
369.59	23.244
369.95	22.279
370.31	22.507
370.67	21.884
371.03	23.596
371.39	23.032
371.75	23.235
372.11	21.622
372.47	22.727
372.83	23.631
373.19	22.110
373.55	22.838
373.91	23.785
374.27	22.405
374.63	21.600
374.99	22.175
375.35	21.563
375.71	21.796
376.07	22.702
376.42	22.558
376.78	23.260
377.14	22.456
377.50	21.457
377.86	21.742
378.22	23.009
378.58	21.867
378.94	21.496
379.30	22.328
379.66	23.096
380.02	21.990
380.38	21.615
380.74	22.449
381.09	22.311
381.45	22.803
381.81	22.912
382.17	22.038
382.53	22.704
382.89	22.099
383.25	21.388
383.61	21.809
383.97	22.014
384.32	21.522
384.68	20.756
385.04	21.389
385.40	21.548
385.76	21.867
386.12	21.826
386.48	22.215
386.83	22.258
387.19	21.707
387.55	21.645
387.91	21.705
388.27	21.521
388.62	21.451
388.98	20.332
389.34	21.840
389.70	22.011
390.06	22.053
390.42	22.244
390.77	21.756
391.13	22.017
391.49	22.335
391.85	21.133
392.20	20.946
392.56	21.843
392.92	20.954
393.28	20.355
393.64	21.882
393.99	21.625
394.35	21.650
394.71	21.393
395.07	20.997
395.42	21.570
395.78	21.120
396.14	22.222
396.50	22.306
396.85	21.488
397.21	20.345
397.57	21.265
397.92	20.853
398.28	20.460
398.64	21.924
399.00	21.097
399.35	21.433
399.71	20.718
400.07	21.467
400.42	21.902
400.78	21.592
401.14	20.793
401.49	21.134
401.85	20.750
402.21	21.078
402.57	20.851
402.92	21.501
403.28	21.174
403.63	19.864
403.99	21.019
404.35	21.515
404.70	20.444
405.06	20.559
405.42	21.772
405.77	21.429
406.13	20.937
406.49	21.407
406.84	21.146
407.20	20.449
407.55	20.996
407.91	21.933
408.27	21.059
408.62	21.192
408.98	20.282
409.34	21.648
409.69	21.161
410.05	21.190
410.40	20.550
410.76	21.027
411.11	21.592
411.47	21.150
411.83	21.014
412.18	20.779
412.54	21.544
412.89	20.783
413.25	20.720
413.60	20.506
413.96	21.008
414.31	20.717
414.67	22.180
415.03	20.530
415.38	21.585
415.74	21.865
416.09	21.163
416.45	21.553
416.80	21.282
417.16	21.582
417.51	21.831
417.87	21.066
418.22	20.883
418.58	21.175
418.93	21.437
419.29	21.324
419.64	21.662
420.00	21.098
420.35	20.406
420.71	22.056
421.06	21.659
421.42	20.994
421.77	21.749
422.12	20.999
422.48	20.291
422.83	21.142
423.19	20.829
423.54	21.532
423.90	21.565
424.25	21.329
424.61	21.310
424.96	21.983
425.31	20.321
425.67	20.506
426.02	21.829
426.38	22.039
426.73	20.714
427.09	20.973
427.44	20.759
427.79	21.162
428.15	21.250
428.50	21.182
428.85	21.275
429.21	20.210
429.56	20.736
429.92	20.332
430.27	21.599
430.62	20.379
430.98	20.758
431.33	20.876
431.68	20.785
432.04	21.140
432.39	20.845
432.74	21.185
433.10	20.600
433.45	21.691
433.80	20.344
434.16	20.994
434.51	20.895
434.86	21.095
435.22	21.345
435.57	21.337
435.92	20.480
436.28	22.657
436.63	22.296
436.98	21.179
437.34	21.944
437.69	21.354
438.04	21.023
438.39	20.418
438.75	21.906
439.10	21.341
439.45	21.842
439.81	21.088
440.16	20.723
440.51	21.324
440.86	22.003
441.22	20.300
441.57	21.338
441.92	21.290
442.27	21.959
442.63	21.538
442.98	21.972
443.33	21.522
443.68	21.425
444.03	21.132
444.39	20.789
444.74	21.429
445.09	21.294
445.44	21.925
445.79	20.930
446.15	21.705
446.50	21.379
446.85	21.686
447.20	21.112
447.55	21.552
447.91	21.236
448.26	21.758
448.61	21.764
448.96	21.262
449.31	22.385
449.66	21.609
450.02	21.448
450.37	21.202
450.72	21.940
451.07	21.877
451.42	21.763
451.77	22.666
452.12	21.824
452.47	21.704
452.83	22.261
453.18	22.127
453.53	22.820
453.88	21.559
454.23	22.415
454.58	22.290
454.93	23.522
455.28	22.070
455.63	21.845
455.98	23.095
456.34	22.362
456.69	22.480
457.04	22.167
457.39	22.443
457.74	21.938
458.09	22.197
458.44	22.007
458.79	21.475
459.14	22.686
459.49	22.008
459.84	22.604
460.19	21.921
460.54	22.106
460.89	21.448
461.24	22.162
461.59	22.719
461.94	22.935
462.29	23.264
462.64	22.272
462.99	22.381
463.34	23.067
463.69	22.514
464.04	22.667
464.39	22.667
464.74	21.925
465.09	21.592
465.44	21.385
465.79	21.644
466.14	22.605
466.49	21.190
466.84	22.125
467.19	22.873
467.54	23.375
467.89	22.209
468.24	22.746
468.59	22.283
468.94	22.480
469.29	22.108
469.64	23.829
469.99	23.613
470.34	22.325
470.68	23.348
471.03	22.585
471.38	24.183
471.73	23.584
472.08	23.750
472.43	22.864
472.78	23.371
473.13	23.171
473.48	23.221
473.83	23.354
474.17	23.024
474.52	23.325
474.87	23.526
475.22	23.331
475.57	22.569
475.92	21.349
476.27	23.055
476.61	22.725
476.96	22.210
477.31	23.234
477.66	22.265
478.01	22.321
478.36	22.951
478.70	22.741
479.05	22.630
479.40	22.416
479.75	22.522
480.10	22.316
480.45	22.180
480.79	22.026
481.14	22.260
481.49	22.734
481.84	23.000
482.19	22.126
482.53	22.064
482.88	22.057
483.23	22.944
483.58	22.884
483.92	22.071
484.27	21.351
484.62	21.638
484.97	21.403
485.31	21.233
485.66	20.329
486.01	18.976
486.36	18.949
486.70	18.302
487.05	19.553
487.40	19.995
487.75	20.016
488.09	20.989
488.44	21.181
488.79	21.664
489.13	22.269
489.48	21.982
489.83	22.141
490.17	22.622
490.52	22.586
490.87	22.298
491.22	22.419
491.56	22.005
491.91	22.755
492.26	22.646
492.60	23.272
492.95	22.077
493.30	22.243
493.64	22.399
493.99	22.470
494.34	23.127
494.68	22.802
495.03	22.979
495.37	22.522
495.72	22.856
496.07	23.202
496.41	22.965
496.76	22.208
497.11	22.602
497.45	23.009
497.80	23.273
498.14	22.464
498.49	23.902
498.84	23.969
499.18	23.190
499.53	23.172
499.87	21.948
500.22	22.751
500.56	23.883
500.91	23.173
501.26	22.902
501.60	23.256
501.95	22.273
502.29	22.821
502.64	22.812
502.98	22.627
503.33	22.943
503.67	23.434
504.02	22.498
504.36	22.929
504.71	23.351
505.06	22.940
505.40	22.752
505.75	22.951
506.09	23.761
506.44	23.730
506.78	23.770
507.13	24.331
507.47	23.131
507.82	24.569
508.16	23.759
508.51	24.201
508.85	23.684
509.19	24.031
509.54	23.265
509.88	23.802
510.23	23.548
510.57	24.355
510.92	23.459
511.26	23.690
511.61	25.000
511.95	23.330
512.30	23.807
512.64	24.557
512.98	24.544
513.33	24.732
513.67	24.600
514.02	23.864
514.36	25.123
514.70	24.516
515.05	24.651
515.39	24.621
515.74	25.000
516.08	25.601
516.42	25.139
516.77	26.589
517.11	24.584
517.46	25.451
517.80	25.145
518.14	24.783
518.49	25.321
518.83	24.830
519.17	24.711
519.52	24.505
519.86	25.898
520.20	25.376
520.55	26.391
520.89	25.852
521.23	26.598
521.58	25.870
521.92	25.964
522.26	25.259
522.61	26.355
522.95	25.599
523.29	25.441
523.64	26.341
523.98	26.309
524.32	25.211
524.66	26.458
525.01	26.103
525.35	25.960
525.69	25.369
526.04	25.794
526.38	26.052
526.72	26.012
527.06	26.616
527.41	24.629
527.75	25.981
528.09	26.397
528.43	26.068
528.78	25.569
529.12	25.030
529.46	25.903
529.80	26.114
530.15	27.352
530.49	25.600
530.83	26.456
531.17	26.828
531.51	27.108
531.86	26.516
532.20	26.662
532.54	26.714
532.88	27.150
533.22	25.734
533.57	25.494
533.91	26.189
534.25	26.002
534.59	26.236
534.93	26.472
535.27	25.830
535.62	26.190
535.96	25.926
536.30	25.302
536.64	26.401
536.98	25.879
537.32	26.004
537.66	26.400
538.01	26.860
538.35	26.050
538.69	27.122
539.03	25.991
539.37	25.687
539.71	25.470
540.05	25.752
540.39	26.512
540.73	26.132
541.07	26.476
541.42	25.701
541.76	26.968
542.10	26.455
542.44	25.166
542.78	27.207
543.12	25.336
543.46	26.951
543.80	25.699
544.14	24.519
544.48	25.841
544.82	25.914
545.16	26.285
545.50	25.514
545.84	26.277
546.18	25.522
546.52	26.497
546.86	26.804
547.20	27.579
547.54	25.985
547.88	26.084
548.22	26.152
548.56	26.038
548.90	25.352
549.24	25.926
549.58	26.603
549.92	27.335
550.26	27.699
550.60	27.040
550.94	27.535
551.28	26.335
551.62	27.750
551.96	26.667
552.30	27.304
552.64	27.113
552.98	26.915
553.32	26.905
553.66	26.449
554.00	26.630
554.34	26.156
554.68	28.326
555.02	27.292
555.36	26.862
555.69	25.710
556.03	26.312
556.37	26.603
556.71	27.285
557.05	27.171
557.39	27.432
557.73	27.241
558.07	26.686
558.41	26.773
558.75	27.700
559.08	27.666
559.42	28.571
559.76	28.456
560.10	27.623
560.44	27.184
560.78	27.079
561.12	25.792
561.45	26.402
561.79	25.445
562.13	26.224
562.47	27.049
562.81	27.755
563.15	26.689
563.48	26.923
563.82	26.223
564.16	26.226
564.50	26.237
564.84	25.853
565.17	25.804
565.51	27.284
565.85	26.079
566.19	25.736
566.52	25.776
566.86	25.075
567.20	26.238
567.54	25.228
567.88	23.954
568.21	25.185
568.55	23.913
568.89	24.854
569.23	24.020
569.56	23.117
569.90	22.415
570.24	22.497
570.57	22.373
570.91	21.202
571.25	21.032
571.59	21.208
571.92	21.083
572.26	21.259
572.60	21.141
572.93	20.720
573.27	21.295
573.61	20.603
573.95	20.982
574.28	20.327
574.62	20.505
574.96	19.904
575.29	19.981
575.63	20.579
575.97	20.229
576.30	20.871
576.64	20.546
576.98	20.588
577.31	20.125
577.65	20.239
577.98	19.863
578.32	19.380
578.66	19.581
578.99	19.813
579.33	20.213
579.67	19.776
580.00	19.708
580.34	20.527
580.67	20.303
581.01	19.924
581.35	19.575
581.68	19.509
582.02	19.083
582.35	19.476
582.69	19.443
583.02	19.858
583.36	20.129
583.70	20.554
584.03	21.264
584.37	20.843
584.70	20.664
585.04	20.254
585.37	20.224
585.71	20.606
586.04	20.222
586.38	21.055
586.72	20.823
587.05	21.054
587.39	20.343
587.72	21.000
588.06	20.251
588.39	20.741
588.73	20.798
589.06	21.720
589.40	21.515
589.73	21.612
590.07	21.744
590.40	21.593
590.73	22.326
591.07	22.996
591.40	22.353
591.74	23.377
592.07	22.164
592.41	22.654
592.74	21.610
593.08	21.719
593.41	21.481
593.75	21.018
594.08	21.589
594.41	21.774
594.75	22.477
595.08	21.367
595.42	22.172
595.75	21.937
596.09	22.493
596.42	22.947
596.75	22.837
597.09	23.290
597.42	22.091
597.75	23.329
598.09	23.565
598.42	23.325
598.76	22.294
599.09	21.855
599.42	22.271
599.76	21.889
600.09	21.566
600.42	21.366
600.76	21.214
601.09	21.275
601.42	22.527
601.76	21.708
602.09	22.569
602.42	23.248
602.76	23.136
603.09	22.738
603.42	22.413
603.76	21.684
604.09	22.140
604.42	22.258
604.76	23.113
605.09	22.455
605.42	22.659
605.75	22.517
606.09	22.041
606.42	22.926
606.75	22.397
607.09	22.645
607.42	22.679
607.75	22.700
608.08	22.232
608.42	23.084
608.75	22.768
609.08	22.895
609.41	22.941
609.75	22.773
610.08	24.317
610.41	22.346
610.74	23.132
611.07	24.259
611.41	22.522
611.74	23.177
612.07	24.172
612.40	24.869
612.73	24.053
613.07	23.599
613.40	24.118
613.73	23.335
614.06	23.710
614.39	24.227
614.72	24.053
615.06	24.370
615.39	23.673
615.72	23.466
616.05	23.817
616.38	25.069
616.71	25.475
617.05	25.383
617.38	25.616
617.71	25.045
618.04	25.300
618.37	24.897
618.70	25.389
619.03	26.711
619.36	25.730
619.69	25.704
620.03	26.648
620.36	27.406
620.69	26.575
621.02	27.065
621.35	27.016
621.68	26.791
622.01	26.858
622.34	28.517
622.67	26.768
623.00	27.073
623.33	26.876
623.66	27.162
623.99	27.025
624.32	26.320
624.65	25.847
624.99	25.425
625.32	26.285
625.65	27.573
625.98	27.825
626.31	27.449
626.64	29.388
626.97	28.761
627.30	27.681
627.63	28.876
627.96	27.502
628.29	30.009
628.62	28.179
628.95	31.132
629.28	29.562
629.61	29.973
629.94	29.714
630.26	29.361
630.59	29.933
