SpectraSuite Data File
++++++++++++++++++++++++++++++++++++
Date: Wed May 13 19:10:54 PDT 2015
User: schluterlab
Dark Spectrum Present: Yes
Reference Spectrum Present: Yes
Number of Sampled Component Spectra: 1
Spectrometers: USB2E3373
Integration Time (usec): 3000 (USB2E3373)
Spectra Averaged: 3 (USB2E3373)
Boxcar Smoothing: 0 (USB2E3373)
Correct for Electrical Dark: No (USB2E3373)
Strobe/Lamp Enabled: No (USB2E3373)
Correct for Detector Non-linearity: No (USB2E3373)
Correct for Stray Light: No (USB2E3373)
Number of Pixels in Processed Spectrum: 2048
>>>>>Begin Processed Spectral Data<<<<<
178.53	0.000
178.91	-1450.000
179.29	-1700.000
179.67	-244.444
180.04	-1500.000
180.42	2600.000
180.80	1180.000
181.18	-1175.000
181.56	757.143
181.94	0.000
182.31	-728.571
182.69	1866.667
183.07	-750.000
183.45	-666.667
183.83	609.091
184.20	-590.000
184.58	2250.000
184.96	5800.000
185.34	-960.000
185.72	-687.500
186.09	-2600.000
186.47	2850.000
186.85	2650.000
187.23	5500.000
187.61	-2100.000
187.98	1600.000
188.36	545.455
188.74	654.545
189.12	-1100.000
189.49	640.000
189.87	-4800.000
190.25	-1475.000
190.63	385.714
191.00	492.308
191.38	916.667
191.76	-1550.000
192.14	1650.000
192.51	712.500
192.89	1100.000
193.27	750.000
193.65	-1500.000
194.02	570.000
194.40	1000.000
194.78	600.000
195.15	600.000
195.53	690.000
195.91	-2250.000
196.29	468.750
196.66	310.526
197.04	-440.000
197.42	0.000
197.79	630.000
198.17	-5400.000
198.55	800.000
198.92	837.500
199.30	1060.000
199.68	0.000
200.05	388.889
200.43	885.714
200.81	5000.000
201.18	2133.333
201.56	-1966.667
201.94	622.222
202.31	688.889
202.69	508.333
203.07	600.000
203.44	0.000
203.82	1725.000
204.19	857.143
204.57	500.000
204.95	762.500
205.32	1900.000
205.70	618.182
206.08	414.286
206.45	3200.000
206.83	425.000
207.20	1033.333
207.58	1180.000
207.96	383.333
208.33	750.000
208.71	-933.333
209.08	957.143
209.46	788.889
209.84	536.364
210.21	-1566.667
210.59	1825.000
210.96	-575.000
211.34	2850.000
211.71	740.000
212.09	933.333
212.46	0.000
212.84	1733.333
213.22	1550.000
213.59	-5900.000
213.97	1000.000
214.34	928.571
214.72	645.455
215.09	1200.000
215.47	-2700.000
215.84	-2350.000
216.22	1866.667
216.59	478.571
216.97	1500.000
217.34	554.545
217.72	-1000.000
218.09	0.000
218.47	-5600.000
218.84	777.778
219.22	900.000
219.59	1966.667
219.97	-742.857
220.34	1100.000
220.72	-1966.667
221.09	492.857
221.47	1825.000
221.84	-1016.667
222.22	0.000
222.59	1625.000
222.97	-2650.000
223.34	1280.000
223.72	461.538
224.09	1060.000
224.46	3050.000
224.84	-6200.000
225.21	-1020.000
225.59	-5800.000
225.96	670.000
226.34	365.000
226.71	3100.000
227.08	762.500
227.46	680.000
227.83	-1150.000
228.21	-2800.000
228.58	755.556
228.95	-2450.000
229.33	-2550.000
229.70	2033.333
230.08	857.143
230.45	-880.000
230.82	416.667
231.20	916.667
231.57	885.714
231.95	483.333
232.32	309.091
232.69	481.818
233.07	785.714
233.44	476.923
233.81	-1733.333
234.19	357.895
234.56	550.000
234.93	400.000
235.31	481.818
235.68	369.231
236.05	428.571
236.43	196.970
236.80	300.000
237.17	5300.000
237.55	247.619
237.92	225.000
238.29	285.714
238.67	212.903
239.04	231.034
239.41	177.778
239.79	141.304
240.16	140.476
240.53	140.909
240.91	137.255
241.28	140.000
241.65	130.000
242.02	115.942
242.40	93.548
242.77	110.000
243.14	87.097
243.51	89.888
243.89	80.000
244.26	68.889
244.63	64.516
245.00	79.787
245.38	69.307
245.75	65.421
246.12	62.385
246.49	66.423
246.87	56.000
247.24	63.846
247.61	58.571
247.98	53.595
248.36	50.676
248.73	45.223
249.10	50.955
249.47	49.718
249.84	44.385
250.22	45.455
250.59	43.787
250.96	42.424
251.33	44.550
251.70	43.564
252.08	37.619
252.45	38.565
252.82	37.391
253.19	42.553
253.56	37.647
253.94	43.154
254.31	37.891
254.68	36.154
255.05	35.055
255.42	34.553
255.79	40.441
256.16	36.823
256.54	33.569
256.91	33.808
257.28	31.295
257.65	35.314
258.02	34.783
258.39	31.546
258.76	31.438
259.14	31.548
259.51	30.091
259.88	28.261
260.25	33.233
260.62	32.081
260.99	30.124
261.36	31.832
261.73	33.238
262.10	30.523
262.47	29.577
262.85	28.969
263.22	27.350
263.59	30.199
263.96	28.297
264.33	29.765
264.70	31.316
265.07	28.900
265.44	28.788
265.81	25.061
266.18	25.879
266.55	27.073
266.92	31.450
267.29	28.241
267.66	29.587
268.03	27.045
268.40	28.972
268.77	26.253
269.14	27.252
269.51	27.314
269.88	27.972
270.25	27.314
270.62	28.539
270.99	27.527
271.36	28.112
271.73	25.935
272.10	23.478
272.47	27.742
272.84	25.758
273.21	26.834
273.58	24.672
273.95	26.205
274.32	26.240
274.69	26.981
275.06	24.606
275.43	25.532
275.80	26.052
276.17	25.051
276.54	26.819
276.91	24.308
277.28	22.852
277.65	25.145
278.02	23.395
278.39	25.391
278.76	22.909
279.13	23.585
279.50	23.277
279.87	24.502
280.23	22.954
280.60	22.050
280.97	23.660
281.34	22.832
281.71	24.000
282.08	24.568
282.45	23.091
282.82	24.512
283.19	21.925
283.56	23.509
283.92	23.519
284.29	22.575
284.66	21.416
285.03	20.615
285.40	22.183
285.77	19.865
286.14	20.898
286.51	23.000
286.87	22.564
287.24	22.476
287.61	20.706
287.98	20.942
288.35	19.968
288.72	20.249
289.08	22.535
289.45	19.769
289.82	20.325
290.19	19.466
290.56	20.827
290.93	20.393
291.29	18.712
291.66	19.617
292.03	22.820
292.40	22.320
292.77	19.083
293.13	19.104
293.50	18.659
293.87	18.519
294.24	18.667
294.60	19.068
294.97	18.314
295.34	19.887
295.71	18.608
296.08	18.519
296.44	18.294
296.81	17.305
297.18	18.564
297.55	16.755
297.91	17.282
298.28	19.946
298.65	18.407
299.02	17.128
299.38	16.733
299.75	15.499
300.12	16.347
300.48	17.000
300.85	17.139
301.22	17.580
301.59	15.657
301.95	17.380
302.32	15.661
302.69	17.563
303.05	15.273
303.42	17.654
303.79	15.629
304.15	14.918
304.52	13.789
304.89	15.215
305.25	17.285
305.62	15.515
305.99	16.765
306.35	15.660
306.72	15.135
307.09	15.760
307.45	17.342
307.82	13.393
308.19	16.336
308.55	16.505
308.92	15.682
309.29	14.572
309.65	15.376
310.02	15.751
310.38	16.344
310.75	15.523
311.12	15.967
311.48	16.092
311.85	17.191
312.22	16.857
312.58	15.177
312.95	15.523
313.31	16.117
313.68	16.008
314.05	17.751
314.41	15.779
314.78	16.616
315.14	16.683
315.51	18.229
315.87	17.624
316.24	17.180
316.61	18.031
316.97	17.221
317.34	17.319
317.70	17.495
318.07	17.998
318.43	17.319
318.80	19.213
319.16	20.245
319.53	19.325
319.89	20.476
320.26	21.300
320.62	20.833
320.99	21.212
321.35	20.303
321.72	21.355
322.08	23.001
322.45	23.980
322.81	23.740
323.18	23.603
323.54	23.655
323.91	23.302
324.27	24.570
324.64	23.765
325.00	23.895
325.37	25.478
325.73	27.199
326.10	25.419
326.46	27.867
326.83	27.869
327.19	27.669
327.56	27.613
327.92	28.609
328.29	29.547
328.65	29.466
329.01	29.242
329.38	29.047
329.74	28.809
330.11	30.631
330.47	30.579
330.84	32.077
331.20	30.237
331.56	30.367
331.93	31.481
332.29	29.902
332.66	31.593
333.02	30.256
333.38	30.533
333.75	31.729
334.11	31.139
334.48	31.322
334.84	31.618
335.20	31.000
335.57	31.369
335.93	30.446
336.29	30.861
336.66	31.470
337.02	31.131
337.38	31.389
337.75	30.392
338.11	30.976
338.47	31.860
338.84	32.356
339.20	31.743
339.56	32.847
339.93	31.000
340.29	30.978
340.65	32.353
341.02	32.199
341.38	31.762
341.74	31.842
342.11	32.489
342.47	32.070
342.83	31.079
343.20	32.121
343.56	30.834
343.92	30.614
344.28	31.207
344.65	31.728
345.01	30.892
345.37	31.732
345.73	31.810
346.10	31.543
346.46	32.288
346.82	31.549
347.19	31.495
347.55	32.102
347.91	32.120
348.27	31.553
348.63	31.355
349.00	31.877
349.36	31.691
349.72	30.794
350.08	31.605
350.45	31.814
350.81	32.088
351.17	31.767
351.53	31.204
351.89	30.776
352.26	31.413
352.62	31.917
352.98	31.442
353.34	32.210
353.70	31.342
354.07	31.613
354.43	30.635
354.79	30.893
355.15	32.642
355.51	32.774
355.87	31.918
356.24	31.352
356.60	31.836
356.96	32.824
357.32	31.398
357.68	31.102
358.04	31.750
358.40	32.067
358.77	32.473
359.13	31.965
359.49	32.392
359.85	31.508
360.21	31.818
360.57	32.918
360.93	32.538
361.29	32.200
361.66	33.050
362.02	31.269
362.38	32.471
362.74	32.068
363.10	31.754
363.46	30.961
363.82	33.107
364.18	33.333
364.54	33.878
364.90	32.153
365.26	31.838
365.62	33.674
365.98	33.017
366.35	31.590
366.71	31.670
367.07	32.993
367.43	34.253
367.79	34.475
368.15	33.621
368.51	33.939
368.87	33.976
369.23	32.480
369.59	34.830
369.95	33.529
370.31	33.832
370.67	33.696
371.03	35.431
371.39	35.277
371.75	33.529
372.11	33.713
372.47	35.044
372.83	36.239
373.19	34.104
373.55	35.551
373.91	36.598
374.27	34.158
374.63	34.473
374.99	35.452
375.35	34.822
375.71	34.681
376.07	36.008
376.42	35.488
376.78	36.117
377.14	36.703
377.50	35.563
377.86	35.705
378.22	36.536
378.58	34.524
378.94	35.701
379.30	36.896
379.66	35.914
380.02	37.039
380.38	35.944
380.74	35.714
381.09	37.042
381.45	37.554
381.81	37.101
382.17	37.707
382.53	37.610
382.89	37.654
383.25	37.961
383.61	37.980
383.97	37.273
384.32	37.991
384.68	38.166
385.04	36.939
385.40	37.276
385.76	38.206
386.12	39.249
386.48	39.773
386.83	39.256
387.19	39.518
387.55	39.023
387.91	39.299
388.27	39.301
388.62	40.320
388.98	39.066
389.34	39.174
389.70	40.221
390.06	41.255
390.42	40.208
390.77	39.186
391.13	39.949
391.49	39.975
391.85	40.420
392.20	38.991
392.56	40.467
392.92	39.906
393.28	39.231
393.64	40.228
393.99	41.356
394.35	40.323
394.71	40.276
395.07	40.561
395.42	41.224
395.78	40.585
396.14	41.092
396.50	41.917
396.85	42.276
397.21	41.492
397.57	41.662
397.92	41.406
398.28	39.686
398.64	40.920
399.00	40.963
399.35	40.666
399.71	41.782
400.07	41.041
400.42	40.982
400.78	41.616
401.14	41.890
401.49	42.090
401.85	41.682
402.21	41.497
402.57	42.011
402.92	41.551
403.28	42.723
403.63	42.884
403.99	42.102
404.35	42.182
404.70	41.187
405.06	41.409
405.42	42.358
405.77	42.343
406.13	40.914
406.49	41.810
406.84	42.705
407.20	41.667
407.55	42.629
407.91	42.667
408.27	42.055
408.62	43.227
408.98	42.770
409.34	42.497
409.69	42.258
410.05	42.999
410.40	42.936
410.76	42.294
411.11	41.858
411.47	42.045
411.83	42.944
412.18	41.064
412.54	42.715
412.89	41.687
413.25	42.444
413.60	43.298
413.96	41.591
414.31	42.588
414.67	43.409
415.03	43.709
415.38	44.008
415.74	43.473
416.09	43.697
416.45	42.704
416.80	42.498
417.16	44.973
417.51	44.194
417.87	43.288
418.22	44.164
418.58	44.158
418.93	43.796
419.29	43.603
419.64	43.640
420.00	42.927
420.35	42.609
420.71	43.455
421.06	42.601
421.42	43.099
421.77	43.274
422.12	42.448
422.48	42.580
422.83	42.341
423.19	42.928
423.54	43.529
423.90	42.899
424.25	43.049
424.61	41.488
424.96	43.732
425.31	43.300
425.67	41.910
426.02	42.114
426.38	43.101
426.73	43.183
427.09	42.675
427.44	41.633
427.79	42.956
428.15	44.107
428.50	42.422
428.85	43.683
429.21	43.788
429.56	41.991
429.92	42.275
430.27	42.254
430.62	41.935
430.98	42.501
431.33	41.701
431.68	42.618
432.04	42.332
432.39	42.604
432.74	42.549
433.10	44.029
433.45	43.265
433.80	42.849
434.16	42.254
434.51	42.263
434.86	43.615
435.22	43.024
435.57	43.222
435.92	42.130
436.28	43.891
436.63	42.826
436.98	42.244
437.34	43.948
437.69	43.699
438.04	43.395
438.39	43.522
438.75	43.173
439.10	42.179
439.45	41.913
439.81	43.444
440.16	42.349
440.51	42.882
440.86	42.675
441.22	42.714
441.57	41.773
441.92	42.886
442.27	43.272
442.63	42.233
442.98	44.113
443.33	42.283
443.68	42.024
444.03	42.362
444.39	41.383
444.74	42.965
445.09	42.264
445.44	42.810
445.79	43.246
446.15	40.974
446.50	42.003
446.85	41.727
447.20	42.325
447.55	42.714
447.91	42.967
448.26	42.460
448.61	42.058
448.96	43.245
449.31	42.576
449.66	42.712
450.02	41.950
450.37	41.100
450.72	42.414
451.07	41.804
451.42	42.188
451.77	42.631
452.12	41.166
452.47	42.973
452.83	42.075
453.18	41.626
453.53	42.424
453.88	41.819
454.23	41.721
454.58	42.520
454.93	43.611
455.28	41.584
455.63	42.900
455.98	42.917
456.34	42.023
456.69	41.703
457.04	43.158
457.39	41.905
457.74	41.613
458.09	41.116
458.44	41.334
458.79	40.130
459.14	40.519
459.49	41.681
459.84	40.720
460.19	41.308
460.54	40.683
460.89	40.867
461.24	42.562
461.59	42.359
461.94	40.012
462.29	42.136
462.64	40.906
462.99	40.794
463.34	42.133
463.69	41.714
464.04	41.043
464.39	40.232
464.74	41.117
465.09	40.470
465.44	40.166
465.79	39.765
466.14	39.956
466.49	39.600
466.84	40.105
467.19	40.374
467.54	40.812
467.89	39.256
468.24	39.791
468.59	40.232
468.94	40.134
469.29	40.681
469.64	40.696
469.99	41.001
470.34	40.291
470.68	40.302
471.03	40.204
471.38	40.723
471.73	39.640
472.08	40.526
472.43	38.505
472.78	40.224
473.13	40.180
473.48	40.075
473.83	40.610
474.17	38.395
474.52	40.261
474.87	40.339
475.22	38.247
475.57	38.366
475.92	38.290
476.27	37.937
476.61	39.162
476.96	39.087
477.31	37.677
477.66	38.129
478.01	38.840
478.36	37.811
478.70	38.370
479.05	38.658
479.40	37.666
479.75	37.417
480.10	37.227
480.45	37.411
480.79	36.168
481.14	37.182
481.49	37.636
481.84	37.677
482.19	37.256
482.53	37.018
482.88	36.622
483.23	37.243
483.58	38.035
483.92	37.113
484.27	35.251
484.62	36.078
484.97	35.041
485.31	36.199
485.66	34.907
486.01	33.475
486.36	32.307
486.70	32.028
487.05	32.995
487.40	33.248
487.75	34.173
488.09	33.819
488.44	33.622
488.79	35.118
489.13	35.332
489.48	35.767
489.83	34.959
490.17	35.204
490.52	35.651
490.87	35.730
491.22	34.607
491.56	34.624
491.91	35.738
492.26	34.727
492.60	33.779
492.95	34.331
493.30	34.579
493.64	34.298
493.99	34.958
494.34	34.135
494.68	35.668
495.03	35.056
495.37	33.411
495.72	34.162
496.07	34.942
496.41	32.876
496.76	34.037
497.11	33.093
497.45	33.675
497.80	33.253
498.14	33.237
498.49	33.512
498.84	32.886
499.18	33.429
499.53	33.286
499.87	33.411
500.22	32.548
500.56	33.058
500.91	32.933
501.26	32.859
501.60	33.365
501.95	32.218
502.29	32.849
502.64	32.821
502.98	31.650
503.33	32.176
503.67	31.879
504.02	32.367
504.36	32.288
504.71	32.926
505.06	32.096
505.40	31.842
505.75	31.196
506.09	32.070
506.44	32.708
506.78	31.661
507.13	32.004
507.47	32.222
507.82	32.118
508.16	31.864
508.51	32.166
508.85	31.778
509.19	32.398
509.54	31.480
509.88	31.633
510.23	30.951
510.57	33.075
510.92	31.952
511.26	31.706
511.61	31.328
511.95	31.263
512.30	31.283
512.64	31.166
512.98	31.136
513.33	31.745
513.67	30.309
514.02	30.574
514.36	31.622
514.70	31.544
515.05	31.065
515.39	30.398
515.74	30.687
516.08	30.967
516.42	30.633
516.77	31.550
517.11	30.522
517.46	30.982
517.80	31.010
518.14	29.763
518.49	30.863
518.83	30.739
519.17	30.485
519.52	30.221
519.86	30.918
520.20	31.040
520.55	30.521
520.89	30.353
521.23	31.242
521.58	30.012
521.92	30.496
522.26	29.347
522.61	30.218
522.95	29.957
523.29	30.371
523.64	30.427
523.98	30.437
524.32	29.373
524.66	30.307
525.01	29.841
525.35	30.669
525.69	29.618
526.04	29.346
526.38	29.225
526.72	29.264
527.06	30.885
527.41	28.403
527.75	30.482
528.09	30.764
528.43	29.446
528.78	29.932
529.12	29.394
529.46	29.516
529.80	29.455
530.15	29.408
530.49	28.062
530.83	28.608
531.17	29.243
531.51	30.545
531.86	29.226
532.20	29.465
532.54	29.276
532.88	28.691
533.22	29.669
533.57	28.025
533.91	27.935
534.25	27.582
534.59	28.676
534.93	27.484
535.27	28.304
535.62	28.144
535.96	29.316
536.30	28.671
536.64	28.268
536.98	29.064
537.32	27.321
537.66	28.067
538.01	28.111
538.35	28.054
538.69	28.717
539.03	26.966
539.37	27.476
539.71	27.609
540.05	27.320
540.39	27.309
540.73	26.973
541.07	28.812
541.42	27.789
541.76	28.258
542.10	27.361
542.44	27.616
542.78	28.458
543.12	27.447
543.46	27.541
543.80	27.196
544.14	26.059
544.48	26.603
544.82	26.684
545.16	26.805
545.50	26.221
545.84	27.688
546.18	26.532
546.52	27.392
546.86	26.804
547.20	27.714
547.54	26.987
547.88	26.913
548.22	26.214
548.56	27.107
548.90	25.992
549.24	26.667
549.58	26.330
549.92	27.404
550.26	27.202
550.60	26.694
550.94	26.197
551.28	26.262
551.62	26.887
551.96	26.807
552.30	25.324
552.64	26.978
552.98	26.644
553.32	26.433
553.66	26.380
554.00	26.356
554.34	26.432
554.68	26.824
555.02	26.587
555.36	24.983
555.69	25.372
556.03	25.437
556.37	26.739
556.71	24.693
557.05	26.120
557.39	26.102
557.73	26.958
558.07	25.816
558.41	25.832
558.75	27.333
559.08	25.578
559.42	26.153
559.76	26.103
560.10	25.268
560.44	26.136
560.78	24.351
561.12	24.868
561.45	25.228
561.79	24.588
562.13	25.017
562.47	25.888
562.81	26.081
563.15	24.214
563.48	25.531
563.82	23.940
564.16	24.722
564.50	24.219
564.84	23.515
565.17	25.097
565.51	24.856
565.85	23.858
566.19	23.669
566.52	24.509
566.86	24.051
567.20	23.703
567.54	23.516
567.88	23.411
568.21	23.333
568.55	23.357
568.89	21.839
569.23	22.326
569.56	21.498
569.90	21.774
570.24	21.493
570.57	21.285
570.91	20.847
571.25	21.340
571.59	20.913
571.92	20.795
572.26	20.797
572.60	21.021
572.93	21.079
573.27	20.970
573.61	21.050
573.95	20.310
574.28	20.176
574.62	20.141
574.96	20.430
575.29	20.078
575.63	20.097
575.97	20.359
576.30	20.473
576.64	20.293
576.98	20.224
577.31	19.570
577.65	19.826
577.98	19.481
578.32	19.500
578.66	19.832
578.99	19.927
579.33	19.680
579.67	19.460
580.00	19.588
580.34	19.862
580.67	19.759
581.01	19.496
581.35	19.329
581.68	19.063
582.02	19.048
582.35	18.897
582.69	18.931
583.02	18.916
583.36	19.691
583.70	19.855
584.03	19.958
584.37	19.552
584.70	19.514
585.04	19.398
585.37	19.804
585.71	19.549
586.04	19.473
586.38	19.671
586.72	20.381
587.05	19.180
587.39	19.340
587.72	19.351
588.06	19.157
588.39	19.643
588.73	19.713
589.06	19.850
589.40	20.741
589.73	20.099
590.07	20.000
590.40	19.912
590.73	20.297
591.07	21.205
591.40	20.962
591.74	21.558
592.07	20.157
592.41	19.802
592.74	19.888
593.08	19.753
593.41	19.709
593.75	18.894
594.08	19.444
594.41	19.972
594.75	19.704
595.08	20.079
595.42	19.965
595.75	19.872
596.09	20.090
596.42	20.314
596.75	20.684
597.09	20.606
597.42	19.772
597.75	20.655
598.09	20.087
598.42	20.146
598.76	19.538
599.09	19.536
599.42	19.214
599.76	19.290
600.09	19.417
600.42	19.065
600.76	19.143
601.09	19.199
601.42	19.254
601.76	19.848
602.09	19.842
602.42	19.666
602.76	19.710
603.09	19.866
603.42	19.563
603.76	19.169
604.09	19.775
604.42	19.731
604.76	20.329
605.09	19.616
605.42	19.538
605.75	19.536
606.09	19.235
606.42	19.575
606.75	19.701
607.09	19.506
607.42	19.598
607.75	18.186
608.08	19.062
608.42	19.767
608.75	19.477
609.08	20.074
609.41	19.848
609.75	19.771
610.08	19.557
610.41	19.181
610.74	19.347
611.07	20.059
611.41	19.971
611.74	20.010
612.07	20.186
612.40	19.832
612.73	19.632
613.07	20.043
613.40	20.221
613.73	19.507
614.06	20.269
614.39	20.556
614.72	20.000
615.06	19.853
615.39	19.055
615.72	19.070
616.05	19.458
616.38	20.011
616.71	20.843
617.05	20.848
617.38	19.423
617.71	20.180
618.04	20.373
618.37	20.106
618.70	19.975
619.03	21.382
619.36	20.434
619.69	21.056
620.03	21.703
620.36	21.257
620.69	21.438
621.02	22.271
621.35	21.222
621.68	21.184
622.01	21.285
622.34	21.256
622.67	21.825
623.00	20.910
623.33	21.015
623.66	21.229
623.99	20.839
624.32	20.899
624.65	21.116
624.99	20.751
625.32	21.289
625.65	21.563
625.98	21.445
626.31	21.695
626.64	22.612
626.97	21.779
627.30	20.366
627.63	22.477
627.96	23.297
628.29	22.572
628.62	23.239
628.95	24.340
629.28	21.807
629.61	22.915
629.94	21.810
630.26	21.830
630.59	21.449
