SpectraSuite Data File
++++++++++++++++++++++++++++++++++++
Date: Wed May 13 19:48:02 PDT 2015
User: schluterlab
Dark Spectrum Present: Yes
Reference Spectrum Present: Yes
Number of Sampled Component Spectra: 1
Spectrometers: USB2E3373
Integration Time (usec): 3000 (USB2E3373)
Spectra Averaged: 3 (USB2E3373)
Boxcar Smoothing: 0 (USB2E3373)
Correct for Electrical Dark: No (USB2E3373)
Strobe/Lamp Enabled: No (USB2E3373)
Correct for Detector Non-linearity: No (USB2E3373)
Correct for Stray Light: No (USB2E3373)
Number of Pixels in Processed Spectrum: 2048
>>>>>Begin Processed Spectral Data<<<<<
178.53	0.000
178.91	-1125.000
179.29	-1350.000
179.67	-238.889
180.04	-1400.000
180.42	2600.000
180.80	1100.000
181.18	-1125.000
181.56	685.714
181.94	0.000
182.31	-642.857
182.69	1700.000
183.07	-725.000
183.45	-511.111
183.83	490.909
184.20	-410.000
184.58	2550.000
184.96	5500.000
185.34	-760.000
185.72	-662.500
186.09	-2100.000
186.47	2700.000
186.85	2350.000
187.23	5300.000
187.61	-1733.333
187.98	1300.000
188.36	563.636
188.74	618.182
189.12	-1020.000
189.49	520.000
189.87	-5100.000
190.25	-1300.000
190.63	400.000
191.00	469.231
191.38	700.000
191.76	-1175.000
192.14	1575.000
192.51	537.500
192.89	1000.000
193.27	750.000
193.65	-1175.000
194.02	530.000
194.40	920.000
194.78	640.000
195.15	516.667
195.53	560.000
195.91	-2150.000
196.29	381.250
196.66	331.579
197.04	-380.000
197.42	0.000
197.79	630.000
198.17	-5000.000
198.55	842.857
198.92	725.000
199.30	880.000
199.68	0.000
200.05	333.333
200.43	714.286
200.81	4600.000
201.18	1500.000
201.56	-1666.667
201.94	622.222
202.31	633.333
202.69	425.000
203.07	620.000
203.44	0.000
203.82	1250.000
204.19	857.143
204.57	400.000
204.95	662.500
205.32	1900.000
205.70	536.364
206.08	307.143
206.45	2850.000
206.83	393.750
207.20	950.000
207.58	940.000
207.96	338.889
208.33	675.000
208.71	-716.667
209.08	928.571
209.46	500.000
209.84	463.636
210.21	-1566.667
210.59	1300.000
210.96	-500.000
211.34	2800.000
211.71	630.000
212.09	883.333
212.46	0.000
212.84	1966.667
213.22	1750.000
213.59	-4200.000
213.97	833.333
214.34	914.286
214.72	645.455
215.09	1260.000
215.47	-2450.000
215.84	-3050.000
216.22	1966.667
216.59	385.714
216.97	1375.000
217.34	527.273
217.72	-766.667
218.09	0.000
218.47	-6000.000
218.84	633.333
219.22	742.857
219.59	1800.000
219.97	-685.714
220.34	1100.000
220.72	-1666.667
221.09	421.429
221.47	1600.000
221.84	-916.667
222.22	0.000
222.59	1275.000
222.97	-2850.000
223.34	1160.000
223.72	430.769
224.09	1080.000
224.46	2300.000
224.84	-5400.000
225.21	-1080.000
225.59	-4400.000
225.96	730.000
226.34	310.000
226.71	2950.000
227.08	712.500
227.46	480.000
227.83	-1150.000
228.21	-2600.000
228.58	633.333
228.95	-2850.000
229.33	-2100.000
229.70	1566.667
230.08	828.571
230.45	-1040.000
230.82	458.333
231.20	800.000
231.57	785.714
231.95	508.333
232.32	263.636
232.69	390.909
233.07	685.714
233.44	369.231
233.81	-1800.000
234.19	305.263
234.56	500.000
234.93	408.333
235.31	527.273
235.68	407.692
236.05	392.857
236.43	212.121
236.80	336.842
237.17	5200.000
237.55	280.952
237.92	253.571
238.29	266.667
238.67	183.871
239.04	220.690
239.41	183.333
239.79	130.435
240.16	173.810
240.53	150.000
240.91	131.373
241.28	140.000
241.65	128.000
242.02	94.203
242.40	112.903
242.77	130.000
243.14	107.527
243.51	104.494
243.89	98.824
244.26	77.778
244.63	92.473
245.00	79.787
245.38	82.178
245.75	80.374
246.12	70.642
246.49	77.372
246.87	84.800
247.24	74.615
247.61	75.000
247.98	65.359
248.36	63.514
248.73	60.510
249.10	66.242
249.47	61.017
249.84	68.984
250.22	60.963
250.59	62.722
250.96	61.616
251.33	61.611
251.70	61.386
252.08	55.238
252.45	53.812
252.82	52.174
253.19	57.872
253.56	51.373
253.94	60.166
254.31	53.125
254.68	55.000
255.05	53.137
255.42	50.813
255.79	49.265
256.16	51.625
256.54	50.530
256.91	51.246
257.28	46.403
257.65	49.175
258.02	50.932
258.39	46.688
258.76	47.826
259.14	51.786
259.51	48.936
259.88	45.652
260.25	49.849
260.62	43.642
260.99	49.068
261.36	50.450
261.73	43.266
262.10	47.093
262.47	49.577
262.85	47.354
263.22	45.299
263.59	49.858
263.96	42.308
264.33	46.475
264.70	46.842
265.07	46.292
265.44	46.465
265.81	41.849
266.18	45.477
266.55	47.073
266.92	46.437
267.29	43.750
267.66	43.349
268.03	43.636
268.40	44.393
268.77	40.811
269.14	45.721
269.51	46.501
269.88	43.823
270.25	42.438
270.62	43.146
270.99	46.452
271.36	40.773
271.73	42.991
272.10	43.478
272.47	42.796
272.84	41.126
273.21	43.187
273.58	39.738
273.95	40.461
274.32	42.355
274.69	43.255
275.06	38.189
275.43	40.851
275.80	42.485
276.17	42.363
276.54	43.659
276.91	38.538
277.28	39.648
277.65	38.491
278.02	41.408
278.39	40.039
278.76	40.727
279.13	40.566
279.50	37.989
279.87	39.044
280.23	40.719
280.60	38.491
280.97	37.523
281.34	39.469
281.71	37.636
282.08	40.883
282.45	38.909
282.82	39.432
283.19	36.542
283.56	37.895
283.92	37.733
284.29	38.977
284.66	37.024
285.03	39.241
285.40	40.141
285.77	36.869
286.14	37.478
286.51	38.000
286.87	38.120
287.24	38.599
287.61	34.992
287.98	36.688
288.35	35.182
288.72	34.424
289.08	36.933
289.45	35.750
289.82	35.935
290.19	33.281
290.56	35.681
290.93	32.628
291.29	34.969
291.66	33.776
292.03	34.302
292.40	34.068
292.77	32.692
293.13	34.179
293.50	32.945
293.87	32.148
294.24	31.852
294.60	30.568
294.97	29.942
295.34	33.568
295.71	30.540
296.08	29.202
296.44	30.399
296.81	31.440
297.18	31.978
297.55	28.892
297.91	31.266
298.28	31.058
298.65	30.418
299.02	30.567
299.38	29.084
299.75	28.437
300.12	28.225
300.48	29.125
300.85	28.607
301.22	28.408
301.59	27.273
301.95	30.101
302.32	28.626
302.69	28.554
303.05	28.364
303.42	26.790
303.79	27.180
304.15	27.739
304.52	27.926
304.89	26.829
305.25	26.914
305.62	26.840
305.99	28.571
306.35	25.391
306.72	28.587
307.09	27.858
307.45	27.477
307.82	24.665
308.19	27.152
308.55	28.371
308.92	27.282
309.29	24.182
309.65	26.405
310.02	25.159
310.38	24.301
310.75	26.505
311.12	24.258
311.48	26.437
311.85	25.472
312.22	26.223
312.58	23.909
312.95	26.505
313.31	26.796
313.68	25.260
314.05	27.909
314.41	25.025
314.78	25.076
315.14	25.124
315.51	27.085
315.87	26.535
316.24	25.621
316.61	23.879
316.97	24.853
317.34	25.342
317.70	26.195
318.07	25.794
318.43	26.321
318.80	25.398
319.16	25.612
319.53	25.235
319.89	25.905
320.26	27.200
320.62	26.885
320.99	25.859
321.35	26.263
321.72	27.823
322.08	27.838
322.45	28.955
322.81	27.519
323.18	27.938
323.54	28.108
323.91	28.302
324.27	28.011
324.64	27.493
325.00	26.691
325.37	28.298
325.73	29.354
326.10	28.244
326.46	28.495
326.83	29.422
327.19	29.120
327.56	28.310
327.92	28.959
328.29	29.636
328.65	30.479
329.01	30.235
329.38	29.880
329.74	30.102
330.11	30.726
330.47	30.119
330.84	31.526
331.20	30.692
331.56	31.009
331.93	29.907
332.29	30.701
332.66	31.327
333.02	31.810
333.38	32.611
333.75	31.551
334.11	30.961
334.48	32.032
334.84	32.721
335.20	31.364
335.57	31.006
335.93	30.893
336.29	29.945
336.66	31.650
337.02	31.403
337.38	30.093
337.75	31.907
338.11	30.528
338.47	32.044
338.84	32.081
339.20	30.550
339.56	31.752
339.93	31.182
340.29	32.337
340.65	32.175
341.02	32.897
341.38	31.940
341.74	32.018
342.11	33.362
342.47	32.335
342.83	31.678
343.20	33.593
343.56	31.003
343.92	32.105
344.28	31.888
344.65	32.932
345.01	31.818
345.37	33.190
345.73	32.741
346.10	33.760
346.46	32.288
346.82	32.290
347.19	32.999
347.55	31.773
347.91	33.172
348.27	33.196
348.63	33.027
349.00	31.877
349.36	32.184
349.72	32.077
350.08	31.605
350.45	32.465
350.81	32.656
351.17	32.658
351.53	31.941
351.89	31.188
352.26	32.912
352.62	33.761
352.98	32.172
353.34	32.703
353.70	32.406
354.07	33.387
354.43	33.175
354.79	33.226
355.15	31.923
355.51	33.094
355.87	33.143
356.24	32.899
356.60	32.157
356.96	34.111
357.32	32.788
357.68	33.937
358.04	31.116
358.40	32.146
358.77	33.959
359.13	33.228
359.49	32.863
359.85	31.905
360.21	32.297
360.57	34.319
360.93	33.000
361.29	32.880
361.66	32.353
362.02	32.687
362.38	33.232
362.74	33.333
363.10	32.272
363.46	31.988
363.82	33.031
364.18	33.333
364.54	34.547
364.90	34.136
365.26	33.971
365.62	34.186
365.98	33.163
366.35	32.020
366.71	33.912
367.07	34.523
367.43	33.309
367.79	34.118
368.15	34.626
368.51	34.012
368.87	33.762
369.23	33.577
369.59	34.395
369.95	33.603
370.31	32.906
370.67	33.188
371.03	34.232
371.39	33.601
371.75	33.971
372.11	33.499
372.47	35.117
372.83	35.159
373.19	34.899
373.55	34.220
373.91	36.009
374.27	35.189
374.63	35.345
374.99	35.099
375.35	34.403
375.71	34.339
376.07	34.911
376.42	35.076
376.78	35.984
377.14	34.532
377.50	35.629
377.86	35.040
378.22	35.082
378.58	34.273
378.94	35.512
379.30	36.450
379.66	36.612
380.02	36.241
380.38	36.126
380.74	35.894
381.09	36.064
381.45	36.939
381.81	36.794
382.17	36.943
382.53	36.478
382.89	37.407
383.25	37.523
383.61	37.608
383.97	36.398
384.32	37.492
384.68	37.237
385.04	37.861
385.40	36.780
385.76	37.285
386.12	36.788
386.48	39.396
386.83	39.577
387.19	38.343
387.55	38.837
387.91	37.485
388.27	38.749
388.62	39.275
388.98	38.391
389.34	39.675
389.70	39.669
390.06	40.241
390.42	40.272
390.77	40.522
391.13	39.566
391.49	40.609
391.85	39.911
392.20	40.189
392.56	40.783
392.92	40.965
393.28	40.059
393.64	41.487
393.99	40.806
394.35	41.005
394.71	41.154
395.07	41.495
395.42	41.656
395.78	41.794
396.14	42.086
396.50	43.609
396.85	43.039
397.21	41.554
397.57	41.662
397.92	42.548
398.28	41.648
398.64	42.413
399.00	42.697
399.35	43.034
399.71	42.188
400.07	43.938
400.42	43.988
400.78	43.366
401.14	44.024
401.49	43.761
401.85	43.315
402.21	43.533
402.57	43.430
402.92	44.010
403.28	44.972
403.63	46.040
403.99	44.395
404.35	45.455
404.70	44.365
405.06	45.079
405.42	44.916
405.77	44.571
406.13	43.736
406.49	43.879
406.84	44.773
407.20	44.858
407.55	45.756
407.91	45.933
408.27	45.310
408.62	45.515
408.98	45.772
409.34	46.187
409.69	46.000
410.05	46.716
410.40	47.095
410.76	47.730
411.11	45.356
411.47	46.645
411.83	47.159
412.18	47.310
412.54	46.949
412.89	47.169
413.25	47.462
413.60	47.746
413.96	47.602
414.31	48.056
414.67	48.669
415.03	47.020
415.38	48.067
415.74	47.910
416.09	49.902
416.45	49.264
416.80	48.976
417.16	49.665
417.51	50.100
417.87	48.298
418.22	48.770
418.58	49.451
418.93	49.816
419.29	49.905
419.64	50.630
420.00	49.512
420.35	49.913
420.71	50.389
421.06	49.761
421.42	50.351
421.77	49.720
422.12	50.084
422.48	49.487
422.83	50.379
423.19	49.779
423.54	51.248
423.90	51.594
424.25	51.480
424.61	51.131
424.96	51.079
425.31	52.492
425.67	50.674
426.02	50.800
426.38	52.869
426.73	51.492
427.09	52.401
427.44	53.422
427.79	52.501
428.15	53.155
428.50	53.013
428.85	52.920
429.21	51.518
429.56	52.307
429.92	52.693
430.27	51.539
430.62	52.074
430.98	54.074
431.33	52.732
431.68	53.979
432.04	52.503
432.39	54.140
432.74	53.262
433.10	54.669
433.45	55.335
433.80	54.047
434.16	53.312
434.51	53.263
434.86	54.390
435.22	54.919
435.57	54.711
435.92	55.295
436.28	55.635
436.63	54.360
436.98	54.379
437.34	56.768
437.69	55.718
438.04	54.918
438.39	55.881
438.75	56.421
439.10	54.246
439.45	55.903
439.81	55.227
440.16	56.126
440.51	55.829
440.86	56.804
441.22	55.729
441.57	54.936
441.92	55.885
442.27	56.189
442.63	55.556
442.98	56.620
443.33	57.065
443.68	56.014
444.03	55.783
444.39	55.307
444.74	56.331
445.09	57.358
445.44	56.315
445.79	54.923
446.15	55.744
446.50	55.843
446.85	56.218
447.20	55.839
447.55	57.901
447.91	56.315
448.26	57.540
448.61	56.925
448.96	56.091
449.31	57.874
449.66	57.625
450.02	56.769
450.37	56.746
450.72	56.232
451.07	55.698
451.42	56.474
451.77	57.134
452.12	56.813
452.47	57.649
452.83	57.168
453.18	58.313
453.53	58.132
453.88	58.004
454.23	58.159
454.58	58.389
454.93	58.996
455.28	56.671
455.63	57.828
455.98	58.571
456.34	57.915
456.69	58.422
457.04	57.461
457.39	57.043
457.74	57.690
458.09	58.022
458.44	57.070
458.79	56.670
459.14	57.957
459.49	57.326
459.84	57.064
460.19	56.865
460.54	56.539
460.89	57.707
461.24	58.409
461.59	58.571
461.94	57.768
462.29	58.635
462.64	59.221
462.99	58.165
463.34	58.267
463.69	57.849
464.04	58.319
464.39	57.043
464.74	56.982
465.09	57.961
465.44	57.119
465.79	57.606
466.14	56.541
466.49	56.507
466.84	57.443
467.19	56.850
467.54	57.063
467.89	57.143
468.24	56.952
468.59	57.631
468.94	56.200
469.29	57.905
469.64	58.635
469.99	59.134
470.34	58.322
470.68	58.764
471.03	58.367
471.38	60.250
471.73	57.162
472.08	59.671
472.43	58.731
472.78	58.196
473.13	57.831
473.48	58.240
473.83	57.866
474.17	57.312
474.52	57.630
474.87	58.027
475.22	56.471
475.57	56.475
475.92	56.559
476.27	58.230
476.61	58.798
476.96	57.999
477.31	56.986
477.66	57.276
478.01	56.404
478.36	56.214
478.70	57.477
479.05	57.135
479.40	57.318
479.75	57.194
480.10	56.660
480.45	57.163
480.79	55.805
481.14	56.800
481.49	56.336
481.84	57.293
482.19	57.383
482.53	55.596
482.88	55.282
483.23	56.402
483.58	56.824
483.92	57.357
484.27	54.858
484.62	56.078
484.97	54.947
485.31	55.685
485.66	53.884
486.01	52.211
486.36	50.838
486.70	50.146
487.05	51.849
487.40	53.396
487.75	53.642
488.09	55.141
488.44	54.837
488.79	56.166
489.13	56.532
489.48	56.036
489.83	55.416
490.17	56.160
490.52	55.580
490.87	55.540
491.22	55.434
491.56	56.446
491.91	55.421
492.26	55.122
492.60	54.931
492.95	55.613
493.30	55.467
493.64	55.576
493.99	54.318
494.34	55.920
494.68	55.678
495.03	56.015
495.37	53.979
495.72	56.140
496.07	56.288
496.41	54.292
496.76	55.057
497.11	55.290
497.45	55.566
497.80	56.622
498.14	55.072
498.49	54.829
498.84	55.034
499.18	54.762
499.53	55.556
499.87	54.194
500.22	55.158
500.56	56.311
500.91	54.327
501.26	54.433
501.60	56.621
501.95	54.216
502.29	55.295
502.64	54.795
502.98	54.465
503.33	54.342
503.67	54.200
504.02	55.426
504.36	54.001
504.71	54.910
505.06	54.410
505.40	55.275
505.75	54.725
506.09	54.130
506.44	55.353
506.78	54.993
507.13	54.821
507.47	54.394
507.82	55.471
508.16	54.610
508.51	55.150
508.85	55.362
509.19	55.153
509.54	55.153
509.88	54.714
510.23	54.190
510.57	55.779
510.92	54.324
511.26	54.779
511.61	55.135
511.95	53.601
512.30	54.825
512.64	55.830
512.98	54.984
513.33	54.925
513.67	54.002
514.02	55.141
514.36	54.615
514.70	54.178
515.05	55.772
515.39	55.468
515.74	55.349
516.08	54.444
516.42	54.495
516.77	56.132
517.11	54.828
517.46	56.321
517.80	57.143
518.14	54.430
518.49	55.834
518.83	55.114
519.17	54.908
519.52	55.744
519.86	55.448
520.20	56.069
520.55	55.476
520.89	56.144
521.23	56.755
521.58	56.062
521.92	56.399
522.26	53.386
522.61	57.819
522.95	55.924
523.29	56.421
523.64	55.793
523.98	56.685
524.32	55.428
524.66	55.442
525.01	55.147
525.35	54.957
525.69	55.357
526.04	55.576
526.38	56.071
526.72	54.479
527.06	56.183
527.41	53.465
527.75	55.691
528.09	56.134
528.43	55.895
528.78	55.931
529.12	54.667
529.46	55.052
529.80	56.621
530.15	55.763
530.49	54.585
530.83	55.696
531.17	56.462
531.51	55.253
531.86	54.710
532.20	55.411
532.54	54.260
532.88	54.365
533.22	53.467
533.57	53.889
533.91	54.004
534.25	54.131
534.59	54.484
534.93	53.302
535.27	54.919
535.62	54.029
535.96	55.242
536.30	54.609
536.64	54.926
536.98	54.479
537.32	54.905
537.66	55.467
538.01	54.773
538.35	53.394
538.69	55.648
539.03	53.931
539.37	53.610
539.71	53.208
540.05	54.771
540.39	54.817
540.73	52.781
541.07	54.575
541.42	53.751
541.76	53.032
542.10	55.433
542.44	54.172
542.78	54.809
543.12	53.103
543.46	54.820
543.80	53.936
544.14	53.017
544.48	54.476
544.82	53.111
545.16	55.172
545.50	53.278
545.84	55.040
546.18	53.535
546.52	53.269
546.86	54.158
547.20	53.540
547.54	53.774
547.88	54.209
548.22	52.677
548.56	52.516
548.90	51.793
549.24	53.603
549.58	53.274
549.92	53.640
550.26	54.403
550.60	53.320
550.94	53.310
551.28	54.206
551.62	52.983
551.96	53.965
552.30	53.720
552.64	53.347
552.98	53.220
553.32	52.664
553.66	52.761
554.00	53.191
554.34	53.071
554.68	52.146
555.02	53.103
555.36	52.192
555.69	51.556
556.03	52.557
556.37	52.456
556.71	52.456
557.05	53.711
557.39	52.834
557.73	51.941
558.07	53.807
558.41	53.980
558.75	53.270
559.08	52.498
559.42	52.759
559.76	53.088
560.10	52.106
560.44	51.642
560.78	50.965
561.12	52.045
561.45	51.499
561.79	50.890
562.13	51.509
562.47	52.186
562.81	53.556
563.15	50.836
563.48	51.459
563.82	51.272
564.16	51.079
564.50	49.089
564.84	51.201
565.17	50.129
565.51	51.054
565.85	51.015
566.19	50.157
566.52	50.728
566.86	50.573
567.20	50.472
567.54	49.315
567.88	48.561
568.21	49.630
568.55	47.674
568.89	48.541
569.23	47.772
569.56	46.194
569.90	45.962
570.24	46.430
570.57	45.325
570.91	44.893
571.25	43.360
571.59	44.654
571.92	44.326
572.26	44.570
572.60	44.805
572.93	43.778
573.27	44.277
573.61	44.082
573.95	43.773
574.28	43.317
574.62	43.222
574.96	42.843
575.29	43.283
575.63	43.089
575.97	42.775
576.30	43.096
576.64	42.785
576.98	42.708
577.31	42.375
577.65	42.258
577.98	42.300
578.32	41.660
578.66	42.075
578.99	42.456
579.33	42.314
579.67	42.009
580.00	42.532
580.34	43.237
580.67	42.590
581.01	42.478
581.35	42.422
581.68	41.771
582.02	40.931
582.35	41.537
582.69	41.823
583.02	42.080
583.36	42.218
583.70	42.782
584.03	42.607
584.37	43.057
584.70	42.764
585.04	42.319
585.37	42.498
585.71	42.199
586.04	42.377
586.38	42.320
586.72	43.220
587.05	41.429
587.39	41.847
587.72	41.639
588.06	41.969
588.39	42.579
588.73	42.329
589.06	42.537
589.40	43.232
589.73	43.365
590.07	43.808
590.40	43.917
590.73	43.833
591.07	44.241
591.40	43.779
591.74	44.935
592.07	44.328
592.41	43.613
592.74	42.884
593.08	41.639
593.41	41.632
593.75	40.600
594.08	41.971
594.41	42.524
594.75	42.292
595.08	41.696
595.42	42.347
595.75	42.272
596.09	42.471
596.42	42.947
596.75	43.394
597.09	43.117
597.42	41.990
597.75	42.863
598.09	42.826
598.42	42.483
598.76	42.278
599.09	41.049
599.42	41.012
599.76	41.325
600.09	40.947
600.42	41.015
600.76	40.750
601.09	40.874
601.42	42.314
601.76	41.556
602.09	41.621
602.42	41.799
602.76	43.128
603.09	41.188
603.42	42.327
603.76	41.197
604.09	40.287
604.42	41.704
604.76	42.725
605.09	40.891
605.42	41.770
605.75	41.308
606.09	41.602
606.42	40.866
606.75	40.813
607.09	41.147
607.42	42.148
607.75	39.662
608.08	41.033
608.42	42.134
608.75	41.434
609.08	41.166
609.41	42.599
609.75	41.829
610.08	40.999
610.41	42.132
610.74	41.485
611.07	41.897
611.41	41.462
611.74	42.132
612.07	42.133
612.40	41.973
612.73	41.053
613.07	43.050
613.40	41.180
613.73	40.692
614.06	41.935
614.39	41.217
614.72	41.737
615.06	40.599
615.39	41.879
615.72	40.746
616.05	41.467
616.38	41.968
616.71	42.696
617.05	43.227
617.38	42.153
617.71	42.943
618.04	43.329
618.37	41.455
618.70	42.004
619.03	42.105
619.36	43.449
619.69	43.521
620.03	43.201
620.36	43.717
620.69	43.288
621.02	43.805
621.35	43.461
621.68	42.212
622.01	43.885
622.34	43.570
622.67	43.194
623.00	42.920
623.33	41.887
623.66	40.672
623.99	42.489
624.32	41.726
624.65	41.737
624.99	42.351
625.32	42.505
625.65	42.224
625.98	43.198
626.31	43.468
626.64	44.327
626.97	44.140
627.30	42.976
627.63	43.888
627.96	43.314
628.29	44.444
628.62	43.184
628.95	46.321
629.28	43.066
629.61	46.288
629.94	45.238
630.26	44.233
630.59	43.470
