SpectraSuite Data File
++++++++++++++++++++++++++++++++++++
Date: Wed May 13 19:50:38 PDT 2015
User: schluterlab
Dark Spectrum Present: Yes
Reference Spectrum Present: Yes
Number of Sampled Component Spectra: 1
Spectrometers: USB2E3373
Integration Time (usec): 3000 (USB2E3373)
Spectra Averaged: 3 (USB2E3373)
Boxcar Smoothing: 0 (USB2E3373)
Correct for Electrical Dark: No (USB2E3373)
Strobe/Lamp Enabled: No (USB2E3373)
Correct for Detector Non-linearity: No (USB2E3373)
Correct for Stray Light: No (USB2E3373)
Number of Pixels in Processed Spectrum: 2048
>>>>>Begin Processed Spectral Data<<<<<
178.53	0.000
178.91	-1350.000
179.29	-1375.000
179.67	-244.444
180.04	-1300.000
180.42	2650.000
180.80	1140.000
181.18	-1175.000
181.56	800.000
181.94	0.000
182.31	-857.143
182.69	1766.667
183.07	-587.500
183.45	-533.333
183.83	481.818
184.20	-440.000
184.58	2650.000
184.96	5300.000
185.34	-1000.000
185.72	-637.500
186.09	-2650.000
186.47	2900.000
186.85	2500.000
187.23	4700.000
187.61	-1933.333
187.98	1525.000
188.36	536.364
188.74	590.909
189.12	-780.000
189.49	660.000
189.87	-5200.000
190.25	-1325.000
190.63	357.143
191.00	476.923
191.38	966.667
191.76	-1200.000
192.14	1475.000
192.51	750.000
192.89	983.333
193.27	662.500
193.65	-1450.000
194.02	520.000
194.40	1040.000
194.78	530.000
195.15	491.667
195.53	620.000
195.91	-2200.000
196.29	381.250
196.66	289.474
197.04	-480.000
197.42	0.000
197.79	600.000
198.17	-5200.000
198.55	671.429
198.92	662.500
199.30	1100.000
199.68	0.000
200.05	372.222
200.43	828.571
200.81	5400.000
201.18	1666.667
201.56	-1900.000
201.94	600.000
202.31	677.778
202.69	500.000
203.07	550.000
203.44	0.000
203.82	1400.000
204.19	842.857
204.57	478.571
204.95	662.500
205.32	1766.667
205.70	581.818
206.08	400.000
206.45	2900.000
206.83	412.500
207.20	983.333
207.58	780.000
207.96	333.333
208.33	750.000
208.71	-933.333
209.08	814.286
209.46	600.000
209.84	490.909
210.21	-1733.333
210.59	1475.000
210.96	-525.000
211.34	2700.000
211.71	540.000
212.09	783.333
212.46	0.000
212.84	2000.000
213.22	1400.000
213.59	-5300.000
213.97	900.000
214.34	828.571
214.72	554.545
215.09	1260.000
215.47	-1850.000
215.84	-2400.000
216.22	1866.667
216.59	392.857
216.97	1350.000
217.34	527.273
217.72	-883.333
218.09	0.000
218.47	-5000.000
218.84	711.111
219.22	785.714
219.59	2000.000
219.97	-657.143
220.34	980.000
220.72	-1800.000
221.09	435.714
221.47	1300.000
221.84	-1016.667
222.22	0.000
222.59	1400.000
222.97	-2500.000
223.34	1200.000
223.72	400.000
224.09	1040.000
224.46	2700.000
224.84	-4900.000
225.21	-960.000
225.59	-5200.000
225.96	600.000
226.34	310.000
226.71	3350.000
227.08	600.000
227.46	550.000
227.83	-1125.000
228.21	-2300.000
228.58	677.778
228.95	-2650.000
229.33	-2400.000
229.70	1466.667
230.08	800.000
230.45	-1080.000
230.82	508.333
231.20	950.000
231.57	600.000
231.95	458.333
232.32	254.545
232.69	445.455
233.07	657.143
233.44	415.385
233.81	-1633.333
234.19	315.789
234.56	508.333
234.93	400.000
235.31	445.455
235.68	353.846
236.05	350.000
236.43	193.939
236.80	263.158
237.17	5300.000
237.55	219.048
237.92	242.857
238.29	276.190
238.67	161.290
239.04	203.448
239.41	172.222
239.79	113.043
240.16	159.524
240.53	143.182
240.91	100.000
241.28	120.000
241.65	104.000
242.02	111.594
242.40	104.839
242.77	93.333
243.14	83.871
243.51	79.775
243.89	65.882
244.26	75.556
244.63	79.570
245.00	68.085
245.38	71.287
245.75	66.355
246.12	58.716
246.49	56.204
246.87	66.400
247.24	53.846
247.61	60.714
247.98	52.941
248.36	50.000
248.73	50.955
249.10	46.497
249.47	45.763
249.84	48.128
250.22	49.198
250.59	48.521
250.96	44.949
251.33	47.867
251.70	46.040
252.08	41.429
252.45	41.704
252.82	37.826
253.19	45.957
253.56	43.529
253.94	42.324
254.31	37.500
254.68	44.231
255.05	39.114
255.42	41.057
255.79	39.706
256.16	38.989
256.54	33.922
256.91	36.655
257.28	29.137
257.65	35.314
258.02	40.062
258.39	34.700
258.76	34.783
259.14	36.012
259.51	34.650
259.88	30.745
260.25	37.160
260.62	34.393
260.99	35.093
261.36	34.835
261.73	32.378
262.10	33.140
262.47	33.239
262.85	33.983
263.22	29.060
263.59	36.182
263.96	31.593
264.33	35.509
264.70	30.789
265.07	31.202
265.44	29.545
265.81	27.494
266.18	30.402
266.55	32.195
266.92	30.467
267.29	31.944
267.66	29.817
268.03	30.000
268.40	27.103
268.77	29.833
269.14	30.180
269.51	30.248
269.88	32.168
270.25	30.248
270.62	28.539
270.99	31.613
271.36	28.112
271.73	25.701
272.10	26.957
272.47	32.043
272.84	29.221
273.21	28.092
273.58	27.074
273.95	28.512
274.32	26.240
274.69	26.767
275.06	26.181
275.43	28.511
275.80	28.858
276.17	29.532
276.54	28.274
276.91	27.668
277.28	27.734
277.65	29.594
278.02	28.986
278.39	28.516
278.76	29.091
279.13	28.679
279.50	28.492
279.87	25.896
280.23	27.345
280.60	26.306
280.97	24.584
281.34	28.850
281.71	27.091
282.08	25.720
282.45	25.818
282.82	24.156
283.19	26.560
283.56	27.193
283.92	26.227
284.29	26.455
284.66	24.138
285.03	22.423
285.40	26.761
285.77	26.263
286.14	23.834
286.51	25.500
286.87	23.590
287.24	25.570
287.61	23.274
287.98	25.487
288.35	22.821
288.72	21.807
289.08	22.222
289.45	25.206
289.82	22.602
290.19	21.193
290.56	21.133
290.93	20.997
291.29	22.699
291.66	22.124
292.03	24.709
292.40	24.082
292.77	22.633
293.13	24.030
293.50	22.157
293.87	21.778
294.24	21.630
294.60	19.796
294.97	20.349
295.34	23.977
295.71	21.023
296.08	21.083
296.44	20.220
296.81	20.740
297.18	20.461
297.55	17.942
297.91	19.789
298.28	21.017
298.65	21.671
299.02	19.368
299.38	21.248
299.75	19.003
300.12	17.880
300.48	19.625
300.85	18.496
301.22	20.637
301.59	19.192
301.95	18.766
302.32	18.100
302.69	18.757
303.05	17.818
303.42	18.519
303.79	18.007
304.15	17.949
304.52	17.613
304.89	17.189
305.25	17.865
305.62	18.573
305.99	19.599
306.35	18.233
306.72	18.498
307.09	18.202
307.45	17.568
307.82	17.634
308.19	17.329
308.55	18.339
308.92	17.508
309.29	16.156
309.65	18.028
310.02	17.865
310.38	17.634
310.75	16.790
311.12	17.400
311.48	17.973
311.85	17.296
312.22	17.794
312.58	16.008
312.95	17.846
313.31	17.087
313.68	16.528
314.05	17.949
314.41	16.683
314.78	17.623
315.14	18.669
315.51	17.199
315.87	16.634
316.24	18.173
316.61	16.667
316.97	16.438
317.34	15.558
317.70	17.878
318.07	16.651
318.43	16.634
318.80	17.526
319.16	16.667
319.53	16.323
319.89	17.048
320.26	18.200
320.62	17.758
320.99	17.374
321.35	17.879
321.72	17.248
322.08	17.177
322.45	17.214
322.81	17.829
323.18	18.401
323.54	17.904
323.91	18.302
324.27	17.400
324.64	17.148
325.00	17.493
325.37	18.380
325.73	18.402
326.10	17.034
326.46	15.950
326.83	17.343
327.19	16.823
327.56	16.202
327.92	16.623
328.29	18.012
328.65	18.692
329.01	16.155
329.38	17.299
329.74	15.235
330.11	17.248
330.47	16.804
330.84	18.842
331.20	17.031
331.56	17.339
331.93	16.759
332.29	17.746
332.66	18.142
333.02	17.185
333.38	17.977
333.75	17.201
334.11	18.060
334.48	18.545
334.84	17.555
335.20	16.364
335.57	16.682
335.93	16.161
336.29	16.850
336.66	16.862
337.02	15.475
337.38	17.130
337.75	17.291
338.11	15.846
338.47	16.022
338.84	17.232
339.20	16.147
339.56	17.974
339.93	16.091
340.29	16.667
340.65	15.775
341.02	17.627
341.38	16.637
341.74	16.316
342.11	15.197
342.47	15.947
342.83	16.182
343.20	16.450
343.56	16.428
343.92	15.965
344.28	16.922
344.65	17.111
345.01	16.835
345.37	14.751
345.73	15.905
346.10	15.516
346.46	16.102
346.82	15.898
347.19	15.205
347.55	15.846
347.91	16.828
348.27	17.749
348.63	15.803
349.00	15.453
349.36	15.435
349.72	16.439
350.08	14.992
350.45	15.053
350.81	15.678
351.17	14.830
351.53	15.397
351.89	14.521
352.26	15.312
352.62	15.718
352.98	15.640
353.34	15.366
353.70	15.139
354.07	15.565
354.43	15.635
354.79	14.964
355.15	14.286
355.51	16.467
355.87	16.000
356.24	16.042
356.60	15.638
356.96	14.883
357.32	15.209
357.68	15.197
358.04	15.360
358.40	15.994
358.77	15.415
359.13	14.680
359.49	15.451
359.85	13.889
360.21	15.391
360.57	15.875
360.93	15.077
361.29	13.681
361.66	14.861
362.02	14.925
362.38	14.829
362.74	14.658
363.10	15.026
363.46	14.527
363.82	14.966
364.18	14.391
364.54	15.527
364.90	15.510
365.26	13.529
365.62	13.879
365.98	13.952
366.35	13.467
366.71	14.461
367.07	13.984
367.43	15.022
367.79	14.704
368.15	15.445
368.51	13.735
368.87	15.203
369.23	14.923
369.59	14.555
369.95	13.382
370.31	14.886
370.67	13.841
371.03	14.757
371.39	14.213
371.75	14.632
372.11	13.869
372.47	14.883
372.83	14.697
373.19	15.318
373.55	15.299
373.91	14.875
374.27	14.364
374.63	13.382
374.99	14.054
375.35	14.236
375.71	13.571
376.07	14.403
376.42	13.480
376.78	15.242
377.14	13.636
377.50	13.974
377.86	13.697
378.22	14.539
378.58	13.158
378.94	14.142
379.30	13.168
379.66	13.452
380.02	13.882
380.38	13.479
380.74	13.685
381.09	12.958
381.45	13.829
381.81	13.943
382.17	13.822
382.53	13.082
382.89	14.383
383.25	13.508
383.61	13.259
383.97	14.071
384.32	12.789
384.68	13.197
385.04	13.460
385.40	12.446
385.76	13.206
386.12	12.953
386.48	13.593
386.83	13.470
387.19	14.471
387.55	13.853
387.91	13.362
388.27	12.998
388.62	13.583
388.98	13.452
389.34	14.143
389.70	13.673
390.06	14.005
390.42	13.748
390.77	13.995
391.13	13.338
391.49	13.769
391.85	13.558
392.20	12.114
392.56	13.636
392.92	13.479
393.28	12.308
393.64	12.710
393.99	12.828
394.35	13.400
394.71	13.300
395.07	12.274
395.42	13.659
395.78	13.550
396.14	13.408
396.50	13.158
396.85	13.287
397.21	13.070
397.57	12.895
397.92	13.281
398.28	12.836
398.64	12.664
399.00	13.151
399.35	12.860
399.71	12.731
400.07	13.483
400.42	13.620
400.78	14.113
401.14	12.683
401.49	13.075
401.85	12.825
402.21	12.156
402.57	12.770
402.92	12.863
403.28	13.054
403.63	13.552
403.99	12.611
404.35	13.273
404.70	12.350
405.06	12.755
405.42	13.163
405.77	12.343
406.13	13.036
406.49	12.774
406.84	13.585
407.20	12.411
407.55	13.338
407.91	14.000
408.27	12.827
408.62	13.245
408.98	13.235
409.34	13.223
409.69	12.710
410.05	12.639
410.40	13.028
410.76	12.605
411.11	13.390
411.47	14.058
411.83	13.378
412.18	12.801
412.54	13.138
412.89	13.012
413.25	12.987
413.60	12.909
413.96	13.783
414.31	12.515
414.67	13.942
415.03	13.311
415.38	13.273
415.74	13.119
416.09	13.455
416.45	13.253
416.80	14.276
417.16	13.539
417.51	13.603
417.87	13.423
418.22	13.312
418.58	13.622
418.93	13.759
419.29	13.431
419.64	14.106
420.00	12.744
420.35	13.739
420.71	13.389
421.06	13.305
421.42	13.041
421.77	13.453
422.12	11.567
422.48	12.628
422.83	13.454
423.19	12.707
423.54	12.594
423.90	13.913
424.25	13.680
424.61	14.107
424.96	12.536
425.31	13.068
425.67	12.528
426.02	13.543
426.38	14.347
426.73	13.634
427.09	13.191
427.44	13.514
427.79	13.168
428.15	13.869
428.50	12.873
428.85	14.005
429.21	12.921
429.56	12.701
429.92	12.884
430.27	13.257
430.62	12.698
430.98	12.870
431.33	12.526
431.68	13.717
432.04	12.939
432.39	12.907
432.74	13.824
433.10	13.639
433.45	12.886
433.80	13.415
434.16	13.782
434.51	13.211
434.86	12.543
435.22	12.952
435.57	12.888
435.92	12.932
436.28	13.464
436.63	14.128
436.98	13.394
437.34	14.073
437.69	14.002
438.04	13.266
438.39	13.015
438.75	13.422
439.10	13.296
439.45	13.636
439.81	13.595
440.16	13.043
440.51	13.181
440.86	13.839
441.22	12.458
441.57	13.057
441.92	12.743
442.27	13.402
442.63	12.849
442.98	13.859
443.33	13.587
443.68	12.545
444.03	12.836
444.39	12.220
444.74	12.716
445.09	13.315
445.44	13.395
445.79	13.706
446.15	13.499
446.50	13.032
446.85	13.464
447.20	12.647
447.55	12.786
447.91	13.017
448.26	13.244
448.61	12.832
448.96	13.178
449.31	13.330
449.66	13.506
450.02	12.368
450.37	13.209
450.72	13.706
451.07	12.675
451.42	12.948
451.77	13.917
452.12	14.319
452.47	13.308
452.83	12.704
453.18	13.325
453.53	14.409
453.88	11.813
454.23	13.927
454.58	14.294
454.93	14.240
455.28	12.531
455.63	13.471
455.98	14.345
456.34	13.568
456.69	12.774
457.04	13.684
457.39	12.916
457.74	13.813
458.09	13.456
458.44	13.512
458.79	12.256
459.14	13.488
459.49	13.368
459.84	13.463
460.19	13.141
460.54	13.484
460.89	13.275
461.24	13.540
461.59	14.991
461.94	12.885
462.29	14.125
462.64	13.657
462.99	13.598
463.34	14.067
463.69	13.634
464.04	13.855
464.39	14.029
464.74	14.379
465.09	13.088
465.44	12.964
465.79	13.031
466.14	13.848
466.49	13.293
466.84	13.952
467.19	14.182
467.54	14.312
467.89	14.346
468.24	13.613
468.59	15.263
468.94	13.561
469.29	13.946
469.64	14.458
469.99	13.938
470.34	13.210
470.68	13.290
471.03	14.218
471.38	14.871
471.73	14.191
472.08	14.605
472.43	14.322
472.78	14.615
473.13	14.698
473.48	13.733
473.83	13.537
474.17	13.628
474.52	12.841
474.87	14.127
475.22	13.349
475.57	12.466
475.92	13.648
476.27	14.205
476.61	13.514
476.96	12.919
477.31	13.605
477.66	13.731
478.01	13.591
478.36	13.221
478.70	12.669
479.05	12.993
479.40	13.306
479.75	13.777
480.10	13.270
480.45	12.803
480.79	12.566
481.14	13.258
481.49	13.004
481.84	13.397
482.19	13.176
482.53	13.440
482.88	12.936
483.23	13.178
483.58	13.239
483.92	13.027
484.27	12.505
484.62	12.845
484.97	12.377
485.31	12.260
485.66	11.160
486.01	10.999
486.36	10.635
486.70	10.487
487.05	11.141
487.40	11.491
487.75	11.665
488.09	11.738
488.44	11.308
488.79	12.514
489.13	12.338
489.48	12.439
489.83	12.344
490.17	12.714
490.52	13.286
490.87	12.709
491.22	12.779
491.56	12.574
491.91	12.657
492.26	12.632
492.60	13.226
492.95	12.442
493.30	12.617
493.64	12.646
493.99	12.210
494.34	13.136
494.68	13.599
495.03	13.628
495.37	12.704
495.72	12.768
496.07	12.436
496.41	12.301
496.76	12.797
497.11	12.472
497.45	13.321
497.80	13.292
498.14	12.850
498.49	12.537
498.84	13.039
499.18	12.905
499.53	12.821
499.87	13.281
500.22	13.048
500.56	13.350
500.91	12.885
501.26	12.802
501.60	13.479
501.95	13.061
502.29	13.261
502.64	13.547
502.98	13.090
503.33	13.528
503.67	12.854
504.02	12.909
504.36	12.869
504.71	13.288
505.06	13.590
505.40	12.251
505.75	12.874
506.09	12.974
506.44	13.468
506.78	13.882
507.13	13.327
507.47	13.535
507.82	13.830
508.16	13.779
508.51	14.105
508.85	13.307
509.19	13.571
509.54	13.469
509.88	13.138
510.23	13.316
510.57	13.983
510.92	13.568
511.26	13.361
511.61	14.471
511.95	12.944
512.30	13.150
512.64	13.864
512.98	13.505
513.33	14.240
513.67	13.180
514.02	13.474
514.36	13.381
514.70	14.444
515.05	13.051
515.39	13.404
515.74	14.020
516.08	14.142
516.42	13.430
516.77	14.827
517.11	13.762
517.46	14.786
517.80	13.473
518.14	13.376
518.49	13.536
518.83	14.091
519.17	14.030
519.52	14.205
519.86	14.147
520.20	13.815
520.55	14.782
520.89	14.599
521.23	14.294
521.58	13.806
521.92	14.452
522.26	14.338
522.61	14.019
522.95	13.996
523.29	14.486
523.64	14.939
523.98	14.171
524.32	14.777
524.66	13.891
525.01	14.338
525.35	14.002
525.69	13.916
526.04	14.766
526.38	14.033
526.72	14.110
527.06	14.438
527.41	13.738
527.75	14.212
528.09	15.093
528.43	14.659
528.78	14.505
529.12	15.333
529.46	14.268
529.80	14.418
530.15	14.891
530.49	13.846
530.83	15.000
531.17	15.209
531.51	15.564
531.86	14.323
532.20	15.776
532.54	14.542
532.88	14.763
533.22	14.179
533.57	13.951
533.91	14.389
534.25	14.034
534.59	14.582
534.93	14.218
535.27	13.156
535.62	14.225
535.96	15.066
536.30	13.795
536.64	14.874
536.98	15.859
537.32	14.878
537.66	14.600
538.01	15.142
538.35	15.061
538.69	15.444
539.03	14.490
539.37	13.291
539.71	14.258
540.05	14.837
540.39	14.485
540.73	14.618
541.07	14.990
541.42	14.351
541.76	15.161
542.10	15.265
542.44	13.841
542.78	15.283
543.12	14.907
543.46	14.230
543.80	15.224
544.14	14.185
544.48	14.794
544.82	14.368
545.16	13.923
545.50	14.910
545.84	14.247
546.18	14.545
546.52	14.591
546.86	14.502
547.20	14.430
547.54	14.562
547.88	15.370
548.22	15.068
548.56	15.094
548.90	14.149
549.24	14.747
549.58	14.802
549.92	14.904
550.26	15.270
550.60	14.315
550.94	15.352
551.28	14.704
551.62	14.953
551.96	15.228
552.30	15.358
552.64	14.943
552.98	15.864
553.32	14.228
553.66	15.406
554.00	15.305
554.34	14.769
554.68	15.808
555.02	14.669
555.36	15.101
555.69	14.547
556.03	14.132
556.37	13.847
556.71	14.325
557.05	15.336
557.39	14.836
557.73	14.608
558.07	15.591
558.41	14.255
558.75	15.797
559.08	15.138
559.42	14.890
559.76	15.221
560.10	14.418
560.44	15.304
560.78	14.039
561.12	15.106
561.45	15.450
561.79	14.436
562.13	15.023
562.47	15.164
562.81	15.272
563.15	14.849
563.48	14.523
563.82	14.351
564.16	13.538
564.50	13.932
564.84	15.044
565.17	14.093
565.51	14.058
565.85	14.530
566.19	14.277
566.52	14.376
566.86	13.623
567.20	14.446
567.54	13.813
567.88	13.362
568.21	14.444
568.55	13.448
568.89	13.521
569.23	12.834
569.56	13.077
569.90	12.981
570.24	12.487
570.57	12.921
570.91	11.991
571.25	11.983
571.59	11.959
571.92	12.039
572.26	12.161
572.60	12.012
572.93	11.724
573.27	12.215
573.61	11.697
573.95	11.835
574.28	11.583
574.62	11.200
574.96	11.446
575.29	11.445
575.63	11.280
575.97	11.559
576.30	11.551
576.64	11.398
576.98	11.424
577.31	11.391
577.65	11.183
577.98	11.339
578.32	11.060
578.66	11.195
578.99	11.527
579.33	11.305
579.67	11.530
580.00	11.412
580.34	11.652
580.67	10.754
581.01	11.671
581.35	11.454
581.68	11.159
582.02	10.897
582.35	10.633
582.69	11.446
583.02	11.006
583.36	11.644
583.70	11.089
584.03	11.207
584.37	11.989
584.70	11.285
585.04	11.522
585.37	11.533
585.71	11.607
586.04	11.597
586.38	11.233
586.72	11.930
587.05	11.437
587.39	11.214
587.72	11.698
588.06	11.393
588.39	11.852
588.73	11.440
589.06	12.340
589.40	12.357
589.73	11.827
590.07	12.064
590.40	11.911
590.73	12.139
591.07	13.228
591.40	12.779
591.74	13.247
592.07	12.827
592.41	13.105
592.74	12.547
593.08	12.525
593.41	12.211
593.75	11.024
594.08	12.135
594.41	11.877
594.75	12.237
595.08	12.527
595.42	12.820
595.75	12.358
596.09	12.955
596.42	12.692
596.75	12.875
597.09	13.333
597.42	12.437
597.75	12.592
598.09	12.478
598.42	12.672
598.76	12.404
599.09	11.897
599.42	12.336
599.76	12.408
600.09	12.204
600.42	11.870
600.76	12.250
601.09	12.240
601.42	12.329
601.76	11.954
602.09	12.016
602.42	12.381
602.76	12.858
603.09	12.667
603.42	12.339
603.76	12.081
604.09	11.788
604.42	12.841
604.76	13.032
605.09	12.975
605.42	12.356
605.75	12.417
606.09	12.037
606.42	12.423
606.75	11.987
607.09	12.934
607.42	12.709
607.75	12.152
608.08	12.158
608.42	12.595
608.75	12.534
609.08	12.673
609.41	12.613
609.75	13.149
610.08	12.912
610.41	12.663
610.74	12.630
611.07	13.488
611.41	12.758
611.74	13.072
612.07	13.509
612.40	14.008
612.73	12.895
613.07	13.955
613.40	12.954
613.73	12.743
614.06	13.118
614.39	13.162
614.72	13.211
615.06	13.813
615.39	12.792
615.72	13.037
616.05	12.600
616.38	13.230
616.71	13.658
617.05	13.663
617.38	13.650
617.71	13.213
618.04	14.123
618.37	13.601
618.70	13.752
619.03	14.803
619.36	13.849
619.69	14.648
620.03	14.904
620.36	14.973
620.69	14.863
621.02	14.897
621.35	13.626
621.68	14.564
622.01	15.015
622.34	15.204
622.67	14.601
623.00	13.866
623.33	14.582
623.66	15.368
623.99	15.022
624.32	15.050
624.65	14.407
624.99	13.810
625.32	13.831
625.65	14.050
625.98	14.220
626.31	15.319
626.64	15.265
626.97	15.378
627.30	14.464
627.63	15.669
627.96	16.064
628.29	15.398
628.62	15.737
628.95	17.547
629.28	15.876
629.61	15.490
629.94	16.571
630.26	15.539
630.59	16.015
