SpectraSuite Data File
++++++++++++++++++++++++++++++++++++
Date: Wed May 13 19:38:30 PDT 2015
User: schluterlab
Dark Spectrum Present: Yes
Reference Spectrum Present: Yes
Number of Sampled Component Spectra: 1
Spectrometers: USB2E3373
Integration Time (usec): 3000 (USB2E3373)
Spectra Averaged: 3 (USB2E3373)
Boxcar Smoothing: 0 (USB2E3373)
Correct for Electrical Dark: No (USB2E3373)
Strobe/Lamp Enabled: No (USB2E3373)
Correct for Detector Non-linearity: No (USB2E3373)
Correct for Stray Light: No (USB2E3373)
Number of Pixels in Processed Spectrum: 2048
>>>>>Begin Processed Spectral Data<<<<<
178.53	0.000
178.91	-1500.000
179.29	-1475.000
179.67	-277.778
180.04	-1575.000
180.42	3150.000
180.80	1220.000
181.18	-1200.000
181.56	742.857
181.94	0.000
182.31	-700.000
182.69	2066.667
183.07	-650.000
183.45	-622.222
183.83	572.727
184.20	-490.000
184.58	2800.000
184.96	5400.000
185.34	-980.000
185.72	-550.000
186.09	-2800.000
186.47	3100.000
186.85	2650.000
187.23	5500.000
187.61	-2166.667
187.98	1350.000
188.36	654.545
188.74	600.000
189.12	-1100.000
189.49	560.000
189.87	-5100.000
190.25	-1200.000
190.63	428.571
191.00	561.538
191.38	950.000
191.76	-1175.000
192.14	1400.000
192.51	812.500
192.89	950.000
193.27	650.000
193.65	-1200.000
194.02	520.000
194.40	1000.000
194.78	580.000
195.15	550.000
195.53	740.000
195.91	-2100.000
196.29	387.500
196.66	326.316
197.04	-420.000
197.42	0.000
197.79	660.000
198.17	-6000.000
198.55	700.000
198.92	737.500
199.30	1120.000
199.68	0.000
200.05	316.667
200.43	857.143
200.81	4500.000
201.18	1933.333
201.56	-1766.667
201.94	555.556
202.31	733.333
202.69	466.667
203.07	530.000
203.44	0.000
203.82	1375.000
204.19	928.571
204.57	442.857
204.95	587.500
205.32	1600.000
205.70	590.909
206.08	428.571
206.45	2650.000
206.83	406.250
207.20	1000.000
207.58	720.000
207.96	361.111
208.33	775.000
208.71	-883.333
209.08	871.429
209.46	633.333
209.84	509.091
210.21	-1933.333
210.59	1400.000
210.96	-700.000
211.34	2400.000
211.71	700.000
212.09	650.000
212.46	0.000
212.84	1900.000
213.22	1575.000
213.59	-5400.000
213.97	1050.000
214.34	914.286
214.72	609.091
215.09	1120.000
215.47	-2600.000
215.84	-2700.000
216.22	1933.333
216.59	414.286
216.97	1325.000
217.34	427.273
217.72	-850.000
218.09	0.000
218.47	-5100.000
218.84	700.000
219.22	728.571
219.59	1800.000
219.97	-728.571
220.34	1200.000
220.72	-1966.667
221.09	421.429
221.47	1250.000
221.84	-1083.333
222.22	0.000
222.59	1400.000
222.97	-2950.000
223.34	1180.000
223.72	492.308
224.09	1040.000
224.46	2550.000
224.84	-5300.000
225.21	-1260.000
225.59	-5200.000
225.96	520.000
226.34	350.000
226.71	2750.000
227.08	725.000
227.46	630.000
227.83	-1175.000
228.21	-2450.000
228.58	700.000
228.95	-2150.000
229.33	-2250.000
229.70	1966.667
230.08	900.000
230.45	-900.000
230.82	441.667
231.20	733.333
231.57	828.571
231.95	458.333
232.32	218.182
232.69	400.000
233.07	842.857
233.44	400.000
233.81	-1633.333
234.19	315.789
234.56	566.667
234.93	383.333
235.31	454.545
235.68	346.154
236.05	321.429
236.43	184.848
236.80	247.368
237.17	4800.000
237.55	190.476
237.92	225.000
238.29	200.000
238.67	177.419
239.04	158.621
239.41	150.000
239.79	117.391
240.16	152.381
240.53	127.273
240.91	90.196
241.28	90.000
241.65	88.000
242.02	95.652
242.40	87.097
242.77	91.667
243.14	70.968
243.51	77.528
243.89	62.353
244.26	62.222
244.63	65.591
245.00	57.447
245.38	53.465
245.75	48.598
246.12	47.706
246.49	45.985
246.87	45.600
247.24	51.538
247.61	41.429
247.98	36.601
248.36	33.784
248.73	33.758
249.10	42.038
249.47	33.898
249.84	35.294
250.22	32.086
250.59	34.911
250.96	31.313
251.33	31.280
251.70	29.208
252.08	31.429
252.45	26.009
252.82	25.652
253.19	26.809
253.56	23.922
253.94	29.046
254.31	25.781
254.68	25.000
255.05	23.247
255.42	21.951
255.79	24.265
256.16	23.827
256.54	18.021
256.91	21.708
257.28	20.144
257.65	23.432
258.02	19.876
258.39	18.297
258.76	19.398
259.14	19.940
259.51	17.325
259.88	15.839
260.25	20.846
260.62	17.630
260.99	17.391
261.36	18.919
261.73	20.057
262.10	16.860
262.47	19.155
262.85	17.549
263.22	15.100
263.59	19.943
263.96	16.209
264.33	19.843
264.70	17.895
265.07	18.159
265.44	14.646
265.81	12.165
266.18	16.834
266.55	14.146
266.92	14.742
267.29	15.278
267.66	13.991
268.03	16.136
268.40	15.421
268.77	13.842
269.14	13.739
269.51	17.156
269.88	14.685
270.25	13.318
270.62	15.506
270.99	16.774
271.36	13.519
271.73	12.383
272.10	12.826
272.47	15.914
272.84	15.368
273.21	15.304
273.58	10.917
273.95	11.530
274.32	13.017
274.69	16.274
275.06	10.433
275.43	14.681
275.80	11.423
276.17	11.609
276.54	13.721
276.91	13.636
277.28	13.281
277.65	12.766
278.02	11.594
278.39	11.914
278.76	14.364
279.13	12.453
279.50	13.035
279.87	12.351
280.23	11.776
280.60	10.832
280.97	11.460
281.34	12.920
281.71	12.909
282.08	12.284
282.45	10.727
282.82	13.499
283.19	8.734
283.56	12.105
283.92	12.183
284.29	12.346
284.66	10.345
285.03	9.222
285.40	8.803
285.77	12.458
286.14	10.190
286.51	10.500
286.87	11.453
287.24	11.401
287.61	9.952
287.98	11.039
288.35	9.509
288.72	9.969
289.08	11.894
289.45	9.390
289.82	10.407
290.19	9.733
290.56	10.567
290.93	9.366
291.29	9.663
291.66	10.767
292.03	11.773
292.40	11.013
292.77	10.799
293.13	10.149
293.50	10.058
293.87	10.074
294.24	9.333
294.60	8.588
294.97	10.901
295.34	12.412
295.71	10.511
296.08	10.684
296.44	9.078
296.81	9.511
297.18	11.382
297.55	8.839
297.91	8.179
298.28	9.906
298.65	11.227
299.02	10.277
299.38	9.163
299.75	8.491
300.12	8.429
300.48	9.500
300.85	9.988
301.22	9.172
301.59	9.343
301.95	8.942
302.32	9.628
302.69	10.872
303.05	8.970
303.42	8.272
303.79	8.834
304.15	8.392
304.52	8.806
304.89	9.292
305.25	10.557
305.62	9.853
305.99	9.445
306.35	9.955
306.72	9.865
307.09	9.212
307.45	10.473
307.82	9.263
308.19	10.155
308.55	9.709
308.92	10.741
309.29	8.659
309.65	8.802
310.02	10.042
310.38	11.290
310.75	8.870
311.12	10.645
311.48	10.658
311.85	10.168
312.22	9.781
312.58	8.524
312.95	11.721
313.31	8.835
313.68	8.420
314.05	11.440
314.41	9.447
314.78	9.366
315.14	10.129
315.51	8.960
315.87	10.594
316.24	10.228
316.61	9.357
316.97	8.611
317.34	7.730
317.70	9.656
318.07	9.336
318.43	10.078
318.80	10.122
319.16	9.605
319.53	9.287
319.89	9.714
320.26	9.500
320.62	9.425
320.99	9.495
321.35	9.596
321.72	9.959
322.08	10.760
322.45	10.348
322.81	10.368
323.18	10.212
323.54	10.390
323.91	10.566
324.27	8.987
324.64	9.040
325.00	10.280
325.37	10.009
325.73	10.233
326.10	10.327
326.46	9.140
326.83	10.181
327.19	9.735
327.56	8.362
327.92	9.886
328.29	10.115
328.65	9.208
329.01	9.657
329.38	9.158
329.74	9.141
330.11	9.331
330.47	9.917
330.84	10.018
331.20	9.745
331.56	9.908
331.93	8.704
332.29	9.228
332.66	9.558
333.02	9.963
333.38	10.298
333.75	9.358
334.11	9.164
334.48	8.163
334.84	9.007
335.20	10.455
335.57	9.157
335.93	7.500
336.29	8.883
336.66	9.378
337.02	8.235
337.38	9.907
337.75	8.021
338.11	8.594
338.47	8.379
338.84	9.716
339.20	8.165
339.56	9.489
339.93	9.727
340.29	9.058
340.65	8.645
341.02	9.686
341.38	10.142
341.74	8.596
342.11	9.083
342.47	10.044
342.83	8.562
343.20	9.264
343.56	9.183
343.92	8.947
344.28	9.524
344.65	9.114
345.01	8.923
345.37	8.148
345.73	8.376
346.10	8.184
346.46	9.153
346.82	7.908
347.19	7.853
347.55	7.964
347.91	8.576
348.27	9.039
348.63	8.696
349.00	8.252
349.36	7.800
349.72	8.260
350.08	8.023
350.45	8.218
350.81	7.392
351.17	7.699
351.53	7.617
351.89	7.756
352.26	8.840
352.62	8.019
352.98	8.509
353.34	7.724
353.70	7.856
354.07	7.823
354.43	7.381
354.79	6.677
355.15	7.901
355.51	8.074
355.87	8.571
356.24	8.469
356.60	7.859
356.96	7.804
357.32	7.931
357.68	8.268
358.04	8.551
358.40	8.551
358.77	8.842
359.13	7.103
359.49	7.294
359.85	6.746
360.21	6.699
360.57	8.249
360.93	8.385
361.29	7.559
361.66	6.502
362.02	8.731
362.38	7.985
362.74	7.589
363.10	7.550
363.46	7.483
363.82	7.483
364.18	7.562
364.54	8.544
364.90	8.003
365.26	7.132
365.62	8.327
365.98	6.282
366.35	6.519
366.71	7.086
367.07	7.283
367.43	7.257
367.79	7.852
368.15	9.052
368.51	6.541
368.87	7.709
369.23	7.023
369.59	7.603
369.95	6.471
370.31	7.692
370.67	6.304
371.03	7.640
371.39	7.434
371.75	7.132
372.11	6.970
372.47	8.065
372.83	7.421
373.19	6.720
373.55	7.095
373.91	7.143
374.27	6.529
374.63	6.473
374.99	8.333
375.35	6.909
375.71	7.265
376.07	7.407
376.42	6.465
376.78	7.025
377.14	6.106
377.50	7.086
377.86	6.316
378.22	7.206
378.58	5.576
378.94	6.474
379.30	6.234
379.66	6.409
380.02	6.388
380.38	5.829
380.74	6.783
381.09	6.051
381.45	6.454
381.81	6.634
382.17	6.306
382.53	6.478
382.89	6.790
383.25	6.004
383.61	6.691
383.97	6.316
384.32	6.425
384.68	5.452
385.04	6.515
385.40	6.440
385.76	5.958
386.12	6.347
386.48	6.545
386.83	6.799
387.19	6.926
387.55	5.751
387.91	6.348
388.27	6.315
388.62	6.454
388.98	6.020
389.34	6.696
389.70	5.947
390.06	6.464
390.42	6.161
390.77	7.061
391.13	6.318
391.49	6.662
391.85	5.665
392.20	4.732
392.56	5.997
392.92	5.886
393.28	5.089
393.64	6.055
393.99	5.987
394.35	5.955
394.71	5.960
395.07	4.984
395.42	5.995
395.78	6.552
396.14	6.145
396.50	6.516
396.85	6.039
397.21	5.487
397.57	6.014
397.92	5.228
398.28	4.933
398.64	5.436
399.00	5.596
399.35	5.753
399.71	5.556
400.07	6.091
400.42	5.583
400.78	5.971
401.14	5.305
401.49	5.493
401.85	5.868
402.21	5.090
402.57	5.367
402.92	5.801
403.28	5.184
403.63	5.507
403.99	4.713
404.35	4.727
404.70	5.695
405.06	4.892
405.42	4.928
405.77	4.571
406.13	5.869
406.49	5.086
406.84	5.434
407.20	4.728
407.55	5.616
407.91	5.267
408.27	5.935
408.62	6.020
408.98	5.515
409.34	5.043
409.69	5.677
410.05	5.019
410.40	5.138
410.76	5.078
411.11	5.850
411.47	5.495
411.83	6.109
412.18	4.638
412.54	4.732
412.89	5.120
413.25	4.959
413.60	5.435
413.96	5.525
414.31	5.650
414.67	6.020
415.03	5.828
415.38	5.928
415.74	5.466
416.09	5.879
416.45	5.154
416.80	5.089
417.16	5.295
417.51	5.640
417.87	4.753
418.22	4.984
418.58	5.487
418.93	6.020
419.29	5.347
419.64	5.668
420.00	5.183
420.35	5.739
420.71	5.678
421.06	5.967
421.42	5.263
421.77	5.717
422.12	4.548
422.48	4.425
422.83	5.009
423.19	5.083
423.54	4.527
423.90	5.739
424.25	5.528
424.61	5.357
424.96	4.606
425.31	5.094
425.67	4.494
426.02	5.029
426.38	6.105
426.73	4.974
427.09	5.410
427.44	4.600
427.79	4.658
428.15	6.012
428.50	4.681
428.85	5.066
429.21	4.417
429.56	4.510
429.92	4.580
430.27	4.618
430.62	4.916
430.98	5.138
431.33	5.309
431.68	4.921
432.04	4.526
432.39	4.569
432.74	5.266
433.10	5.263
433.45	4.898
433.80	4.878
434.16	5.021
434.51	5.105
434.86	5.302
435.22	5.058
435.57	5.350
435.92	4.798
436.28	6.228
436.63	5.960
436.98	4.923
437.34	5.069
437.69	5.368
438.04	4.947
438.39	5.254
438.75	5.694
439.10	5.084
439.45	5.136
439.81	5.136
440.16	5.195
440.51	5.331
440.86	5.211
441.22	4.449
441.57	5.096
441.92	5.118
442.27	5.005
442.63	4.687
442.98	5.408
443.33	5.109
443.68	5.059
444.03	4.832
444.39	4.820
444.74	4.924
445.09	4.852
445.44	4.975
445.79	4.651
446.15	5.400
446.50	4.739
446.85	4.728
447.20	5.048
447.55	5.193
447.91	5.074
448.26	5.231
448.61	5.031
448.96	4.707
449.31	5.062
449.66	5.177
450.02	5.014
450.37	4.875
450.72	5.020
451.07	4.875
451.42	4.742
451.77	5.520
452.12	5.312
452.47	5.037
452.83	5.012
453.18	4.890
453.53	5.566
453.88	4.843
454.23	4.662
454.58	5.815
454.93	5.086
455.28	4.489
455.63	5.765
455.98	5.952
456.34	5.339
456.69	5.636
457.04	5.201
457.39	4.968
457.74	4.991
458.09	5.348
458.44	4.903
458.79	4.501
459.14	4.966
459.49	5.020
459.84	5.042
460.19	4.891
460.54	5.440
460.89	4.827
461.24	5.282
461.59	6.217
461.94	4.994
462.29	5.816
462.64	5.041
462.99	5.530
463.34	6.800
463.69	5.441
464.04	6.145
464.39	5.913
464.74	4.991
465.09	5.549
465.44	4.654
465.79	5.145
466.14	4.871
466.49	4.950
466.84	5.312
467.19	6.035
467.54	5.625
467.89	5.402
468.24	5.759
468.59	6.288
468.94	4.948
469.29	4.756
469.64	5.957
469.99	5.548
470.34	5.416
470.68	5.603
471.03	5.714
471.38	4.795
471.73	6.129
472.08	6.513
472.43	5.528
472.78	5.925
473.13	6.354
473.48	5.306
473.83	5.671
474.17	4.667
474.52	5.769
474.87	6.305
475.22	5.456
475.57	5.105
475.92	4.461
476.27	5.299
476.61	5.405
476.96	4.398
477.31	4.448
477.66	5.252
478.01	5.227
478.36	5.764
478.70	4.569
479.05	5.005
479.40	5.322
479.75	4.423
480.10	4.125
480.45	4.902
480.79	4.730
481.14	4.990
481.49	4.936
481.84	4.252
482.19	4.952
482.53	4.220
482.88	4.700
483.23	4.626
483.58	4.732
483.92	4.920
484.27	4.444
484.62	4.397
484.97	4.060
485.31	3.904
485.66	3.564
486.01	2.800
486.36	2.965
486.70	3.001
487.05	3.360
487.40	3.115
487.75	3.368
488.09	3.761
488.44	3.569
488.79	4.051
489.13	4.011
489.48	3.997
489.83	3.971
490.17	4.296
490.52	4.562
490.87	4.885
491.22	4.638
491.56	4.100
491.91	4.560
492.26	4.456
492.60	4.885
492.95	4.022
493.30	4.393
493.64	4.713
493.99	4.410
494.34	4.255
494.68	4.670
495.03	4.981
495.37	4.514
495.72	4.240
496.07	4.408
496.41	4.336
496.76	4.222
497.11	4.773
497.45	4.238
497.80	4.894
498.14	3.816
498.49	4.293
498.84	4.938
499.18	4.476
499.53	4.843
499.87	4.427
500.22	5.087
500.56	5.291
500.91	4.087
501.26	4.457
501.60	5.173
501.95	4.583
502.29	4.592
502.64	4.376
502.98	4.348
503.33	4.388
503.67	4.687
504.02	4.958
504.36	5.194
504.71	4.787
505.06	4.964
505.40	4.618
505.75	4.436
506.09	4.713
506.44	4.983
506.78	4.968
507.13	4.089
507.47	5.101
507.82	5.015
508.16	5.066
508.51	4.617
508.85	4.767
509.19	4.541
509.54	5.255
509.88	4.791
510.23	4.062
510.57	5.779
510.92	5.230
511.26	5.293
511.61	5.031
511.95	4.906
512.30	4.295
512.64	5.159
512.98	5.198
513.33	5.246
513.67	5.069
514.02	4.600
514.36	5.025
514.70	5.589
515.05	4.573
515.39	5.721
515.74	5.180
516.08	5.869
516.42	5.605
516.77	5.853
517.11	4.440
517.46	5.418
517.80	5.285
518.14	4.748
518.49	5.718
518.83	4.943
519.17	5.485
519.52	5.716
519.86	5.762
520.20	6.243
520.55	6.164
520.89	6.204
521.23	6.695
521.58	5.582
521.92	6.062
522.26	5.247
522.61	6.168
522.95	5.893
523.29	5.600
523.64	6.402
523.98	6.346
524.32	6.333
524.66	6.314
525.01	6.801
525.35	5.762
525.69	6.219
526.04	6.168
526.38	5.674
526.72	6.442
527.06	5.775
527.41	4.579
527.75	5.916
528.09	5.845
528.43	5.609
528.78	6.454
529.12	5.758
529.46	6.001
529.80	5.941
530.15	5.919
530.49	5.969
530.83	6.519
531.17	5.809
531.51	6.420
531.86	5.613
532.20	6.323
532.54	6.598
532.88	6.418
533.22	5.746
533.57	6.111
533.91	6.201
534.25	6.197
534.59	5.857
534.93	6.187
535.27	5.794
535.62	6.349
535.96	5.901
536.30	5.467
536.64	6.504
536.98	6.503
537.32	5.596
537.66	6.333
538.01	6.057
538.35	6.270
538.69	6.445
539.03	5.913
539.37	5.367
539.71	4.861
540.05	6.275
540.39	6.312
540.73	6.016
541.07	6.554
541.42	6.327
541.76	6.839
542.10	5.886
542.44	5.298
542.78	6.983
543.12	5.630
543.46	6.295
543.80	6.571
544.14	5.392
544.48	5.905
544.82	6.030
545.16	6.441
545.50	5.977
545.84	6.250
546.18	6.734
546.52	6.676
546.86	5.979
547.20	6.878
547.54	6.613
547.88	6.760
548.22	6.476
548.56	6.164
548.90	5.826
549.24	6.128
549.58	6.548
549.92	6.456
550.26	5.895
550.60	6.846
550.94	6.268
551.28	6.511
551.62	6.470
551.96	6.526
552.30	7.099
552.64	6.829
552.98	6.576
553.32	6.743
553.66	6.339
554.00	7.001
554.34	6.418
554.68	7.368
555.02	5.994
555.36	6.402
555.69	6.022
556.03	6.999
556.37	6.207
556.71	5.252
557.05	6.022
557.39	6.788
557.73	6.210
558.07	6.889
558.41	5.789
558.75	6.539
559.08	6.562
559.42	5.971
559.76	6.765
560.10	5.782
560.44	6.639
560.78	6.188
561.12	6.728
561.45	6.910
561.79	5.867
562.13	6.170
562.47	6.762
562.81	5.300
563.15	6.154
563.48	6.366
563.82	6.327
564.16	5.821
564.50	5.404
564.84	6.195
565.17	5.727
565.51	6.006
565.85	5.964
566.19	5.573
566.52	5.636
566.86	5.847
567.20	5.955
567.54	6.050
567.88	5.215
568.21	5.767
568.55	5.612
568.89	4.669
569.23	5.036
569.56	4.737
569.90	4.981
570.24	4.880
570.57	4.080
570.91	4.363
571.25	4.107
571.59	4.359
571.92	3.946
572.26	4.159
572.60	4.054
572.93	4.438
573.27	4.348
573.61	4.690
573.95	4.444
574.28	4.095
574.62	3.960
574.96	3.943
575.29	3.880
575.63	3.989
575.97	3.957
576.30	4.116
576.64	3.791
576.98	3.938
577.31	3.651
577.65	3.844
577.98	3.760
578.32	3.614
578.66	3.941
578.99	3.835
579.33	3.534
579.67	3.770
580.00	3.788
580.34	3.797
580.67	3.947
581.01	4.160
581.35	3.723
581.68	3.868
582.02	3.463
582.35	3.454
582.69	3.752
583.02	3.599
583.36	3.828
583.70	3.771
584.03	3.945
584.37	4.163
584.70	3.631
585.04	3.889
585.37	3.751
585.71	4.018
586.04	3.890
586.38	4.127
586.72	4.391
587.05	3.939
587.39	3.720
587.72	4.226
588.06	3.975
588.39	4.060
588.73	4.048
589.06	4.363
589.40	4.310
589.73	4.224
590.07	4.769
590.40	4.604
590.73	4.606
591.07	5.169
591.40	5.146
591.74	5.931
592.07	5.366
592.41	4.630
592.74	4.794
593.08	4.597
593.41	4.461
593.75	4.372
594.08	4.425
594.41	5.019
594.75	4.732
595.08	4.975
595.42	4.799
595.75	4.630
596.09	4.694
596.42	5.265
596.75	5.276
597.09	5.758
597.42	4.764
597.75	5.218
598.09	4.957
598.42	4.897
598.76	4.702
599.09	4.751
599.42	4.658
599.76	4.795
600.09	4.736
600.42	4.675
600.76	4.643
601.09	4.554
601.42	4.833
601.76	5.161
602.09	4.506
602.42	5.016
602.76	5.683
603.09	5.193
603.42	5.115
603.76	4.611
604.09	4.537
604.42	4.729
604.76	5.146
605.09	4.631
605.42	5.130
605.75	5.215
606.09	4.433
606.42	4.986
606.75	4.894
607.09	5.232
607.42	4.835
607.75	4.810
608.08	5.167
608.42	5.289
608.75	5.500
609.08	5.458
609.41	5.188
609.75	5.622
610.08	5.137
610.41	5.168
610.74	5.251
611.07	5.830
611.41	5.397
611.74	6.435
612.07	5.642
612.40	5.614
612.73	5.526
613.07	5.603
613.40	5.793
613.73	5.034
614.06	6.075
614.39	6.240
614.72	6.316
615.06	5.935
615.39	5.255
615.72	5.879
616.05	5.476
616.38	5.725
616.71	6.235
617.05	5.889
617.38	5.713
617.71	5.465
618.04	6.010
618.37	6.328
618.70	6.161
619.03	7.105
619.36	6.314
619.69	6.479
620.03	6.662
620.36	6.684
620.69	7.603
621.02	6.858
621.35	6.813
621.68	6.698
622.01	6.269
622.34	7.564
622.67	6.388
623.00	6.236
623.33	6.934
623.66	7.076
623.99	6.775
624.32	6.633
624.65	6.850
624.99	6.091
625.32	5.938
625.65	7.062
625.98	7.994
626.31	6.921
626.64	7.020
626.97	7.648
627.30	6.567
627.63	7.957
627.96	7.738
628.29	7.699
628.62	8.326
628.95	8.962
629.28	8.212
629.61	8.249
629.94	6.952
630.26	6.292
630.59	8.198
630.92	7.663
631.25	6.811
631.58	8.008
631.91	7.404
632.24	6.857
632.57	9.129
632.90	8.662
633.23	8.501
633.56	9.944
633.89	9.287
634.22	7.719
634.55	9.231
634.88	9.820
635.20	9.200
635.53	10.000
635.86	9.035
636.19	9.059
636.52	8.651
636.85	8.362
637.18	8.525
637.51	11.229
637.83	7.275
638.16	9.719
638.49	9.950
638.82	9.861
639.15	9.500
639.48	8.853
639.81	11.528
640.13	10.417
640.46	10.470
640.79	10.040
641.12	9.216
641.45	9.916
641.77	10.015
642.10	10.234
642.43	9.760
642.76	10.372
643.09	9.816
643.41	9.560
643.74	11.420
644.07	10.976
644.40	11.810
644.73	11.654
645.05	12.520
645.38	10.269
645.71	10.789
646.04	11.462
646.36	12.020
646.69	13.043
647.02	11.054
647.35	12.715
647.67	10.973
648.00	11.870
648.33	11.056
648.66	11.970
648.98	10.945
649.31	8.969
649.64	10.613
649.96	11.028
650.29	10.742
650.62	9.547
650.94	12.804
651.27	12.669
651.60	10.815
651.92	12.780
