SpectraSuite Data File
++++++++++++++++++++++++++++++++++++
Date: Wed May 13 19:44:50 PDT 2015
User: schluterlab
Dark Spectrum Present: Yes
Reference Spectrum Present: Yes
Number of Sampled Component Spectra: 1
Spectrometers: USB2E3373
Integration Time (usec): 3000 (USB2E3373)
Spectra Averaged: 3 (USB2E3373)
Boxcar Smoothing: 0 (USB2E3373)
Correct for Electrical Dark: No (USB2E3373)
Strobe/Lamp Enabled: No (USB2E3373)
Correct for Detector Non-linearity: No (USB2E3373)
Correct for Stray Light: No (USB2E3373)
Number of Pixels in Processed Spectrum: 2048
>>>>>Begin Processed Spectral Data<<<<<
178.53	0.000
178.91	-1300.000
179.29	-1175.000
179.67	-238.889
180.04	-1425.000
180.42	2750.000
180.80	1100.000
181.18	-950.000
181.56	714.286
181.94	0.000
182.31	-728.571
182.69	1700.000
183.07	-575.000
183.45	-533.333
183.83	481.818
184.20	-480.000
184.58	2450.000
184.96	5600.000
185.34	-1060.000
185.72	-612.500
186.09	-2050.000
186.47	2600.000
186.85	1850.000
187.23	4900.000
187.61	-1200.000
187.98	1350.000
188.36	472.727
188.74	518.182
189.12	-700.000
189.49	670.000
189.87	-4300.000
190.25	-1325.000
190.63	371.429
191.00	430.769
191.38	900.000
191.76	-1175.000
192.14	1375.000
192.51	687.500
192.89	916.667
193.27	487.500
193.65	-1025.000
194.02	580.000
194.40	940.000
194.78	540.000
195.15	541.667
195.53	580.000
195.91	-1750.000
196.29	368.750
196.66	284.211
197.04	-470.000
197.42	0.000
197.79	650.000
198.17	-5000.000
198.55	600.000
198.92	787.500
199.30	1040.000
199.68	0.000
200.05	377.778
200.43	828.571
200.81	4400.000
201.18	1566.667
201.56	-1833.333
201.94	466.667
202.31	600.000
202.69	450.000
203.07	550.000
203.44	0.000
203.82	1400.000
204.19	842.857
204.57	421.429
204.95	625.000
205.32	1666.667
205.70	509.091
206.08	314.286
206.45	2600.000
206.83	331.250
207.20	933.333
207.58	620.000
207.96	322.222
208.33	737.500
208.71	-900.000
209.08	757.143
209.46	588.889
209.84	463.636
210.21	-1500.000
210.59	1450.000
210.96	-412.500
211.34	2700.000
211.71	520.000
212.09	783.333
212.46	0.000
212.84	1866.667
213.22	1575.000
213.59	-5200.000
213.97	800.000
214.34	742.857
214.72	609.091
215.09	980.000
215.47	-2800.000
215.84	-2500.000
216.22	1866.667
216.59	400.000
216.97	1475.000
217.34	454.545
217.72	-716.667
218.09	0.000
218.47	-4800.000
218.84	644.444
219.22	642.857
219.59	1466.667
219.97	-642.857
220.34	960.000
220.72	-1466.667
221.09	442.857
221.47	1475.000
221.84	-716.667
222.22	0.000
222.59	1425.000
222.97	-2500.000
223.34	1080.000
223.72	469.231
224.09	1060.000
224.46	2200.000
224.84	-5000.000
225.21	-1280.000
225.59	-5300.000
225.96	540.000
226.34	305.000
226.71	2800.000
227.08	650.000
227.46	510.000
227.83	-1050.000
228.21	-2300.000
228.58	544.444
228.95	-2300.000
229.33	-2300.000
229.70	1533.333
230.08	685.714
230.45	-820.000
230.82	416.667
231.20	1016.667
231.57	728.571
231.95	433.333
232.32	245.455
232.69	445.455
233.07	671.429
233.44	323.077
233.81	-1633.333
234.19	294.737
234.56	466.667
234.93	333.333
235.31	472.727
235.68	346.154
236.05	335.714
236.43	196.970
236.80	315.789
237.17	4900.000
237.55	266.667
237.92	192.857
238.29	242.857
238.67	200.000
239.04	210.345
239.41	141.667
239.79	130.435
240.16	154.762
240.53	127.273
240.91	131.373
241.28	130.000
241.65	118.000
242.02	102.899
242.40	98.387
242.77	96.667
243.14	83.871
243.51	85.393
243.89	80.000
244.26	70.000
244.63	75.269
245.00	71.277
245.38	68.317
245.75	67.290
246.12	61.468
246.49	62.044
246.87	80.000
247.24	67.692
247.61	51.429
247.98	54.902
248.36	61.486
248.73	52.229
249.10	57.962
249.47	52.542
249.84	52.941
250.22	47.594
250.59	54.438
250.96	55.051
251.33	51.185
251.70	52.970
252.08	48.571
252.45	43.946
252.82	47.826
253.19	48.085
253.56	48.235
253.94	48.548
254.31	47.266
254.68	45.000
255.05	42.804
255.42	45.935
255.79	43.382
256.16	44.043
256.54	40.636
256.91	46.263
257.28	39.568
257.65	41.914
258.02	40.373
258.39	39.117
258.76	38.796
259.14	41.071
259.51	37.994
259.88	34.161
260.25	41.088
260.62	36.705
260.99	37.578
261.36	42.342
261.73	35.244
262.10	35.465
262.47	40.282
262.85	38.162
263.22	33.333
263.59	41.880
263.96	37.363
264.33	35.770
264.70	37.632
265.07	39.130
265.44	36.616
265.81	34.063
266.18	39.196
266.55	32.683
266.92	37.592
267.29	37.963
267.66	35.550
268.03	35.455
268.40	36.682
268.77	34.845
269.14	34.685
269.51	33.634
269.88	35.431
270.25	36.117
270.62	33.258
270.99	36.344
271.36	35.193
271.73	32.944
272.10	32.391
272.47	35.914
272.84	34.199
273.21	33.333
273.58	32.969
273.95	32.075
274.32	32.231
274.69	33.619
275.06	32.677
275.43	32.766
275.80	33.667
276.17	33.401
276.54	34.304
276.91	33.597
277.28	31.055
277.65	31.335
278.02	32.298
278.39	33.203
278.76	31.636
279.13	31.509
279.50	31.471
279.87	31.474
280.23	29.741
280.60	31.141
280.97	29.205
281.34	32.566
281.71	32.545
282.08	32.821
282.45	32.364
282.82	30.906
283.19	30.660
283.56	30.351
283.92	30.964
284.29	29.453
284.66	28.675
285.03	30.741
285.40	30.106
285.77	29.798
286.14	29.879
286.51	32.167
286.87	30.085
287.24	32.736
287.61	27.929
287.98	30.519
288.35	27.417
288.72	27.882
289.08	29.264
289.45	27.183
289.82	30.244
290.19	25.746
290.56	27.871
290.93	28.550
291.29	26.380
291.66	26.696
292.03	28.634
292.40	29.369
292.77	27.663
293.13	27.612
293.50	26.093
293.87	25.630
294.24	26.519
294.60	25.182
294.97	25.000
295.34	27.221
295.71	25.426
296.08	24.929
296.44	25.722
296.81	23.910
297.18	25.610
297.55	24.934
297.91	25.198
298.28	25.301
298.65	23.629
299.02	24.242
299.38	24.037
299.75	24.933
300.12	23.244
300.48	23.250
300.85	25.894
301.22	23.185
301.59	22.727
301.95	24.307
302.32	24.647
302.69	23.417
303.05	23.636
303.42	23.333
303.79	23.669
304.15	22.727
304.52	21.784
304.89	22.764
305.25	22.506
305.62	22.650
305.99	23.495
306.35	23.602
306.72	22.309
307.09	21.976
307.45	24.437
307.82	20.424
308.19	21.413
308.55	22.114
308.92	22.449
309.29	21.859
309.65	20.785
310.02	22.093
310.38	23.441
310.75	22.492
311.12	21.699
311.48	21.944
311.85	22.851
312.22	21.228
312.58	20.374
312.95	22.809
313.31	19.903
313.68	22.037
314.05	22.880
314.41	22.312
314.78	21.349
315.14	20.854
315.51	21.627
315.87	21.485
316.24	20.258
316.61	21.540
316.97	19.863
317.34	20.646
317.70	20.746
318.07	20.982
318.43	22.016
318.80	21.931
319.16	20.433
319.53	20.450
319.89	20.762
320.26	20.900
320.62	20.933
320.99	20.505
321.35	20.909
321.72	20.431
322.08	21.125
322.45	21.990
322.81	19.767
323.18	21.773
323.54	20.315
323.91	21.604
324.27	21.606
324.64	18.733
325.00	19.387
325.37	20.200
325.73	19.928
326.10	19.947
326.46	19.265
326.83	20.535
327.19	19.471
327.56	19.338
327.92	19.598
328.29	19.876
328.65	20.350
329.01	20.036
329.38	19.334
329.74	18.929
330.11	19.510
330.47	20.018
330.84	20.221
331.20	19.308
331.56	20.459
331.93	19.444
332.29	19.077
332.66	20.619
333.02	18.464
333.38	19.964
333.75	20.588
334.11	19.039
334.48	19.077
334.84	20.588
335.20	19.909
335.57	18.767
335.93	18.750
336.29	19.414
336.66	20.018
337.02	19.276
337.38	19.352
337.75	18.449
338.11	19.158
338.47	19.613
338.84	18.973
339.20	17.615
339.56	20.803
339.93	18.455
340.29	19.112
340.65	18.895
341.02	19.546
341.38	18.149
341.74	18.158
342.11	19.825
342.47	18.590
342.83	18.493
343.20	18.874
343.56	17.944
343.92	19.123
344.28	19.303
344.65	19.347
345.01	19.024
345.37	17.753
345.73	18.782
346.10	17.903
346.46	17.712
346.82	19.110
347.19	17.544
347.55	17.570
347.91	17.961
348.27	18.159
348.63	17.977
349.00	17.799
349.36	17.734
349.72	17.322
350.08	17.909
350.45	18.308
350.81	17.547
351.17	18.233
351.53	17.772
351.89	16.502
352.26	18.627
352.62	18.524
352.98	17.180
353.34	17.749
353.70	16.776
354.07	17.581
354.43	16.587
354.79	18.423
355.15	16.760
355.51	18.145
355.87	18.286
356.24	16.857
356.60	16.840
356.96	17.940
357.32	17.007
357.68	16.929
358.04	17.181
358.40	17.023
358.77	17.449
359.13	16.969
359.49	16.863
359.85	16.190
360.21	15.869
360.57	17.588
360.93	17.077
361.29	17.763
361.66	16.254
362.02	17.239
362.38	17.186
362.74	16.518
363.10	16.136
363.46	16.214
363.82	16.931
364.18	18.135
364.54	16.865
364.90	17.068
365.26	16.838
365.62	16.362
365.98	16.216
366.35	15.043
366.71	16.920
367.07	16.023
367.43	16.110
367.79	16.274
368.15	17.888
368.51	15.334
368.87	17.202
369.23	17.045
369.59	17.451
369.95	16.029
370.31	16.097
370.67	14.710
371.03	17.528
371.39	16.691
371.75	15.588
372.11	15.576
372.47	17.229
372.83	16.931
373.19	16.618
373.55	16.556
373.91	16.127
374.27	15.464
374.63	16.145
374.99	17.020
375.35	15.911
375.71	15.970
376.07	16.735
376.42	16.231
376.78	16.302
377.14	16.079
377.50	16.755
377.86	15.891
378.22	15.866
378.58	15.414
378.94	15.588
379.30	15.903
379.66	15.038
380.02	15.663
380.38	15.726
380.74	15.786
381.09	15.403
381.45	15.734
381.81	15.725
382.17	16.178
382.53	15.283
382.89	15.123
383.25	14.822
383.61	16.295
383.97	16.073
384.32	15.284
384.68	15.304
385.04	16.042
385.40	15.108
385.76	15.725
386.12	15.091
386.48	14.852
386.83	15.908
387.19	15.832
387.55	15.832
387.91	14.389
388.27	15.389
388.62	15.980
388.98	15.049
389.34	15.519
389.70	14.960
390.06	15.463
390.42	15.694
390.77	15.649
391.13	15.252
391.49	15.673
391.85	15.150
392.20	15.079
392.56	15.278
392.92	15.303
393.28	14.615
393.64	14.928
393.99	14.844
394.35	15.571
394.71	15.245
395.07	14.455
395.42	15.575
395.78	15.013
396.14	15.022
396.50	15.351
396.85	15.194
397.21	15.166
397.57	15.375
397.92	15.805
398.28	13.957
398.64	14.994
399.00	15.445
399.35	14.721
399.71	14.873
400.07	15.198
400.42	15.276
400.78	15.561
401.14	14.634
401.49	14.687
401.85	15.245
402.21	14.311
402.57	14.497
402.92	14.691
403.28	15.303
403.63	15.347
403.99	14.968
404.35	15.394
404.70	14.748
405.06	14.677
405.42	14.660
405.77	14.571
406.13	14.560
406.49	15.021
406.84	14.885
407.20	14.007
407.55	14.869
407.91	15.267
408.27	15.252
408.62	15.352
408.98	15.135
409.34	15.560
409.69	15.226
410.05	14.808
410.40	14.557
410.76	14.636
411.11	14.897
411.47	14.441
411.83	14.844
412.18	14.224
412.54	15.255
412.89	15.301
413.25	14.758
413.60	14.824
413.96	13.661
414.31	15.249
414.67	15.082
415.03	14.437
415.38	15.786
415.74	14.534
416.09	14.304
416.45	15.194
416.80	15.532
417.16	15.214
417.51	14.532
417.87	15.093
418.22	14.890
418.58	15.171
418.93	14.926
419.29	15.150
419.64	14.987
420.00	14.939
420.35	14.783
420.71	14.883
421.06	14.976
421.42	15.205
421.77	14.686
422.12	14.655
422.48	14.031
422.83	14.560
423.19	14.475
423.54	14.568
423.90	15.188
424.25	14.238
424.61	14.345
424.96	14.810
425.31	14.286
425.67	14.213
426.02	14.286
426.38	15.385
426.73	13.692
427.09	14.954
427.44	14.089
427.79	14.146
428.15	15.417
428.50	15.097
428.85	14.958
429.21	14.246
429.56	14.256
429.92	14.041
430.27	13.853
430.62	14.183
430.98	14.530
431.33	13.969
431.68	14.450
432.04	14.537
432.39	14.506
432.74	14.602
433.10	13.752
433.45	14.694
433.80	13.470
434.16	14.423
434.51	14.211
434.86	14.424
435.22	14.341
435.57	14.954
435.92	13.985
436.28	14.650
436.63	14.845
436.98	13.910
437.34	14.729
437.69	14.936
438.04	14.446
438.39	14.328
438.75	13.713
439.10	14.022
439.45	14.758
439.81	14.079
440.16	14.794
440.51	14.938
440.86	15.055
441.22	13.849
441.57	14.331
441.92	13.920
442.27	14.155
442.63	13.955
442.98	14.817
443.33	14.728
443.68	13.991
444.03	14.641
444.39	13.145
444.74	14.177
445.09	14.825
445.44	14.161
445.79	14.300
446.15	15.034
446.50	14.216
446.85	14.337
447.20	14.584
447.55	14.573
447.91	14.396
448.26	13.467
448.61	13.737
448.96	15.282
449.31	14.567
449.66	14.744
450.02	13.983
450.37	13.662
450.72	14.777
451.07	12.858
451.42	14.529
451.77	14.974
452.12	14.838
452.47	15.485
452.83	14.452
453.18	14.242
453.53	14.780
453.88	14.294
454.23	14.704
454.58	14.537
454.93	15.321
455.28	14.152
455.63	14.927
455.98	14.702
456.34	14.887
456.69	15.216
457.04	14.427
457.39	14.787
457.74	14.045
458.09	14.491
458.44	15.051
458.79	14.425
459.14	14.334
459.49	14.828
459.84	14.404
460.19	13.789
460.54	13.773
460.89	13.988
461.24	14.208
461.59	15.747
461.94	14.303
462.29	14.540
462.64	14.295
462.99	14.183
463.34	15.667
463.69	14.259
464.04	14.261
464.39	14.899
464.74	15.449
465.09	14.415
465.44	13.684
465.79	14.206
466.14	14.833
466.49	13.849
466.84	15.762
467.19	15.148
467.54	15.125
467.89	14.286
468.24	14.311
468.59	14.835
468.94	14.111
469.29	14.974
469.64	15.395
469.99	14.885
470.34	14.861
470.68	15.589
471.03	14.626
471.38	15.358
471.73	15.323
472.08	15.526
472.43	14.761
472.78	14.681
473.13	15.597
473.48	15.356
473.83	15.915
474.17	14.437
474.52	14.888
474.87	14.302
475.22	14.277
475.57	14.884
475.92	14.551
476.27	14.713
476.61	14.286
476.96	13.744
477.31	14.286
477.66	14.387
478.01	13.748
478.36	14.860
478.70	14.434
479.05	14.590
479.40	14.995
479.75	14.133
480.10	13.519
480.45	13.993
480.79	13.665
481.14	14.139
481.49	14.333
481.84	14.632
482.19	14.539
482.53	13.899
482.88	14.379
483.23	14.720
483.58	14.058
483.92	13.543
484.27	13.638
484.62	13.491
484.97	13.126
485.31	13.493
485.66	12.684
486.01	12.067
486.36	11.747
486.70	11.658
487.05	12.449
487.40	12.845
487.75	12.541
488.09	13.618
488.44	13.109
488.79	13.924
489.13	14.133
489.48	14.070
489.83	13.552
490.17	14.117
490.52	14.128
490.87	13.840
491.22	14.143
491.56	13.303
491.91	13.867
492.26	14.010
492.60	13.917
492.95	13.471
493.30	14.346
493.64	13.719
493.99	13.881
494.34	14.385
494.68	13.919
495.03	14.756
495.37	14.053
495.72	14.425
496.07	14.571
496.41	12.920
496.76	13.852
497.11	14.093
497.45	13.833
497.80	13.628
498.14	13.768
498.49	13.463
498.84	14.669
499.18	13.762
499.53	13.960
499.87	13.840
500.22	14.037
500.56	14.417
500.91	13.798
501.26	14.130
501.60	14.903
501.95	14.390
502.29	14.480
502.64	14.292
502.98	14.072
503.33	13.940
503.67	14.153
504.02	14.453
504.36	14.272
504.71	14.314
505.06	13.976
505.40	14.244
505.75	14.031
506.09	13.946
506.44	14.307
506.78	14.467
507.13	15.144
507.47	14.798
507.82	14.438
508.16	13.982
508.51	14.612
508.85	14.101
509.19	14.286
509.54	14.949
509.88	14.838
510.23	13.728
510.57	14.912
510.92	15.122
511.26	14.440
511.61	15.093
511.95	15.084
512.30	14.740
512.64	14.831
512.98	14.577
513.33	15.257
513.67	14.621
514.02	14.935
514.36	14.965
514.70	15.108
515.05	14.835
515.39	14.750
515.74	15.090
516.08	15.987
516.42	15.427
516.77	15.719
517.11	15.094
517.46	15.576
517.80	15.563
518.14	15.113
518.49	15.578
518.83	15.170
519.17	15.473
519.52	15.846
519.86	15.744
520.20	15.896
520.55	15.260
520.89	15.389
521.23	15.682
521.58	16.146
521.92	15.922
522.26	14.582
522.61	16.573
522.95	15.654
523.29	16.068
523.64	16.098
523.98	15.773
524.32	15.802
524.66	15.755
525.01	16.054
525.35	15.675
525.69	16.071
526.04	15.452
526.38	15.802
526.72	15.583
527.06	16.635
527.41	15.285
527.75	15.756
528.09	16.057
528.43	16.380
528.78	16.349
529.12	16.364
529.46	16.473
529.80	16.213
530.15	15.826
530.49	15.446
530.83	15.696
531.17	17.167
531.51	17.445
531.86	16.774
532.20	16.949
532.54	16.848
532.88	16.881
533.22	16.177
533.57	16.420
533.91	16.195
534.25	16.950
534.59	16.168
534.93	17.073
535.27	15.510
535.62	16.850
535.96	16.698
536.30	15.575
536.64	16.484
536.98	16.722
537.32	15.537
537.66	16.733
538.01	16.458
538.35	16.677
538.69	17.039
539.03	16.634
539.37	16.102
539.71	15.295
540.05	16.144
540.39	16.545
540.73	16.300
541.07	16.093
541.42	17.025
541.76	17.032
542.10	17.076
542.44	16.424
542.78	16.996
543.12	16.315
543.46	16.262
543.80	16.461
544.14	16.239
544.48	16.889
544.82	15.779
545.16	16.200
545.50	15.810
545.84	16.935
546.18	15.758
546.52	16.862
546.86	16.014
547.20	16.588
547.54	17.234
547.88	17.219
548.22	16.065
548.56	16.164
548.90	16.261
549.24	17.104
549.58	16.712
549.92	16.552
550.26	15.980
550.60	16.667
550.94	17.254
551.28	16.386
551.62	16.894
551.96	16.421
552.30	16.997
552.64	16.700
552.98	17.017
553.32	16.521
553.66	17.314
554.00	17.021
554.34	17.046
554.68	17.525
555.02	17.066
555.36	15.658
555.69	15.494
556.03	16.756
556.37	16.508
556.71	16.303
557.05	16.947
557.39	17.005
557.73	16.937
558.07	16.316
558.41	16.715
558.75	16.899
559.08	17.673
559.42	16.931
559.76	16.103
560.10	15.846
560.44	16.422
560.78	16.367
561.12	16.491
561.45	17.340
561.79	16.348
562.13	17.371
562.47	16.530
562.81	16.179
563.15	15.853
563.48	16.379
563.82	16.243
564.16	16.874
564.50	15.885
564.84	16.182
565.17	15.766
565.51	15.335
565.85	16.751
566.19	15.341
566.52	16.593
566.86	15.612
567.20	16.392
567.54	15.811
567.88	15.589
568.21	16.085
568.55	15.470
568.89	15.272
569.23	14.572
569.56	14.615
569.90	14.717
570.24	14.496
570.57	14.145
570.91	13.316
571.25	13.805
571.59	13.490
571.92	13.594
572.26	13.807
572.60	14.354
572.93	13.853
573.27	14.020
573.61	14.070
573.95	13.695
574.28	13.543
574.62	13.460
574.96	13.166
575.29	13.240
575.63	12.957
575.97	13.304
576.30	13.489
576.64	13.268
576.98	13.320
577.31	13.262
577.65	13.268
577.98	12.847
578.32	12.708
578.66	13.145
578.99	13.444
579.33	13.290
579.67	13.500
580.00	13.042
580.34	13.360
580.67	13.307
581.01	13.380
581.35	13.029
581.68	13.186
582.02	13.014
582.35	12.712
582.69	12.962
583.02	13.120
583.36	13.189
583.70	13.686
584.03	14.002
584.37	13.939
584.70	13.689
585.04	13.625
585.37	13.164
585.71	13.369
586.04	13.288
586.38	14.002
586.72	13.615
587.05	13.529
587.39	13.061
587.72	13.527
588.06	13.581
588.39	13.827
588.73	13.875
589.06	13.992
589.40	14.141
589.73	14.326
590.07	14.377
590.40	14.103
590.73	14.910
591.07	14.978
591.40	14.509
591.74	15.022
592.07	14.703
592.41	14.800
592.74	14.307
593.08	14.057
593.41	14.204
593.75	13.679
594.08	14.281
594.41	13.856
594.75	14.011
595.08	14.209
595.42	14.326
595.75	13.996
596.09	14.307
596.42	14.971
596.75	14.859
597.09	15.628
597.42	13.828
597.75	14.920
598.09	14.957
598.42	14.905
598.76	14.066
599.09	14.063
599.42	13.755
599.76	13.653
600.09	13.843
600.42	14.134
600.76	13.571
601.09	13.953
601.42	14.307
601.76	14.307
602.09	13.992
602.42	14.809
602.76	14.470
603.09	13.808
603.42	14.213
603.76	14.482
604.09	14.192
604.42	14.513
604.76	14.382
605.09	14.329
605.42	14.878
605.75	14.528
606.09	14.193
606.42	14.303
606.75	14.185
607.09	14.232
607.42	14.549
607.75	14.388
608.08	13.938
608.42	14.388
608.75	14.382
609.08	14.847
609.41	14.755
609.75	14.150
610.08	14.703
610.41	14.060
610.74	14.428
611.07	15.069
611.41	14.868
611.74	15.485
612.07	15.631
612.40	15.477
612.73	14.895
613.07	15.841
613.40	14.955
613.73	14.421
614.06	14.892
614.39	14.945
614.72	14.947
615.06	15.441
615.39	15.021
615.72	14.775
616.05	13.982
616.38	15.675
616.71	16.211
617.05	16.313
617.38	15.875
617.71	15.616
618.04	15.745
618.37	15.612
618.70	15.121
619.03	16.645
619.36	15.954
619.69	15.986
620.03	16.071
620.36	17.112
620.69	16.096
621.02	16.740
621.35	16.523
621.68	15.966
622.01	17.028
622.34	16.188
622.67	16.426
623.00	15.921
623.33	15.726
623.66	16.297
623.99	16.053
624.32	15.906
624.65	16.384
624.99	15.439
625.32	16.220
625.65	16.003
625.98	15.680
626.31	17.341
626.64	16.490
626.97	17.207
627.30	15.960
627.63	17.145
627.96	17.073
628.29	17.235
628.62	18.756
628.95	18.679
629.28	16.880
629.61	18.332
629.94	16.571
630.26	16.683
630.59	18.208
630.92	18.103
