SpectraSuite Data File
++++++++++++++++++++++++++++++++++++
Date: Wed May 13 19:23:34 PDT 2015
User: schluterlab
Dark Spectrum Present: Yes
Reference Spectrum Present: Yes
Number of Sampled Component Spectra: 1
Spectrometers: USB2E3373
Integration Time (usec): 3000 (USB2E3373)
Spectra Averaged: 3 (USB2E3373)
Boxcar Smoothing: 0 (USB2E3373)
Correct for Electrical Dark: No (USB2E3373)
Strobe/Lamp Enabled: No (USB2E3373)
Correct for Detector Non-linearity: No (USB2E3373)
Correct for Stray Light: No (USB2E3373)
Number of Pixels in Processed Spectrum: 2048
>>>>>Begin Processed Spectral Data<<<<<
178.53	0.000
178.91	-1325.000
179.29	-1400.000
179.67	-244.444
180.04	-1475.000
180.42	2800.000
180.80	1080.000
181.18	-975.000
181.56	700.000
181.94	0.000
182.31	-842.857
182.69	2033.333
183.07	-612.500
183.45	-600.000
183.83	509.091
184.20	-490.000
184.58	2650.000
184.96	5700.000
185.34	-900.000
185.72	-700.000
186.09	-2600.000
186.47	2800.000
186.85	2750.000
187.23	4900.000
187.61	-1733.333
187.98	1475.000
188.36	545.455
188.74	490.909
189.12	-1080.000
189.49	570.000
189.87	-4700.000
190.25	-1475.000
190.63	435.714
191.00	423.077
191.38	866.667
191.76	-1150.000
192.14	1450.000
192.51	550.000
192.89	1100.000
193.27	612.500
193.65	-1250.000
194.02	540.000
194.40	1120.000
194.78	640.000
195.15	558.333
195.53	670.000
195.91	-2200.000
196.29	387.500
196.66	336.842
197.04	-380.000
197.42	0.000
197.79	590.000
198.17	-5100.000
198.55	742.857
198.92	850.000
199.30	820.000
199.68	0.000
200.05	350.000
200.43	828.571
200.81	4500.000
201.18	1800.000
201.56	-1866.667
201.94	666.667
202.31	666.667
202.69	583.333
203.07	640.000
203.44	0.000
203.82	1375.000
204.19	871.429
204.57	464.286
204.95	712.500
205.32	1700.000
205.70	600.000
206.08	392.857
206.45	2850.000
206.83	443.750
207.20	916.667
207.58	800.000
207.96	288.889
208.33	712.500
208.71	-933.333
209.08	671.429
209.46	611.111
209.84	500.000
210.21	-1733.333
210.59	1825.000
210.96	-575.000
211.34	2300.000
211.71	650.000
212.09	816.667
212.46	0.000
212.84	1966.667
213.22	1425.000
213.59	-5200.000
213.97	1116.667
214.34	800.000
214.72	681.818
215.09	1240.000
215.47	-2600.000
215.84	-2950.000
216.22	1766.667
216.59	428.571
216.97	1475.000
217.34	572.727
217.72	-750.000
218.09	0.000
218.47	-5600.000
218.84	655.556
219.22	800.000
219.59	1733.333
219.97	-742.857
220.34	1000.000
220.72	-1966.667
221.09	478.571
221.47	1625.000
221.84	-950.000
222.22	0.000
222.59	1475.000
222.97	-3150.000
223.34	1140.000
223.72	446.154
224.09	1300.000
224.46	2550.000
224.84	-5200.000
225.21	-1120.000
225.59	-5400.000
225.96	700.000
226.34	330.000
226.71	2750.000
227.08	725.000
227.46	600.000
227.83	-1250.000
228.21	-2250.000
228.58	711.111
228.95	-2550.000
229.33	-2650.000
229.70	1600.000
230.08	700.000
230.45	-920.000
230.82	441.667
231.20	866.667
231.57	614.286
231.95	558.333
232.32	272.727
232.69	518.182
233.07	700.000
233.44	453.846
233.81	-1866.667
234.19	331.579
234.56	558.333
234.93	383.333
235.31	400.000
235.68	338.462
236.05	364.286
236.43	181.818
236.80	294.737
237.17	4400.000
237.55	290.476
237.92	189.286
238.29	247.619
238.67	170.968
239.04	227.586
239.41	163.889
239.79	102.174
240.16	138.095
240.53	140.909
240.91	117.647
241.28	106.000
241.65	102.000
242.02	108.696
242.40	93.548
242.77	78.333
243.14	78.495
243.51	83.146
243.89	71.765
244.26	68.889
244.63	60.215
245.00	57.447
245.38	60.396
245.75	52.336
246.12	58.716
246.49	58.394
246.87	59.200
247.24	60.769
247.61	54.286
247.98	52.288
248.36	46.622
248.73	54.777
249.10	47.771
249.47	45.198
249.84	36.364
250.22	45.989
250.59	37.870
250.96	39.899
251.33	37.915
251.70	44.554
252.08	41.905
252.45	39.910
252.82	35.652
253.19	37.872
253.56	33.333
253.94	35.270
254.31	36.719
254.68	39.231
255.05	34.686
255.42	31.707
255.79	30.515
256.16	31.769
256.54	32.862
256.91	32.028
257.28	31.295
257.65	31.683
258.02	33.540
258.39	30.599
258.76	27.090
259.14	29.762
259.51	25.532
259.88	25.466
260.25	28.399
260.62	25.723
260.99	27.950
261.36	34.234
261.73	27.507
262.10	29.070
262.47	27.324
262.85	27.019
263.22	23.647
263.59	30.484
263.96	26.099
264.33	27.937
264.70	26.053
265.07	27.621
265.44	26.263
265.81	22.384
266.18	28.392
266.55	24.634
266.92	25.553
267.29	24.537
267.66	25.459
268.03	24.773
268.40	22.430
268.77	26.014
269.14	23.649
269.51	24.379
269.88	26.107
270.25	24.153
270.62	23.820
270.99	27.097
271.36	25.751
271.73	25.000
272.10	22.391
272.47	24.516
272.84	25.325
273.21	23.899
273.58	20.961
273.95	22.432
274.32	23.554
274.69	25.696
275.06	23.031
275.43	25.957
275.80	22.445
276.17	21.589
276.54	23.285
276.91	23.913
277.28	21.094
277.65	23.791
278.02	20.290
278.39	21.289
278.76	21.273
279.13	23.396
279.50	24.022
279.87	22.510
280.23	20.958
280.60	22.631
280.97	22.181
281.34	19.646
281.71	22.909
282.08	23.992
282.45	20.727
282.82	20.426
283.19	18.538
283.56	19.123
283.92	20.135
284.29	20.282
284.66	20.508
285.03	20.072
285.40	19.014
285.77	18.855
286.14	19.862
286.51	20.833
286.87	21.026
287.24	20.521
287.61	20.867
287.98	20.455
288.35	17.274
288.72	18.692
289.08	20.031
289.45	19.275
289.82	19.837
290.19	19.937
290.56	19.602
290.93	16.465
291.29	17.485
291.66	17.847
292.03	19.041
292.40	18.502
292.77	17.604
293.13	18.955
293.50	18.659
293.87	16.889
294.24	15.556
294.60	17.031
294.97	18.314
295.34	17.348
295.71	16.761
296.08	15.670
296.44	15.681
296.81	17.041
297.18	17.886
297.55	15.567
297.91	15.699
298.28	17.269
298.65	15.274
299.02	16.601
299.38	15.803
299.75	15.364
300.12	15.837
300.48	15.125
300.85	15.166
301.22	14.650
301.59	14.520
301.95	17.003
302.32	14.377
302.69	14.695
303.05	14.424
303.42	14.938
303.79	15.742
304.15	13.753
304.52	13.789
304.89	14.286
305.25	14.269
305.62	13.703
305.99	15.584
306.35	13.870
306.72	14.686
307.09	14.539
307.45	15.428
307.82	13.839
308.19	14.128
308.55	14.347
308.92	14.930
309.29	13.516
309.65	14.528
310.02	14.376
310.38	14.409
310.75	13.833
311.12	14.944
311.48	14.211
311.85	14.465
312.22	13.944
312.58	13.514
312.95	15.734
313.31	13.786
313.68	15.696
314.05	16.765
314.41	15.678
314.78	14.703
315.14	15.492
315.51	15.345
315.87	15.743
316.24	16.584
316.61	15.595
316.97	16.536
317.34	14.971
317.70	16.157
318.07	18.191
318.43	16.928
318.80	17.994
319.16	17.608
319.53	17.167
319.89	17.429
320.26	19.300
320.62	18.552
320.99	19.495
321.35	19.798
321.72	18.686
322.08	20.829
322.45	20.697
322.81	22.093
323.18	21.387
323.54	20.779
323.91	21.415
324.27	21.797
324.64	21.435
325.00	21.641
325.37	23.385
325.73	23.429
326.10	21.271
326.46	23.118
326.83	23.469
327.19	22.203
327.56	23.258
327.92	23.272
328.29	25.200
328.65	24.954
329.01	24.188
329.38	24.422
329.74	24.654
330.11	24.882
330.47	26.354
330.84	25.735
331.20	24.954
331.56	25.229
331.93	25.556
332.29	25.022
332.66	27.876
333.02	25.594
333.38	25.926
333.75	26.471
334.11	25.801
334.48	26.442
334.84	25.827
335.20	26.545
335.57	25.657
335.93	25.179
336.29	25.549
336.66	27.232
337.02	25.792
337.38	26.111
337.75	25.223
338.11	26.052
338.47	25.875
338.84	26.764
339.20	25.138
339.56	26.825
339.93	25.455
340.29	27.174
340.65	27.362
341.02	26.353
341.38	27.580
341.74	24.474
342.11	25.939
342.47	27.489
342.83	27.483
343.20	27.359
343.56	27.464
343.92	27.018
344.28	27.296
344.65	26.569
345.01	26.684
345.37	25.729
345.73	27.327
346.10	26.684
346.46	26.356
346.82	26.277
347.19	25.898
347.55	26.601
347.91	27.023
348.27	26.952
348.63	28.094
349.00	26.942
349.36	26.519
349.72	26.864
350.08	25.851
350.45	28.316
350.81	25.914
351.17	27.634
351.53	26.208
351.89	27.640
352.26	28.098
352.62	27.586
352.98	27.472
353.34	27.034
353.70	26.432
354.07	28.387
354.43	26.984
354.79	27.514
355.15	28.571
355.51	27.898
355.87	27.592
356.24	27.850
356.60	27.747
356.96	27.755
357.32	28.455
357.68	28.976
358.04	27.949
358.40	28.504
358.77	27.934
359.13	26.835
359.49	28.157
359.85	27.222
360.21	28.469
360.57	29.494
360.93	27.769
361.29	28.345
361.66	28.638
362.02	28.209
362.38	28.213
362.74	27.381
363.10	29.164
363.46	29.127
363.82	29.478
364.18	28.781
364.54	29.718
364.90	29.462
365.26	28.750
365.62	29.730
365.98	29.730
366.35	28.223
366.71	29.718
367.07	29.133
367.43	31.277
367.79	30.550
368.15	31.178
368.51	30.233
368.87	30.906
369.23	30.578
369.59	30.847
369.95	30.956
370.31	31.197
370.67	30.580
371.03	32.509
371.39	31.487
371.75	29.779
372.11	30.370
372.47	31.672
372.83	32.349
373.19	31.286
373.55	32.077
373.91	32.769
374.27	32.027
374.63	32.073
374.99	32.274
375.35	31.263
375.71	31.871
376.07	32.510
376.42	31.774
376.78	33.002
377.14	33.175
377.50	33.113
377.86	32.447
378.22	33.439
378.58	32.143
378.94	33.564
379.30	33.142
379.66	34.137
380.02	33.292
380.38	33.090
380.74	34.274
381.09	34.046
381.45	35.771
381.81	34.275
382.17	35.287
382.53	34.340
382.89	35.309
383.25	34.897
383.61	35.254
383.97	35.022
384.32	34.747
384.68	34.944
385.04	34.972
385.40	35.170
385.76	35.565
386.12	35.881
386.48	35.997
386.83	36.690
387.19	36.735
387.55	36.487
387.91	37.243
388.27	36.481
388.62	36.325
388.98	36.548
389.34	37.422
389.70	37.032
390.06	38.086
390.42	37.808
390.77	37.595
391.13	38.736
391.49	37.627
391.85	36.537
392.20	36.972
392.56	38.005
392.92	38.376
393.28	38.284
393.64	38.369
393.99	37.385
394.35	37.531
394.71	37.767
395.07	37.009
395.42	38.566
395.78	37.723
396.14	37.182
396.50	39.348
396.85	38.716
397.21	38.718
397.57	38.438
397.92	38.462
398.28	38.061
398.64	38.889
399.00	38.332
399.35	38.015
399.71	38.368
400.07	38.202
400.42	38.773
400.78	38.480
401.14	38.537
401.49	40.000
401.85	39.020
402.21	37.844
402.57	38.433
402.92	39.281
403.28	39.163
403.63	39.233
403.99	39.427
404.35	38.182
404.70	38.789
405.06	38.789
405.42	40.362
405.77	39.429
406.13	39.221
406.49	40.331
406.84	39.693
407.20	39.421
407.55	39.502
407.91	40.867
408.27	40.396
408.62	40.759
408.98	39.890
409.34	39.053
409.69	39.548
410.05	39.901
410.40	39.817
410.76	38.829
411.11	39.686
411.47	38.978
411.83	40.440
412.18	40.260
412.54	39.851
412.89	40.904
413.25	39.787
413.60	40.704
413.96	39.284
414.31	40.462
414.67	40.304
415.03	40.199
415.38	40.271
415.74	40.193
416.09	39.909
416.45	41.834
416.80	40.978
417.16	41.488
417.51	41.407
417.87	40.013
418.22	40.252
418.58	40.865
418.93	39.988
419.29	40.547
419.64	42.065
420.00	40.854
420.35	40.870
420.71	40.944
421.06	39.976
421.42	40.819
421.77	39.798
422.12	39.865
422.48	39.665
422.83	41.526
423.19	39.890
423.54	40.453
423.90	40.348
424.25	40.034
424.61	41.012
424.96	39.592
425.31	40.144
425.67	39.213
426.02	39.429
426.38	41.026
426.73	40.140
427.09	40.122
427.44	40.483
427.79	39.218
428.15	40.238
428.50	40.257
428.85	41.061
429.21	39.150
429.56	40.487
429.92	39.960
430.27	40.616
430.62	40.143
430.98	39.907
431.33	38.918
431.68	39.424
432.04	38.871
432.39	39.349
432.74	40.814
433.10	41.256
433.45	40.466
433.80	40.133
434.16	40.705
434.51	39.737
434.86	40.821
435.22	40.523
435.57	40.729
435.92	38.853
436.28	40.451
436.63	40.784
436.98	39.668
437.34	40.847
437.69	39.790
438.04	40.585
438.39	39.403
438.75	40.558
439.10	39.274
439.45	40.496
439.81	40.544
440.16	39.582
440.51	40.363
440.86	40.591
441.22	40.156
441.57	40.499
441.92	39.713
442.27	40.312
442.63	38.652
442.98	39.887
443.33	40.109
443.68	39.855
444.03	39.434
444.39	38.510
444.74	40.476
445.09	40.000
445.44	39.913
445.79	39.238
446.15	38.962
446.50	39.472
446.85	39.054
447.20	39.215
447.55	39.643
447.91	39.162
448.26	40.011
448.61	38.722
448.96	38.649
449.31	40.157
449.66	39.617
450.02	38.830
450.37	38.492
450.72	39.425
451.07	37.965
451.42	39.331
451.77	39.225
452.12	38.857
452.47	38.433
452.83	39.977
453.18	38.998
453.53	39.208
453.88	38.984
454.23	38.972
454.58	39.188
454.93	39.860
455.28	38.591
455.63	38.592
455.98	38.988
456.34	38.819
456.69	39.136
457.04	39.628
457.39	38.399
457.74	38.131
458.09	37.953
458.44	38.483
458.79	37.364
459.14	37.641
459.49	38.412
459.84	38.615
460.19	37.596
460.54	37.153
460.89	37.905
461.24	37.583
461.59	38.175
461.94	36.375
462.29	38.279
462.64	36.950
462.99	37.085
463.34	38.533
463.69	37.899
464.04	37.623
464.39	36.986
464.74	36.898
465.09	38.179
465.44	36.177
465.79	36.130
466.14	36.453
466.49	35.929
466.84	36.778
467.19	35.848
467.54	37.000
467.89	35.834
468.24	36.126
468.59	36.325
468.94	35.614
469.29	35.925
469.64	36.345
469.99	35.927
470.34	35.601
470.68	36.925
471.03	36.395
471.38	36.136
471.73	35.576
472.08	36.711
472.43	35.113
472.78	36.076
473.13	35.173
473.48	34.956
473.83	34.512
474.17	33.976
474.52	35.174
474.87	34.676
475.22	34.533
475.57	34.981
475.92	33.139
476.27	33.766
476.61	33.260
476.96	32.985
477.31	34.485
477.66	33.096
478.01	32.044
478.36	33.580
478.70	32.866
479.05	32.854
479.40	33.265
479.75	33.147
480.10	33.350
480.45	32.270
480.79	32.107
481.14	32.534
481.49	33.318
481.84	32.053
482.19	32.258
482.53	31.606
482.88	31.689
483.23	31.589
483.58	31.984
483.92	32.146
484.27	30.327
484.62	31.379
484.97	30.272
485.31	30.925
485.66	29.769
486.01	28.814
486.36	27.747
486.70	27.452
487.05	28.124
487.40	29.060
487.75	28.423
488.09	28.541
488.44	28.786
488.79	29.837
489.13	30.023
489.48	29.282
489.83	29.909
490.17	31.039
490.52	29.628
490.87	30.393
491.22	30.150
491.56	29.522
491.91	29.735
492.26	29.995
492.60	29.263
492.95	28.859
493.30	29.299
493.64	28.698
493.99	28.923
494.34	29.093
494.68	29.029
495.03	28.289
495.37	28.571
495.72	28.801
496.07	28.770
496.41	27.434
496.76	27.880
497.11	28.050
497.45	27.620
497.80	28.071
498.14	27.729
498.49	27.805
498.84	28.380
499.18	28.095
499.53	27.778
499.87	28.145
500.22	28.121
500.56	27.039
500.91	26.683
501.26	27.264
501.60	28.192
501.95	26.994
502.29	28.069
502.64	27.607
502.98	26.648
503.33	25.960
503.67	27.100
504.02	26.286
504.36	27.000
504.71	26.136
505.06	26.940
505.40	26.203
505.75	26.953
506.09	26.871
506.44	26.394
506.78	26.741
507.13	27.410
507.47	26.667
507.82	26.342
508.16	26.900
508.51	26.941
508.85	26.167
509.19	26.582
509.54	25.918
509.88	26.378
510.23	25.707
510.57	26.316
510.92	26.152
511.26	25.540
511.61	25.882
511.95	25.574
512.30	25.504
512.64	25.363
512.98	25.509
513.33	26.017
513.67	25.400
514.02	25.487
514.36	26.051
514.70	25.678
515.05	25.544
515.39	25.799
515.74	25.282
516.08	25.992
516.42	25.361
516.77	25.418
517.11	24.695
517.46	25.621
517.80	25.261
518.14	24.262
518.49	25.963
518.83	25.455
519.17	24.942
519.52	24.958
519.86	24.929
520.20	25.318
520.55	26.152
520.89	25.487
521.23	25.573
521.58	24.670
521.92	25.352
522.26	24.649
522.61	24.361
522.95	24.555
523.29	24.041
523.64	24.512
523.98	24.769
524.32	23.945
524.66	24.895
525.01	24.081
525.35	23.792
525.69	24.754
526.04	23.489
526.38	24.039
526.72	24.294
527.06	24.357
527.41	23.082
527.75	23.730
528.09	24.213
528.43	24.793
528.78	24.585
529.12	22.606
529.46	24.127
529.80	24.443
530.15	24.798
530.49	22.831
530.83	23.544
531.17	24.021
531.51	25.422
531.86	23.806
532.20	24.446
532.54	24.343
532.88	23.684
533.22	23.735
533.57	23.765
533.91	23.179
534.25	22.843
534.59	23.063
534.93	22.606
535.27	22.873
535.62	23.260
535.96	22.724
536.30	22.505
536.64	22.666
536.98	23.225
537.32	23.568
537.66	22.400
538.01	22.054
538.35	23.271
538.69	23.101
539.03	23.002
539.37	21.278
539.71	21.387
540.05	22.353
540.39	22.857
540.73	22.316
541.07	22.583
541.42	23.353
541.76	22.581
542.10	22.704
542.44	22.781
542.78	22.793
543.12	22.585
543.46	22.689
543.80	21.666
544.14	21.117
544.48	21.905
544.82	22.386
545.16	21.080
545.50	22.044
545.84	21.774
546.18	21.549
546.52	22.436
546.86	22.543
547.20	22.185
547.54	22.311
547.88	22.194
548.22	21.731
548.56	21.384
548.90	21.447
549.24	21.279
549.58	21.078
549.92	21.016
550.26	22.017
550.60	21.923
550.94	21.549
551.28	20.995
551.62	22.070
551.96	21.965
552.30	21.638
552.64	21.974
552.98	21.288
553.32	21.173
553.66	21.541
554.00	22.100
554.34	21.463
554.68	22.103
555.02	22.355
555.36	21.364
555.69	20.298
556.03	21.736
556.37	21.282
556.71	19.918
557.05	20.238
557.39	21.274
557.73	20.466
558.07	21.900
558.41	21.274
558.75	21.014
559.08	21.402
559.42	21.391
559.76	21.471
560.10	21.056
560.44	21.034
560.78	20.093
561.12	20.119
561.45	21.382
561.79	20.369
562.13	19.383
562.47	21.243
562.81	20.781
563.15	20.134
563.48	20.690
563.82	20.352
564.16	19.686
564.50	19.271
564.84	19.532
565.17	20.013
565.51	20.703
565.85	19.480
566.19	19.349
566.52	20.139
566.86	18.445
567.20	19.399
567.54	18.950
567.88	18.142
568.21	19.471
568.55	18.655
568.89	18.288
569.23	18.316
569.56	17.368
569.90	17.472
570.24	17.187
570.57	16.627
570.91	16.936
571.25	16.492
571.59	16.465
571.92	16.734
572.26	16.638
572.60	16.336
572.93	16.432
573.27	16.918
573.61	16.890
573.95	16.693
574.28	16.106
574.62	15.768
574.96	15.603
575.29	15.810
575.63	16.108
575.97	15.855
576.30	16.304
576.64	15.921
576.98	15.897
577.31	15.989
577.65	15.396
577.98	15.279
578.32	15.528
578.66	15.849
578.99	15.613
579.33	15.493
579.67	15.738
580.00	15.272
580.34	15.662
580.67	15.670
581.01	16.078
581.35	15.668
581.68	15.046
582.02	15.008
582.35	15.371
582.69	15.160
583.02	15.066
583.36	15.702
583.70	15.584
584.03	15.674
584.37	16.443
584.70	15.491
585.04	15.533
585.37	15.517
585.71	15.742
586.04	15.414
586.38	15.752
586.72	16.266
587.05	15.186
587.39	15.541
587.72	15.640
588.06	15.181
588.39	15.610
588.73	15.723
589.06	16.142
589.40	15.724
589.73	15.980
590.07	16.192
590.40	15.857
590.73	16.081
591.07	16.687
591.40	16.491
591.74	17.576
592.07	16.798
592.41	16.618
592.74	15.506
593.08	15.789
593.41	15.501
593.75	15.178
594.08	15.287
594.41	16.083
594.75	16.377
595.08	15.891
595.42	15.517
595.75	15.883
596.09	16.410
596.42	16.660
596.75	16.167
597.09	17.056
597.42	15.852
597.75	16.300
598.09	16.652
598.42	16.108
598.76	16.376
599.09	15.735
599.42	15.102
599.76	15.630
600.09	15.483
600.42	15.047
600.76	15.036
601.09	15.519
601.42	15.830
601.76	15.674
602.09	15.257
602.42	16.401
602.76	15.760
603.09	15.893
603.42	15.736
603.76	15.130
604.09	15.471
604.42	15.899
604.76	16.322
605.09	15.684
605.42	15.306
605.75	15.646
606.09	15.169
606.42	15.161
606.75	15.139
607.09	16.074
607.42	15.404
607.75	14.684
608.08	15.371
608.42	15.778
608.75	15.600
609.08	15.264
609.41	16.421
609.75	15.912
610.08	16.494
610.41	15.456
610.74	15.326
611.07	15.613
611.41	15.358
611.74	16.038
612.07	16.718
612.40	16.055
612.73	15.947
613.07	16.325
613.40	16.588
613.73	16.413
614.06	15.591
614.39	16.833
614.72	16.789
615.06	16.807
615.39	15.764
615.72	16.155
616.05	15.843
616.38	16.231
616.71	17.221
617.05	16.549
617.38	15.935
617.71	16.817
618.04	16.767
618.37	16.440
618.70	17.050
619.03	16.908
619.36	17.651
619.69	17.465
620.03	17.514
620.36	16.778
620.69	17.466
621.02	17.699
621.35	16.993
621.68	17.523
622.01	17.337
622.34	17.398
622.67	18.099
623.00	17.021
623.33	16.655
623.66	16.941
623.99	16.568
624.32	17.475
624.65	17.373
624.99	16.076
625.32	16.727
625.65	16.905
625.98	17.602
626.31	17.729
626.64	16.816
626.97	17.789
627.30	17.623
627.63	17.719
627.96	18.082
628.29	18.373
628.62	18.115
628.95	18.868
629.28	17.427
629.61	18.973
629.94	18.571
630.26	18.494
630.59	18.684
630.92	18.199
