SpectraSuite Data File
++++++++++++++++++++++++++++++++++++
Date: Wed May 13 19:26:54 PDT 2015
User: schluterlab
Dark Spectrum Present: Yes
Reference Spectrum Present: Yes
Number of Sampled Component Spectra: 1
Spectrometers: USB2E3373
Integration Time (usec): 3000 (USB2E3373)
Spectra Averaged: 3 (USB2E3373)
Boxcar Smoothing: 0 (USB2E3373)
Correct for Electrical Dark: No (USB2E3373)
Strobe/Lamp Enabled: No (USB2E3373)
Correct for Detector Non-linearity: No (USB2E3373)
Correct for Stray Light: No (USB2E3373)
Number of Pixels in Processed Spectrum: 2048
>>>>>Begin Processed Spectral Data<<<<<
178.53	0.000
178.91	-1350.000
179.29	-1500.000
179.67	-233.333
180.04	-1450.000
180.42	2350.000
180.80	1060.000
181.18	-1225.000
181.56	714.286
181.94	0.000
182.31	-714.286
182.69	1866.667
183.07	-625.000
183.45	-677.778
183.83	500.000
184.20	-330.000
184.58	2800.000
184.96	6000.000
185.34	-840.000
185.72	-600.000
186.09	-2350.000
186.47	2550.000
186.85	2400.000
187.23	5700.000
187.61	-1733.333
187.98	1450.000
188.36	590.909
188.74	454.545
189.12	-1080.000
189.49	610.000
189.87	-4500.000
190.25	-1225.000
190.63	442.857
191.00	469.231
191.38	883.333
191.76	-1200.000
192.14	1400.000
192.51	662.500
192.89	850.000
193.27	612.500
193.65	-1325.000
194.02	570.000
194.40	1040.000
194.78	560.000
195.15	583.333
195.53	740.000
195.91	-2350.000
196.29	331.250
196.66	389.474
197.04	-380.000
197.42	0.000
197.79	710.000
198.17	-5400.000
198.55	628.571
198.92	712.500
199.30	1040.000
199.68	0.000
200.05	327.778
200.43	957.143
200.81	4900.000
201.18	1700.000
201.56	-1433.333
201.94	600.000
202.31	577.778
202.69	433.333
203.07	560.000
203.44	0.000
203.82	1350.000
204.19	800.000
204.57	442.857
204.95	725.000
205.32	1800.000
205.70	536.364
206.08	414.286
206.45	3100.000
206.83	400.000
207.20	950.000
207.58	980.000
207.96	333.333
208.33	725.000
208.71	-950.000
209.08	971.429
209.46	688.889
209.84	572.727
210.21	-1566.667
210.59	1400.000
210.96	-612.500
211.34	2750.000
211.71	650.000
212.09	833.333
212.46	0.000
212.84	1833.333
213.22	1250.000
213.59	-5600.000
213.97	1100.000
214.34	800.000
214.72	645.455
215.09	1120.000
215.47	-2500.000
215.84	-2750.000
216.22	1800.000
216.59	450.000
216.97	1500.000
217.34	545.455
217.72	-766.667
218.09	0.000
218.47	-5000.000
218.84	722.222
219.22	914.286
219.59	1766.667
219.97	-742.857
220.34	1040.000
220.72	-1833.333
221.09	414.286
221.47	1575.000
221.84	-900.000
222.22	0.000
222.59	1425.000
222.97	-3150.000
223.34	1260.000
223.72	430.769
224.09	1160.000
224.46	2600.000
224.84	-5300.000
225.21	-1020.000
225.59	-4200.000
225.96	620.000
226.34	250.000
226.71	2900.000
227.08	712.500
227.46	590.000
227.83	-975.000
228.21	-2300.000
228.58	566.667
228.95	-2500.000
229.33	-2300.000
229.70	1566.667
230.08	771.429
230.45	-860.000
230.82	450.000
231.20	900.000
231.57	685.714
231.95	491.667
232.32	295.455
232.69	500.000
233.07	614.286
233.44	369.231
233.81	-1800.000
234.19	352.632
234.56	566.667
234.93	433.333
235.31	409.091
235.68	346.154
236.05	335.714
236.43	200.000
236.80	294.737
237.17	4400.000
237.55	233.333
237.92	210.714
238.29	300.000
238.67	193.548
239.04	234.483
239.41	175.000
239.79	121.739
240.16	166.667
240.53	138.636
240.91	109.804
241.28	126.000
241.65	138.000
242.02	97.101
242.40	95.161
242.77	101.667
243.14	89.247
243.51	85.393
243.89	81.176
244.26	76.667
244.63	67.742
245.00	69.149
245.38	68.317
245.75	64.486
246.12	64.220
246.49	72.993
246.87	72.800
247.24	63.077
247.61	62.857
247.98	63.399
248.36	47.297
248.73	50.318
249.10	56.051
249.47	55.932
249.84	54.011
250.22	48.663
250.59	50.296
250.96	49.495
251.33	44.076
251.70	49.505
252.08	50.476
252.45	39.462
252.82	46.957
253.19	48.085
253.56	46.275
253.94	45.643
254.31	39.844
254.68	45.000
255.05	42.066
255.42	42.276
255.79	42.279
256.16	40.433
256.54	35.689
256.91	41.281
257.28	37.770
257.65	39.604
258.02	40.373
258.39	38.486
258.76	40.468
259.14	39.583
259.51	37.082
259.88	32.609
260.25	35.650
260.62	36.416
260.99	36.025
261.36	38.438
261.73	34.097
262.10	37.209
262.47	36.620
262.85	38.440
263.22	31.909
263.59	38.746
263.96	31.319
264.33	38.120
264.70	34.474
265.07	33.760
265.44	30.303
265.81	33.090
266.18	38.191
266.55	34.878
266.92	33.907
267.29	32.176
267.66	31.651
268.03	32.955
268.40	32.944
268.77	30.788
269.14	30.180
269.51	32.280
269.88	34.033
270.25	33.634
270.62	32.584
270.99	35.054
271.36	32.403
271.73	27.804
272.10	32.391
272.47	31.183
272.84	33.333
273.21	33.124
273.58	33.188
273.95	27.883
274.32	31.198
274.69	32.976
275.06	30.512
275.43	28.936
275.80	31.663
276.17	29.735
276.54	30.353
276.91	30.435
277.28	27.930
277.65	29.981
278.02	30.642
278.39	28.320
278.76	30.364
279.13	29.245
279.50	30.354
279.87	28.685
280.23	31.337
280.60	30.174
280.97	28.096
281.34	28.673
281.71	29.636
282.08	29.367
282.45	28.727
282.82	27.709
283.19	27.451
283.56	29.123
283.92	28.596
284.29	27.160
284.66	28.131
285.03	27.486
285.40	27.289
285.77	26.936
286.14	28.670
286.51	27.000
286.87	27.692
287.24	27.199
287.61	24.719
287.98	26.136
288.35	26.624
288.72	27.103
289.08	25.509
289.45	25.206
289.82	25.203
290.19	26.060
290.56	23.583
290.93	24.018
291.29	25.613
291.66	24.779
292.03	25.291
292.40	27.166
292.77	23.964
293.13	24.030
293.50	24.344
293.87	22.815
294.24	22.074
294.60	22.999
294.97	22.965
295.34	23.695
295.71	23.580
296.08	20.085
296.44	23.246
296.81	22.853
297.18	21.816
297.55	21.768
297.91	19.393
298.28	23.561
298.65	22.324
299.02	21.212
299.38	22.178
299.75	20.350
300.12	20.307
300.48	21.250
300.85	22.935
301.22	20.382
301.59	20.455
301.95	22.040
302.32	21.694
302.69	19.833
303.05	21.212
303.42	20.000
303.79	20.272
304.15	19.231
304.52	19.119
304.89	18.931
305.25	20.998
305.62	20.385
305.99	21.015
306.35	20.805
306.72	19.955
307.09	20.755
307.45	21.171
307.82	19.643
308.19	20.309
308.55	20.712
308.92	19.334
309.29	18.585
309.65	19.406
310.02	18.922
310.38	18.065
310.75	19.430
311.12	19.345
311.48	19.645
311.85	19.706
312.22	19.875
312.58	19.543
312.95	20.486
313.31	18.932
313.68	20.270
314.05	20.907
314.41	20.804
314.78	20.242
315.14	20.357
315.51	21.112
315.87	20.693
316.24	20.854
316.61	20.663
316.97	20.157
317.34	21.233
317.70	22.371
318.07	22.810
318.43	23.092
318.80	21.743
319.16	22.222
319.53	23.171
319.89	24.476
320.26	24.400
320.62	24.702
320.99	25.051
321.35	26.364
321.72	26.078
322.08	25.864
322.45	28.657
322.81	28.101
323.18	27.649
323.54	28.293
323.91	29.811
324.27	28.681
324.64	29.823
325.00	30.388
325.37	31.756
325.73	32.047
326.10	31.951
326.46	32.079
326.83	33.218
327.19	33.561
327.56	35.279
327.92	36.133
328.29	35.759
328.65	37.385
329.01	37.004
329.38	36.910
329.74	36.934
330.11	37.983
330.47	38.751
330.84	39.246
331.20	39.344
331.56	39.541
331.93	40.648
332.29	40.728
332.66	40.708
333.02	41.316
333.38	41.825
333.75	42.513
334.11	42.171
334.48	40.284
334.84	42.188
335.20	41.455
335.57	41.070
335.93	42.589
336.29	42.491
336.66	43.102
337.02	42.353
337.38	42.963
337.75	42.870
338.11	44.047
338.47	43.278
338.84	45.463
339.20	45.138
339.56	46.715
339.93	46.182
340.29	45.380
340.65	45.276
341.02	45.550
341.38	46.619
341.74	45.175
342.11	45.852
342.47	45.463
342.83	45.291
343.20	47.273
343.56	45.324
343.92	45.614
344.28	46.344
344.65	46.088
345.01	46.633
345.37	45.798
345.73	48.139
346.10	49.190
346.46	48.220
346.82	47.446
347.19	48.204
347.55	47.783
347.91	47.654
348.27	50.205
348.63	49.916
349.00	50.243
349.36	47.701
349.72	48.276
350.08	50.081
350.45	50.854
350.81	49.959
351.17	51.702
351.53	50.369
351.89	48.432
352.26	50.829
352.62	51.323
352.98	50.567
353.34	52.588
353.70	52.619
354.07	52.823
354.43	51.270
354.79	53.339
355.15	52.434
355.51	54.516
355.87	54.286
356.24	53.339
356.60	51.564
356.96	55.028
357.32	55.192
357.68	54.331
358.04	54.553
358.40	55.424
358.77	55.086
359.13	54.459
359.49	55.765
359.85	55.079
360.21	56.220
360.57	57.276
360.93	58.615
361.29	55.858
361.66	56.579
362.02	57.015
362.38	56.958
362.74	58.036
363.10	58.623
363.46	58.107
363.82	57.899
364.18	58.443
364.54	59.435
364.90	59.773
365.26	59.191
365.62	60.117
365.98	59.167
366.35	58.596
366.71	61.750
367.07	60.743
367.43	61.321
367.79	61.099
368.15	61.135
368.51	60.974
368.87	62.455
369.23	62.985
369.59	62.129
369.95	61.912
370.31	62.251
370.67	62.391
371.03	63.521
371.39	63.338
371.75	64.485
372.11	63.514
372.47	65.836
372.83	67.003
373.19	63.584
373.55	65.484
373.91	68.041
374.27	63.918
374.63	66.255
374.99	66.384
375.35	66.085
375.71	65.387
376.07	67.215
376.42	68.432
376.78	66.269
377.14	68.046
377.50	68.543
377.86	66.955
378.22	68.394
378.58	67.857
378.94	68.008
379.30	69.148
379.66	70.241
380.02	70.577
380.38	68.002
380.74	71.188
381.09	70.355
381.45	70.805
381.81	71.007
382.17	70.000
382.53	71.258
382.89	72.346
383.25	71.420
383.61	73.606
383.97	71.482
384.32	69.994
384.68	72.367
385.04	71.911
385.40	71.827
385.76	72.236
386.12	73.964
386.48	73.128
386.83	74.535
387.19	74.954
387.55	72.727
387.91	73.579
388.27	72.594
388.62	72.833
388.98	73.342
389.34	74.531
389.70	74.678
390.06	75.856
390.42	75.357
390.77	74.618
391.13	76.962
391.49	73.921
391.85	74.984
392.20	74.132
392.56	75.505
392.92	74.691
393.28	74.911
393.64	74.640
393.99	74.343
394.35	76.241
394.71	74.843
395.07	74.268
395.42	75.587
395.78	74.300
396.14	73.495
396.50	76.817
396.85	76.669
397.21	75.586
397.57	75.635
397.92	76.202
398.28	74.215
398.64	75.030
399.00	74.930
399.35	74.337
399.71	74.711
400.07	74.453
400.42	74.908
400.78	76.297
401.14	76.341
401.49	75.343
401.85	76.467
402.21	74.731
402.57	75.817
402.92	75.851
403.28	76.889
403.63	75.371
403.99	76.242
404.35	74.182
404.70	74.940
405.06	74.665
405.42	75.421
405.77	73.257
406.13	72.912
406.49	74.276
406.84	74.306
407.20	73.759
407.55	74.091
407.91	75.867
408.27	76.197
408.62	73.570
408.98	73.407
409.34	74.662
409.69	74.194
410.05	73.854
410.40	73.761
410.76	72.640
411.11	73.100
411.47	72.843
411.83	72.572
412.18	72.418
412.54	74.720
412.89	73.133
413.25	73.200
413.60	74.614
413.96	71.463
414.31	72.296
414.67	72.180
415.03	74.040
415.38	73.454
415.74	72.797
416.09	73.547
416.45	73.427
416.80	73.695
417.16	73.592
417.51	74.386
417.87	72.447
418.22	72.681
418.58	72.950
418.93	73.280
419.29	72.565
419.64	73.426
420.00	72.927
420.35	71.014
420.71	72.086
421.06	72.613
421.42	72.281
421.77	71.413
422.12	72.712
422.48	71.668
422.83	73.500
423.19	71.547
423.54	73.476
423.90	72.000
424.25	72.864
424.61	73.155
424.96	72.828
425.31	71.096
425.67	71.517
426.02	72.057
426.38	73.504
426.73	71.796
427.09	71.976
427.44	73.491
427.79	72.398
428.15	72.976
428.50	73.376
428.85	72.706
429.21	73.164
429.56	72.680
429.92	71.414
430.27	71.648
430.62	71.582
430.98	71.666
431.33	70.825
431.68	71.675
432.04	71.299
432.39	73.387
432.74	72.831
433.10	72.439
433.45	73.061
433.80	72.838
434.16	72.329
434.51	72.474
434.86	73.375
435.22	73.708
435.57	73.435
435.92	72.967
436.28	73.962
436.63	72.241
436.98	71.666
437.34	72.570
437.69	74.971
438.04	73.356
438.39	72.179
438.75	73.678
439.10	73.240
439.45	71.370
439.81	73.051
440.16	71.429
440.51	71.822
440.86	73.075
441.22	73.471
441.57	72.081
441.92	71.750
442.27	72.551
442.63	71.775
442.98	73.746
443.33	72.391
443.68	71.657
444.03	72.816
444.39	71.470
444.74	72.673
445.09	72.075
445.44	71.186
445.79	71.796
446.15	70.513
446.50	70.005
446.85	72.456
447.20	70.525
447.55	72.920
447.91	70.656
448.26	70.729
448.61	71.962
448.96	71.041
449.31	72.497
449.66	70.174
450.02	71.031
450.37	70.295
450.72	71.122
451.07	69.957
451.42	69.666
451.77	70.816
452.12	70.439
452.47	69.776
452.83	70.455
453.18	69.743
453.53	72.171
453.88	70.939
454.23	69.456
454.58	70.382
454.93	70.439
455.28	68.454
455.63	70.024
455.98	70.536
456.34	70.791
456.69	69.317
457.04	69.783
457.39	68.673
457.74	68.427
458.09	68.890
458.44	69.384
458.79	67.625
459.14	68.115
459.49	67.017
459.84	67.701
460.19	66.942
460.54	66.088
460.89	66.703
461.24	67.699
461.59	68.158
461.94	65.783
462.29	67.181
462.64	65.986
462.99	66.103
463.34	66.133
463.69	66.917
464.04	65.971
464.39	65.565
464.74	64.765
465.09	64.958
465.44	65.208
465.79	64.933
466.14	63.766
466.49	64.739
466.84	65.558
467.19	64.333
467.54	65.188
467.89	64.046
468.24	63.758
468.59	64.835
468.94	62.553
469.29	64.267
469.64	66.600
469.99	65.291
470.34	64.399
470.68	63.937
471.03	63.469
471.38	63.516
471.73	63.158
472.08	64.539
472.43	61.432
472.78	63.134
473.13	62.003
473.48	62.984
473.83	62.378
474.17	62.166
474.52	62.779
474.87	61.996
475.22	61.927
475.57	61.419
475.92	61.020
476.27	60.203
476.61	60.728
476.96	60.308
477.31	59.236
477.66	60.558
478.01	59.383
478.36	59.757
478.70	59.709
479.05	60.277
479.40	59.877
479.75	58.617
480.10	59.543
480.45	57.972
480.79	57.812
481.14	59.002
481.49	58.662
481.84	58.116
482.19	58.246
482.53	58.028
482.88	58.213
483.23	58.037
483.58	57.734
483.92	57.591
484.27	56.122
484.62	56.724
484.97	55.853
485.31	56.849
485.66	55.261
486.01	53.850
486.36	52.514
486.70	51.995
487.05	52.368
487.40	53.728
487.75	54.053
488.09	54.534
488.44	53.436
488.79	55.335
489.13	55.080
489.48	55.465
489.83	54.122
490.17	55.283
490.52	53.986
490.87	53.460
491.22	54.616
491.56	52.893
491.91	53.653
492.26	53.284
492.60	53.687
492.95	52.292
493.30	52.617
493.64	52.730
493.99	52.739
494.34	52.914
494.68	53.205
495.03	52.350
495.37	51.792
495.72	52.437
496.07	52.854
496.41	51.814
496.76	51.979
497.11	51.463
497.45	51.933
497.80	51.727
498.14	50.580
498.49	51.756
498.84	51.678
499.18	51.190
499.53	51.092
499.87	51.305
500.22	50.777
500.56	51.456
500.91	50.913
501.26	49.739
501.60	50.261
501.95	49.863
502.29	50.843
502.64	50.372
502.98	50.818
503.33	49.314
503.67	49.606
504.02	49.252
504.36	48.292
504.71	49.487
505.06	49.349
505.40	48.809
505.75	49.180
506.09	49.320
506.44	49.038
506.78	48.904
507.13	48.915
507.47	49.343
507.82	48.734
508.16	48.784
508.51	49.163
508.85	47.517
509.19	48.724
509.54	48.520
509.88	47.862
510.23	48.586
510.57	49.484
510.92	48.524
511.26	47.379
511.61	48.237
511.95	46.347
512.30	46.448
512.64	47.125
512.98	48.071
513.33	47.537
513.67	46.692
514.02	47.673
514.36	47.679
514.70	47.814
515.05	46.737
515.39	46.831
515.74	46.959
516.08	46.674
516.42	45.727
516.77	46.767
517.11	46.559
517.46	46.501
517.80	46.167
518.14	46.207
518.49	46.149
518.83	45.625
519.17	46.305
519.52	46.406
519.86	45.864
520.20	45.087
520.55	46.858
520.89	47.019
521.23	46.441
521.58	46.279
521.92	45.009
522.26	44.539
522.61	46.916
522.95	45.120
523.29	45.283
523.64	45.366
523.98	44.917
524.32	44.692
524.66	44.197
525.01	44.914
525.35	44.734
525.69	44.397
526.04	45.047
526.38	43.197
526.72	44.479
527.06	45.072
527.41	42.698
527.75	44.566
528.09	43.674
528.43	44.933
528.78	43.884
529.12	43.394
529.46	44.948
529.80	44.431
530.15	43.489
530.49	43.138
530.83	44.684
531.17	44.452
531.51	43.450
531.86	42.903
532.20	43.286
532.54	42.857
532.88	42.234
533.22	41.724
533.57	42.840
533.91	42.203
534.25	42.284
534.59	41.672
534.93	41.701
535.27	41.823
535.62	41.453
535.96	42.812
536.30	42.339
536.64	41.597
536.98	42.004
537.32	40.553
537.66	41.200
538.01	41.606
538.35	40.789
538.69	41.672
539.03	40.871
539.37	41.022
539.71	39.274
540.05	40.980
540.39	40.731
540.73	40.556
541.07	41.207
541.42	41.553
541.76	40.000
542.10	40.427
542.44	40.066
542.78	40.909
543.12	38.708
543.46	39.541
543.80	39.167
544.14	39.281
544.48	39.619
544.82	39.256
545.16	39.427
545.50	39.460
545.84	39.852
546.18	39.731
546.52	40.262
546.86	38.900
547.20	40.324
547.54	38.677
547.88	40.179
548.22	38.917
548.56	39.748
548.90	38.988
549.24	38.788
549.58	39.018
549.92	39.492
550.26	39.489
550.60	38.174
550.94	38.099
551.28	37.601
551.62	39.252
551.96	39.018
552.30	39.795
552.64	38.810
552.98	38.441
553.32	38.098
553.66	38.855
554.00	38.572
554.34	37.060
554.68	39.557
555.02	38.717
555.36	37.857
555.69	37.483
556.03	37.550
556.37	37.108
556.71	36.630
557.05	37.955
557.39	37.439
557.73	37.332
558.07	39.449
558.41	37.265
558.75	38.281
559.08	38.031
559.42	37.642
559.76	39.191
560.10	36.688
560.44	37.736
560.78	36.394
561.12	36.741
561.45	37.093
561.79	36.519
562.13	36.419
562.47	36.202
562.81	37.657
563.15	35.385
563.48	37.268
563.82	36.269
564.16	37.279
564.50	36.263
564.84	35.841
565.17	35.521
565.51	36.038
565.85	36.739
566.19	34.878
566.52	37.175
566.86	34.659
567.20	36.969
567.54	35.103
567.88	34.275
568.21	35.238
568.55	34.378
568.89	34.776
569.23	33.645
569.56	32.713
569.90	33.396
570.24	33.010
570.57	32.268
570.91	31.739
571.25	31.686
571.59	32.194
571.92	32.316
572.26	31.918
572.60	32.282
572.93	32.264
573.27	32.298
573.61	32.133
573.95	32.041
574.28	31.030
574.62	31.268
574.96	30.920
575.29	30.820
575.63	30.945
575.97	31.138
576.30	30.749
576.64	31.665
576.98	31.283
577.31	30.730
577.65	30.879
577.98	30.519
578.32	30.222
578.66	30.503
578.99	30.746
579.33	30.550
579.67	30.577
580.00	30.592
580.34	30.565
580.67	30.631
581.01	30.695
581.35	30.211
581.68	30.147
582.02	29.736
582.35	30.289
582.69	29.979
583.02	30.027
583.36	31.174
583.70	30.694
584.03	30.982
584.37	31.041
584.70	30.721
585.04	29.966
585.37	30.592
585.71	30.498
586.04	30.345
586.38	30.695
586.72	31.262
587.05	30.481
587.39	30.026
587.72	29.941
588.06	30.870
588.39	30.727
588.73	30.419
589.06	31.567
589.40	31.515
589.73	30.975
590.07	31.246
590.40	30.544
590.73	31.187
591.07	31.624
591.40	31.843
591.74	32.294
592.07	31.414
592.41	30.963
592.74	30.637
593.08	30.446
593.41	30.307
593.75	29.544
594.08	30.137
594.41	30.718
594.75	30.610
595.08	29.850
595.42	30.438
595.75	30.520
596.09	31.431
596.42	30.727
596.75	31.490
597.09	31.818
597.42	30.312
597.75	31.091
598.09	30.696
598.42	29.940
598.76	30.726
599.09	29.266
599.42	30.058
599.76	30.417
600.09	29.508
600.42	29.730
600.76	29.893
601.09	29.763
601.42	29.490
601.76	29.753
602.09	30.158
602.42	29.896
602.76	30.310
603.09	29.662
603.42	30.340
603.76	29.802
604.09	29.624
604.42	29.923
604.76	30.367
605.09	30.363
605.42	29.799
605.75	30.298
606.09	30.094
606.42	29.792
606.75	30.195
607.09	29.761
607.42	30.039
607.75	29.198
608.08	29.483
608.42	30.569
608.75	29.576
609.08	29.371
609.41	29.462
609.75	29.395
610.08	29.925
610.41	29.562
610.74	29.896
611.07	30.237
611.41	30.226
611.74	30.317
612.07	29.658
612.40	30.115
612.73	29.474
613.07	29.903
613.40	30.384
613.73	30.257
614.06	30.484
614.39	29.680
614.72	29.263
615.06	30.200
615.39	30.255
615.72	30.112
616.05	30.037
616.38	29.127
616.71	30.701
617.05	31.154
617.38	29.044
617.71	29.429
618.04	30.048
618.37	30.988
618.70	30.678
619.03	30.724
619.36	30.075
619.69	30.986
620.03	30.357
620.36	30.414
620.69	31.712
621.02	30.973
621.35	30.932
621.68	30.607
622.01	30.573
622.34	31.392
622.67	32.243
623.00	30.594
623.33	29.450
623.66	30.879
623.99	30.486
624.32	29.030
624.65	29.873
624.99	29.391
625.32	30.268
625.65	31.330
625.98	31.130
626.31	31.260
626.64	31.184
626.97	30.175
627.30	31.754
627.63	32.158
627.96	31.119
628.29	30.971
628.62	32.022
628.95	33.491
629.28	30.931
629.61	32.447
629.94	31.333
630.26	31.363
630.59	31.554
630.92	33.429
