SpectraSuite Data File
++++++++++++++++++++++++++++++++++++
Date: Wed May 13 19:51:04 PDT 2015
User: schluterlab
Dark Spectrum Present: Yes
Reference Spectrum Present: Yes
Number of Sampled Component Spectra: 1
Spectrometers: USB2E3373
Integration Time (usec): 3000 (USB2E3373)
Spectra Averaged: 3 (USB2E3373)
Boxcar Smoothing: 0 (USB2E3373)
Correct for Electrical Dark: No (USB2E3373)
Strobe/Lamp Enabled: No (USB2E3373)
Correct for Detector Non-linearity: No (USB2E3373)
Correct for Stray Light: No (USB2E3373)
Number of Pixels in Processed Spectrum: 2048
>>>>>Begin Processed Spectral Data<<<<<
178.53	0.000
178.91	-1175.000
179.29	-1550.000
179.67	-244.444
180.04	-1300.000
180.42	3050.000
180.80	1100.000
181.18	-1075.000
181.56	871.429
181.94	0.000
182.31	-742.857
182.69	1733.333
183.07	-500.000
183.45	-500.000
183.83	509.091
184.20	-440.000
184.58	2150.000
184.96	6100.000
185.34	-980.000
185.72	-562.500
186.09	-2750.000
186.47	3150.000
186.85	2450.000
187.23	4900.000
187.61	-1533.333
187.98	1325.000
188.36	572.727
188.74	590.909
189.12	-1060.000
189.49	660.000
189.87	-5200.000
190.25	-1250.000
190.63	442.857
191.00	438.462
191.38	950.000
191.76	-1100.000
192.14	1300.000
192.51	700.000
192.89	933.333
193.27	687.500
193.65	-1525.000
194.02	550.000
194.40	900.000
194.78	620.000
195.15	583.333
195.53	670.000
195.91	-2000.000
196.29	362.500
196.66	336.842
197.04	-370.000
197.42	0.000
197.79	640.000
198.17	-5900.000
198.55	785.714
198.92	825.000
199.30	920.000
199.68	0.000
200.05	327.778
200.43	971.429
200.81	4700.000
201.18	1933.333
201.56	-1966.667
201.94	577.778
202.31	577.778
202.69	516.667
203.07	530.000
203.44	0.000
203.82	1450.000
204.19	757.143
204.57	514.286
204.95	712.500
205.32	2100.000
205.70	545.455
206.08	457.143
206.45	2650.000
206.83	400.000
207.20	1083.333
207.58	880.000
207.96	355.556
208.33	700.000
208.71	-800.000
209.08	814.286
209.46	600.000
209.84	481.818
210.21	-1800.000
210.59	1575.000
210.96	-587.500
211.34	3000.000
211.71	530.000
212.09	700.000
212.46	0.000
212.84	1466.667
213.22	1300.000
213.59	-5300.000
213.97	950.000
214.34	800.000
214.72	709.091
215.09	1160.000
215.47	-2350.000
215.84	-2950.000
216.22	1733.333
216.59	450.000
216.97	1550.000
217.34	490.909
217.72	-750.000
218.09	0.000
218.47	-4700.000
218.84	611.111
219.22	828.571
219.59	1800.000
219.97	-728.571
220.34	1020.000
220.72	-2066.667
221.09	442.857
221.47	1750.000
221.84	-900.000
222.22	0.000
222.59	1550.000
222.97	-2900.000
223.34	1300.000
223.72	492.308
224.09	1040.000
224.46	2600.000
224.84	-4800.000
225.21	-1200.000
225.59	-5200.000
225.96	640.000
226.34	365.000
226.71	3050.000
227.08	775.000
227.46	570.000
227.83	-1300.000
228.21	-2450.000
228.58	722.222
228.95	-2400.000
229.33	-2800.000
229.70	1833.333
230.08	1042.857
230.45	-1040.000
230.82	533.333
231.20	1016.667
231.57	700.000
231.95	475.000
232.32	218.182
232.69	481.818
233.07	885.714
233.44	430.769
233.81	-2133.333
234.19	394.737
234.56	466.667
234.93	425.000
235.31	509.091
235.68	407.692
236.05	414.286
236.43	190.909
236.80	315.789
237.17	5300.000
237.55	300.000
237.92	203.571
238.29	238.095
238.67	170.968
239.04	227.586
239.41	166.667
239.79	152.174
240.16	169.048
240.53	168.182
240.91	133.333
241.28	124.000
241.65	118.000
242.02	101.449
242.40	104.839
242.77	110.000
243.14	87.097
243.51	95.506
243.89	94.118
244.26	82.222
244.63	81.720
245.00	93.617
245.38	81.188
245.75	74.766
246.12	70.642
246.49	72.263
246.87	75.200
247.24	76.923
247.61	72.143
247.98	66.013
248.36	64.189
248.73	57.962
249.10	61.783
249.47	53.672
249.84	61.497
250.22	54.011
250.59	52.071
250.96	54.545
251.33	54.976
251.70	55.941
252.08	50.952
252.45	50.224
252.82	43.043
253.19	52.766
253.56	53.725
253.94	51.037
254.31	49.609
254.68	51.538
255.05	45.387
255.42	50.407
255.79	43.382
256.16	46.570
256.54	41.696
256.91	45.196
257.28	42.086
257.65	45.875
258.02	41.304
258.39	42.587
258.76	42.475
259.14	44.048
259.51	37.690
259.88	42.236
260.25	42.900
260.62	38.439
260.99	43.168
261.36	43.844
261.73	40.401
262.10	41.570
262.47	41.408
262.85	36.769
263.22	40.741
263.59	45.014
263.96	38.736
264.33	39.687
264.70	38.684
265.07	39.642
265.44	39.394
265.81	36.740
266.18	36.935
266.55	36.098
266.92	38.821
267.29	39.352
267.66	38.073
268.03	37.273
268.40	36.682
268.77	36.277
269.14	37.613
269.51	39.052
269.88	38.462
270.25	36.343
270.62	36.180
270.99	38.495
271.36	37.768
271.73	38.551
272.10	35.870
272.47	38.495
272.84	37.229
273.21	35.849
273.58	36.463
273.95	33.124
274.32	34.711
274.69	36.831
275.06	35.630
275.43	34.681
275.80	34.469
276.17	36.253
276.54	34.304
276.91	33.992
277.28	34.375
277.65	35.590
278.02	35.611
278.39	35.156
278.76	34.182
279.13	36.226
279.50	35.568
279.87	32.669
280.23	36.527
280.60	34.043
280.97	34.011
281.34	35.752
281.71	35.091
282.08	36.852
282.45	33.636
282.82	31.972
283.19	30.838
283.56	33.333
283.92	34.518
284.29	32.275
284.66	30.853
285.03	32.911
285.40	32.746
285.77	31.650
286.14	32.124
286.51	34.000
286.87	32.137
287.24	31.922
287.61	31.782
287.98	31.656
288.35	31.220
288.72	30.530
289.08	30.047
289.45	29.489
289.82	32.358
290.19	29.199
290.56	27.259
290.93	29.456
291.29	30.061
291.66	30.236
292.03	31.250
292.40	29.956
292.77	28.254
293.13	29.254
293.50	28.426
293.87	28.741
294.24	27.556
294.60	26.638
294.97	29.070
295.34	28.350
295.71	28.409
296.08	26.638
296.44	25.997
296.81	23.910
297.18	26.287
297.55	24.802
297.91	24.802
298.28	27.845
298.65	27.546
299.02	25.165
299.38	26.162
299.75	24.528
300.12	25.287
300.48	23.500
300.85	25.154
301.22	25.732
301.59	24.495
301.95	25.189
302.32	24.519
302.69	23.178
303.05	25.333
303.42	24.444
303.79	23.556
304.15	24.242
304.52	23.754
304.89	22.648
305.25	23.434
305.62	24.122
305.99	25.030
306.35	25.056
306.72	23.206
307.09	24.417
307.45	25.113
307.82	23.661
308.19	23.841
308.55	25.243
308.92	24.275
309.29	23.865
309.65	23.966
310.02	22.939
310.38	26.344
310.75	24.815
311.12	23.337
311.48	25.078
311.85	24.738
312.22	24.974
312.58	24.324
312.95	25.554
313.31	23.981
313.68	25.572
314.05	26.036
314.41	27.337
314.78	26.485
315.14	26.018
315.51	27.600
315.87	28.416
316.24	26.316
316.61	28.070
316.97	28.180
317.34	27.886
317.70	28.776
318.07	30.125
318.43	30.528
318.80	30.647
319.16	32.486
319.53	30.582
319.89	32.667
320.26	33.000
320.62	33.036
320.99	35.051
321.35	34.949
321.72	37.269
322.08	36.130
322.45	38.507
322.81	40.795
323.18	39.595
323.54	40.260
323.91	42.736
324.27	42.161
324.64	42.591
325.00	43.463
325.37	46.770
325.73	48.294
326.10	49.073
326.46	49.014
326.83	52.114
327.19	51.665
327.56	53.833
327.92	55.643
328.29	56.877
328.65	58.011
329.01	56.137
329.38	59.759
329.74	58.633
330.11	60.509
330.47	60.790
330.84	63.787
331.20	62.933
331.56	63.119
331.93	63.981
332.29	64.241
332.66	65.841
333.02	65.356
333.38	66.396
333.75	66.756
334.11	67.438
334.48	67.879
334.84	70.680
335.20	68.636
335.57	70.082
335.93	68.482
336.29	69.414
336.66	69.161
337.02	67.602
337.38	71.019
337.75	69.251
338.11	71.441
338.47	73.112
338.84	72.411
339.20	71.193
339.56	73.540
339.93	72.818
340.29	72.464
340.65	72.282
341.02	72.513
341.38	74.911
341.74	72.719
342.11	74.934
342.47	74.890
342.83	73.716
343.20	73.939
343.56	73.631
343.92	76.754
344.28	74.830
344.65	78.074
345.01	72.727
345.37	75.901
345.73	77.157
346.10	75.618
346.46	76.356
346.82	75.700
347.19	75.940
347.55	75.944
347.91	76.133
348.27	78.307
348.63	77.007
349.00	75.000
349.36	77.011
349.72	76.905
350.08	77.553
350.45	78.926
350.81	77.823
351.17	77.634
351.53	78.706
351.89	76.568
352.26	79.006
352.62	79.070
352.98	79.660
353.34	79.704
353.70	78.232
354.07	79.274
354.43	78.254
354.79	77.635
355.15	80.367
355.51	81.375
355.87	81.551
356.24	80.130
356.60	79.551
356.96	82.060
357.32	83.156
357.68	82.913
358.04	79.493
358.40	81.235
358.77	81.534
359.13	81.847
359.49	81.804
359.85	81.349
360.21	82.695
360.57	81.634
360.93	82.154
361.29	81.104
361.66	82.276
362.02	82.463
362.38	83.574
362.74	83.557
363.10	82.902
363.46	82.392
363.82	83.976
364.18	81.351
364.54	84.844
364.90	83.924
365.26	84.632
365.62	85.829
365.98	84.514
366.35	83.238
366.71	83.731
367.07	84.122
367.43	85.631
367.79	86.367
368.15	85.991
368.51	86.555
368.87	84.797
369.23	85.004
369.59	86.025
369.95	84.265
370.31	85.755
370.67	85.580
371.03	87.715
371.39	85.569
371.75	86.176
372.11	84.068
372.47	87.097
372.83	88.401
373.19	86.344
373.55	88.027
373.91	89.543
374.27	85.292
374.63	87.418
374.99	87.641
375.35	85.973
375.71	84.030
376.07	86.145
376.42	89.340
376.78	85.487
377.14	87.720
377.50	88.477
377.86	85.638
378.22	86.726
378.58	84.649
378.94	87.178
379.30	87.913
379.66	89.467
380.02	86.486
380.38	87.250
380.74	88.115
381.09	88.203
381.45	88.261
381.81	87.285
382.17	87.134
382.53	87.421
382.89	87.654
383.25	88.118
383.61	88.414
383.97	88.806
384.32	85.652
384.68	86.927
385.04	87.585
385.40	86.687
385.76	87.039
386.12	87.306
386.48	88.420
386.83	89.737
387.19	88.745
387.55	86.766
387.91	86.336
388.27	87.615
388.62	87.769
388.98	86.732
389.34	87.985
389.70	87.124
390.06	86.946
390.42	88.521
390.77	86.196
391.13	87.875
391.49	86.992
391.85	86.760
392.20	86.877
392.56	86.995
392.92	87.640
393.28	86.982
393.64	86.451
393.99	85.095
394.35	86.725
394.71	85.508
395.07	84.112
395.42	87.639
395.78	87.850
396.14	85.040
396.50	86.591
396.85	87.222
397.21	84.710
397.57	85.741
397.92	86.719
398.28	85.202
398.64	85.066
399.00	85.003
399.35	85.110
399.71	85.012
400.07	83.915
400.42	85.521
400.78	84.499
401.14	85.732
401.49	84.657
401.85	84.815
402.21	82.934
402.57	85.750
402.92	85.120
403.28	83.885
403.63	85.210
403.99	85.732
404.35	84.121
404.70	84.113
405.06	84.799
405.42	84.654
405.77	84.571
406.13	82.449
406.49	83.205
406.84	82.457
407.20	82.801
407.55	83.408
407.91	84.267
408.27	83.791
408.62	80.554
408.98	83.517
409.34	83.026
409.69	84.000
410.05	83.147
410.40	83.914
410.76	83.572
411.11	82.388
411.47	82.492
411.83	82.101
412.18	83.364
412.54	83.375
412.89	81.205
413.25	81.641
413.60	85.176
413.96	80.814
414.31	80.620
414.67	82.573
415.03	83.444
415.38	82.216
415.74	82.379
416.09	83.801
416.45	81.660
416.80	81.956
417.16	83.445
417.51	82.614
417.87	82.274
418.22	83.281
418.58	83.344
418.93	83.538
419.29	82.495
419.64	83.879
420.00	83.476
420.35	82.087
420.71	83.144
421.06	81.444
421.42	81.754
421.77	81.334
422.12	81.808
422.48	82.299
422.83	82.586
423.19	82.155
423.54	83.111
423.90	82.087
424.25	80.849
424.61	81.131
424.96	84.198
425.31	81.672
425.67	82.022
426.02	80.229
426.38	84.493
426.73	83.675
427.09	83.891
427.44	84.014
427.79	83.209
428.15	82.679
428.50	82.972
428.85	83.909
429.21	82.938
429.56	83.256
429.92	82.285
430.27	82.075
430.62	81.720
430.98	82.408
431.33	80.309
431.68	83.927
432.04	81.789
432.39	83.324
432.74	83.842
433.10	83.588
433.45	84.257
433.80	82.650
434.16	82.479
434.51	81.632
434.86	84.436
435.22	84.491
435.57	84.438
435.92	83.499
436.28	84.698
436.63	82.947
436.98	84.144
437.34	85.450
437.69	84.306
438.04	83.418
438.39	83.940
438.75	84.021
439.10	84.358
439.45	83.766
439.81	84.350
440.16	82.722
440.51	84.534
440.86	84.134
441.22	84.205
441.57	84.023
441.92	84.545
442.27	83.584
442.63	82.938
442.98	83.606
443.33	82.772
443.68	82.034
444.03	82.918
444.39	82.960
444.74	83.225
445.09	83.989
445.44	82.996
445.79	82.533
446.15	82.901
446.50	83.360
446.85	83.299
447.20	82.356
447.55	84.869
447.91	84.335
448.26	83.472
448.61	83.663
448.96	82.835
449.31	83.690
449.66	83.962
450.02	83.454
450.37	82.710
450.72	83.305
451.07	82.815
451.42	81.337
451.77	83.265
452.12	80.716
452.47	82.649
452.83	83.916
453.18	82.396
453.53	82.931
453.88	84.052
454.23	83.861
454.58	82.495
454.93	85.251
455.28	82.668
455.63	84.405
455.98	85.595
456.34	83.543
456.69	84.033
457.04	85.015
457.39	81.648
457.74	82.414
458.09	82.461
458.44	82.725
458.79	80.152
459.14	82.957
459.49	81.378
459.84	81.274
460.19	81.674
460.54	79.630
460.89	80.801
461.24	82.757
461.59	82.684
461.94	81.134
462.29	82.789
462.64	81.493
462.99	79.766
463.34	82.600
463.69	79.925
464.04	81.101
464.39	80.232
464.74	80.749
465.09	80.760
465.44	79.391
465.79	81.600
466.14	78.982
466.49	78.977
466.84	79.335
467.19	78.757
467.54	81.562
467.89	78.271
468.24	79.872
468.59	80.159
468.94	78.375
469.29	80.463
469.64	80.790
469.99	80.785
470.34	80.978
470.68	81.466
471.03	79.388
471.38	80.820
471.73	81.746
472.08	82.303
472.43	80.967
472.78	80.777
473.13	79.910
473.48	79.151
473.83	80.183
474.17	79.776
474.52	79.963
474.87	80.327
475.22	79.048
475.57	76.894
475.92	77.536
476.27	76.945
476.61	78.323
476.96	79.219
477.31	77.394
477.66	79.048
478.01	77.731
478.36	78.371
478.70	78.141
479.05	78.381
479.40	77.226
479.75	78.749
480.10	77.038
480.45	75.250
480.79	76.350
481.14	76.810
481.49	76.222
481.84	76.680
482.19	76.556
482.53	76.697
482.88	76.268
483.23	76.963
483.58	75.796
483.92	76.054
484.27	74.684
484.62	75.043
484.97	74.419
485.31	75.137
485.66	71.706
486.01	68.791
486.36	66.677
486.70	65.684
487.05	67.366
487.40	70.020
487.75	70.016
488.09	70.761
488.44	72.282
488.79	74.503
489.13	73.453
489.48	75.041
489.83	74.881
490.17	75.011
490.52	73.738
490.87	74.808
491.22	74.170
491.56	73.622
491.91	73.848
492.26	73.863
492.60	73.825
492.95	73.994
493.30	73.505
493.64	73.915
493.99	73.259
494.34	72.757
494.68	75.321
495.03	75.282
495.37	72.034
495.72	74.708
496.07	75.081
496.41	71.504
496.76	72.296
497.11	72.985
497.45	73.451
497.80	73.417
498.14	73.333
498.49	73.561
498.84	73.442
499.18	73.762
499.53	73.979
499.87	72.926
500.22	72.398
500.56	73.350
500.91	71.106
501.26	72.167
501.60	73.469
501.95	70.119
502.29	72.962
502.64	72.952
502.98	71.482
503.33	71.344
503.67	70.255
504.02	71.141
504.36	70.753
504.71	73.766
505.06	70.940
505.40	72.679
505.75	71.360
506.09	71.769
506.44	73.064
506.78	71.310
507.13	73.044
507.47	72.020
507.82	73.354
508.16	70.821
508.51	72.248
508.85	70.109
509.19	71.122
509.54	71.173
509.88	71.200
510.23	72.339
510.57	73.117
510.92	71.932
511.26	70.709
511.61	70.539
511.95	70.668
512.30	71.315
512.64	71.252
512.98	72.240
513.33	72.270
513.67	69.904
514.02	72.348
514.36	71.546
514.70	71.942
515.05	71.612
515.39	72.013
515.74	71.734
516.08	71.269
516.42	72.752
516.77	73.411
517.11	71.032
517.46	72.291
517.80	72.997
518.14	71.743
518.49	72.404
518.83	72.443
519.17	72.633
519.52	71.364
519.86	70.793
520.20	71.503
520.55	72.591
520.89	72.384
521.23	72.678
521.58	72.809
521.92	72.382
522.26	70.897
522.61	73.956
522.95	73.297
523.29	71.394
523.64	72.744
523.98	71.288
524.32	70.627
524.66	70.595
525.01	71.875
525.35	71.128
525.69	70.505
526.04	71.340
526.38	70.958
526.72	71.656
527.06	72.128
527.41	68.007
527.75	72.669
528.09	72.832
528.43	72.721
528.78	70.252
529.12	68.788
529.46	69.933
529.80	70.978
530.15	69.720
530.49	68.369
530.83	69.367
531.17	73.172
531.51	71.336
531.86	71.161
532.20	69.166
532.54	70.980
532.88	69.705
533.22	68.020
533.57	67.901
533.91	67.068
534.25	68.651
534.59	68.395
534.93	66.865
535.27	67.592
535.62	66.728
535.96	68.173
536.30	67.069
536.64	68.963
536.98	69.741
537.32	68.334
537.66	68.067
538.01	68.466
538.35	67.873
538.69	68.539
539.03	67.122
539.37	65.367
539.71	66.883
540.05	68.105
540.39	68.106
540.73	66.882
541.07	67.618
541.42	67.123
541.76	67.161
542.10	66.947
542.44	67.881
542.78	68.116
543.12	64.491
543.46	66.033
543.80	66.753
544.14	65.789
544.48	66.984
544.82	66.068
545.16	66.103
545.50	66.195
545.84	65.659
546.18	66.465
546.52	67.103
546.86	66.392
547.20	67.498
547.54	66.266
547.88	65.689
548.22	63.636
548.56	64.780
548.90	64.853
549.24	64.916
549.58	65.484
549.92	65.797
550.26	68.324
550.60	65.353
550.94	66.479
551.28	66.203
551.62	66.499
551.96	66.526
552.30	66.075
552.64	65.991
552.98	65.898
553.32	64.599
553.66	65.917
554.00	66.095
554.34	64.113
554.68	66.881
555.02	66.784
555.36	64.022
555.69	64.141
556.03	64.939
556.37	65.484
556.71	64.256
557.05	65.756
557.39	65.570
557.73	64.008
558.07	65.917
558.41	66.136
558.75	65.320
559.08	66.070
559.42	67.649
559.76	66.544
560.10	65.382
560.44	63.802
560.78	63.140
561.12	64.050
561.45	64.211
561.79	63.810
562.13	64.588
562.47	64.822
562.81	65.202
563.15	63.679
563.48	63.926
563.82	64.905
564.16	62.852
564.50	62.370
564.84	61.188
565.17	61.969
565.51	63.450
565.85	61.929
566.19	61.616
566.52	61.495
566.86	60.338
567.20	60.967
567.54	60.616
567.88	59.479
568.21	59.206
568.55	57.685
568.89	57.101
569.23	55.882
569.56	54.170
569.90	53.396
570.24	53.140
570.57	52.397
570.91	51.067
571.25	51.204
571.59	50.898
571.92	50.634
572.26	50.347
572.60	51.592
572.93	50.225
573.27	50.222
573.61	50.363
573.95	49.974
574.28	48.618
574.62	49.441
574.96	48.674
575.29	48.763
575.63	49.212
575.97	48.555
576.30	49.283
576.64	48.825
576.98	48.614
577.31	47.828
577.65	48.143
577.98	46.823
578.32	46.525
578.66	47.086
578.99	47.889
579.33	47.688
579.67	47.458
580.00	47.399
580.34	47.579
580.67	47.530
581.01	47.560
581.35	46.778
581.68	46.494
582.02	45.408
582.35	46.112
582.69	46.731
583.02	46.600
583.36	47.959
583.70	48.252
584.03	48.145
584.37	48.221
584.70	48.067
585.04	47.456
585.37	47.181
585.71	47.251
586.04	47.016
586.38	48.093
586.72	48.384
587.05	47.243
587.39	47.282
587.72	47.256
588.06	48.159
588.39	48.176
588.73	48.225
589.06	49.579
589.40	49.764
589.73	49.806
590.07	49.609
590.40	49.397
590.73	50.507
591.07	52.422
591.40	51.455
591.74	51.645
592.07	51.483
592.41	51.137
592.74	49.064
593.08	48.101
593.41	47.801
593.75	47.626
594.08	48.072
594.41	48.816
594.75	50.018
595.08	48.568
595.42	49.177
595.75	49.217
596.09	49.080
596.42	49.862
596.75	50.148
597.09	51.558
597.42	49.621
597.75	51.315
598.09	50.913
598.42	50.086
598.76	49.291
599.09	48.043
599.42	48.144
599.76	48.646
600.09	47.505
600.42	48.356
600.76	47.750
601.09	47.650
601.42	48.820
601.76	48.653
602.09	48.696
602.42	49.403
602.76	49.254
603.09	49.292
603.42	48.887
603.76	47.904
604.09	48.236
604.42	49.287
604.76	49.135
605.09	49.716
605.42	49.423
605.75	48.220
606.09	48.963
606.42	48.549
606.75	49.399
607.09	48.681
607.42	49.251
607.75	48.481
608.08	48.893
608.42	49.753
608.75	48.602
609.08	49.121
609.41	50.405
609.75	49.595
610.08	49.340
610.41	50.000
610.74	50.000
611.07	51.186
611.41	50.196
611.74	49.824
612.07	51.449
612.40	51.836
612.73	50.316
613.07	50.862
613.40	50.869
613.73	50.813
614.06	50.430
614.39	50.184
614.72	50.842
615.06	51.208
615.39	49.947
615.72	48.926
616.05	49.761
616.38	50.806
616.71	52.613
617.05	52.532
617.38	53.037
617.71	52.312
618.04	53.425
618.37	52.336
618.70	52.769
619.03	54.408
619.36	54.039
619.69	53.873
620.03	54.327
620.36	54.345
620.69	54.452
621.02	55.383
621.35	57.635
621.68	55.218
622.01	56.811
622.34	56.808
622.67	56.350
623.00	55.026
623.33	53.753
623.66	54.253
623.99	56.406
624.32	53.138
624.65	54.732
624.99	54.603
625.32	53.946
625.65	54.996
625.98	56.956
626.31	55.832
626.64	57.388
626.97	56.525
627.30	57.606
627.63	56.440
627.96	57.611
628.29	59.143
628.62	58.280
628.95	61.887
629.28	59.215
629.61	58.662
629.94	61.714
630.26	60.724
630.59	60.820
