SpectraSuite Data File
++++++++++++++++++++++++++++++++++++
Date: Wed May 13 19:46:24 PDT 2015
User: schluterlab
Dark Spectrum Present: Yes
Reference Spectrum Present: Yes
Number of Sampled Component Spectra: 1
Spectrometers: USB2E3373
Integration Time (usec): 3000 (USB2E3373)
Spectra Averaged: 3 (USB2E3373)
Boxcar Smoothing: 0 (USB2E3373)
Correct for Electrical Dark: No (USB2E3373)
Strobe/Lamp Enabled: No (USB2E3373)
Correct for Detector Non-linearity: No (USB2E3373)
Correct for Stray Light: No (USB2E3373)
Number of Pixels in Processed Spectrum: 2048
>>>>>Begin Processed Spectral Data<<<<<
178.53	0.000
178.91	-1250.000
179.29	-1200.000
179.67	-222.222
180.04	-1425.000
180.42	2700.000
180.80	1140.000
181.18	-1100.000
181.56	585.714
181.94	0.000
182.31	-585.714
182.69	1766.667
183.07	-487.500
183.45	-522.222
183.83	500.000
184.20	-460.000
184.58	2050.000
184.96	6000.000
185.34	-960.000
185.72	-562.500
186.09	-2400.000
186.47	2700.000
186.85	2800.000
187.23	6300.000
187.61	-1433.333
187.98	1400.000
188.36	581.818
188.74	554.545
189.12	-820.000
189.49	550.000
189.87	-4500.000
190.25	-1325.000
190.63	435.714
191.00	392.308
191.38	750.000
191.76	-1150.000
192.14	1275.000
192.51	687.500
192.89	983.333
193.27	387.500
193.65	-1200.000
194.02	510.000
194.40	980.000
194.78	510.000
195.15	541.667
195.53	660.000
195.91	-2250.000
196.29	337.500
196.66	336.842
197.04	-380.000
197.42	0.000
197.79	610.000
198.17	-4300.000
198.55	742.857
198.92	800.000
199.30	740.000
199.68	0.000
200.05	322.222
200.43	642.857
200.81	3500.000
201.18	1500.000
201.56	-1933.333
201.94	611.111
202.31	711.111
202.69	525.000
203.07	560.000
203.44	0.000
203.82	1150.000
204.19	800.000
204.57	500.000
204.95	600.000
205.32	1733.333
205.70	454.545
206.08	400.000
206.45	2550.000
206.83	368.750
207.20	783.333
207.58	700.000
207.96	322.222
208.33	662.500
208.71	-666.667
209.08	757.143
209.46	622.222
209.84	436.364
210.21	-1600.000
210.59	1275.000
210.96	-575.000
211.34	2300.000
211.71	620.000
212.09	850.000
212.46	0.000
212.84	1633.333
213.22	1450.000
213.59	-5200.000
213.97	816.667
214.34	842.857
214.72	481.818
215.09	1080.000
215.47	-2100.000
215.84	-2750.000
216.22	1633.333
216.59	464.286
216.97	1375.000
217.34	427.273
217.72	-700.000
218.09	0.000
218.47	-4500.000
218.84	688.889
219.22	728.571
219.59	1733.333
219.97	-685.714
220.34	880.000
220.72	-1700.000
221.09	478.571
221.47	1550.000
221.84	-866.667
222.22	0.000
222.59	1100.000
222.97	-2350.000
223.34	1060.000
223.72	423.077
224.09	1100.000
224.46	2250.000
224.84	-4900.000
225.21	-1000.000
225.59	-4800.000
225.96	550.000
226.34	330.000
226.71	2400.000
227.08	587.500
227.46	580.000
227.83	-1000.000
228.21	-2300.000
228.58	600.000
228.95	-2350.000
229.33	-2950.000
229.70	1566.667
230.08	814.286
230.45	-960.000
230.82	425.000
231.20	933.333
231.57	785.714
231.95	416.667
232.32	213.636
232.69	390.909
233.07	728.571
233.44	369.231
233.81	-1833.333
234.19	310.526
234.56	466.667
234.93	375.000
235.31	427.273
235.68	323.077
236.05	342.857
236.43	190.909
236.80	278.947
237.17	3800.000
237.55	219.048
237.92	203.571
238.29	266.667
238.67	148.387
239.04	162.069
239.41	152.778
239.79	113.043
240.16	128.571
240.53	111.364
240.91	94.118
241.28	102.000
241.65	106.000
242.02	81.159
242.40	80.645
242.77	81.667
243.14	67.742
243.51	67.416
243.89	64.706
244.26	55.556
244.63	55.914
245.00	60.638
245.38	53.465
245.75	46.729
246.12	35.780
246.49	56.204
246.87	59.200
247.24	54.615
247.61	52.857
247.98	40.523
248.36	36.486
248.73	38.217
249.10	40.764
249.47	35.593
249.84	40.107
250.22	33.155
250.59	31.953
250.96	38.384
251.33	35.071
251.70	32.673
252.08	31.429
252.45	30.942
252.82	32.174
253.19	31.489
253.56	34.118
253.94	29.876
254.31	29.297
254.68	30.769
255.05	27.675
255.42	27.642
255.79	27.206
256.16	34.657
256.54	24.735
256.91	27.402
257.28	25.540
257.65	26.073
258.02	25.155
258.39	22.397
258.76	27.759
259.14	25.893
259.51	24.316
259.88	24.534
260.25	27.190
260.62	22.832
260.99	23.913
261.36	23.123
261.73	23.209
262.10	20.058
262.47	23.380
262.85	25.348
263.22	21.083
263.59	24.786
263.96	23.352
264.33	22.193
264.70	19.737
265.07	23.274
265.44	19.444
265.81	20.925
266.18	22.111
266.55	22.683
266.92	17.936
267.29	20.370
267.66	20.872
268.03	20.000
268.40	18.925
268.77	17.900
269.14	20.946
269.51	20.542
269.88	21.212
270.25	17.833
270.62	19.551
270.99	20.430
271.36	19.528
271.73	19.393
272.10	18.043
272.47	19.570
272.84	20.130
273.21	21.384
273.58	16.157
273.95	16.562
274.32	19.835
274.69	19.700
275.06	18.898
275.43	20.000
275.80	20.441
276.17	18.737
276.54	18.503
276.91	17.391
277.28	17.578
277.65	19.342
278.02	18.219
278.39	18.750
278.76	17.455
279.13	18.113
279.50	16.946
279.87	18.526
280.23	17.166
280.60	17.021
280.97	17.375
281.34	18.053
281.71	19.091
282.08	18.810
282.45	19.091
282.82	16.696
283.19	15.330
283.56	18.246
283.92	18.105
284.29	17.637
284.66	17.786
285.03	16.817
285.40	16.021
285.77	15.152
286.14	16.235
286.51	17.000
286.87	16.752
287.24	16.450
287.61	17.014
287.98	16.721
288.35	14.263
288.72	15.109
289.08	14.554
289.45	15.157
289.82	13.984
290.19	12.873
290.56	14.395
290.93	13.142
291.29	13.650
291.66	15.929
292.03	18.750
292.40	16.887
292.77	14.941
293.13	14.328
293.50	16.181
293.87	12.741
294.24	12.741
294.60	12.664
294.97	13.227
295.34	14.951
295.71	13.636
296.08	12.963
296.44	12.517
296.81	13.078
297.18	14.092
297.55	11.346
297.91	12.929
298.28	12.851
298.65	14.491
299.02	12.253
299.38	12.351
299.75	10.512
300.12	12.388
300.48	14.000
300.85	13.194
301.22	13.376
301.59	12.500
301.95	10.579
302.32	11.810
302.69	12.186
303.05	11.394
303.42	10.494
303.79	12.911
304.15	12.354
304.52	10.660
304.89	11.382
305.25	10.789
305.62	11.325
305.99	10.980
306.35	10.738
306.72	10.874
307.09	11.321
307.45	12.838
307.82	10.937
308.19	11.810
308.55	11.866
308.92	10.526
309.29	11.193
309.65	11.135
310.02	10.677
310.38	12.581
310.75	10.454
311.12	11.566
311.48	9.718
311.85	11.006
312.22	11.550
312.58	10.811
312.95	10.771
313.31	9.806
313.68	11.850
314.05	11.834
314.41	11.759
314.78	10.675
315.14	11.122
315.51	11.020
315.87	10.693
316.24	10.725
316.61	10.819
316.97	9.980
317.34	9.295
317.70	10.134
318.07	11.165
318.43	10.176
318.80	11.153
319.16	11.394
319.53	11.069
319.89	11.905
320.26	11.400
320.62	11.607
320.99	9.798
321.35	10.202
321.72	11.088
322.08	12.537
322.45	13.632
322.81	12.209
323.18	12.235
323.54	11.967
323.91	11.887
324.27	10.994
324.64	9.786
325.00	10.550
325.37	11.283
325.73	11.759
326.10	11.650
326.46	10.305
326.83	11.734
327.19	11.272
327.56	11.498
327.92	10.411
328.29	12.156
328.65	10.681
329.01	12.455
329.38	11.656
329.74	11.265
330.11	11.122
330.47	11.570
330.84	13.327
331.20	10.565
331.56	12.018
331.93	11.296
332.29	11.180
332.66	12.566
333.02	11.335
333.38	11.743
333.75	12.478
334.11	11.210
334.48	11.003
334.84	11.029
335.20	11.091
335.57	11.967
335.93	10.089
336.29	11.538
336.66	11.542
337.02	10.588
337.38	9.907
337.75	10.250
338.11	10.743
338.47	11.878
338.84	11.274
339.20	10.917
339.56	11.314
339.93	10.273
340.29	10.145
340.65	10.517
341.02	11.431
341.38	12.100
341.74	10.263
342.11	11.179
342.47	11.101
342.83	11.045
343.20	10.996
343.56	11.457
343.92	11.404
344.28	11.310
344.65	11.436
345.01	11.195
345.37	9.863
345.73	11.083
346.10	10.401
346.46	10.169
346.82	11.285
347.19	9.942
347.55	9.852
347.91	9.951
348.27	11.257
348.63	10.619
349.00	10.680
349.36	10.591
349.72	9.944
350.08	10.778
350.45	10.578
350.81	11.210
351.17	10.697
351.53	11.220
351.89	9.736
352.26	10.182
352.62	10.505
352.98	10.130
353.34	10.435
353.70	10.311
354.07	9.839
354.43	10.079
354.79	9.252
355.15	9.417
355.51	10.711
355.87	10.041
356.24	10.749
356.60	9.623
356.96	10.056
357.32	9.485
357.68	10.236
358.04	10.451
358.40	10.847
358.77	10.798
359.13	9.392
359.49	9.176
359.85	8.095
360.21	9.410
360.57	9.416
360.93	9.846
361.29	10.128
361.66	8.282
362.02	10.149
362.38	9.886
362.74	9.598
363.10	9.474
363.46	8.951
363.82	10.280
364.18	9.618
364.54	10.327
364.90	10.836
365.26	10.956
365.62	10.007
365.98	8.912
366.35	9.742
366.71	9.544
367.07	8.449
367.43	9.507
367.79	10.849
368.15	10.129
368.51	9.448
368.87	10.064
369.23	9.217
369.59	9.486
369.95	10.000
370.31	9.687
370.67	9.783
371.03	10.337
371.39	9.985
371.75	9.559
372.11	9.673
372.47	10.484
372.83	9.438
373.19	9.104
373.55	9.608
373.91	10.015
374.27	8.660
374.63	8.436
374.99	9.181
375.35	8.514
375.71	9.938
376.07	9.534
376.42	9.010
376.78	9.344
377.14	9.294
377.50	9.735
377.86	9.043
378.22	9.355
378.58	8.647
378.94	8.360
379.30	8.524
379.66	9.518
380.02	8.538
380.38	8.500
380.74	8.523
381.09	9.780
381.45	9.404
381.81	9.214
382.17	8.153
382.53	8.931
382.89	9.691
383.25	9.006
383.61	9.665
383.97	9.443
384.32	8.734
384.68	9.356
385.04	9.158
385.40	8.607
385.76	9.214
386.12	8.225
386.48	8.936
386.83	8.852
387.19	9.029
387.55	9.153
387.91	8.404
388.27	8.461
388.62	8.912
388.98	8.784
389.34	9.387
389.70	9.810
390.06	9.316
390.42	9.339
390.77	8.842
391.13	9.190
391.49	8.883
391.85	7.893
392.20	7.634
392.56	8.333
392.92	8.064
393.28	7.574
393.64	8.393
393.99	8.735
394.35	8.189
394.71	8.720
395.07	8.660
395.42	8.591
395.78	8.906
396.14	8.318
396.50	9.211
396.85	9.091
397.21	8.323
397.57	9.237
397.92	8.173
398.28	7.343
398.64	10.335
399.00	8.674
399.35	7.953
399.71	8.102
400.07	8.457
400.42	8.834
400.78	8.926
401.14	8.171
401.49	8.478
401.85	8.046
402.21	7.964
402.57	8.205
402.92	8.638
403.28	9.057
403.63	8.354
403.99	8.344
404.35	8.000
404.70	8.333
405.06	8.212
405.42	8.921
405.77	8.229
406.13	7.788
406.49	8.397
406.84	8.860
407.20	8.511
407.55	7.722
407.91	8.800
408.27	8.296
408.62	9.332
408.98	8.211
409.34	8.364
409.69	8.452
410.05	8.302
410.40	8.563
410.76	8.124
411.11	8.444
411.47	8.690
411.83	8.980
412.18	8.040
412.54	8.842
412.89	8.253
413.25	8.501
413.60	7.906
413.96	8.318
414.31	8.627
414.67	9.062
415.03	7.947
415.38	9.149
415.74	8.875
416.09	9.014
416.45	8.902
416.80	8.724
417.16	9.249
417.51	9.754
417.87	8.863
418.22	8.644
418.58	8.715
418.93	8.477
419.29	9.102
419.64	8.816
420.00	8.720
420.35	9.159
420.71	9.205
421.06	8.652
421.42	8.480
421.77	8.128
422.12	7.692
422.48	7.285
422.83	8.387
423.19	8.674
423.54	8.241
423.90	8.870
424.25	8.431
424.61	8.631
424.96	8.630
425.31	8.583
425.67	7.921
426.02	8.457
426.38	8.730
426.73	8.075
427.09	8.754
427.44	7.878
427.79	8.626
428.15	8.571
428.50	9.011
428.85	8.641
429.21	8.338
429.56	8.035
429.92	7.750
430.27	7.895
430.62	7.885
430.98	8.614
431.33	8.505
431.68	8.639
432.04	8.040
432.39	8.395
432.74	8.977
433.10	8.149
433.45	8.688
433.80	7.705
434.16	8.547
434.51	8.053
434.86	8.324
435.22	8.505
435.57	8.875
435.92	8.719
436.28	8.778
436.63	9.216
436.98	8.243
437.34	9.362
437.69	8.576
438.04	9.219
438.39	8.776
438.75	8.890
439.10	8.659
439.45	9.150
439.81	8.701
440.16	8.413
440.51	8.377
440.86	8.570
441.22	8.676
441.57	8.705
441.92	8.393
442.27	9.365
442.63	8.425
442.98	8.901
443.33	9.293
443.68	8.312
444.03	8.785
444.39	7.984
444.74	8.550
445.09	8.679
445.44	8.365
445.79	8.461
446.15	8.788
446.50	8.885
446.85	8.736
447.20	7.955
447.55	9.604
447.91	9.101
448.26	8.681
448.61	9.045
448.96	9.358
449.31	8.943
449.66	8.779
450.02	8.635
450.37	9.014
450.72	8.460
451.07	8.775
451.42	8.815
451.77	9.513
452.12	8.487
452.47	9.204
452.83	8.974
453.18	9.108
453.53	9.215
453.88	8.210
454.23	9.205
454.58	9.509
454.93	9.663
455.28	8.915
455.63	8.434
455.98	9.821
456.34	8.920
456.69	9.267
457.04	8.731
457.39	8.182
457.74	8.938
458.09	10.063
458.44	9.179
458.79	9.056
459.14	8.521
459.49	9.457
459.84	8.199
460.19	8.662
460.54	9.086
460.89	8.338
461.24	9.593
461.59	10.227
461.94	8.816
462.29	9.258
462.64	9.381
462.99	9.434
463.34	10.067
463.69	9.631
464.04	9.797
464.39	9.217
464.74	9.804
465.09	8.504
465.44	9.086
465.79	7.998
466.14	9.086
466.49	9.344
466.84	9.807
467.19	9.958
467.54	9.688
467.89	9.244
468.24	9.889
468.59	9.829
468.94	8.858
469.29	9.769
469.64	10.509
469.99	9.066
470.34	8.851
470.68	9.483
471.03	9.388
471.38	9.590
471.73	9.993
472.08	10.395
472.43	9.799
472.78	9.019
473.13	10.077
473.48	9.925
473.83	9.207
474.17	8.836
474.52	9.367
474.87	9.749
475.22	8.996
475.57	8.490
475.92	8.922
476.27	8.625
476.61	9.101
476.96	8.796
477.31	8.844
477.66	9.190
478.01	9.148
478.36	9.149
478.70	8.152
479.05	9.425
479.40	8.649
479.75	9.049
480.10	8.002
480.45	8.948
480.79	8.935
481.14	9.100
481.49	8.923
481.84	8.596
482.19	8.405
482.53	8.853
482.88	8.981
483.23	8.318
483.58	9.327
483.92	8.716
484.27	8.279
484.62	7.931
484.97	8.120
485.31	8.356
485.66	7.080
486.01	6.245
486.36	6.429
486.70	6.351
487.05	6.811
487.40	7.176
487.75	7.558
488.09	8.068
488.44	7.672
488.79	8.137
489.13	7.983
489.48	8.075
489.83	8.243
490.17	8.417
490.52	8.592
490.87	8.367
491.22	8.504
491.56	8.155
491.91	8.609
492.26	8.498
492.60	8.940
492.95	7.624
493.30	9.393
493.64	8.446
493.99	8.449
494.34	8.973
494.68	8.471
495.03	8.647
495.37	9.074
495.72	9.113
496.07	8.863
496.41	8.496
496.76	9.059
497.11	8.735
497.45	8.710
497.80	8.877
498.14	8.551
498.49	8.293
498.84	8.533
499.18	8.619
499.53	8.500
499.87	8.807
500.22	9.185
500.56	9.078
500.91	8.606
501.26	8.914
501.60	8.970
501.95	8.845
502.29	8.763
502.64	8.799
502.98	8.602
503.33	9.004
503.67	8.585
504.02	8.980
504.36	9.125
504.71	8.549
505.06	9.060
505.40	8.799
505.75	8.631
506.09	9.378
506.44	8.140
506.78	9.450
507.13	8.682
507.47	9.343
507.82	9.220
508.16	9.372
508.51	8.777
508.85	8.689
509.19	8.878
509.54	9.388
509.88	9.377
510.23	9.203
510.57	9.701
510.92	9.322
511.26	9.866
511.61	9.699
511.95	8.716
512.30	9.120
512.64	9.618
512.98	9.325
513.33	9.636
513.67	9.925
514.02	8.658
514.36	9.776
514.70	9.242
515.05	9.091
515.39	10.320
515.74	10.135
516.08	10.173
516.42	9.933
516.77	10.312
517.11	9.378
517.46	9.368
517.80	9.756
518.14	9.670
518.49	9.685
518.83	10.170
519.17	9.353
519.52	9.904
519.86	9.983
520.20	10.636
520.55	10.413
520.89	10.888
521.23	10.495
521.58	10.204
521.92	9.982
522.26	9.640
522.61	9.720
522.95	10.006
523.29	9.921
523.64	10.915
523.98	9.550
524.32	10.676
524.66	10.764
525.01	9.314
525.35	9.913
525.69	9.791
526.04	10.218
526.38	10.738
526.72	10.368
527.06	10.232
527.41	9.839
527.75	10.547
528.09	9.955
528.43	10.198
528.78	10.387
529.12	10.364
529.46	10.349
529.80	10.334
530.15	10.343
530.49	10.523
530.83	10.316
531.17	10.705
531.51	11.933
531.86	10.774
532.20	10.887
532.54	11.019
532.88	10.847
533.22	10.244
533.57	9.691
533.91	10.957
534.25	10.875
534.59	10.128
534.93	10.291
535.27	9.897
535.62	10.440
535.96	10.107
536.30	10.172
536.64	10.818
536.98	10.551
537.32	10.797
537.66	10.200
538.01	10.731
538.35	11.183
538.69	10.530
539.03	9.812
539.37	9.840
539.71	9.397
540.05	10.261
540.39	10.365
540.73	10.543
541.07	10.967
541.42	10.437
541.76	11.355
542.10	10.996
542.44	10.596
542.78	11.265
543.12	11.068
543.46	11.410
543.80	10.800
544.14	9.884
544.48	10.667
544.82	10.135
545.16	11.191
545.50	10.604
545.84	10.349
546.18	11.044
546.52	11.149
546.86	10.034
547.20	10.047
547.54	11.156
547.88	10.714
548.22	10.710
548.56	11.384
548.90	10.243
549.24	9.764
549.58	11.119
549.92	10.920
550.26	11.506
550.60	11.134
550.94	11.549
551.28	11.046
551.62	11.287
551.96	10.807
552.30	10.648
552.64	11.224
552.98	10.915
553.32	11.126
553.66	12.543
554.00	11.599
554.34	11.387
554.68	10.801
555.02	11.072
555.36	10.647
555.69	10.352
556.03	11.306
556.37	11.119
556.71	10.368
557.05	11.625
557.39	11.197
557.73	11.150
558.07	11.603
558.41	10.999
558.75	11.315
559.08	11.409
559.42	10.884
559.76	11.103
560.10	11.777
560.44	11.251
560.78	10.712
561.12	10.554
561.45	11.604
561.79	10.415
562.13	10.932
562.47	11.202
562.81	11.227
563.15	10.702
563.48	11.207
563.82	10.046
564.16	10.072
564.50	10.612
564.84	10.619
565.17	10.425
565.51	11.565
565.85	10.343
566.19	10.019
566.52	9.943
566.86	9.584
567.20	10.554
567.54	10.103
567.88	9.614
568.21	10.635
568.55	9.505
568.89	9.484
569.23	9.002
569.56	9.231
569.90	8.906
570.24	8.504
570.57	8.535
570.91	7.822
571.25	7.813
571.59	8.454
571.92	8.353
572.26	8.174
572.60	8.228
572.93	8.096
573.27	8.696
573.61	8.068
573.95	8.062
574.28	7.915
574.62	7.823
574.96	7.861
575.29	7.881
575.63	8.079
575.97	8.253
576.30	7.993
576.64	7.480
576.98	7.657
577.31	7.671
577.65	7.275
577.98	7.459
578.32	7.506
578.66	7.715
578.99	7.784
579.33	7.771
579.67	7.784
580.00	7.720
580.34	7.784
580.67	7.823
581.01	7.983
581.35	7.363
581.68	7.420
582.02	7.049
582.35	7.468
582.69	7.372
583.02	7.491
583.36	8.278
583.70	8.167
584.03	7.837
584.37	8.458
584.70	7.680
585.04	8.121
585.37	7.922
585.71	7.730
586.04	7.925
586.38	7.602
586.72	8.368
587.05	7.634
587.39	7.467
587.72	7.936
588.06	7.924
588.39	8.752
588.73	8.243
589.06	8.227
589.40	8.788
589.73	8.377
590.07	9.217
590.40	8.842
590.73	9.016
591.07	9.483
591.40	9.110
591.74	9.524
592.07	9.337
592.41	9.508
592.74	9.026
593.08	8.661
593.41	8.984
593.75	7.964
594.08	8.515
594.41	8.766
594.75	8.762
595.08	8.268
595.42	8.967
595.75	8.440
596.09	9.238
596.42	9.509
596.75	9.160
597.09	9.697
597.42	8.727
597.75	9.185
598.09	9.565
598.42	9.278
598.76	8.877
599.09	8.476
599.42	8.297
599.76	8.931
600.09	8.306
600.42	8.656
600.76	7.679
601.09	8.634
601.42	8.790
601.76	8.805
602.09	9.209
602.42	9.156
602.76	9.472
603.09	8.537
603.42	8.825
603.76	8.613
604.09	8.647
604.42	9.050
604.76	9.152
605.09	9.393
605.42	9.320
605.75	9.354
606.09	8.621
606.42	8.296
606.75	9.498
607.09	8.958
607.42	8.686
607.75	8.819
608.08	8.684
608.42	9.547
608.75	8.972
609.08	8.973
609.41	9.472
609.75	8.766
610.08	9.614
610.41	8.845
610.74	8.893
611.07	9.634
611.41	9.127
611.74	9.804
612.07	9.731
612.40	10.493
612.73	9.579
613.07	10.453
613.40	9.689
613.73	9.282
614.06	9.462
614.39	10.016
614.72	9.737
615.06	9.926
615.39	9.766
615.72	10.020
616.05	9.729
616.38	9.561
616.71	9.620
617.05	10.306
617.38	10.764
617.71	9.730
618.04	10.276
618.37	10.053
618.70	9.583
619.03	10.987
619.36	10.523
619.69	10.563
620.03	10.920
620.36	10.829
620.69	11.096
621.02	10.398
621.35	9.945
621.68	11.604
622.01	11.300
622.34	10.817
622.67	11.635
623.00	10.785
623.33	11.008
623.66	12.080
623.99	11.856
624.32	10.770
624.65	11.158
624.99	9.915
625.32	10.500
625.65	11.044
625.98	11.760
626.31	12.364
626.64	11.592
626.97	12.635
627.30	11.139
627.63	11.403
627.96	11.606
628.29	12.336
628.62	12.626
628.95	13.868
629.28	12.500
629.61	12.466
629.94	11.524
630.26	12.488
630.59	12.774
630.92	12.548
631.25	11.747
631.58	12.012
631.91	11.968
632.24	12.025
632.57	13.012
632.90	13.048
633.23	12.640
633.56	13.785
633.89	12.684
634.22	13.280
634.55	13.018
634.88	13.293
635.20	13.262
635.53	13.494
635.86	13.738
636.19	12.941
636.52	13.841
636.85	13.402
637.18	13.594
637.51	13.239
637.83	10.851
638.16	13.683
638.49	14.610
638.82	13.274
639.15	14.625
639.48	14.713
639.81	15.818
640.13	15.365
640.46	13.960
640.79	14.927
641.12	13.618
641.45	14.385
641.77	16.200
642.10	15.936
642.43	15.315
642.76	13.313
643.09	15.644
643.41	16.237
643.74	17.130
644.07	14.177
644.40	16.871
