SpectraSuite Data File
++++++++++++++++++++++++++++++++++++
Date: Wed May 13 19:52:54 PDT 2015
User: schluterlab
Dark Spectrum Present: Yes
Reference Spectrum Present: Yes
Number of Sampled Component Spectra: 1
Spectrometers: USB2E3373
Integration Time (usec): 3000 (USB2E3373)
Spectra Averaged: 3 (USB2E3373)
Boxcar Smoothing: 0 (USB2E3373)
Correct for Electrical Dark: No (USB2E3373)
Strobe/Lamp Enabled: No (USB2E3373)
Correct for Detector Non-linearity: No (USB2E3373)
Correct for Stray Light: No (USB2E3373)
Number of Pixels in Processed Spectrum: 2048
>>>>>Begin Processed Spectral Data<<<<<
178.53	0.000
178.91	-1300.000
179.29	-1425.000
179.67	-255.556
180.04	-1350.000
180.42	2750.000
180.80	1000.000
181.18	-1275.000
181.56	728.571
181.94	0.000
182.31	-742.857
182.69	1433.333
183.07	-587.500
183.45	-555.556
183.83	654.545
184.20	-390.000
184.58	2750.000
184.96	7000.000
185.34	-1000.000
185.72	-750.000
186.09	-2050.000
186.47	3150.000
186.85	2850.000
187.23	5700.000
187.61	-1800.000
187.98	1575.000
188.36	581.818
188.74	563.636
189.12	-1100.000
189.49	580.000
189.87	-5000.000
190.25	-1300.000
190.63	421.429
191.00	407.692
191.38	866.667
191.76	-925.000
192.14	1350.000
192.51	650.000
192.89	1016.667
193.27	600.000
193.65	-1425.000
194.02	470.000
194.40	920.000
194.78	580.000
195.15	466.667
195.53	650.000
195.91	-2000.000
196.29	387.500
196.66	294.737
197.04	-350.000
197.42	0.000
197.79	670.000
198.17	-5600.000
198.55	771.429
198.92	800.000
199.30	1000.000
199.68	0.000
200.05	366.667
200.43	814.286
200.81	4600.000
201.18	2000.000
201.56	-1833.333
201.94	633.333
202.31	555.556
202.69	475.000
203.07	640.000
203.44	0.000
203.82	1175.000
204.19	728.571
204.57	471.429
204.95	775.000
205.32	1933.333
205.70	600.000
206.08	414.286
206.45	2500.000
206.83	393.750
207.20	1116.667
207.58	1040.000
207.96	338.889
208.33	637.500
208.71	-983.333
209.08	814.286
209.46	744.444
209.84	536.364
210.21	-1400.000
210.59	1550.000
210.96	-475.000
211.34	3200.000
211.71	590.000
212.09	766.667
212.46	0.000
212.84	1800.000
213.22	1525.000
213.59	-6200.000
213.97	700.000
214.34	800.000
214.72	654.545
215.09	1200.000
215.47	-2150.000
215.84	-2850.000
216.22	1500.000
216.59	407.143
216.97	1375.000
217.34	518.182
217.72	-766.667
218.09	0.000
218.47	-5800.000
218.84	700.000
219.22	857.143
219.59	1600.000
219.97	-571.429
220.34	1040.000
220.72	-2100.000
221.09	435.714
221.47	1575.000
221.84	-916.667
222.22	0.000
222.59	1325.000
222.97	-2600.000
223.34	1220.000
223.72	453.846
224.09	1080.000
224.46	2850.000
224.84	-5000.000
225.21	-1040.000
225.59	-4800.000
225.96	680.000
226.34	265.000
226.71	3250.000
227.08	650.000
227.46	530.000
227.83	-1250.000
228.21	-2550.000
228.58	655.556
228.95	-2450.000
229.33	-2500.000
229.70	1800.000
230.08	857.143
230.45	-1000.000
230.82	441.667
231.20	866.667
231.57	785.714
231.95	558.333
232.32	309.091
232.69	418.182
233.07	700.000
233.44	323.077
233.81	-1400.000
234.19	342.105
234.56	516.667
234.93	425.000
235.31	418.182
235.68	330.769
236.05	342.857
236.43	193.939
236.80	331.579
237.17	4600.000
237.55	252.381
237.92	221.429
238.29	238.095
238.67	177.419
239.04	182.759
239.41	155.556
239.79	115.217
240.16	128.571
240.53	136.364
240.91	101.961
241.28	112.000
241.65	114.000
242.02	100.000
242.40	88.710
242.77	91.667
243.14	74.194
243.51	80.899
243.89	85.882
244.26	62.222
244.63	68.817
245.00	53.191
245.38	61.386
245.75	42.056
246.12	48.624
246.49	56.204
246.87	52.800
247.24	52.308
247.61	42.143
247.98	45.752
248.36	49.324
248.73	40.764
249.10	44.586
249.47	42.373
249.84	40.107
250.22	31.551
250.59	39.053
250.96	36.364
251.33	43.602
251.70	37.624
252.08	30.000
252.45	30.493
252.82	29.565
253.19	30.213
253.56	34.510
253.94	32.365
254.31	31.250
254.68	32.308
255.05	28.044
255.42	30.081
255.79	31.985
256.16	33.574
256.54	27.915
256.91	29.181
257.28	27.338
257.65	29.703
258.02	26.087
258.39	29.022
258.76	27.759
259.14	28.869
259.51	21.581
259.88	26.398
260.25	28.399
260.62	23.410
260.99	23.913
261.36	26.126
261.73	24.928
262.10	20.930
262.47	25.634
262.85	24.234
263.22	20.513
263.59	25.071
263.96	25.000
264.33	21.671
264.70	26.316
265.07	24.041
265.44	22.222
265.81	21.655
266.18	23.869
266.55	21.707
266.92	20.885
267.29	24.074
267.66	22.018
268.03	21.136
268.40	20.093
268.77	21.718
269.14	20.495
269.51	20.090
269.88	23.776
270.25	22.799
270.62	18.876
270.99	24.946
271.36	21.674
271.73	18.692
272.10	20.000
272.47	21.720
272.84	21.861
273.21	23.270
273.58	20.087
273.95	19.916
274.32	20.455
274.69	20.557
275.06	19.685
275.43	20.213
275.80	20.240
276.17	18.737
276.54	19.751
276.91	19.170
277.28	18.945
277.65	18.182
278.02	19.048
278.39	20.508
278.76	19.273
279.13	19.811
279.50	19.553
279.87	18.526
280.23	17.964
280.60	17.021
280.97	17.930
281.34	18.584
281.71	19.636
282.08	18.042
282.45	18.000
282.82	19.361
283.19	15.508
283.56	17.544
283.92	18.105
284.29	17.813
284.66	16.878
285.03	17.360
285.40	18.486
285.77	17.340
286.14	16.062
286.51	17.000
286.87	18.632
287.24	19.707
287.61	17.657
287.98	16.883
288.35	16.957
288.72	16.511
289.08	17.214
289.45	16.804
289.82	18.049
290.19	15.071
290.56	16.692
290.93	15.710
291.29	16.871
291.66	15.929
292.03	18.169
292.40	17.915
292.77	16.272
293.13	16.119
293.50	14.431
293.87	15.556
294.24	14.667
294.60	13.828
294.97	15.262
295.34	17.489
295.71	15.057
296.08	14.387
296.44	14.305
296.81	14.267
297.18	15.583
297.55	13.456
297.91	15.435
298.28	14.056
298.65	15.013
299.02	14.888
299.38	14.077
299.75	11.590
300.12	14.176
300.48	13.875
300.85	14.303
301.22	12.357
301.59	13.384
301.95	14.736
302.32	13.094
302.69	13.740
303.05	13.455
303.42	13.704
303.79	14.383
304.15	12.704
304.52	12.746
304.89	14.402
305.25	13.573
305.62	13.590
305.99	12.987
306.35	13.087
306.72	14.574
307.09	14.206
307.45	12.613
307.82	13.058
308.19	13.687
308.55	12.945
308.92	13.534
309.29	13.305
309.65	13.043
310.02	13.108
310.38	13.871
310.75	13.200
311.12	13.204
311.48	12.017
311.85	13.836
312.22	13.944
312.58	13.825
312.95	13.833
313.31	13.301
313.68	13.721
314.05	15.878
314.41	13.367
314.78	14.099
315.14	14.101
315.51	14.418
315.87	14.554
316.24	13.307
316.61	13.840
316.97	14.090
317.34	12.916
317.70	14.340
318.07	14.726
318.43	14.775
318.80	17.057
319.16	16.102
319.53	14.634
319.89	15.714
320.26	17.200
320.62	16.567
320.99	16.869
321.35	16.768
321.72	17.351
322.08	17.966
322.45	18.706
322.81	17.733
323.18	18.401
323.54	18.646
323.91	17.736
324.27	19.407
324.64	17.987
325.00	17.583
325.37	19.108
325.73	18.402
326.10	19.682
326.46	18.548
326.83	20.190
327.19	19.641
327.56	19.338
327.92	20.822
328.29	20.497
328.65	21.823
329.01	20.217
329.38	21.092
329.74	20.591
330.11	21.206
330.47	20.661
330.84	20.864
331.20	22.678
331.56	22.110
331.93	20.926
332.29	22.005
332.66	21.593
333.02	21.664
333.38	22.222
333.75	23.797
334.11	22.598
334.48	22.360
334.84	22.886
335.20	22.727
335.57	21.487
335.93	21.518
336.29	21.978
336.66	21.371
337.02	21.267
337.38	21.944
337.75	21.925
338.11	22.650
338.47	22.744
338.84	23.740
339.20	22.661
339.56	23.175
339.93	22.909
340.29	22.645
340.65	21.747
341.02	22.775
341.38	22.153
341.74	22.105
342.11	22.533
342.47	22.467
342.83	23.031
343.20	23.896
343.56	22.746
343.92	21.842
344.28	23.554
344.65	22.356
345.01	21.717
345.37	23.413
345.73	22.589
346.10	23.103
346.46	23.475
346.82	23.723
347.19	22.055
347.55	22.332
347.91	24.757
348.27	23.583
348.63	24.331
349.00	23.301
349.36	21.839
349.72	22.694
350.08	23.420
350.45	24.247
350.81	22.989
351.17	23.258
351.53	24.324
351.89	23.762
352.26	24.073
352.62	24.298
352.98	23.096
353.34	24.158
353.70	23.322
354.07	22.419
354.43	23.333
354.79	23.894
355.15	23.543
355.51	24.460
355.87	24.245
356.24	23.290
356.60	23.416
356.96	24.859
357.32	23.549
357.68	24.252
358.04	24.386
358.40	24.624
358.77	24.491
359.13	24.467
359.49	24.078
359.85	22.302
360.21	23.844
360.57	24.514
360.93	25.231
361.29	24.490
361.66	24.923
362.02	25.373
362.38	24.563
362.74	24.702
363.10	24.130
363.46	24.652
363.82	25.472
364.18	24.596
364.54	25.483
364.90	25.637
365.26	24.485
365.62	26.224
365.98	23.959
366.35	25.430
366.71	25.958
367.07	24.399
367.43	25.689
367.79	26.196
368.15	26.293
368.51	24.782
368.87	26.124
369.23	25.604
369.59	25.996
369.95	25.882
370.31	25.855
370.67	26.667
371.03	27.191
371.39	26.749
371.75	26.250
372.11	27.098
372.47	27.199
372.83	26.729
373.19	26.734
373.55	28.381
373.91	27.982
374.27	26.598
374.63	26.618
374.99	27.754
375.35	27.425
375.71	28.239
376.07	28.395
376.42	27.717
376.78	28.231
377.14	27.476
377.50	28.344
377.86	28.125
378.22	28.761
378.58	27.193
378.94	28.410
379.30	27.481
379.66	28.046
380.02	28.624
380.38	28.415
380.74	28.872
381.09	28.973
381.45	29.564
381.81	28.870
382.17	28.981
382.53	27.987
382.89	29.691
383.25	29.769
383.61	30.112
383.97	29.894
384.32	29.881
384.68	29.616
385.04	29.932
385.40	29.969
385.76	29.914
386.12	30.829
386.48	30.271
386.83	31.366
387.19	31.725
387.55	30.612
387.91	31.016
388.27	31.085
388.62	30.854
388.98	30.835
389.34	31.602
389.70	31.208
390.06	31.812
390.42	31.647
390.77	32.379
391.13	32.993
391.49	31.599
391.85	30.363
392.20	31.861
392.56	32.955
392.92	32.019
393.28	32.012
393.64	32.074
393.99	32.621
394.35	31.824
394.71	32.873
395.07	33.146
395.42	32.942
395.78	33.015
396.14	33.147
396.50	34.649
396.85	33.694
397.21	33.909
397.57	33.850
397.92	34.736
398.28	33.072
398.64	34.110
399.00	33.968
399.35	33.672
399.71	33.738
400.07	34.299
400.42	35.644
400.78	35.163
401.14	35.854
401.49	35.522
401.85	34.846
402.21	35.090
402.57	34.547
402.92	36.066
403.28	36.540
403.63	35.149
403.99	35.414
404.35	35.030
404.70	34.652
405.06	35.818
405.42	36.494
405.77	35.143
406.13	36.061
406.49	36.369
406.84	35.794
407.20	35.461
407.55	36.184
407.91	37.067
408.27	36.822
408.62	35.822
408.98	36.703
409.34	37.023
409.69	37.355
410.05	36.493
410.40	36.391
410.76	37.754
411.11	36.912
411.47	37.572
411.83	36.469
412.18	36.735
412.54	38.418
412.89	37.711
413.25	37.249
413.60	38.419
413.96	37.098
414.31	37.667
414.67	38.276
415.03	38.675
415.38	38.144
415.74	36.785
416.09	39.321
416.45	38.688
416.80	38.929
417.16	39.745
417.51	39.084
417.87	38.921
418.22	38.927
418.58	39.832
418.93	40.172
419.29	38.129
419.64	39.673
420.00	39.146
420.35	39.420
420.71	39.809
421.06	39.021
421.42	38.070
421.77	39.350
422.12	38.237
422.48	39.018
422.83	39.546
423.19	39.503
423.54	39.698
423.90	40.000
424.25	39.308
424.61	39.048
424.96	40.816
425.31	39.535
425.67	39.157
426.02	39.257
426.38	40.537
426.73	39.965
427.09	40.608
427.44	39.275
427.79	40.943
428.15	40.952
428.50	39.965
428.85	40.405
429.21	39.812
429.56	39.554
429.92	39.809
430.27	39.374
430.62	39.068
430.98	40.166
431.33	39.742
431.68	40.366
432.04	39.989
432.39	40.948
432.74	42.071
433.10	41.539
433.45	41.050
433.80	40.965
434.16	40.652
434.51	40.421
434.86	41.277
435.22	41.078
435.57	41.277
435.92	40.667
436.28	42.230
436.63	40.728
436.98	40.584
437.34	40.489
437.69	42.240
438.04	41.091
438.39	41.672
438.75	40.325
439.10	41.676
439.45	41.322
439.81	42.115
440.16	41.050
440.51	41.242
440.86	41.054
441.22	41.157
441.57	41.242
441.92	41.607
442.27	41.335
442.63	41.548
442.98	41.972
443.33	41.196
443.68	40.733
444.03	42.265
444.39	40.166
444.74	40.693
445.09	40.916
445.44	40.897
445.79	41.663
446.15	41.186
446.50	41.357
446.85	40.904
447.20	41.305
447.55	41.653
447.91	42.361
448.26	42.905
448.61	42.171
448.96	41.417
449.31	43.026
449.66	41.474
450.02	42.340
450.37	40.873
450.72	41.906
451.07	41.621
451.42	42.918
451.77	42.513
452.12	41.917
452.47	41.356
452.83	43.298
453.18	41.748
453.53	42.919
453.88	41.819
454.23	42.200
454.58	42.701
454.93	43.547
455.28	41.272
455.63	42.900
455.98	44.107
456.34	42.274
456.69	42.392
457.04	42.848
457.39	41.730
457.74	42.252
458.09	41.633
458.44	41.505
458.79	40.835
459.14	41.196
459.49	40.922
459.84	41.551
460.19	42.133
460.54	41.377
460.89	41.744
461.24	41.651
461.59	42.301
461.94	42.540
462.29	42.908
462.64	41.991
462.99	41.835
463.34	41.067
463.69	43.089
464.04	41.623
464.39	42.029
464.74	41.295
465.09	42.159
465.44	41.274
465.79	42.114
466.14	40.668
466.49	40.990
466.84	40.981
467.19	41.098
467.54	42.375
467.89	40.876
468.24	40.663
468.59	42.247
468.94	41.967
469.29	41.517
469.64	43.307
469.99	43.572
470.34	42.404
470.68	42.026
471.03	42.585
471.38	42.530
471.73	42.039
472.08	44.145
472.43	41.960
472.78	41.343
473.13	42.683
473.48	42.072
473.83	42.439
474.17	42.377
474.52	42.060
474.87	42.207
475.22	42.194
475.57	40.892
475.92	39.989
476.27	40.755
476.61	41.644
476.96	41.561
477.31	40.502
477.66	40.755
478.01	40.617
478.36	41.883
478.70	40.343
479.05	40.895
479.40	40.839
479.75	40.925
480.10	40.905
480.45	40.314
480.79	39.178
481.14	40.656
481.49	40.674
481.84	40.009
482.19	40.709
482.53	39.862
482.88	40.065
483.23	41.075
483.58	40.855
483.92	40.675
484.27	39.129
484.62	39.871
484.97	39.338
485.31	39.486
485.66	37.709
486.01	36.496
486.36	35.305
486.70	34.810
487.05	35.814
487.40	37.053
487.75	37.185
488.09	37.398
488.44	38.426
488.79	38.915
489.13	39.190
489.48	39.886
489.83	39.448
490.17	40.728
490.52	39.283
490.87	39.665
491.22	39.791
491.56	38.405
491.91	39.926
492.26	39.412
492.60	38.848
492.95	39.570
493.30	38.925
493.64	40.597
493.99	38.162
494.34	39.362
494.68	39.560
495.03	39.897
495.37	38.855
495.72	39.717
496.07	39.675
496.41	38.451
496.76	38.918
497.11	39.847
497.45	38.938
497.80	38.724
498.14	38.841
498.49	38.244
498.84	39.549
499.18	38.714
499.53	39.269
499.87	38.630
500.22	38.625
500.56	39.854
500.91	38.750
501.26	38.739
501.60	38.918
501.95	38.313
502.29	39.175
502.64	38.408
502.98	37.962
503.33	38.163
503.67	37.912
504.02	38.120
504.36	38.512
504.71	38.593
505.06	38.651
505.40	38.697
505.75	38.042
506.09	38.824
506.44	39.369
506.78	38.967
507.13	39.525
507.47	38.283
507.82	38.906
508.16	38.602
508.51	39.320
508.85	38.779
509.19	38.316
509.54	38.571
509.88	38.331
510.23	39.126
510.57	38.700
510.92	38.685
511.26	37.821
511.61	38.589
511.95	38.152
512.30	37.911
512.64	37.722
512.98	39.496
513.33	38.704
513.67	37.673
514.02	37.716
514.36	38.230
514.70	38.240
515.05	38.539
515.39	38.587
515.74	39.358
516.08	38.960
516.42	39.845
516.77	39.353
517.11	37.680
517.46	39.447
517.80	39.315
518.14	38.448
518.49	39.323
518.83	38.352
519.17	38.626
519.52	38.993
519.86	38.677
520.20	39.538
520.55	39.078
520.89	40.328
521.23	39.264
521.58	39.676
521.92	39.375
522.26	38.621
522.61	39.751
522.95	39.042
523.29	39.623
523.64	39.146
523.98	38.940
524.32	39.083
524.66	38.725
525.01	38.480
525.35	38.786
525.69	38.547
526.04	38.941
526.38	38.072
526.72	38.834
527.06	39.548
527.41	37.748
527.75	39.164
528.09	40.334
528.43	39.388
528.78	39.090
529.12	38.182
529.46	38.641
529.80	38.923
530.15	38.754
530.49	37.231
530.83	37.975
531.17	39.164
531.51	39.818
531.86	38.581
532.20	38.462
532.54	39.270
532.88	39.730
533.22	38.101
533.57	37.778
533.91	37.146
534.25	38.578
534.59	38.682
534.93	36.942
535.27	37.417
535.62	37.851
535.96	38.418
536.30	37.826
536.64	38.442
536.98	37.956
537.32	37.525
537.66	38.467
538.01	38.512
538.35	38.009
538.69	37.588
539.03	37.037
539.37	37.188
539.71	35.774
540.05	38.170
540.39	37.940
540.73	35.899
541.07	37.378
541.42	36.986
541.76	37.355
542.10	36.869
542.44	37.086
542.78	38.142
543.12	36.852
543.46	38.623
543.80	36.825
544.14	35.623
544.48	36.635
544.82	36.241
545.16	36.044
545.50	35.476
545.84	37.500
546.18	36.229
546.52	37.509
546.86	36.289
547.20	36.480
547.54	36.874
547.88	37.117
548.22	35.367
548.56	36.038
548.90	36.300
549.24	35.556
549.58	36.698
549.92	36.332
550.26	37.571
550.60	35.408
550.94	36.268
551.28	35.845
551.62	35.730
551.96	34.807
552.30	36.451
552.64	36.241
552.98	35.458
553.32	35.266
553.66	37.355
554.00	36.102
554.34	35.680
554.68	36.338
555.02	35.049
555.36	36.186
555.69	34.506
556.03	35.195
556.37	35.675
556.71	34.789
557.05	35.504
557.39	34.010
557.73	34.510
558.07	35.896
558.41	34.370
558.75	36.223
559.08	36.465
559.42	34.769
559.76	35.735
560.10	33.904
560.44	34.382
560.78	33.466
561.12	33.707
561.45	34.224
561.79	34.608
562.13	34.474
562.47	34.973
562.81	34.868
563.15	34.047
563.48	34.151
563.82	33.986
564.16	33.813
564.50	32.617
564.84	33.312
565.17	32.561
565.51	34.121
565.85	33.503
566.19	33.375
566.52	33.629
566.86	32.429
567.20	33.019
567.54	31.963
567.88	31.016
568.21	32.116
568.55	31.598
568.89	30.885
569.23	30.971
569.56	29.879
569.90	29.283
570.24	29.243
570.57	29.242
570.91	28.410
571.25	28.289
571.59	28.100
571.92	27.563
572.26	28.134
572.60	28.468
572.93	27.526
573.27	28.157
573.61	27.610
573.95	27.287
574.28	26.834
574.62	26.992
574.96	26.714
575.29	26.552
575.63	26.575
575.97	27.024
576.30	27.536
576.64	26.561
576.98	26.932
577.31	26.779
577.65	26.189
577.98	25.935
578.32	25.715
578.66	26.080
578.99	26.387
579.33	26.216
579.67	25.906
580.00	26.037
580.34	26.626
580.67	26.164
581.01	26.152
581.35	25.384
581.68	25.590
582.02	25.328
582.35	25.570
582.69	25.469
583.02	25.633
583.36	25.847
583.70	26.773
584.03	26.097
584.37	26.640
584.70	26.463
585.04	26.076
585.37	26.048
585.71	25.728
586.04	25.417
586.38	25.993
586.72	26.484
587.05	25.564
587.39	25.409
587.72	26.024
588.06	25.534
588.39	26.118
588.73	26.019
589.06	26.395
589.40	26.431
589.73	26.470
590.07	26.690
590.40	27.147
590.73	27.361
591.07	27.798
591.40	27.415
591.74	27.489
592.07	27.051
592.41	27.160
592.74	26.929
593.08	26.149
593.41	25.783
593.75	25.547
594.08	25.880
594.41	25.239
594.75	26.026
595.08	26.092
595.42	26.480
595.75	26.033
596.09	26.098
596.42	27.151
596.75	26.973
597.09	27.403
597.42	25.337
597.75	26.865
598.09	26.565
598.42	27.105
598.76	25.942
599.09	25.732
599.42	24.854
599.76	24.854
600.09	25.392
600.42	25.201
600.76	25.107
601.09	25.392
601.42	25.571
601.76	25.958
602.09	25.257
602.42	25.717
602.76	25.917
603.09	25.728
603.42	26.084
603.76	25.572
604.09	24.893
604.42	25.642
604.76	26.276
605.09	25.950
605.42	25.566
605.75	25.911
606.09	25.376
606.42	25.255
606.75	24.430
607.09	24.362
607.42	25.032
607.75	24.515
608.08	24.533
608.42	25.415
608.75	25.068
609.08	25.532
609.41	25.607
609.75	25.679
610.08	26.155
610.41	24.628
610.74	25.686
611.07	25.939
611.41	25.172
611.74	26.596
612.07	25.932
612.40	26.180
612.73	25.474
613.07	26.724
613.40	25.382
613.73	26.114
614.06	25.968
614.39	25.957
614.72	25.895
615.06	26.155
615.39	25.159
615.72	24.642
616.05	24.668
616.38	26.126
616.71	26.010
617.05	25.736
617.38	25.977
617.71	25.946
618.04	27.043
618.37	25.902
618.70	26.696
619.03	27.368
619.36	27.155
619.69	26.901
620.03	27.335
620.36	26.738
620.69	27.808
621.02	27.360
621.35	27.486
621.68	26.480
622.01	27.554
622.34	27.005
622.67	28.137
623.00	26.192
623.33	25.590
623.66	26.305
623.99	26.510
624.32	26.391
624.65	25.918
624.99	25.992
625.32	25.561
625.65	26.972
625.98	27.133
626.31	27.605
626.64	28.327
626.97	27.681
627.30	27.764
627.63	27.235
627.96	28.595
628.29	28.784
628.62	29.003
628.95	29.434
629.28	28.650
629.61	29.056
629.94	27.238
630.26	29.743
630.59	28.408
