SpectraSuite Data File
++++++++++++++++++++++++++++++++++++
Date: Wed May 13 19:15:26 PDT 2015
User: schluterlab
Dark Spectrum Present: Yes
Reference Spectrum Present: Yes
Number of Sampled Component Spectra: 1
Spectrometers: USB2E3373
Integration Time (usec): 3000 (USB2E3373)
Spectra Averaged: 3 (USB2E3373)
Boxcar Smoothing: 0 (USB2E3373)
Correct for Electrical Dark: No (USB2E3373)
Strobe/Lamp Enabled: No (USB2E3373)
Correct for Detector Non-linearity: No (USB2E3373)
Correct for Stray Light: No (USB2E3373)
Number of Pixels in Processed Spectrum: 2048
>>>>>Begin Processed Spectral Data<<<<<
178.53	0.000
178.91	-1450.000
179.29	-1625.000
179.67	-305.556
180.04	-1400.000
180.42	2700.000
180.80	1120.000
181.18	-1300.000
181.56	785.714
181.94	0.000
182.31	-757.143
182.69	2433.333
183.07	-650.000
183.45	-588.889
183.83	581.818
184.20	-500.000
184.58	2550.000
184.96	5900.000
185.34	-920.000
185.72	-687.500
186.09	-2100.000
186.47	2950.000
186.85	2450.000
187.23	5200.000
187.61	-2133.333
187.98	1575.000
188.36	545.455
188.74	581.818
189.12	-1040.000
189.49	570.000
189.87	-5800.000
190.25	-1375.000
190.63	414.286
191.00	492.308
191.38	950.000
191.76	-1325.000
192.14	1450.000
192.51	625.000
192.89	1183.333
193.27	575.000
193.65	-1250.000
194.02	610.000
194.40	1040.000
194.78	590.000
195.15	608.333
195.53	680.000
195.91	-2300.000
196.29	343.750
196.66	363.158
197.04	-480.000
197.42	0.000
197.79	750.000
198.17	-6000.000
198.55	728.571
198.92	800.000
199.30	980.000
199.68	0.000
200.05	355.556
200.43	871.429
200.81	5400.000
201.18	2033.333
201.56	-2033.333
201.94	466.667
202.31	733.333
202.69	466.667
203.07	570.000
203.44	0.000
203.82	1400.000
204.19	885.714
204.57	485.714
204.95	737.500
205.32	1966.667
205.70	563.636
206.08	478.571
206.45	2550.000
206.83	387.500
207.20	866.667
207.58	940.000
207.96	361.111
208.33	862.500
208.71	-1000.000
209.08	914.286
209.46	622.222
209.84	536.364
210.21	-2100.000
210.59	1550.000
210.96	-587.500
211.34	3000.000
211.71	690.000
212.09	900.000
212.46	0.000
212.84	1866.667
213.22	1325.000
213.59	-4800.000
213.97	833.333
214.34	842.857
214.72	590.909
215.09	1320.000
215.47	-2450.000
215.84	-2950.000
216.22	2000.000
216.59	421.429
216.97	1375.000
217.34	509.091
217.72	-783.333
218.09	0.000
218.47	-5600.000
218.84	633.333
219.22	800.000
219.59	2233.333
219.97	-728.571
220.34	1240.000
220.72	-1933.333
221.09	385.714
221.47	1475.000
221.84	-1116.667
222.22	0.000
222.59	1375.000
222.97	-2600.000
223.34	1260.000
223.72	476.923
224.09	1240.000
224.46	3000.000
224.84	-6200.000
225.21	-1120.000
225.59	-5200.000
225.96	690.000
226.34	350.000
226.71	3150.000
227.08	700.000
227.46	590.000
227.83	-1175.000
228.21	-2750.000
228.58	633.333
228.95	-2350.000
229.33	-2850.000
229.70	2000.000
230.08	842.857
230.45	-980.000
230.82	433.333
231.20	1033.333
231.57	728.571
231.95	558.333
232.32	327.273
232.69	463.636
233.07	785.714
233.44	461.538
233.81	-2000.000
234.19	368.421
234.56	516.667
234.93	525.000
235.31	627.273
235.68	461.538
236.05	428.571
236.43	221.212
236.80	305.263
237.17	6600.000
237.55	290.476
237.92	221.429
238.29	357.143
238.67	238.710
239.04	289.655
239.41	183.333
239.79	169.565
240.16	200.000
240.53	175.000
240.91	135.294
241.28	144.000
241.65	146.000
242.02	127.536
242.40	135.484
242.77	133.333
243.14	107.527
243.51	111.236
243.89	112.941
244.26	105.556
244.63	105.376
245.00	98.936
245.38	100.000
245.75	88.785
246.12	91.743
246.49	95.620
246.87	98.400
247.24	90.000
247.61	80.000
247.98	82.353
248.36	75.676
248.73	79.618
249.10	80.892
249.47	70.621
249.84	73.797
250.22	71.123
250.59	79.882
250.96	79.293
251.33	67.773
251.70	78.713
252.08	72.381
252.45	67.265
252.82	62.609
253.19	71.064
253.56	68.627
253.94	71.784
254.31	67.188
254.68	70.769
255.05	63.469
255.42	68.699
255.79	65.809
256.16	67.148
256.54	61.131
256.91	67.972
257.28	62.230
257.65	62.376
258.02	59.627
258.39	61.830
258.76	63.545
259.14	59.524
259.51	61.094
259.88	63.665
260.25	64.653
260.62	60.694
260.99	60.559
261.36	61.261
261.73	63.037
262.10	58.140
262.47	62.535
262.85	56.267
263.22	56.980
263.59	59.259
263.96	59.890
264.33	58.486
264.70	59.474
265.07	58.056
265.44	60.101
265.81	55.231
266.18	56.533
266.55	58.049
266.92	60.688
267.29	57.870
267.66	54.587
268.03	54.318
268.40	55.607
268.77	54.177
269.14	56.081
269.51	56.885
269.88	57.809
270.25	57.111
270.62	57.303
270.99	54.839
271.36	54.506
271.73	57.477
272.10	53.043
272.47	57.634
272.84	54.113
273.21	54.927
273.58	52.838
273.95	50.105
274.32	54.752
274.69	55.246
275.06	55.315
275.43	54.255
275.80	51.904
276.17	52.546
276.54	52.391
276.91	54.150
277.28	52.344
277.65	51.451
278.02	55.072
278.39	52.344
278.76	51.455
279.13	53.585
279.50	49.534
279.87	52.191
280.23	51.896
280.60	51.644
280.97	51.756
281.34	53.097
281.71	50.364
282.08	52.591
282.45	50.182
282.82	50.977
283.19	50.089
283.56	50.351
283.92	49.408
284.29	50.617
284.66	50.635
285.03	46.835
285.40	48.239
285.77	48.485
286.14	48.532
286.51	49.000
286.87	47.521
287.24	48.697
287.61	47.833
287.98	48.539
288.35	45.325
288.72	45.483
289.08	45.070
289.45	45.964
289.82	44.715
290.19	45.683
290.56	43.185
290.93	44.109
291.29	43.558
291.66	41.740
292.03	44.767
292.40	45.081
292.77	41.272
293.13	44.478
293.50	43.440
293.87	41.630
294.24	41.926
294.60	41.339
294.97	40.698
295.34	40.621
295.71	41.335
296.08	40.313
296.44	41.541
296.81	36.724
297.18	41.192
297.55	37.071
297.91	37.863
298.28	40.830
298.65	39.817
299.02	40.975
299.38	39.973
299.75	35.849
300.12	35.888
300.48	37.375
300.85	36.128
301.22	37.707
301.59	36.364
301.95	36.524
302.32	35.302
302.69	36.320
303.05	36.848
303.42	36.790
303.79	34.881
304.15	35.781
304.52	36.037
304.89	35.656
305.25	34.223
305.62	35.108
305.99	35.301
306.35	34.899
306.72	35.874
307.09	35.183
307.45	37.162
307.82	33.036
308.19	33.885
308.55	35.707
308.92	34.801
309.29	34.319
309.65	34.146
310.02	33.932
310.38	34.086
310.75	34.530
311.12	34.596
311.48	34.483
311.85	33.543
312.22	33.507
312.58	35.239
312.95	34.319
313.31	34.175
313.68	35.655
314.05	36.489
314.41	34.573
314.78	35.650
315.14	35.253
315.51	36.148
315.87	33.465
316.24	34.062
316.61	34.503
316.97	36.301
317.34	34.638
317.70	36.520
318.07	35.419
318.43	36.497
318.80	36.364
319.16	36.535
319.53	34.053
319.89	36.381
320.26	37.700
320.62	36.508
320.99	37.475
321.35	37.172
321.72	37.269
322.08	38.105
322.45	39.602
322.81	40.019
323.18	38.536
323.54	39.610
323.91	39.057
324.27	39.101
324.64	38.024
325.00	38.233
325.37	39.672
325.73	39.677
326.10	39.100
326.46	40.412
326.83	40.121
327.19	40.137
327.56	40.767
327.92	41.732
328.29	42.147
328.65	40.516
329.01	41.968
329.38	41.073
329.74	41.828
330.11	42.601
330.47	42.608
330.84	42.371
331.20	41.621
331.56	42.385
331.93	43.796
332.29	41.260
332.66	43.717
333.02	42.048
333.38	41.915
333.75	42.335
334.11	42.171
334.48	42.236
334.84	43.658
335.20	42.818
335.57	43.064
335.93	41.607
336.29	43.315
336.66	44.094
337.02	42.715
337.38	43.333
337.75	43.405
338.11	42.883
338.47	43.738
338.84	43.721
339.20	41.193
339.56	44.069
339.93	43.545
340.29	42.301
340.65	41.533
341.02	43.106
341.38	43.149
341.74	42.719
342.11	40.873
342.47	42.115
342.83	42.551
343.20	42.771
343.56	40.607
343.92	42.719
344.28	42.007
344.65	42.304
345.01	41.919
345.37	41.424
345.73	41.455
346.10	42.370
346.46	41.356
346.82	41.433
347.19	42.022
347.55	42.118
347.91	41.019
348.27	43.303
348.63	43.060
349.00	41.181
349.36	41.133
349.72	40.978
350.08	40.843
350.45	41.660
350.81	40.374
351.17	41.248
351.53	40.049
351.89	40.099
352.26	41.910
352.62	41.379
352.98	41.248
353.34	41.413
353.70	40.098
354.07	40.887
354.43	38.810
354.79	39.019
355.15	40.942
355.51	41.247
355.87	41.551
356.24	40.879
356.60	39.695
356.96	42.076
357.32	41.537
357.68	40.472
358.04	41.647
358.40	39.747
358.77	40.767
359.13	39.227
359.49	40.471
359.85	40.476
360.21	39.394
360.57	41.790
360.93	40.385
361.29	39.909
361.66	39.551
362.02	40.896
362.38	40.456
362.74	40.179
363.10	40.933
363.46	40.205
363.82	42.177
364.18	40.015
364.54	40.490
364.90	40.297
365.26	39.779
365.62	41.417
365.98	40.175
366.35	40.688
366.71	39.696
367.07	40.277
367.43	40.639
367.79	41.113
368.15	40.517
368.51	39.608
368.87	41.328
369.23	39.795
369.59	40.912
369.95	40.809
370.31	40.456
370.67	39.928
371.03	41.273
371.39	41.108
371.75	40.662
372.11	39.616
372.47	42.155
372.83	41.499
373.19	40.535
373.55	41.168
373.91	42.047
374.27	40.756
374.63	40.655
374.99	41.525
375.35	39.846
375.71	40.713
376.07	41.152
376.42	40.646
376.78	42.478
377.14	40.841
377.50	41.987
377.86	41.090
378.22	41.972
378.58	40.602
378.94	41.420
379.30	40.712
379.66	41.942
380.02	41.769
380.38	41.651
380.74	41.116
381.09	41.748
381.45	41.856
381.81	42.506
382.17	41.911
382.53	40.818
382.89	41.790
383.25	43.089
383.61	42.627
383.97	41.526
384.32	41.235
384.68	41.822
385.04	41.364
385.40	42.167
385.76	42.199
386.12	42.552
386.48	42.480
386.83	44.067
387.19	44.156
387.55	43.352
387.91	42.624
388.27	43.041
388.62	41.242
388.98	43.120
389.34	42.240
389.70	42.918
390.06	43.980
390.42	43.450
390.77	43.448
391.13	44.097
391.49	44.543
391.85	43.221
392.20	43.849
392.56	44.444
392.92	44.261
393.28	42.249
393.64	43.825
393.99	44.411
394.35	43.672
394.71	43.287
395.07	42.928
395.42	44.190
395.78	44.529
396.14	44.258
396.50	43.985
396.85	45.200
397.21	44.020
397.57	44.327
397.92	44.952
398.28	43.554
398.64	43.429
399.00	44.992
399.35	43.542
399.71	43.981
400.07	44.766
400.42	44.908
400.78	44.753
401.14	45.671
401.49	45.373
401.85	44.767
402.21	43.713
402.57	44.294
402.92	45.586
403.28	44.909
403.63	45.111
403.99	46.497
404.35	44.485
404.70	45.983
405.06	44.321
405.42	45.914
405.77	45.486
406.13	44.413
406.49	47.014
406.84	45.954
407.20	45.272
407.55	47.224
407.91	46.467
408.27	46.713
408.62	46.297
408.98	46.324
409.34	46.187
409.69	46.645
410.05	46.778
410.40	46.483
410.76	47.013
411.11	46.743
411.47	47.220
411.83	46.854
412.18	46.382
412.54	47.260
412.89	45.904
413.25	47.285
413.60	48.178
413.96	46.509
414.31	46.902
414.67	47.592
415.03	47.881
415.38	47.938
415.74	47.524
416.09	49.118
416.45	48.126
416.80	48.909
417.16	48.928
417.51	49.303
417.87	48.105
418.22	48.707
418.58	48.547
418.93	49.570
419.29	47.549
419.64	50.000
420.00	49.024
420.35	48.174
420.71	50.329
421.06	47.613
421.42	48.304
421.77	48.935
422.12	48.344
422.48	48.516
422.83	49.971
423.19	49.006
423.54	50.029
423.90	49.043
424.25	49.414
424.61	49.048
424.96	50.204
425.31	49.114
425.67	49.101
426.02	48.914
426.38	50.366
426.73	50.322
427.09	49.483
427.44	49.914
427.79	50.546
428.15	49.702
428.50	49.503
428.85	50.834
429.21	50.028
429.56	50.078
429.92	49.925
430.27	49.454
430.62	48.848
430.98	49.403
431.33	50.000
431.68	51.309
432.04	50.586
432.39	50.771
432.74	50.928
433.10	51.669
433.45	51.429
433.80	51.386
434.16	50.160
434.51	49.579
434.86	52.338
435.22	50.584
435.57	52.219
435.92	50.088
436.28	52.135
436.63	51.104
436.98	50.944
437.34	50.805
437.69	52.042
438.04	52.389
438.39	51.164
438.75	52.586
439.10	52.011
439.45	51.181
439.81	52.145
440.16	52.456
440.51	53.076
440.86	52.229
441.22	53.226
441.57	52.229
441.92	51.740
442.27	51.884
442.63	52.027
442.98	54.423
443.33	52.283
443.68	53.330
444.03	52.416
444.39	52.045
444.74	51.786
445.09	52.399
445.44	52.105
445.79	52.152
446.15	52.303
446.50	52.450
446.85	53.649
447.20	52.473
447.55	53.546
447.91	52.565
448.26	53.701
448.61	53.872
448.96	54.928
449.31	53.206
449.66	52.786
450.02	53.538
450.37	52.834
450.72	52.453
451.07	52.712
451.42	52.219
451.77	52.907
452.12	53.522
452.47	53.358
452.83	53.497
453.18	53.606
453.53	53.309
453.88	54.460
454.23	52.062
454.58	54.270
454.93	54.355
455.28	51.995
455.63	53.823
455.98	54.583
456.34	51.947
456.69	52.786
457.04	52.941
457.39	53.185
457.74	53.511
458.09	52.444
458.44	53.022
458.79	51.356
459.14	53.781
459.49	54.699
459.84	52.521
460.19	52.917
460.54	52.025
460.89	53.099
461.24	53.188
461.59	53.922
461.94	52.836
462.29	53.769
462.64	53.159
462.99	53.221
463.34	53.267
463.69	53.846
464.04	54.261
464.39	53.043
464.74	53.714
465.09	53.076
465.44	52.576
465.79	53.132
466.14	52.107
466.49	52.113
466.84	53.940
467.19	53.470
467.54	53.625
467.89	53.601
468.24	52.356
468.59	54.151
468.94	52.352
469.29	55.527
469.64	54.752
469.99	53.518
470.34	52.576
470.68	54.382
471.03	53.401
471.38	54.413
471.73	55.430
472.08	54.605
472.43	53.706
472.78	54.049
473.13	53.209
473.48	53.870
473.83	54.390
474.17	53.454
474.52	55.273
474.87	53.999
475.22	53.337
475.57	52.391
475.92	52.947
476.27	53.551
476.61	53.337
476.96	53.216
477.31	53.428
477.66	54.267
478.01	52.640
478.36	53.940
478.70	54.050
479.05	52.503
479.40	53.480
479.75	53.330
480.10	53.131
480.45	52.213
480.79	52.652
481.14	53.376
481.49	52.966
481.84	52.583
482.19	53.430
482.53	53.716
482.88	53.094
483.23	53.318
483.58	53.139
483.92	53.749
484.27	51.198
484.62	52.198
484.97	51.163
485.31	52.568
485.66	51.696
486.01	50.184
486.36	49.243
486.70	48.353
487.05	48.737
487.40	50.460
487.75	51.670
488.09	52.442
488.44	52.101
488.79	53.779
489.13	52.827
489.48	52.692
489.83	51.791
490.17	52.828
490.52	51.196
490.87	52.284
491.22	52.160
491.56	51.162
491.91	52.257
492.26	51.814
492.60	50.922
492.95	51.497
493.30	50.607
493.64	52.217
493.99	51.021
494.34	51.434
494.68	52.381
495.03	51.034
495.37	51.047
495.72	52.339
496.07	52.761
496.41	50.265
496.76	51.231
497.11	51.013
497.45	51.747
497.80	51.679
498.14	51.932
498.49	52.195
498.84	51.582
499.18	51.952
499.53	50.902
499.87	51.957
500.22	51.154
500.56	52.087
500.91	51.587
501.26	52.015
501.60	53.204
501.95	51.650
502.29	51.874
502.64	52.467
502.98	52.174
503.33	51.051
503.67	51.879
504.02	53.274
504.36	51.848
504.71	52.467
505.06	52.819
505.40	52.504
505.75	51.929
506.09	52.527
506.44	52.935
506.78	52.265
507.13	53.660
507.47	52.323
507.82	53.242
508.16	53.546
508.51	54.186
508.85	51.887
509.19	53.418
509.54	52.857
509.88	53.529
510.23	55.476
510.57	54.489
510.92	55.256
511.26	53.135
511.61	53.683
511.95	53.497
512.30	54.242
512.64	54.272
512.98	54.234
513.33	54.283
513.67	53.735
514.02	53.842
514.36	55.598
514.70	55.672
515.05	54.378
515.39	55.300
515.74	54.842
516.08	55.729
516.42	55.549
516.77	55.797
517.11	54.939
517.46	55.079
517.80	56.330
518.14	55.588
518.49	55.951
518.83	55.057
519.17	55.543
519.52	55.348
519.86	55.961
520.20	57.052
520.55	57.391
520.89	57.056
521.23	58.384
521.58	57.083
521.92	56.583
522.26	54.790
522.61	57.259
522.95	55.985
523.29	55.691
523.64	57.195
523.98	57.979
524.32	56.514
524.66	57.186
525.01	57.904
525.35	56.691
525.69	56.589
526.04	57.072
526.38	58.328
526.72	56.810
527.06	59.134
527.41	55.260
527.75	58.392
528.09	58.960
528.43	56.533
528.78	57.468
529.12	58.424
529.46	57.869
529.80	58.478
530.15	58.318
530.49	56.985
530.83	57.848
531.17	58.747
531.51	59.209
531.86	58.516
532.20	58.801
532.54	57.207
532.88	59.564
533.22	56.964
533.57	58.086
533.91	57.194
534.25	58.141
534.59	57.474
534.93	57.823
535.27	58.057
535.62	58.120
535.96	58.632
536.30	58.423
536.64	58.467
536.98	58.859
537.32	57.999
537.66	58.667
538.01	58.789
538.35	58.048
538.69	59.860
539.03	58.350
539.37	59.042
539.71	55.930
540.05	59.804
540.39	59.203
540.73	56.662
541.07	58.793
541.42	58.904
541.76	58.968
542.10	58.021
542.44	59.470
542.78	59.486
543.12	58.157
543.46	57.508
543.80	58.556
544.14	57.831
544.48	58.730
544.82	58.627
545.16	58.295
545.50	58.098
545.84	57.997
546.18	58.990
546.52	58.775
546.86	58.557
547.20	57.721
547.54	57.047
547.88	58.801
548.22	57.472
548.56	57.987
548.90	57.042
549.24	58.721
549.58	59.550
549.92	57.692
550.26	60.369
550.60	58.230
550.94	58.099
551.28	56.986
551.62	58.303
551.96	57.754
552.30	58.908
552.64	58.621
552.98	57.627
553.32	57.788
553.66	58.214
554.00	58.476
554.34	57.488
554.68	59.084
555.02	57.969
555.36	58.594
555.69	58.254
556.03	58.883
556.37	58.390
556.71	57.435
557.05	57.353
557.39	58.572
557.73	58.080
558.07	58.883
558.41	58.611
558.75	58.486
559.08	57.793
559.42	59.864
559.76	57.868
560.10	57.173
560.44	57.372
560.78	56.154
561.12	57.784
561.45	57.040
561.79	58.339
562.13	57.679
562.47	58.402
562.81	57.601
563.15	56.722
563.48	57.493
563.82	57.208
564.16	57.750
564.50	56.901
564.84	56.005
565.17	57.529
565.51	57.444
565.85	56.726
566.19	56.168
566.52	58.581
566.86	55.877
567.20	57.901
567.54	57.477
567.88	55.676
568.21	56.667
568.55	56.218
568.89	56.955
569.23	56.729
569.56	55.830
569.90	56.038
570.24	55.364
570.57	54.573
570.91	54.460
571.25	54.787
571.59	54.050
571.92	54.724
572.26	55.633
572.60	55.135
572.93	53.943
573.27	55.457
573.61	54.634
573.95	55.375
574.28	54.296
574.62	54.397
574.96	54.456
575.29	54.462
575.63	54.548
575.97	55.715
576.30	54.514
576.64	54.738
576.98	54.327
577.31	54.436
577.65	54.875
577.98	53.961
578.32	53.594
578.66	54.507
578.99	54.805
579.33	54.708
579.67	54.196
580.00	54.471
580.34	55.695
580.67	54.502
581.01	55.003
581.35	54.796
581.68	54.082
582.02	53.490
582.35	53.978
582.69	53.951
583.02	54.154
583.36	54.877
583.70	55.495
584.03	55.042
584.37	56.574
584.70	56.165
585.04	55.235
585.37	54.823
585.71	54.182
586.04	54.554
586.38	55.617
586.72	54.736
587.05	54.876
587.39	54.380
587.72	54.883
588.06	55.149
588.39	54.787
588.73	55.119
589.06	56.466
589.40	56.027
589.73	56.318
590.07	55.338
590.40	55.133
590.73	55.933
591.07	57.387
591.40	55.968
591.74	56.104
592.07	56.632
592.41	55.105
592.74	54.232
593.08	54.264
593.41	54.255
593.75	53.217
594.08	53.973
594.41	54.330
594.75	55.009
595.08	54.438
595.42	54.466
595.75	55.021
596.09	54.713
596.42	55.049
596.75	55.678
597.09	55.671
597.42	55.354
597.75	55.757
598.09	55.130
598.42	53.995
598.76	54.844
599.09	54.276
599.42	54.731
599.76	54.575
600.09	54.244
600.42	54.054
600.76	53.179
601.09	53.661
601.42	54.528
601.76	53.776
602.09	54.111
602.42	54.260
602.76	54.534
603.09	54.367
603.42	55.486
603.76	54.535
604.09	53.509
604.42	54.749
604.76	54.618
605.09	54.784
605.42	54.681
605.75	54.719
606.09	54.331
606.42	54.516
606.75	53.754
607.09	53.956
607.42	54.942
607.75	53.460
608.08	54.538
608.42	54.056
608.75	53.652
609.08	54.024
609.41	53.070
609.75	54.455
610.08	54.336
610.41	53.864
610.74	54.636
611.07	54.891
611.41	53.827
611.74	55.103
612.07	53.623
612.40	54.932
612.73	53.579
613.07	55.226
613.40	54.976
613.73	53.540
614.06	54.624
614.39	53.120
614.72	53.158
615.06	53.729
615.39	53.875
615.72	53.221
616.05	53.589
616.38	54.086
616.71	54.988
617.05	55.065
617.38	54.901
617.71	55.556
618.04	54.688
618.37	54.760
618.70	54.449
619.03	55.592
619.36	54.650
619.69	53.239
620.03	54.533
620.36	54.545
620.69	55.205
621.02	54.794
621.35	54.738
621.68	54.829
622.01	55.573
622.34	55.068
622.67	55.589
623.00	53.999
623.33	53.538
623.66	55.182
623.99	55.744
624.32	54.779
624.65	53.814
624.99	53.895
625.32	53.440
625.65	54.020
625.98	56.188
626.31	54.355
626.64	55.755
626.97	57.024
627.30	55.029
627.63	53.404
627.96	55.425
628.29	55.556
628.62	55.718
628.95	56.604
629.28	54.562
629.61	55.637
629.94	57.524
630.26	56.816
630.59	55.195
