SpectraSuite Data File
++++++++++++++++++++++++++++++++++++
Date: Wed May 13 19:17:07 PDT 2015
User: schluterlab
Dark Spectrum Present: Yes
Reference Spectrum Present: Yes
Number of Sampled Component Spectra: 1
Spectrometers: USB2E3373
Integration Time (usec): 3000 (USB2E3373)
Spectra Averaged: 3 (USB2E3373)
Boxcar Smoothing: 0 (USB2E3373)
Correct for Electrical Dark: No (USB2E3373)
Strobe/Lamp Enabled: No (USB2E3373)
Correct for Detector Non-linearity: No (USB2E3373)
Correct for Stray Light: No (USB2E3373)
Number of Pixels in Processed Spectrum: 2048
>>>>>Begin Processed Spectral Data<<<<<
178.53	0.000
178.91	-1550.000
179.29	-1425.000
179.67	-300.000
180.04	-1450.000
180.42	2600.000
180.80	1220.000
181.18	-1275.000
181.56	671.429
181.94	0.000
182.31	-828.571
182.69	2133.333
183.07	-775.000
183.45	-633.333
183.83	581.818
184.20	-430.000
184.58	2450.000
184.96	5100.000
185.34	-840.000
185.72	-712.500
186.09	-2650.000
186.47	3150.000
186.85	2700.000
187.23	5400.000
187.61	-1900.000
187.98	1500.000
188.36	572.727
188.74	545.455
189.12	-1040.000
189.49	560.000
189.87	-5000.000
190.25	-1425.000
190.63	407.143
191.00	523.077
191.38	966.667
191.76	-1100.000
192.14	1675.000
192.51	725.000
192.89	1100.000
193.27	725.000
193.65	-1350.000
194.02	600.000
194.40	1080.000
194.78	660.000
195.15	600.000
195.53	680.000
195.91	-2150.000
196.29	393.750
196.66	347.368
197.04	-410.000
197.42	0.000
197.79	590.000
198.17	-5800.000
198.55	671.429
198.92	787.500
199.30	1020.000
199.68	0.000
200.05	377.778
200.43	785.714
200.81	4800.000
201.18	2166.667
201.56	-1733.333
201.94	533.333
202.31	766.667
202.69	483.333
203.07	730.000
203.44	0.000
203.82	1550.000
204.19	857.143
204.57	500.000
204.95	725.000
205.32	1833.333
205.70	536.364
206.08	385.714
206.45	2500.000
206.83	400.000
207.20	916.667
207.58	820.000
207.96	333.333
208.33	812.500
208.71	-983.333
209.08	957.143
209.46	677.778
209.84	618.182
210.21	-1700.000
210.59	1750.000
210.96	-650.000
211.34	3100.000
211.71	680.000
212.09	866.667
212.46	0.000
212.84	1933.333
213.22	1350.000
213.59	-6200.000
213.97	1066.667
214.34	1014.286
214.72	590.909
215.09	860.000
215.47	-2650.000
215.84	-3050.000
216.22	2033.333
216.59	471.429
216.97	1325.000
217.34	509.091
217.72	-900.000
218.09	0.000
218.47	-6000.000
218.84	755.556
219.22	928.571
219.59	1900.000
219.97	-857.143
220.34	1000.000
220.72	-1566.667
221.09	485.714
221.47	1650.000
221.84	-1050.000
222.22	0.000
222.59	1500.000
222.97	-2750.000
223.34	1260.000
223.72	523.077
224.09	1220.000
224.46	2500.000
224.84	-5500.000
225.21	-1120.000
225.59	-6100.000
225.96	600.000
226.34	330.000
226.71	3300.000
227.08	750.000
227.46	680.000
227.83	-1375.000
228.21	-2600.000
228.58	711.111
228.95	-2500.000
229.33	-2950.000
229.70	1900.000
230.08	885.714
230.45	-920.000
230.82	500.000
231.20	1016.667
231.57	942.857
231.95	541.667
232.32	318.182
232.69	536.364
233.07	700.000
233.44	430.769
233.81	-1966.667
234.19	368.421
234.56	550.000
234.93	458.333
235.31	463.636
235.68	438.462
236.05	435.714
236.43	203.030
236.80	331.579
237.17	4600.000
237.55	357.143
237.92	267.857
238.29	328.571
238.67	229.032
239.04	275.862
239.41	208.333
239.79	169.565
240.16	183.333
240.53	168.182
240.91	137.255
241.28	154.000
241.65	142.000
242.02	126.087
242.40	150.000
242.77	140.000
243.14	115.054
243.51	119.101
243.89	115.294
244.26	107.778
244.63	112.903
245.00	101.064
245.38	103.960
245.75	98.131
246.12	103.670
246.49	90.511
246.87	94.400
247.24	90.000
247.61	93.571
247.98	84.314
248.36	89.189
248.73	81.529
249.10	84.076
249.47	82.486
249.84	79.144
250.22	79.144
250.59	81.657
250.96	77.778
251.33	79.147
251.70	76.733
252.08	78.571
252.45	71.300
252.82	75.217
253.19	71.489
253.56	70.196
253.94	75.934
254.31	75.391
254.68	69.615
255.05	73.801
255.42	77.236
255.79	70.221
256.16	67.870
256.54	63.958
256.91	70.819
257.28	64.748
257.65	64.686
258.02	68.012
258.39	70.032
258.76	68.562
259.14	65.774
259.51	65.350
259.88	64.596
260.25	65.559
260.62	62.139
260.99	67.391
261.36	66.667
261.73	64.470
262.10	65.407
262.47	65.915
262.85	62.396
263.22	61.823
263.59	65.812
263.96	59.615
264.33	59.791
264.70	65.789
265.07	63.427
265.44	63.889
265.81	56.448
266.18	63.065
266.55	62.439
266.92	63.636
267.29	60.185
267.66	55.734
268.03	58.182
268.40	57.243
268.77	57.757
269.14	56.982
269.51	58.916
269.88	62.937
270.25	55.079
270.62	57.079
270.99	58.065
271.36	58.155
271.73	61.682
272.10	58.696
272.47	59.140
272.84	58.658
273.21	54.717
273.58	56.769
273.95	54.507
274.32	55.579
274.69	56.959
275.06	56.890
275.43	57.234
275.80	54.509
276.17	55.601
276.54	59.044
276.91	56.126
277.28	54.492
277.65	53.965
278.02	60.870
278.39	59.375
278.76	51.091
279.13	54.151
279.50	52.142
279.87	53.586
280.23	53.693
280.60	55.126
280.97	54.898
281.34	54.513
281.71	51.636
282.08	55.854
282.45	52.182
282.82	52.575
283.19	51.693
283.56	52.105
283.92	54.484
284.29	53.263
284.66	53.902
285.03	51.175
285.40	51.232
285.77	51.852
286.14	51.813
286.51	50.500
286.87	50.598
287.24	52.280
287.61	52.006
287.98	49.188
288.35	51.030
288.72	49.688
289.08	48.670
289.45	48.929
289.82	50.244
290.19	48.980
290.56	46.401
290.93	46.979
291.29	49.693
291.66	47.640
292.03	48.401
292.40	49.046
292.77	46.006
293.13	45.373
293.50	46.501
293.87	46.370
294.24	44.296
294.60	43.959
294.97	43.023
295.34	46.262
295.71	43.750
296.08	42.308
296.44	43.879
296.81	42.536
297.18	42.818
297.55	41.557
297.91	41.689
298.28	43.106
298.65	42.950
299.02	42.029
299.38	43.028
299.75	39.757
300.12	39.974
300.48	37.750
300.85	40.321
301.22	40.127
301.59	39.646
301.95	40.806
302.32	38.896
302.69	40.024
303.05	39.758
303.42	39.136
303.79	38.052
304.15	37.413
304.52	38.818
304.89	39.141
305.25	40.139
305.62	36.920
305.99	40.378
306.35	38.255
306.72	39.238
307.09	37.847
307.45	37.725
307.82	36.161
308.19	37.417
308.55	36.138
308.92	37.701
309.29	36.114
309.65	36.585
310.02	36.681
310.38	36.882
310.75	37.276
311.12	36.745
311.48	37.304
311.85	37.002
312.22	36.004
312.58	35.343
312.95	36.748
313.31	35.146
313.68	36.798
314.05	35.897
314.41	34.673
314.78	36.657
315.14	36.445
315.51	36.869
315.87	34.257
316.24	35.353
316.61	35.283
316.97	35.029
317.34	35.421
317.70	35.564
318.07	33.975
318.43	36.399
318.80	34.864
319.16	34.746
319.53	32.645
319.89	34.762
320.26	35.300
320.62	35.813
320.99	35.960
321.35	35.556
321.72	34.805
322.08	35.143
322.45	33.433
322.81	33.818
323.18	34.778
323.54	34.137
323.91	33.491
324.27	34.799
324.64	33.830
325.00	32.913
325.37	34.304
325.73	34.291
326.10	33.539
326.46	33.065
326.83	35.203
327.19	32.536
327.56	32.317
327.92	32.896
328.29	33.097
328.65	33.978
329.01	32.581
329.38	33.302
329.74	33.426
330.11	33.459
330.47	33.242
330.84	32.996
331.20	33.060
331.56	32.844
331.93	32.222
332.29	32.564
332.66	32.478
333.02	32.267
333.38	33.062
333.75	32.888
334.11	32.206
334.48	30.967
334.84	32.445
335.20	32.545
335.57	30.734
335.93	30.357
336.29	32.143
336.66	31.740
337.02	31.584
337.38	32.407
337.75	30.481
338.11	30.349
338.47	30.847
338.84	31.622
339.20	30.367
339.56	31.204
339.93	31.182
340.29	29.801
340.65	29.679
341.02	31.937
341.38	30.872
341.74	30.702
342.11	31.703
342.47	30.485
342.83	31.935
343.20	30.996
343.56	29.149
343.92	30.789
344.28	29.762
344.65	30.782
345.01	29.209
345.37	31.132
345.73	29.272
346.10	30.179
346.46	30.763
346.82	30.807
347.19	28.989
347.55	30.296
347.91	30.340
348.27	30.485
348.63	29.766
349.00	29.612
349.36	30.378
349.72	30.313
350.08	29.903
350.45	29.618
350.81	29.894
351.17	30.227
351.53	30.303
351.89	28.383
352.26	28.808
352.62	29.030
352.98	27.715
353.34	29.170
353.70	27.823
354.07	29.516
354.43	27.540
354.79	27.836
355.15	28.332
355.51	30.296
355.87	28.898
356.24	28.909
356.60	28.308
356.96	27.595
357.32	27.392
357.68	28.110
358.04	27.633
358.40	28.345
358.77	28.091
359.13	28.098
359.49	28.627
359.85	26.825
360.21	27.592
360.57	28.093
360.93	28.308
361.29	26.909
361.66	25.929
362.02	27.836
362.38	27.452
362.74	28.274
363.10	27.535
363.46	27.366
363.82	26.984
364.18	26.946
364.54	26.746
364.90	27.266
365.26	27.132
365.62	27.465
365.98	25.712
366.35	26.791
366.71	26.392
367.07	27.094
367.43	26.923
367.79	27.480
368.15	26.580
368.51	25.945
368.87	26.624
369.23	27.432
369.59	27.299
369.95	26.618
370.31	27.422
370.67	27.174
371.03	27.416
371.39	27.187
371.75	26.838
372.11	25.605
372.47	27.053
372.83	27.233
373.19	25.072
373.55	25.868
373.91	25.626
374.27	25.773
374.63	25.309
374.99	26.554
375.35	26.029
375.71	25.840
376.07	26.337
376.42	26.341
376.78	25.514
377.14	25.102
377.50	26.689
377.86	24.801
378.22	25.727
378.58	25.063
378.94	25.079
379.30	25.700
379.66	25.952
380.02	25.000
380.38	24.590
380.74	25.510
381.09	25.183
381.45	25.999
381.81	25.307
382.17	25.159
382.53	25.031
382.89	25.926
383.25	24.203
383.61	25.527
383.97	24.765
384.32	24.766
384.68	23.916
385.04	24.032
385.40	23.901
385.76	23.894
386.12	24.482
386.48	24.418
386.83	25.144
387.19	25.108
387.55	24.861
387.91	24.486
388.27	24.280
388.62	25.138
388.98	25.000
389.34	25.532
389.70	24.341
390.06	24.778
390.42	24.903
390.77	23.791
391.13	24.442
391.49	24.746
391.85	24.443
392.20	23.028
392.56	23.990
392.92	24.073
393.28	23.373
393.64	24.640
393.99	23.152
394.35	24.318
394.71	23.588
395.07	23.614
395.42	24.042
395.78	23.919
396.14	24.767
396.50	24.561
396.85	23.713
397.21	23.613
397.57	23.311
397.92	23.618
398.28	22.870
398.64	23.536
399.00	23.727
399.35	22.730
399.71	22.627
400.07	23.596
400.42	23.558
400.78	24.246
401.14	23.354
401.49	23.582
401.85	22.807
402.21	23.114
402.57	22.640
402.92	23.897
403.28	23.548
403.63	23.639
403.99	23.758
404.35	23.939
404.70	23.561
405.06	22.598
405.42	23.518
405.77	24.057
406.13	22.912
406.49	22.827
406.84	22.918
407.20	22.281
407.55	22.399
407.91	23.467
408.27	23.038
408.62	24.383
408.98	22.549
409.34	23.678
409.69	24.065
410.05	23.172
410.40	22.997
410.76	23.238
411.11	23.402
411.47	22.875
411.83	22.786
412.18	23.067
412.54	23.101
412.89	23.253
413.25	23.495
413.60	22.977
413.96	22.101
414.31	23.026
414.67	22.687
415.03	22.318
415.38	23.389
415.74	22.444
416.09	23.383
416.45	22.356
416.80	23.463
417.16	23.458
417.51	23.358
417.87	22.672
418.22	22.902
418.58	23.886
418.93	22.912
419.29	22.342
419.64	24.118
420.00	22.866
420.35	23.594
420.71	23.072
421.06	23.210
421.42	22.456
421.77	23.374
422.12	22.403
422.48	21.587
422.83	23.471
423.19	22.376
423.54	22.693
423.90	22.145
424.25	22.836
424.61	22.619
424.96	22.799
425.31	21.595
425.67	21.910
426.02	21.886
426.38	21.673
426.73	22.235
427.09	21.702
427.44	22.197
427.79	22.599
428.15	22.976
428.50	22.294
428.85	23.540
429.21	21.922
429.56	21.669
429.92	21.892
430.27	21.847
430.62	21.557
430.98	21.899
431.33	21.443
431.68	21.937
432.04	21.512
432.39	21.759
432.74	22.681
433.10	22.071
433.45	22.624
433.80	21.341
434.16	22.543
434.51	21.684
434.86	22.007
435.22	22.068
435.57	23.161
435.92	21.767
436.28	22.716
436.63	23.068
436.98	22.038
437.34	22.361
437.69	21.412
438.04	22.372
438.39	21.970
438.75	23.591
439.10	21.844
439.45	22.196
439.81	22.356
440.16	21.118
440.51	22.261
440.86	22.003
441.22	21.802
441.57	22.452
441.92	21.853
442.27	22.067
442.63	21.274
442.98	22.817
443.33	22.120
443.68	21.631
444.03	21.376
444.39	21.130
444.74	21.807
445.09	21.833
445.44	21.378
445.79	21.425
446.15	22.128
446.50	21.594
446.85	21.326
447.20	21.928
447.55	22.278
447.91	21.511
448.26	21.480
448.61	21.820
448.96	21.982
449.31	22.328
449.66	22.510
450.02	20.724
450.37	21.599
450.72	21.658
451.07	21.207
451.42	21.945
451.77	21.374
452.12	21.651
452.47	21.393
452.83	21.620
453.18	21.271
453.53	22.202
453.88	20.851
454.23	20.861
454.58	22.471
454.93	22.759
455.28	20.698
455.63	21.541
455.98	22.321
456.34	22.362
456.69	22.354
457.04	22.043
457.39	21.099
457.74	21.416
458.09	21.449
458.44	21.152
458.79	21.258
459.14	21.727
459.49	22.592
459.84	21.496
460.19	20.801
460.54	21.238
460.89	21.997
461.24	21.494
461.59	21.848
461.94	21.147
462.29	20.831
462.64	21.442
462.99	21.210
463.34	22.667
463.69	21.388
464.04	20.870
464.39	21.449
464.74	20.974
465.09	21.411
465.44	20.443
465.79	21.029
466.14	21.182
466.49	20.745
466.84	21.191
467.19	20.459
467.54	21.500
467.89	20.888
468.24	20.593
468.59	21.734
468.94	21.014
469.29	21.851
469.64	21.352
469.99	21.448
470.34	20.938
470.68	19.899
471.03	20.952
471.38	21.056
471.73	21.386
472.08	20.592
472.43	21.106
472.78	20.276
473.13	20.411
473.48	21.036
473.83	21.951
474.17	20.535
474.52	21.464
474.87	21.366
475.22	20.952
475.57	19.989
475.92	20.393
476.27	20.406
476.61	20.518
476.96	20.671
477.31	20.408
477.66	20.350
478.01	20.125
478.36	20.836
478.70	20.197
479.05	20.554
479.40	20.010
479.75	20.996
480.10	20.278
480.45	19.800
480.79	20.258
481.14	20.254
481.49	20.598
481.84	20.622
482.19	19.809
482.53	20.642
482.88	20.335
483.23	20.093
483.58	19.927
483.92	20.478
484.27	18.954
484.62	19.828
484.97	19.827
485.31	20.240
485.66	21.386
486.01	20.486
486.36	19.836
486.70	18.631
487.05	19.147
487.40	18.718
487.75	18.894
488.09	18.350
488.44	18.112
488.79	19.024
489.13	18.869
489.48	18.923
489.83	18.947
490.17	19.684
490.52	19.309
490.87	19.539
491.22	19.236
491.56	18.497
491.91	19.218
492.26	19.109
492.60	19.124
492.95	18.990
493.30	19.393
493.64	19.645
493.99	19.174
494.34	19.981
494.68	19.414
495.03	19.596
495.37	19.591
495.72	19.639
496.07	19.536
496.41	18.850
496.76	19.305
497.11	18.730
497.45	19.329
497.80	19.530
498.14	18.744
498.49	19.024
498.84	19.080
499.18	19.429
499.53	18.993
499.87	18.966
500.22	18.747
500.56	19.709
500.91	18.846
501.26	19.393
501.60	19.364
501.95	18.653
502.29	19.541
502.64	19.553
502.98	19.121
503.33	19.561
503.67	19.211
504.02	18.616
504.36	19.420
504.71	19.345
505.06	18.940
505.40	19.008
505.75	18.708
506.09	19.048
506.44	19.092
506.78	18.558
507.13	18.476
507.47	19.747
507.82	19.402
508.16	18.997
508.51	19.127
508.85	18.918
509.19	18.776
509.54	18.878
509.88	19.062
510.23	19.332
510.57	19.556
510.92	19.109
511.26	19.065
511.61	18.413
511.95	18.789
512.30	18.399
512.64	18.592
512.98	18.971
513.33	19.165
513.67	18.250
514.02	18.290
514.36	18.842
514.70	18.594
515.05	18.293
515.39	18.508
515.74	18.919
516.08	19.173
516.42	19.367
516.77	19.287
517.11	18.590
517.46	18.567
517.80	19.048
518.14	17.776
518.49	18.436
518.83	19.148
519.17	18.303
519.52	18.563
519.86	18.825
520.20	18.671
520.55	18.671
520.89	18.917
521.23	18.878
521.58	18.968
521.92	18.983
522.26	17.511
522.61	18.193
522.95	18.048
523.29	18.624
523.64	18.720
523.98	19.039
524.32	18.094
524.66	18.761
525.01	18.750
525.35	17.844
525.69	17.672
526.04	18.006
526.38	17.755
526.72	18.466
527.06	18.456
527.41	17.079
527.75	18.650
528.09	18.240
528.43	18.866
528.78	19.484
529.12	18.000
529.46	19.780
529.80	18.998
530.15	19.377
530.49	18.031
530.83	18.544
531.17	19.974
531.51	19.066
531.86	18.903
532.20	19.948
532.54	19.411
532.88	19.448
533.22	18.551
533.57	18.765
533.91	19.085
534.25	19.137
534.59	18.914
534.93	19.155
535.27	18.648
535.62	19.353
535.96	19.335
536.30	18.754
536.64	18.416
536.98	18.646
537.32	18.960
537.66	18.933
538.01	19.355
538.35	18.875
538.69	20.166
539.03	18.583
539.37	18.594
539.71	18.082
540.05	19.608
540.39	18.605
540.73	18.693
541.07	19.403
541.42	18.591
541.76	19.548
542.10	19.082
542.44	17.881
542.78	19.960
543.12	19.130
543.46	20.590
543.80	19.193
544.14	18.421
544.48	18.984
544.82	19.243
545.16	19.453
545.50	19.152
545.84	18.817
546.18	18.923
546.52	19.270
546.86	19.450
547.20	19.555
547.54	19.706
547.88	20.026
548.22	18.991
548.56	19.308
548.90	18.310
549.24	19.057
549.58	19.645
549.92	18.956
550.26	19.815
550.60	18.949
550.94	18.732
551.28	18.508
551.62	19.554
551.96	18.947
552.30	20.068
552.64	19.675
552.98	19.593
553.32	18.678
553.66	19.155
554.00	19.080
554.34	20.152
554.68	19.599
555.02	18.195
555.36	19.624
555.69	18.945
556.03	19.448
556.37	18.759
556.71	19.645
557.05	18.908
557.39	19.804
557.73	18.349
558.07	19.579
558.41	18.379
558.75	19.912
559.08	19.090
559.42	18.594
559.76	19.926
560.10	19.629
560.44	19.008
560.78	19.162
561.12	19.261
561.45	20.339
561.79	19.183
562.13	19.651
562.47	19.331
562.81	19.456
563.15	19.398
563.48	17.971
563.82	18.656
564.16	19.817
564.50	18.685
564.84	18.268
565.17	18.662
565.51	19.489
565.85	19.289
566.19	19.662
566.52	18.999
566.86	19.168
567.20	20.283
567.54	19.692
567.88	19.283
568.21	19.206
568.55	19.110
568.89	19.309
569.23	19.831
569.56	19.676
569.90	20.491
570.24	19.842
570.57	20.401
570.91	19.619
571.25	19.734
571.59	19.794
571.92	19.470
572.26	19.728
572.60	19.550
572.93	18.921
573.27	19.846
573.61	20.324
573.95	19.535
574.28	20.101
574.62	19.971
574.96	19.857
575.29	19.253
575.63	19.512
575.97	18.693
576.30	19.915
576.64	19.105
576.98	19.373
577.31	19.986
577.65	19.696
577.98	19.562
578.32	19.519
578.66	19.686
578.99	19.448
579.33	19.632
579.67	18.925
580.00	19.156
580.34	19.839
580.67	19.263
581.01	20.103
581.35	19.513
581.68	20.086
582.02	19.976
582.35	19.801
582.69	19.803
583.02	19.565
583.36	19.276
583.70	19.281
584.03	18.992
584.37	19.368
584.70	19.592
585.04	19.716
585.37	20.154
585.71	20.066
586.04	20.150
586.38	19.854
586.72	20.215
587.05	19.533
587.39	19.235
587.72	19.918
588.06	19.664
588.39	19.671
588.73	19.449
589.06	19.601
589.40	19.798
589.73	20.380
590.07	19.822
590.40	19.510
590.73	19.360
591.07	19.902
591.40	19.696
591.74	19.957
592.07	19.459
592.41	19.926
592.74	19.850
593.08	20.187
593.41	19.772
593.75	19.644
594.08	19.980
594.41	20.361
594.75	20.000
595.08	19.936
595.42	20.315
595.75	19.409
596.09	20.015
596.42	20.039
596.75	20.388
597.09	20.346
597.42	19.477
597.75	19.879
598.09	19.652
598.42	18.814
598.76	20.065
599.09	19.840
599.42	20.342
599.76	19.949
600.09	19.271
600.42	20.453
600.76	19.821
601.09	19.891
601.42	19.977
601.76	19.013
602.09	19.526
602.42	20.143
602.76	20.032
603.09	19.748
603.42	20.305
603.76	19.817
604.09	19.581
604.42	19.853
604.76	20.034
605.09	19.659
605.42	19.966
605.75	20.240
606.09	19.683
606.42	19.657
606.75	19.784
607.09	20.301
607.42	19.726
607.75	19.156
608.08	19.279
608.42	19.632
608.75	19.522
609.08	19.935
609.41	19.657
609.75	20.152
610.08	19.981
610.41	19.693
610.74	19.962
611.07	19.911
611.41	19.823
611.74	20.211
612.07	20.290
612.40	20.094
612.73	20.263
613.07	20.151
613.40	19.853
613.73	19.874
614.06	19.946
614.39	19.979
614.72	19.895
615.06	20.011
615.39	19.639
615.72	19.683
616.05	19.830
616.38	20.011
616.71	19.834
617.05	20.612
617.38	19.302
617.71	20.240
618.04	20.974
618.37	19.633
618.70	20.784
619.03	20.197
619.36	20.706
619.69	19.648
620.03	20.948
620.36	20.789
620.69	20.616
621.02	20.723
621.35	20.282
621.68	18.847
622.01	20.046
622.34	20.802
622.67	20.913
623.00	19.883
623.33	19.657
623.66	20.586
623.99	19.661
624.32	20.542
624.65	19.774
624.99	19.901
625.32	19.913
625.65	19.008
625.98	20.369
626.31	20.062
626.64	20.490
626.97	19.784
627.30	19.119
627.63	19.934
627.96	19.933
628.29	20.297
628.62	19.945
628.95	21.981
629.28	19.982
629.61	21.173
629.94	20.476
630.26	20.400
630.59	19.733
