SpectraSuite Data File
++++++++++++++++++++++++++++++++++++
Date: Wed May 13 19:25:06 PDT 2015
User: schluterlab
Dark Spectrum Present: Yes
Reference Spectrum Present: Yes
Number of Sampled Component Spectra: 1
Spectrometers: USB2E3373
Integration Time (usec): 3000 (USB2E3373)
Spectra Averaged: 3 (USB2E3373)
Boxcar Smoothing: 0 (USB2E3373)
Correct for Electrical Dark: No (USB2E3373)
Strobe/Lamp Enabled: No (USB2E3373)
Correct for Detector Non-linearity: No (USB2E3373)
Correct for Stray Light: No (USB2E3373)
Number of Pixels in Processed Spectrum: 2048
>>>>>Begin Processed Spectral Data<<<<<
178.53	0.000
178.91	-1450.000
179.29	-1500.000
179.67	-255.556
180.04	-1250.000
180.42	2700.000
180.80	940.000
181.18	-1100.000
181.56	757.143
181.94	0.000
182.31	-700.000
182.69	1933.333
183.07	-662.500
183.45	-500.000
183.83	518.182
184.20	-460.000
184.58	2550.000
184.96	4800.000
185.34	-1080.000
185.72	-600.000
186.09	-2350.000
186.47	2800.000
186.85	2800.000
187.23	5300.000
187.61	-2000.000
187.98	1325.000
188.36	536.364
188.74	572.727
189.12	-980.000
189.49	520.000
189.87	-5100.000
190.25	-1125.000
190.63	478.571
191.00	515.385
191.38	800.000
191.76	-1450.000
192.14	1425.000
192.51	575.000
192.89	850.000
193.27	675.000
193.65	-1225.000
194.02	540.000
194.40	1020.000
194.78	670.000
195.15	491.667
195.53	630.000
195.91	-2450.000
196.29	350.000
196.66	342.105
197.04	-380.000
197.42	0.000
197.79	640.000
198.17	-3900.000
198.55	728.571
198.92	787.500
199.30	940.000
199.68	0.000
200.05	316.667
200.43	800.000
200.81	5200.000
201.18	1733.333
201.56	-1500.000
201.94	711.111
202.31	666.667
202.69	500.000
203.07	670.000
203.44	0.000
203.82	1225.000
204.19	814.286
204.57	450.000
204.95	775.000
205.32	1933.333
205.70	500.000
206.08	407.143
206.45	2700.000
206.83	368.750
207.20	1150.000
207.58	860.000
207.96	305.556
208.33	812.500
208.71	-850.000
209.08	828.571
209.46	477.778
209.84	472.727
210.21	-1500.000
210.59	1400.000
210.96	-562.500
211.34	3050.000
211.71	690.000
212.09	983.333
212.46	0.000
212.84	1766.667
213.22	1500.000
213.59	-5500.000
213.97	1083.333
214.34	957.143
214.72	672.727
215.09	980.000
215.47	-2900.000
215.84	-2500.000
216.22	1800.000
216.59	428.571
216.97	1325.000
217.34	481.818
217.72	-833.333
218.09	0.000
218.47	-5800.000
218.84	655.556
219.22	842.857
219.59	1700.000
219.97	-728.571
220.34	1020.000
220.72	-1666.667
221.09	414.286
221.47	1825.000
221.84	-1083.333
222.22	0.000
222.59	1425.000
222.97	-2850.000
223.34	1180.000
223.72	415.385
224.09	1280.000
224.46	2350.000
224.84	-5100.000
225.21	-1000.000
225.59	-5700.000
225.96	710.000
226.34	300.000
226.71	2250.000
227.08	675.000
227.46	580.000
227.83	-1275.000
228.21	-2450.000
228.58	633.333
228.95	-2400.000
229.33	-2150.000
229.70	1766.667
230.08	842.857
230.45	-1000.000
230.82	458.333
231.20	950.000
231.57	857.143
231.95	400.000
232.32	290.909
232.69	409.091
233.07	785.714
233.44	415.385
233.81	-1800.000
234.19	342.105
234.56	466.667
234.93	433.333
235.31	481.818
235.68	315.385
236.05	350.000
236.43	200.000
236.80	294.737
237.17	4600.000
237.55	247.619
237.92	221.429
238.29	257.143
238.67	177.419
239.04	210.345
239.41	161.111
239.79	145.652
240.16	166.667
240.53	115.909
240.91	100.000
241.28	144.000
241.65	108.000
242.02	108.696
242.40	104.839
242.77	106.667
243.14	77.419
243.51	80.899
243.89	81.176
244.26	67.778
244.63	67.742
245.00	58.511
245.38	69.307
245.75	57.009
246.12	55.046
246.49	56.934
246.87	64.800
247.24	66.923
247.61	57.143
247.98	52.288
248.36	45.946
248.73	46.497
249.10	56.688
249.47	45.763
249.84	50.267
250.22	49.198
250.59	47.929
250.96	41.919
251.33	44.076
251.70	49.505
252.08	41.905
252.45	43.049
252.82	37.826
253.19	38.298
253.56	38.039
253.94	41.909
254.31	32.812
254.68	36.538
255.05	37.269
255.42	39.024
255.79	39.706
256.16	38.267
256.54	37.102
256.91	33.808
257.28	30.935
257.65	34.653
258.02	35.404
258.39	35.962
258.76	34.114
259.14	34.524
259.51	30.699
259.88	33.851
260.25	30.211
260.62	33.815
260.99	33.230
261.36	34.535
261.73	32.665
262.10	31.686
262.47	30.986
262.85	33.148
263.22	30.484
263.59	34.758
263.96	29.670
264.33	33.943
264.70	33.421
265.07	32.481
265.44	31.061
265.81	28.467
266.18	32.412
266.55	29.512
266.92	30.713
267.29	30.324
267.66	30.275
268.03	27.955
268.40	28.738
268.77	28.162
269.14	26.802
269.51	30.474
269.88	29.604
270.25	26.411
270.62	28.539
270.99	29.892
271.36	30.258
271.73	28.738
272.10	29.565
272.47	29.462
272.84	28.139
273.21	29.140
273.58	27.948
273.95	23.899
274.32	25.207
274.69	27.195
275.06	26.378
275.43	29.149
275.80	26.854
276.17	28.717
276.54	25.988
276.91	27.668
277.28	25.977
277.65	26.886
278.02	27.122
278.39	27.930
278.76	27.818
279.13	26.226
279.50	25.140
279.87	27.092
280.23	27.146
280.60	25.725
280.97	25.878
281.34	25.841
281.71	26.909
282.08	26.488
282.45	23.636
282.82	25.222
283.19	24.599
283.56	23.860
283.92	26.058
284.29	25.397
284.66	25.408
285.03	23.689
285.40	26.585
285.77	24.242
286.14	24.870
286.51	24.500
286.87	25.641
287.24	24.919
287.61	25.843
287.98	24.351
288.35	23.613
288.72	22.741
289.08	24.570
289.45	23.558
289.82	22.927
290.19	21.821
290.56	20.827
290.93	23.565
291.29	21.933
291.66	24.041
292.03	24.564
292.40	23.348
292.77	21.302
293.13	19.851
293.50	22.012
293.87	21.185
294.24	20.000
294.60	21.252
294.97	22.093
295.34	21.580
295.71	19.744
296.08	20.370
296.44	19.807
296.81	20.211
297.18	21.274
297.55	19.261
297.91	18.338
298.28	20.750
298.65	19.843
299.02	20.949
299.38	19.920
299.75	17.251
300.12	18.519
300.48	19.000
300.85	18.249
301.22	19.108
301.59	17.172
301.95	18.892
302.32	16.945
302.69	18.996
303.05	19.152
303.42	17.778
303.79	17.780
304.15	17.483
304.52	17.381
304.89	17.886
305.25	17.517
305.62	18.120
305.99	18.890
306.35	17.673
306.72	16.928
307.09	17.536
307.45	19.032
307.82	17.411
308.19	18.102
308.55	17.260
308.92	16.971
309.29	17.107
309.65	17.285
310.02	16.702
310.38	17.849
310.75	17.001
311.12	17.195
311.48	17.241
311.85	17.086
312.22	17.378
312.58	16.424
312.95	17.212
313.31	15.049
313.68	16.736
314.05	18.836
314.41	16.985
314.78	16.213
315.14	16.485
315.51	15.757
315.87	17.228
316.24	15.492
316.61	14.912
316.97	16.634
317.34	15.753
317.70	17.017
318.07	15.399
318.43	15.753
318.80	16.870
319.16	16.008
319.53	15.947
319.89	17.238
320.26	16.400
320.62	17.063
320.99	16.667
321.35	16.465
321.72	18.789
322.08	16.486
322.45	17.313
322.81	16.570
323.18	17.245
323.54	16.419
323.91	16.132
324.27	16.444
324.64	15.377
325.00	15.600
325.37	16.924
325.73	16.517
326.10	16.417
326.46	15.681
326.83	17.343
327.19	14.432
327.56	14.373
327.92	15.748
328.29	16.238
328.65	16.114
329.01	15.162
329.38	15.356
329.74	15.512
330.11	15.740
330.47	16.162
330.84	15.441
331.20	15.574
331.56	15.505
331.93	14.907
332.29	15.262
332.66	16.195
333.02	16.088
333.38	16.441
333.75	16.667
334.11	16.192
334.48	15.705
334.84	15.533
335.20	15.909
335.57	15.413
335.93	14.375
336.29	15.659
336.66	15.780
337.02	15.294
337.38	16.019
337.75	15.062
338.11	14.861
338.47	14.457
338.84	15.949
339.20	14.862
339.56	16.515
339.93	14.545
340.29	14.674
340.65	15.152
341.02	15.096
341.38	15.214
341.74	15.000
342.11	15.197
342.47	14.978
342.83	15.068
343.20	15.498
343.56	14.575
343.92	14.825
344.28	14.881
344.65	15.219
345.01	15.067
345.37	13.465
345.73	14.890
346.10	15.004
346.46	14.746
346.82	15.486
347.19	14.035
347.55	14.450
347.91	14.159
348.27	15.283
348.63	14.967
349.00	13.673
349.36	13.629
349.72	14.034
350.08	13.614
350.45	14.402
350.81	13.810
351.17	14.749
351.53	12.940
351.89	14.604
352.26	14.444
352.62	15.156
352.98	13.857
353.34	14.955
353.70	13.912
354.07	13.952
354.43	13.651
354.79	13.757
355.15	13.248
355.51	14.229
355.87	14.612
356.24	14.088
356.60	14.034
356.96	14.722
357.32	13.900
357.68	15.118
358.04	13.381
358.40	14.410
358.77	14.319
359.13	12.628
359.49	13.961
359.85	12.460
360.21	12.440
360.57	14.630
360.93	15.231
361.29	13.757
361.66	12.307
362.02	14.403
362.38	13.916
362.74	13.318
363.10	12.953
363.46	12.693
363.82	13.001
364.18	13.363
364.54	14.042
364.90	14.589
365.26	13.529
365.62	13.587
365.98	12.929
366.35	13.754
366.71	13.594
367.07	12.819
367.43	13.643
367.79	13.704
368.15	14.440
368.51	13.445
368.87	12.919
369.23	12.948
369.59	13.541
369.95	12.721
370.31	14.316
370.67	13.696
371.03	14.307
371.39	13.338
371.75	13.750
372.11	12.162
372.47	14.150
372.83	14.337
373.19	13.078
373.55	13.452
373.91	13.991
374.27	12.302
374.63	12.291
374.99	13.489
375.35	12.631
375.71	12.817
376.07	13.237
376.42	12.861
376.78	13.850
377.14	12.483
377.50	12.252
377.86	12.500
378.22	13.338
378.58	11.779
378.94	12.822
379.30	12.150
379.66	12.817
380.02	13.145
380.38	11.900
380.74	12.785
381.09	12.958
381.45	13.337
381.81	13.636
382.17	13.439
382.53	12.579
382.89	13.272
383.25	12.633
383.61	13.197
383.97	13.571
384.32	12.102
384.68	12.268
385.04	12.354
385.40	12.260
385.76	12.101
386.12	12.953
386.48	12.587
386.83	13.149
387.19	13.544
387.55	13.173
387.91	12.334
388.27	12.998
388.62	12.969
388.98	12.654
389.34	12.891
389.70	12.753
390.06	13.181
390.42	13.035
390.77	12.913
391.13	13.274
391.49	12.754
391.85	13.049
392.20	12.114
392.56	13.194
392.92	12.301
393.28	11.716
393.64	12.770
393.99	12.645
394.35	12.159
394.71	11.982
395.07	12.399
395.42	11.928
395.78	12.277
396.14	12.725
396.50	13.471
396.85	13.287
397.21	12.145
397.57	12.709
397.92	13.221
398.28	11.715
398.64	12.366
399.00	12.759
399.35	11.732
399.71	12.153
400.07	11.886
400.42	12.822
400.78	12.425
401.14	12.073
401.49	12.060
401.85	12.281
402.21	12.635
402.57	11.906
402.92	12.484
403.28	12.929
403.63	12.252
403.99	12.166
404.35	12.727
404.70	12.050
405.06	12.871
405.42	12.477
405.77	12.057
406.13	12.246
406.49	13.069
406.84	13.172
407.20	11.879
407.55	13.019
407.91	13.000
408.27	11.934
408.62	11.981
408.98	12.377
409.34	12.362
409.69	12.774
410.05	12.206
410.40	12.416
410.76	12.664
411.11	12.545
411.47	11.885
411.83	12.156
412.18	11.998
412.54	12.578
412.89	13.434
413.25	12.102
413.60	12.971
413.96	12.083
414.31	11.908
414.67	13.308
415.03	12.649
415.38	12.500
415.74	12.347
416.09	12.476
416.45	12.383
416.80	11.963
417.16	13.070
417.51	12.873
417.87	11.753
418.22	13.186
418.58	12.653
418.93	12.162
419.29	13.240
419.64	13.098
420.00	13.110
420.35	12.580
420.71	12.791
421.06	12.470
421.42	12.690
421.77	12.892
422.12	11.510
422.48	12.412
422.83	12.638
423.19	12.597
423.54	12.130
423.90	12.812
424.25	12.954
424.61	12.738
424.96	12.420
425.31	12.680
425.67	12.472
426.02	12.743
426.38	13.187
426.73	12.288
427.09	12.948
427.44	11.328
427.79	13.399
428.15	12.381
428.50	12.756
428.85	14.064
429.21	12.866
429.56	12.234
429.92	12.179
430.27	12.314
430.62	11.828
430.98	12.247
431.33	12.010
431.68	12.356
432.04	12.620
432.39	12.336
432.74	12.986
433.10	12.564
433.45	12.420
433.80	12.251
434.16	12.286
434.51	12.421
434.86	12.999
435.22	11.895
435.57	11.854
435.92	12.815
436.28	13.405
436.63	13.245
436.98	12.879
437.34	13.357
437.69	12.894
438.04	12.423
438.39	12.478
438.75	12.899
439.10	13.408
439.45	13.105
439.81	11.964
440.16	11.858
440.51	12.712
440.86	12.565
441.22	12.792
441.57	12.686
441.92	12.590
442.27	12.433
442.63	12.480
442.98	12.732
443.33	12.337
443.68	12.803
444.03	12.299
444.39	11.636
444.74	12.229
445.09	12.291
445.44	12.849
445.79	12.766
446.15	12.864
446.50	12.278
446.85	12.179
447.20	12.800
447.55	12.284
447.91	12.852
448.26	12.743
448.61	12.663
448.96	13.234
449.31	13.273
449.66	13.112
450.02	12.646
450.37	12.528
450.72	12.916
451.07	13.406
451.42	13.252
451.77	13.506
452.12	12.471
452.47	13.371
452.83	12.471
453.18	12.714
453.53	13.173
453.88	12.581
454.23	12.791
454.58	13.204
454.93	13.541
455.28	13.716
455.63	13.289
455.98	13.452
456.34	13.065
456.69	13.525
457.04	13.437
457.39	13.150
457.74	12.768
458.09	13.629
458.44	13.341
458.79	12.961
459.14	13.205
459.49	13.252
459.84	12.909
460.19	12.080
460.54	12.442
460.89	12.397
461.24	13.236
461.59	14.120
461.94	13.132
462.29	13.591
462.64	13.529
462.99	13.338
463.34	13.533
463.69	13.759
464.04	13.623
464.39	13.565
464.74	13.131
465.09	13.329
465.44	12.964
465.79	12.192
466.14	13.027
466.49	12.570
466.84	13.835
467.19	13.760
467.54	13.188
467.89	13.565
468.24	13.613
468.59	13.858
468.94	13.195
469.29	14.332
469.64	14.056
469.99	14.344
470.34	12.682
470.68	14.224
471.03	14.218
471.38	13.899
471.73	13.857
472.08	14.474
472.43	13.379
472.78	14.154
473.13	13.992
473.48	14.357
473.83	13.963
474.17	13.690
474.52	14.516
474.87	14.711
475.22	12.943
475.57	13.380
475.92	13.808
476.27	13.585
476.61	13.072
476.96	13.139
477.31	13.396
477.66	13.293
478.01	13.225
478.36	13.696
478.70	13.032
479.05	13.206
479.40	13.818
479.75	13.015
480.10	12.873
480.45	13.422
480.79	12.852
481.14	12.916
481.49	12.957
481.84	12.574
482.19	13.176
482.53	13.624
482.88	13.262
483.23	12.477
483.58	12.830
483.92	13.355
484.27	12.462
484.62	12.931
484.97	12.259
485.31	12.295
485.66	11.259
486.01	10.630
486.36	10.151
486.70	10.414
487.05	10.600
487.40	10.623
487.75	11.090
488.09	11.101
488.44	11.174
488.79	11.863
489.13	11.727
489.48	11.868
489.83	12.603
490.17	12.933
490.52	12.888
490.87	12.981
491.22	13.279
491.56	12.847
491.91	13.076
492.26	13.183
492.60	13.226
492.95	13.003
493.30	12.570
493.64	13.206
493.99	13.278
494.34	13.136
494.68	13.187
495.03	13.393
495.37	13.402
495.72	13.840
496.07	13.271
496.41	13.009
496.76	13.061
497.11	12.517
497.45	13.414
497.80	12.908
498.14	13.092
498.49	13.220
498.84	13.471
499.18	13.190
499.53	13.010
499.87	13.187
500.22	13.613
500.56	13.592
500.91	13.173
501.26	14.130
501.60	13.811
501.95	13.245
502.29	14.339
502.64	14.060
502.98	13.558
503.33	12.980
503.67	13.643
504.02	13.377
504.36	13.524
504.71	13.092
505.06	13.735
505.40	13.612
505.75	13.018
506.09	13.654
506.44	14.011
506.78	14.369
507.13	14.437
507.47	14.747
507.82	14.640
508.16	13.880
508.51	14.561
508.85	13.307
509.19	14.490
509.54	13.980
509.88	13.704
510.23	14.242
510.57	14.293
510.92	14.190
511.26	14.132
511.61	14.627
511.95	13.935
512.30	13.574
512.64	14.025
512.98	14.737
513.33	14.561
513.67	14.514
514.02	13.853
514.36	14.200
514.70	15.163
515.05	14.334
515.39	15.031
515.74	15.090
516.08	14.925
516.42	15.372
516.77	15.719
517.11	14.817
517.46	15.858
517.80	14.866
518.14	14.244
518.49	15.169
518.83	15.795
519.17	15.878
519.52	15.507
519.86	15.060
520.20	15.549
520.55	15.799
520.89	16.119
521.23	15.862
521.58	15.306
521.92	15.983
522.26	15.619
522.61	15.327
522.95	15.777
523.29	15.277
523.64	16.341
523.98	15.280
524.32	15.380
524.66	15.995
525.01	15.993
525.35	15.428
525.69	15.764
526.04	15.701
526.38	16.656
526.72	16.196
527.06	16.698
527.41	15.408
527.75	16.656
528.09	15.543
528.43	15.360
528.78	16.411
529.12	15.636
529.46	15.860
529.80	16.460
530.15	16.573
530.49	15.877
530.83	16.266
531.17	16.449
531.51	17.380
531.86	16.129
532.20	17.080
532.54	17.745
532.88	16.239
533.22	15.615
533.57	16.235
533.91	16.195
534.25	16.160
534.59	15.619
534.93	16.181
535.27	15.872
535.62	16.361
535.96	16.259
536.30	15.512
536.64	15.776
536.98	16.589
537.32	16.722
537.66	16.867
538.01	16.919
538.35	16.807
538.69	17.613
539.03	15.400
539.37	15.783
539.71	14.906
540.05	15.294
540.39	16.213
540.73	15.006
541.07	16.742
541.42	16.960
541.76	16.387
542.10	15.718
542.44	15.232
542.78	17.523
543.12	15.611
543.46	16.066
543.80	16.070
544.14	15.404
544.48	16.254
544.82	15.330
545.16	15.810
545.50	16.710
545.84	16.196
546.18	16.229
546.52	15.760
546.86	15.808
547.20	17.262
547.54	15.698
547.88	16.582
548.22	15.816
548.56	16.478
548.90	15.877
549.24	14.815
549.58	17.326
549.92	16.690
550.26	17.116
550.60	16.252
550.94	16.338
551.28	16.459
551.62	16.607
551.96	16.632
552.30	17.611
552.64	17.512
552.98	16.542
553.32	17.330
553.66	17.314
554.00	16.472
554.34	16.632
554.68	17.239
555.02	16.361
555.36	17.258
555.69	16.306
556.03	16.420
556.37	17.462
556.71	16.849
557.05	16.176
557.39	17.215
557.73	16.937
558.07	16.534
558.41	17.149
558.75	17.708
559.08	17.301
559.42	17.460
559.76	17.132
560.10	16.916
560.44	17.121
560.78	15.569
561.12	16.491
561.45	17.405
561.79	15.491
562.13	16.968
562.47	16.735
562.81	16.109
563.15	16.722
563.48	17.308
563.82	16.569
564.16	16.678
564.50	15.365
564.84	16.056
565.17	15.959
565.51	15.399
565.85	16.371
566.19	15.529
566.52	16.276
566.86	15.009
567.20	16.863
567.54	15.868
567.88	14.938
568.21	15.767
568.55	15.217
568.89	14.689
569.23	14.617
569.56	14.211
569.90	13.736
570.24	13.563
570.57	13.159
570.91	12.864
571.25	12.786
571.59	12.754
571.92	12.500
572.26	12.421
572.60	12.583
572.93	12.654
573.27	12.659
573.61	12.702
573.95	12.739
574.28	12.186
574.62	12.002
574.96	11.732
575.29	11.494
575.63	11.890
575.97	11.507
576.30	12.374
576.64	11.827
576.98	12.178
577.31	11.784
577.65	11.726
577.98	11.801
578.32	11.398
578.66	11.635
578.99	12.098
579.33	11.910
579.67	11.433
580.00	11.940
580.34	11.723
580.67	11.794
581.01	11.941
581.35	11.720
581.68	11.624
582.02	11.737
582.35	11.175
582.69	11.579
583.02	11.592
583.36	11.667
583.70	12.013
584.03	11.808
584.37	12.200
584.70	11.520
585.04	12.158
585.37	12.069
585.71	12.218
586.04	12.129
586.38	12.121
586.72	12.593
587.05	12.008
587.39	11.979
587.72	12.342
588.06	12.140
588.39	11.989
588.73	12.232
589.06	12.527
589.40	12.896
589.73	12.636
590.07	13.167
590.40	12.569
590.73	13.271
591.07	13.716
591.40	13.834
591.74	13.723
592.07	14.136
592.41	13.931
592.74	13.146
593.08	14.024
593.41	12.876
593.75	12.617
594.08	13.007
594.41	13.220
594.75	13.530
595.08	12.777
595.42	12.960
595.75	13.212
596.09	13.368
596.42	13.792
596.75	13.339
597.09	14.502
597.42	13.702
597.75	13.627
598.09	14.435
598.42	13.488
598.76	13.944
599.09	13.113
599.42	13.137
599.76	12.958
600.09	13.151
600.42	13.733
600.76	12.929
601.09	13.406
601.42	13.128
601.76	13.510
602.09	13.636
602.42	13.575
602.76	13.664
603.09	13.729
603.42	13.940
603.76	12.919
604.09	13.067
604.42	13.453
604.76	14.424
605.09	13.849
605.42	12.869
605.75	13.576
606.09	12.851
606.42	13.036
606.75	13.604
607.09	13.771
607.42	13.778
607.75	13.333
608.08	13.504
608.42	13.985
608.75	14.022
609.08	14.015
609.41	14.707
609.75	14.197
610.08	14.279
610.41	13.966
610.74	14.144
611.07	14.377
611.41	14.868
611.74	14.580
612.07	15.166
612.40	14.533
612.73	14.579
613.07	14.763
613.40	15.113
613.73	13.634
614.06	14.892
614.39	14.263
614.72	14.579
615.06	15.231
615.39	14.490
615.72	14.264
616.05	14.248
616.38	14.842
616.71	15.321
617.05	15.901
617.38	15.574
617.71	13.994
618.04	16.046
618.37	15.139
618.70	15.744
619.03	16.382
619.36	15.886
619.69	16.831
620.03	16.209
620.36	15.976
620.69	16.301
621.02	16.224
621.35	16.758
621.68	16.667
622.01	16.099
622.34	16.339
622.67	17.414
623.00	16.508
623.33	15.726
623.66	16.869
623.99	16.053
624.32	16.262
624.65	16.314
624.99	15.864
625.32	16.148
625.65	16.679
625.98	17.294
626.31	16.641
626.64	17.633
626.97	18.620
627.30	16.625
627.63	18.622
627.96	17.578
628.29	17.848
628.62	19.671
628.95	19.623
629.28	18.157
629.61	19.248
629.94	17.333
630.26	18.398
630.59	18.398
