SpectraSuite Data File
++++++++++++++++++++++++++++++++++++
Date: Wed May 13 19:17:53 PDT 2015
User: schluterlab
Dark Spectrum Present: Yes
Reference Spectrum Present: Yes
Number of Sampled Component Spectra: 1
Spectrometers: USB2E3373
Integration Time (usec): 3000 (USB2E3373)
Spectra Averaged: 3 (USB2E3373)
Boxcar Smoothing: 0 (USB2E3373)
Correct for Electrical Dark: No (USB2E3373)
Strobe/Lamp Enabled: No (USB2E3373)
Correct for Detector Non-linearity: No (USB2E3373)
Correct for Stray Light: No (USB2E3373)
Number of Pixels in Processed Spectrum: 2048
>>>>>Begin Processed Spectral Data<<<<<
178.53	0.000
178.91	-1700.000
179.29	-1400.000
179.67	-288.889
180.04	-1575.000
180.42	3150.000
180.80	1220.000
181.18	-1350.000
181.56	757.143
181.94	0.000
182.31	-857.143
182.69	2066.667
183.07	-662.500
183.45	-522.222
183.83	654.545
184.20	-500.000
184.58	3150.000
184.96	5500.000
185.34	-1060.000
185.72	-712.500
186.09	-2500.000
186.47	3000.000
186.85	3300.000
187.23	5700.000
187.61	-2033.333
187.98	1675.000
188.36	645.455
188.74	681.818
189.12	-1160.000
189.49	720.000
189.87	-5200.000
190.25	-1650.000
190.63	485.714
191.00	484.615
191.38	933.333
191.76	-1575.000
192.14	1625.000
192.51	712.500
192.89	1050.000
193.27	650.000
193.65	-1450.000
194.02	660.000
194.40	1120.000
194.78	740.000
195.15	625.000
195.53	690.000
195.91	-2300.000
196.29	418.750
196.66	342.105
197.04	-420.000
197.42	0.000
197.79	720.000
198.17	-5700.000
198.55	800.000
198.92	750.000
199.30	1140.000
199.68	0.000
200.05	372.222
200.43	871.429
200.81	4900.000
201.18	1933.333
201.56	-1800.000
201.94	711.111
202.31	611.111
202.69	475.000
203.07	620.000
203.44	0.000
203.82	1575.000
204.19	871.429
204.57	528.571
204.95	725.000
205.32	2033.333
205.70	572.727
206.08	457.143
206.45	2950.000
206.83	412.500
207.20	1183.333
207.58	900.000
207.96	361.111
208.33	850.000
208.71	-1033.333
209.08	757.143
209.46	700.000
209.84	563.636
210.21	-1866.667
210.59	1600.000
210.96	-550.000
211.34	3100.000
211.71	690.000
212.09	783.333
212.46	0.000
212.84	1866.667
213.22	1725.000
213.59	-5700.000
213.97	1050.000
214.34	842.857
214.72	609.091
215.09	1220.000
215.47	-2800.000
215.84	-2900.000
216.22	2133.333
216.59	500.000
216.97	1525.000
217.34	590.909
217.72	-716.667
218.09	0.000
218.47	-5000.000
218.84	755.556
219.22	900.000
219.59	2066.667
219.97	-800.000
220.34	960.000
220.72	-1833.333
221.09	464.286
221.47	1575.000
221.84	-1083.333
222.22	0.000
222.59	1550.000
222.97	-2850.000
223.34	1240.000
223.72	507.692
224.09	1380.000
224.46	2500.000
224.84	-5400.000
225.21	-1020.000
225.59	-5600.000
225.96	630.000
226.34	350.000
226.71	3150.000
227.08	900.000
227.46	660.000
227.83	-1325.000
228.21	-2750.000
228.58	677.778
228.95	-2550.000
229.33	-2550.000
229.70	2033.333
230.08	871.429
230.45	-680.000
230.82	483.333
231.20	900.000
231.57	742.857
231.95	516.667
232.32	281.818
232.69	445.455
233.07	871.429
233.44	423.077
233.81	-2066.667
234.19	321.053
234.56	608.333
234.93	491.667
235.31	518.182
235.68	430.769
236.05	414.286
236.43	215.152
236.80	289.474
237.17	5400.000
237.55	295.238
237.92	260.714
238.29	319.048
238.67	203.226
239.04	234.483
239.41	186.111
239.79	160.870
240.16	178.571
240.53	170.455
240.91	139.216
241.28	152.000
241.65	144.000
242.02	123.188
242.40	122.581
242.77	131.667
243.14	92.473
243.51	100.000
243.89	98.824
244.26	101.111
244.63	91.398
245.00	88.298
245.38	99.010
245.75	96.262
246.12	86.239
246.49	82.482
246.87	88.800
247.24	82.308
247.61	77.143
247.98	72.549
248.36	65.541
248.73	76.433
249.10	71.975
249.47	66.102
249.84	66.845
250.22	60.428
250.59	63.314
250.96	67.172
251.33	58.768
251.70	70.792
252.08	62.857
252.45	55.605
252.82	55.652
253.19	63.830
253.56	58.039
253.94	62.656
254.31	53.516
254.68	62.308
255.05	56.458
255.42	58.943
255.79	57.721
256.16	57.401
256.54	51.590
256.91	55.160
257.28	50.360
257.65	51.815
258.02	52.484
258.39	49.842
258.76	51.839
259.14	51.488
259.51	48.632
259.88	49.068
260.25	51.964
260.62	49.133
260.99	51.553
261.36	53.453
261.73	47.278
262.10	49.419
262.47	52.676
262.85	50.975
263.22	47.863
263.59	49.003
263.96	49.176
264.33	47.781
264.70	51.579
265.07	47.570
265.44	48.485
265.81	44.526
266.18	48.241
266.55	45.366
266.92	47.420
267.29	47.917
267.66	43.807
268.03	44.545
268.40	44.860
268.77	44.630
269.14	47.297
269.51	43.341
269.88	47.786
270.25	48.307
270.62	46.742
270.99	46.237
271.36	43.991
271.73	48.131
272.10	45.217
272.47	44.731
272.84	43.723
273.21	42.767
273.58	43.886
273.95	42.767
274.32	44.835
274.69	42.827
275.06	43.110
275.43	45.745
275.80	43.487
276.17	43.992
276.54	44.906
276.91	43.281
277.28	41.992
277.65	41.586
278.02	41.201
278.39	43.750
278.76	43.273
279.13	41.321
279.50	41.899
279.87	40.040
280.23	41.916
280.60	44.101
280.97	41.220
281.34	41.770
281.71	42.727
282.08	41.459
282.45	42.000
282.82	40.497
283.19	38.324
283.56	41.579
283.92	40.948
284.29	38.624
284.66	41.016
285.03	38.879
285.40	40.493
285.77	39.731
286.14	39.206
286.51	40.000
286.87	40.855
287.24	38.925
287.61	38.523
287.98	39.123
288.35	38.035
288.72	36.449
289.08	37.402
289.45	39.044
289.82	37.398
290.19	36.264
290.56	35.681
290.93	34.894
291.29	35.123
291.66	35.103
292.03	36.483
292.40	34.949
292.77	36.095
293.13	35.224
293.50	34.548
293.87	33.630
294.24	34.815
294.60	34.061
294.97	35.756
295.34	34.415
295.71	34.943
296.08	31.624
296.44	31.912
296.81	33.421
297.18	33.740
297.55	30.079
297.91	31.926
298.28	33.601
298.65	32.637
299.02	31.884
299.38	31.873
299.75	30.323
300.12	30.013
300.48	29.125
300.85	28.977
301.22	30.573
301.59	29.293
301.95	30.730
302.32	29.268
302.69	31.541
303.05	29.455
303.42	28.889
303.79	31.597
304.15	29.254
304.52	29.548
304.89	28.455
305.25	29.234
305.62	29.672
305.99	30.460
306.35	29.978
306.72	28.475
307.09	29.190
307.45	30.180
307.82	28.125
308.19	29.912
308.55	29.881
308.92	28.034
309.29	28.089
309.65	26.935
310.02	28.436
310.38	30.108
310.75	28.617
311.12	28.454
311.48	28.945
311.85	28.931
312.22	28.408
312.58	28.170
312.95	30.201
313.31	28.155
313.68	29.314
314.05	29.783
314.41	29.447
314.78	30.514
315.14	29.394
315.51	30.484
315.87	30.198
316.24	31.579
316.61	30.702
316.97	30.724
317.34	30.920
317.70	32.409
318.07	32.435
318.43	33.562
318.80	32.802
319.16	33.616
319.53	34.053
319.89	34.381
320.26	34.600
320.62	36.310
320.99	35.758
321.35	38.182
321.72	36.858
322.08	36.426
322.45	38.607
322.81	38.469
323.18	37.669
323.54	39.610
323.91	41.321
324.27	41.587
324.64	40.820
325.00	40.938
325.37	42.311
325.73	44.434
326.10	44.748
326.46	44.534
326.83	45.384
327.19	45.260
327.56	46.603
327.92	46.719
328.29	47.205
328.65	48.711
329.01	48.466
329.38	48.381
329.74	48.107
330.11	48.162
330.47	48.944
330.84	49.908
331.20	49.636
331.56	50.550
331.93	51.759
332.29	49.778
332.66	49.735
333.02	50.731
333.38	51.581
333.75	51.070
334.11	51.868
334.48	50.665
334.84	52.022
335.20	52.273
335.57	52.493
335.93	52.500
336.29	51.557
336.66	52.931
337.02	53.032
337.38	54.444
337.75	54.456
338.11	54.790
338.47	53.959
338.84	53.071
339.20	54.679
339.56	54.106
339.93	54.727
340.29	52.989
340.65	54.724
341.02	55.497
341.38	56.495
341.74	55.175
342.11	55.109
342.47	56.652
342.83	55.993
343.20	55.498
343.56	55.855
343.92	56.579
344.28	56.973
344.65	57.094
345.01	54.966
345.37	56.175
345.73	58.037
346.10	57.630
346.46	57.712
346.82	58.402
347.19	57.310
347.55	56.158
347.91	59.223
348.27	59.491
348.63	59.114
349.00	59.142
349.36	59.770
349.72	58.140
350.08	58.185
350.45	59.235
350.81	60.926
351.17	60.778
351.53	59.951
351.89	59.076
352.26	60.537
352.62	61.347
352.98	60.535
353.34	60.559
353.70	61.211
354.07	61.694
354.43	60.952
354.79	61.464
355.15	61.133
355.51	62.750
355.87	65.143
356.24	65.065
356.60	62.149
356.96	65.487
357.32	65.658
357.68	65.197
358.04	64.450
358.40	63.975
358.77	64.006
359.13	63.220
359.49	66.039
359.85	63.968
360.21	64.912
360.57	66.770
360.93	66.077
361.29	66.138
361.66	64.861
362.02	66.343
362.38	66.768
362.74	65.923
363.10	66.617
363.46	66.251
363.82	68.178
364.18	66.960
364.54	69.242
364.90	68.272
365.26	69.412
365.62	69.613
365.98	69.759
366.35	67.550
366.71	69.342
367.07	69.337
367.43	70.610
367.79	70.735
368.15	70.546
368.51	69.477
368.87	71.378
369.23	71.470
369.59	72.629
369.95	73.015
370.31	71.795
370.67	71.304
371.03	72.734
371.39	73.397
371.75	74.191
372.11	72.760
372.47	74.487
372.83	75.720
373.19	72.688
373.55	74.501
373.91	74.742
374.27	74.227
374.63	73.891
374.99	74.859
375.35	73.273
375.71	74.914
376.07	74.760
376.42	76.823
376.78	76.011
377.14	75.780
377.50	76.490
377.86	76.263
378.22	75.537
378.58	75.689
378.94	76.681
379.30	76.972
379.66	79.442
380.02	77.518
380.38	75.410
380.74	76.351
381.09	77.934
381.45	79.041
381.81	77.764
382.17	79.045
382.53	78.050
382.89	78.704
383.25	78.487
383.61	80.173
383.97	78.862
384.32	78.415
384.68	78.810
385.04	79.226
385.40	78.142
385.76	79.484
386.12	79.145
386.48	79.610
386.83	81.847
387.19	81.633
387.55	79.716
387.91	79.262
388.27	80.319
388.62	81.684
388.98	79.730
389.34	80.663
389.70	78.970
390.06	80.101
390.42	80.934
390.77	80.216
391.13	80.919
391.49	79.886
391.85	80.013
392.20	80.883
392.56	82.260
392.92	80.930
393.28	81.834
393.64	80.875
393.99	79.169
394.35	81.079
394.71	79.423
395.07	78.442
395.42	81.582
395.78	81.361
396.14	81.378
396.50	81.454
396.85	83.598
397.21	79.531
397.57	80.409
397.92	81.010
398.28	79.821
398.64	81.541
399.00	79.743
399.35	80.316
399.71	81.134
400.07	80.781
400.42	80.061
400.78	80.820
401.14	80.183
401.49	80.478
401.85	79.613
402.21	78.443
402.57	78.655
402.92	80.391
403.28	80.887
403.63	79.517
403.99	80.064
404.35	79.152
404.70	78.657
405.06	78.858
405.42	79.226
405.77	78.343
406.13	77.427
406.49	79.480
406.84	77.614
407.20	77.778
407.55	78.877
407.91	79.133
408.27	81.940
408.62	77.664
408.98	78.431
409.34	79.397
409.69	78.645
410.05	78.686
410.40	78.226
410.76	77.479
411.11	78.347
411.47	77.955
411.83	78.803
412.18	76.809
412.54	78.767
412.89	77.892
413.25	76.446
413.60	76.652
413.96	76.381
414.31	76.306
414.67	76.426
415.03	76.821
415.38	76.804
415.74	76.270
416.09	78.315
416.45	77.376
416.80	77.396
417.16	78.150
417.51	77.040
417.87	75.723
418.22	76.530
418.58	76.307
418.93	76.474
419.29	76.321
419.64	76.259
420.00	75.915
420.35	75.768
420.71	76.987
421.06	75.298
421.42	74.971
421.77	77.298
422.12	75.632
422.48	74.744
422.83	76.179
423.19	74.807
423.54	76.727
423.90	75.014
424.25	75.042
424.61	76.131
424.96	75.743
425.31	75.249
425.67	73.483
426.02	74.971
426.38	77.228
426.73	74.488
427.09	76.839
427.44	75.963
427.79	74.641
428.15	75.119
428.50	74.312
428.85	74.195
429.21	73.771
429.56	74.495
429.92	75.189
430.27	75.323
430.62	74.040
430.98	73.949
431.33	74.175
431.68	73.403
432.04	71.672
432.39	75.614
432.74	74.087
433.10	74.759
433.45	74.810
433.80	74.169
434.16	73.718
434.51	73.421
434.86	73.489
435.22	73.819
435.57	75.562
435.92	74.254
436.28	74.733
436.63	73.620
436.98	74.070
437.34	74.001
437.69	73.512
438.04	74.199
438.39	73.373
438.75	74.840
439.10	74.525
439.45	73.200
439.81	73.414
440.16	72.614
440.51	72.583
440.86	73.133
441.22	73.026
441.57	72.558
441.92	74.053
442.27	73.197
442.63	72.301
442.98	73.972
443.33	71.902
443.68	72.380
444.03	71.498
444.39	71.373
444.74	72.132
445.09	72.237
445.44	71.350
445.79	71.054
446.15	71.096
446.50	69.844
446.85	69.938
447.20	70.423
447.55	71.468
447.91	71.153
448.26	71.174
448.61	69.644
448.96	71.318
449.31	70.191
449.66	69.893
450.02	70.474
450.37	69.331
450.72	70.671
451.07	70.323
451.42	68.146
451.77	69.524
452.12	68.533
452.47	69.963
452.83	69.988
453.18	69.071
453.53	69.573
453.88	69.344
454.23	68.978
454.58	68.443
454.93	69.866
455.28	70.137
455.63	68.932
455.98	69.881
456.34	68.216
456.69	69.505
457.04	66.687
457.39	67.095
457.74	67.789
458.09	67.510
458.44	67.218
458.79	65.672
459.14	67.156
459.49	66.141
459.84	65.263
460.19	66.058
460.54	64.931
460.89	65.058
461.24	66.120
461.59	66.066
461.94	65.536
462.29	66.231
462.64	65.029
462.99	65.322
463.34	65.933
463.69	66.104
464.04	64.522
464.39	63.362
464.74	66.132
465.09	65.139
465.44	63.435
465.79	64.038
466.14	62.890
466.49	62.180
466.84	61.938
467.19	63.005
467.54	63.937
467.89	62.065
468.24	63.583
468.59	63.492
468.94	62.126
469.29	62.789
469.64	65.328
469.99	64.682
470.34	61.823
470.68	62.787
471.03	62.041
471.38	63.169
471.73	62.358
472.08	62.237
472.43	60.741
472.78	59.579
473.13	61.489
473.48	60.424
473.83	60.915
474.17	60.983
474.52	61.725
474.87	61.121
475.22	60.708
475.57	59.054
475.92	59.426
476.27	59.752
476.61	59.459
476.96	58.329
477.31	58.399
477.66	58.972
478.01	57.397
478.36	58.488
478.70	58.671
479.05	57.827
479.40	58.342
479.75	57.346
480.10	57.256
480.45	57.020
480.79	56.761
481.14	56.898
481.49	57.333
481.84	56.744
482.19	57.338
482.53	55.413
482.88	55.375
483.23	55.280
483.58	55.596
483.92	55.248
484.27	54.205
484.62	55.043
484.97	54.789
485.31	55.240
485.66	54.400
486.01	53.666
486.36	51.644
486.70	50.293
487.05	50.361
487.40	52.017
487.75	51.698
488.09	52.957
488.44	51.034
488.79	53.382
489.13	53.170
489.48	52.692
489.83	53.043
490.17	54.055
490.52	52.259
490.87	52.284
491.22	52.478
491.56	51.526
491.91	51.373
492.26	52.182
492.60	51.429
492.95	52.292
493.30	51.589
493.64	52.263
493.99	50.093
494.34	50.694
494.68	51.374
495.03	50.893
495.37	50.628
495.72	51.511
496.07	51.044
496.41	50.442
496.76	50.352
497.11	49.932
497.45	49.837
497.80	49.664
498.14	49.952
498.49	50.829
498.84	49.425
499.18	49.190
499.53	49.193
499.87	48.975
500.22	49.553
500.56	50.922
500.91	48.606
501.26	49.360
501.60	49.644
501.95	47.525
502.29	49.016
502.64	48.929
502.98	48.948
503.33	47.212
503.67	47.517
504.02	48.036
504.36	47.122
504.71	47.582
505.06	47.036
505.40	47.205
505.75	46.239
506.09	47.570
506.44	47.163
506.78	46.322
507.13	48.006
507.47	46.263
507.82	47.214
508.16	46.606
508.51	47.387
508.85	45.978
509.19	47.092
509.54	46.276
509.88	45.801
510.23	46.581
510.57	48.091
510.92	45.676
511.26	46.043
511.61	46.214
511.95	45.146
512.30	44.433
512.64	45.889
512.98	46.838
513.33	46.520
513.67	44.023
514.02	45.563
514.36	45.713
514.70	46.043
515.05	45.399
515.39	45.822
515.74	44.932
516.08	45.780
516.42	45.339
516.77	44.760
517.11	43.674
517.46	44.921
517.80	45.703
518.14	44.470
518.49	45.274
518.83	44.886
519.17	44.804
519.52	45.784
519.86	45.408
520.20	44.740
520.55	44.644
520.89	45.255
521.23	45.296
521.58	44.298
521.92	45.315
522.26	44.234
522.61	44.299
522.95	44.567
523.29	43.883
523.64	43.841
523.98	44.855
524.32	42.943
524.66	42.814
525.01	43.137
525.35	42.441
525.69	43.288
526.04	44.174
526.38	43.136
526.72	42.515
527.06	43.252
527.41	41.089
527.75	43.215
528.09	41.875
528.43	43.021
528.78	42.717
529.12	42.909
529.46	43.172
529.80	42.822
530.15	43.240
530.49	41.354
530.83	42.278
531.17	42.885
531.51	43.969
531.86	42.452
532.20	42.894
532.54	42.665
532.88	43.261
533.22	41.224
533.57	42.840
533.91	42.083
534.25	41.981
534.59	41.245
534.93	41.106
535.27	42.004
535.62	41.209
535.96	42.059
536.30	40.814
536.64	41.726
536.98	41.473
537.32	41.080
537.66	41.333
538.01	43.384
538.35	41.435
538.69	41.863
539.03	41.066
539.37	41.022
539.71	39.145
540.05	41.111
540.39	40.864
540.73	39.457
541.07	41.791
541.42	39.335
541.76	41.290
542.10	41.332
542.44	41.457
542.78	41.831
543.12	40.051
543.46	40.393
543.80	41.379
544.14	40.116
544.48	39.746
544.82	40.667
545.16	39.623
545.50	39.781
545.84	39.718
546.18	39.663
546.52	40.743
546.86	41.031
547.20	40.054
547.54	39.947
547.88	39.732
548.22	39.166
548.56	39.371
548.90	39.565
549.24	39.327
549.58	39.905
549.92	40.179
550.26	38.849
550.60	39.627
550.94	38.873
551.28	38.990
551.62	39.396
551.96	39.649
552.30	39.181
552.64	39.621
552.98	39.390
553.32	38.638
553.66	38.241
554.00	39.259
554.34	38.509
554.68	39.485
555.02	38.364
555.36	39.179
555.69	36.739
556.03	37.954
556.37	37.926
556.71	37.585
557.05	38.445
557.39	37.859
557.73	38.391
558.07	39.159
558.41	37.410
558.75	38.060
559.08	39.746
559.42	38.624
559.76	37.647
560.10	37.759
560.44	37.876
560.78	36.261
561.12	38.193
561.45	37.614
561.79	37.245
562.13	37.760
562.47	37.978
562.81	38.494
563.15	37.525
563.48	37.997
563.82	37.052
564.16	37.606
564.50	37.174
564.84	36.662
565.17	37.259
565.51	37.380
565.85	36.992
566.19	36.819
566.52	37.112
566.86	36.046
567.20	37.382
567.54	36.073
567.88	35.361
568.21	36.667
568.55	36.350
568.89	35.652
569.23	34.982
569.56	34.777
569.90	35.509
570.24	35.594
570.57	33.764
570.91	34.389
571.25	34.466
571.59	34.109
571.92	33.410
572.26	33.998
572.60	33.814
572.93	33.883
573.27	33.925
573.61	34.199
573.95	33.979
574.28	32.965
574.62	33.625
574.96	33.166
575.29	33.341
575.63	33.994
575.97	32.986
576.30	33.086
576.64	32.878
576.98	32.936
577.31	32.694
577.65	33.008
577.98	32.971
578.32	32.645
578.66	32.851
578.99	32.367
579.33	32.631
579.67	32.498
580.00	32.630
580.34	32.582
580.67	32.593
581.01	32.494
581.35	32.645
581.68	32.974
582.02	32.220
582.35	32.550
582.69	32.367
583.02	31.806
583.36	33.018
583.70	32.892
584.03	32.602
584.37	33.043
584.70	33.542
585.04	32.118
585.37	32.572
585.71	32.495
586.04	31.723
586.38	33.020
586.72	33.195
587.05	32.247
587.39	32.507
587.72	32.208
588.06	31.937
588.39	32.428
588.73	32.385
589.06	33.063
589.40	33.064
589.73	33.263
590.07	32.989
590.40	32.737
590.73	32.709
591.07	33.252
591.40	33.319
591.74	33.636
592.07	33.421
592.41	33.320
592.74	33.521
593.08	32.278
593.41	32.363
593.75	31.730
594.08	31.411
594.41	32.980
594.75	33.050
595.08	31.675
595.42	32.644
595.75	32.728
596.09	32.332
596.42	32.574
596.75	32.461
597.09	32.944
597.42	32.251
597.75	32.342
598.09	32.087
598.42	32.045
598.76	31.820
599.09	31.129
599.42	31.623
599.76	31.625
600.09	31.985
600.42	31.921
600.76	31.571
601.09	31.403
601.42	32.572
601.76	31.689
602.09	31.344
602.42	32.285
602.76	32.527
603.09	32.219
603.42	32.097
603.76	31.517
604.09	31.756
604.42	31.798
604.76	32.054
605.09	31.193
605.42	31.680
605.75	31.747
606.09	31.558
606.42	32.816
606.75	31.439
607.09	31.854
607.42	31.365
607.75	30.717
608.08	32.002
608.42	31.869
608.75	31.064
609.08	31.776
609.41	31.176
609.75	31.301
610.08	32.799
610.41	31.471
610.74	31.835
611.07	31.571
611.41	31.256
611.74	32.076
612.07	32.091
612.40	32.424
612.73	31.842
613.07	32.220
613.40	32.070
613.73	30.886
614.06	31.828
614.39	31.673
614.72	31.053
615.06	31.880
615.39	31.051
615.72	31.493
616.05	31.100
616.38	30.962
616.71	32.423
617.05	31.802
617.38	31.149
617.71	32.132
618.04	32.332
618.37	31.815
618.70	31.425
619.03	32.434
619.36	32.179
619.69	32.465
620.03	33.173
620.36	32.086
620.69	32.945
621.02	33.038
621.35	31.872
621.68	30.997
622.01	33.204
622.34	32.526
622.67	33.384
623.00	32.428
623.33	31.880
623.66	32.595
623.99	32.253
624.32	32.168
624.65	31.850
624.99	30.878
625.32	31.354
625.65	31.705
625.98	32.821
626.31	32.348
626.64	32.898
626.97	33.250
627.30	32.502
627.63	33.224
627.96	32.548
628.29	32.721
628.62	33.394
628.95	34.057
629.28	33.394
629.61	32.722
629.94	35.048
630.26	32.507
630.59	32.316
