SpectraSuite Data File
++++++++++++++++++++++++++++++++++++
Date: Wed May 13 19:35:27 PDT 2015
User: schluterlab
Dark Spectrum Present: Yes
Reference Spectrum Present: Yes
Number of Sampled Component Spectra: 1
Spectrometers: USB2E3373
Integration Time (usec): 3000 (USB2E3373)
Spectra Averaged: 3 (USB2E3373)
Boxcar Smoothing: 0 (USB2E3373)
Correct for Electrical Dark: No (USB2E3373)
Strobe/Lamp Enabled: No (USB2E3373)
Correct for Detector Non-linearity: No (USB2E3373)
Correct for Stray Light: No (USB2E3373)
Number of Pixels in Processed Spectrum: 2048
>>>>>Begin Processed Spectral Data<<<<<
178.53	0.000
178.91	-1625.000
179.29	-1625.000
179.67	-255.556
180.04	-1300.000
180.42	2750.000
180.80	1180.000
181.18	-1025.000
181.56	785.714
181.94	0.000
182.31	-671.429
182.69	2266.667
183.07	-675.000
183.45	-500.000
183.83	545.455
184.20	-360.000
184.58	2300.000
184.96	5600.000
185.34	-760.000
185.72	-650.000
186.09	-3050.000
186.47	2800.000
186.85	3100.000
187.23	5300.000
187.61	-1766.667
187.98	1250.000
188.36	527.273
188.74	609.091
189.12	-980.000
189.49	600.000
189.87	-4300.000
190.25	-1300.000
190.63	421.429
191.00	492.308
191.38	816.667
191.76	-1300.000
192.14	1575.000
192.51	700.000
192.89	916.667
193.27	650.000
193.65	-1375.000
194.02	660.000
194.40	1140.000
194.78	600.000
195.15	525.000
195.53	740.000
195.91	-2750.000
196.29	350.000
196.66	342.105
197.04	-430.000
197.42	0.000
197.79	690.000
198.17	-5700.000
198.55	657.143
198.92	712.500
199.30	1040.000
199.68	0.000
200.05	416.667
200.43	828.571
200.81	5000.000
201.18	1666.667
201.56	-1766.667
201.94	633.333
202.31	600.000
202.69	416.667
203.07	510.000
203.44	0.000
203.82	1475.000
204.19	1042.857
204.57	442.857
204.95	750.000
205.32	1866.667
205.70	518.182
206.08	407.143
206.45	3250.000
206.83	368.750
207.20	1033.333
207.58	900.000
207.96	338.889
208.33	662.500
208.71	-1116.667
209.08	942.857
209.46	622.222
209.84	436.364
210.21	-1633.333
210.59	1300.000
210.96	-512.500
211.34	2900.000
211.71	630.000
212.09	783.333
212.46	0.000
212.84	1633.333
213.22	1700.000
213.59	-5800.000
213.97	883.333
214.34	800.000
214.72	690.909
215.09	1060.000
215.47	-2600.000
215.84	-2750.000
216.22	1900.000
216.59	464.286
216.97	1325.000
217.34	481.818
217.72	-933.333
218.09	0.000
218.47	-4700.000
218.84	677.778
219.22	728.571
219.59	1966.667
219.97	-714.286
220.34	1160.000
220.72	-1933.333
221.09	392.857
221.47	1525.000
221.84	-933.333
222.22	0.000
222.59	1475.000
222.97	-2800.000
223.34	1340.000
223.72	407.692
224.09	1180.000
224.46	2400.000
224.84	-5200.000
225.21	-1000.000
225.59	-5000.000
225.96	680.000
226.34	310.000
226.71	2850.000
227.08	712.500
227.46	640.000
227.83	-1200.000
228.21	-2350.000
228.58	677.778
228.95	-2350.000
229.33	-2750.000
229.70	2100.000
230.08	771.429
230.45	-940.000
230.82	483.333
231.20	1000.000
231.57	700.000
231.95	433.333
232.32	236.364
232.69	400.000
233.07	857.143
233.44	300.000
233.81	-1900.000
234.19	347.368
234.56	516.667
234.93	450.000
235.31	490.909
235.68	330.769
236.05	392.857
236.43	221.212
236.80	294.737
237.17	4900.000
237.55	195.238
237.92	203.571
238.29	252.381
238.67	183.871
239.04	224.138
239.41	161.111
239.79	108.696
240.16	140.476
240.53	106.818
240.91	96.078
241.28	94.000
241.65	124.000
242.02	89.855
242.40	85.484
242.77	78.333
243.14	64.516
243.51	84.270
243.89	61.176
244.26	65.556
244.63	64.516
245.00	61.702
245.38	49.505
245.75	49.533
246.12	44.037
246.49	51.095
246.87	48.000
247.24	53.846
247.61	39.286
247.98	41.176
248.36	35.135
248.73	40.764
249.10	36.306
249.47	37.853
249.84	40.107
250.22	38.503
250.59	35.503
250.96	36.364
251.33	32.701
251.70	27.723
252.08	30.000
252.45	27.354
252.82	26.522
253.19	33.617
253.56	28.627
253.94	29.876
254.31	28.125
254.68	27.692
255.05	27.675
255.42	26.016
255.79	23.162
256.16	28.520
256.54	22.261
256.91	25.979
257.28	19.784
257.65	23.102
258.02	20.497
258.39	21.451
258.76	21.070
259.14	22.619
259.51	18.845
259.88	19.565
260.25	19.033
260.62	19.653
260.99	17.081
261.36	21.922
261.73	18.052
262.10	19.186
262.47	21.127
262.85	20.891
263.22	18.803
263.59	22.222
263.96	17.308
264.33	18.799
264.70	16.579
265.07	19.182
265.44	18.182
265.81	15.815
266.18	16.080
266.55	19.512
266.92	17.936
267.29	17.361
267.66	17.890
268.03	16.591
268.40	17.523
268.77	15.036
269.14	17.342
269.51	16.253
269.88	18.182
270.25	16.930
270.62	16.404
270.99	18.495
271.36	19.528
271.73	15.421
272.10	15.870
272.47	16.559
272.84	14.719
273.21	18.029
273.58	13.974
273.95	13.208
274.32	16.529
274.69	15.846
275.06	14.173
275.43	16.383
275.80	14.028
276.17	14.257
276.54	16.008
276.91	14.032
277.28	15.820
277.65	14.700
278.02	13.872
278.39	16.797
278.76	17.455
279.13	14.717
279.50	15.084
279.87	14.143
280.23	14.571
280.60	11.605
280.97	11.830
281.34	14.867
281.71	16.545
282.08	14.587
282.45	14.364
282.82	14.742
283.19	12.656
283.56	14.912
283.92	13.875
284.29	12.346
284.66	13.612
285.03	11.935
285.40	13.380
285.77	12.795
286.14	11.572
286.51	14.167
286.87	14.017
287.24	13.844
287.61	13.323
287.98	13.636
288.35	13.154
288.72	12.773
289.08	12.520
289.45	12.521
289.82	13.333
290.19	11.146
290.56	11.792
290.93	13.142
291.29	11.503
291.66	11.504
292.03	13.808
292.40	14.244
292.77	10.207
293.13	11.940
293.50	12.099
293.87	10.815
294.24	12.296
294.60	10.335
294.97	13.372
295.34	12.412
295.71	12.074
296.08	10.684
296.44	9.766
296.81	9.511
297.18	11.518
297.55	9.894
297.91	9.235
298.28	12.316
298.65	10.444
299.02	10.145
299.38	10.890
299.75	7.682
300.12	9.323
300.48	8.750
300.85	9.864
301.22	9.299
301.59	9.975
301.95	11.083
302.32	10.270
302.69	9.916
303.05	9.091
303.42	7.901
303.79	9.740
304.15	8.392
304.52	9.270
304.89	9.292
305.25	7.657
305.62	9.740
305.99	8.973
306.35	8.277
306.72	9.641
307.09	9.767
307.45	9.459
307.82	9.040
308.19	10.265
308.55	9.709
308.92	8.808
309.29	9.081
309.65	7.953
310.02	9.302
310.38	9.140
310.75	7.181
311.12	9.007
311.48	10.031
311.85	9.329
312.22	9.053
312.58	7.796
312.95	10.243
313.31	7.184
313.68	8.940
314.05	9.862
314.41	7.437
314.78	8.359
315.14	8.242
315.51	8.239
315.87	7.624
316.24	8.540
316.61	7.602
316.97	7.730
317.34	7.926
317.70	9.082
318.07	8.855
318.43	7.828
318.80	8.435
319.16	8.851
319.53	7.974
319.89	8.000
320.26	9.500
320.62	8.333
320.99	9.091
321.35	7.677
321.72	8.932
322.08	9.576
322.45	9.751
322.81	9.981
323.18	9.634
323.54	9.833
323.91	10.377
324.27	9.751
324.64	7.922
325.00	8.656
325.37	9.554
325.73	10.144
326.10	9.179
326.46	8.602
326.83	8.801
327.19	9.223
327.56	8.188
327.92	9.536
328.29	9.760
328.65	10.221
329.01	10.560
329.38	9.806
329.74	9.788
330.11	9.708
330.47	10.285
330.84	9.559
331.20	10.109
331.56	9.817
331.93	8.796
332.29	9.317
332.66	10.177
333.02	9.963
333.38	9.666
333.75	9.715
334.11	9.698
334.48	9.672
334.84	9.926
335.20	10.545
335.57	9.791
335.93	9.018
336.29	10.989
336.66	9.107
337.02	8.688
337.38	9.722
337.75	8.913
338.11	9.132
338.47	9.945
338.84	9.166
339.20	8.349
339.56	10.766
339.93	9.455
340.29	9.783
340.65	10.071
341.02	9.599
341.38	9.964
341.74	9.386
342.11	9.869
342.47	10.220
342.83	10.017
343.20	10.996
343.56	9.267
343.92	8.947
344.28	9.354
344.65	9.974
345.01	8.502
345.37	8.491
345.73	8.799
346.10	9.633
346.46	9.576
346.82	9.226
347.19	8.521
347.55	8.292
347.91	9.223
348.27	9.696
348.63	9.866
349.00	8.900
349.36	8.621
349.72	9.302
350.08	8.671
350.45	9.194
350.81	9.098
351.17	9.806
351.53	8.927
351.89	7.838
352.26	9.550
352.62	8.901
352.98	8.671
353.34	8.874
353.70	8.020
354.07	8.629
354.43	8.810
354.79	7.884
355.15	9.098
355.51	9.752
355.87	8.571
356.24	8.632
356.60	8.099
356.96	8.126
357.32	8.013
357.68	9.291
358.04	8.155
358.40	8.868
358.77	9.155
359.13	7.498
359.49	8.549
359.85	8.492
360.21	7.576
360.57	9.261
360.93	7.385
361.29	8.844
361.66	7.663
362.02	8.507
362.38	8.289
362.74	7.961
363.10	8.068
363.46	8.070
363.82	8.163
364.18	8.590
364.54	9.064
364.90	9.065
365.26	7.059
365.62	8.327
365.98	7.670
366.35	7.378
366.71	8.388
367.07	8.376
367.43	7.983
367.79	8.423
368.15	8.549
368.51	7.413
368.87	8.137
369.23	7.681
369.59	8.545
369.95	7.426
370.31	9.117
370.67	7.536
371.03	8.315
371.39	9.111
371.75	7.721
372.11	7.752
372.47	9.457
372.83	8.646
373.19	7.514
373.55	7.465
373.91	8.763
374.27	7.698
374.63	7.200
374.99	8.263
375.35	6.560
375.71	8.362
376.07	8.642
376.42	7.909
376.78	7.820
377.14	7.870
377.50	7.351
377.86	7.247
378.22	7.965
378.58	6.516
378.94	7.417
379.30	7.252
379.66	7.487
380.02	7.985
380.38	6.740
380.74	7.383
381.09	7.090
381.45	7.683
381.81	7.985
382.17	7.962
382.53	6.792
382.89	7.407
383.25	6.942
383.61	7.249
383.97	6.942
384.32	7.860
384.68	6.939
385.04	6.884
385.40	6.935
385.76	6.880
386.12	7.448
386.48	7.300
386.83	6.543
387.19	7.112
387.55	7.483
387.91	6.409
388.27	6.806
388.62	7.376
388.98	7.187
389.34	8.448
389.70	7.725
390.06	7.858
390.42	7.328
390.77	7.888
391.13	7.211
391.49	7.170
391.85	7.193
392.20	6.625
392.56	6.439
392.92	7.240
393.28	5.680
393.64	6.954
393.99	7.819
394.35	7.568
394.71	6.713
395.07	7.040
395.42	7.108
395.78	7.316
396.14	7.635
396.50	7.456
396.85	7.184
397.21	7.090
397.57	7.130
397.92	6.550
398.28	6.558
398.64	7.407
399.00	6.883
399.35	6.430
399.71	7.292
400.07	7.096
400.42	7.239
400.78	7.358
401.14	6.037
401.49	7.522
401.85	7.139
402.21	6.886
402.57	7.033
402.92	6.368
403.28	7.183
403.63	6.869
403.99	6.943
404.35	6.848
404.70	6.595
405.06	6.639
405.42	6.862
405.77	6.514
406.13	7.111
406.49	6.682
406.84	7.501
407.20	6.501
407.55	6.701
407.91	7.733
408.27	6.254
408.62	6.863
408.98	6.985
409.34	7.319
409.69	7.548
410.05	7.249
410.40	6.911
410.76	6.989
411.11	7.298
411.47	7.029
411.83	7.514
412.18	6.926
412.54	7.285
412.89	7.410
413.25	6.966
413.60	7.041
413.96	7.286
414.31	7.412
414.67	7.478
415.03	6.424
415.38	7.925
415.74	7.781
416.09	7.054
416.45	7.430
416.80	7.601
417.16	8.177
417.51	7.830
417.87	6.936
418.22	7.886
418.58	8.457
418.93	7.248
419.29	7.893
419.64	7.620
420.00	7.073
420.35	7.826
420.71	7.412
421.06	7.160
421.42	7.544
421.77	7.848
422.12	6.289
422.48	6.530
422.83	7.338
423.19	7.293
423.54	7.835
423.90	7.246
424.25	7.594
424.61	7.321
424.96	7.230
425.31	7.420
425.67	7.022
426.02	7.314
426.38	7.509
426.73	7.373
427.09	7.295
427.44	6.671
427.79	6.555
428.15	7.738
428.50	7.373
428.85	8.403
429.21	7.289
429.56	6.998
429.92	6.794
430.27	6.951
430.62	5.888
430.98	6.954
431.33	7.268
431.68	7.958
432.04	7.508
432.39	7.139
432.74	7.600
433.10	7.074
433.45	7.347
433.80	6.874
434.16	7.372
434.51	7.105
434.86	7.412
435.22	7.504
435.57	7.173
435.92	7.256
436.28	7.355
436.63	8.113
436.98	7.270
437.34	7.692
437.69	7.176
438.04	7.195
438.39	7.522
438.75	7.728
439.10	7.486
439.45	8.264
439.81	7.432
440.16	7.623
440.51	7.909
440.86	7.528
441.22	7.842
441.57	7.590
441.92	7.625
442.27	7.535
442.63	7.004
442.98	8.563
443.33	8.152
443.68	7.383
444.03	7.223
444.39	6.621
444.74	7.143
445.09	7.547
445.44	7.490
445.79	7.274
446.15	8.152
446.50	7.970
446.85	7.451
447.20	7.394
447.55	7.259
447.91	7.336
448.26	7.346
448.61	7.971
448.96	8.195
449.31	8.155
449.66	8.160
450.02	7.577
450.37	7.426
450.72	7.671
451.07	7.556
451.42	7.599
451.77	8.280
452.12	7.217
452.47	8.085
452.83	7.401
453.18	8.130
453.53	8.163
453.88	7.206
454.23	8.189
454.58	8.419
454.93	8.709
455.28	7.481
455.63	8.131
455.98	8.810
456.34	8.166
456.69	7.577
457.04	7.740
457.39	7.364
457.74	8.474
458.09	8.281
458.44	8.096
458.79	7.375
459.14	7.957
459.49	8.348
459.84	7.036
460.19	7.661
460.54	8.275
460.89	7.680
461.24	8.197
461.59	9.239
461.94	8.446
462.29	9.080
462.64	8.296
462.99	8.393
463.34	8.867
463.69	8.881
464.04	8.348
464.39	8.348
464.74	8.140
465.09	8.142
465.44	7.479
465.79	7.550
466.14	8.265
466.49	8.009
466.84	8.873
467.19	8.147
467.54	8.563
467.89	8.403
468.24	7.970
468.59	8.974
468.94	8.430
469.29	7.969
469.64	9.103
469.99	9.202
470.34	8.454
470.68	8.477
471.03	8.571
471.38	9.382
471.73	8.461
472.08	8.816
472.43	7.977
472.78	8.361
473.13	8.408
473.48	8.864
473.83	8.598
474.17	8.152
474.52	8.561
474.87	7.881
475.22	8.183
475.57	7.845
475.92	7.541
476.27	7.666
476.61	8.163
476.96	7.312
477.31	8.059
477.66	8.042
478.01	7.475
478.36	8.514
478.70	7.580
479.05	7.774
479.40	8.495
479.75	7.778
480.10	8.151
480.45	7.853
480.79	6.976
481.14	7.877
481.49	7.546
481.84	7.179
482.19	7.451
482.53	7.569
482.88	7.771
483.23	7.850
483.58	7.916
483.92	7.685
484.27	7.146
484.62	7.241
484.97	7.134
485.31	7.295
485.66	6.293
486.01	5.711
486.36	5.156
486.70	5.234
487.05	5.999
487.40	6.231
487.75	6.243
488.09	6.612
488.44	6.671
488.79	7.414
489.13	7.334
489.48	7.749
489.83	7.380
490.17	7.497
490.52	7.352
490.87	7.327
491.22	8.049
491.56	7.380
491.91	7.678
492.26	7.671
492.60	7.788
492.95	7.250
493.30	7.523
493.64	7.793
493.99	7.799
494.34	7.771
494.68	7.601
495.03	8.036
495.37	7.911
495.72	7.554
496.07	7.935
496.41	7.876
496.76	7.872
497.11	7.744
497.45	7.592
497.80	8.301
498.14	7.488
498.49	7.512
498.84	8.054
499.18	7.667
499.53	7.692
499.87	7.269
500.22	7.866
500.56	8.252
500.91	7.500
501.26	7.255
501.60	8.448
501.95	7.837
502.29	8.060
502.64	7.775
502.98	7.714
503.33	7.815
503.67	8.260
504.02	8.045
504.36	8.049
504.71	8.061
505.06	7.759
505.40	7.584
505.75	7.715
506.09	7.872
506.44	7.696
506.78	7.793
507.13	7.925
507.47	8.333
507.82	8.713
508.16	8.359
508.51	8.879
508.85	8.143
509.19	7.653
509.54	7.806
509.88	7.986
510.23	7.815
510.57	8.772
510.92	8.389
511.26	8.222
511.61	8.351
511.95	8.612
512.30	7.953
512.64	7.684
512.98	8.521
513.33	8.405
513.67	8.271
514.02	8.171
514.36	9.503
514.70	8.080
515.05	8.812
515.39	9.478
515.74	8.333
516.08	8.944
516.42	8.990
516.77	10.033
517.11	8.657
517.46	8.578
517.80	8.479
518.14	8.512
518.49	9.568
518.83	8.693
519.17	9.411
519.52	9.281
519.86	9.584
520.20	9.306
520.55	9.695
520.89	9.367
521.23	9.530
521.58	8.824
521.92	9.614
522.26	8.969
522.61	9.034
522.95	8.717
523.29	8.886
523.64	10.061
523.98	9.304
524.32	9.530
524.66	9.200
525.01	9.375
525.35	9.170
525.69	8.805
526.04	8.847
526.38	9.579
526.72	9.632
527.06	10.169
527.41	8.354
527.75	10.096
528.09	9.313
528.43	9.688
528.78	9.096
529.12	9.212
529.46	9.369
529.80	9.715
530.15	9.844
530.49	8.923
530.83	10.063
531.17	10.052
531.51	10.246
531.86	9.290
532.20	10.365
532.54	10.378
532.88	9.949
533.22	9.119
533.57	9.568
533.91	9.452
534.25	9.235
534.59	9.274
534.93	9.459
535.27	10.078
535.62	9.646
535.96	9.416
536.30	9.536
536.64	10.109
536.98	10.418
537.32	9.743
537.66	9.533
538.01	10.072
538.35	10.601
538.69	10.849
539.03	9.877
539.37	9.776
539.71	9.332
540.05	9.346
540.39	9.369
540.73	9.702
541.07	10.318
541.42	10.176
541.76	10.194
542.10	10.155
542.44	9.868
542.78	10.474
543.12	9.277
543.46	10.557
543.80	10.410
544.14	9.628
544.48	10.540
544.82	10.135
545.16	9.369
545.50	9.769
545.84	10.282
546.18	10.101
546.52	10.668
546.86	10.653
547.20	10.856
547.54	10.087
547.88	11.161
548.22	10.025
548.56	10.629
548.90	9.923
549.24	10.168
549.58	10.914
549.92	10.989
550.26	10.511
550.60	10.996
550.94	10.775
551.28	10.241
551.62	10.999
551.96	10.246
552.30	11.195
552.64	11.291
552.98	10.780
553.32	10.115
553.66	10.566
554.00	11.119
554.34	10.835
554.68	10.873
555.02	11.566
555.36	9.325
555.69	10.690
556.03	11.171
556.37	10.368
556.71	10.573
557.05	11.345
557.39	10.987
557.73	10.445
558.07	10.732
558.41	10.854
558.75	10.874
559.08	12.081
559.42	10.809
559.76	11.250
560.10	9.707
560.44	11.391
560.78	10.512
561.12	11.214
561.45	11.017
561.79	10.679
562.13	10.396
562.47	10.724
562.81	11.227
563.15	11.505
563.48	11.008
563.82	10.828
564.16	10.464
564.50	10.091
564.84	10.303
565.17	11.519
565.51	10.160
565.85	10.914
566.19	10.457
566.52	10.956
566.86	10.307
567.20	10.613
567.54	10.445
567.88	9.071
568.21	10.741
568.55	9.909
568.89	9.144
569.23	8.957
569.56	9.231
569.90	8.792
570.24	8.468
570.57	8.467
570.91	7.983
571.25	8.277
571.59	8.424
571.92	8.324
572.26	8.232
572.60	8.408
572.93	8.006
573.27	8.282
573.61	8.291
573.95	8.346
574.28	7.538
574.62	7.896
574.96	7.646
575.29	7.687
575.63	7.546
575.97	8.123
576.30	8.099
576.64	7.834
576.98	7.876
577.31	7.555
577.65	7.839
577.98	7.519
578.32	7.188
578.66	7.338
578.99	7.943
579.33	7.553
579.67	7.516
580.00	7.960
580.34	7.926
580.67	7.965
581.01	7.938
581.35	7.466
581.68	7.402
582.02	7.451
582.35	7.306
582.69	7.485
583.02	7.784
583.36	8.024
583.70	7.792
584.03	8.072
584.37	8.406
584.70	8.177
585.04	8.048
585.37	7.898
585.71	8.153
586.04	7.852
586.38	8.020
586.72	8.727
587.05	7.987
587.39	7.863
587.72	8.529
588.06	8.004
588.39	8.148
588.73	8.243
589.06	8.570
589.40	8.485
589.73	8.870
590.07	8.968
590.40	8.878
590.73	8.782
591.07	9.320
591.40	9.827
591.74	9.654
592.07	9.119
592.41	9.301
592.74	8.652
593.08	8.761
593.41	8.542
593.75	8.432
594.08	8.515
594.41	8.872
594.75	8.725
595.08	8.805
595.42	9.037
595.75	8.333
596.09	9.163
596.42	9.862
596.75	9.498
597.09	9.957
597.42	9.106
597.75	9.056
598.09	9.565
598.42	9.235
598.76	9.445
599.09	8.590
599.42	8.588
599.76	9.334
600.09	8.925
600.42	8.510
600.76	8.643
601.09	8.889
601.42	8.942
601.76	9.298
602.09	8.775
602.42	9.793
602.76	9.512
603.09	9.402
603.42	9.723
603.76	9.146
604.09	8.647
604.42	9.213
604.76	9.532
605.09	9.480
605.42	9.064
605.75	9.313
606.09	8.784
606.42	9.113
606.75	9.332
607.09	9.669
607.42	9.371
607.75	9.283
608.08	9.162
608.42	9.592
608.75	9.378
609.08	9.389
609.41	9.757
609.75	9.909
610.08	10.038
610.41	9.870
610.74	9.035
611.07	10.277
611.41	9.961
611.74	9.904
612.07	10.352
612.40	9.916
612.73	10.526
613.07	9.429
613.40	10.374
613.73	9.596
614.06	10.323
614.39	10.383
614.72	10.263
615.06	10.347
615.39	9.660
615.72	9.663
616.05	10.579
616.38	10.117
616.71	10.273
617.05	11.190
617.38	10.403
617.71	9.730
618.04	10.276
618.37	10.645
618.70	10.703
619.03	10.789
619.36	10.591
619.69	11.761
620.03	12.019
620.36	12.032
620.69	12.055
621.02	11.062
621.35	12.138
621.68	12.227
622.01	11.300
622.34	12.405
622.67	11.711
623.00	10.932
623.33	11.151
623.66	11.794
623.99	11.193
624.32	11.198
624.65	11.582
624.99	11.544
625.32	11.586
625.65	10.819
625.98	11.914
626.31	12.675
626.64	13.143
626.97	10.973
627.30	11.222
627.63	13.290
627.96	12.616
628.29	11.899
628.62	13.541
628.95	15.000
629.28	12.865
629.61	13.016
629.94	12.857
630.26	12.202
630.59	13.060
630.92	12.644
631.25	13.327
631.58	12.613
631.91	13.185
632.24	13.502
632.57	13.431
632.90	13.268
633.23	14.653
633.56	14.689
633.89	15.402
634.22	14.529
634.55	13.964
634.88	13.892
635.20	15.651
635.53	14.819
635.86	14.728
636.19	14.588
636.52	13.495
636.85	14.433
637.18	12.788
637.51	14.539
637.83	13.317
638.16	14.322
638.49	15.743
638.82	14.918
639.15	14.875
639.48	16.334
639.81	15.550
640.13	15.885
640.46	15.570
640.79	15.456
641.12	14.305
641.45	15.782
641.77	17.084
642.10	15.351
642.43	13.814
642.76	14.706
643.09	17.638
643.41	16.692
643.74	16.821
644.07	16.311
644.40	19.172
644.73	15.748
645.05	19.334
645.38	16.272
645.71	16.908
646.04	17.940
646.36	18.865
646.69	17.893
647.02	18.027
647.35	18.729
647.67	17.522
648.00	18.374
