SpectraSuite Data File
++++++++++++++++++++++++++++++++++++
Date: Wed May 13 19:12:01 PDT 2015
User: schluterlab
Dark Spectrum Present: Yes
Reference Spectrum Present: Yes
Number of Sampled Component Spectra: 1
Spectrometers: USB2E3373
Integration Time (usec): 3000 (USB2E3373)
Spectra Averaged: 3 (USB2E3373)
Boxcar Smoothing: 0 (USB2E3373)
Correct for Electrical Dark: No (USB2E3373)
Strobe/Lamp Enabled: No (USB2E3373)
Correct for Detector Non-linearity: No (USB2E3373)
Correct for Stray Light: No (USB2E3373)
Number of Pixels in Processed Spectrum: 2048
>>>>>Begin Processed Spectral Data<<<<<
178.53	0.000
178.91	-1375.000
179.29	-1625.000
179.67	-216.667
180.04	-1400.000
180.42	2800.000
180.80	1220.000
181.18	-1300.000
181.56	842.857
181.94	0.000
182.31	-800.000
182.69	2033.333
183.07	-625.000
183.45	-544.444
183.83	527.273
184.20	-550.000
184.58	2650.000
184.96	6400.000
185.34	-940.000
185.72	-612.500
186.09	-2700.000
186.47	2750.000
186.85	2700.000
187.23	5600.000
187.61	-1866.667
187.98	1650.000
188.36	554.545
188.74	618.182
189.12	-1080.000
189.49	540.000
189.87	-5500.000
190.25	-1325.000
190.63	514.286
191.00	430.769
191.38	883.333
191.76	-1200.000
192.14	1475.000
192.51	612.500
192.89	1083.333
193.27	662.500
193.65	-1400.000
194.02	540.000
194.40	920.000
194.78	600.000
195.15	541.667
195.53	680.000
195.91	-2100.000
196.29	431.250
196.66	352.632
197.04	-410.000
197.42	0.000
197.79	660.000
198.17	-5700.000
198.55	800.000
198.92	837.500
199.30	1140.000
199.68	0.000
200.05	400.000
200.43	757.143
200.81	5200.000
201.18	1800.000
201.56	-1966.667
201.94	633.333
202.31	655.556
202.69	500.000
203.07	640.000
203.44	0.000
203.82	1575.000
204.19	1014.286
204.57	521.429
204.95	662.500
205.32	1866.667
205.70	581.818
206.08	428.571
206.45	2850.000
206.83	406.250
207.20	1116.667
207.58	1040.000
207.96	416.667
208.33	887.500
208.71	-783.333
209.08	857.143
209.46	733.333
209.84	600.000
210.21	-1766.667
210.59	1625.000
210.96	-600.000
211.34	2600.000
211.71	590.000
212.09	933.333
212.46	0.000
212.84	1733.333
213.22	1800.000
213.59	-4000.000
213.97	1016.667
214.34	957.143
214.72	690.909
215.09	1100.000
215.47	-2400.000
215.84	-2900.000
216.22	2033.333
216.59	457.143
216.97	1525.000
217.34	554.545
217.72	-916.667
218.09	0.000
218.47	-5500.000
218.84	722.222
219.22	971.429
219.59	1833.333
219.97	-685.714
220.34	1140.000
220.72	-1900.000
221.09	492.857
221.47	1525.000
221.84	-1133.333
222.22	0.000
222.59	1400.000
222.97	-2450.000
223.34	1260.000
223.72	469.231
224.09	1240.000
224.46	3200.000
224.84	-5500.000
225.21	-1180.000
225.59	-5900.000
225.96	680.000
226.34	390.000
226.71	3350.000
227.08	800.000
227.46	700.000
227.83	-1200.000
228.21	-2450.000
228.58	766.667
228.95	-2800.000
229.33	-2550.000
229.70	1933.333
230.08	771.429
230.45	-940.000
230.82	516.667
231.20	866.667
231.57	742.857
231.95	566.667
232.32	327.273
232.69	509.091
233.07	842.857
233.44	376.923
233.81	-2033.333
234.19	326.316
234.56	591.667
234.93	541.667
235.31	636.364
235.68	461.538
236.05	471.429
236.43	209.091
236.80	336.842
237.17	5500.000
237.55	347.619
237.92	285.714
238.29	276.190
238.67	267.742
239.04	289.655
239.41	211.111
239.79	165.217
240.16	209.524
240.53	175.000
240.91	170.588
241.28	186.000
241.65	164.000
242.02	157.971
242.40	145.161
242.77	155.000
243.14	126.882
243.51	138.202
243.89	130.588
244.26	124.444
244.63	121.505
245.00	123.404
245.38	121.782
245.75	113.084
246.12	111.009
246.49	108.759
246.87	108.800
247.24	100.000
247.61	100.000
247.98	97.386
248.36	104.054
248.73	94.268
249.10	101.911
249.47	88.136
249.84	91.444
250.22	89.305
250.59	95.858
250.96	94.444
251.33	88.626
251.70	91.089
252.08	85.238
252.45	84.753
252.82	88.261
253.19	85.957
253.56	83.137
253.94	84.232
254.31	78.516
254.68	84.231
255.05	83.026
255.42	84.146
255.79	84.191
256.16	81.949
256.54	80.565
256.91	78.648
257.28	74.460
257.65	78.878
258.02	72.360
258.39	75.394
258.76	74.916
259.14	77.679
259.51	73.860
259.88	74.845
260.25	78.852
260.62	76.012
260.99	79.503
261.36	74.775
261.73	79.083
262.10	76.453
262.47	76.056
262.85	74.373
263.22	73.504
263.59	75.214
263.96	75.000
264.33	70.235
264.70	74.211
265.07	70.077
265.44	70.202
265.81	68.856
266.18	76.131
266.55	70.976
266.92	73.219
267.29	78.704
267.66	69.954
268.03	69.318
268.40	71.028
268.77	68.258
269.14	69.595
269.51	68.849
269.88	71.562
270.25	70.655
270.62	68.090
270.99	67.742
271.36	67.382
271.73	68.692
272.10	69.565
272.47	69.892
272.84	67.965
273.21	65.618
273.58	68.777
273.95	63.103
274.32	65.496
274.69	70.021
275.06	64.173
275.43	68.085
275.80	64.529
276.17	67.413
276.54	67.360
276.91	65.415
277.28	66.016
277.65	63.443
278.02	70.186
278.39	67.773
278.76	64.000
279.13	66.604
279.50	64.991
279.87	64.741
280.23	68.862
280.60	66.538
280.97	63.586
281.34	64.248
281.71	64.727
282.08	66.027
282.45	63.273
282.82	64.121
283.19	61.497
283.56	65.263
283.92	62.944
284.29	63.139
284.66	61.887
285.03	62.929
285.40	63.908
285.77	64.310
286.14	60.276
286.51	61.167
286.87	64.103
287.24	63.029
287.61	59.390
287.98	59.416
288.35	58.954
288.72	58.723
289.08	59.311
289.45	58.979
289.82	60.163
290.19	56.829
290.56	56.202
290.93	55.891
291.29	56.288
291.66	54.277
292.03	56.977
292.40	55.507
292.77	53.698
293.13	53.284
293.50	53.644
293.87	54.370
294.24	52.444
294.60	51.820
294.97	52.471
295.34	52.609
295.71	51.847
296.08	51.282
296.44	51.857
296.81	48.877
297.18	51.220
297.55	49.340
297.91	49.868
298.28	52.477
298.65	49.478
299.02	50.329
299.38	49.535
299.75	48.518
300.12	47.893
300.48	47.375
300.85	46.486
301.22	47.898
301.59	47.222
301.95	48.489
302.32	48.010
302.69	46.714
303.05	45.939
303.42	46.914
303.79	44.847
304.15	44.639
304.52	44.612
304.89	44.715
305.25	45.360
305.62	46.546
305.99	47.462
306.35	44.183
306.72	45.067
307.09	46.393
307.45	45.608
307.82	43.638
308.19	45.033
308.55	44.660
308.92	44.791
309.29	42.978
309.65	44.115
310.02	45.137
310.38	44.731
310.75	45.829
311.12	44.012
311.48	44.619
311.85	45.283
312.22	44.849
312.58	44.802
312.95	46.146
313.31	42.427
313.68	46.258
314.05	46.943
314.41	46.030
314.78	44.814
315.14	44.191
315.51	45.005
315.87	45.149
316.24	45.084
316.61	43.957
316.97	44.423
317.34	45.010
317.70	45.889
318.07	47.642
318.43	46.477
318.80	46.017
319.16	47.646
319.53	46.529
319.89	47.714
320.26	48.200
320.62	47.619
320.99	47.273
321.35	48.485
321.72	47.228
322.08	49.260
322.45	50.547
322.81	49.225
323.18	50.096
323.54	48.887
323.91	50.472
324.27	49.618
324.64	48.183
325.00	48.512
325.37	49.682
325.73	48.654
326.10	48.808
326.46	49.552
326.83	50.647
327.19	49.530
327.56	50.958
327.92	51.181
328.29	52.263
328.65	52.947
329.01	51.264
329.38	52.081
329.74	51.801
330.11	52.780
330.47	52.617
330.84	52.390
331.20	50.820
331.56	52.294
331.93	52.778
332.29	51.375
332.66	53.982
333.02	52.194
333.38	53.117
333.75	51.693
334.11	53.381
334.48	51.996
334.84	51.011
335.20	51.818
335.57	51.949
335.93	50.804
336.29	52.198
336.66	51.578
337.02	51.041
337.38	52.407
337.75	51.604
338.11	52.283
338.47	52.578
338.84	51.512
339.20	50.917
339.56	52.646
339.93	51.273
340.29	51.993
340.65	51.248
341.02	51.920
341.38	52.402
341.74	52.982
342.11	50.830
342.47	51.101
342.83	49.486
343.20	51.515
343.56	49.452
343.92	51.228
344.28	50.255
344.65	52.451
345.01	48.316
345.37	49.743
345.73	50.677
346.10	51.577
346.46	49.661
346.82	50.988
347.19	50.209
347.55	49.343
347.91	49.838
348.27	51.849
348.63	50.167
349.00	49.595
349.36	50.328
349.72	49.800
350.08	49.109
350.45	50.854
350.81	49.716
351.17	48.784
351.53	50.123
351.89	48.432
352.26	49.882
352.62	48.837
352.98	49.352
353.34	49.219
353.70	48.936
354.07	49.919
354.43	48.095
354.79	48.190
355.15	48.284
355.51	48.521
355.87	48.408
356.24	50.163
356.60	48.917
356.96	49.638
357.32	48.406
357.68	49.449
358.04	49.169
358.40	48.694
358.77	49.139
359.13	49.250
359.49	48.863
359.85	49.127
360.21	49.362
360.57	50.272
360.93	49.000
361.29	47.014
361.66	49.226
362.02	47.836
362.38	48.973
362.74	48.289
363.10	47.816
363.46	46.515
363.82	48.224
364.18	48.385
364.54	48.217
364.90	48.796
365.26	49.191
365.62	47.845
365.98	47.334
366.35	48.066
366.71	47.722
367.07	49.818
367.43	48.113
367.79	49.179
368.15	48.779
368.51	48.110
368.87	48.180
369.23	49.086
369.59	48.878
369.95	47.647
370.31	47.293
370.67	47.174
371.03	50.187
371.39	47.741
371.75	48.309
372.11	46.799
372.47	50.440
372.83	48.703
373.19	46.171
373.55	47.672
373.91	50.074
374.27	47.491
374.63	48.655
374.99	48.870
375.35	48.430
375.71	47.635
376.07	47.737
376.42	48.349
376.78	48.973
377.14	48.304
377.50	49.007
377.86	48.138
378.22	48.040
378.58	47.556
378.94	48.209
379.30	48.282
379.66	49.683
380.02	48.710
380.38	48.209
380.74	48.920
381.09	48.350
381.45	49.232
381.81	49.017
382.17	49.427
382.53	48.239
382.89	49.259
383.25	48.530
383.61	50.062
383.97	49.281
384.32	48.222
384.68	48.389
385.04	49.170
385.40	49.226
385.76	48.157
386.12	49.806
386.48	50.220
386.83	51.379
387.19	50.588
387.55	49.784
387.91	48.730
388.27	48.498
388.62	49.416
388.98	48.956
389.34	50.000
389.70	50.460
390.06	50.253
390.42	50.130
390.77	49.746
391.13	51.244
391.49	50.127
391.85	49.841
392.20	50.536
392.56	51.326
392.92	50.324
393.28	50.533
393.64	49.760
393.99	49.786
394.35	50.496
394.71	49.624
395.07	49.034
395.42	51.483
395.78	50.573
396.14	49.659
396.50	52.256
396.85	51.240
397.21	50.000
397.57	50.651
397.92	52.584
398.28	49.496
398.64	50.597
399.00	50.811
399.35	50.818
399.71	51.215
400.07	50.857
400.42	51.104
400.78	51.749
401.14	52.012
401.49	51.642
401.85	51.059
402.21	50.180
402.57	51.635
402.92	52.270
403.28	51.905
403.63	52.475
403.99	52.420
404.35	51.758
404.70	50.839
405.06	50.786
405.42	52.152
405.77	51.771
406.13	50.790
406.49	52.218
406.84	51.861
407.20	50.709
407.55	51.946
407.91	53.733
408.27	52.712
408.62	51.836
408.98	52.635
409.34	52.891
409.69	53.871
410.05	52.602
410.40	53.272
410.76	52.867
411.11	52.533
411.47	52.460
411.83	52.963
412.18	52.752
412.54	54.110
412.89	53.916
413.25	53.660
413.60	53.613
413.96	52.034
414.31	52.977
414.67	53.612
415.03	53.709
415.38	53.866
415.74	53.569
416.09	54.540
416.45	53.548
416.80	54.329
417.16	55.831
417.51	55.474
417.87	53.436
418.22	54.953
418.58	54.099
418.93	54.975
419.29	55.060
419.64	55.542
420.00	54.451
420.35	53.275
420.71	54.931
421.06	55.310
421.42	55.965
421.77	55.830
422.12	54.183
422.48	54.614
422.83	56.377
423.19	55.470
423.54	55.543
423.90	55.594
424.25	55.221
424.61	55.298
424.96	55.219
425.31	54.983
425.67	54.101
426.02	55.086
426.38	57.082
426.73	55.998
427.09	55.380
427.44	54.859
427.79	56.239
428.15	55.595
428.50	55.413
428.85	57.151
429.21	55.881
429.56	56.039
429.92	56.870
430.27	55.561
430.62	56.068
430.98	55.890
431.33	56.082
431.68	56.597
432.04	55.272
432.39	57.282
432.74	57.271
433.10	57.329
433.45	56.851
433.80	56.319
434.16	56.250
434.51	56.947
434.86	56.613
435.22	57.810
435.57	57.386
435.92	57.519
436.28	58.422
436.63	56.788
436.98	57.756
437.34	57.782
437.69	58.635
438.04	58.179
438.39	58.388
438.75	58.745
439.10	58.156
439.45	58.619
439.81	57.885
440.16	57.877
440.51	58.289
440.86	58.541
441.22	59.232
441.57	56.953
441.92	58.547
442.27	59.042
442.63	58.189
442.98	58.423
443.33	57.880
443.68	57.460
444.03	57.638
444.39	57.838
444.74	59.253
445.09	58.221
445.44	59.213
445.79	58.486
446.15	58.391
446.50	58.104
446.85	59.044
447.20	59.969
447.55	59.687
447.91	59.515
448.26	58.375
448.61	60.486
448.96	60.410
449.31	60.911
449.66	58.357
450.02	58.217
450.37	59.240
450.72	59.222
451.07	58.623
451.42	58.784
451.77	59.483
452.12	57.679
452.47	59.826
452.83	60.839
453.18	58.985
453.53	59.555
453.88	59.126
454.23	59.892
454.58	59.540
454.93	61.666
455.28	59.663
455.63	60.133
455.98	60.357
456.34	59.171
456.69	59.987
457.04	59.938
457.39	59.439
457.74	60.070
458.09	59.574
458.44	59.635
458.79	58.514
459.14	59.368
459.49	59.603
459.84	59.834
460.19	59.163
460.54	57.523
460.89	58.749
461.24	60.899
461.59	60.488
461.94	59.926
462.29	60.653
462.64	59.796
462.99	58.946
463.34	60.667
463.69	59.975
464.04	58.899
464.39	59.130
464.74	59.596
465.09	59.168
465.44	58.393
465.79	58.837
466.14	58.785
466.49	58.843
466.84	60.712
467.19	58.962
467.54	60.500
467.89	58.764
468.24	59.162
468.59	59.768
468.94	59.866
469.29	59.833
469.64	59.639
469.99	61.367
470.34	60.370
470.68	60.129
471.03	59.388
471.38	61.432
471.73	58.628
472.08	60.789
472.43	58.229
472.78	59.513
473.13	59.820
473.48	59.176
473.83	60.000
474.17	59.490
474.52	59.429
474.87	60.012
475.22	58.328
475.57	58.033
475.92	59.851
476.27	59.188
476.61	58.908
476.96	59.483
477.31	58.765
477.66	60.011
478.01	57.449
478.36	59.651
478.70	59.294
479.05	59.531
479.40	59.621
479.75	58.770
480.10	58.996
480.45	58.639
480.79	57.143
481.14	59.589
481.49	57.712
481.84	58.208
482.19	58.746
482.53	58.532
482.88	58.772
483.23	59.065
483.58	59.327
483.92	58.482
484.27	57.124
484.62	57.672
484.97	58.218
485.31	57.945
485.66	56.760
486.01	55.969
486.36	54.431
486.70	54.283
487.05	55.165
487.40	57.252
487.75	58.434
488.09	59.175
488.44	59.239
488.79	60.398
489.13	60.084
489.48	59.217
489.83	58.610
490.17	58.395
490.52	58.193
490.87	58.661
491.22	58.208
491.56	58.178
491.91	58.306
492.26	57.648
492.60	57.834
492.95	57.577
493.30	57.477
493.64	57.956
493.99	57.892
494.34	57.771
494.68	58.929
495.03	58.177
495.37	57.422
495.72	58.187
496.07	58.561
496.41	56.372
496.76	56.816
497.11	58.037
497.45	57.522
497.80	58.157
498.14	56.715
498.49	58.098
498.84	58.198
499.18	58.190
499.53	57.502
499.87	57.409
500.22	56.524
500.56	59.126
500.91	57.356
501.26	57.278
501.60	58.567
501.95	56.462
502.29	58.341
502.64	58.380
502.98	57.691
503.33	57.998
503.67	56.195
504.02	57.530
504.36	57.323
504.71	57.987
505.06	57.687
505.40	58.240
505.75	57.522
506.09	57.483
506.44	57.819
506.78	58.597
507.13	58.809
507.47	57.222
507.82	59.017
508.16	58.409
508.51	58.853
508.85	57.547
509.19	58.418
509.54	57.908
509.88	57.290
510.23	58.355
510.57	59.546
510.92	58.001
511.26	57.451
511.61	57.780
511.95	57.777
512.30	57.317
512.64	58.624
512.98	58.682
513.33	58.779
513.67	57.631
514.02	59.037
514.36	58.547
514.70	58.937
515.05	58.561
515.39	58.385
515.74	58.953
516.08	58.524
516.42	59.600
516.77	59.588
517.11	57.436
517.46	58.409
517.80	59.117
518.14	58.020
518.49	60.502
518.83	57.727
519.17	57.679
519.52	59.083
519.86	59.384
520.20	58.902
520.55	60.922
520.89	60.036
521.23	59.349
521.58	59.364
521.92	59.094
522.26	58.511
522.61	60.187
522.95	59.239
523.29	59.343
523.64	60.488
523.98	60.320
524.32	59.349
524.66	59.170
525.01	59.620
525.35	59.480
525.69	59.667
526.04	60.000
526.38	59.732
526.72	58.773
527.06	60.640
527.41	57.426
527.75	60.193
528.09	60.758
528.43	59.847
528.78	59.312
529.12	58.485
529.46	60.073
529.80	60.582
530.15	60.872
530.49	59.015
530.83	59.620
531.17	61.619
531.51	61.738
531.86	60.387
532.20	60.430
532.54	60.026
532.88	60.398
533.22	58.776
533.57	58.580
533.91	59.603
534.25	59.113
534.59	59.426
534.93	58.239
535.27	59.807
535.62	59.158
535.96	60.389
536.30	59.949
536.64	59.691
536.98	60.982
537.32	59.776
537.66	60.600
538.01	59.710
538.35	59.729
538.69	60.625
539.03	60.169
539.37	58.850
539.71	59.235
540.05	60.392
540.39	59.734
540.73	59.120
541.07	59.961
541.42	61.383
541.76	60.710
542.10	60.543
542.44	60.662
542.78	60.672
543.12	59.309
543.46	59.672
543.80	61.288
544.14	57.766
544.48	61.016
544.82	60.680
545.16	61.028
545.50	59.190
545.84	60.954
546.18	60.337
546.52	60.014
546.86	60.412
547.20	59.272
547.54	60.721
547.88	60.395
548.22	58.966
548.56	58.428
548.90	59.731
549.24	59.663
549.58	59.004
549.92	60.646
550.26	62.287
550.60	59.267
550.94	58.732
551.28	60.205
551.62	60.676
551.96	59.368
552.30	61.638
552.64	60.041
552.98	59.525
553.32	59.811
553.66	60.123
554.00	60.947
554.34	59.006
554.68	60.944
555.02	59.097
555.36	59.499
555.69	58.796
556.03	59.489
556.37	60.164
556.71	59.823
557.05	59.594
557.39	59.622
557.73	59.704
558.07	60.261
558.41	59.262
558.75	60.323
559.08	61.298
559.42	60.393
559.76	59.265
560.10	59.101
560.44	58.630
560.78	58.017
561.12	58.509
561.45	59.192
561.79	58.866
562.13	60.228
562.47	60.246
562.81	60.251
563.15	58.997
563.48	58.554
563.82	58.187
564.16	59.254
564.50	59.701
564.84	58.407
565.17	58.623
565.51	58.850
565.85	57.995
566.19	58.673
566.52	59.151
566.86	57.926
567.20	58.491
567.54	57.763
567.88	57.523
568.21	57.937
568.55	57.988
568.89	58.317
569.23	56.640
569.56	55.830
569.90	55.623
570.24	56.476
570.57	55.389
570.91	54.686
571.25	55.158
571.59	54.816
571.92	55.386
572.26	55.777
572.60	56.066
572.93	56.042
573.27	56.108
573.61	55.611
573.95	55.736
574.28	54.673
574.62	54.859
574.96	54.982
575.29	54.898
575.63	54.599
575.97	55.558
576.30	55.390
576.64	55.244
576.98	54.448
577.31	54.852
577.65	54.658
577.98	54.544
578.32	54.269
578.66	55.031
578.99	54.987
579.33	54.733
579.67	54.974
580.00	55.334
580.34	55.814
580.67	55.661
581.01	55.206
581.35	54.633
581.68	54.398
582.02	53.699
582.35	54.485
582.69	54.027
583.02	54.614
583.36	55.176
583.70	56.369
584.03	56.139
584.37	56.153
584.70	56.061
585.04	55.161
585.37	54.893
585.71	54.394
586.04	54.047
586.38	55.773
586.72	55.510
587.05	54.252
587.39	53.720
587.72	54.290
588.06	55.123
588.39	55.665
588.73	55.031
589.06	55.718
589.40	55.657
589.73	56.318
590.07	55.765
590.40	56.156
590.73	55.855
591.07	57.346
591.40	55.588
591.74	57.056
592.07	56.065
592.41	55.023
592.74	54.120
593.08	54.464
593.41	54.192
593.75	53.560
594.08	54.408
594.41	54.118
594.75	55.786
595.08	54.689
595.42	54.501
595.75	55.947
596.09	55.614
596.42	55.167
596.75	55.635
597.09	55.368
597.42	53.836
597.75	54.765
598.09	54.304
598.42	52.878
598.76	54.682
599.09	53.098
599.42	53.821
599.76	53.807
600.09	53.188
600.42	53.397
600.76	53.036
601.09	52.933
601.42	54.033
601.76	54.649
602.09	54.822
602.42	54.339
602.76	54.293
603.09	53.973
603.42	54.002
603.76	52.896
604.09	53.703
604.42	53.445
604.76	54.998
605.09	54.958
605.42	53.869
605.75	53.767
606.09	53.599
606.42	53.617
606.75	53.090
607.09	53.202
607.42	53.231
607.75	52.827
608.08	53.061
608.42	54.191
608.75	53.562
609.08	53.238
609.41	53.022
609.75	53.121
610.08	54.383
610.41	54.283
610.74	53.075
611.07	54.348
611.41	53.582
611.74	53.193
612.07	54.607
612.40	54.512
612.73	53.526
613.07	54.526
613.40	53.870
613.73	53.330
614.06	53.441
614.39	52.596
614.72	52.105
615.06	54.412
615.39	52.707
615.72	52.301
616.05	52.366
616.38	53.585
616.71	55.107
617.05	55.065
617.38	54.781
617.71	54.414
618.04	53.065
618.37	53.105
618.70	54.138
619.03	55.197
619.36	53.293
619.69	54.225
620.03	55.014
620.36	53.476
620.69	54.863
621.02	55.015
621.35	54.033
621.68	52.804
622.01	54.644
622.34	53.933
622.67	53.460
623.00	52.311
623.33	52.180
623.66	55.039
623.99	55.155
624.32	51.783
624.65	52.684
624.99	52.833
625.32	53.440
625.65	53.719
625.98	53.728
626.31	53.655
626.64	54.939
626.97	53.533
627.30	53.533
627.63	54.881
627.96	54.668
628.29	53.981
628.62	53.797
628.95	55.283
629.28	54.745
629.61	55.362
629.94	55.619
630.26	53.765
