SpectraSuite Data File
++++++++++++++++++++++++++++++++++++
Date: Wed May 13 19:15:11 PDT 2015
User: schluterlab
Dark Spectrum Present: Yes
Reference Spectrum Present: Yes
Number of Sampled Component Spectra: 1
Spectrometers: USB2E3373
Integration Time (usec): 3000 (USB2E3373)
Spectra Averaged: 3 (USB2E3373)
Boxcar Smoothing: 0 (USB2E3373)
Correct for Electrical Dark: No (USB2E3373)
Strobe/Lamp Enabled: No (USB2E3373)
Correct for Detector Non-linearity: No (USB2E3373)
Correct for Stray Light: No (USB2E3373)
Number of Pixels in Processed Spectrum: 2048
>>>>>Begin Processed Spectral Data<<<<<
178.53	0.000
178.91	-1450.000
179.29	-1075.000
179.67	-261.111
180.04	-1325.000
180.42	2650.000
180.80	1140.000
181.18	-1150.000
181.56	785.714
181.94	0.000
182.31	-742.857
182.69	2066.667
183.07	-650.000
183.45	-544.444
183.83	609.091
184.20	-550.000
184.58	2500.000
184.96	6700.000
185.34	-880.000
185.72	-600.000
186.09	-2600.000
186.47	3050.000
186.85	2300.000
187.23	5600.000
187.61	-1733.333
187.98	1475.000
188.36	609.091
188.74	563.636
189.12	-960.000
189.49	660.000
189.87	-5900.000
190.25	-1100.000
190.63	471.429
191.00	523.077
191.38	883.333
191.76	-1175.000
192.14	1675.000
192.51	725.000
192.89	1050.000
193.27	700.000
193.65	-1300.000
194.02	620.000
194.40	920.000
194.78	550.000
195.15	600.000
195.53	640.000
195.91	-2850.000
196.29	393.750
196.66	347.368
197.04	-370.000
197.42	0.000
197.79	610.000
198.17	-4900.000
198.55	657.143
198.92	725.000
199.30	980.000
199.68	0.000
200.05	372.222
200.43	1000.000
200.81	5200.000
201.18	2100.000
201.56	-1666.667
201.94	566.667
202.31	600.000
202.69	483.333
203.07	520.000
203.44	0.000
203.82	1475.000
204.19	657.143
204.57	521.429
204.95	737.500
205.32	1700.000
205.70	536.364
206.08	414.286
206.45	2700.000
206.83	381.250
207.20	1066.667
207.58	940.000
207.96	361.111
208.33	837.500
208.71	-916.667
209.08	742.857
209.46	644.444
209.84	481.818
210.21	-1666.667
210.59	1500.000
210.96	-687.500
211.34	2900.000
211.71	680.000
212.09	900.000
212.46	0.000
212.84	1566.667
213.22	1300.000
213.59	-4500.000
213.97	1116.667
214.34	885.714
214.72	627.273
215.09	1040.000
215.47	-2250.000
215.84	-2800.000
216.22	1966.667
216.59	471.429
216.97	1500.000
217.34	490.909
217.72	-966.667
218.09	0.000
218.47	-5200.000
218.84	700.000
219.22	900.000
219.59	1966.667
219.97	-714.286
220.34	1140.000
220.72	-2000.000
221.09	457.143
221.47	1675.000
221.84	-1033.333
222.22	0.000
222.59	1700.000
222.97	-3000.000
223.34	1360.000
223.72	492.308
224.09	1300.000
224.46	2700.000
224.84	-5500.000
225.21	-1060.000
225.59	-4900.000
225.96	690.000
226.34	310.000
226.71	3400.000
227.08	750.000
227.46	640.000
227.83	-1250.000
228.21	-2700.000
228.58	755.556
228.95	-2550.000
229.33	-2700.000
229.70	2033.333
230.08	942.857
230.45	-1240.000
230.82	566.667
231.20	1016.667
231.57	900.000
231.95	491.667
232.32	281.818
232.69	409.091
233.07	700.000
233.44	430.769
233.81	-1900.000
234.19	363.158
234.56	441.667
234.93	541.667
235.31	590.909
235.68	376.923
236.05	464.286
236.43	215.152
236.80	294.737
237.17	6300.000
237.55	328.571
237.92	285.714
238.29	304.762
238.67	251.613
239.04	296.552
239.41	222.222
239.79	178.261
240.16	221.429
240.53	193.182
240.91	160.784
241.28	186.000
241.65	190.000
242.02	149.275
242.40	169.355
242.77	161.667
243.14	113.978
243.51	129.213
243.89	128.235
244.26	114.444
244.63	108.602
245.00	117.021
245.38	121.782
245.75	104.673
246.12	106.422
246.49	110.219
246.87	107.200
247.24	105.385
247.61	99.286
247.98	100.000
248.36	99.324
248.73	96.178
249.10	106.369
249.47	83.051
249.84	95.722
250.22	88.235
250.59	98.225
250.96	85.859
251.33	87.678
251.70	90.594
252.08	90.952
252.45	82.063
252.82	86.522
253.19	88.085
253.56	84.706
253.94	81.743
254.31	84.375
254.68	80.769
255.05	82.657
255.42	84.959
255.79	83.824
256.16	86.282
256.54	77.032
256.91	84.698
257.28	79.496
257.65	77.228
258.02	75.776
258.39	77.918
258.76	79.264
259.14	74.405
259.51	75.380
259.88	75.466
260.25	74.320
260.62	77.746
260.99	80.124
261.36	75.075
261.73	76.791
262.10	79.651
262.47	76.056
262.85	75.766
263.22	74.644
263.59	74.359
263.96	72.253
264.33	75.196
264.70	69.737
265.07	73.913
265.44	71.970
265.81	71.290
266.18	74.121
266.55	74.390
266.92	72.236
267.29	72.917
267.66	70.642
268.03	71.136
268.40	69.860
268.77	72.315
269.14	74.550
269.51	71.332
269.88	73.660
270.25	69.300
270.62	70.787
270.99	71.613
271.36	68.670
271.73	75.234
272.10	67.609
272.47	73.118
272.84	70.346
273.21	68.344
273.58	70.524
273.95	66.038
274.32	67.769
274.69	69.379
275.06	68.110
275.43	71.489
275.80	67.735
276.17	69.450
276.54	68.191
276.91	66.206
277.28	67.773
277.65	64.603
278.02	68.323
278.39	69.531
278.76	64.545
279.13	68.113
279.50	63.501
279.87	64.143
280.23	69.461
280.60	68.472
280.97	66.913
281.34	65.133
281.71	67.455
282.08	68.138
282.45	65.455
282.82	64.298
283.19	63.636
283.56	65.439
283.92	64.805
284.29	64.374
284.66	61.343
285.03	62.387
285.40	62.676
285.77	62.458
286.14	63.212
286.51	59.833
286.87	64.274
287.24	64.169
287.61	60.514
287.98	61.039
288.35	59.905
288.72	59.657
289.08	58.842
289.45	61.120
289.82	59.024
290.19	56.044
290.56	58.652
290.93	56.798
291.29	57.515
291.66	56.785
292.03	58.285
292.40	58.003
292.77	54.586
293.13	52.985
293.50	53.790
293.87	54.222
294.24	52.148
294.60	54.731
294.97	54.506
295.34	52.327
295.71	51.989
296.08	50.427
296.44	51.994
296.81	50.462
297.18	51.762
297.55	48.681
297.91	50.528
298.28	50.067
298.65	50.522
299.02	48.880
299.38	50.598
299.75	46.765
300.12	46.871
300.48	47.500
300.85	48.089
301.22	48.408
301.59	49.116
301.95	47.481
302.32	48.652
302.69	46.714
303.05	46.788
303.42	45.062
303.79	45.300
304.15	44.406
304.52	45.539
304.89	46.341
305.25	45.708
305.62	44.847
305.99	46.281
306.35	45.190
306.72	45.067
307.09	46.060
307.45	45.833
307.82	44.643
308.19	46.358
308.55	46.278
308.92	43.609
309.29	43.506
309.65	42.630
310.02	44.397
310.38	45.484
310.75	45.301
311.12	41.556
311.48	44.305
311.85	44.654
312.22	43.184
312.58	43.243
312.95	42.661
313.31	41.942
313.68	42.931
314.05	44.970
314.41	41.809
314.78	43.605
315.14	43.098
315.51	43.357
315.87	41.485
316.24	41.212
316.61	42.690
316.97	42.368
317.34	40.607
317.70	42.925
318.07	41.482
318.43	42.759
318.80	41.518
319.16	41.902
319.53	40.525
319.89	42.762
320.26	44.200
320.62	41.667
320.99	38.687
321.35	41.717
321.72	41.581
322.08	42.053
322.45	43.881
322.81	43.411
323.18	43.931
323.54	42.950
323.91	42.264
324.27	42.256
324.64	39.888
325.00	39.766
325.37	40.855
325.73	41.831
326.10	40.335
326.46	38.889
326.83	41.242
327.19	40.222
327.56	40.679
327.92	40.857
328.29	41.881
328.65	41.805
329.01	41.516
329.38	40.796
329.74	39.705
330.11	41.659
330.47	40.404
330.84	40.257
331.20	39.891
331.56	39.817
331.93	40.370
332.29	39.130
332.66	39.558
333.02	40.494
333.38	39.295
333.75	40.018
334.11	39.591
334.48	41.171
334.84	39.982
335.20	39.364
335.57	38.713
335.93	38.482
336.29	39.377
336.66	40.667
337.02	37.738
337.38	40.833
337.75	38.414
338.11	39.302
338.47	39.871
338.84	39.872
339.20	38.073
339.56	38.960
339.93	37.636
340.29	38.587
340.65	38.324
341.02	38.831
341.38	38.612
341.74	38.947
342.11	38.777
342.47	37.709
342.83	38.014
343.20	39.048
343.56	37.152
343.92	38.158
344.28	37.755
344.65	38.521
345.01	37.458
345.37	37.050
345.73	38.156
346.10	38.363
346.46	37.458
346.82	37.562
347.19	36.675
347.55	37.192
347.91	37.460
348.27	38.620
348.63	37.291
349.00	37.379
349.36	35.468
349.72	36.728
350.08	36.710
350.45	38.405
350.81	36.718
351.17	37.439
351.53	35.872
351.89	36.139
352.26	36.306
352.62	36.407
352.98	37.277
353.34	36.647
353.70	35.843
354.07	36.452
354.43	35.000
354.79	35.398
355.15	35.674
355.51	38.050
355.87	36.082
356.24	36.564
356.60	35.846
356.96	36.444
357.32	35.732
357.68	36.535
358.04	35.946
358.40	36.342
358.77	35.759
359.13	34.412
359.49	34.118
359.85	34.365
360.21	34.769
360.57	35.564
360.93	35.769
361.29	35.450
361.66	34.443
362.02	34.925
362.38	35.817
362.74	34.003
363.10	33.975
363.46	34.189
363.82	35.147
364.18	34.728
364.54	34.695
364.90	34.065
365.26	34.412
365.62	34.624
365.98	34.405
366.35	32.808
366.71	34.129
367.07	34.377
367.43	34.906
367.79	35.689
368.15	35.632
368.51	33.866
368.87	33.405
369.23	33.504
369.59	34.323
369.95	33.382
370.31	33.333
370.67	33.406
371.03	34.082
371.39	33.601
371.75	33.603
372.11	33.001
372.47	34.531
372.83	35.879
373.19	32.587
373.55	34.442
373.91	33.800
374.27	32.234
374.63	33.018
374.99	34.040
375.35	33.217
375.71	33.448
376.07	33.882
376.42	33.081
376.78	33.267
377.14	32.836
377.50	31.921
377.86	32.513
378.22	33.818
378.58	31.078
378.94	32.747
379.30	32.061
379.66	33.566
380.02	32.985
380.38	32.483
380.74	32.473
381.09	32.641
381.45	33.190
381.81	32.555
382.17	33.121
382.53	31.258
382.89	32.531
383.25	32.020
383.61	33.519
383.97	32.458
384.32	31.815
384.68	31.537
385.04	31.899
385.40	33.189
385.76	31.880
386.12	32.060
386.48	32.725
386.83	30.917
387.19	32.158
387.55	31.664
387.91	31.378
388.27	32.373
388.62	31.899
388.98	31.388
389.34	32.290
389.70	32.311
390.06	31.686
390.42	32.685
390.77	32.379
391.13	31.653
391.49	31.853
391.85	31.381
392.20	30.789
392.56	31.566
392.92	31.371
393.28	31.065
393.64	31.655
393.99	31.643
394.35	32.072
394.71	32.120
395.07	30.717
395.42	31.706
395.78	31.043
396.14	32.464
396.50	32.895
396.85	31.850
397.21	31.196
397.57	30.750
397.92	30.950
398.28	30.493
398.64	30.765
399.00	30.386
399.35	30.852
399.71	30.671
400.07	31.283
400.42	31.472
400.78	31.544
401.14	31.037
401.49	30.985
401.85	30.611
402.21	31.078
402.57	31.154
402.92	31.148
403.28	31.293
403.63	31.683
403.99	30.510
404.35	30.788
404.70	31.175
405.06	29.878
405.42	31.067
405.77	30.114
406.13	29.571
406.49	31.106
406.84	30.301
407.20	30.024
407.55	31.908
407.91	31.200
408.27	31.334
408.62	30.464
408.98	30.147
409.34	30.627
409.69	29.935
410.05	30.607
410.40	30.153
410.76	30.944
411.11	30.277
411.47	30.224
411.83	31.338
412.18	29.623
412.54	30.448
412.89	30.241
413.25	29.398
413.60	30.760
413.96	29.569
414.31	29.830
414.67	30.165
415.03	29.669
415.38	31.314
415.74	30.547
416.09	29.980
416.45	30.924
416.80	29.808
417.16	30.697
417.51	31.055
417.87	29.094
418.22	31.230
418.58	29.438
418.93	30.590
419.29	29.917
419.64	30.290
420.00	30.000
420.35	30.493
420.71	30.245
421.06	29.594
421.42	29.942
421.77	29.652
422.12	28.916
422.48	29.358
422.83	30.460
423.19	29.006
423.54	30.122
423.90	30.551
424.25	28.867
424.61	29.464
424.96	29.096
425.31	29.623
425.67	29.551
426.02	29.143
426.38	30.342
426.73	29.549
427.09	29.909
427.44	28.925
427.79	29.845
428.15	30.536
428.50	29.081
428.85	29.023
429.21	28.382
429.56	28.979
429.92	29.441
430.27	29.345
430.62	29.493
430.98	29.113
431.33	29.072
431.68	29.581
432.04	28.647
432.39	29.412
432.74	30.042
433.10	29.825
433.45	29.096
433.80	29.157
434.16	28.686
434.51	28.474
434.86	28.962
435.22	29.405
435.57	29.422
435.92	29.491
436.28	29.834
436.63	29.415
436.98	29.365
437.34	29.457
437.69	30.630
438.04	29.230
438.39	29.731
438.75	30.099
439.10	29.497
439.45	29.693
439.81	30.091
440.16	29.418
440.51	29.174
440.86	29.589
441.22	29.310
441.57	28.662
441.92	28.454
442.27	28.956
442.63	28.120
442.98	29.690
443.33	28.424
443.68	29.066
444.03	28.306
444.39	27.897
444.74	28.896
445.09	28.841
445.44	28.376
445.79	28.402
446.15	29.857
446.50	29.025
446.85	29.239
447.20	28.557
447.55	30.151
447.91	28.792
448.26	29.160
448.61	29.621
448.96	28.682
449.31	29.303
449.66	29.319
450.02	28.301
450.37	28.685
450.72	28.652
451.07	29.129
451.42	28.389
451.77	29.536
452.12	28.811
452.47	29.478
452.83	29.254
453.18	28.973
453.53	29.375
453.88	28.116
454.23	28.691
454.58	29.861
454.93	29.243
455.28	28.055
455.63	28.944
455.98	29.048
456.34	28.769
456.69	29.618
457.04	29.350
457.39	29.047
457.74	28.845
458.09	29.557
458.44	28.791
458.79	28.525
459.14	29.007
459.49	28.313
459.84	28.975
460.19	27.991
460.54	28.241
460.89	28.140
461.24	29.933
461.59	28.937
461.94	29.162
462.29	29.377
462.64	28.909
462.99	28.692
463.34	29.267
463.69	28.956
464.04	28.754
464.39	27.884
464.74	28.996
465.09	27.925
465.44	27.535
465.79	27.685
466.14	28.407
466.49	28.420
466.84	28.663
467.19	27.761
467.54	28.312
467.89	28.271
468.24	28.679
468.59	28.877
468.94	27.917
469.29	28.856
469.64	28.179
469.99	28.011
470.34	27.939
470.68	28.376
471.03	28.163
471.38	29.882
471.73	28.248
472.08	28.092
472.43	28.141
472.78	27.650
473.13	27.664
473.48	28.090
473.83	27.744
474.17	27.442
474.52	27.978
474.87	27.788
475.22	27.800
475.57	26.867
475.92	27.191
476.27	27.903
476.61	27.192
476.96	26.993
477.31	26.740
477.66	27.571
478.01	26.085
478.36	27.393
478.70	26.480
479.05	27.370
479.40	27.277
479.75	26.995
480.10	26.938
480.45	26.464
480.79	26.756
481.14	27.789
481.49	27.195
481.84	26.109
482.19	26.715
482.53	26.606
482.88	27.082
483.23	26.495
483.58	27.389
483.92	27.085
484.27	26.275
484.62	27.155
484.97	26.764
485.31	27.603
485.66	25.762
486.01	25.258
486.36	24.895
486.70	25.512
487.05	26.229
487.40	27.247
487.75	27.519
488.09	28.723
488.44	29.019
488.79	29.946
489.13	28.304
489.48	28.711
489.83	27.665
490.17	26.699
490.52	26.838
490.87	26.730
491.22	26.603
491.56	25.558
491.91	26.245
492.26	25.356
492.60	25.622
492.95	25.491
493.30	26.495
493.64	25.898
493.99	25.905
494.34	25.532
494.68	26.099
495.03	25.846
495.37	25.733
495.72	25.877
496.07	26.172
496.41	25.133
496.76	26.561
497.11	26.385
497.45	26.502
497.80	26.967
498.14	26.329
498.49	26.439
498.84	25.839
499.18	26.095
499.53	25.689
499.87	26.095
500.22	25.765
500.56	25.874
500.91	26.106
501.26	26.221
501.60	26.436
501.95	25.298
502.29	25.867
502.64	26.350
502.98	26.695
503.33	25.274
503.67	26.032
504.02	25.678
504.36	25.550
504.71	26.380
505.06	25.446
505.40	24.793
505.75	26.230
506.09	25.413
506.44	26.048
506.78	25.572
507.13	26.754
507.47	26.313
507.82	26.039
508.16	26.444
508.51	26.281
508.85	25.472
509.19	26.531
509.54	25.561
509.88	25.605
510.23	25.707
510.57	26.471
510.92	25.790
511.26	26.259
511.61	25.985
511.95	25.157
512.30	25.239
512.64	26.276
512.98	26.206
513.33	26.178
513.67	25.080
514.02	24.567
514.36	26.707
514.70	24.737
515.05	25.153
515.39	25.967
515.74	26.126
516.08	24.707
516.42	25.971
516.77	25.753
517.11	25.139
517.46	25.000
517.80	26.249
518.14	25.014
518.49	25.088
518.83	24.318
519.17	25.520
519.52	25.580
519.86	25.328
520.20	25.954
520.55	26.511
520.89	26.095
521.23	25.814
521.58	25.690
521.92	25.107
522.26	24.771
522.61	24.673
522.95	25.537
523.29	24.224
523.64	25.732
523.98	24.646
524.32	25.151
524.66	25.436
525.01	25.735
525.35	25.527
525.69	25.123
526.04	24.798
526.38	24.954
526.72	24.479
527.06	25.047
527.41	23.453
527.75	25.273
528.09	25.819
528.43	25.112
528.78	25.446
529.12	24.485
529.46	24.617
529.80	25.495
530.15	25.421
530.49	24.369
530.83	24.241
531.17	26.958
531.51	25.875
531.86	25.484
532.20	26.271
532.54	26.137
532.88	25.866
533.22	24.422
533.57	24.938
533.91	24.744
534.25	24.970
534.59	26.419
534.93	25.104
535.27	25.407
535.62	25.214
535.96	25.235
536.30	25.874
536.64	26.529
536.98	26.410
537.32	26.070
537.66	25.600
538.01	25.346
538.35	25.339
538.69	26.611
539.03	25.211
539.37	24.856
539.71	24.433
540.05	26.340
540.39	25.449
540.73	25.226
541.07	26.606
541.42	25.506
541.76	26.194
542.10	25.032
542.44	24.768
542.78	25.823
543.12	24.696
543.46	24.918
543.80	26.220
544.14	25.032
544.48	26.540
544.82	24.567
545.16	25.764
545.50	26.157
545.84	25.470
546.18	27.003
546.52	26.015
546.86	27.079
547.20	24.747
547.54	25.518
547.88	26.594
548.22	25.965
548.56	26.226
548.90	25.480
549.24	24.983
549.58	24.829
549.92	25.755
550.26	25.639
550.60	25.104
550.94	25.634
551.28	25.677
551.62	26.240
551.96	25.053
552.30	25.870
552.64	26.166
552.98	25.085
553.32	25.624
553.66	25.835
554.00	26.699
554.34	25.880
554.68	26.180
555.02	25.529
555.36	25.052
555.69	24.222
556.03	25.639
556.37	25.989
556.71	25.171
557.05	24.930
557.39	25.962
557.73	25.335
558.07	24.873
558.41	26.339
558.75	25.790
559.08	25.503
559.42	25.472
559.76	26.029
560.10	24.697
560.44	25.087
560.78	24.019
561.12	24.802
561.45	25.750
561.79	24.456
562.13	26.023
562.47	25.956
562.81	26.360
563.15	25.151
563.48	25.332
563.82	24.397
564.16	25.311
564.50	24.740
564.84	25.601
565.17	25.483
565.51	26.262
565.85	25.635
566.19	25.110
566.52	25.586
566.86	24.834
567.20	26.002
567.54	25.171
567.88	25.638
568.21	26.508
568.55	25.935
568.89	26.021
569.23	24.955
569.56	25.547
569.90	25.623
570.24	25.332
570.57	25.774
570.91	25.210
571.25	25.818
571.59	25.832
571.92	25.144
572.26	26.112
572.60	25.766
572.93	26.297
573.27	27.122
573.61	26.186
573.95	26.331
574.28	26.181
574.62	25.777
574.96	25.902
575.29	26.382
575.63	26.626
575.97	26.660
576.30	26.367
576.64	26.611
576.98	26.349
577.31	26.086
577.65	26.406
577.98	26.216
578.32	25.993
578.66	26.415
578.99	27.163
579.33	26.555
579.67	26.928
580.00	26.972
580.34	26.910
580.67	27.180
581.01	27.457
581.35	26.754
581.68	25.962
582.02	25.573
582.35	26.347
582.69	26.758
583.02	26.763
583.36	28.245
583.70	28.172
584.03	28.213
584.37	27.879
584.70	27.299
585.04	27.128
585.37	26.887
585.71	26.692
586.04	26.794
586.38	26.855
586.72	27.727
587.05	27.248
587.39	25.963
587.72	26.797
588.06	27.321
588.39	27.407
588.73	27.398
589.06	27.516
589.40	27.946
589.73	27.420
590.07	27.331
590.40	27.475
590.73	27.635
591.07	28.042
591.40	27.625
591.74	27.143
592.07	27.094
592.41	26.995
592.74	26.105
593.08	25.683
593.41	26.669
593.75	25.578
594.08	26.651
594.41	26.829
594.75	26.691
595.08	26.163
595.42	26.375
595.75	27.066
596.09	27.262
596.42	27.859
596.75	27.649
597.09	27.749
597.42	26.391
597.75	26.693
598.09	27.348
598.42	26.203
598.76	25.618
599.09	25.124
599.42	26.128
599.76	26.537
600.09	26.594
600.42	26.297
600.76	26.571
601.09	26.922
601.42	26.560
601.76	26.945
602.09	27.115
602.42	27.189
602.76	26.884
603.09	27.223
603.42	26.904
603.76	26.601
604.09	26.406
604.42	26.824
604.76	27.415
605.09	26.824
605.42	26.422
605.75	26.987
606.09	26.352
606.42	27.013
606.75	26.421
607.09	26.957
607.42	26.401
607.75	26.498
608.08	26.357
608.42	27.521
608.75	27.006
609.08	26.920
609.41	27.416
609.75	27.156
610.08	26.814
610.41	26.071
610.74	26.585
611.07	27.520
611.41	26.840
611.74	26.948
612.07	27.484
612.40	27.440
612.73	26.684
613.07	27.963
613.40	26.804
613.73	25.800
614.06	27.527
614.39	26.901
614.72	26.211
615.06	26.628
615.39	26.699
615.72	25.869
616.05	26.741
616.38	27.071
616.71	27.375
617.05	28.092
617.38	27.300
617.71	27.508
618.04	27.464
618.37	26.493
618.70	27.442
619.03	28.092
619.36	27.020
619.69	27.324
620.03	27.060
620.36	27.607
620.69	27.329
621.02	26.917
621.35	26.625
621.68	26.558
622.01	27.477
622.34	27.383
622.67	27.757
623.00	25.899
623.33	26.019
623.66	28.091
623.99	26.583
624.32	26.605
624.65	27.048
624.99	25.992
625.32	26.720
625.65	27.273
625.98	26.518
626.31	27.527
626.64	27.102
626.97	26.766
627.30	26.018
627.63	27.564
627.96	28.175
628.29	27.297
628.62	28.179
628.95	27.358
629.28	26.277
629.61	26.856
629.94	27.333
630.26	24.881
