SpectraSuite Data File
++++++++++++++++++++++++++++++++++++
Date: Wed May 13 19:43:19 PDT 2015
User: schluterlab
Dark Spectrum Present: Yes
Reference Spectrum Present: Yes
Number of Sampled Component Spectra: 1
Spectrometers: USB2E3373
Integration Time (usec): 3000 (USB2E3373)
Spectra Averaged: 3 (USB2E3373)
Boxcar Smoothing: 0 (USB2E3373)
Correct for Electrical Dark: No (USB2E3373)
Strobe/Lamp Enabled: No (USB2E3373)
Correct for Detector Non-linearity: No (USB2E3373)
Correct for Stray Light: No (USB2E3373)
Number of Pixels in Processed Spectrum: 2048
>>>>>Begin Processed Spectral Data<<<<<
178.53	0.000
178.91	-1125.000
179.29	-1350.000
179.67	-222.222
180.04	-1375.000
180.42	2550.000
180.80	1020.000
181.18	-925.000
181.56	657.143
181.94	0.000
182.31	-585.714
182.69	1900.000
183.07	-537.500
183.45	-633.333
183.83	500.000
184.20	-430.000
184.58	2400.000
184.96	5200.000
185.34	-900.000
185.72	-650.000
186.09	-2350.000
186.47	3000.000
186.85	2650.000
187.23	4300.000
187.61	-1366.667
187.98	1425.000
188.36	545.455
188.74	418.182
189.12	-860.000
189.49	520.000
189.87	-4000.000
190.25	-1150.000
190.63	514.286
191.00	469.231
191.38	833.333
191.76	-1050.000
192.14	1400.000
192.51	675.000
192.89	983.333
193.27	562.500
193.65	-1525.000
194.02	510.000
194.40	940.000
194.78	510.000
195.15	458.333
195.53	720.000
195.91	-2600.000
196.29	387.500
196.66	331.579
197.04	-420.000
197.42	0.000
197.79	530.000
198.17	-5100.000
198.55	671.429
198.92	600.000
199.30	1120.000
199.68	0.000
200.05	361.111
200.43	714.286
200.81	3700.000
201.18	1366.667
201.56	-1633.333
201.94	500.000
202.31	622.222
202.69	458.333
203.07	590.000
203.44	0.000
203.82	1150.000
204.19	885.714
204.57	500.000
204.95	687.500
205.32	1633.333
205.70	545.455
206.08	350.000
206.45	2500.000
206.83	362.500
207.20	916.667
207.58	840.000
207.96	311.111
208.33	800.000
208.71	-883.333
209.08	871.429
209.46	566.667
209.84	536.364
210.21	-1400.000
210.59	1500.000
210.96	-500.000
211.34	2450.000
211.71	600.000
212.09	783.333
212.46	0.000
212.84	1533.333
213.22	1075.000
213.59	-3600.000
213.97	916.667
214.34	771.429
214.72	636.364
215.09	980.000
215.47	-2350.000
215.84	-2550.000
216.22	1600.000
216.59	414.286
216.97	1225.000
217.34	445.455
217.72	-700.000
218.09	0.000
218.47	-4900.000
218.84	588.889
219.22	742.857
219.59	1533.333
219.97	-628.571
220.34	960.000
220.72	-1800.000
221.09	357.143
221.47	1500.000
221.84	-1050.000
222.22	0.000
222.59	1175.000
222.97	-2700.000
223.34	1140.000
223.72	446.154
224.09	1280.000
224.46	2400.000
224.84	-5000.000
225.21	-960.000
225.59	-5900.000
225.96	670.000
226.34	330.000
226.71	2300.000
227.08	600.000
227.46	520.000
227.83	-1150.000
228.21	-2650.000
228.58	677.778
228.95	-2700.000
229.33	-2100.000
229.70	1400.000
230.08	828.571
230.45	-980.000
230.82	433.333
231.20	783.333
231.57	657.143
231.95	491.667
232.32	295.455
232.69	509.091
233.07	728.571
233.44	376.923
233.81	-1700.000
234.19	263.158
234.56	500.000
234.93	433.333
235.31	500.000
235.68	376.923
236.05	342.857
236.43	187.879
236.80	268.421
237.17	4900.000
237.55	200.000
237.92	207.143
238.29	295.238
238.67	170.968
239.04	258.621
239.41	155.556
239.79	121.739
240.16	161.905
240.53	122.727
240.91	101.961
241.28	124.000
241.65	128.000
242.02	92.754
242.40	101.613
242.77	91.667
243.14	81.720
243.51	97.753
243.89	91.765
244.26	78.889
244.63	69.892
245.00	85.106
245.38	68.317
245.75	66.355
246.12	68.807
246.49	66.423
246.87	66.400
247.24	70.000
247.61	62.143
247.98	60.784
248.36	58.108
248.73	55.414
249.10	63.057
249.47	54.802
249.84	50.267
250.22	52.941
250.59	55.030
250.96	54.040
251.33	55.924
251.70	53.465
252.08	50.000
252.45	48.879
252.82	48.261
253.19	54.043
253.56	42.353
253.94	50.207
254.31	45.703
254.68	44.231
255.05	42.435
255.42	46.748
255.79	44.118
256.16	43.682
256.54	42.049
256.91	42.705
257.28	40.647
257.65	40.924
258.02	43.168
258.39	42.271
258.76	45.485
259.14	39.881
259.51	41.337
259.88	39.130
260.25	42.900
260.62	39.884
260.99	40.683
261.36	39.339
261.73	38.109
262.10	38.372
262.47	39.437
262.85	40.111
263.22	37.322
263.59	41.311
263.96	36.264
264.33	35.509
264.70	39.737
265.07	38.107
265.44	37.879
265.81	34.307
266.18	38.442
266.55	37.805
266.92	38.821
267.29	36.111
267.66	36.239
268.03	38.636
268.40	35.981
268.77	34.606
269.14	36.036
269.51	37.246
269.88	36.830
270.25	36.795
270.62	35.281
270.99	39.355
271.36	35.622
271.73	34.813
272.10	33.696
272.47	37.204
272.84	35.931
273.21	36.059
273.58	35.808
273.95	32.285
274.32	32.645
274.69	36.617
275.06	32.283
275.43	37.234
275.80	30.461
276.17	34.420
276.54	34.719
276.91	34.387
277.28	34.180
277.65	32.882
278.02	31.263
278.39	35.352
278.76	31.091
279.13	32.453
279.50	34.823
279.87	32.271
280.23	32.934
280.60	33.849
280.97	32.902
281.34	30.796
281.71	32.182
282.08	34.933
282.45	32.182
282.82	32.682
283.19	31.551
283.56	30.702
283.92	33.164
284.29	30.159
284.66	31.397
285.03	32.007
285.40	31.338
285.77	29.630
286.14	30.052
286.51	30.167
286.87	30.940
287.24	30.782
287.61	30.016
287.98	31.169
288.35	28.526
288.72	28.505
289.08	29.108
289.45	29.654
289.82	31.057
290.19	28.100
290.56	29.250
290.93	27.644
291.29	27.914
291.66	28.171
292.03	28.779
292.40	29.956
292.77	28.698
293.13	29.254
293.50	27.405
293.87	28.000
294.24	26.815
294.60	26.929
294.97	24.855
295.34	27.927
295.71	26.562
296.08	25.214
296.44	26.272
296.81	25.231
297.18	25.745
297.55	24.142
297.91	24.011
298.28	26.640
298.65	27.285
299.02	26.746
299.38	23.904
299.75	24.394
300.12	22.350
300.48	23.375
300.85	24.291
301.22	24.076
301.59	23.485
301.95	24.559
302.32	24.262
302.69	23.297
303.05	23.515
303.42	24.568
303.79	23.556
304.15	23.310
304.52	22.480
304.89	23.693
305.25	23.318
305.62	24.462
305.99	23.967
306.35	23.937
306.72	22.646
307.09	23.751
307.45	23.198
307.82	22.098
308.19	24.062
308.55	23.948
308.92	22.127
309.29	22.492
309.65	23.754
310.02	22.939
310.38	23.118
310.75	23.126
311.12	23.644
311.48	23.615
311.85	23.899
312.22	24.246
312.58	24.948
312.95	25.871
313.31	23.689
313.68	24.116
314.05	25.345
314.41	23.819
314.78	26.183
315.14	25.223
315.51	25.232
315.87	26.832
316.24	25.720
316.61	24.366
316.97	26.223
317.34	25.832
317.70	27.629
318.07	28.104
318.43	27.299
318.80	28.772
319.16	28.060
319.53	28.236
319.89	29.810
320.26	29.700
320.62	28.770
320.99	30.909
321.35	30.909
321.72	31.930
322.08	32.280
322.45	32.239
322.81	32.171
323.18	33.237
323.54	33.766
323.91	33.019
324.27	33.174
324.64	33.458
325.00	33.904
325.37	35.123
325.73	36.176
326.10	35.569
326.46	37.186
326.83	37.964
327.19	36.977
327.56	37.195
327.92	38.408
328.29	38.776
328.65	39.871
329.01	37.996
329.38	39.870
329.74	40.074
330.11	39.491
330.47	40.220
330.84	41.085
331.20	40.346
331.56	40.183
331.93	41.296
332.29	40.195
332.66	41.150
333.02	40.859
333.38	40.108
333.75	41.800
334.11	40.391
334.48	41.083
334.84	40.625
335.20	41.000
335.57	40.707
335.93	41.071
336.29	40.659
336.66	41.208
337.02	40.271
337.38	41.296
337.75	40.731
338.11	39.391
338.47	40.884
338.84	40.880
339.20	40.367
339.56	41.423
339.93	39.545
340.29	42.029
340.65	40.107
341.02	40.925
341.38	42.438
341.74	40.439
342.11	40.262
342.47	40.881
342.83	41.182
343.20	41.818
343.56	39.174
343.92	40.965
344.28	40.306
344.65	42.304
345.01	40.404
345.37	39.880
345.73	40.186
346.10	40.665
346.46	40.254
346.82	39.456
347.19	39.014
347.55	38.752
347.91	39.725
348.27	41.002
348.63	39.799
349.00	40.049
349.36	40.722
349.72	40.978
350.08	40.276
350.45	40.521
350.81	40.536
351.17	41.329
351.53	39.640
351.89	39.026
352.26	39.700
352.62	40.577
352.98	40.194
353.34	40.838
353.70	40.180
354.07	39.597
354.43	39.444
354.79	40.708
355.15	41.022
355.51	40.368
355.87	40.490
356.24	40.472
356.60	39.936
356.96	40.225
357.32	41.047
357.68	39.528
358.04	41.330
358.40	39.826
358.77	41.393
359.13	40.805
359.49	40.392
359.85	39.524
360.21	41.148
360.57	40.467
360.93	41.231
361.29	41.421
361.66	40.712
362.02	41.716
362.38	41.369
362.74	40.699
363.10	41.081
363.46	41.526
363.82	41.270
364.18	41.263
364.54	43.016
364.90	41.643
365.26	40.882
365.62	43.901
365.98	41.125
366.35	40.903
366.71	42.010
367.07	42.316
367.43	42.888
367.79	42.541
368.15	43.966
368.51	43.605
368.87	43.398
369.23	43.087
369.59	43.519
369.95	42.721
370.31	43.020
370.67	42.174
371.03	44.644
371.39	44.096
371.75	43.456
372.11	43.670
372.47	43.915
372.83	44.308
373.19	42.847
373.55	45.011
373.91	45.066
374.27	44.055
374.63	44.364
374.99	45.904
375.35	43.545
375.71	42.975
376.07	44.513
376.42	45.117
376.78	45.063
377.14	45.387
377.50	45.695
377.86	44.215
378.22	46.523
378.58	45.238
378.94	45.380
379.30	46.120
379.66	45.876
380.02	47.420
380.38	45.294
380.74	46.158
381.09	47.372
381.45	47.757
381.81	46.990
382.17	47.516
382.53	47.358
382.89	47.593
383.25	47.717
383.61	49.009
383.97	48.155
384.32	47.598
384.68	47.831
385.04	48.310
385.40	48.235
385.76	48.894
386.12	48.575
386.48	49.780
386.83	51.058
387.19	51.082
387.55	50.711
387.91	49.758
388.27	50.337
388.62	50.338
388.98	50.737
389.34	52.065
389.70	51.073
390.06	51.458
390.42	51.362
390.77	51.718
391.13	51.946
391.49	52.475
391.85	51.369
392.20	51.483
392.56	53.725
392.92	52.678
393.28	51.775
393.64	52.518
393.99	52.169
394.35	52.543
394.71	52.321
395.07	53.022
395.42	53.461
395.78	54.071
396.14	53.321
396.50	54.010
396.85	54.355
397.21	53.083
397.57	54.495
397.92	54.447
398.28	54.821
398.64	54.898
399.00	54.337
399.35	54.146
399.71	54.803
400.07	56.298
400.42	55.276
400.78	56.031
401.14	56.402
401.49	57.075
401.85	56.745
402.21	56.048
402.57	57.002
402.92	57.755
403.28	57.277
403.63	57.364
403.99	59.108
404.35	58.121
404.70	56.235
405.06	56.960
405.42	58.453
405.77	57.657
406.13	57.506
406.49	58.782
406.84	58.535
407.20	59.279
407.55	60.179
407.91	60.333
408.27	61.008
408.62	58.880
408.98	59.681
409.34	59.963
409.69	61.161
410.05	61.152
410.40	61.284
410.76	62.007
411.11	60.615
411.47	61.150
411.83	61.576
412.18	61.101
412.54	61.644
412.89	60.602
413.25	60.626
413.60	63.064
413.96	60.291
414.31	61.118
414.67	62.484
415.03	63.046
415.38	63.209
415.74	63.023
416.09	64.533
416.45	63.922
416.80	64.243
417.16	64.343
417.51	64.366
417.87	64.355
418.22	64.416
418.58	64.622
418.93	64.373
419.29	64.418
419.64	66.058
420.00	64.695
420.35	66.029
420.71	64.614
421.06	65.155
421.42	65.263
421.77	64.910
422.12	65.020
422.48	65.084
422.83	67.094
423.19	65.083
423.54	66.802
423.90	66.377
424.25	65.941
424.61	65.952
424.96	66.531
425.31	66.777
425.67	65.056
426.02	66.343
426.38	68.254
426.73	66.881
427.09	66.748
427.44	66.245
427.79	67.108
428.15	67.798
428.50	66.764
428.85	68.474
429.21	67.642
429.56	67.444
429.92	66.633
430.27	66.981
430.62	67.588
430.98	66.788
431.33	66.340
431.68	67.330
432.04	66.400
432.39	68.418
432.74	69.060
433.10	68.647
433.45	68.805
433.80	68.182
434.16	69.071
434.51	68.105
434.86	68.244
435.22	69.150
435.57	69.301
435.92	68.929
436.28	70.878
436.63	69.095
436.98	69.548
437.34	69.350
437.69	69.953
438.04	69.309
438.39	69.731
438.75	69.553
439.10	69.609
439.45	68.713
439.81	69.305
440.16	69.565
440.51	69.947
440.86	69.658
441.22	70.412
441.57	69.692
441.92	68.782
442.27	70.183
442.63	70.195
442.98	70.817
443.33	69.457
443.68	69.592
444.03	70.278
444.39	68.841
444.74	69.048
445.09	69.326
445.44	68.562
445.79	68.976
446.15	68.131
446.50	68.659
446.85	69.630
447.20	69.403
447.55	70.296
447.91	69.333
448.26	69.839
448.61	69.531
448.96	69.048
449.31	70.472
449.66	69.443
450.02	69.081
450.37	69.274
450.72	69.769
451.07	69.653
451.42	68.875
451.77	69.759
452.12	69.053
452.47	69.216
452.83	69.814
453.18	68.399
453.53	70.996
453.88	69.876
454.23	69.456
454.58	70.866
454.93	70.884
455.28	69.950
455.63	69.903
455.98	71.250
456.34	70.163
456.69	70.695
457.04	69.721
457.39	70.134
457.74	68.950
458.09	69.638
458.44	68.358
458.79	67.625
459.14	69.695
459.49	69.060
459.84	67.424
460.19	68.297
460.54	66.204
460.89	68.075
461.24	70.674
461.59	68.042
461.94	67.078
462.29	70.030
462.64	70.389
462.99	69.031
463.34	69.000
463.69	69.418
464.04	68.928
464.39	67.536
464.74	67.677
465.09	67.551
465.44	68.476
465.79	66.611
466.14	67.816
466.49	66.741
466.84	68.710
467.19	67.049
467.54	68.250
467.89	67.047
468.24	66.085
468.59	68.254
468.94	66.891
469.29	68.573
469.64	69.277
469.99	70.162
470.34	69.881
470.68	69.756
471.03	69.116
471.38	70.535
471.73	69.154
472.08	70.197
472.43	68.781
472.78	68.729
473.13	67.972
473.48	69.101
473.83	69.756
474.17	67.953
474.52	69.169
474.87	69.644
475.22	66.512
475.57	67.114
475.92	68.986
476.27	67.587
476.61	69.002
476.96	68.829
477.31	67.138
477.66	67.888
478.01	66.231
478.36	69.011
478.70	67.809
479.05	67.891
479.40	68.782
479.75	67.412
480.10	67.197
480.45	66.778
480.79	67.941
481.14	67.515
481.49	67.774
481.84	66.850
482.19	68.741
482.53	68.119
482.88	67.892
483.23	67.523
483.58	66.470
483.92	68.041
484.27	64.967
484.62	67.328
484.97	67.127
485.31	66.301
485.66	65.143
486.01	62.786
486.36	61.344
486.70	61.292
487.05	62.427
487.40	63.943
487.75	64.348
488.09	64.756
488.44	65.610
488.79	67.848
489.13	67.380
489.48	66.843
489.83	66.767
490.17	68.479
490.52	68.113
490.87	67.797
491.22	68.622
491.56	67.472
491.91	68.125
492.26	67.616
492.60	67.281
492.95	67.119
493.30	67.430
493.64	69.109
493.99	67.317
494.34	67.854
494.68	67.674
495.03	68.327
495.37	67.334
495.72	69.591
496.07	68.770
496.41	66.593
496.76	66.799
497.11	67.807
497.45	68.840
497.80	67.946
498.14	67.681
498.49	68.878
498.84	67.258
499.18	68.381
499.53	68.091
499.87	68.360
500.22	67.452
500.56	69.951
500.91	68.558
501.26	68.184
501.60	69.530
501.95	67.599
502.29	68.885
502.64	68.250
502.98	67.602
503.33	67.824
503.67	68.306
504.02	68.382
504.36	67.337
504.71	69.712
505.06	68.627
505.40	68.206
505.75	67.261
506.09	67.881
506.44	68.772
506.78	68.242
507.13	69.006
507.47	67.828
507.82	68.541
508.16	69.149
508.51	69.863
508.85	68.818
509.19	70.357
509.54	67.908
509.88	69.243
510.23	69.460
510.57	70.382
510.92	70.223
511.26	69.836
511.61	70.176
511.95	68.319
512.30	69.989
512.64	70.661
512.98	69.132
513.33	70.182
513.67	68.997
514.02	69.426
514.36	70.672
514.70	70.504
515.05	70.162
515.39	70.780
515.74	70.946
516.08	70.430
516.42	70.644
516.77	70.792
517.11	70.533
517.46	69.865
517.80	72.125
518.14	71.280
518.49	73.454
518.83	71.534
519.17	70.612
519.52	70.968
519.86	71.249
520.20	72.659
520.55	73.070
520.89	73.662
521.23	72.979
521.58	71.969
521.92	72.198
522.26	71.568
522.61	72.399
522.95	72.130
523.29	71.516
523.64	73.293
523.98	72.766
524.32	71.834
524.66	72.099
525.01	71.569
525.35	72.739
525.69	70.690
526.04	71.963
526.38	73.154
526.72	70.061
527.06	74.074
527.41	70.792
527.75	73.698
528.09	74.181
528.43	72.530
528.78	72.833
529.12	72.061
529.46	72.811
529.80	72.463
530.15	72.648
530.49	71.138
530.83	73.608
531.17	76.175
531.51	75.940
531.86	73.161
532.20	73.533
532.54	72.518
532.88	73.877
533.22	71.955
533.57	71.543
533.91	70.620
534.25	71.871
534.59	72.727
534.93	71.029
535.27	71.334
535.62	72.527
535.96	73.258
536.30	71.583
536.64	72.505
536.98	73.524
537.32	72.416
537.66	73.600
538.01	73.009
538.35	72.980
538.69	73.070
539.03	71.345
539.37	72.652
539.71	71.873
540.05	72.288
540.39	72.691
540.73	72.316
541.07	73.524
541.42	73.255
541.76	72.000
542.10	71.281
542.44	72.649
542.78	72.991
543.12	69.738
543.46	71.934
543.80	72.609
544.14	71.309
544.48	72.127
544.82	72.033
545.16	70.852
545.50	71.594
545.84	71.438
546.18	73.064
546.52	72.333
546.86	72.715
547.20	71.746
547.54	69.739
547.88	71.492
548.22	69.427
548.56	70.440
548.90	70.807
549.24	71.650
549.58	71.487
549.92	72.047
550.26	72.159
550.60	71.093
550.94	71.197
551.28	71.470
551.62	72.322
551.96	72.772
552.30	71.741
552.64	72.279
552.98	71.525
553.32	70.600
553.66	71.370
554.00	71.380
554.34	71.291
554.68	71.745
555.02	72.003
555.36	72.443
555.69	69.553
556.03	70.592
556.37	71.214
556.71	69.986
557.05	71.919
557.39	71.099
557.73	72.265
558.07	73.024
558.41	71.852
558.75	72.153
559.08	71.887
559.42	73.696
559.76	71.324
560.10	71.021
560.44	68.903
560.78	69.794
561.12	70.251
561.45	69.035
561.79	68.556
562.13	69.953
562.47	68.784
562.81	70.711
563.15	69.498
563.48	69.164
563.82	70.581
564.16	68.672
564.50	68.229
564.84	68.963
565.17	69.627
565.51	68.882
565.85	68.401
566.19	68.190
566.52	69.538
566.86	67.330
567.20	68.396
567.54	67.580
567.88	67.409
568.21	67.566
568.55	65.319
568.89	66.732
569.23	65.062
569.56	63.927
569.90	63.132
570.24	63.509
570.57	62.904
570.91	60.827
571.25	61.334
571.59	61.532
571.92	60.772
572.26	61.554
572.60	60.811
572.93	60.840
573.27	60.988
573.61	61.083
573.95	60.646
574.28	59.824
574.62	59.767
574.96	59.331
575.29	59.166
575.63	59.527
575.97	59.568
576.30	59.772
576.64	59.666
576.98	59.042
577.31	58.965
577.65	59.978
577.98	58.866
578.32	58.042
578.66	58.218
578.99	59.324
579.33	59.283
579.67	58.185
580.00	58.691
580.34	59.018
580.67	58.402
581.01	59.208
581.35	59.133
581.68	58.415
582.02	57.793
582.35	57.848
582.69	58.025
583.02	58.506
583.36	59.004
583.70	59.316
584.03	59.613
584.37	60.132
584.70	60.266
585.04	58.439
585.37	58.364
585.71	58.647
586.04	58.734
586.38	59.535
586.72	59.569
587.05	59.413
587.39	58.470
587.72	59.263
588.06	59.152
588.39	58.875
588.73	59.812
589.06	60.237
589.40	59.630
589.73	60.507
590.07	59.075
590.40	59.956
590.73	61.475
591.07	61.376
591.40	60.776
591.74	62.597
592.07	60.777
592.41	60.066
592.74	59.513
593.08	58.961
593.41	58.557
593.75	57.714
594.08	59.403
594.41	59.915
594.75	59.445
595.08	59.377
595.42	59.650
595.75	59.687
596.09	60.308
596.42	61.139
596.75	60.321
597.09	61.472
597.42	59.401
597.75	58.818
598.09	60.043
598.42	59.450
598.76	58.127
599.09	58.533
599.42	56.623
599.76	59.261
600.09	57.705
600.42	56.830
600.76	57.321
601.09	57.632
601.42	58.524
601.76	58.292
602.09	59.486
602.42	58.997
602.76	59.331
603.09	57.868
603.42	59.508
603.76	58.841
604.09	58.240
604.42	59.356
604.76	60.059
605.09	59.021
605.42	58.316
605.75	58.609
606.09	59.496
606.42	58.562
606.75	57.528
607.09	57.514
607.42	58.579
607.75	57.131
608.08	57.838
608.42	59.211
608.75	58.431
609.08	58.279
609.41	57.496
609.75	58.409
610.08	58.671
610.41	57.728
610.74	59.461
611.07	59.980
611.41	59.028
611.74	58.773
612.07	59.627
612.40	60.283
612.73	58.368
613.07	59.375
613.40	58.926
613.73	57.682
614.06	58.333
614.39	58.679
614.72	58.316
615.06	57.458
615.39	58.439
615.72	57.464
616.05	57.469
616.38	59.422
616.71	58.729
617.05	60.071
617.38	59.411
617.71	59.580
618.04	60.998
618.37	58.131
618.70	60.485
619.03	60.263
619.36	60.081
619.69	61.268
620.03	60.577
620.36	60.294
620.69	61.096
621.02	60.546
621.35	62.569
621.68	60.358
622.01	60.991
622.34	60.287
622.67	60.380
623.00	60.382
623.33	59.543
623.66	60.257
623.99	59.573
624.32	59.272
624.65	58.969
624.99	59.773
625.32	59.450
625.65	62.585
625.98	61.337
626.31	59.953
626.64	61.714
626.97	61.264
627.30	62.344
627.63	61.608
627.96	62.489
628.29	62.117
628.62	63.769
628.95	63.679
629.28	61.953
629.61	61.595
629.94	64.952
630.26	61.582
630.59	61.868
630.92	61.877
