SpectraSuite Data File
++++++++++++++++++++++++++++++++++++
Date: Wed May 13 19:53:04 PDT 2015
User: schluterlab
Dark Spectrum Present: Yes
Reference Spectrum Present: Yes
Number of Sampled Component Spectra: 1
Spectrometers: USB2E3373
Integration Time (usec): 3000 (USB2E3373)
Spectra Averaged: 3 (USB2E3373)
Boxcar Smoothing: 0 (USB2E3373)
Correct for Electrical Dark: No (USB2E3373)
Strobe/Lamp Enabled: No (USB2E3373)
Correct for Detector Non-linearity: No (USB2E3373)
Correct for Stray Light: No (USB2E3373)
Number of Pixels in Processed Spectrum: 2048
>>>>>Begin Processed Spectral Data<<<<<
178.53	0.000
178.91	-1400.000
179.29	-1325.000
179.67	-216.667
180.04	-1425.000
180.42	2500.000
180.80	1140.000
181.18	-1150.000
181.56	628.571
181.94	0.000
182.31	-657.143
182.69	2100.000
183.07	-662.500
183.45	-600.000
183.83	554.545
184.20	-430.000
184.58	2250.000
184.96	5600.000
185.34	-840.000
185.72	-687.500
186.09	-2200.000
186.47	2800.000
186.85	2900.000
187.23	6000.000
187.61	-1766.667
187.98	1325.000
188.36	590.909
188.74	472.727
189.12	-980.000
189.49	720.000
189.87	-5600.000
190.25	-1450.000
190.63	385.714
191.00	492.308
191.38	800.000
191.76	-1225.000
192.14	1575.000
192.51	700.000
192.89	950.000
193.27	725.000
193.65	-1425.000
194.02	500.000
194.40	1260.000
194.78	560.000
195.15	475.000
195.53	710.000
195.91	-1900.000
196.29	387.500
196.66	326.316
197.04	-360.000
197.42	0.000
197.79	640.000
198.17	-5200.000
198.55	728.571
198.92	687.500
199.30	940.000
199.68	0.000
200.05	366.667
200.43	842.857
200.81	4700.000
201.18	1500.000
201.56	-1633.333
201.94	555.556
202.31	733.333
202.69	450.000
203.07	540.000
203.44	0.000
203.82	1475.000
204.19	942.857
204.57	378.571
204.95	787.500
205.32	1533.333
205.70	609.091
206.08	521.429
206.45	2950.000
206.83	418.750
207.20	1083.333
207.58	780.000
207.96	338.889
208.33	687.500
208.71	-966.667
209.08	871.429
209.46	611.111
209.84	472.727
210.21	-1600.000
210.59	1425.000
210.96	-637.500
211.34	2750.000
211.71	620.000
212.09	916.667
212.46	0.000
212.84	1566.667
213.22	1275.000
213.59	-5000.000
213.97	833.333
214.34	885.714
214.72	572.727
215.09	1000.000
215.47	-2650.000
215.84	-2700.000
216.22	1933.333
216.59	435.714
216.97	1375.000
217.34	527.273
217.72	-866.667
218.09	0.000
218.47	-4900.000
218.84	722.222
219.22	928.571
219.59	1766.667
219.97	-657.143
220.34	1020.000
220.72	-1866.667
221.09	435.714
221.47	1325.000
221.84	-1033.333
222.22	0.000
222.59	1325.000
222.97	-2650.000
223.34	1220.000
223.72	376.923
224.09	1320.000
224.46	2450.000
224.84	-6400.000
225.21	-1020.000
225.59	-5400.000
225.96	620.000
226.34	330.000
226.71	3100.000
227.08	687.500
227.46	490.000
227.83	-1175.000
228.21	-2750.000
228.58	688.889
228.95	-2850.000
229.33	-2750.000
229.70	1833.333
230.08	871.429
230.45	-960.000
230.82	475.000
231.20	833.333
231.57	771.429
231.95	525.000
232.32	213.636
232.69	427.273
233.07	842.857
233.44	392.308
233.81	-1966.667
234.19	378.947
234.56	483.333
234.93	400.000
235.31	463.636
235.68	500.000
236.05	414.286
236.43	172.727
236.80	321.053
237.17	5700.000
237.55	271.429
237.92	235.714
238.29	295.238
238.67	216.129
239.04	231.034
239.41	188.889
239.79	143.478
240.16	164.286
240.53	177.273
240.91	125.490
241.28	142.000
241.65	152.000
242.02	124.638
242.40	119.355
242.77	128.333
243.14	110.753
243.51	102.247
243.89	105.882
244.26	97.778
244.63	107.527
245.00	96.809
245.38	101.980
245.75	89.720
246.12	89.908
246.49	95.620
246.87	95.200
247.24	86.923
247.61	79.286
247.98	89.542
248.36	73.649
248.73	78.981
249.10	81.529
249.47	71.751
249.84	74.332
250.22	72.727
250.59	76.923
250.96	71.212
251.33	73.934
251.70	72.772
252.08	68.571
252.45	65.471
252.82	65.217
253.19	70.213
253.56	63.137
253.94	68.050
254.31	61.719
254.68	66.154
255.05	66.052
255.42	65.854
255.79	64.338
256.16	65.343
256.54	67.138
256.91	64.057
257.28	61.151
257.65	56.766
258.02	61.801
258.39	59.306
258.76	61.538
259.14	56.845
259.51	58.663
259.88	57.453
260.25	60.121
260.62	58.960
260.99	58.696
261.36	60.661
261.73	60.745
262.10	58.140
262.47	58.028
262.85	57.382
263.22	58.974
263.59	58.689
263.96	56.044
264.33	57.702
264.70	57.895
265.07	57.545
265.44	55.808
265.81	55.718
266.18	57.035
266.55	55.122
266.92	55.037
267.29	57.176
267.66	51.606
268.03	55.682
268.40	54.907
268.77	57.041
269.14	52.252
269.51	53.725
269.88	57.343
270.25	53.273
270.62	51.461
270.99	53.548
271.36	54.936
271.73	53.037
272.10	56.087
272.47	55.269
272.84	57.143
273.21	52.621
273.58	48.908
273.95	51.572
274.32	51.446
274.69	51.392
275.06	53.346
275.43	53.830
275.80	51.503
276.17	53.768
276.54	53.638
276.91	51.779
277.28	53.125
277.65	51.644
278.02	53.209
278.39	53.711
278.76	47.091
279.13	53.019
279.50	49.721
279.87	51.594
280.23	52.695
280.60	52.418
280.97	51.386
281.34	51.681
281.71	50.545
282.08	53.167
282.45	49.818
282.82	49.556
283.19	50.446
283.56	49.825
283.92	51.269
284.29	49.559
284.66	51.361
285.03	47.740
285.40	49.472
285.77	48.990
286.14	49.741
286.51	46.833
286.87	48.547
287.24	48.046
287.61	45.586
287.98	47.403
288.35	46.751
288.72	47.508
289.08	45.540
289.45	46.623
289.82	47.154
290.19	45.526
290.56	44.257
290.93	43.807
291.29	47.086
291.66	44.985
292.03	46.076
292.40	45.081
292.77	43.787
293.13	42.388
293.50	44.898
293.87	43.407
294.24	41.926
294.60	40.902
294.97	41.715
295.34	42.172
295.71	42.898
296.08	41.311
296.44	41.541
296.81	40.819
297.18	43.902
297.55	37.863
297.91	40.501
298.28	41.098
298.65	40.731
299.02	40.184
299.38	40.372
299.75	39.084
300.12	39.336
300.48	39.375
300.85	36.868
301.22	38.089
301.59	37.247
301.95	37.783
302.32	38.511
302.69	36.440
303.05	36.970
303.42	37.037
303.79	38.958
304.15	35.781
304.52	37.080
304.89	36.585
305.25	37.819
305.62	36.920
305.99	39.787
306.35	36.465
306.72	38.117
307.09	39.179
307.45	38.401
307.82	34.933
308.19	38.742
308.55	37.648
308.92	37.164
309.29	36.959
309.65	37.010
310.02	36.786
310.38	38.065
310.75	38.015
311.12	37.666
311.48	36.573
311.85	38.784
312.22	37.461
312.58	37.006
312.95	38.860
313.31	37.476
313.68	38.773
314.05	40.039
314.41	38.995
314.78	40.584
315.14	39.225
315.51	40.474
315.87	40.990
316.24	39.126
316.61	39.084
316.97	40.020
317.34	40.998
317.70	41.300
318.07	42.541
318.43	42.955
318.80	41.050
319.16	43.126
319.53	41.276
319.89	43.714
320.26	43.900
320.62	43.948
320.99	43.636
321.35	44.343
321.72	44.456
322.08	45.607
322.45	47.562
322.81	47.093
323.18	47.592
323.54	46.568
323.91	48.868
324.27	49.426
324.64	48.649
325.00	49.324
325.37	50.955
325.73	50.987
326.10	50.044
326.46	50.717
326.83	51.079
327.19	51.836
327.56	52.613
327.92	53.631
328.29	54.392
328.65	55.249
329.01	52.888
329.38	53.284
329.74	54.017
330.11	55.702
330.47	56.198
330.84	54.963
331.20	55.282
331.56	55.229
331.93	55.370
332.29	54.747
332.66	56.106
333.02	56.947
333.38	56.007
333.75	55.882
334.11	55.872
334.48	55.191
334.84	56.893
335.20	55.727
335.57	56.210
335.93	55.446
336.29	56.136
336.66	57.619
337.02	55.385
337.38	57.037
337.75	55.080
338.11	56.222
338.47	59.024
338.84	57.012
339.20	57.523
339.56	57.208
339.93	58.091
340.29	57.337
340.65	56.239
341.02	56.457
341.38	57.740
341.74	57.281
342.11	56.419
342.47	57.181
342.83	56.935
343.20	57.143
343.56	55.855
343.92	57.368
344.28	56.973
344.65	58.212
345.01	55.135
345.37	55.660
345.73	54.738
346.10	55.925
346.46	55.085
346.82	55.848
347.19	55.556
347.55	55.172
347.91	56.311
348.27	56.532
348.63	56.020
349.00	56.392
349.36	56.732
349.72	53.649
350.08	54.619
350.45	56.550
350.81	55.890
351.17	54.214
351.53	55.938
351.89	53.465
352.26	55.091
352.62	55.814
352.98	54.052
353.34	57.272
353.70	54.828
354.07	55.726
354.43	53.810
354.79	53.258
355.15	53.551
355.51	55.875
355.87	55.918
356.24	54.560
356.60	53.889
356.96	55.270
357.32	53.639
357.68	55.827
358.04	52.652
358.40	54.949
358.77	55.008
359.13	52.328
359.49	53.569
359.85	52.698
360.21	53.907
360.57	54.397
360.93	55.000
361.29	53.590
361.66	52.554
362.02	53.955
362.38	53.992
362.74	54.390
363.10	53.220
363.46	52.825
363.82	53.968
364.18	52.203
364.54	54.012
364.90	53.683
365.26	54.118
365.62	53.470
365.98	53.397
366.35	53.940
366.71	53.001
367.07	54.698
367.43	54.427
367.79	53.462
368.15	54.454
368.51	53.052
368.87	51.677
369.23	53.255
369.59	53.440
369.95	51.912
370.31	52.920
370.67	52.391
371.03	53.483
371.39	53.280
371.75	54.706
372.11	51.494
372.47	53.152
372.83	53.746
373.19	51.445
373.55	53.954
373.91	54.271
374.27	50.790
374.63	52.364
374.99	52.542
375.35	51.361
375.71	52.159
376.07	52.469
376.42	53.370
376.78	51.226
377.14	51.764
377.50	52.980
377.86	52.194
378.22	51.707
378.58	51.253
378.94	51.728
379.30	51.336
379.66	51.332
380.02	51.351
380.38	49.848
380.74	51.501
381.09	52.078
381.45	51.875
381.81	50.799
382.17	51.146
382.53	50.755
382.89	52.778
383.25	50.719
383.61	52.788
383.97	51.782
384.32	50.593
384.68	50.372
385.04	50.154
385.40	50.093
385.76	50.123
386.12	51.231
386.48	49.654
386.83	52.085
387.19	50.649
387.55	49.907
387.91	50.121
388.27	50.399
388.62	49.785
388.98	50.369
389.34	50.501
389.70	50.460
390.06	51.458
390.42	49.351
390.77	50.891
391.13	51.181
391.49	50.635
391.85	49.777
392.20	49.148
392.56	49.432
392.92	50.029
393.28	49.645
393.64	49.221
393.99	48.564
394.35	50.062
394.71	49.435
395.07	48.910
395.42	50.000
395.78	50.636
396.14	48.541
396.50	49.875
396.85	49.968
397.21	49.199
397.57	49.969
397.92	48.618
398.28	48.430
398.64	49.044
399.00	48.629
399.35	47.998
399.71	48.264
400.07	49.616
400.42	48.773
400.78	48.854
401.14	48.293
401.49	48.358
401.85	48.215
402.21	47.305
402.57	48.674
402.92	47.856
403.28	49.844
403.63	48.205
403.99	48.535
404.35	48.061
404.70	47.482
405.06	47.525
405.42	49.220
405.77	47.771
406.13	46.953
406.49	47.723
406.84	46.781
407.20	47.577
407.55	48.054
407.91	48.467
408.27	47.862
408.62	46.237
408.98	45.772
409.34	46.679
409.69	48.065
410.05	47.398
410.40	46.728
410.76	46.655
411.11	46.321
411.47	46.581
411.83	47.343
412.18	47.681
412.54	47.073
412.89	45.904
413.25	45.750
413.60	46.819
413.96	45.416
414.31	46.112
414.67	46.008
415.03	46.556
415.38	45.876
415.74	46.624
416.09	46.571
416.45	47.992
416.80	46.530
417.16	46.716
417.51	46.516
417.87	45.215
418.22	44.921
418.58	46.094
418.93	46.192
419.29	46.022
419.64	45.907
420.00	46.098
420.35	45.217
420.71	45.726
421.06	44.391
421.42	45.789
421.77	45.404
422.12	44.301
422.48	44.630
422.83	45.778
423.19	44.917
423.54	45.908
423.90	44.580
424.25	44.500
424.61	44.821
424.96	44.548
425.31	43.245
425.67	44.382
426.02	43.771
426.38	43.895
426.73	44.939
427.09	43.587
427.44	44.623
427.79	43.531
428.15	44.583
428.50	44.705
428.85	44.934
429.21	43.898
429.56	43.650
429.92	43.181
430.27	43.446
430.62	43.062
430.98	43.643
431.33	43.196
431.68	44.346
432.04	43.131
432.39	43.461
432.74	44.165
433.10	44.086
433.45	43.090
433.80	43.736
434.16	43.697
434.51	42.684
434.86	43.729
435.22	42.690
435.57	44.195
435.92	42.539
436.28	43.772
436.63	44.205
436.98	42.473
437.34	44.544
437.69	43.699
438.04	43.901
438.39	42.507
438.75	43.986
439.10	42.123
439.45	43.566
439.81	42.719
440.16	41.446
440.51	42.589
440.86	43.312
441.22	43.826
441.57	42.516
441.92	44.012
442.27	42.680
442.63	41.390
442.98	42.592
443.33	42.446
443.68	41.507
444.03	42.118
444.39	41.675
444.74	42.316
445.09	42.264
445.44	42.209
445.79	42.652
446.15	42.350
446.50	42.326
446.85	42.497
447.20	42.121
447.55	43.104
447.91	41.975
448.26	43.016
448.61	42.849
448.96	42.857
449.31	43.870
449.66	42.262
450.02	42.173
450.37	42.574
450.72	41.963
451.07	42.718
451.42	41.033
451.77	41.456
452.12	41.397
452.47	43.035
452.83	42.191
453.18	42.054
453.53	42.177
453.88	42.174
454.23	41.363
454.58	41.793
454.93	43.420
455.28	40.274
455.63	41.383
455.98	43.274
456.34	41.709
456.69	42.455
457.04	41.734
457.39	41.146
457.74	42.252
458.09	40.713
458.44	41.277
458.79	40.835
459.14	41.366
459.49	40.981
459.84	40.332
460.19	40.778
460.54	40.451
460.89	41.086
461.24	41.409
461.59	42.243
461.94	40.506
462.29	40.831
462.64	40.459
462.99	40.143
463.34	41.267
463.69	41.338
464.04	41.391
464.39	39.884
464.74	40.998
465.09	40.531
465.44	39.945
465.79	39.262
466.14	40.722
466.49	40.823
466.84	40.572
467.19	40.072
467.54	40.938
467.89	39.436
468.24	39.791
468.59	40.720
468.94	39.524
469.29	40.360
469.64	40.361
469.99	41.543
470.34	40.423
470.68	40.948
471.03	40.952
471.38	41.696
471.73	40.040
472.08	39.474
472.43	39.824
472.78	39.961
473.13	40.757
473.48	39.388
473.83	39.756
474.17	39.452
474.52	40.074
474.87	39.813
475.22	39.756
475.57	38.313
475.92	38.927
476.27	38.782
476.61	39.768
476.96	39.417
477.31	38.514
477.66	40.044
478.01	38.421
478.36	39.186
478.70	38.370
479.05	38.285
479.40	39.048
479.75	39.807
480.10	39.513
480.45	38.601
480.79	38.127
481.14	38.258
481.49	38.253
481.84	38.134
482.19	38.028
482.53	37.890
482.88	38.157
483.23	37.897
483.58	37.580
483.92	38.379
484.27	37.429
484.62	38.060
484.97	37.130
485.31	37.842
485.66	36.308
486.01	35.298
486.36	34.064
486.70	34.004
487.05	34.889
487.40	36.006
487.75	36.117
488.09	36.488
488.44	36.157
488.79	37.432
489.13	37.853
489.48	36.746
489.83	36.685
490.17	38.229
490.52	36.980
490.87	36.906
491.22	36.926
491.56	36.128
491.91	37.087
492.26	36.426
492.60	37.281
492.95	36.296
493.30	36.495
493.64	37.517
493.99	36.212
494.34	36.725
494.68	37.271
495.03	37.641
495.37	36.482
495.72	37.086
496.07	36.798
496.41	36.195
496.76	36.456
497.11	36.110
497.45	36.516
497.80	36.324
498.14	36.232
498.49	36.146
498.84	36.865
499.18	36.143
499.53	36.705
499.87	36.440
500.22	36.222
500.56	37.233
500.91	35.962
501.26	36.890
501.60	37.447
501.95	35.289
502.29	36.504
502.64	36.778
502.98	37.027
503.33	35.420
503.67	36.195
504.02	35.033
504.36	35.704
504.71	36.492
505.06	35.904
505.40	35.489
505.75	35.583
506.09	36.103
506.44	36.458
506.78	35.509
507.13	36.648
507.47	37.424
507.82	36.272
508.16	36.727
508.51	36.327
508.85	35.055
509.19	35.867
509.54	35.204
509.88	35.188
510.23	36.041
510.57	36.739
510.92	36.302
511.26	35.766
511.61	35.944
511.95	34.916
512.30	34.995
512.64	36.002
512.98	36.710
513.33	35.974
513.67	35.432
514.02	35.011
514.36	36.046
514.70	36.303
515.05	35.248
515.39	36.455
515.74	35.698
516.08	35.830
516.42	36.404
516.77	36.566
517.11	35.128
517.46	36.625
517.80	36.353
518.14	35.206
518.49	36.698
518.83	35.739
519.17	35.681
519.52	35.371
519.86	35.767
520.20	35.954
520.55	35.787
520.89	36.071
521.23	36.128
521.58	36.014
521.92	34.905
522.26	35.570
522.61	36.822
522.95	34.131
523.29	35.180
523.64	35.549
523.98	36.044
524.32	35.947
524.66	35.959
525.01	35.233
525.35	36.121
525.69	34.975
526.04	35.078
526.38	35.143
526.72	35.153
527.06	35.279
527.41	34.468
527.75	36.656
528.09	35.902
528.43	35.692
528.78	35.403
529.12	34.364
529.46	35.211
529.80	35.025
530.15	35.763
530.49	34.277
530.83	34.937
531.17	36.031
531.51	35.733
531.86	35.484
532.20	36.245
532.54	35.234
532.88	35.687
533.22	34.728
533.57	34.630
533.91	34.557
534.25	34.629
534.59	33.801
534.93	33.849
535.27	35.305
535.62	34.860
535.96	34.338
536.30	34.838
536.64	35.673
536.98	35.700
537.32	34.628
537.66	35.267
538.01	35.616
538.35	35.617
538.69	35.546
539.03	33.788
539.37	33.355
539.71	33.117
540.05	34.967
540.39	35.083
540.73	34.023
541.07	34.912
541.42	35.290
541.76	35.742
542.10	34.799
542.44	34.901
542.78	35.112
543.12	33.717
543.46	34.361
543.80	34.157
544.14	34.339
544.48	34.413
544.82	33.740
545.16	33.637
545.50	34.897
545.84	34.879
546.18	34.882
546.52	34.618
546.86	34.845
547.20	34.322
547.54	34.937
547.88	35.140
548.22	33.935
548.56	34.403
548.90	33.739
549.24	33.872
549.58	34.175
549.92	33.860
550.26	34.446
550.60	34.025
550.94	34.085
551.28	33.211
551.62	35.011
551.96	34.316
552.30	34.608
552.64	34.145
552.98	34.169
553.32	33.446
553.66	33.947
554.00	34.317
554.34	33.471
554.68	34.192
555.02	33.357
555.36	33.333
555.69	32.476
556.03	32.369
556.37	34.652
556.71	33.561
557.05	33.403
557.39	33.030
557.73	33.310
558.07	34.518
558.41	33.575
558.75	33.725
559.08	34.974
559.42	34.921
559.76	34.559
560.10	33.690
560.44	34.102
560.78	32.269
561.12	32.718
561.45	33.703
561.79	33.421
562.13	32.126
562.47	33.538
562.81	33.891
563.15	33.311
563.48	33.090
563.82	33.594
564.16	32.832
564.50	32.878
564.84	32.364
565.17	32.111
565.51	33.291
565.85	33.629
566.19	32.561
566.52	32.552
566.86	32.851
567.20	34.080
567.54	33.105
567.88	31.559
568.21	32.487
568.55	31.850
568.89	32.490
569.23	31.462
569.56	30.445
569.90	31.208
570.24	30.714
570.57	30.568
570.91	29.767
571.25	29.741
571.59	30.015
571.92	30.184
572.26	30.069
572.60	30.180
572.93	29.475
573.27	30.671
573.61	29.816
573.95	30.465
574.28	29.799
574.62	29.422
574.96	28.937
575.29	29.680
575.63	29.649
575.97	29.654
576.30	30.138
576.64	29.492
576.98	29.485
577.31	29.251
577.65	29.403
577.98	29.192
578.32	28.932
578.66	29.078
578.99	29.559
579.33	29.678
579.67	29.117
580.00	29.369
580.34	30.019
580.67	30.158
581.01	29.413
581.35	29.311
581.68	29.440
582.02	28.389
582.35	29.024
582.69	28.444
583.02	29.316
583.36	29.467
583.70	29.446
584.03	29.963
584.37	30.066
584.70	29.911
585.04	29.330
585.37	29.264
585.71	29.629
586.04	29.113
586.38	29.963
586.72	30.075
587.05	29.394
587.39	29.050
587.72	29.065
588.06	29.482
588.39	29.465
588.73	29.715
589.06	30.508
589.40	29.663
589.73	30.729
590.07	30.285
590.40	29.996
590.73	30.055
591.07	30.973
591.40	30.831
591.74	30.823
592.07	30.105
592.41	30.384
592.74	29.775
593.08	29.414
593.41	29.864
593.75	29.138
594.08	29.232
594.41	29.869
594.75	29.945
595.08	29.098
595.42	30.578
595.75	30.235
596.09	29.478
596.42	30.530
596.75	30.224
597.09	30.909
597.42	28.752
597.75	29.927
598.09	30.391
598.42	30.112
598.76	29.185
599.09	29.228
599.42	29.767
599.76	29.649
600.09	29.581
600.42	28.853
600.76	28.821
601.09	30.018
601.42	28.919
601.76	29.146
602.09	29.921
602.42	29.737
602.76	30.391
603.09	29.740
603.42	29.949
603.76	29.345
604.09	28.848
604.42	29.841
604.76	29.313
605.09	29.270
605.42	29.585
605.75	30.339
606.09	29.728
606.42	29.465
606.75	29.863
607.09	29.594
607.42	30.039
607.75	28.608
608.08	29.483
608.42	29.942
608.75	29.080
609.08	30.065
609.41	29.034
609.75	30.014
610.08	29.595
610.41	29.330
610.74	30.416
611.07	30.731
611.41	30.128
611.74	30.769
612.07	31.366
612.40	30.902
612.73	29.895
613.07	30.119
613.40	29.805
613.73	29.575
614.06	30.269
614.39	29.995
614.72	30.632
615.06	29.569
615.39	29.459
615.72	29.755
616.05	29.931
616.38	30.628
616.71	30.641
617.05	30.683
617.38	30.607
617.71	31.411
618.04	30.589
618.37	30.396
618.70	30.554
619.03	30.329
619.36	30.821
619.69	31.127
620.03	31.731
620.36	30.949
620.69	31.507
621.02	32.153
621.35	30.697
621.68	31.854
622.01	30.882
622.34	30.635
622.67	32.319
623.00	30.521
623.33	31.022
623.66	31.594
623.99	30.265
624.32	30.813
624.65	30.650
624.99	31.161
625.32	30.268
625.65	31.405
625.98	31.284
626.31	31.182
626.64	31.837
626.97	31.588
627.30	32.253
627.63	31.911
627.96	30.950
628.29	31.409
628.62	31.656
628.95	32.642
629.28	32.208
629.61	33.456
629.94	34.000
630.26	32.984
630.59	31.268
