SpectraSuite Data File
++++++++++++++++++++++++++++++++++++
Date: Wed May 13 19:15:40 PDT 2015
User: schluterlab
Dark Spectrum Present: Yes
Reference Spectrum Present: Yes
Number of Sampled Component Spectra: 1
Spectrometers: USB2E3373
Integration Time (usec): 3000 (USB2E3373)
Spectra Averaged: 3 (USB2E3373)
Boxcar Smoothing: 0 (USB2E3373)
Correct for Electrical Dark: No (USB2E3373)
Strobe/Lamp Enabled: No (USB2E3373)
Correct for Detector Non-linearity: No (USB2E3373)
Correct for Stray Light: No (USB2E3373)
Number of Pixels in Processed Spectrum: 2048
>>>>>Begin Processed Spectral Data<<<<<
178.53	0.000
178.91	-1350.000
179.29	-1275.000
179.67	-211.111
180.04	-1375.000
180.42	2500.000
180.80	1240.000
181.18	-1275.000
181.56	757.143
181.94	0.000
182.31	-685.714
182.69	1966.667
183.07	-625.000
183.45	-666.667
183.83	572.727
184.20	-310.000
184.58	2400.000
184.96	5600.000
185.34	-900.000
185.72	-625.000
186.09	-2800.000
186.47	2900.000
186.85	2500.000
187.23	5600.000
187.61	-2100.000
187.98	1450.000
188.36	663.636
188.74	554.545
189.12	-1140.000
189.49	660.000
189.87	-5900.000
190.25	-1500.000
190.63	450.000
191.00	553.846
191.38	916.667
191.76	-1525.000
192.14	1575.000
192.51	737.500
192.89	1100.000
193.27	612.500
193.65	-1300.000
194.02	600.000
194.40	900.000
194.78	610.000
195.15	575.000
195.53	750.000
195.91	-1950.000
196.29	393.750
196.66	342.105
197.04	-450.000
197.42	0.000
197.79	660.000
198.17	-5400.000
198.55	800.000
198.92	700.000
199.30	1060.000
199.68	0.000
200.05	350.000
200.43	800.000
200.81	5600.000
201.18	1766.667
201.56	-1366.667
201.94	600.000
202.31	744.444
202.69	475.000
203.07	560.000
203.44	0.000
203.82	1250.000
204.19	885.714
204.57	521.429
204.95	750.000
205.32	2233.333
205.70	627.273
206.08	400.000
206.45	2950.000
206.83	468.750
207.20	1000.000
207.58	740.000
207.96	377.778
208.33	875.000
208.71	-966.667
209.08	900.000
209.46	744.444
209.84	554.545
210.21	-1533.333
210.59	1450.000
210.96	-562.500
211.34	3000.000
211.71	620.000
212.09	916.667
212.46	0.000
212.84	1933.333
213.22	1750.000
213.59	-5200.000
213.97	933.333
214.34	885.714
214.72	672.727
215.09	1180.000
215.47	-2900.000
215.84	-2600.000
216.22	1933.333
216.59	478.571
216.97	1575.000
217.34	518.182
217.72	-900.000
218.09	0.000
218.47	-5400.000
218.84	688.889
219.22	757.143
219.59	1800.000
219.97	-528.571
220.34	1220.000
220.72	-1866.667
221.09	414.286
221.47	1650.000
221.84	-983.333
222.22	0.000
222.59	1725.000
222.97	-3100.000
223.34	1540.000
223.72	446.154
224.09	1140.000
224.46	2550.000
224.84	-6300.000
225.21	-1240.000
225.59	-4300.000
225.96	720.000
226.34	335.000
226.71	3250.000
227.08	712.500
227.46	530.000
227.83	-1200.000
228.21	-2650.000
228.58	666.667
228.95	-3250.000
229.33	-2450.000
229.70	1900.000
230.08	957.143
230.45	-940.000
230.82	500.000
231.20	966.667
231.57	785.714
231.95	575.000
232.32	286.364
232.69	490.909
233.07	885.714
233.44	407.692
233.81	-1633.333
234.19	357.895
234.56	525.000
234.93	525.000
235.31	481.818
235.68	400.000
236.05	450.000
236.43	215.152
236.80	321.053
237.17	6100.000
237.55	314.286
237.92	260.714
238.29	266.667
238.67	203.226
239.04	248.276
239.41	191.667
239.79	156.522
240.16	176.190
240.53	150.000
240.91	149.020
241.28	150.000
241.65	142.000
242.02	121.739
242.40	112.903
242.77	131.667
243.14	98.925
243.51	108.989
243.89	94.118
244.26	96.667
244.63	83.871
245.00	84.043
245.38	95.050
245.75	91.589
246.12	88.073
246.49	84.672
246.87	89.600
247.24	80.000
247.61	80.714
247.98	71.895
248.36	74.324
248.73	73.248
249.10	80.892
249.47	62.147
249.84	65.775
250.22	59.358
250.59	74.556
250.96	66.162
251.33	67.773
251.70	67.822
252.08	66.667
252.45	60.538
252.82	59.565
253.19	62.553
253.56	62.745
253.94	60.996
254.31	59.766
254.68	62.308
255.05	58.672
255.42	62.195
255.79	54.779
256.16	55.596
256.54	53.004
256.91	59.786
257.28	55.755
257.65	51.155
258.02	56.832
258.39	53.628
258.76	53.177
259.14	54.464
259.51	55.015
259.88	51.863
260.25	51.662
260.62	52.601
260.99	50.932
261.36	53.453
261.73	50.143
262.10	54.651
262.47	54.085
262.85	53.203
263.22	47.578
263.59	51.567
263.96	48.352
264.33	48.303
264.70	51.053
265.07	48.849
265.44	49.242
265.81	46.959
266.18	49.497
266.55	47.561
266.92	51.106
267.29	50.694
267.66	48.624
268.03	48.864
268.40	46.729
268.77	45.585
269.14	49.099
269.51	46.953
269.88	48.485
270.25	48.307
270.62	48.764
270.99	50.108
271.36	49.571
271.73	47.664
272.10	49.348
272.47	46.882
272.84	47.835
273.21	47.799
273.58	45.415
273.95	44.864
274.32	43.388
274.69	49.893
275.06	47.441
275.43	47.021
275.80	46.894
276.17	45.010
276.54	47.401
276.91	46.640
277.28	46.094
277.65	46.615
278.02	45.549
278.39	47.266
278.76	45.091
279.13	45.283
279.50	43.203
279.87	44.422
280.23	46.707
280.60	46.035
280.97	45.102
281.34	47.257
281.71	44.727
282.08	43.570
282.45	45.091
282.82	43.517
283.19	41.711
283.56	45.439
283.92	43.316
284.29	42.504
284.66	42.650
285.03	42.495
285.40	42.254
285.77	42.929
286.14	43.178
286.51	43.500
286.87	42.735
287.24	43.485
287.61	41.573
287.98	42.695
288.35	41.046
288.72	40.966
289.08	40.376
289.45	42.669
289.82	40.813
290.19	37.520
290.56	37.672
290.93	38.520
291.29	39.877
291.66	39.381
292.03	38.663
292.40	39.794
292.77	38.609
293.13	38.507
293.50	38.484
293.87	38.074
294.24	37.778
294.60	36.099
294.97	37.936
295.34	39.069
295.71	36.506
296.08	33.333
296.44	37.827
296.81	36.196
297.18	37.127
297.55	33.641
297.91	34.433
298.28	37.082
298.65	35.248
299.02	35.046
299.38	33.201
299.75	33.154
300.12	32.056
300.48	33.875
300.85	33.292
301.22	33.503
301.59	32.702
301.95	34.509
302.32	34.403
302.69	33.453
303.05	34.061
303.42	33.457
303.79	32.616
304.15	32.168
304.52	32.097
304.89	33.333
305.25	32.831
305.62	34.088
305.99	33.176
306.35	33.110
306.72	33.632
307.09	33.407
307.45	32.320
307.82	31.808
308.19	34.106
308.55	32.902
308.92	32.116
309.29	32.946
309.65	33.298
310.02	31.607
310.38	32.043
310.75	31.996
311.12	33.470
311.48	32.915
311.85	33.648
312.22	32.778
312.58	33.784
312.95	34.530
313.31	32.621
313.68	33.160
314.05	36.193
314.41	33.970
314.78	33.938
315.14	33.466
315.51	35.015
315.87	33.663
316.24	34.260
316.61	32.554
316.97	34.344
317.34	34.051
317.70	35.086
318.07	34.552
318.43	36.106
318.80	36.082
319.16	35.499
319.53	33.677
319.89	36.000
320.26	36.500
320.62	35.020
320.99	34.646
321.35	35.758
321.72	37.269
322.08	35.637
322.45	39.204
322.81	37.209
323.18	37.861
323.54	37.570
323.91	38.585
324.27	37.285
324.64	37.372
325.00	36.970
325.37	39.672
325.73	39.228
326.10	38.217
326.46	37.724
326.83	39.603
327.19	38.856
327.56	39.721
327.92	39.808
328.29	41.349
328.65	41.529
329.01	40.433
329.38	40.518
329.74	41.182
330.11	41.282
330.47	41.690
330.84	42.555
331.20	41.166
331.56	42.110
331.93	42.130
332.29	41.881
332.66	41.681
333.02	42.596
333.38	43.360
333.75	42.335
334.11	43.238
334.48	41.970
334.84	43.750
335.20	44.273
335.57	42.702
335.93	43.214
336.29	43.040
336.66	43.823
337.02	43.348
337.38	43.889
337.75	42.692
338.11	42.972
338.47	44.015
338.84	45.188
339.20	43.119
339.56	44.982
339.93	43.182
340.29	42.120
340.65	43.226
341.02	43.892
341.38	44.484
341.74	43.860
342.11	43.493
342.47	44.670
342.83	43.836
343.20	43.810
343.56	42.965
343.92	43.684
344.28	43.537
344.65	43.594
345.01	41.751
345.37	42.367
345.73	42.386
346.10	41.858
346.46	42.458
346.82	42.092
347.19	42.607
347.55	42.447
347.91	42.071
348.27	43.632
348.63	43.478
349.00	41.181
349.36	40.969
349.72	41.460
350.08	41.815
350.45	43.287
350.81	41.511
351.17	42.464
351.53	42.506
351.89	40.677
352.26	42.068
352.62	41.860
352.98	39.870
353.34	41.824
353.70	41.162
354.07	40.242
354.43	38.968
354.79	40.547
355.15	41.101
355.51	41.886
355.87	41.306
356.24	41.857
356.60	40.176
356.96	41.030
357.32	40.801
357.68	40.787
358.04	40.538
358.40	40.063
358.77	39.202
359.13	40.410
359.49	39.608
359.85	39.603
360.21	39.155
360.57	40.856
360.93	41.154
361.29	39.683
361.66	38.235
362.02	38.881
362.38	39.696
362.74	39.286
363.10	38.046
363.46	38.811
363.82	39.380
364.18	39.207
364.54	39.673
364.90	38.669
365.26	38.309
365.62	39.591
365.98	38.568
366.35	36.891
366.71	38.322
367.07	38.456
367.43	39.768
367.79	39.400
368.15	38.434
368.51	37.718
368.87	38.258
369.23	39.576
369.59	38.523
369.95	38.897
370.31	38.248
370.67	37.899
371.03	39.101
371.39	38.848
371.75	38.971
372.11	37.482
372.47	38.123
372.83	38.617
373.19	38.006
373.55	39.542
373.91	39.396
374.27	37.801
374.63	37.455
374.99	38.701
375.35	38.381
375.71	36.806
376.07	38.340
376.42	38.583
376.78	38.304
377.14	37.178
377.50	37.682
377.86	36.636
378.22	36.726
378.58	36.341
378.94	37.209
379.30	37.595
379.66	37.563
380.02	36.425
380.38	35.519
380.74	37.695
381.09	36.675
381.45	35.833
381.81	36.364
382.17	37.962
382.53	36.101
382.89	37.469
383.25	36.773
383.61	37.794
383.97	36.085
384.32	36.993
384.68	35.874
385.04	36.509
385.40	36.347
385.76	36.671
386.12	37.370
386.48	36.753
386.83	36.626
387.19	36.982
387.55	36.735
387.91	35.127
388.27	36.297
388.62	36.755
388.98	35.074
389.34	35.795
389.70	36.235
390.06	35.995
390.42	36.706
390.77	35.560
391.13	35.737
391.49	36.358
391.85	35.582
392.20	34.763
392.56	35.606
392.92	36.139
393.28	34.438
393.64	35.791
393.99	35.614
394.35	35.670
394.71	36.136
395.07	34.704
395.42	36.032
395.78	35.941
396.14	34.637
396.50	36.216
396.85	35.156
397.21	35.142
397.57	34.594
397.92	36.238
398.28	34.473
398.64	34.588
399.00	35.422
399.35	34.461
399.71	34.259
400.07	35.423
400.42	34.663
400.78	35.163
401.14	34.390
401.49	35.284
401.85	34.362
402.21	34.251
402.57	34.547
402.92	35.183
403.28	35.915
403.63	35.025
403.99	34.777
404.35	34.121
404.70	34.772
405.06	34.188
405.42	34.934
405.77	34.286
406.13	34.255
406.49	35.068
406.84	33.786
407.20	34.220
407.55	34.525
407.91	34.467
408.27	34.844
408.62	34.377
408.98	33.824
409.34	34.871
409.69	34.194
410.05	34.015
410.40	34.006
410.76	34.170
411.11	33.655
411.47	34.058
411.83	33.048
412.18	34.014
412.54	34.682
412.89	33.614
413.25	33.884
413.60	34.342
413.96	33.333
414.31	33.718
414.67	34.791
415.03	33.576
415.38	34.214
415.74	34.341
416.09	35.990
416.45	33.400
416.80	34.501
417.16	33.981
417.51	34.041
417.87	34.040
418.22	35.521
418.58	34.151
418.93	34.275
419.29	34.373
419.64	34.509
420.00	34.939
420.35	34.029
420.71	34.130
421.06	33.652
421.42	33.158
421.77	33.408
422.12	33.071
422.48	32.704
422.83	33.780
423.19	34.199
423.54	34.185
423.90	34.551
424.25	33.557
424.61	34.345
424.96	34.286
425.31	33.942
425.67	33.652
426.02	33.429
426.38	34.188
426.73	34.640
427.09	34.468
427.44	34.158
427.79	33.640
428.15	34.048
428.50	33.704
428.85	35.161
429.21	33.793
429.56	33.593
429.92	32.864
430.27	33.515
430.62	32.924
430.98	33.368
431.33	32.887
431.68	34.241
432.04	34.026
432.39	33.923
432.74	34.710
433.10	34.861
433.45	35.044
433.80	33.370
434.16	34.188
434.51	34.842
434.86	34.322
435.22	34.742
435.57	34.650
435.92	34.523
436.28	35.053
436.63	34.603
436.98	34.459
437.34	35.778
437.69	35.998
438.04	35.188
438.39	35.284
438.75	35.154
439.10	35.084
439.45	35.006
439.81	36.375
440.16	35.234
440.51	35.384
440.86	36.190
441.22	35.261
441.57	35.669
441.92	35.875
442.27	35.737
442.63	35.492
442.98	37.465
443.33	35.870
443.68	35.467
444.03	36.506
444.39	36.271
444.74	36.580
445.09	36.173
445.44	36.577
445.79	36.269
446.15	37.057
446.50	36.511
446.85	37.153
447.20	37.226
447.55	37.465
447.91	36.735
448.26	38.119
448.61	38.214
448.96	38.261
449.31	38.526
449.66	38.210
450.02	37.716
450.37	38.379
450.72	38.297
451.07	38.574
451.42	38.176
451.77	38.873
452.12	38.337
452.47	38.744
452.83	39.336
453.18	38.936
453.53	40.012
453.88	39.457
454.23	39.450
454.58	40.097
454.93	40.432
455.28	40.150
455.63	39.745
455.98	40.655
456.34	39.950
456.69	39.637
457.04	40.619
457.39	39.743
457.74	39.408
458.09	40.598
458.44	40.080
458.79	39.371
459.14	40.181
459.49	41.448
459.84	40.831
460.19	40.660
460.54	39.525
460.89	40.592
461.24	41.044
461.59	41.429
461.94	41.060
462.29	40.653
462.64	41.034
462.99	41.770
463.34	42.467
463.69	41.151
464.04	40.754
464.39	40.638
464.74	40.761
465.09	40.531
465.44	40.000
465.79	41.611
466.14	40.722
466.49	41.769
466.84	40.922
467.19	41.702
467.54	41.937
467.89	41.957
468.24	42.176
468.59	43.162
468.94	41.906
469.29	42.802
469.64	43.307
469.99	42.558
470.34	42.272
470.68	42.313
471.03	41.905
471.38	43.433
471.73	43.171
472.08	42.895
472.43	41.834
472.78	42.528
473.13	41.592
473.48	41.635
473.83	42.195
474.17	41.755
474.52	43.114
474.87	42.674
475.22	43.297
475.57	40.785
475.92	41.529
476.27	42.954
476.61	42.140
476.96	42.606
477.31	41.758
477.66	42.943
478.01	42.185
478.36	42.993
478.70	42.368
479.05	42.971
479.40	42.068
479.75	42.044
480.10	41.948
480.45	41.218
480.79	41.472
481.14	42.613
481.49	43.142
481.84	41.655
482.19	43.117
482.53	41.514
482.88	42.206
483.23	42.430
483.58	42.311
483.92	42.174
484.27	41.133
484.62	42.716
484.97	41.900
485.31	42.158
485.66	40.511
486.01	38.780
486.36	38.286
486.70	38.598
487.05	39.626
487.40	40.424
487.75	42.114
488.09	43.251
488.44	43.629
488.79	44.665
489.13	44.500
489.48	43.026
489.83	43.763
490.17	43.270
490.52	41.984
490.87	43.012
491.22	42.883
491.56	42.278
491.91	43.090
492.26	42.765
492.60	41.659
492.95	42.283
493.30	42.897
493.64	43.164
493.99	43.500
494.34	43.895
494.68	43.956
495.03	43.327
495.37	42.671
495.72	43.762
496.07	43.016
496.41	42.920
496.76	43.052
497.11	42.999
497.45	44.015
497.80	43.810
498.14	43.623
498.49	43.561
498.84	43.337
499.18	44.048
499.53	44.302
499.87	43.849
500.22	43.429
500.56	44.660
500.91	43.750
501.26	43.907
501.60	44.234
501.95	43.676
502.29	44.236
502.64	44.367
502.98	44.180
503.33	43.601
503.67	43.805
504.02	43.966
504.36	44.080
504.71	44.260
505.06	44.241
505.40	44.920
505.75	44.359
506.09	45.675
506.44	44.647
506.78	44.910
507.13	45.028
507.47	44.899
507.82	45.441
508.16	45.289
508.51	46.322
508.85	44.687
509.19	44.949
509.54	44.898
509.88	44.616
510.23	44.524
510.57	46.491
510.92	44.537
511.26	43.988
511.61	44.761
511.95	44.572
512.30	45.281
512.64	45.836
512.98	45.606
513.33	46.360
513.67	44.290
514.02	44.048
514.36	46.368
514.70	45.877
515.05	45.455
515.39	45.934
515.74	45.214
516.08	45.221
516.42	44.950
516.77	45.875
517.11	45.228
517.46	45.824
517.80	46.167
518.14	45.455
518.49	45.391
518.83	46.193
519.17	44.688
519.52	46.180
519.86	46.264
520.20	46.301
520.55	47.277
520.89	45.985
521.23	46.261
521.58	46.158
521.92	46.785
522.26	46.248
522.61	46.417
522.95	46.409
523.29	46.683
523.64	46.585
523.98	46.888
524.32	46.803
524.66	47.023
525.01	46.814
525.35	46.840
525.69	45.813
526.04	45.981
526.38	48.017
526.72	47.055
527.06	46.579
527.41	45.235
527.75	47.781
528.09	48.105
528.43	47.482
528.78	47.880
529.12	45.697
529.46	47.336
529.80	47.339
530.15	46.854
530.49	45.846
530.83	47.595
531.17	49.282
531.51	48.573
531.86	47.935
532.20	48.044
532.54	47.918
532.88	47.304
533.22	46.596
533.57	46.049
533.91	47.321
534.25	46.902
534.59	47.407
534.93	46.163
535.27	46.832
535.62	47.253
535.96	47.772
536.30	47.489
536.64	47.392
536.98	47.910
537.32	47.663
537.66	49.267
538.01	48.650
538.35	47.964
538.69	49.075
539.03	47.109
539.37	45.559
539.71	46.209
540.05	48.170
540.39	47.973
540.73	46.572
541.07	48.540
541.42	47.815
541.76	48.645
542.10	47.671
542.44	49.139
542.78	48.946
543.12	46.513
543.46	48.000
543.80	48.146
544.14	47.433
544.48	47.619
544.82	48.557
545.16	47.951
545.50	47.622
545.84	47.715
546.18	48.620
546.52	49.346
546.86	49.485
547.20	48.955
547.54	48.764
547.88	48.724
548.22	47.323
548.56	47.233
548.90	47.695
549.24	48.013
549.58	49.386
549.92	47.665
550.26	49.574
550.60	47.649
550.94	49.014
551.28	47.623
551.62	50.036
551.96	48.561
552.30	48.328
552.64	49.493
552.98	48.746
553.32	48.348
553.66	49.625
554.00	49.485
554.34	48.999
554.68	50.286
555.02	48.872
555.36	47.947
555.69	47.564
556.03	48.856
556.37	48.704
556.71	48.636
557.05	48.669
557.39	48.216
557.73	49.541
558.07	49.819
558.41	50.289
558.75	51.433
559.08	49.142
559.42	50.945
559.76	50.074
560.10	48.537
560.44	49.336
560.78	47.705
561.12	48.945
561.45	47.849
561.79	48.253
562.13	49.162
562.47	50.273
562.81	50.558
563.15	49.365
563.48	50.133
563.82	49.380
564.16	51.145
564.50	48.568
564.84	48.230
565.17	49.421
565.51	50.160
565.85	48.414
566.19	48.654
566.52	49.208
566.86	48.403
567.20	48.585
567.54	48.744
567.88	47.909
568.21	49.101
568.55	47.877
568.89	47.422
569.23	47.237
569.56	46.275
569.90	45.585
570.24	45.928
570.57	46.005
570.91	45.378
571.25	45.090
571.59	46.009
571.92	46.141
572.26	46.996
572.60	47.628
572.93	46.627
573.27	46.880
573.61	46.650
573.95	46.589
574.28	45.779
574.62	45.554
574.96	46.045
575.29	46.048
575.63	46.138
575.97	46.655
576.30	46.654
576.64	45.969
576.98	47.010
577.31	46.442
577.65	46.276
577.98	46.341
578.32	45.453
578.66	46.247
578.99	46.724
579.33	47.180
579.67	47.093
580.00	47.782
580.34	47.817
580.67	46.703
581.01	47.088
581.35	47.044
581.68	45.881
582.02	45.846
582.35	46.239
582.69	46.864
583.02	47.165
583.36	48.628
583.70	48.776
584.03	49.242
584.37	49.223
584.70	48.877
585.04	48.116
585.37	48.346
585.71	48.214
586.04	48.321
586.38	48.354
586.72	48.550
587.05	47.514
587.39	47.493
587.72	47.771
588.06	48.879
588.39	48.642
588.73	49.399
589.06	49.891
589.40	50.572
589.73	50.651
590.07	50.320
590.40	49.763
590.73	50.898
591.07	52.340
591.40	50.485
591.74	51.861
592.07	50.698
592.41	50.723
592.74	48.951
593.08	48.834
593.41	48.687
593.75	47.720
594.08	48.743
594.41	49.240
594.75	49.020
595.08	49.034
595.42	51.349
595.75	49.501
596.09	50.544
596.42	50.570
596.75	50.992
597.09	52.035
597.42	50.675
597.75	51.531
598.09	50.609
598.42	51.289
598.76	50.101
599.09	49.259
599.42	49.745
599.76	49.890
600.09	49.435
600.42	49.671
600.76	49.929
601.09	50.310
601.42	49.886
601.76	50.247
602.09	50.711
602.42	52.189
602.76	52.237
603.09	50.747
603.42	51.035
603.76	50.114
604.09	51.221
604.42	51.447
604.76	51.582
605.09	52.163
605.42	51.347
605.75	51.449
606.09	50.468
606.42	51.696
606.75	51.431
607.09	51.444
607.42	51.262
607.75	51.097
608.08	50.326
608.42	51.905
608.75	51.398
609.08	50.971
609.41	52.499
609.75	52.692
610.08	52.309
610.41	52.002
610.74	52.602
611.07	52.668
611.41	51.374
611.74	53.343
612.07	53.209
612.40	54.250
612.73	52.579
613.07	53.179
613.40	53.186
613.73	52.805
614.06	54.462
614.39	52.701
614.72	52.579
615.06	53.151
615.39	52.601
615.72	51.840
616.05	53.110
616.38	52.974
616.71	55.107
617.05	54.535
617.38	54.239
617.71	54.054
618.04	54.327
618.37	53.637
618.70	54.387
619.03	55.789
619.36	54.650
619.69	55.845
620.03	55.838
620.36	55.348
620.69	54.726
621.02	56.342
621.35	55.442
621.68	56.464
622.01	54.876
622.34	56.051
622.67	56.198
623.00	55.393
623.33	53.753
623.66	55.611
623.99	55.965
624.32	54.351
624.65	54.167
624.99	53.895
625.32	55.467
625.65	56.499
625.98	59.339
626.31	56.532
626.64	56.245
626.97	56.608
627.30	58.022
627.63	56.604
627.96	57.864
628.29	58.443
628.62	58.280
628.95	58.774
629.28	57.664
629.61	56.187
629.94	59.714
630.26	57.960
630.59	59.390
