SpectraSuite Data File
++++++++++++++++++++++++++++++++++++
Date: Wed May 13 19:32:01 PDT 2015
User: schluterlab
Dark Spectrum Present: Yes
Reference Spectrum Present: Yes
Number of Sampled Component Spectra: 1
Spectrometers: USB2E3373
Integration Time (usec): 3000 (USB2E3373)
Spectra Averaged: 3 (USB2E3373)
Boxcar Smoothing: 0 (USB2E3373)
Correct for Electrical Dark: No (USB2E3373)
Strobe/Lamp Enabled: No (USB2E3373)
Correct for Detector Non-linearity: No (USB2E3373)
Correct for Stray Light: No (USB2E3373)
Number of Pixels in Processed Spectrum: 2048
>>>>>Begin Processed Spectral Data<<<<<
178.53	0.000
178.91	-1425.000
179.29	-1400.000
179.67	-294.444
180.04	-1400.000
180.42	2750.000
180.80	1120.000
181.18	-1150.000
181.56	728.571
181.94	0.000
182.31	-728.571
182.69	1933.333
183.07	-537.500
183.45	-544.444
183.83	554.545
184.20	-310.000
184.58	2150.000
184.96	5000.000
185.34	-740.000
185.72	-612.500
186.09	-2700.000
186.47	3300.000
186.85	2600.000
187.23	5500.000
187.61	-1866.667
187.98	1450.000
188.36	527.273
188.74	654.545
189.12	-1020.000
189.49	590.000
189.87	-4900.000
190.25	-1300.000
190.63	500.000
191.00	492.308
191.38	700.000
191.76	-1200.000
192.14	1400.000
192.51	750.000
192.89	1050.000
193.27	625.000
193.65	-1300.000
194.02	570.000
194.40	820.000
194.78	550.000
195.15	525.000
195.53	720.000
195.91	-1900.000
196.29	431.250
196.66	347.368
197.04	-370.000
197.42	0.000
197.79	680.000
198.17	-4800.000
198.55	685.714
198.92	712.500
199.30	1160.000
199.68	0.000
200.05	355.556
200.43	971.429
200.81	5000.000
201.18	1600.000
201.56	-1866.667
201.94	511.111
202.31	677.778
202.69	475.000
203.07	610.000
203.44	0.000
203.82	1250.000
204.19	700.000
204.57	507.143
204.95	562.500
205.32	1666.667
205.70	554.545
206.08	450.000
206.45	2800.000
206.83	418.750
207.20	983.333
207.58	720.000
207.96	400.000
208.33	775.000
208.71	-666.667
209.08	871.429
209.46	622.222
209.84	518.182
210.21	-1866.667
210.59	1450.000
210.96	-612.500
211.34	3150.000
211.71	580.000
212.09	783.333
212.46	0.000
212.84	1933.333
213.22	1475.000
213.59	-4500.000
213.97	1100.000
214.34	842.857
214.72	609.091
215.09	1200.000
215.47	-2300.000
215.84	-2600.000
216.22	1566.667
216.59	400.000
216.97	1500.000
217.34	545.455
217.72	-883.333
218.09	0.000
218.47	-5000.000
218.84	700.000
219.22	871.429
219.59	1833.333
219.97	-714.286
220.34	1020.000
220.72	-1633.333
221.09	478.571
221.47	1550.000
221.84	-900.000
222.22	0.000
222.59	1400.000
222.97	-2550.000
223.34	1260.000
223.72	446.154
224.09	1220.000
224.46	2300.000
224.84	-4600.000
225.21	-980.000
225.59	-4300.000
225.96	600.000
226.34	315.000
226.71	3100.000
227.08	837.500
227.46	520.000
227.83	-1125.000
228.21	-2500.000
228.58	733.333
228.95	-2750.000
229.33	-2600.000
229.70	2033.333
230.08	800.000
230.45	-1020.000
230.82	441.667
231.20	933.333
231.57	685.714
231.95	483.333
232.32	218.182
232.69	427.273
233.07	742.857
233.44	315.385
233.81	-1500.000
234.19	315.789
234.56	525.000
234.93	450.000
235.31	509.091
235.68	400.000
236.05	450.000
236.43	190.909
236.80	284.211
237.17	5800.000
237.55	295.238
237.92	250.000
238.29	309.524
238.67	212.903
239.04	251.724
239.41	163.889
239.79	145.652
240.16	190.476
240.53	170.455
240.91	154.902
241.28	152.000
241.65	142.000
242.02	131.884
242.40	135.484
242.77	133.333
243.14	101.075
243.51	101.124
243.89	102.353
244.26	90.000
244.63	98.925
245.00	82.979
245.38	96.040
245.75	89.720
246.12	88.991
246.49	78.832
246.87	90.400
247.24	80.000
247.61	79.286
247.98	75.817
248.36	70.946
248.73	75.159
249.10	70.064
249.47	69.492
249.84	73.797
250.22	64.171
250.59	65.089
250.96	65.657
251.33	63.981
251.70	65.347
252.08	62.381
252.45	60.987
252.82	62.609
253.19	63.830
253.56	60.392
253.94	62.656
254.31	60.937
254.68	54.231
255.05	57.934
255.42	62.602
255.79	60.662
256.16	57.762
256.54	56.184
256.91	56.940
257.28	53.237
257.65	54.125
258.02	54.969
258.39	58.675
258.76	55.853
259.14	55.060
259.51	52.584
259.88	51.553
260.25	58.610
260.62	51.734
260.99	54.969
261.36	52.553
261.73	51.289
262.10	52.035
262.47	51.831
262.85	50.418
263.22	51.282
263.59	52.137
263.96	51.648
264.33	50.392
264.70	50.526
265.07	51.918
265.44	51.263
265.81	46.715
266.18	49.497
266.55	50.244
266.92	49.877
267.29	50.463
267.66	47.248
268.03	47.727
268.40	50.000
268.77	46.539
269.14	46.622
269.51	47.856
269.88	46.853
270.25	48.081
270.62	48.764
270.99	44.516
271.36	47.425
271.73	50.234
272.10	48.043
272.47	48.172
272.84	47.403
273.21	46.751
273.58	47.162
273.95	43.187
274.32	45.041
274.69	48.608
275.06	45.079
275.43	45.957
275.80	47.495
276.17	45.621
276.54	45.738
276.91	46.245
277.28	43.945
277.65	43.133
278.02	48.033
278.39	46.094
278.76	43.818
279.13	45.094
279.50	42.831
279.87	45.618
280.23	46.507
280.60	45.261
280.97	45.841
281.34	44.956
281.71	44.000
282.08	44.722
282.45	45.455
282.82	42.274
283.19	40.285
283.56	44.561
283.92	44.162
284.29	43.915
284.66	43.376
285.03	41.591
285.40	42.958
285.77	43.434
286.14	40.587
286.51	42.833
286.87	40.684
287.24	44.951
287.61	40.931
287.98	41.396
288.35	40.571
288.72	38.785
289.08	40.063
289.45	41.351
289.82	39.675
290.19	36.735
290.56	37.060
290.93	37.462
291.29	39.417
291.66	38.348
292.03	39.535
292.40	39.941
292.77	37.278
293.13	36.567
293.50	38.047
293.87	38.222
294.24	36.000
294.60	37.263
294.97	37.645
295.34	37.236
295.71	36.648
296.08	35.613
296.44	36.176
296.81	35.535
297.18	36.856
297.55	33.773
297.91	36.016
298.28	36.412
298.65	36.162
299.02	36.495
299.38	37.317
299.75	34.367
300.12	35.249
300.48	34.875
300.85	35.882
301.22	36.051
301.59	34.596
301.95	34.635
302.32	34.531
302.69	34.886
303.05	33.212
303.42	33.210
303.79	34.202
304.15	32.051
304.52	34.299
304.89	32.753
305.25	32.367
305.62	32.616
305.99	33.766
306.35	33.445
306.72	33.857
307.09	33.851
307.45	34.797
307.82	33.259
308.19	32.781
308.55	35.167
308.92	33.835
309.29	33.157
309.65	32.662
310.02	34.038
310.38	34.194
310.75	35.164
311.12	33.470
311.48	34.483
311.85	35.639
312.22	34.651
312.58	33.992
312.95	35.164
313.31	33.398
313.68	35.863
314.05	35.897
314.41	34.774
314.78	35.750
315.14	34.856
315.51	34.501
315.87	34.059
316.24	34.657
316.61	36.062
316.97	34.344
317.34	34.247
317.70	36.807
318.07	34.552
318.43	36.106
318.80	34.677
319.16	35.593
319.53	35.178
319.89	36.190
320.26	37.100
320.62	36.508
320.99	36.768
321.35	36.465
321.72	38.296
322.08	38.302
322.45	38.806
322.81	38.178
323.18	38.825
323.54	38.590
323.91	39.623
324.27	39.101
324.64	39.795
325.00	38.683
325.37	39.854
325.73	40.575
326.10	40.600
326.46	39.785
326.83	41.933
327.19	40.222
327.56	40.854
327.92	42.257
328.29	41.260
328.65	42.265
329.01	41.426
329.38	40.796
329.74	40.259
330.11	41.565
330.47	40.496
330.84	41.452
331.20	42.168
331.56	43.119
331.93	41.944
332.29	40.550
332.66	41.770
333.02	40.311
333.38	41.102
333.75	41.533
334.11	41.548
334.48	40.905
334.84	41.636
335.20	40.727
335.57	40.254
335.93	39.018
336.29	39.469
336.66	39.315
337.02	39.095
337.38	40.926
337.75	39.750
338.11	39.928
338.47	40.239
338.84	40.330
339.20	38.257
339.56	40.602
339.93	39.455
340.29	39.583
340.65	39.661
341.02	41.012
341.38	39.858
341.74	39.298
342.11	40.699
342.47	40.088
342.83	38.955
343.20	39.481
343.56	38.332
343.92	40.263
344.28	40.136
344.65	38.263
345.01	38.131
345.37	37.393
345.73	38.409
346.10	39.898
346.46	38.305
346.82	38.633
347.19	38.012
347.55	38.342
347.91	39.159
348.27	38.948
348.63	39.047
349.00	38.592
349.36	38.177
349.72	38.573
350.08	37.439
350.45	38.975
350.81	38.180
351.17	37.763
351.53	38.575
351.89	36.799
352.26	38.753
352.62	37.851
352.98	37.520
353.34	37.880
353.70	37.480
354.07	37.823
354.43	36.825
354.79	37.249
355.15	38.468
355.51	38.449
355.87	37.551
356.24	37.215
356.60	36.568
356.96	37.409
357.32	37.612
357.68	37.244
358.04	36.659
358.40	36.896
358.77	36.463
359.13	37.490
359.49	36.784
359.85	37.143
360.21	37.480
360.57	38.911
360.93	38.154
361.29	38.322
361.66	37.848
362.02	37.761
362.38	36.274
362.74	36.682
363.10	36.491
363.46	37.858
363.82	36.735
364.18	36.050
364.54	38.484
364.90	37.677
365.26	37.206
365.62	37.619
365.98	36.888
366.35	35.673
366.71	36.587
367.07	37.218
367.43	37.228
367.79	36.688
368.15	37.356
368.51	35.538
368.87	36.902
369.23	36.942
369.59	37.002
369.95	37.426
370.31	37.322
370.67	36.232
371.03	37.079
371.39	36.880
371.75	38.235
372.11	37.198
372.47	38.343
372.83	36.888
373.19	36.344
373.55	37.694
373.91	38.365
374.27	36.838
374.63	37.818
374.99	37.994
375.35	37.334
375.71	35.984
376.07	36.626
376.42	36.451
376.78	37.243
377.14	36.364
377.50	37.152
377.86	35.771
378.22	36.662
378.58	34.962
378.94	35.827
379.30	36.959
379.66	37.500
380.02	36.978
380.38	36.491
380.74	35.474
381.09	36.919
381.45	36.570
381.81	36.609
382.17	36.306
382.53	36.981
382.89	37.099
383.25	36.273
383.61	37.546
383.97	36.023
384.32	36.432
384.68	36.493
385.04	36.509
385.40	35.294
385.76	35.872
386.12	36.464
386.48	36.627
386.83	36.883
387.19	36.735
387.55	37.291
387.91	36.336
388.27	36.235
388.62	37.062
388.98	35.995
389.34	36.859
389.70	35.684
390.06	37.136
390.42	36.706
390.77	36.641
391.13	36.758
391.49	37.310
391.85	36.155
392.20	35.584
392.56	37.311
392.92	36.139
393.28	34.852
393.64	36.691
393.99	36.652
394.35	35.484
394.71	36.575
395.07	35.514
395.42	36.588
395.78	36.132
396.14	36.065
396.50	37.719
396.85	36.936
397.21	35.388
397.57	36.702
397.92	35.216
398.28	35.202
398.64	35.842
399.00	35.143
399.35	34.687
399.71	35.127
400.07	36.073
400.42	35.153
400.78	36.610
401.14	35.610
401.49	35.164
401.85	34.906
402.21	35.749
402.57	35.040
402.92	36.192
403.28	35.603
403.63	35.087
403.99	35.605
404.35	34.727
404.70	35.132
405.06	34.537
405.42	36.369
405.77	34.000
406.13	34.650
406.49	34.418
406.84	35.322
407.20	34.279
407.55	34.844
407.91	36.267
408.27	35.737
408.62	35.641
408.98	34.252
409.34	35.178
409.69	35.226
410.05	34.325
410.40	35.535
410.76	33.513
411.11	34.982
411.47	35.208
411.83	34.942
412.18	34.137
412.54	34.371
412.89	33.916
413.25	34.416
413.60	34.404
413.96	34.244
414.31	34.994
414.67	34.981
415.03	34.636
415.38	35.309
415.74	34.662
416.09	34.095
416.45	34.538
416.80	35.691
417.16	35.322
417.51	35.567
417.87	34.554
418.22	35.016
418.58	35.055
418.93	34.521
419.29	35.837
419.64	34.635
420.00	34.573
420.35	35.130
420.71	35.266
421.06	34.905
421.42	35.497
421.77	35.202
422.12	34.419
422.48	35.078
422.83	35.061
423.19	35.856
423.54	35.345
423.90	35.188
424.25	35.678
424.61	34.762
424.96	35.160
425.31	34.939
425.67	35.281
426.02	35.314
426.38	36.569
426.73	35.459
427.09	36.596
427.44	36.630
427.79	36.400
428.15	36.190
428.50	36.981
428.85	36.353
429.21	35.174
429.56	35.666
429.92	35.732
430.27	35.501
430.62	35.740
430.98	36.066
431.33	35.515
431.68	36.021
432.04	35.463
432.39	35.979
432.74	36.924
433.10	37.634
433.45	36.327
433.80	36.086
434.16	36.378
434.51	36.684
434.86	37.343
435.22	37.743
435.57	37.264
435.92	35.986
436.28	37.900
436.63	37.528
436.98	37.779
437.34	38.044
437.69	37.456
438.04	37.549
438.39	37.910
438.75	37.885
439.10	37.039
439.45	37.839
439.81	37.341
440.16	37.606
440.51	37.200
440.86	37.522
441.22	37.319
441.57	38.854
441.92	37.257
442.27	37.890
442.63	37.757
442.98	37.972
443.33	37.935
443.68	37.687
444.03	37.628
444.39	38.121
444.74	38.312
445.09	38.275
445.44	37.124
445.79	37.160
446.15	37.533
446.50	37.318
446.85	37.564
447.20	38.042
447.55	38.638
447.91	37.452
448.26	37.896
448.61	38.101
448.96	38.649
449.31	38.920
449.66	39.223
450.02	37.772
450.37	37.585
450.72	38.804
451.07	37.233
451.42	37.994
451.77	37.581
452.12	38.106
452.47	37.562
452.83	38.112
453.18	37.836
453.53	38.528
453.88	38.039
454.23	38.673
454.58	39.128
454.93	39.606
455.28	37.469
455.63	38.592
455.98	39.048
456.34	38.882
456.69	38.823
457.04	39.257
457.39	38.223
457.74	38.595
458.09	38.355
458.44	38.255
458.79	37.961
459.14	38.939
459.49	38.412
459.84	38.338
460.19	38.303
460.54	37.558
460.89	38.453
461.24	38.980
461.59	38.989
461.94	38.841
462.29	39.050
462.64	38.226
462.99	38.517
463.34	38.933
463.69	38.899
464.04	38.551
464.39	38.841
464.74	38.384
465.09	38.299
465.44	38.006
465.79	38.255
466.14	38.588
466.49	38.432
466.84	39.288
467.19	39.288
467.54	39.062
467.89	39.136
468.24	38.685
468.59	40.537
468.94	38.546
469.29	39.203
469.64	38.956
469.99	40.189
470.34	39.630
470.68	39.871
471.03	40.000
471.38	40.167
471.73	39.307
472.08	39.803
472.43	37.688
472.78	39.500
473.13	39.474
473.48	40.200
473.83	39.939
474.17	39.266
474.52	39.516
474.87	40.630
475.22	39.756
475.57	40.193
475.92	39.565
476.27	39.910
476.61	38.996
476.96	39.967
477.31	39.613
477.66	40.591
478.01	39.415
478.36	40.984
478.70	39.304
479.05	39.297
479.40	40.174
479.75	39.908
480.10	39.662
480.45	38.077
480.79	39.608
481.14	39.432
481.49	39.867
481.84	39.140
482.19	39.391
482.53	39.083
482.88	38.995
483.23	39.766
483.58	39.581
483.92	39.644
484.27	38.126
484.62	38.707
484.97	37.801
485.31	39.692
485.66	37.561
486.01	36.680
486.36	35.788
486.70	35.304
487.05	36.761
487.40	37.181
487.75	38.007
488.09	38.975
488.44	38.993
488.79	40.108
489.13	39.228
489.48	40.294
489.83	39.620
490.17	39.676
490.52	38.928
490.87	39.891
491.22	39.245
491.56	38.542
491.91	39.041
492.26	39.871
492.60	39.816
492.95	39.055
493.30	38.972
493.64	39.291
493.99	39.415
494.34	38.853
494.68	40.476
495.03	40.179
495.37	38.762
495.72	39.620
496.07	39.768
496.41	38.142
496.76	38.434
497.11	39.036
497.45	40.149
497.80	40.019
498.14	38.937
498.49	40.293
498.84	39.549
499.18	39.000
499.53	38.794
499.87	39.562
500.22	40.179
500.56	39.854
500.91	39.183
501.26	39.118
501.60	39.345
501.95	39.093
502.29	40.722
502.64	39.106
502.98	39.317
503.33	39.351
503.67	40.000
504.02	39.429
504.36	39.073
504.71	39.717
505.06	40.193
505.40	40.010
505.75	39.248
506.09	39.310
506.44	40.701
506.78	40.818
507.13	40.030
507.47	40.808
507.82	39.514
508.16	40.426
508.51	40.842
508.85	40.268
509.19	40.918
509.54	39.898
509.88	41.061
510.23	39.743
510.57	41.744
510.92	40.549
511.26	41.213
511.61	39.990
511.95	40.449
512.30	40.403
512.64	41.322
512.98	41.372
513.33	41.060
513.67	39.808
514.02	40.584
514.36	41.289
514.70	41.339
515.05	41.829
515.39	41.952
515.74	41.498
516.08	42.202
516.42	41.398
516.77	42.475
517.11	40.954
517.46	41.196
517.80	42.741
518.14	42.386
518.49	42.357
518.83	42.159
519.17	41.224
519.52	41.200
519.86	42.099
520.20	41.908
520.55	42.849
520.89	42.944
521.23	41.556
521.58	42.497
521.92	44.152
522.26	41.672
522.61	43.115
522.95	42.296
523.29	42.362
523.64	43.232
523.98	41.959
524.32	42.823
524.66	41.251
525.01	41.483
525.35	43.061
525.69	41.687
526.04	41.745
526.38	41.306
526.72	42.454
527.06	42.624
527.41	40.903
527.75	43.280
528.09	43.802
528.43	42.766
528.78	41.979
529.12	41.697
529.46	42.927
529.80	43.255
530.15	42.679
530.49	41.846
530.83	42.658
531.17	44.256
531.51	43.320
531.86	42.581
532.20	43.286
532.54	43.113
532.88	42.940
533.22	42.911
533.57	42.407
533.91	42.203
534.25	41.981
534.59	42.282
534.93	42.772
535.27	42.245
535.62	42.491
535.96	43.628
536.30	42.212
536.64	42.627
536.98	42.734
537.32	42.725
537.66	42.867
538.01	43.713
538.35	43.697
538.69	43.204
539.03	43.210
539.37	41.725
539.71	42.320
540.05	42.484
540.39	42.724
540.73	41.656
541.07	42.440
541.42	43.509
541.76	43.742
542.10	41.850
542.44	42.252
542.78	42.490
543.12	42.290
543.46	42.623
543.80	42.160
544.14	41.399
544.48	43.937
544.82	41.629
545.16	43.982
545.50	41.967
545.84	43.414
546.18	42.761
546.52	43.221
546.86	42.268
547.20	42.144
547.54	43.420
547.88	42.474
548.22	42.030
548.56	42.767
548.90	41.613
549.24	42.694
549.58	42.838
549.92	41.827
550.26	43.253
550.60	43.914
550.94	42.254
551.28	43.526
551.62	42.559
551.96	41.333
552.30	42.867
552.64	42.867
552.98	43.119
553.32	41.740
553.66	43.081
554.00	41.935
554.34	41.753
554.68	42.990
555.02	43.159
555.36	42.380
555.69	40.934
556.03	42.194
556.37	41.542
556.71	42.224
557.05	42.647
557.39	42.197
557.73	41.496
558.07	42.204
558.41	41.679
558.75	42.028
559.08	42.282
559.42	44.142
559.76	41.103
560.10	42.041
560.44	41.300
560.78	41.118
561.12	41.029
561.45	40.743
561.79	41.200
562.13	41.449
562.47	41.940
562.81	42.190
563.15	40.936
563.48	41.910
563.82	40.639
564.16	41.334
564.50	40.039
564.84	40.392
565.17	40.991
565.51	42.364
565.85	40.799
566.19	40.263
566.52	41.925
566.86	40.868
567.20	40.743
567.54	40.582
567.88	39.761
568.21	40.370
568.55	40.091
568.89	39.056
569.23	39.216
569.56	37.976
569.90	39.245
570.24	38.357
570.57	37.368
570.91	36.942
571.25	37.245
571.59	37.113
571.92	36.665
572.26	37.088
572.60	37.538
572.93	37.151
573.27	38.332
573.61	37.577
573.95	37.261
574.28	36.910
574.62	36.662
574.96	36.846
575.29	36.688
575.63	36.636
575.97	36.683
576.30	37.334
576.64	37.276
576.98	36.145
577.31	36.761
577.65	36.113
577.98	37.033
578.32	36.378
578.66	36.331
578.99	36.864
579.33	36.577
579.67	36.390
580.00	36.274
580.34	36.925
580.67	37.013
581.01	37.014
581.35	36.326
581.68	36.266
582.02	35.718
582.35	35.787
582.69	36.479
583.02	36.828
583.36	37.076
583.70	37.512
584.03	37.409
584.37	38.419
584.70	37.565
585.04	36.791
585.37	36.836
585.71	36.607
586.04	36.434
586.38	37.069
586.72	37.144
587.05	36.267
587.39	36.755
587.72	36.846
588.06	36.953
588.39	37.366
588.73	36.844
589.06	37.333
589.40	37.980
589.73	38.296
590.07	38.007
590.40	37.121
590.73	38.134
591.07	39.398
591.40	38.718
591.74	38.961
592.07	38.176
592.41	38.156
592.74	37.191
593.08	36.842
593.41	36.254
593.75	36.040
594.08	36.775
594.41	37.681
594.75	37.893
595.08	37.151
595.42	38.319
595.75	37.108
596.09	38.528
596.42	38.075
596.75	38.286
597.09	38.658
597.42	37.985
597.75	37.387
598.09	37.783
598.42	37.328
598.76	36.806
599.09	36.526
599.42	35.881
599.76	36.713
600.09	35.592
600.42	36.340
600.76	36.893
601.09	36.393
601.42	37.177
601.76	36.926
602.09	36.403
602.42	37.261
602.76	37.485
603.09	37.884
603.42	37.173
603.76	36.357
604.09	36.758
604.42	36.404
604.76	38.001
605.09	38.139
605.42	36.896
605.75	36.838
606.09	36.966
606.42	36.657
606.75	37.039
607.09	36.961
607.42	36.799
607.75	36.624
608.08	36.127
608.42	37.472
608.75	36.339
609.08	36.309
609.41	36.506
609.75	36.970
610.08	37.653
610.41	37.803
610.74	37.181
611.07	37.945
611.41	37.291
611.74	37.054
612.07	38.199
612.40	38.825
612.73	37.000
613.07	37.823
613.40	37.862
613.73	36.078
614.06	36.882
614.39	36.287
614.72	36.895
615.06	36.660
615.39	36.412
615.72	36.605
616.05	37.321
616.38	38.355
616.71	38.124
617.05	38.398
617.38	37.763
617.71	37.477
618.04	37.260
618.37	37.611
618.70	37.834
619.03	37.500
619.36	37.542
619.69	38.380
620.03	39.148
620.36	37.968
620.69	38.562
621.02	38.569
621.35	38.998
621.68	38.551
622.01	39.861
622.34	38.124
622.67	38.859
623.00	38.151
623.33	37.241
623.66	39.028
623.99	38.218
624.32	38.588
624.65	37.429
624.99	36.615
625.32	37.654
625.65	38.317
625.98	38.970
626.31	38.491
626.64	40.163
626.97	38.820
627.30	37.323
627.63	39.541
627.96	38.267
628.29	39.720
628.62	39.524
628.95	41.038
629.28	39.142
629.61	39.413
629.94	40.476
630.26	38.704
630.59	39.085
