SpectraSuite Data File
++++++++++++++++++++++++++++++++++++
Date: Wed May 13 19:55:17 PDT 2015
User: schluterlab
Dark Spectrum Present: Yes
Reference Spectrum Present: Yes
Number of Sampled Component Spectra: 1
Spectrometers: USB2E3373
Integration Time (usec): 3000 (USB2E3373)
Spectra Averaged: 3 (USB2E3373)
Boxcar Smoothing: 0 (USB2E3373)
Correct for Electrical Dark: No (USB2E3373)
Strobe/Lamp Enabled: No (USB2E3373)
Correct for Detector Non-linearity: No (USB2E3373)
Correct for Stray Light: No (USB2E3373)
Number of Pixels in Processed Spectrum: 2048
>>>>>Begin Processed Spectral Data<<<<<
178.53	0.000
178.91	-1225.000
179.29	-1450.000
179.67	-227.778
180.04	-1350.000
180.42	3000.000
180.80	1100.000
181.18	-1150.000
181.56	600.000
181.94	0.000
182.31	-657.143
182.69	1666.667
183.07	-637.500
183.45	-600.000
183.83	527.273
184.20	-480.000
184.58	2150.000
184.96	5400.000
185.34	-980.000
185.72	-600.000
186.09	-2850.000
186.47	2450.000
186.85	2350.000
187.23	5300.000
187.61	-1733.333
187.98	1425.000
188.36	545.455
188.74	463.636
189.12	-960.000
189.49	620.000
189.87	-4900.000
190.25	-1325.000
190.63	435.714
191.00	453.846
191.38	800.000
191.76	-1175.000
192.14	1350.000
192.51	625.000
192.89	950.000
193.27	675.000
193.65	-1400.000
194.02	580.000
194.40	980.000
194.78	550.000
195.15	600.000
195.53	680.000
195.91	-2250.000
196.29	412.500
196.66	331.579
197.04	-480.000
197.42	0.000
197.79	640.000
198.17	-4300.000
198.55	571.429
198.92	662.500
199.30	980.000
199.68	0.000
200.05	366.667
200.43	571.429
200.81	4200.000
201.18	1766.667
201.56	-1733.333
201.94	611.111
202.31	622.222
202.69	475.000
203.07	650.000
203.44	0.000
203.82	1150.000
204.19	871.429
204.57	478.571
204.95	587.500
205.32	1566.667
205.70	545.455
206.08	357.143
206.45	3000.000
206.83	431.250
207.20	1066.667
207.58	780.000
207.96	322.222
208.33	762.500
208.71	-833.333
209.08	771.429
209.46	600.000
209.84	518.182
210.21	-1466.667
210.59	1375.000
210.96	-675.000
211.34	2400.000
211.71	530.000
212.09	700.000
212.46	0.000
212.84	1966.667
213.22	1250.000
213.59	-4800.000
213.97	733.333
214.34	714.286
214.72	590.909
215.09	1120.000
215.47	-2300.000
215.84	-2950.000
216.22	1533.333
216.59	414.286
216.97	1400.000
217.34	445.455
217.72	-816.667
218.09	0.000
218.47	-5100.000
218.84	566.667
219.22	828.571
219.59	1533.333
219.97	-614.286
220.34	1120.000
220.72	-1766.667
221.09	507.143
221.47	1500.000
221.84	-766.667
222.22	0.000
222.59	1475.000
222.97	-2400.000
223.34	1280.000
223.72	415.385
224.09	1120.000
224.46	2800.000
224.84	-5400.000
225.21	-1080.000
225.59	-4900.000
225.96	640.000
226.34	290.000
226.71	2450.000
227.08	725.000
227.46	560.000
227.83	-1250.000
228.21	-2700.000
228.58	622.222
228.95	-2500.000
229.33	-2350.000
229.70	1766.667
230.08	857.143
230.45	-700.000
230.82	425.000
231.20	866.667
231.57	557.143
231.95	483.333
232.32	277.273
232.69	409.091
233.07	557.143
233.44	323.077
233.81	-1366.667
234.19	289.474
234.56	508.333
234.93	408.333
235.31	400.000
235.68	446.154
236.05	378.571
236.43	193.939
236.80	257.895
237.17	3800.000
237.55	252.381
237.92	217.857
238.29	233.333
238.67	170.968
239.04	175.862
239.41	133.333
239.79	121.739
240.16	126.190
240.53	104.545
240.91	82.353
241.28	90.000
241.65	116.000
242.02	97.101
242.40	80.645
242.77	75.000
243.14	58.065
243.51	66.292
243.89	58.824
244.26	61.111
244.63	48.387
245.00	53.191
245.38	49.505
245.75	46.729
246.12	42.202
246.49	47.445
246.87	47.200
247.24	41.538
247.61	40.000
247.98	37.908
248.36	29.730
248.73	35.669
249.10	35.669
249.47	41.808
249.84	33.155
250.22	25.668
250.59	36.686
250.96	29.293
251.33	27.014
251.70	28.218
252.08	20.952
252.45	24.664
252.82	25.217
253.19	25.532
253.56	25.490
253.94	28.216
254.31	22.656
254.68	24.231
255.05	21.402
255.42	22.764
255.79	25.000
256.16	26.715
256.54	19.788
256.91	21.352
257.28	18.705
257.65	20.132
258.02	22.671
258.39	19.874
258.76	20.401
259.14	22.024
259.51	18.237
259.88	15.528
260.25	18.731
260.62	18.786
260.99	14.596
261.36	17.718
261.73	18.052
262.10	14.826
262.47	18.310
262.85	16.156
263.22	12.536
263.59	20.513
263.96	17.582
264.33	16.449
264.70	16.053
265.07	16.368
265.44	15.152
265.81	14.599
266.18	15.578
266.55	14.878
266.92	14.742
267.29	14.120
267.66	14.908
268.03	13.636
268.40	14.019
268.77	14.558
269.14	13.964
269.51	14.673
269.88	13.287
270.25	11.512
270.62	13.708
270.99	17.204
271.36	14.807
271.73	13.551
272.10	15.652
272.47	16.774
272.84	14.069
273.21	15.304
273.58	10.262
273.95	13.627
274.32	13.636
274.69	11.991
275.06	10.827
275.43	13.617
275.80	12.625
276.17	11.813
276.54	13.721
276.91	12.055
277.28	10.938
277.65	13.540
278.02	12.422
278.39	14.648
278.76	12.000
279.13	12.075
279.50	12.663
279.87	12.351
280.23	11.377
280.60	8.511
280.97	10.906
281.34	11.504
281.71	13.091
282.08	12.668
282.45	11.091
282.82	12.256
283.19	11.765
283.56	12.456
283.92	12.183
284.29	11.287
284.66	11.434
285.03	10.488
285.40	11.796
285.77	10.606
286.14	10.881
286.51	12.000
286.87	10.769
287.24	12.052
287.61	11.075
287.98	11.688
288.35	10.777
288.72	10.592
289.08	10.485
289.45	11.697
289.82	10.569
290.19	8.791
290.56	10.567
290.93	9.970
291.29	10.890
291.66	9.440
292.03	12.355
292.40	11.747
292.77	9.615
293.13	10.149
293.50	10.058
293.87	10.222
294.24	8.741
294.60	8.006
294.97	10.029
295.34	10.860
295.71	10.937
296.08	10.256
296.44	9.216
296.81	9.511
297.18	12.195
297.55	7.388
297.91	10.422
298.28	10.576
298.65	10.183
299.02	8.827
299.38	9.031
299.75	7.278
300.12	8.557
300.48	9.625
300.85	10.727
301.22	9.172
301.59	8.838
301.95	8.438
302.32	10.013
302.69	9.438
303.05	9.576
303.42	9.383
303.79	10.079
304.15	8.508
304.52	7.300
304.89	8.362
305.25	8.005
305.62	8.947
305.99	10.390
306.35	9.732
306.72	9.193
307.09	8.324
307.45	8.896
307.82	8.371
308.19	8.499
308.55	9.924
308.92	7.089
309.29	8.765
309.65	7.423
310.02	7.928
310.38	8.495
310.75	8.659
311.12	9.314
311.48	9.195
311.85	9.539
312.22	8.012
312.58	8.732
312.95	8.448
313.31	8.835
313.68	7.900
314.05	10.848
314.41	8.844
314.78	7.251
315.14	9.434
315.51	9.269
315.87	9.703
316.24	8.838
316.61	7.895
316.97	8.219
317.34	6.164
317.70	8.317
318.07	7.603
318.43	8.415
318.80	7.966
319.16	7.721
319.53	7.786
319.89	8.571
320.26	9.400
320.62	8.532
320.99	8.586
321.35	7.475
321.72	8.624
322.08	8.490
322.45	9.950
322.81	8.430
323.18	9.249
323.54	8.163
323.91	8.868
324.27	8.031
324.64	8.201
325.00	7.214
325.37	8.098
325.73	9.695
326.10	9.356
326.46	7.706
326.83	8.283
327.19	9.137
327.56	8.537
327.92	8.136
328.29	8.518
328.65	9.484
329.01	8.845
329.38	8.973
329.74	8.772
330.11	7.917
330.47	10.009
330.84	9.651
331.20	8.288
331.56	8.532
331.93	8.519
332.29	8.518
332.66	9.381
333.02	8.318
333.38	9.124
333.75	9.537
334.11	9.075
334.48	8.962
334.84	9.375
335.20	7.727
335.57	9.157
335.93	7.679
336.29	9.341
336.66	8.025
337.02	8.145
337.38	8.611
337.75	7.665
338.11	8.236
338.47	7.366
338.84	9.258
339.20	7.248
339.56	9.580
339.93	8.455
340.29	8.696
340.65	7.576
341.02	8.639
341.38	8.630
341.74	8.421
342.11	8.384
342.47	8.722
342.83	8.390
343.20	8.918
343.56	7.919
343.92	7.895
344.28	7.993
344.65	8.340
345.01	7.492
345.37	7.890
345.73	8.968
346.10	8.610
346.46	8.136
346.82	8.072
347.19	8.187
347.55	8.374
347.91	8.981
348.27	8.956
348.63	8.863
349.00	8.333
349.36	8.539
349.72	8.180
350.08	7.780
350.45	8.381
350.81	7.717
351.17	8.266
351.53	7.535
351.89	7.178
352.26	8.603
352.62	8.581
352.98	7.861
353.34	8.135
353.70	6.956
354.07	8.548
354.43	8.492
354.79	7.160
355.15	7.741
355.51	8.233
355.87	7.755
356.24	7.410
356.60	7.217
356.96	7.562
357.32	7.359
357.68	7.874
358.04	6.968
358.40	8.472
358.77	7.825
359.13	6.788
359.49	7.137
359.85	6.746
360.21	6.699
360.57	8.405
360.93	8.308
361.29	7.407
361.66	7.043
362.02	7.910
362.38	8.061
362.74	7.589
363.10	6.736
363.46	6.897
363.82	6.803
364.18	6.021
364.54	7.429
364.90	7.649
365.26	6.691
365.62	7.597
365.98	7.816
366.35	6.662
366.71	7.303
367.07	7.138
367.43	7.837
367.79	6.709
368.15	8.549
368.51	6.323
368.87	7.066
369.23	7.096
369.59	7.024
369.95	6.765
370.31	7.265
370.67	7.391
371.03	7.940
371.39	7.362
371.75	6.765
372.11	7.041
372.47	8.065
372.83	8.213
373.19	6.647
373.55	6.874
373.91	6.996
374.27	6.598
374.63	6.618
374.99	8.051
375.35	6.001
375.71	6.717
376.07	7.819
376.42	6.602
376.78	7.157
377.14	7.327
377.50	6.556
377.86	6.516
378.22	7.396
378.58	6.704
378.94	6.600
379.30	6.361
379.66	6.916
380.02	6.941
380.38	6.072
380.74	7.083
381.09	6.785
381.45	6.577
381.81	7.125
382.17	7.643
382.53	7.044
382.89	6.975
383.25	6.316
383.61	6.258
383.97	6.629
384.32	6.238
384.68	6.258
385.04	6.638
385.40	6.068
385.76	6.818
386.12	6.347
386.48	6.482
386.83	6.799
387.19	6.865
387.55	7.174
387.91	6.953
388.27	6.928
388.62	7.068
388.98	6.388
389.34	7.572
389.70	6.376
390.06	7.414
390.42	6.615
390.77	7.252
391.13	6.126
391.49	6.028
391.85	6.302
392.20	5.615
392.56	6.376
392.92	7.063
393.28	5.562
393.64	6.295
393.99	6.720
394.35	6.638
394.71	6.462
395.07	6.417
395.42	7.046
395.78	6.679
396.14	6.704
396.50	7.581
396.85	6.294
397.21	6.227
397.57	6.758
397.92	6.430
398.28	6.222
398.64	6.272
399.00	6.100
399.35	5.753
399.71	6.019
400.07	6.682
400.42	6.933
400.78	6.634
401.14	6.280
401.49	6.866
401.85	5.687
402.21	6.707
402.57	6.416
402.92	6.179
403.28	6.808
403.63	6.250
403.99	5.605
404.35	6.848
404.70	6.235
405.06	6.407
405.42	6.363
405.77	6.286
406.13	5.813
406.49	6.623
406.84	5.848
407.20	5.910
407.55	6.063
407.91	6.600
408.27	5.935
408.62	6.924
408.98	6.189
409.34	5.904
409.69	6.645
410.05	6.444
410.40	5.994
410.76	6.810
411.11	6.755
411.47	6.901
411.83	6.231
412.18	6.061
412.54	5.604
412.89	6.687
413.25	5.785
413.60	5.559
413.96	6.011
414.31	6.258
414.67	6.781
415.03	5.894
415.38	6.186
415.74	6.367
416.09	6.466
416.45	6.091
416.80	6.279
417.16	6.099
417.51	7.034
417.87	6.551
418.22	6.751
418.58	7.360
418.93	6.818
419.29	5.983
419.64	6.423
420.00	6.463
420.35	5.855
420.71	7.053
421.06	6.444
421.42	6.608
421.77	6.951
422.12	5.727
422.48	5.397
422.83	5.766
423.19	6.409
423.54	6.210
423.90	7.014
424.25	6.309
424.61	5.952
424.96	6.181
425.31	6.091
425.67	6.067
426.02	6.571
426.38	6.899
426.73	6.261
427.09	6.383
427.44	6.210
427.79	6.210
428.15	7.321
428.50	6.378
428.85	6.913
429.21	6.074
429.56	6.273
429.92	5.737
430.27	6.207
430.62	5.069
430.98	5.812
431.33	6.392
431.68	6.283
432.04	6.230
432.39	6.225
432.74	6.463
433.10	6.055
433.45	6.122
433.80	5.432
434.16	6.090
434.51	5.947
434.86	6.271
435.22	6.115
435.57	6.201
435.92	5.442
436.28	6.524
436.63	6.788
436.98	5.896
437.34	6.619
437.69	7.351
438.04	5.677
438.39	5.970
438.75	5.985
439.10	5.922
439.45	6.198
439.81	5.498
440.16	5.872
440.51	6.503
440.86	6.891
441.22	6.062
441.57	6.635
441.92	5.681
442.27	6.028
442.63	5.687
442.98	6.085
443.33	6.413
443.68	5.318
444.03	5.759
444.39	5.404
444.74	6.061
445.09	6.038
445.44	6.397
445.79	5.690
446.15	6.670
446.50	6.408
446.85	6.064
447.20	6.323
447.55	5.583
447.91	6.288
448.26	6.288
448.61	6.840
448.96	6.368
449.31	6.862
449.66	6.415
450.02	6.128
450.37	6.293
450.72	6.091
451.07	6.033
451.42	6.444
451.77	6.400
452.12	6.640
452.47	6.903
452.83	5.886
453.18	6.051
453.53	6.679
453.88	5.848
454.23	6.455
454.58	6.663
454.93	6.675
455.28	5.923
455.63	6.735
455.98	7.083
456.34	6.156
456.69	7.076
457.04	6.316
457.39	6.254
457.74	6.152
458.09	7.131
458.44	6.727
458.79	5.965
459.14	6.321
459.49	7.180
459.84	6.150
460.19	6.305
460.54	6.597
460.89	6.528
461.24	6.740
461.59	7.089
461.94	7.152
462.29	6.291
462.64	6.892
462.99	6.311
463.34	8.000
463.69	6.629
464.04	6.377
464.39	7.536
464.74	7.665
465.09	6.574
465.44	6.260
465.79	6.544
466.14	6.513
466.49	6.118
466.84	6.480
467.19	7.182
467.54	7.000
467.89	7.203
468.24	6.864
468.59	7.448
468.94	6.597
469.29	7.069
469.64	8.166
469.99	6.766
470.34	6.539
470.68	6.897
471.03	6.599
471.38	7.019
471.73	7.528
472.08	7.632
472.43	6.595
472.78	7.176
473.13	7.510
473.48	7.553
473.83	7.256
474.17	6.783
474.52	7.816
474.87	7.531
475.22	6.732
475.57	6.985
475.92	6.267
476.27	7.103
476.61	6.950
476.96	6.322
477.31	6.436
477.66	7.057
478.01	6.848
478.36	6.081
478.70	6.386
479.05	7.188
479.40	7.114
479.75	6.609
480.10	6.014
480.45	5.854
480.79	5.829
481.14	7.094
481.49	6.550
481.84	5.944
482.19	6.497
482.53	5.917
482.88	6.282
483.23	6.636
483.58	6.642
483.92	6.279
484.27	5.142
484.62	6.379
484.97	5.991
485.31	5.788
485.66	4.843
486.01	4.385
486.36	4.125
486.70	4.447
487.05	4.759
487.40	4.980
487.75	5.038
488.09	5.520
488.44	5.003
488.79	5.570
489.13	5.309
489.48	6.036
489.83	5.740
490.17	6.181
490.52	6.289
490.87	5.970
491.22	6.367
491.56	6.241
491.91	6.189
492.26	6.293
492.60	6.682
492.95	6.314
493.30	6.729
493.64	6.813
493.99	6.360
494.34	6.568
494.68	6.410
495.03	6.579
495.37	6.142
495.72	6.335
496.07	6.682
496.41	6.372
496.76	6.860
497.11	6.619
497.45	6.567
497.80	6.286
498.14	6.618
498.49	6.293
498.84	6.616
499.18	6.667
499.53	6.600
499.87	6.617
500.22	6.123
500.56	7.136
500.91	6.250
501.26	6.354
501.60	6.929
501.95	6.691
502.29	6.560
502.64	7.356
502.98	6.685
503.33	6.444
503.67	6.636
504.02	6.455
504.36	6.645
504.71	6.546
505.06	6.747
505.40	6.660
505.75	6.461
506.09	6.900
506.44	6.808
506.78	7.160
507.13	6.764
507.47	7.222
507.82	7.599
508.16	7.244
508.51	7.407
508.85	7.051
509.19	6.837
509.54	7.092
509.88	6.852
510.23	6.324
510.57	8.566
510.92	7.147
511.26	7.297
511.61	8.299
511.95	6.576
512.30	7.476
512.64	7.523
512.98	7.395
513.33	8.084
513.67	7.150
514.02	6.656
514.36	7.537
514.70	7.582
515.05	6.470
515.39	7.515
515.74	7.545
516.08	8.329
516.42	7.714
516.77	8.027
517.11	6.826
517.46	7.675
517.80	7.898
518.14	7.122
518.49	7.760
518.83	8.011
519.17	8.372
519.52	8.602
519.86	8.043
520.20	8.382
520.55	9.216
520.89	8.577
521.23	8.987
521.58	8.703
521.92	8.145
522.26	8.054
522.61	8.474
522.95	8.471
523.29	8.217
523.64	8.841
523.98	8.996
524.32	8.625
524.66	8.479
525.01	8.517
525.35	9.108
525.69	8.744
526.04	8.100
526.38	9.091
526.72	8.528
527.06	8.788
527.41	8.354
527.75	8.232
528.09	8.992
528.43	9.178
528.78	8.728
529.12	8.970
529.46	9.063
529.80	8.478
530.15	9.595
530.49	8.185
530.83	8.924
531.17	9.726
531.51	9.987
531.86	8.839
532.20	9.648
532.54	10.442
532.88	8.858
533.22	8.245
533.57	8.765
533.91	8.970
534.25	9.052
534.59	9.213
534.93	9.518
535.27	9.234
535.62	9.524
535.96	9.165
536.30	8.264
536.64	9.208
536.98	9.688
537.32	9.019
537.66	8.133
538.01	9.612
538.35	9.632
538.69	10.147
539.03	8.772
539.37	8.498
539.71	7.712
540.05	8.954
540.39	9.635
540.73	9.314
541.07	10.448
541.42	8.415
541.76	9.871
542.10	9.120
542.44	9.338
542.78	9.354
543.12	9.085
543.46	9.902
543.80	9.564
544.14	7.510
544.48	8.889
544.82	8.788
545.16	8.653
545.50	8.997
545.84	9.207
546.18	9.832
546.52	9.016
546.86	9.278
547.20	9.980
547.54	9.152
547.88	10.395
548.22	9.340
548.56	9.497
548.90	8.323
549.24	9.024
549.58	10.095
549.92	9.066
550.26	10.298
550.60	9.405
550.94	10.423
551.28	8.705
551.62	9.490
551.96	9.333
552.30	9.215
552.64	9.398
552.98	10.102
553.32	9.710
553.66	9.680
554.00	9.609
554.34	9.386
554.68	9.943
555.02	9.732
555.36	9.603
555.69	9.269
556.03	9.421
556.37	9.345
556.71	9.345
557.05	9.874
557.39	10.007
557.73	9.527
558.07	9.645
558.41	9.190
558.75	10.213
559.08	9.993
559.42	10.506
559.76	9.632
560.10	10.064
560.44	8.875
560.78	9.914
561.12	9.631
561.45	10.365
561.79	9.426
562.13	9.256
562.47	8.948
562.81	8.856
563.15	9.431
563.48	9.483
563.82	9.589
564.16	8.175
564.50	8.529
564.84	9.166
565.17	8.687
565.51	9.649
565.85	10.025
566.19	8.453
566.52	9.056
566.86	8.379
567.20	9.080
567.54	9.247
567.88	7.713
568.21	9.101
568.55	7.988
568.89	7.879
569.23	7.754
569.56	7.692
569.90	7.472
570.24	7.858
570.57	7.412
570.91	7.466
571.25	7.011
571.59	7.216
571.92	6.826
572.26	6.846
572.60	7.177
572.93	7.376
573.27	7.217
573.61	6.672
573.95	6.977
574.28	6.809
574.62	6.924
574.96	6.619
575.29	6.329
575.63	6.580
575.97	6.899
576.30	6.771
576.64	6.444
576.98	6.296
577.31	6.238
577.65	6.384
577.98	6.514
578.32	6.215
578.66	6.352
578.99	6.848
579.33	6.754
579.67	6.106
580.00	6.593
580.34	6.763
580.67	6.547
581.01	6.679
581.35	6.402
581.68	6.509
582.02	6.122
582.35	6.329
582.69	6.689
583.02	6.131
583.36	6.756
583.70	6.543
584.03	6.766
584.37	6.614
584.70	6.452
585.04	6.556
585.37	6.757
585.71	6.814
586.04	7.031
586.38	6.583
586.72	7.291
587.05	6.466
587.39	6.464
587.72	7.163
588.06	6.564
588.39	6.996
588.73	6.982
589.06	6.856
589.40	6.902
589.73	7.533
590.07	7.509
590.40	7.015
590.73	7.572
591.07	7.733
591.40	7.423
591.74	8.182
592.07	7.679
592.41	8.351
592.74	7.154
593.08	7.362
593.41	6.928
593.75	6.683
594.08	7.342
594.41	7.388
594.75	7.542
595.08	7.695
595.42	7.916
595.75	7.301
596.09	7.773
596.42	7.819
596.75	7.809
597.09	8.095
597.42	7.504
597.75	7.891
598.09	7.913
598.42	7.689
598.76	6.931
599.09	6.575
599.42	7.642
599.76	7.577
600.09	7.067
600.42	7.159
600.76	7.214
601.09	6.849
601.42	7.725
601.76	7.628
602.09	7.431
602.42	8.201
602.76	7.699
603.09	7.435
603.42	7.770
603.76	7.241
604.09	6.786
604.42	7.583
604.76	8.773
605.09	8.038
605.42	7.867
605.75	7.616
606.09	7.442
606.42	7.274
606.75	7.673
607.09	7.911
607.42	7.317
607.75	7.679
608.08	7.946
608.42	7.844
608.75	8.115
609.08	8.002
609.41	7.758
609.75	7.861
610.08	8.106
610.41	7.076
610.74	7.427
611.07	8.004
611.41	7.998
611.74	8.497
612.07	8.592
612.40	8.709
612.73	8.158
613.07	8.836
613.40	8.373
613.73	7.708
614.06	7.957
614.39	8.390
614.72	9.000
615.06	8.771
615.39	8.386
615.72	7.720
616.05	7.337
616.38	8.671
616.71	8.076
617.05	8.893
617.38	8.539
617.71	8.829
618.04	9.315
618.37	8.811
618.70	9.272
619.03	9.408
619.36	8.961
619.69	8.944
620.03	9.066
620.36	9.893
620.69	9.521
621.02	9.292
621.35	9.475
621.68	9.735
622.01	9.520
622.34	10.061
622.67	8.669
623.00	8.731
623.33	8.792
623.66	9.364
623.99	9.278
624.32	9.700
624.65	8.121
624.99	8.924
625.32	8.907
625.65	9.241
625.98	9.915
626.31	11.431
626.64	10.449
626.97	10.391
627.30	9.809
627.63	10.172
627.96	10.429
628.29	9.974
628.62	11.528
628.95	12.736
629.28	11.314
629.61	11.641
629.94	11.048
630.26	9.628
630.59	10.677
630.92	10.536
631.25	10.958
631.58	10.711
631.91	10.953
632.24	11.181
632.57	11.438
632.90	11.513
633.23	12.081
633.56	12.316
633.89	12.684
634.22	11.124
634.55	13.609
634.88	10.299
635.20	12.186
635.53	12.771
635.86	11.634
636.19	12.588
636.52	10.842
636.85	11.913
637.18	11.290
637.51	12.766
637.83	10.604
638.16	14.066
638.49	14.106
638.82	11.884
639.15	12.625
639.48	13.466
639.81	12.735
640.13	12.891
640.46	12.349
640.79	13.871
641.12	11.142
641.45	13.687
641.77	14.138
642.10	13.450
642.43	13.063
642.76	13.313
643.09	13.497
643.41	12.898
643.74	12.346
644.07	14.634
644.40	14.571
644.73	16.220
645.05	15.372
645.38	13.428
645.71	13.043
646.04	12.957
646.36	16.194
646.69	13.712
647.02	13.946
647.35	15.120
647.67	15.575
648.00	15.285
648.33	13.861
648.66	13.939
648.98	14.843
649.31	13.752
649.64	13.004
649.96	13.413
650.29	13.902
650.62	12.945
650.94	15.235
651.27	17.061
