SpectraSuite Data File
++++++++++++++++++++++++++++++++++++
Date: Wed May 13 19:14:15 PDT 2015
User: schluterlab
Dark Spectrum Present: Yes
Reference Spectrum Present: Yes
Number of Sampled Component Spectra: 1
Spectrometers: USB2E3373
Integration Time (usec): 3000 (USB2E3373)
Spectra Averaged: 3 (USB2E3373)
Boxcar Smoothing: 0 (USB2E3373)
Correct for Electrical Dark: No (USB2E3373)
Strobe/Lamp Enabled: No (USB2E3373)
Correct for Detector Non-linearity: No (USB2E3373)
Correct for Stray Light: No (USB2E3373)
Number of Pixels in Processed Spectrum: 2048
>>>>>Begin Processed Spectral Data<<<<<
178.53	0.000
178.91	-1500.000
179.29	-1300.000
179.67	-261.111
180.04	-1350.000
180.42	2650.000
180.80	1140.000
181.18	-1125.000
181.56	885.714
181.94	0.000
182.31	-700.000
182.69	2000.000
183.07	-600.000
183.45	-588.889
183.83	536.364
184.20	-520.000
184.58	3100.000
184.96	5300.000
185.34	-960.000
185.72	-625.000
186.09	-2550.000
186.47	2850.000
186.85	2950.000
187.23	5500.000
187.61	-1766.667
187.98	1425.000
188.36	590.909
188.74	545.455
189.12	-980.000
189.49	750.000
189.87	-4900.000
190.25	-1325.000
190.63	514.286
191.00	530.769
191.38	833.333
191.76	-1325.000
192.14	1575.000
192.51	875.000
192.89	950.000
193.27	637.500
193.65	-1500.000
194.02	620.000
194.40	1000.000
194.78	630.000
195.15	558.333
195.53	660.000
195.91	-2600.000
196.29	337.500
196.66	321.053
197.04	-420.000
197.42	0.000
197.79	690.000
198.17	-5100.000
198.55	828.571
198.92	862.500
199.30	1040.000
199.68	0.000
200.05	327.778
200.43	871.429
200.81	4700.000
201.18	2033.333
201.56	-1800.000
201.94	633.333
202.31	655.556
202.69	491.667
203.07	650.000
203.44	0.000
203.82	1550.000
204.19	785.714
204.57	507.143
204.95	787.500
205.32	1733.333
205.70	545.455
206.08	464.286
206.45	3150.000
206.83	418.750
207.20	1016.667
207.58	720.000
207.96	327.778
208.33	800.000
208.71	-900.000
209.08	842.857
209.46	700.000
209.84	463.636
210.21	-1533.333
210.59	1375.000
210.96	-600.000
211.34	2600.000
211.71	690.000
212.09	933.333
212.46	0.000
212.84	1866.667
213.22	1550.000
213.59	-4300.000
213.97	900.000
214.34	957.143
214.72	636.364
215.09	1220.000
215.47	-2450.000
215.84	-2650.000
216.22	1633.333
216.59	464.286
216.97	1475.000
217.34	536.364
217.72	-833.333
218.09	0.000
218.47	-5500.000
218.84	777.778
219.22	757.143
219.59	1900.000
219.97	-742.857
220.34	1140.000
220.72	-1933.333
221.09	471.429
221.47	1650.000
221.84	-950.000
222.22	0.000
222.59	1600.000
222.97	-3250.000
223.34	1200.000
223.72	500.000
224.09	1380.000
224.46	2900.000
224.84	-4900.000
225.21	-1040.000
225.59	-5300.000
225.96	650.000
226.34	330.000
226.71	2800.000
227.08	687.500
227.46	590.000
227.83	-1025.000
228.21	-3050.000
228.58	688.889
228.95	-2950.000
229.33	-2950.000
229.70	2166.667
230.08	1000.000
230.45	-920.000
230.82	500.000
231.20	1016.667
231.57	785.714
231.95	550.000
232.32	250.000
232.69	509.091
233.07	885.714
233.44	407.692
233.81	-2133.333
234.19	342.105
234.56	491.667
234.93	516.667
235.31	636.364
235.68	446.154
236.05	421.429
236.43	224.242
236.80	342.105
237.17	5700.000
237.55	338.095
237.92	267.857
238.29	385.714
238.67	251.613
239.04	241.379
239.41	191.667
239.79	182.609
240.16	188.095
240.53	193.182
240.91	160.784
241.28	184.000
241.65	162.000
242.02	144.928
242.40	120.968
242.77	143.333
243.14	115.054
243.51	126.966
243.89	120.000
244.26	112.222
244.63	95.699
245.00	102.128
245.38	111.881
245.75	94.393
246.12	97.248
246.49	100.000
246.87	101.600
247.24	105.385
247.61	85.714
247.98	81.046
248.36	89.189
248.73	80.892
249.10	92.357
249.47	81.356
249.84	81.818
250.22	79.144
250.59	73.373
250.96	80.808
251.33	77.251
251.70	77.723
252.08	79.048
252.45	71.300
252.82	72.609
253.19	68.085
253.56	76.471
253.94	71.784
254.31	73.828
254.68	75.769
255.05	70.849
255.42	70.325
255.79	72.426
256.16	72.924
256.54	69.258
256.91	71.530
257.28	67.986
257.65	69.307
258.02	62.422
258.39	68.139
258.76	65.552
259.14	62.500
259.51	69.605
259.88	61.491
260.25	65.559
260.62	66.763
260.99	69.565
261.36	67.267
261.73	63.037
262.10	62.209
262.47	64.507
262.85	64.345
263.22	59.829
263.59	65.812
263.96	60.714
264.33	58.747
264.70	60.000
265.07	61.637
265.44	59.596
265.81	57.908
266.18	60.050
266.55	63.171
266.92	63.145
267.29	62.731
267.66	59.862
268.03	57.955
268.40	57.710
268.77	59.189
269.14	61.261
269.51	58.239
269.88	61.772
270.25	60.045
270.62	60.449
270.99	58.495
271.36	58.369
271.73	63.551
272.10	58.261
272.47	60.215
272.84	58.874
273.21	57.233
273.58	51.528
273.95	57.233
274.32	56.198
274.69	58.458
275.06	54.134
275.43	61.277
275.80	55.912
276.17	57.230
276.54	57.173
276.91	56.719
277.28	53.516
277.65	55.706
278.02	59.627
278.39	58.008
278.76	56.182
279.13	53.962
279.50	55.680
279.87	55.179
280.23	55.090
280.60	56.480
280.97	54.159
281.34	54.336
281.71	55.273
282.08	58.349
282.45	54.545
282.82	53.996
283.19	52.228
283.56	53.860
283.92	52.961
284.29	51.852
284.66	54.446
285.03	54.069
285.40	51.937
285.77	52.189
286.14	53.541
286.51	51.333
286.87	52.821
287.24	52.932
287.61	49.278
287.98	51.461
288.35	47.227
288.72	47.819
289.08	49.922
289.45	50.741
289.82	50.569
290.19	45.840
290.56	47.933
290.93	48.187
291.29	49.540
291.66	45.723
292.03	48.256
292.40	48.018
292.77	46.746
293.13	45.373
293.50	45.335
293.87	46.667
294.24	46.370
294.60	43.377
294.97	45.203
295.34	44.711
295.71	43.608
296.08	42.877
296.44	42.641
296.81	42.140
297.18	43.631
297.55	42.084
297.91	41.689
298.28	42.035
298.65	40.339
299.02	42.688
299.38	42.762
299.75	39.623
300.12	40.230
300.48	41.000
300.85	40.321
301.22	39.490
301.59	39.141
301.95	41.940
302.32	41.592
302.69	40.263
303.05	40.242
303.42	40.123
303.79	38.845
304.15	37.995
304.52	37.196
304.89	36.121
305.25	37.703
305.62	37.599
305.99	38.489
306.35	37.808
306.72	39.350
307.09	38.957
307.45	38.176
307.82	38.170
308.19	38.190
308.55	38.619
308.92	37.057
309.29	36.008
309.65	38.070
310.02	36.152
310.38	37.527
310.75	38.226
311.12	36.745
311.48	37.827
311.85	38.889
312.22	38.398
312.58	37.630
312.95	38.754
313.31	36.505
313.68	39.189
314.05	39.053
314.41	38.492
314.78	37.966
315.14	38.928
315.51	38.517
315.87	38.020
316.24	39.821
316.61	38.889
316.97	38.552
317.34	38.454
317.70	40.249
318.07	40.327
318.43	41.487
318.80	41.799
319.16	42.185
319.53	42.026
319.89	44.190
320.26	43.900
320.62	44.544
320.99	42.525
321.35	44.747
321.72	46.304
322.08	47.878
322.45	48.458
322.81	49.031
323.18	49.133
323.54	48.423
323.91	48.679
324.27	50.956
324.64	52.004
325.00	51.037
325.37	50.591
325.73	53.232
326.10	53.751
326.46	54.659
326.83	54.961
327.19	54.398
327.56	55.139
327.92	57.480
328.29	56.965
328.65	58.287
329.01	58.032
329.38	59.574
329.74	60.572
330.11	60.886
330.47	61.065
330.84	59.467
331.20	61.111
331.56	61.101
331.93	62.778
332.29	62.644
332.66	62.212
333.02	61.974
333.38	62.782
333.75	61.586
334.11	63.434
334.48	63.265
334.84	64.062
335.20	63.273
335.57	63.373
335.93	62.589
336.29	62.729
336.66	63.661
337.02	62.624
337.38	64.259
337.75	63.012
338.11	62.847
338.47	65.654
338.84	64.528
339.20	63.578
339.56	65.967
339.93	65.182
340.29	64.221
340.65	64.082
341.02	64.747
341.38	65.036
341.74	64.386
342.11	65.590
342.47	65.198
342.83	64.640
343.20	66.580
343.56	63.774
343.92	64.737
344.28	65.051
344.65	67.240
345.01	65.236
345.37	63.808
345.73	65.990
346.10	65.132
346.46	66.525
346.82	63.921
347.19	65.330
347.55	65.107
347.91	65.453
348.27	66.064
348.63	65.886
349.00	65.291
349.36	65.928
349.72	65.437
350.08	65.073
350.45	65.500
350.81	66.125
351.17	65.235
351.53	67.486
351.89	65.677
352.26	66.219
352.62	66.079
352.98	65.235
353.34	68.283
353.70	64.975
354.07	67.823
354.43	66.429
354.79	64.763
355.15	67.598
355.51	67.946
355.87	68.082
356.24	67.101
356.60	67.522
356.96	69.187
357.32	69.256
357.68	68.583
358.04	68.804
358.40	68.250
358.77	67.527
359.13	68.193
359.49	69.098
359.85	70.238
360.21	69.378
360.57	69.027
360.93	70.154
361.29	69.539
361.66	68.885
362.02	70.821
362.38	71.559
362.74	71.503
363.10	69.282
363.46	70.946
363.82	72.940
364.18	70.338
364.54	70.951
364.90	71.742
365.26	71.912
365.62	72.973
365.98	71.731
366.35	70.559
366.71	72.379
367.07	73.052
367.43	74.746
367.79	73.733
368.15	75.072
368.51	72.384
368.87	74.661
369.23	74.616
369.59	74.801
369.95	74.853
370.31	72.507
370.67	73.333
371.03	76.554
371.39	75.583
371.75	75.809
372.11	74.111
372.47	77.493
372.83	77.954
373.19	75.795
373.55	78.492
373.91	79.161
374.27	74.227
374.63	78.036
374.99	77.119
375.35	77.181
375.71	77.039
376.07	78.121
376.42	78.473
376.78	78.993
377.14	79.647
377.50	78.344
377.86	79.255
378.22	80.152
378.58	79.198
378.94	79.824
379.30	80.725
379.66	81.155
380.02	80.835
380.38	81.056
380.74	82.593
381.09	82.090
381.45	81.746
381.81	82.002
382.17	81.975
382.53	83.459
382.89	83.827
383.25	82.927
383.61	82.466
383.97	83.615
384.32	82.346
384.68	81.722
385.04	84.511
385.40	83.344
385.76	84.889
386.12	84.391
386.48	85.022
386.83	86.915
387.19	85.776
387.55	84.230
387.91	85.671
388.27	83.936
388.62	85.126
388.98	86.486
389.34	85.419
389.70	86.450
390.06	86.946
390.42	87.743
390.77	86.832
391.13	88.896
391.49	87.563
391.85	86.060
392.20	86.562
392.56	88.321
392.92	87.345
393.28	88.994
393.64	87.650
393.99	85.767
394.35	88.089
394.71	86.951
395.07	86.916
395.42	89.308
395.78	87.659
396.14	86.716
396.50	88.409
396.85	89.828
397.21	86.868
397.57	89.151
397.92	88.161
398.28	87.668
398.64	88.053
399.00	88.360
399.35	88.494
399.71	88.542
400.07	87.522
400.42	88.221
400.78	88.540
401.14	88.293
401.49	89.493
401.85	88.990
402.21	88.144
402.57	87.662
402.92	89.029
403.28	90.506
403.63	89.728
403.99	91.019
404.35	88.545
404.70	89.269
405.06	89.167
405.42	90.206
405.77	88.114
406.13	86.625
406.49	88.705
406.84	88.364
407.20	88.889
407.55	90.300
407.91	89.867
408.27	91.640
408.62	88.200
408.98	89.277
409.34	88.684
409.69	89.032
410.05	89.033
410.40	90.031
410.76	89.247
411.11	87.455
411.47	88.243
411.83	88.332
412.18	89.239
412.54	89.290
412.89	88.072
413.25	90.024
413.60	89.314
413.96	87.250
414.31	89.915
414.67	87.452
415.03	87.947
415.38	89.304
415.74	87.524
416.09	89.876
416.45	89.224
416.80	89.954
417.16	89.477
417.51	89.317
417.87	86.962
418.22	89.968
418.58	89.090
418.93	89.373
419.29	88.924
419.64	88.539
420.00	87.500
420.35	88.290
420.71	88.464
421.06	87.709
421.42	88.129
421.77	88.453
422.12	89.220
422.48	87.318
422.83	89.458
423.19	87.182
423.54	88.741
423.90	89.159
424.25	88.666
424.61	87.917
424.96	89.213
425.31	88.095
425.67	86.854
426.02	86.743
426.38	89.255
426.73	89.526
427.09	88.511
427.44	87.752
427.79	88.557
428.15	88.155
428.50	88.005
428.85	88.737
429.21	87.024
429.56	87.869
429.92	87.921
430.27	87.736
430.62	88.018
430.98	87.701
431.33	86.598
431.68	87.539
432.04	85.623
432.39	88.007
432.74	89.408
433.10	88.398
433.45	90.379
433.80	88.415
434.16	87.126
434.51	86.789
434.86	88.426
435.22	88.327
435.57	88.267
435.92	86.951
436.28	89.858
436.63	87.583
436.98	88.437
437.34	88.909
437.69	88.681
438.04	88.533
438.39	88.179
438.75	88.146
439.10	87.095
439.45	90.083
439.81	88.157
440.16	88.594
440.51	88.049
440.86	89.519
441.22	88.098
441.57	88.588
441.92	86.950
442.27	89.128
442.63	88.415
442.98	88.338
443.33	86.902
443.68	88.332
444.03	89.019
444.39	87.244
444.74	87.987
445.09	87.224
445.44	87.206
445.79	87.778
446.15	87.295
446.50	88.099
446.85	87.873
447.20	88.985
447.55	88.275
447.91	88.582
448.26	88.370
448.61	86.772
448.96	87.154
449.31	88.751
449.66	86.944
450.02	86.741
450.37	87.018
450.72	87.592
451.07	86.350
451.42	85.653
451.77	87.140
452.12	84.411
452.47	87.251
452.83	87.704
453.18	85.880
453.53	88.064
453.88	87.773
454.23	85.176
454.58	88.068
454.93	89.065
455.28	86.347
455.63	86.711
455.98	87.143
456.34	85.992
456.69	86.224
457.04	87.554
457.39	85.915
457.74	85.897
458.09	85.911
458.44	85.177
458.79	82.050
459.14	86.061
459.49	84.413
459.84	84.986
460.19	84.797
460.54	82.350
460.89	84.476
461.24	85.307
461.59	85.415
461.94	83.847
462.29	85.045
462.64	84.429
462.99	84.190
463.34	85.000
463.69	84.178
464.04	82.551
464.39	81.275
464.74	81.462
465.09	83.293
465.44	82.715
465.79	82.886
466.14	80.898
466.49	81.479
466.84	81.378
467.19	81.412
467.54	82.438
467.89	82.533
468.24	80.686
468.59	82.357
468.94	81.429
469.29	81.427
469.64	82.530
469.99	81.935
470.34	82.100
470.68	82.615
471.03	81.361
471.38	82.140
471.73	80.346
472.08	81.118
472.43	81.847
472.78	79.394
473.13	80.167
473.48	79.276
473.83	81.037
474.17	78.220
474.52	79.529
474.87	79.043
475.22	78.990
475.57	77.431
475.92	78.173
476.27	76.888
476.61	77.716
476.96	78.944
477.31	76.923
477.66	77.899
478.01	76.634
478.36	77.842
478.70	76.532
479.05	77.636
479.40	76.868
479.75	76.512
480.10	76.740
480.45	75.202
480.79	75.729
481.14	75.587
481.49	76.270
481.84	75.400
482.19	76.147
482.53	75.642
482.88	76.547
483.23	75.514
483.58	74.386
483.92	74.414
484.27	72.854
484.62	74.655
484.97	72.566
485.31	74.829
485.66	74.730
486.01	72.955
486.36	70.158
486.70	69.015
487.05	70.005
487.40	71.578
487.75	71.440
488.09	72.338
488.44	72.849
488.79	73.707
489.13	73.835
489.48	72.268
489.83	71.860
490.17	72.074
490.52	71.523
490.87	70.647
491.22	70.578
491.56	70.752
491.91	70.824
492.26	69.729
492.60	68.848
492.95	69.598
493.30	67.897
493.64	69.529
493.99	68.384
494.34	68.825
494.68	69.734
495.03	68.468
495.37	68.125
495.72	69.250
496.07	69.234
496.41	67.080
496.76	68.118
497.11	67.987
497.45	68.188
497.80	67.898
498.14	68.019
498.49	67.854
498.84	68.073
499.18	67.619
499.53	67.854
499.87	67.474
500.22	65.709
500.56	66.748
500.91	66.250
501.26	66.667
501.60	67.916
501.95	65.445
502.29	66.870
502.64	65.829
502.98	65.404
503.33	64.077
503.67	64.548
504.02	64.827
504.36	63.453
504.71	65.706
505.06	64.723
505.40	63.928
505.75	64.320
506.09	63.460
506.44	64.332
506.78	63.760
507.13	64.361
507.47	64.192
507.82	64.336
508.16	64.336
508.51	65.094
508.85	64.449
509.19	63.571
509.54	61.888
509.88	62.597
510.23	63.290
510.57	63.674
510.92	62.765
511.26	61.973
511.61	62.448
511.95	61.430
512.30	61.400
512.64	61.526
512.98	62.272
513.33	60.225
513.67	61.366
514.02	61.201
514.36	60.841
514.70	61.704
515.05	61.629
515.39	60.909
515.74	60.079
516.08	60.369
516.42	61.043
516.77	60.702
517.11	60.155
517.46	59.707
517.80	59.988
518.14	59.294
518.49	61.027
518.83	60.511
519.17	59.988
519.52	60.611
519.86	58.699
520.20	59.191
520.55	59.785
520.89	59.732
521.23	59.228
521.58	58.103
521.92	60.318
522.26	57.901
522.61	58.442
522.95	57.766
523.29	58.856
523.64	58.354
523.98	57.486
524.32	57.660
524.66	57.366
525.01	57.904
525.35	57.125
525.69	56.342
526.04	56.449
526.38	56.559
526.72	56.503
527.06	58.067
527.41	55.384
527.75	58.457
528.09	58.960
528.43	57.999
528.78	56.607
529.12	55.455
529.46	55.726
529.80	56.250
530.15	56.573
530.49	54.523
530.83	55.380
531.17	57.637
531.51	57.004
531.86	54.903
532.20	55.671
532.54	55.157
532.88	55.520
533.22	54.341
533.57	54.691
533.91	54.244
534.25	54.253
534.59	54.790
534.93	53.480
535.27	53.953
535.62	54.640
535.96	54.865
536.30	54.291
536.64	54.733
536.98	53.351
537.32	54.707
537.66	54.267
538.01	53.390
538.35	53.717
538.69	54.308
539.03	52.697
539.37	51.757
539.71	52.430
540.05	53.725
540.39	53.887
540.73	53.040
541.07	52.109
541.42	53.229
541.76	53.484
542.10	53.752
542.44	53.245
542.78	53.360
543.12	50.608
543.46	51.607
543.80	53.611
544.14	51.091
544.48	51.619
544.82	50.802
545.16	53.221
545.50	50.771
545.84	51.815
546.18	52.323
546.52	52.994
546.86	52.302
547.20	50.910
547.54	51.436
547.88	52.296
548.22	51.868
548.56	50.629
548.90	50.256
549.24	50.438
549.58	50.955
549.92	50.412
550.26	50.355
550.60	50.000
550.94	49.930
551.28	50.037
551.62	51.114
551.96	50.035
552.30	50.922
552.64	50.101
552.98	50.576
553.32	50.034
553.66	49.080
554.00	50.034
554.34	50.104
554.68	50.715
555.02	49.154
555.36	50.174
555.69	48.782
556.03	49.664
556.37	49.386
556.71	48.431
557.05	48.529
557.39	49.125
557.73	49.259
558.07	49.819
558.41	49.276
558.75	48.126
559.08	47.875
559.42	48.828
559.76	49.265
560.10	48.965
560.44	47.799
560.78	47.638
561.12	48.483
561.45	48.435
561.79	47.462
562.13	47.887
562.47	48.702
562.81	48.187
563.15	48.562
563.48	48.806
563.82	47.293
564.16	46.697
564.50	47.591
564.84	47.029
565.17	46.782
565.51	47.796
565.85	48.731
566.19	46.337
566.52	46.865
566.86	47.257
567.20	47.877
567.54	47.089
567.88	46.171
568.21	47.037
568.55	46.006
568.89	46.984
569.23	46.791
569.56	45.142
569.90	45.925
570.24	45.425
570.57	44.883
570.91	44.376
571.25	45.275
571.59	44.566
571.92	44.960
572.26	45.407
572.60	45.646
572.93	44.438
573.27	45.223
573.61	44.752
573.95	44.961
574.28	44.372
574.62	44.339
574.96	45.209
575.29	44.641
575.63	44.842
575.97	44.129
576.30	44.716
576.64	44.124
576.98	44.434
577.31	43.970
577.65	44.365
577.98	43.687
578.32	43.268
578.66	44.130
578.99	44.054
579.33	43.476
579.67	43.761
580.00	43.707
580.34	44.210
580.67	43.985
581.01	43.557
581.35	44.119
581.68	44.188
582.02	43.607
582.35	43.725
582.69	43.377
583.02	43.838
583.36	44.040
583.70	44.081
584.03	43.939
584.37	44.242
584.70	44.566
585.04	43.787
585.37	43.709
585.71	43.656
586.04	42.909
586.38	43.861
586.72	43.662
587.05	42.461
587.39	43.113
587.72	43.056
588.06	43.943
588.39	43.841
588.73	42.857
589.06	43.970
589.40	44.815
589.73	43.189
590.07	43.238
590.40	42.930
590.73	43.521
591.07	44.811
591.40	43.146
591.74	44.589
592.07	43.106
592.41	43.985
592.74	42.734
593.08	42.405
593.41	42.265
593.75	42.005
594.08	43.077
594.41	43.655
594.75	43.290
595.08	42.949
595.42	43.012
595.75	42.877
596.09	43.184
596.42	43.497
596.75	42.507
597.09	42.944
597.42	42.622
597.75	42.863
598.09	43.174
598.42	42.483
598.76	42.238
599.09	41.391
599.42	41.230
599.76	42.789
600.09	42.659
600.42	40.979
600.76	41.179
601.09	42.222
601.42	42.085
601.76	42.619
602.09	41.660
602.42	42.197
602.76	43.047
603.09	42.132
603.42	42.757
603.76	42.188
604.09	41.877
604.42	42.723
604.76	42.261
605.09	41.896
605.42	42.069
605.75	41.970
606.09	42.538
606.42	42.460
606.75	42.016
607.09	42.068
607.42	42.020
607.75	40.802
608.08	40.860
608.42	41.820
608.75	41.434
609.08	41.813
609.41	41.456
609.75	41.639
610.08	42.319
610.41	41.294
610.74	41.627
611.07	42.737
611.41	41.364
611.74	41.830
612.07	41.925
612.40	40.976
612.73	41.474
613.07	42.026
613.40	41.864
613.73	41.426
614.06	41.505
614.39	40.430
614.72	41.211
615.06	41.071
615.39	40.924
615.72	40.337
616.05	42.105
616.38	40.467
616.71	42.162
617.05	41.932
617.38	41.010
617.71	41.862
618.04	42.368
618.37	39.799
618.70	40.821
619.03	41.842
619.36	41.208
619.69	40.845
620.03	40.865
620.36	40.775
620.69	41.986
621.02	41.519
621.35	40.877
621.68	40.888
622.01	42.105
622.34	41.755
622.67	41.445
623.00	40.499
623.33	39.957
623.66	41.387
623.99	41.532
624.32	39.872
624.65	39.548
624.99	39.873
625.32	40.912
625.65	41.473
625.98	40.968
626.31	41.757
626.64	41.714
626.97	41.230
627.30	40.815
627.63	40.197
627.96	41.379
628.29	42.082
628.62	40.805
628.95	42.264
629.28	39.872
629.61	42.255
629.94	41.429
630.26	40.991
630.59	40.419
