SpectraSuite Data File
++++++++++++++++++++++++++++++++++++
Date: Wed May 13 19:25:18 PDT 2015
User: schluterlab
Dark Spectrum Present: Yes
Reference Spectrum Present: Yes
Number of Sampled Component Spectra: 1
Spectrometers: USB2E3373
Integration Time (usec): 3000 (USB2E3373)
Spectra Averaged: 3 (USB2E3373)
Boxcar Smoothing: 0 (USB2E3373)
Correct for Electrical Dark: No (USB2E3373)
Strobe/Lamp Enabled: No (USB2E3373)
Correct for Detector Non-linearity: No (USB2E3373)
Correct for Stray Light: No (USB2E3373)
Number of Pixels in Processed Spectrum: 2048
>>>>>Begin Processed Spectral Data<<<<<
178.53	0.000
178.91	-1650.000
179.29	-1175.000
179.67	-261.111
180.04	-1475.000
180.42	3100.000
180.80	1140.000
181.18	-1175.000
181.56	828.571
181.94	0.000
182.31	-657.143
182.69	1700.000
183.07	-575.000
183.45	-633.333
183.83	636.364
184.20	-420.000
184.58	2850.000
184.96	5400.000
185.34	-900.000
185.72	-637.500
186.09	-2450.000
186.47	2900.000
186.85	2700.000
187.23	6100.000
187.61	-1933.333
187.98	1500.000
188.36	545.455
188.74	609.091
189.12	-960.000
189.49	630.000
189.87	-5500.000
190.25	-1425.000
190.63	435.714
191.00	453.846
191.38	1100.000
191.76	-1275.000
192.14	1350.000
192.51	637.500
192.89	1066.667
193.27	675.000
193.65	-1225.000
194.02	520.000
194.40	900.000
194.78	630.000
195.15	600.000
195.53	670.000
195.91	-2150.000
196.29	418.750
196.66	378.947
197.04	-380.000
197.42	0.000
197.79	630.000
198.17	-4800.000
198.55	814.286
198.92	712.500
199.30	1100.000
199.68	0.000
200.05	344.444
200.43	800.000
200.81	5100.000
201.18	2100.000
201.56	-1700.000
201.94	611.111
202.31	644.444
202.69	433.333
203.07	570.000
203.44	0.000
203.82	1450.000
204.19	900.000
204.57	514.286
204.95	787.500
205.32	1800.000
205.70	500.000
206.08	342.857
206.45	3100.000
206.83	393.750
207.20	1083.333
207.58	700.000
207.96	305.556
208.33	687.500
208.71	-866.667
209.08	842.857
209.46	555.556
209.84	509.091
210.21	-1533.333
210.59	1575.000
210.96	-525.000
211.34	3050.000
211.71	640.000
212.09	766.667
212.46	0.000
212.84	1600.000
213.22	1525.000
213.59	-4500.000
213.97	1000.000
214.34	985.714
214.72	527.273
215.09	1120.000
215.47	-2000.000
215.84	-2850.000
216.22	1900.000
216.59	421.429
216.97	1300.000
217.34	481.818
217.72	-733.333
218.09	0.000
218.47	-4000.000
218.84	655.556
219.22	742.857
219.59	1766.667
219.97	-714.286
220.34	940.000
220.72	-1966.667
221.09	428.571
221.47	1400.000
221.84	-900.000
222.22	0.000
222.59	1525.000
222.97	-2650.000
223.34	1200.000
223.72	476.923
224.09	1120.000
224.46	2400.000
224.84	-4900.000
225.21	-1020.000
225.59	-5900.000
225.96	610.000
226.34	330.000
226.71	2850.000
227.08	737.500
227.46	620.000
227.83	-1125.000
228.21	-2450.000
228.58	688.889
228.95	-2450.000
229.33	-2750.000
229.70	1600.000
230.08	900.000
230.45	-780.000
230.82	508.333
231.20	916.667
231.57	742.857
231.95	416.667
232.32	268.182
232.69	427.273
233.07	714.286
233.44	400.000
233.81	-1966.667
234.19	284.211
234.56	408.333
234.93	483.333
235.31	600.000
235.68	476.923
236.05	414.286
236.43	190.909
236.80	368.421
237.17	5900.000
237.55	309.524
237.92	271.429
238.29	333.333
238.67	203.226
239.04	268.966
239.41	191.667
239.79	171.739
240.16	183.333
240.53	156.818
240.91	137.255
241.28	126.000
241.65	156.000
242.02	121.739
242.40	114.516
242.77	118.333
243.14	97.849
243.51	101.124
243.89	105.882
244.26	92.222
244.63	92.473
245.00	94.681
245.38	95.050
245.75	85.047
246.12	84.404
246.49	87.591
246.87	84.000
247.24	87.692
247.61	74.286
247.98	75.163
248.36	79.730
248.73	80.892
249.10	76.433
249.47	76.271
249.84	73.262
250.22	62.032
250.59	74.556
250.96	67.172
251.33	69.668
251.70	70.792
252.08	70.952
252.45	59.641
252.82	58.696
253.19	64.681
253.56	63.137
253.94	65.145
254.31	61.719
254.68	63.462
255.05	61.624
255.42	65.041
255.79	64.338
256.16	63.538
256.54	60.777
256.91	60.498
257.28	62.230
257.65	59.076
258.02	59.006
258.39	57.098
258.76	59.197
259.14	56.548
259.51	55.015
259.88	53.727
260.25	56.798
260.62	56.358
260.99	56.522
261.36	57.958
261.73	54.728
262.10	56.105
262.47	57.746
262.85	54.039
263.22	54.701
263.59	57.265
263.96	53.297
264.33	54.830
264.70	53.947
265.07	56.522
265.44	52.778
265.81	52.555
266.18	53.015
266.55	50.488
266.92	55.774
267.29	53.009
267.66	51.376
268.03	50.682
268.40	51.168
268.77	49.881
269.14	51.126
269.51	51.693
269.88	50.816
270.25	51.242
270.62	54.831
270.99	52.903
271.36	51.502
271.73	51.636
272.10	51.087
272.47	53.548
272.84	51.515
273.21	52.621
273.58	49.782
273.95	48.218
274.32	50.207
274.69	52.248
275.06	49.606
275.43	52.766
275.80	49.299
276.17	50.916
276.54	53.015
276.91	48.617
277.28	49.219
277.65	51.644
278.02	49.896
278.39	51.562
278.76	47.818
279.13	48.491
279.50	49.721
279.87	45.817
280.23	48.902
280.60	48.356
280.97	49.908
281.34	46.372
281.71	47.273
282.08	48.752
282.45	47.636
282.82	47.602
283.19	46.881
283.56	46.316
283.92	47.547
284.29	46.208
284.66	47.731
285.03	47.016
285.40	47.183
285.77	45.960
286.14	48.187
286.51	44.667
286.87	45.470
287.24	46.906
287.61	44.783
287.98	43.506
288.35	42.789
288.72	43.614
289.08	43.036
289.45	42.834
289.82	42.602
290.19	42.700
290.56	41.654
290.93	40.030
291.29	42.945
291.66	42.035
292.03	41.279
292.40	39.941
292.77	40.533
293.13	40.597
293.50	40.087
293.87	41.778
294.24	38.519
294.60	34.934
294.97	38.517
295.34	39.633
295.71	39.631
296.08	39.031
296.44	39.615
296.81	38.177
297.18	37.127
297.55	34.828
297.91	37.863
298.28	39.491
298.65	37.598
299.02	36.232
299.38	35.724
299.75	34.636
300.12	35.377
300.48	35.250
300.85	35.018
301.22	35.924
301.59	34.343
301.95	34.131
302.32	36.200
302.69	33.692
303.05	34.667
303.42	34.568
303.79	35.108
304.15	33.800
304.52	34.994
304.89	32.520
305.25	31.903
305.62	33.635
305.99	34.947
306.35	31.767
306.72	34.417
307.09	33.740
307.45	33.896
307.82	31.920
308.19	32.340
308.55	34.628
308.92	33.083
309.29	31.257
309.65	32.025
310.02	32.981
310.38	34.194
310.75	33.369
311.12	33.265
311.48	33.333
311.85	33.438
312.22	33.299
312.58	31.393
312.95	33.369
313.31	31.262
313.68	32.121
314.05	33.728
314.41	32.864
314.78	32.326
315.14	33.466
315.51	34.089
315.87	34.455
316.24	33.565
316.61	33.041
316.97	32.290
317.34	32.290
317.70	32.887
318.07	33.397
318.43	33.953
318.80	32.521
319.16	34.934
319.53	32.833
319.89	35.333
320.26	35.200
320.62	34.921
320.99	35.556
321.35	35.152
321.72	35.832
322.08	34.748
322.45	35.821
322.81	36.047
323.18	36.802
323.54	35.622
323.91	35.472
324.27	35.946
324.64	35.135
325.00	35.167
325.37	37.398
325.73	36.984
326.10	36.981
326.46	36.470
326.83	35.203
327.19	37.233
327.56	37.631
327.92	37.183
328.29	35.936
328.65	37.201
329.01	36.011
329.38	36.818
329.74	36.288
330.11	37.983
330.47	36.547
330.84	37.868
331.20	35.974
331.56	35.872
331.93	37.500
332.29	37.090
332.66	38.673
333.02	36.472
333.38	37.127
333.75	37.344
334.11	37.811
334.48	36.114
334.84	37.316
335.20	38.091
335.57	37.171
335.93	35.804
336.29	37.179
336.66	37.601
337.02	35.475
337.38	37.222
337.75	36.631
338.11	36.616
338.47	36.832
338.84	36.664
339.20	36.147
339.56	38.047
339.93	36.909
340.29	36.232
340.65	36.988
341.02	36.562
341.38	37.367
341.74	35.877
342.11	35.633
342.47	35.330
342.83	37.243
343.20	37.229
343.56	34.794
343.92	36.140
344.28	36.565
344.65	36.887
345.01	36.027
345.37	35.506
345.73	36.971
346.10	36.232
346.46	37.119
346.82	36.244
347.19	36.090
347.55	35.468
347.91	36.165
348.27	37.305
348.63	36.622
349.00	35.356
349.36	35.961
349.72	35.766
350.08	35.981
350.45	36.778
350.81	35.012
351.17	36.548
351.53	36.036
351.89	34.571
352.26	37.096
352.62	35.044
352.98	35.737
353.34	35.497
353.70	34.943
354.07	35.645
354.43	35.952
354.79	35.559
355.15	34.876
355.51	36.851
355.87	35.918
356.24	34.772
356.60	34.643
356.96	36.846
357.32	35.732
357.68	36.220
358.04	35.234
358.40	35.709
358.77	35.681
359.13	35.359
359.49	35.608
359.85	33.810
360.21	34.848
360.57	35.019
360.93	35.538
361.29	33.560
361.66	35.217
362.02	35.746
362.38	35.741
362.74	35.491
363.10	34.863
363.46	35.803
363.82	35.828
364.18	35.022
364.54	36.256
364.90	35.198
365.26	35.588
365.62	36.450
365.98	34.697
366.35	34.527
366.71	35.286
367.07	35.688
367.43	36.430
367.79	36.117
368.15	37.069
368.51	35.756
368.87	35.689
369.23	35.479
369.59	35.988
369.95	34.632
370.31	35.399
370.67	35.290
371.03	36.180
371.39	35.714
371.75	37.132
372.11	35.135
372.47	37.023
372.83	36.671
373.19	35.549
373.55	37.029
373.91	36.745
374.27	35.189
374.63	36.073
374.99	35.876
375.35	34.752
375.71	35.230
376.07	36.145
376.42	36.795
376.78	36.249
377.14	35.685
377.50	35.430
377.86	35.505
378.22	35.272
378.58	35.150
378.94	35.135
379.30	35.305
379.66	36.421
380.02	36.916
380.38	35.094
380.74	36.315
381.09	36.125
381.45	36.509
381.81	36.486
382.17	37.261
382.53	35.786
382.89	35.988
383.25	36.710
383.61	37.608
383.97	36.523
384.32	36.432
384.68	36.369
385.04	36.263
385.40	36.223
385.76	36.794
386.12	36.334
386.48	36.564
386.83	38.230
387.19	37.415
387.55	36.982
387.91	36.457
388.27	36.358
388.62	38.414
388.98	36.609
389.34	37.922
389.70	37.094
390.06	37.326
390.42	37.808
390.77	37.405
391.13	38.098
391.49	37.627
391.85	37.747
392.20	38.360
392.56	37.626
392.92	37.610
393.28	36.982
393.64	37.410
393.99	37.752
394.35	37.841
394.71	37.892
395.07	37.072
395.42	38.133
395.78	38.422
396.14	38.051
396.50	38.847
396.85	38.207
397.21	37.855
397.57	37.632
397.92	38.582
398.28	37.948
398.64	37.336
399.00	37.885
399.35	36.943
399.71	37.847
400.07	38.675
400.42	38.896
400.78	38.359
401.14	38.902
401.49	38.627
401.85	37.871
402.21	38.323
402.57	39.112
402.92	40.164
403.28	39.663
403.63	38.985
403.99	39.108
404.35	39.273
404.70	39.448
405.06	37.915
405.42	39.488
405.77	38.343
406.13	38.939
406.49	39.267
406.84	38.807
407.20	39.716
407.55	40.268
407.91	41.000
408.27	39.119
408.62	38.591
408.98	38.848
409.34	39.545
409.69	39.355
410.05	40.768
410.40	39.327
410.76	40.323
411.11	39.807
411.47	40.511
411.83	40.379
412.18	39.641
412.54	41.220
412.89	41.325
413.25	40.673
413.60	40.457
413.96	41.044
414.31	40.219
414.67	41.255
415.03	41.325
415.38	40.528
415.74	41.736
416.09	41.999
416.45	42.035
416.80	41.044
417.16	41.689
417.51	42.734
417.87	41.940
418.22	41.451
418.58	42.350
418.93	41.646
419.29	41.820
419.64	42.003
420.00	41.890
420.35	41.565
420.71	43.335
421.06	41.587
421.42	41.930
421.77	41.928
422.12	41.494
422.48	41.608
422.83	42.400
423.19	42.818
423.54	42.426
423.90	42.783
424.25	41.597
424.61	42.619
424.96	44.023
425.31	43.023
425.67	42.472
426.02	44.057
426.38	44.139
426.73	42.364
427.09	42.918
427.44	43.531
427.79	43.588
428.15	43.631
428.50	43.183
428.85	43.147
429.21	42.628
429.56	43.494
429.92	43.332
430.27	42.502
430.62	42.601
430.98	43.280
431.33	42.577
431.68	43.089
432.04	42.013
432.39	44.260
432.74	43.268
433.10	44.199
433.45	44.781
433.80	44.290
434.16	42.949
434.51	43.158
434.86	45.040
435.22	44.080
435.57	43.891
435.92	43.827
436.28	44.840
436.63	44.481
436.98	44.362
437.34	45.140
437.69	45.566
438.04	44.800
438.39	44.896
438.75	45.264
439.10	44.860
439.45	45.041
439.81	45.076
440.16	44.946
440.51	46.807
440.86	45.165
441.22	46.385
441.57	44.851
441.92	45.496
442.27	45.802
442.63	45.024
442.98	46.704
443.33	44.783
443.68	45.586
444.03	45.486
444.39	45.083
444.74	46.104
445.09	45.499
445.44	44.451
445.79	45.275
446.15	46.162
446.50	45.396
446.85	46.660
447.20	45.589
447.55	46.622
447.91	46.442
448.26	45.687
448.61	45.958
448.96	46.456
449.31	46.175
449.66	45.639
450.02	45.682
450.37	46.769
450.72	45.403
451.07	46.984
451.42	45.897
451.77	46.741
452.12	45.497
452.47	46.580
452.83	46.678
453.18	46.271
453.53	46.073
453.88	46.486
454.23	46.802
454.58	47.729
454.93	47.934
455.28	46.696
455.63	48.908
455.98	48.036
456.34	46.985
456.69	47.652
457.04	48.421
457.39	47.341
457.74	47.591
458.09	47.039
458.44	46.978
458.79	46.312
459.14	48.025
459.49	47.110
459.84	46.814
460.19	47.790
460.54	46.701
460.89	47.175
461.24	48.087
461.59	48.460
461.94	47.472
462.29	47.359
462.64	47.352
462.99	47.430
463.34	48.667
463.69	47.905
464.04	48.000
464.39	47.478
464.74	46.999
465.09	47.407
465.44	47.258
465.79	47.595
466.14	47.291
466.49	46.496
466.84	47.928
467.19	47.133
467.54	48.500
467.89	47.959
468.24	48.109
468.59	48.107
468.94	47.282
469.29	48.650
469.64	49.732
469.99	50.068
470.34	48.811
470.68	49.425
471.03	49.456
471.38	50.938
471.73	49.833
472.08	50.329
472.43	49.058
472.78	47.992
473.13	49.294
473.48	48.502
473.83	48.598
474.17	49.347
474.52	50.124
474.87	49.154
475.22	48.636
475.57	48.092
475.92	48.805
476.27	49.662
476.61	49.366
476.96	48.433
477.31	48.299
477.66	48.906
478.01	47.151
478.36	49.180
478.70	48.235
479.05	48.829
479.40	49.181
479.75	49.009
480.10	48.360
480.45	47.406
480.79	47.348
481.14	48.386
481.49	48.363
481.84	48.102
482.19	48.387
482.53	47.202
482.88	48.302
483.23	48.972
483.58	48.226
483.92	47.751
484.27	47.407
484.62	47.414
484.97	47.142
485.31	47.774
485.66	46.681
486.01	44.657
486.36	43.087
486.70	42.990
487.05	43.347
487.40	45.148
487.75	44.633
488.09	45.799
488.44	45.530
488.79	47.016
489.13	48.052
489.48	47.512
489.83	46.957
490.17	47.961
490.52	47.830
490.87	47.671
491.22	48.795
491.56	47.244
491.91	48.534
492.26	47.405
492.60	47.742
492.95	47.989
493.30	47.944
493.64	47.690
493.99	48.050
494.34	47.826
494.68	48.718
495.03	47.979
495.37	47.650
495.72	49.123
496.07	49.188
496.41	46.991
496.76	47.405
497.11	48.041
497.45	48.020
497.80	48.752
498.14	48.116
498.49	48.683
498.84	48.610
499.18	48.048
499.53	49.098
499.87	49.953
500.22	48.610
500.56	49.660
500.91	48.558
501.26	47.890
501.60	49.312
501.95	47.984
502.29	49.203
502.64	48.464
502.98	48.387
503.33	48.126
503.67	49.095
504.02	48.597
504.36	48.900
504.71	48.705
505.06	48.675
505.40	48.614
505.75	48.409
506.09	49.611
506.44	50.123
506.78	50.170
507.13	50.379
507.47	49.747
507.82	50.304
508.16	49.291
508.51	51.091
508.85	49.404
509.19	49.898
509.54	49.745
509.88	51.005
510.23	50.231
510.57	50.877
510.92	51.631
511.26	49.846
511.61	51.660
511.95	50.731
512.30	51.432
512.64	51.800
512.98	52.251
513.33	51.231
513.67	51.868
514.02	51.461
514.36	52.485
514.70	52.297
515.05	53.095
515.39	52.159
515.74	52.309
516.08	53.046
516.42	52.275
516.77	53.122
517.11	52.608
517.46	53.217
517.80	54.994
518.14	53.793
518.49	54.142
518.83	53.977
519.17	53.868
519.52	54.160
519.86	54.307
520.20	53.873
520.55	54.638
520.89	54.927
521.23	55.428
521.58	54.742
521.92	55.419
522.26	53.020
522.61	56.511
522.95	55.126
523.29	54.352
523.64	55.366
523.98	55.145
524.32	55.428
524.66	54.720
525.01	55.760
525.35	56.134
525.69	56.342
526.04	55.950
526.38	55.278
526.72	54.417
527.06	57.313
527.41	54.146
527.75	57.942
528.09	56.134
528.43	55.832
528.78	55.194
529.12	54.545
529.46	57.440
529.80	56.869
530.15	57.009
530.49	55.754
530.83	57.089
531.17	58.225
531.51	57.782
531.86	56.645
532.20	57.432
532.54	57.143
532.88	56.098
533.22	55.465
533.57	55.864
533.91	56.954
534.25	57.473
534.59	55.461
534.93	55.503
535.27	56.367
535.62	56.899
535.96	57.188
536.30	55.054
536.64	56.471
536.98	57.067
537.32	55.892
537.66	57.400
538.01	57.406
538.35	57.014
538.69	58.137
539.03	57.635
539.37	55.719
539.71	54.893
540.05	57.451
540.39	56.146
540.73	55.627
541.07	57.690
541.42	58.252
541.76	55.806
542.10	56.016
542.44	57.285
542.78	57.642
543.12	54.511
543.46	56.852
543.80	57.319
544.14	56.290
544.48	56.000
544.82	55.613
545.16	56.734
545.50	55.977
545.84	57.124
546.18	56.835
546.52	56.091
546.86	57.801
547.20	58.058
547.54	56.914
547.88	57.398
548.22	56.040
548.56	56.730
548.90	56.018
549.24	57.778
549.58	57.299
549.92	57.074
550.26	57.813
550.60	55.947
550.94	57.465
551.28	57.206
551.62	57.656
551.96	56.140
552.30	58.089
552.64	56.525
552.98	55.525
553.32	56.777
553.66	57.328
554.00	57.447
554.34	56.660
554.68	56.223
555.02	56.347
555.36	55.324
555.69	56.022
556.03	56.191
556.37	55.935
556.71	57.231
557.05	56.653
557.39	55.913
557.73	56.528
558.07	56.780
558.41	56.368
558.75	57.384
559.08	57.867
559.42	58.125
559.76	57.500
560.10	56.460
560.44	55.835
560.78	54.890
561.12	56.926
561.45	55.541
561.79	54.779
562.13	55.466
562.47	56.352
562.81	55.927
563.15	54.716
563.48	54.775
563.82	55.773
564.16	55.592
564.50	55.143
564.84	54.867
565.17	54.569
565.51	56.038
565.85	53.934
566.19	54.728
566.52	55.225
566.86	54.069
567.20	55.366
567.54	53.938
567.88	52.580
568.21	53.810
568.55	51.921
568.89	52.578
569.23	50.446
569.56	50.283
569.90	50.340
570.24	50.736
570.57	49.473
570.91	48.901
571.25	49.722
571.59	48.336
571.92	48.589
572.26	48.296
572.60	48.889
572.93	47.676
573.27	48.329
573.61	48.353
573.95	47.855
574.28	47.789
574.62	47.692
574.96	46.882
575.29	46.654
575.63	47.891
575.97	47.045
576.30	47.451
576.64	47.637
576.98	47.035
577.31	47.250
577.65	47.144
577.98	47.065
578.32	46.565
578.66	45.912
578.99	46.884
579.33	46.454
579.67	46.631
580.00	46.799
580.34	47.129
580.67	46.277
581.01	47.358
581.35	47.351
581.68	46.104
582.02	46.370
582.35	46.004
582.69	46.011
583.02	45.825
583.36	46.507
583.70	46.778
584.03	46.970
584.37	47.721
584.70	47.309
585.04	46.477
585.37	46.365
585.71	46.758
586.04	46.702
586.38	47.675
586.72	47.142
587.05	46.672
587.39	45.937
587.72	46.277
588.06	46.398
588.39	46.557
588.73	46.935
589.06	47.024
589.40	48.148
589.73	48.117
590.07	47.295
590.40	47.680
590.73	48.322
591.07	48.596
591.40	48.629
591.74	48.745
592.07	47.949
592.41	47.995
592.74	47.528
593.08	47.102
593.41	46.884
593.75	45.690
594.08	46.765
594.41	46.554
594.75	47.431
595.08	46.135
595.42	46.760
595.75	47.009
596.09	47.766
596.42	47.308
596.75	47.699
597.09	48.831
597.42	47.681
597.75	48.599
598.09	47.043
598.42	47.423
598.76	47.021
599.09	46.902
599.42	45.815
599.76	46.376
600.09	45.610
600.42	45.544
600.76	45.893
601.09	45.501
601.42	45.776
601.76	46.528
602.09	46.285
602.42	46.855
602.76	46.957
603.09	46.420
603.42	46.935
603.76	46.303
604.09	46.452
604.42	47.126
604.76	47.195
605.09	47.270
605.42	46.943
605.75	46.233
606.09	45.669
606.42	46.915
606.75	46.246
607.09	45.710
607.42	46.085
607.75	45.274
608.08	46.244
608.42	46.481
608.75	46.078
609.08	45.190
609.41	45.883
609.75	46.594
610.08	46.607
610.41	46.974
610.74	46.216
611.07	47.777
611.41	47.007
611.74	46.858
612.07	48.965
612.40	48.374
612.73	47.000
613.07	47.629
613.40	47.288
613.73	46.198
614.06	47.742
614.39	46.408
614.72	46.684
615.06	45.798
615.39	46.125
615.72	45.399
616.05	46.837
616.38	47.526
616.71	47.684
617.05	47.291
617.38	46.903
617.71	47.928
618.04	47.416
618.37	47.487
618.70	45.862
619.03	47.500
619.36	48.608
619.69	48.944
620.03	49.519
620.36	47.727
620.69	48.767
621.02	49.189
621.35	48.551
621.68	49.143
622.01	47.755
622.34	50.076
622.67	49.582
623.00	48.643
623.33	48.320
623.66	47.963
623.99	48.527
624.32	48.217
624.65	48.870
624.99	46.955
625.32	47.574
625.65	48.835
625.98	49.962
626.31	48.523
626.64	48.571
626.97	48.961
627.30	49.210
627.63	48.893
627.96	50.126
628.29	48.906
628.62	49.863
628.95	51.321
629.28	49.818
629.61	49.588
629.94	51.905
630.26	50.143
630.59	50.810
