SpectraSuite Data File
++++++++++++++++++++++++++++++++++++
Date: Wed May 13 19:10:42 PDT 2015
User: schluterlab
Dark Spectrum Present: Yes
Reference Spectrum Present: Yes
Number of Sampled Component Spectra: 1
Spectrometers: USB2E3373
Integration Time (usec): 3000 (USB2E3373)
Spectra Averaged: 3 (USB2E3373)
Boxcar Smoothing: 0 (USB2E3373)
Correct for Electrical Dark: No (USB2E3373)
Strobe/Lamp Enabled: No (USB2E3373)
Correct for Detector Non-linearity: No (USB2E3373)
Correct for Stray Light: No (USB2E3373)
Number of Pixels in Processed Spectrum: 2048
>>>>>Begin Processed Spectral Data<<<<<
178.53	0.000
178.91	-1525.000
179.29	-1600.000
179.67	-255.556
180.04	-1550.000
180.42	3000.000
180.80	1160.000
181.18	-975.000
181.56	800.000
181.94	0.000
182.31	-871.429
182.69	1900.000
183.07	-650.000
183.45	-577.778
183.83	554.545
184.20	-550.000
184.58	2700.000
184.96	5800.000
185.34	-1020.000
185.72	-775.000
186.09	-2700.000
186.47	2950.000
186.85	3250.000
187.23	5600.000
187.61	-1866.667
187.98	1525.000
188.36	536.364
188.74	572.727
189.12	-1100.000
189.49	620.000
189.87	-5700.000
190.25	-1525.000
190.63	514.286
191.00	561.538
191.38	983.333
191.76	-1450.000
192.14	1600.000
192.51	750.000
192.89	983.333
193.27	750.000
193.65	-1375.000
194.02	560.000
194.40	1040.000
194.78	650.000
195.15	525.000
195.53	710.000
195.91	-2600.000
196.29	406.250
196.66	347.368
197.04	-400.000
197.42	0.000
197.79	680.000
198.17	-5600.000
198.55	742.857
198.92	862.500
199.30	1160.000
199.68	0.000
200.05	355.556
200.43	814.286
200.81	5300.000
201.18	2066.667
201.56	-1600.000
201.94	677.778
202.31	744.444
202.69	516.667
203.07	550.000
203.44	0.000
203.82	1450.000
204.19	1057.143
204.57	521.429
204.95	762.500
205.32	1900.000
205.70	709.091
206.08	407.143
206.45	3200.000
206.83	387.500
207.20	1066.667
207.58	1000.000
207.96	400.000
208.33	737.500
208.71	-966.667
209.08	857.143
209.46	655.556
209.84	663.636
210.21	-1766.667
210.59	1675.000
210.96	-587.500
211.34	3150.000
211.71	640.000
212.09	983.333
212.46	0.000
212.84	2066.667
213.22	1375.000
213.59	-4900.000
213.97	933.333
214.34	928.571
214.72	663.636
215.09	1320.000
215.47	-2900.000
215.84	-2850.000
216.22	2266.667
216.59	464.286
216.97	1250.000
217.34	481.818
217.72	-866.667
218.09	0.000
218.47	-5600.000
218.84	822.222
219.22	971.429
219.59	2000.000
219.97	-728.571
220.34	1140.000
220.72	-2233.333
221.09	414.286
221.47	1575.000
221.84	-1166.667
222.22	0.000
222.59	1725.000
222.97	-3000.000
223.34	1200.000
223.72	515.385
224.09	1360.000
224.46	2650.000
224.84	-5500.000
225.21	-1240.000
225.59	-4900.000
225.96	790.000
226.34	375.000
226.71	2700.000
227.08	800.000
227.46	650.000
227.83	-1475.000
228.21	-2700.000
228.58	733.333
228.95	-3150.000
229.33	-2550.000
229.70	1833.333
230.08	871.429
230.45	-900.000
230.82	500.000
231.20	883.333
231.57	800.000
231.95	525.000
232.32	272.727
232.69	572.727
233.07	700.000
233.44	415.385
233.81	-1833.333
234.19	326.316
234.56	508.333
234.93	416.667
235.31	563.636
235.68	453.846
236.05	450.000
236.43	200.000
236.80	363.158
237.17	6200.000
237.55	247.619
237.92	271.429
238.29	309.524
238.67	225.806
239.04	255.172
239.41	183.333
239.79	145.652
240.16	154.762
240.53	143.182
240.91	113.725
241.28	124.000
241.65	128.000
242.02	114.493
242.40	101.613
242.77	120.000
243.14	83.871
243.51	92.135
243.89	80.000
244.26	73.333
244.63	75.269
245.00	57.447
245.38	68.317
245.75	61.682
246.12	61.468
246.49	64.964
246.87	61.600
247.24	60.769
247.61	53.571
247.98	52.288
248.36	46.622
248.73	44.586
249.10	52.229
249.47	49.718
249.84	44.385
250.22	42.246
250.59	50.296
250.96	45.455
251.33	43.602
251.70	48.020
252.08	42.381
252.45	38.117
252.82	36.957
253.19	37.447
253.56	38.824
253.94	37.344
254.31	39.453
254.68	36.923
255.05	39.483
255.42	34.146
255.79	36.029
256.16	35.379
256.54	31.449
256.91	34.164
257.28	32.734
257.65	32.013
258.02	34.161
258.39	27.760
258.76	29.097
259.14	32.440
259.51	29.179
259.88	27.950
260.25	30.514
260.62	29.769
260.99	25.466
261.36	31.832
261.73	28.367
262.10	29.942
262.47	30.141
262.85	28.134
263.22	28.205
263.59	28.775
263.96	28.022
264.33	28.721
264.70	25.000
265.07	28.133
265.44	28.535
265.81	25.061
266.18	28.141
266.55	24.878
266.92	24.324
267.29	26.389
267.66	27.982
268.03	26.591
268.40	26.168
268.77	27.446
269.14	25.450
269.51	27.540
269.88	23.776
270.25	24.831
270.62	22.921
270.99	26.882
271.36	25.751
271.73	24.299
272.10	23.261
272.47	27.097
272.84	24.675
273.21	24.528
273.58	23.362
273.95	24.319
274.32	23.140
274.69	25.482
275.06	21.654
275.43	26.596
275.80	24.048
276.17	24.440
276.54	23.077
276.91	24.308
277.28	21.875
277.65	23.598
278.02	24.224
278.39	22.852
278.76	22.000
279.13	20.755
279.50	23.091
279.87	20.518
280.23	22.555
280.60	23.017
280.97	21.627
281.34	22.124
281.71	22.909
282.08	25.144
282.45	21.455
282.82	20.959
283.19	20.499
283.56	21.404
283.92	23.012
284.29	23.457
284.66	21.597
285.03	19.530
285.40	20.951
285.77	21.212
286.14	21.589
286.51	22.667
286.87	21.709
287.24	22.801
287.61	20.385
287.98	21.916
288.35	20.285
288.72	19.003
289.08	20.501
289.45	18.122
289.82	20.976
290.19	18.838
290.56	19.296
290.93	18.429
291.29	20.399
291.66	20.944
292.03	21.221
292.40	20.852
292.77	19.083
293.13	20.000
293.50	18.222
293.87	18.815
294.24	17.333
294.60	17.176
294.97	19.186
295.34	18.477
295.71	17.330
296.08	17.094
296.44	17.882
296.81	17.041
297.18	19.241
297.55	15.172
297.91	15.831
298.28	17.537
298.65	16.449
299.02	17.260
299.38	16.202
299.75	14.690
300.12	15.326
300.48	16.125
300.85	16.523
301.22	15.541
301.59	15.278
301.95	16.373
302.32	17.330
302.69	16.249
303.05	16.121
303.42	15.926
303.79	16.761
304.15	12.821
304.52	14.368
304.89	15.563
305.25	16.241
305.62	16.082
305.99	16.057
306.35	15.436
306.72	16.368
307.09	15.094
307.45	16.441
307.82	13.839
308.19	15.453
308.55	15.534
308.92	15.145
309.29	15.100
309.65	13.786
310.02	16.173
310.38	15.699
310.75	15.734
311.12	16.274
311.48	15.987
311.85	16.562
312.22	15.609
312.58	15.593
312.95	15.945
313.31	16.019
313.68	16.112
314.05	17.554
314.41	16.985
314.78	17.422
315.14	16.683
315.51	17.199
315.87	17.228
316.24	18.272
316.61	18.129
316.97	19.374
317.34	17.123
317.70	20.554
318.07	20.885
318.43	20.744
318.80	21.368
319.16	23.164
319.53	22.608
319.89	24.476
320.26	25.100
320.62	25.992
320.99	27.172
321.35	29.495
321.72	30.185
322.08	30.503
322.45	33.035
322.81	34.109
323.18	34.393
323.54	35.807
323.91	37.264
324.27	39.101
324.64	41.007
325.00	41.930
325.37	47.589
325.73	47.127
326.10	46.867
326.46	50.627
326.83	53.494
327.19	53.800
327.56	56.010
327.92	58.093
328.29	60.692
328.65	61.786
329.01	63.538
329.38	64.570
329.74	66.851
330.11	69.651
330.47	70.523
330.84	69.393
331.20	71.676
331.56	73.945
331.93	75.185
332.29	74.623
332.66	74.513
333.02	76.417
333.38	78.139
333.75	78.966
334.11	79.626
334.48	80.834
334.84	82.721
335.20	80.636
335.57	82.412
335.93	80.893
336.29	83.608
336.66	83.950
337.02	83.348
337.38	85.556
337.75	82.353
338.11	83.885
338.47	86.280
338.84	87.626
339.20	87.156
339.56	86.496
339.93	87.818
340.29	87.953
340.65	85.829
341.02	87.609
341.38	90.125
341.74	86.316
342.11	88.384
342.47	90.220
342.83	88.014
343.20	88.571
343.56	87.953
343.92	89.825
344.28	88.180
344.65	91.144
345.01	89.562
345.37	91.252
345.73	88.409
346.10	90.878
346.46	90.085
346.82	89.868
347.19	89.641
347.55	88.588
347.91	89.725
348.27	90.468
348.63	91.137
349.00	90.210
349.36	90.722
349.72	90.377
350.08	91.167
350.45	92.433
350.81	91.145
351.17	92.464
351.53	94.185
351.89	90.924
352.26	90.529
352.62	92.702
352.98	91.248
353.34	92.687
353.70	93.208
354.07	92.581
354.43	90.397
354.79	91.150
355.15	91.700
355.51	94.724
355.87	95.510
356.24	93.404
356.60	92.462
356.96	93.403
357.32	95.258
357.68	94.488
358.04	92.637
358.40	94.458
358.77	93.818
359.13	92.976
359.49	93.725
359.85	94.762
360.21	96.252
360.57	95.875
360.93	98.462
361.29	93.651
361.66	94.195
362.02	93.134
362.38	94.981
362.74	95.610
363.10	94.745
363.46	95.378
363.82	95.692
364.18	95.228
364.54	96.211
364.90	96.601
365.26	97.721
365.62	97.809
365.98	96.859
366.35	96.275
366.71	96.963
367.07	98.471
367.43	97.896
367.79	98.287
368.15	97.342
368.51	98.110
368.87	96.645
369.23	98.537
369.59	100.362
369.95	98.750
370.31	97.721
370.67	96.159
371.03	98.202
371.39	97.813
371.75	100.368
372.11	98.080
372.47	99.853
372.83	101.009
373.19	96.821
373.55	100.887
373.91	102.504
374.27	99.244
374.63	102.327
374.99	99.364
375.35	100.419
375.71	100.069
376.07	99.931
376.42	101.651
376.78	99.934
377.14	102.782
377.50	101.722
377.86	100.864
378.22	100.506
378.58	100.000
378.94	100.943
379.30	101.018
379.66	102.728
380.02	102.273
380.38	102.307
380.74	102.701
381.09	103.178
381.45	102.766
381.81	103.440
382.17	102.675
382.53	102.013
382.89	104.074
383.25	103.252
383.61	106.134
383.97	103.690
384.32	101.684
384.68	102.230
385.04	104.978
385.40	102.663
385.76	103.624
386.12	102.979
386.48	104.279
386.83	105.901
387.19	105.628
387.55	103.958
387.91	104.837
388.27	104.231
388.62	103.073
388.98	105.037
389.34	104.881
389.70	104.047
390.06	106.274
390.42	104.410
390.77	102.545
391.13	105.999
391.49	105.140
391.85	105.474
392.20	104.921
392.56	106.187
392.92	106.004
393.28	105.207
393.64	105.635
393.99	102.321
394.35	105.397
394.71	103.639
395.07	104.735
395.42	106.057
395.78	105.471
396.14	104.221
396.50	107.832
396.85	109.218
397.21	105.980
397.57	106.448
397.92	105.349
398.28	104.596
398.64	104.062
399.00	105.260
399.35	104.851
399.71	103.993
400.07	105.559
400.42	105.031
400.78	105.609
401.14	106.220
401.49	105.791
401.85	105.445
402.21	102.994
402.57	104.935
402.92	105.549
403.28	105.746
403.63	106.559
403.99	106.115
404.35	105.879
404.70	104.257
405.06	104.485
405.42	105.115
405.77	103.543
406.13	103.612
406.49	105.145
406.84	104.076
407.20	103.014
407.55	104.786
407.91	107.000
408.27	106.765
408.62	105.178
408.98	104.473
409.34	103.752
409.69	105.355
410.05	104.833
410.40	104.281
410.76	104.839
411.11	101.870
411.47	102.812
411.83	103.726
412.18	103.772
412.54	105.853
412.89	103.795
413.25	103.365
413.60	103.582
413.96	101.882
414.31	103.827
414.67	104.183
415.03	104.437
415.38	104.059
415.74	102.572
416.09	106.989
416.45	103.481
416.80	104.891
417.16	104.558
417.51	106.702
417.87	103.276
418.22	103.596
418.58	104.584
418.93	103.808
419.29	104.265
419.64	103.463
420.00	103.780
420.35	103.594
420.71	105.260
421.06	102.924
421.42	103.392
421.77	102.915
422.12	104.436
422.48	103.022
422.83	105.358
423.19	102.762
423.54	105.572
423.90	103.594
424.25	103.071
424.61	103.869
424.96	105.015
425.31	103.433
425.67	101.629
426.02	102.629
426.38	105.739
426.73	103.452
427.09	105.289
427.44	102.990
427.79	102.818
428.15	102.917
428.50	105.442
428.85	103.218
429.21	102.430
429.56	104.821
429.92	103.573
430.27	102.830
430.62	103.431
430.98	101.920
431.33	102.526
431.68	103.874
432.04	101.810
432.39	105.825
432.74	104.428
433.10	104.867
433.45	104.840
433.80	104.268
434.16	102.618
434.51	102.421
434.86	105.017
435.22	104.836
435.57	103.343
435.92	104.096
436.28	105.694
436.63	103.698
436.98	104.522
437.34	105.188
437.69	105.368
438.04	104.272
438.39	103.582
438.75	104.765
439.10	105.866
439.45	103.778
439.81	105.680
440.16	103.727
440.51	104.921
440.86	104.864
441.22	105.840
441.57	104.883
441.92	105.578
442.27	104.521
442.63	104.055
442.98	104.507
443.33	104.130
443.68	105.059
444.03	104.539
444.39	105.063
444.74	103.896
445.09	104.528
445.44	103.171
445.79	103.761
446.15	103.600
446.50	104.416
446.85	105.704
447.20	104.793
447.55	105.918
447.91	103.696
448.26	104.062
448.61	105.144
448.96	106.755
449.31	107.030
449.66	104.840
450.02	104.401
450.37	103.231
450.72	105.922
451.07	105.728
451.42	102.492
451.77	105.461
452.12	103.406
452.47	105.908
452.83	106.177
453.18	105.012
453.53	105.937
453.88	104.784
454.23	103.288
454.58	104.058
454.93	108.264
455.28	104.364
455.63	106.068
455.98	105.298
456.34	104.711
456.69	106.763
457.04	106.687
457.39	104.150
457.74	104.527
458.09	102.703
458.44	104.732
458.79	101.735
459.14	104.402
459.49	104.203
459.84	104.432
460.19	103.889
460.54	101.678
460.89	104.169
461.24	104.979
461.59	103.719
461.94	103.144
462.29	102.433
462.64	101.021
462.99	103.383
463.34	104.467
463.69	104.565
464.04	103.188
464.39	101.855
464.74	102.911
465.09	103.438
465.44	101.773
465.79	102.517
466.14	101.314
466.49	102.336
466.84	103.503
467.19	100.905
467.54	103.063
467.89	101.321
468.24	103.141
468.59	102.808
468.94	101.894
469.29	103.149
469.64	103.347
469.99	103.721
470.34	104.822
470.68	102.802
471.03	103.129
471.38	104.656
471.73	101.332
472.08	101.842
472.43	102.198
472.78	103.489
473.13	102.632
473.48	102.747
473.83	102.561
474.17	101.369
474.52	103.908
474.87	101.401
475.22	99.942
475.57	99.301
475.92	101.699
476.27	100.113
476.61	102.317
476.96	101.979
477.31	100.157
477.66	101.422
478.01	98.850
478.36	100.000
478.70	99.325
479.05	100.319
479.40	101.177
479.75	100.356
480.10	99.503
480.45	98.429
480.79	98.901
481.14	99.853
481.49	100.332
481.84	99.497
482.19	99.682
482.53	99.174
482.88	100.233
483.23	100.234
483.58	99.818
483.92	100.656
484.27	96.688
484.62	98.276
484.97	98.581
485.31	100.822
485.66	98.255
486.01	95.192
486.36	91.718
486.70	90.813
487.05	92.467
487.40	94.356
487.75	96.166
488.09	97.877
488.44	97.598
488.79	100.289
489.13	100.382
489.48	99.062
489.83	99.223
490.17	99.912
490.52	97.741
490.87	99.005
491.22	97.635
491.56	96.538
491.91	97.906
492.26	97.382
492.60	96.820
492.95	97.755
493.30	95.935
493.64	96.314
493.99	97.029
494.34	96.809
494.68	97.436
495.03	97.932
495.37	94.881
495.72	98.587
496.07	99.443
496.41	95.133
496.76	97.010
497.11	96.488
497.45	96.367
497.80	97.169
498.14	96.522
498.49	97.756
498.84	97.651
499.18	96.905
499.53	97.009
499.87	95.294
500.22	96.420
500.56	97.621
500.91	96.058
501.26	96.728
501.60	97.342
501.95	94.088
502.29	96.579
502.64	97.253
502.98	96.447
503.33	95.110
503.67	96.056
504.02	95.042
504.36	93.776
504.71	95.506
505.06	94.602
505.40	95.916
505.75	94.648
506.09	96.453
506.44	97.040
506.78	95.324
507.13	97.426
507.47	96.162
507.82	96.606
508.16	96.302
508.51	97.869
508.85	95.929
509.19	95.816
509.54	95.918
509.88	95.878
510.23	95.321
510.57	97.265
510.92	95.702
511.26	93.834
511.61	96.421
511.95	93.215
512.30	95.440
512.64	94.949
512.98	95.713
513.33	95.075
513.67	94.077
514.02	93.506
514.36	95.303
514.70	96.624
515.05	95.482
515.39	95.289
515.74	95.101
516.08	94.522
516.42	95.061
516.77	95.541
517.11	94.395
517.46	94.470
517.80	95.470
518.14	94.210
518.49	95.624
518.83	94.489
519.17	93.995
519.52	95.246
519.86	94.295
520.20	95.202
520.55	95.272
520.89	96.594
521.23	94.511
521.58	95.498
521.92	96.020
522.26	93.777
522.61	95.888
522.95	94.782
523.29	95.253
523.64	94.451
523.98	96.303
524.32	93.667
524.66	93.506
525.01	93.137
525.35	95.725
525.69	92.426
526.04	93.333
526.38	93.777
526.72	92.454
527.06	93.660
527.41	91.337
527.75	94.405
528.09	94.990
528.43	94.774
528.78	93.854
529.12	91.576
529.46	93.631
529.80	93.750
530.15	95.452
530.49	90.215
530.83	92.722
531.17	93.930
531.51	95.201
531.86	93.419
532.20	94.263
532.54	93.466
532.88	94.352
533.22	90.881
533.57	91.358
533.91	91.933
534.25	92.163
534.59	93.594
534.93	90.303
535.27	91.008
535.62	90.476
535.96	92.090
536.30	93.897
536.64	92.981
536.98	92.634
537.32	92.166
537.66	93.200
538.01	93.878
538.35	93.083
538.69	91.895
539.03	92.528
539.37	89.585
539.71	89.436
540.05	93.529
540.39	92.691
540.73	89.651
541.07	90.850
541.42	92.042
541.76	91.161
542.10	92.303
542.44	91.788
542.78	92.424
543.12	89.123
543.46	91.016
543.80	91.997
544.14	89.153
544.48	90.984
544.82	90.827
545.16	90.891
545.50	89.589
545.84	90.726
546.18	92.458
546.52	92.429
546.86	93.127
547.20	92.717
547.54	90.848
547.88	90.625
548.22	89.601
548.56	89.686
548.90	89.565
549.24	90.168
549.58	89.222
549.92	91.140
550.26	91.690
550.60	89.903
550.94	90.141
551.28	89.027
551.62	89.792
551.96	90.105
552.30	90.785
552.64	89.723
552.98	89.898
553.32	87.458
553.66	90.389
554.00	91.695
554.34	88.889
554.68	91.845
555.02	89.704
555.36	89.562
555.69	88.633
556.03	88.694
556.37	88.336
556.71	89.836
557.05	89.426
557.39	89.083
557.73	89.626
558.07	91.008
558.41	89.797
558.75	89.346
559.08	91.201
559.42	91.988
559.76	89.412
560.10	89.864
560.44	88.819
560.78	87.824
561.12	89.776
561.45	89.635
561.79	87.343
562.13	87.659
562.47	89.617
562.81	90.446
563.15	88.161
563.48	89.191
563.82	88.911
564.16	87.835
564.50	86.458
564.84	87.168
565.17	88.481
565.51	89.457
565.85	87.183
566.19	86.162
566.52	88.030
566.86	86.860
567.20	87.028
567.54	87.842
567.88	85.660
568.21	85.767
568.55	85.592
568.89	85.700
569.23	83.200
569.56	83.117
569.90	82.792
570.24	83.028
570.57	81.639
570.91	80.123
571.25	81.779
571.59	80.943
571.92	82.488
572.26	81.456
572.60	81.982
572.93	81.349
573.27	81.721
573.61	81.323
573.95	81.835
574.28	80.402
574.62	80.709
574.96	80.311
575.29	80.480
575.63	80.767
575.97	81.671
576.30	81.094
576.64	80.642
576.98	80.481
577.31	80.615
577.65	80.109
577.98	79.835
578.32	79.230
578.66	79.497
578.99	80.781
579.33	80.392
579.67	79.372
580.00	80.484
580.34	80.494
580.67	79.768
581.01	80.639
581.35	80.650
581.68	79.933
582.02	78.415
582.35	79.241
582.69	79.363
583.02	79.431
583.36	79.479
583.70	81.144
584.03	80.773
584.37	80.501
584.70	81.531
585.04	80.064
585.37	79.683
585.71	79.934
586.04	79.633
586.38	80.747
586.72	81.304
587.05	79.109
587.39	78.971
587.72	80.057
588.06	79.883
588.39	80.686
588.73	80.933
589.06	81.116
589.40	82.222
589.73	81.873
590.07	81.637
590.40	81.293
590.73	82.084
591.07	82.662
591.40	81.232
591.74	82.944
592.07	81.065
592.41	81.645
592.74	80.000
593.08	80.147
593.41	80.291
593.75	78.795
594.08	79.517
594.41	80.134
594.75	81.701
595.08	79.957
595.42	80.315
595.75	80.484
596.09	81.712
596.42	80.589
596.75	82.313
597.09	82.554
597.42	80.481
597.75	81.846
598.09	81.174
598.42	80.627
598.76	80.259
599.09	79.437
599.42	78.712
599.76	79.612
600.09	79.854
600.42	79.766
600.76	79.036
601.09	79.053
601.42	80.632
601.76	81.063
602.09	79.960
602.42	80.971
602.76	80.129
603.09	80.488
603.42	80.867
603.76	78.468
604.09	79.178
604.42	80.921
604.76	80.472
605.09	80.865
605.42	79.778
605.75	79.346
606.09	79.870
606.42	80.343
606.75	78.681
607.09	78.568
607.42	79.204
607.75	79.958
608.08	79.244
608.42	79.247
608.75	79.216
609.08	79.556
609.41	79.438
609.75	79.276
610.08	81.008
610.41	81.052
610.74	81.079
611.07	81.423
611.41	81.207
611.74	80.794
612.07	82.143
612.40	81.899
612.73	81.158
613.07	81.034
613.40	81.938
613.73	80.598
614.06	81.075
614.39	79.234
614.72	78.842
615.06	79.937
615.39	80.414
615.72	78.783
616.05	79.904
616.38	81.601
616.71	82.779
617.05	81.802
617.38	81.600
617.71	81.862
618.04	82.031
618.37	80.189
618.70	81.767
619.03	82.237
619.36	83.775
619.69	81.761
620.03	83.997
620.36	82.487
620.69	81.781
621.02	82.891
621.35	81.911
621.68	82.555
622.01	82.276
622.34	82.980
622.67	85.247
623.00	81.365
623.33	79.914
623.66	83.703
623.99	83.137
