SpectraSuite Data File
++++++++++++++++++++++++++++++++++++
Date: Wed May 13 19:16:10 PDT 2015
User: schluterlab
Dark Spectrum Present: Yes
Reference Spectrum Present: Yes
Number of Sampled Component Spectra: 1
Spectrometers: USB2E3373
Integration Time (usec): 3000 (USB2E3373)
Spectra Averaged: 3 (USB2E3373)
Boxcar Smoothing: 0 (USB2E3373)
Correct for Electrical Dark: No (USB2E3373)
Strobe/Lamp Enabled: No (USB2E3373)
Correct for Detector Non-linearity: No (USB2E3373)
Correct for Stray Light: No (USB2E3373)
Number of Pixels in Processed Spectrum: 2048
>>>>>Begin Processed Spectral Data<<<<<
178.53	0.000
178.91	-1625.000
179.29	-1550.000
179.67	-311.111
180.04	-1300.000
180.42	3050.000
180.80	1300.000
181.18	-1100.000
181.56	700.000
181.94	0.000
182.31	-814.286
182.69	1866.667
183.07	-637.500
183.45	-477.778
183.83	590.909
184.20	-460.000
184.58	2500.000
184.96	6000.000
185.34	-1020.000
185.72	-625.000
186.09	-2650.000
186.47	3200.000
186.85	2700.000
187.23	6000.000
187.61	-2100.000
187.98	1550.000
188.36	563.636
188.74	627.273
189.12	-1060.000
189.49	650.000
189.87	-5700.000
190.25	-1400.000
190.63	407.143
191.00	492.308
191.38	1016.667
191.76	-1250.000
192.14	1575.000
192.51	762.500
192.89	1200.000
193.27	787.500
193.65	-1425.000
194.02	510.000
194.40	1300.000
194.78	630.000
195.15	516.667
195.53	770.000
195.91	-2900.000
196.29	400.000
196.66	357.895
197.04	-420.000
197.42	0.000
197.79	700.000
198.17	-5800.000
198.55	914.286
198.92	762.500
199.30	1020.000
199.68	0.000
200.05	327.778
200.43	800.000
200.81	4700.000
201.18	2100.000
201.56	-1766.667
201.94	666.667
202.31	777.778
202.69	483.333
203.07	640.000
203.44	0.000
203.82	1425.000
204.19	914.286
204.57	442.857
204.95	675.000
205.32	1833.333
205.70	590.909
206.08	428.571
206.45	3000.000
206.83	450.000
207.20	1000.000
207.58	860.000
207.96	388.889
208.33	787.500
208.71	-966.667
209.08	1014.286
209.46	600.000
209.84	618.182
210.21	-1833.333
210.59	1600.000
210.96	-675.000
211.34	3200.000
211.71	630.000
212.09	866.667
212.46	0.000
212.84	1866.667
213.22	1475.000
213.59	-5200.000
213.97	933.333
214.34	800.000
214.72	736.364
215.09	1180.000
215.47	-2700.000
215.84	-2750.000
216.22	1800.000
216.59	492.857
216.97	1525.000
217.34	427.273
217.72	-866.667
218.09	0.000
218.47	-4900.000
218.84	655.556
219.22	828.571
219.59	2000.000
219.97	-871.429
220.34	1260.000
220.72	-2100.000
221.09	400.000
221.47	1500.000
221.84	-1016.667
222.22	0.000
222.59	1650.000
222.97	-2900.000
223.34	1180.000
223.72	476.923
224.09	1220.000
224.46	2650.000
224.84	-6200.000
225.21	-980.000
225.59	-5900.000
225.96	690.000
226.34	335.000
226.71	3000.000
227.08	775.000
227.46	680.000
227.83	-1250.000
228.21	-2600.000
228.58	622.222
228.95	-2900.000
229.33	-2900.000
229.70	1933.333
230.08	814.286
230.45	-980.000
230.82	500.000
231.20	1000.000
231.57	828.571
231.95	516.667
232.32	254.545
232.69	472.727
233.07	857.143
233.44	369.231
233.81	-2000.000
234.19	326.316
234.56	466.667
234.93	433.333
235.31	563.636
235.68	453.846
236.05	400.000
236.43	224.242
236.80	342.105
237.17	6500.000
237.55	333.333
237.92	260.714
238.29	309.524
238.67	229.032
239.04	258.621
239.41	166.667
239.79	150.000
240.16	164.286
240.53	161.364
240.91	137.255
241.28	160.000
241.65	136.000
242.02	117.391
242.40	122.581
242.77	121.667
243.14	95.699
243.51	98.876
243.89	112.941
244.26	87.778
244.63	86.022
245.00	93.617
245.38	87.129
245.75	83.178
246.12	83.486
246.49	83.212
246.87	80.800
247.24	88.462
247.61	79.286
247.98	71.242
248.36	72.973
248.73	71.338
249.10	68.153
249.47	64.972
249.84	65.775
250.22	62.032
250.59	65.089
250.96	67.172
251.33	65.403
251.70	65.347
252.08	57.143
252.45	59.193
252.82	58.261
253.19	59.149
253.56	57.255
253.94	56.432
254.31	52.734
254.68	58.846
255.05	55.720
255.42	55.691
255.79	57.721
256.16	53.430
256.54	55.124
256.91	53.737
257.28	48.921
257.65	50.165
258.02	52.484
258.39	50.789
258.76	50.836
259.14	53.274
259.51	48.936
259.88	49.379
260.25	53.776
260.62	49.422
260.99	49.379
261.36	52.252
261.73	49.857
262.10	50.291
262.47	50.986
262.85	47.354
263.22	41.595
263.59	49.003
263.96	45.055
264.33	45.170
264.70	48.947
265.07	45.780
265.44	48.232
265.81	47.202
266.18	49.749
266.55	41.951
266.92	47.174
267.29	46.528
267.66	44.037
268.03	40.455
268.40	43.925
268.77	44.630
269.14	43.243
269.51	42.889
269.88	46.620
270.25	42.889
270.62	41.798
270.99	41.935
271.36	43.348
271.73	44.626
272.10	45.217
272.47	46.882
272.84	41.991
273.21	43.396
273.58	41.703
273.95	40.881
274.32	42.149
274.69	43.897
275.06	39.764
275.43	41.702
275.80	41.483
276.17	43.381
276.54	41.372
276.91	40.909
277.28	42.383
277.65	40.426
278.02	43.478
278.39	45.703
278.76	41.091
279.13	43.208
279.50	40.782
279.87	41.036
280.23	40.120
280.60	41.199
280.97	39.372
281.34	40.000
281.71	38.727
282.08	43.570
282.45	39.273
282.82	39.432
283.19	39.216
283.56	38.947
283.92	40.102
284.29	40.212
284.66	36.298
285.03	37.794
285.40	39.085
285.77	39.057
286.14	37.133
286.51	39.333
286.87	37.607
287.24	37.296
287.61	38.202
287.98	37.987
288.35	35.341
288.72	36.604
289.08	36.933
289.45	36.738
289.82	37.073
290.19	36.735
290.56	36.447
290.93	35.045
291.29	34.816
291.66	33.628
292.03	36.773
292.40	38.032
292.77	34.467
293.13	32.090
293.50	34.840
293.87	33.037
294.24	33.926
294.60	34.352
294.97	33.866
295.34	35.684
295.71	33.665
296.08	32.479
296.44	33.563
296.81	32.365
297.18	32.791
297.55	31.398
297.91	32.718
298.28	32.664
298.65	32.768
299.02	31.225
299.38	30.412
299.75	31.536
300.12	30.651
300.48	30.375
300.85	30.210
301.22	31.210
301.59	29.798
301.95	31.864
302.32	34.018
302.69	30.944
303.05	29.576
303.42	31.111
303.79	29.445
304.15	29.953
304.52	29.664
304.89	31.475
305.25	30.742
305.62	29.898
305.99	31.051
306.35	30.984
306.72	30.830
307.09	30.300
307.45	31.869
307.82	29.464
308.19	30.905
308.55	31.715
308.92	29.860
309.29	30.517
309.65	29.692
310.02	29.810
310.38	31.613
310.75	31.679
311.12	31.013
311.48	32.915
311.85	32.285
312.22	32.778
312.58	31.809
312.95	33.685
313.31	30.971
313.68	32.225
314.05	34.517
314.41	33.467
314.78	32.628
315.14	33.069
315.51	34.912
315.87	34.653
316.24	32.473
316.61	33.431
316.97	34.051
317.34	32.485
317.70	35.755
318.07	34.745
318.43	35.616
318.80	35.239
319.16	35.970
319.53	35.741
319.89	36.000
320.26	38.400
320.62	37.798
320.99	36.566
321.35	37.677
321.72	38.809
322.08	38.302
322.45	40.697
322.81	42.442
323.18	41.233
323.54	41.558
323.91	40.755
324.27	41.969
324.64	40.913
325.00	39.495
325.37	42.038
325.73	42.549
326.10	42.189
326.46	42.025
326.83	43.917
327.19	43.382
327.56	43.728
327.92	43.657
328.29	44.987
328.65	45.120
329.01	45.217
329.38	43.756
329.74	45.060
330.11	45.335
330.47	45.363
330.84	45.037
331.20	44.171
331.56	44.220
331.93	46.481
332.29	45.430
332.66	45.841
333.02	45.247
333.38	46.251
333.75	45.276
334.11	45.819
334.48	46.406
334.84	46.324
335.20	47.636
335.57	45.512
335.93	44.643
336.29	46.429
336.66	45.717
337.02	43.891
337.38	47.407
337.75	44.385
338.11	45.031
338.47	45.304
338.84	45.555
339.20	45.780
339.56	46.442
339.93	45.364
340.29	44.837
340.65	45.544
341.02	45.462
341.38	46.352
341.74	44.912
342.11	45.677
342.47	46.167
342.83	44.863
343.20	46.753
343.56	44.482
343.92	46.404
344.28	45.323
344.65	46.518
345.01	44.697
345.37	44.340
345.73	45.093
346.10	45.269
346.46	44.237
346.82	44.728
347.19	43.776
347.55	44.007
347.91	45.469
348.27	46.919
348.63	44.565
349.00	44.417
349.36	43.924
349.72	44.587
350.08	44.652
350.45	44.589
350.81	45.085
351.17	45.219
351.53	45.045
351.89	45.297
352.26	43.410
352.62	45.148
352.98	43.679
353.34	45.029
353.70	44.272
354.07	44.919
354.43	43.810
354.79	44.006
355.15	43.575
355.51	46.283
355.87	44.571
356.24	45.114
356.60	45.309
356.96	45.294
357.32	44.644
357.68	45.197
358.04	43.468
358.40	44.576
358.77	44.053
359.13	44.120
359.49	44.000
359.85	44.365
360.21	46.252
360.57	45.603
360.93	45.923
361.29	43.915
361.66	44.118
362.02	44.254
362.38	44.715
362.74	46.131
363.10	44.115
363.46	43.727
363.82	44.898
364.18	43.979
364.54	45.988
364.90	45.113
365.26	45.956
365.62	44.996
365.98	45.362
366.35	44.842
366.71	44.758
367.07	45.157
367.43	46.662
367.79	46.752
368.15	45.905
368.51	45.349
368.87	46.039
369.23	45.794
369.59	45.185
369.95	44.706
370.31	46.225
370.67	45.145
371.03	46.292
371.39	46.429
371.75	45.441
372.11	45.804
372.47	45.968
372.83	46.686
373.19	45.448
373.55	46.933
373.91	46.760
374.27	45.223
374.63	45.309
374.99	47.034
375.35	45.569
375.71	45.922
376.07	46.776
376.42	46.217
376.78	46.388
377.14	46.065
377.50	46.623
377.86	45.678
378.22	46.650
378.58	44.925
378.94	44.877
379.30	46.501
379.66	46.066
380.02	45.577
380.38	44.869
380.74	45.858
381.09	45.599
381.45	46.712
381.81	45.700
382.17	46.306
382.53	46.667
382.89	46.605
383.25	45.904
383.61	46.283
383.97	44.590
384.32	45.540
384.68	45.787
385.04	46.281
385.40	46.068
385.76	45.946
386.12	47.539
386.48	46.193
386.83	48.493
387.19	46.815
387.55	46.815
387.91	45.647
388.27	46.781
388.62	46.097
388.98	45.762
389.34	45.995
389.70	46.475
390.06	46.958
390.42	47.276
390.77	46.947
391.13	47.224
391.49	47.525
391.85	45.640
392.20	45.678
392.56	45.960
392.92	45.909
393.28	45.325
393.64	46.583
393.99	45.510
394.35	45.161
394.71	46.173
395.07	44.922
395.42	46.724
395.78	45.547
396.14	45.562
396.50	46.867
396.85	46.027
397.21	46.424
397.57	46.373
397.92	46.695
398.28	45.404
398.64	45.699
399.00	45.495
399.35	44.726
399.71	45.544
400.07	46.186
400.42	46.319
400.78	46.080
401.14	45.610
401.49	46.090
401.85	44.283
402.21	43.713
402.57	45.219
402.92	45.397
403.28	45.846
403.63	45.483
403.99	45.796
404.35	45.333
404.70	44.365
405.06	44.554
405.42	45.664
405.77	44.286
406.13	44.074
406.49	46.245
406.84	44.714
407.20	43.794
407.55	45.310
407.91	45.133
408.27	44.735
408.62	44.973
408.98	45.037
409.34	45.018
409.69	46.581
410.05	44.796
410.40	44.954
410.76	44.026
411.11	44.692
411.47	44.153
411.83	44.227
412.18	43.847
412.54	44.334
412.89	43.735
413.25	43.979
413.60	44.595
413.96	42.259
414.31	44.289
414.67	45.057
415.03	44.371
415.38	44.588
415.74	44.566
416.09	45.526
416.45	43.909
416.80	43.424
417.16	44.504
417.51	44.990
417.87	43.353
418.22	44.038
418.58	44.351
418.93	44.472
419.29	44.239
419.64	44.836
420.00	43.354
420.35	42.783
420.71	45.129
421.06	43.138
421.42	44.327
421.77	43.890
422.12	42.729
422.48	41.824
422.83	45.428
423.19	42.818
423.54	43.239
423.90	43.304
424.25	43.272
424.61	43.869
424.96	43.790
425.31	43.189
425.67	42.584
426.02	42.400
426.38	44.078
426.73	42.891
427.09	43.526
427.44	41.921
427.79	41.633
428.15	43.690
428.50	43.125
428.85	43.623
429.21	42.573
429.56	42.198
429.92	42.526
430.27	41.460
430.62	42.192
430.98	41.879
431.33	42.216
431.68	43.508
432.04	42.705
432.39	42.718
432.74	42.789
433.10	42.275
433.45	42.799
433.80	41.075
434.16	42.041
434.51	41.737
434.86	42.702
435.22	42.524
435.57	42.188
435.92	42.774
436.28	43.060
436.63	43.322
436.98	41.500
437.34	43.232
437.69	42.707
438.04	42.833
438.39	41.612
438.75	43.870
439.10	42.849
439.45	42.385
439.81	42.356
440.16	41.502
440.51	42.707
440.86	42.675
441.22	42.158
441.57	42.728
441.92	42.016
442.27	41.496
442.63	41.654
442.98	42.141
443.33	41.087
443.68	41.353
444.03	42.265
444.39	41.042
444.74	42.803
445.09	41.941
445.44	41.553
445.79	41.366
446.15	41.451
446.50	41.734
446.85	41.007
447.20	41.509
447.55	41.932
447.91	41.313
448.26	42.126
448.61	42.284
448.96	41.694
449.31	41.789
449.66	42.206
450.02	39.889
450.37	40.363
450.72	40.214
451.07	41.682
451.42	40.000
451.77	40.634
452.12	40.878
452.47	42.724
452.83	41.667
453.18	41.687
453.53	41.868
453.88	41.406
454.23	41.184
454.58	41.551
454.93	42.085
455.28	40.835
455.63	41.626
455.98	41.726
456.34	41.269
456.69	40.952
457.04	41.424
457.39	41.204
457.74	41.265
458.09	39.563
458.44	40.308
458.79	38.774
459.14	40.632
459.49	40.105
459.84	40.222
460.19	39.658
460.54	40.914
460.89	40.702
461.24	41.591
461.59	41.488
461.94	39.273
462.29	41.009
462.64	40.077
462.99	39.362
463.34	40.933
463.69	40.088
464.04	39.884
464.39	39.536
464.74	39.750
465.09	40.350
465.44	39.446
465.79	39.262
466.14	38.533
466.49	38.487
466.84	39.755
467.19	39.107
467.54	39.250
467.89	39.076
468.24	39.500
468.59	39.438
468.94	38.974
469.29	39.203
469.64	40.428
469.99	39.783
470.34	38.573
470.68	40.445
471.03	39.524
471.38	40.097
471.73	39.041
472.08	40.263
472.43	39.008
472.78	38.907
473.13	38.832
473.48	39.263
473.83	37.866
474.17	37.586
474.52	38.462
474.87	39.113
475.22	39.060
475.57	38.474
475.92	37.706
476.27	37.880
476.61	38.665
476.96	37.548
477.31	36.996
477.66	37.746
478.01	36.905
478.36	37.546
478.70	37.643
479.05	37.646
479.40	37.462
479.75	37.722
480.10	36.978
480.45	36.792
480.79	35.786
481.14	36.937
481.49	37.542
481.84	36.900
482.19	37.074
482.53	36.606
482.88	36.668
483.23	35.935
483.58	36.806
483.92	36.129
484.27	35.338
484.62	35.948
484.97	35.948
485.31	36.541
485.66	34.587
486.01	33.198
486.36	32.452
486.70	32.613
487.05	34.213
487.40	34.142
487.75	34.858
488.09	36.488
488.44	37.025
488.79	37.830
489.13	37.013
489.48	36.909
489.83	36.038
490.17	35.949
490.52	35.430
490.87	35.188
491.22	35.789
491.56	34.442
491.91	35.505
492.26	34.267
492.60	34.101
492.95	34.565
493.30	35.794
493.64	34.718
493.99	34.123
494.34	35.060
494.68	35.211
495.03	35.103
495.37	34.574
495.72	35.039
496.07	34.988
496.41	34.159
496.76	34.741
497.11	33.363
497.45	34.746
497.80	34.309
498.14	33.382
498.49	34.537
498.84	34.851
499.18	34.143
499.53	34.283
499.87	34.157
500.22	33.443
500.56	35.485
500.91	33.269
501.26	33.428
501.60	34.362
501.95	33.685
502.29	34.770
502.64	34.311
502.98	33.567
503.33	32.998
503.67	32.993
504.02	33.115
504.36	33.926
504.71	34.099
505.06	33.639
505.40	33.787
505.75	32.932
506.09	33.431
506.44	33.892
506.78	32.733
507.13	33.872
507.47	33.283
507.82	33.891
508.16	32.979
508.51	33.333
508.85	32.274
509.19	33.367
509.54	33.061
509.88	33.230
510.23	33.316
510.57	34.107
510.92	33.765
511.26	33.556
511.61	33.351
511.95	32.881
512.30	32.131
512.64	33.100
512.98	33.226
513.33	32.495
513.67	32.818
514.02	32.522
514.36	33.206
514.70	33.094
515.05	33.073
515.39	33.202
515.74	33.896
516.08	33.426
516.42	32.686
516.77	34.169
517.11	32.575
517.46	32.336
517.80	33.508
518.14	32.368
518.49	33.781
518.83	31.818
519.17	32.564
519.52	32.484
519.86	33.314
520.20	33.526
520.55	33.692
520.89	33.394
521.23	33.112
521.58	32.593
521.92	32.578
522.26	32.276
522.61	33.956
522.95	32.351
523.29	32.380
523.64	32.561
523.98	33.333
524.32	32.871
524.66	32.231
525.01	33.333
525.35	32.714
525.69	30.727
526.04	32.336
526.38	34.106
526.72	32.147
527.06	32.015
527.41	31.745
527.75	32.862
528.09	32.948
528.43	32.823
528.78	32.452
529.12	31.758
529.46	32.701
529.80	32.178
530.15	32.274
530.49	31.877
530.83	33.291
531.17	33.159
531.51	34.436
531.86	32.968
532.20	33.703
532.54	31.967
532.88	32.991
533.22	31.355
533.57	31.728
533.91	32.029
534.25	32.321
534.59	32.398
534.93	31.886
535.27	31.865
535.62	32.112
535.96	32.141
536.30	32.041
536.64	32.518
536.98	32.316
537.32	31.402
537.66	32.933
538.01	33.509
538.35	32.256
538.69	32.802
539.03	30.994
539.37	30.863
539.71	30.914
540.05	31.569
540.39	31.960
540.73	31.695
541.07	32.576
541.42	32.616
541.76	31.613
542.10	31.759
542.44	32.450
542.78	32.279
543.12	31.094
543.46	32.525
543.80	31.295
544.14	31.515
544.48	30.159
544.82	32.008
545.16	31.880
545.50	31.041
545.84	31.519
546.18	31.448
546.52	31.934
546.86	30.997
547.20	32.097
547.54	31.129
547.88	31.888
548.22	30.697
548.56	31.447
548.90	30.602
549.24	31.044
549.58	32.401
549.92	31.456
550.26	32.386
550.60	31.535
550.94	32.113
551.28	31.529
551.62	30.985
551.96	30.316
552.30	31.263
552.64	31.305
552.98	31.390
553.32	31.827
553.66	31.902
554.00	30.542
554.34	30.435
554.68	30.687
555.02	31.241
555.36	31.106
555.69	30.920
556.03	30.552
556.37	30.764
556.71	31.241
557.05	31.232
557.39	30.861
557.73	30.346
558.07	31.617
558.41	31.187
558.75	31.301
559.08	31.469
559.42	31.595
559.76	30.735
560.10	30.764
560.44	30.189
560.78	31.271
561.12	30.343
561.45	31.486
561.79	30.719
562.13	30.718
562.47	31.148
562.81	31.032
563.15	30.435
563.48	30.239
563.82	31.507
564.16	30.608
564.50	30.143
564.84	29.456
565.17	30.502
565.51	30.288
565.85	30.330
566.19	29.555
566.52	30.716
566.86	30.078
567.20	29.835
567.54	30.137
567.88	29.115
568.21	30.000
568.55	29.019
568.89	29.377
569.23	28.164
569.56	28.704
569.90	28.491
570.24	28.597
570.57	28.392
570.91	27.990
571.25	28.258
571.59	28.365
571.92	27.938
572.26	28.278
572.60	28.559
572.93	28.426
573.27	28.719
573.61	28.392
573.95	28.217
574.28	28.015
574.62	27.964
574.96	27.790
575.29	27.546
575.63	28.227
575.97	28.352
576.30	28.757
576.64	28.304
576.98	28.245
577.31	27.981
577.65	27.883
577.98	27.704
578.32	27.681
578.66	27.757
578.99	28.236
579.33	28.468
579.67	27.998
580.00	28.243
580.34	28.500
580.67	28.173
581.01	27.974
581.35	27.674
581.68	27.376
582.02	27.217
582.35	27.559
582.69	27.629
583.02	27.725
583.36	28.637
583.70	29.171
584.03	28.527
584.37	29.407
584.70	28.736
585.04	28.180
585.37	28.029
585.71	28.219
586.04	27.978
586.38	28.579
586.72	28.141
587.05	28.090
587.39	27.124
587.72	27.570
588.06	27.481
588.39	28.395
588.73	28.219
589.06	28.950
589.40	29.293
589.73	29.180
590.07	28.683
590.40	28.279
590.73	28.728
591.07	29.467
591.40	29.608
591.74	29.048
592.07	28.316
592.41	28.566
592.74	27.528
593.08	26.749
593.41	27.112
593.75	26.983
594.08	27.824
594.41	28.349
594.75	28.133
595.08	28.418
595.42	27.636
595.75	27.564
596.09	28.614
596.42	29.077
596.75	28.493
597.09	29.351
597.42	28.204
597.75	29.452
598.09	29.000
598.42	28.522
598.76	27.402
599.09	27.404
599.42	27.074
599.76	27.855
600.09	27.177
600.42	27.502
600.76	27.250
601.09	27.140
601.42	28.006
601.76	27.742
602.09	28.261
602.42	27.946
602.76	27.973
603.09	27.262
603.42	28.192
603.76	27.973
604.09	27.879
604.42	27.640
604.76	28.891
605.09	28.135
605.42	27.490
605.75	27.525
606.09	27.166
606.42	27.871
606.75	27.997
607.09	27.082
607.42	26.744
607.75	26.962
608.08	27.833
608.42	27.521
608.75	27.547
609.08	28.353
609.41	28.177
609.75	27.632
610.08	28.275
610.41	27.095
610.74	28.524
611.07	28.360
611.41	28.312
611.74	28.658
612.07	27.950
612.40	27.964
612.73	28.684
613.07	29.041
613.40	28.173
613.73	27.006
614.06	28.548
614.39	27.687
614.72	27.421
615.06	27.626
615.39	27.866
615.72	27.710
616.05	27.060
616.38	27.904
616.71	29.038
617.05	28.975
617.38	28.503
617.71	28.468
618.04	30.168
618.37	27.912
618.70	29.060
619.03	29.539
619.36	28.649
619.69	29.014
620.03	29.533
620.36	29.813
620.69	29.178
621.02	28.466
621.35	28.974
621.68	29.595
622.01	29.257
622.34	29.425
622.67	29.734
623.00	28.100
623.33	27.377
623.66	28.663
623.99	28.056
624.32	28.459
624.65	29.025
624.99	27.762
625.32	28.096
625.65	29.226
625.98	28.440
626.31	29.160
626.64	28.653
626.97	28.263
627.30	27.847
627.63	29.779
627.96	29.352
628.29	27.822
628.62	30.741
628.95	29.623
629.28	29.471
629.61	29.881
629.94	30.190
630.26	28.885
630.59	29.075
