SpectraSuite Data File
++++++++++++++++++++++++++++++++++++
Date: Wed May 13 19:40:21 PDT 2015
User: schluterlab
Dark Spectrum Present: Yes
Reference Spectrum Present: Yes
Number of Sampled Component Spectra: 1
Spectrometers: USB2E3373
Integration Time (usec): 3000 (USB2E3373)
Spectra Averaged: 3 (USB2E3373)
Boxcar Smoothing: 0 (USB2E3373)
Correct for Electrical Dark: No (USB2E3373)
Strobe/Lamp Enabled: No (USB2E3373)
Correct for Detector Non-linearity: No (USB2E3373)
Correct for Stray Light: No (USB2E3373)
Number of Pixels in Processed Spectrum: 2048
>>>>>Begin Processed Spectral Data<<<<<
178.53	0.000
178.91	-1375.000
179.29	-1425.000
179.67	-277.778
180.04	-1375.000
180.42	2450.000
180.80	1160.000
181.18	-1100.000
181.56	700.000
181.94	0.000
182.31	-685.714
182.69	1633.333
183.07	-650.000
183.45	-544.444
183.83	536.364
184.20	-470.000
184.58	2850.000
184.96	6200.000
185.34	-960.000
185.72	-625.000
186.09	-2400.000
186.47	2850.000
186.85	2500.000
187.23	5200.000
187.61	-1700.000
187.98	1450.000
188.36	454.545
188.74	636.364
189.12	-820.000
189.49	640.000
189.87	-5300.000
190.25	-1050.000
190.63	457.143
191.00	400.000
191.38	916.667
191.76	-1275.000
192.14	1425.000
192.51	587.500
192.89	1033.333
193.27	687.500
193.65	-1250.000
194.02	500.000
194.40	940.000
194.78	460.000
195.15	516.667
195.53	630.000
195.91	-2000.000
196.29	450.000
196.66	331.579
197.04	-450.000
197.42	0.000
197.79	650.000
198.17	-5200.000
198.55	657.143
198.92	650.000
199.30	1040.000
199.68	0.000
200.05	322.222
200.43	885.714
200.81	5100.000
201.18	1866.667
201.56	-1600.000
201.94	600.000
202.31	700.000
202.69	450.000
203.07	610.000
203.44	0.000
203.82	1225.000
204.19	800.000
204.57	507.143
204.95	787.500
205.32	1766.667
205.70	500.000
206.08	300.000
206.45	2800.000
206.83	393.750
207.20	883.333
207.58	860.000
207.96	322.222
208.33	750.000
208.71	-983.333
209.08	914.286
209.46	611.111
209.84	509.091
210.21	-1533.333
210.59	1450.000
210.96	-475.000
211.34	2700.000
211.71	580.000
212.09	900.000
212.46	0.000
212.84	1666.667
213.22	1575.000
213.59	-5200.000
213.97	933.333
214.34	757.143
214.72	590.909
215.09	1180.000
215.47	-2650.000
215.84	-2500.000
216.22	1800.000
216.59	421.429
216.97	1600.000
217.34	554.545
217.72	-783.333
218.09	0.000
218.47	-5500.000
218.84	777.778
219.22	842.857
219.59	1866.667
219.97	-714.286
220.34	1000.000
220.72	-1800.000
221.09	471.429
221.47	1600.000
221.84	-983.333
222.22	0.000
222.59	1525.000
222.97	-3150.000
223.34	1120.000
223.72	407.692
224.09	1060.000
224.46	2400.000
224.84	-5800.000
225.21	-1140.000
225.59	-5400.000
225.96	630.000
226.34	360.000
226.71	3250.000
227.08	737.500
227.46	550.000
227.83	-1050.000
228.21	-2600.000
228.58	700.000
228.95	-3000.000
229.33	-2650.000
229.70	1700.000
230.08	785.714
230.45	-940.000
230.82	475.000
231.20	1033.333
231.57	742.857
231.95	491.667
232.32	281.818
232.69	490.909
233.07	842.857
233.44	369.231
233.81	-1933.333
234.19	310.526
234.56	516.667
234.93	416.667
235.31	581.818
235.68	415.385
236.05	442.857
236.43	212.121
236.80	352.632
237.17	6300.000
237.55	285.714
237.92	239.286
238.29	357.143
238.67	193.548
239.04	244.828
239.41	205.556
239.79	134.783
240.16	185.714
240.53	175.000
240.91	129.412
241.28	144.000
241.65	166.000
242.02	130.435
242.40	120.968
242.77	130.000
243.14	105.376
243.51	111.236
243.89	109.412
244.26	107.778
244.63	107.527
245.00	111.702
245.38	114.851
245.75	100.000
246.12	96.330
246.49	101.460
246.87	102.400
247.24	96.154
247.61	95.000
247.98	83.007
248.36	88.514
248.73	85.350
249.10	95.541
249.47	88.136
249.84	75.936
250.22	79.144
250.59	83.432
250.96	79.798
251.33	72.986
251.70	84.158
252.08	76.190
252.45	70.852
252.82	71.739
253.19	70.638
253.56	72.941
253.94	73.444
254.31	74.609
254.68	76.154
255.05	71.218
255.42	73.577
255.79	74.265
256.16	71.480
256.54	68.551
256.91	70.463
257.28	67.266
257.65	65.347
258.02	70.807
258.39	65.300
258.76	67.224
259.14	64.881
259.51	64.438
259.88	62.733
260.25	64.653
260.62	63.006
260.99	68.012
261.36	68.769
261.73	62.464
262.10	66.279
262.47	67.042
262.85	64.067
263.22	60.969
263.59	65.242
263.96	61.813
264.33	62.663
264.70	60.526
265.07	67.008
265.44	62.121
265.81	58.881
266.18	62.814
266.55	60.976
266.92	63.882
267.29	62.963
267.66	61.697
268.03	61.591
268.40	61.449
268.77	63.246
269.14	59.459
269.51	60.948
269.88	64.103
270.25	60.045
270.62	62.247
270.99	60.430
271.36	60.515
271.73	60.280
272.10	61.522
272.47	63.656
272.84	59.307
273.21	59.539
273.58	60.262
273.95	55.765
274.32	55.165
274.69	64.026
275.06	58.465
275.43	61.277
275.80	58.517
276.17	55.804
276.54	57.173
276.91	58.498
277.28	57.031
277.65	58.607
278.02	57.143
278.39	57.812
278.76	56.182
279.13	58.302
279.50	56.983
279.87	54.781
280.23	57.485
280.60	56.093
280.97	58.410
281.34	55.221
281.71	57.091
282.08	57.582
282.45	53.091
282.82	55.240
283.19	52.585
283.56	55.965
283.92	57.191
284.29	56.085
284.66	56.624
285.03	55.335
285.40	52.817
285.77	52.525
286.14	52.504
286.51	53.167
286.87	52.308
287.24	55.863
287.61	52.970
287.98	54.383
288.35	52.139
288.72	50.623
289.08	50.861
289.45	50.082
289.82	51.220
290.19	48.509
290.56	48.086
290.93	49.547
291.29	50.460
291.66	49.558
292.03	48.256
292.40	49.486
292.77	45.710
293.13	47.164
293.50	47.085
293.87	46.222
294.24	46.667
294.60	44.541
294.97	44.767
295.34	46.685
295.71	46.733
296.08	46.296
296.44	44.429
296.81	44.254
297.18	44.580
297.55	43.008
297.91	41.953
298.28	45.917
298.65	43.995
299.02	44.269
299.38	42.629
299.75	41.644
300.12	41.252
300.48	42.000
300.85	41.800
301.22	40.382
301.59	41.162
301.95	42.695
302.32	42.234
302.69	40.980
303.05	40.485
303.42	40.247
303.79	40.544
304.15	38.228
304.52	39.745
304.89	39.721
305.25	39.443
305.62	38.505
305.99	40.496
306.35	39.374
306.72	38.117
307.09	38.846
307.45	40.315
307.82	37.946
308.19	40.287
308.55	40.345
308.92	38.561
309.29	38.965
309.65	36.373
310.02	40.803
310.38	37.742
310.75	39.282
311.12	37.462
311.48	39.916
311.85	40.042
312.22	36.941
312.58	40.125
312.95	39.071
313.31	38.058
313.68	39.917
314.05	38.757
314.41	38.794
314.78	39.879
315.14	40.516
315.51	39.650
315.87	40.594
316.24	38.729
316.61	40.448
316.97	39.432
317.34	40.020
317.70	39.866
318.07	41.193
318.43	40.411
318.80	41.706
319.16	40.772
319.53	40.244
319.89	41.810
320.26	43.200
320.62	43.552
320.99	42.525
321.35	41.212
321.72	43.532
322.08	42.349
322.45	45.572
322.81	44.380
323.18	44.509
323.54	43.692
323.91	45.189
324.27	44.933
324.64	43.709
325.00	43.823
325.37	46.497
325.73	46.050
326.10	45.896
326.46	47.760
326.83	48.318
327.19	47.054
327.56	47.648
327.92	48.556
328.29	48.891
328.65	48.803
329.01	50.000
329.38	47.734
329.74	47.368
330.11	50.424
330.47	48.760
330.84	50.184
331.20	48.725
331.56	49.083
331.93	50.741
332.29	50.222
332.66	49.115
333.02	50.000
333.38	50.587
333.75	51.604
334.11	50.089
334.48	49.956
334.84	49.632
335.20	50.727
335.57	50.136
335.93	49.018
336.29	49.908
336.66	50.406
337.02	49.864
337.38	50.741
337.75	49.733
338.11	48.433
338.47	50.921
338.84	50.687
339.20	49.358
339.56	50.821
339.93	48.818
340.29	50.362
340.65	50.624
341.02	50.785
341.38	50.979
341.74	48.596
342.11	50.480
342.47	49.868
342.83	49.144
343.20	50.823
343.56	50.295
343.92	50.088
344.28	50.255
344.65	50.731
345.01	48.906
345.37	49.657
345.73	50.254
346.10	50.469
346.46	49.746
346.82	50.494
347.19	49.290
347.55	48.030
347.91	50.081
348.27	51.191
348.63	49.331
349.00	48.544
349.36	49.589
349.72	49.639
350.08	48.784
350.45	50.692
350.81	50.041
351.17	50.567
351.53	50.287
351.89	48.185
352.26	49.408
352.62	48.917
352.98	49.352
353.34	49.466
353.70	49.918
354.07	49.758
354.43	48.810
354.79	48.833
355.15	49.641
355.51	50.919
355.87	50.939
356.24	49.756
356.60	49.078
356.96	50.845
357.32	50.450
357.68	49.213
358.04	50.119
358.40	49.327
358.77	49.374
359.13	49.645
359.49	50.039
359.85	49.048
360.21	50.558
360.57	50.739
360.93	50.231
361.29	50.189
361.66	50.155
362.02	50.746
362.38	50.494
362.74	50.298
363.10	49.963
363.46	50.110
363.82	50.491
364.18	50.147
364.54	51.709
364.90	50.496
365.26	50.662
365.62	51.059
365.98	50.548
366.35	50.501
366.71	50.398
367.07	50.910
367.43	51.161
367.79	52.391
368.15	50.647
368.51	49.709
368.87	52.962
369.23	50.475
369.59	51.846
369.95	51.471
370.31	50.712
370.67	49.855
371.03	52.509
371.39	51.749
371.75	52.279
372.11	51.778
372.47	51.906
372.83	52.666
373.19	51.517
373.55	51.441
373.91	53.093
374.27	49.897
374.63	51.127
374.99	51.977
375.35	52.408
375.71	51.131
376.07	52.058
376.42	53.439
376.78	52.220
377.14	52.239
377.50	51.126
377.86	52.394
378.22	52.339
378.58	51.629
378.94	52.231
379.30	52.863
379.66	53.871
380.02	52.641
380.38	51.913
380.74	52.161
381.09	52.751
381.45	54.763
381.81	53.870
382.17	53.185
382.53	53.962
382.89	53.457
383.25	53.096
383.61	52.850
383.97	52.908
384.32	53.026
384.68	52.726
385.04	53.227
385.40	52.879
385.76	52.887
386.12	53.497
386.48	53.996
386.83	54.522
387.19	54.669
387.55	53.556
387.91	53.688
388.27	54.139
388.62	54.149
388.98	53.501
389.34	53.817
389.70	53.893
390.06	54.816
390.42	54.280
390.77	53.880
391.13	55.712
391.49	54.061
391.85	54.424
392.20	53.817
392.56	54.861
392.92	54.326
393.28	53.432
393.64	55.276
393.99	53.696
394.35	53.846
394.71	54.078
395.07	53.084
395.42	55.810
395.78	54.326
396.14	53.942
396.50	56.704
396.85	54.736
397.21	54.192
397.57	55.363
397.92	54.627
398.28	53.587
398.64	54.002
399.00	54.169
399.35	53.751
399.71	54.051
400.07	55.115
400.42	55.460
400.78	54.403
401.14	53.537
401.49	54.090
401.85	53.962
402.21	53.952
402.57	54.843
402.92	56.179
403.28	55.340
403.63	54.022
403.99	54.650
404.35	53.394
404.70	54.376
405.06	54.397
405.42	54.523
405.77	54.457
406.13	52.935
406.49	54.701
406.84	54.400
407.20	54.374
407.55	55.648
407.91	55.600
408.27	54.818
408.62	54.365
408.98	55.392
409.34	54.490
409.69	55.484
410.05	54.895
410.40	54.740
410.76	55.137
411.11	54.222
411.47	53.738
411.83	54.368
412.18	52.876
412.54	54.919
412.89	53.253
413.25	53.247
413.60	55.219
413.96	52.945
414.31	54.313
414.67	53.866
415.03	54.636
415.38	54.575
415.74	54.598
416.09	56.172
416.45	54.886
416.80	55.188
417.16	56.300
417.51	54.214
417.87	53.757
418.22	55.457
418.58	55.003
418.93	54.300
419.29	54.551
419.64	54.471
420.00	55.671
420.35	54.899
420.71	56.067
421.06	54.117
421.42	54.094
421.77	54.316
422.12	54.351
422.48	52.617
422.83	55.271
423.19	55.193
423.54	55.194
423.90	54.551
424.25	54.830
424.61	54.464
424.96	54.694
425.31	54.319
425.67	54.438
426.02	54.571
426.38	55.800
426.73	53.423
427.09	53.799
427.44	55.607
427.79	55.089
428.15	54.821
428.50	54.769
428.85	55.066
429.21	54.611
429.56	54.225
429.92	54.706
430.27	54.866
430.62	54.839
430.98	54.126
431.33	53.299
431.68	54.660
432.04	54.207
432.39	55.283
432.74	55.117
433.10	55.065
433.45	55.394
433.80	55.211
434.16	55.075
434.51	53.895
434.86	55.530
435.22	55.809
435.57	55.076
435.92	54.593
436.28	56.762
436.63	54.801
436.98	55.123
437.34	56.828
437.69	56.418
438.04	55.256
438.39	54.746
438.75	55.723
439.10	56.034
439.45	55.372
439.81	55.650
440.16	54.997
440.51	55.712
440.86	55.588
441.22	54.227
441.57	55.361
441.92	56.551
442.27	55.436
442.63	55.503
442.98	55.718
443.33	55.489
443.68	55.395
444.03	56.027
444.39	54.869
444.74	55.844
445.09	56.119
445.44	55.331
445.79	55.666
446.15	55.109
446.50	55.789
446.85	55.910
447.20	54.360
447.55	55.332
447.91	55.157
448.26	56.149
448.61	55.059
448.96	55.205
449.31	56.749
449.66	54.755
450.02	55.209
450.37	54.875
450.72	54.484
451.07	54.296
451.42	53.860
451.77	55.666
452.12	54.099
452.47	54.913
452.83	55.012
453.18	54.523
453.53	55.906
453.88	54.873
454.23	55.529
454.58	55.239
454.93	56.643
455.28	53.678
455.63	55.400
455.98	55.774
456.34	56.030
456.69	55.416
457.04	54.737
457.39	54.822
457.74	54.498
458.09	54.974
458.44	54.675
458.79	53.688
459.14	54.515
459.49	54.758
459.84	53.241
460.19	53.978
460.54	53.299
460.89	54.251
461.24	55.434
461.59	54.910
461.94	53.268
462.29	55.371
462.64	53.861
462.99	54.001
463.34	54.667
463.69	54.221
464.04	54.551
464.39	53.797
464.74	53.951
465.09	54.524
465.44	52.687
465.79	52.685
466.14	54.132
466.49	52.169
466.84	52.948
467.19	53.772
467.54	54.250
467.89	53.601
468.24	52.821
468.59	53.907
468.94	52.963
469.29	54.177
469.64	54.418
469.99	54.330
470.34	52.708
470.68	54.239
471.03	53.197
471.38	54.691
471.73	53.031
472.08	53.684
472.43	52.701
472.78	53.127
473.13	54.878
473.48	52.434
473.83	53.110
474.17	52.022
474.52	53.288
474.87	53.824
475.22	53.685
475.57	51.155
475.92	52.257
476.27	51.973
476.61	52.565
476.96	51.512
477.31	51.282
477.66	54.048
478.01	50.758
478.36	52.565
478.70	52.077
479.05	52.023
479.40	52.303
479.75	52.211
480.10	52.187
480.45	50.976
480.79	51.171
481.14	52.055
481.49	51.542
481.84	51.257
482.19	51.295
482.53	50.642
482.88	50.349
483.23	51.308
483.58	50.955
483.92	51.312
484.27	48.758
484.62	50.431
484.97	50.453
485.31	51.986
485.66	51.377
486.01	50.995
486.36	49.436
486.70	48.481
487.05	48.669
487.40	49.617
487.75	48.850
488.09	49.864
488.44	49.199
488.79	50.054
489.13	50.229
489.48	48.654
489.83	49.374
490.17	50.285
490.52	49.646
490.87	49.570
491.22	49.204
491.56	48.565
491.91	48.953
492.26	49.196
492.60	48.065
492.95	48.410
493.30	48.271
493.64	48.903
493.99	48.236
494.34	49.167
494.68	49.496
495.03	48.543
495.37	46.812
495.72	48.343
496.07	48.306
496.41	47.434
496.76	48.153
497.11	48.402
497.45	48.300
497.80	48.129
498.14	47.681
498.49	47.902
498.84	48.610
499.18	46.857
499.53	47.768
499.87	48.043
500.22	47.244
500.56	48.641
500.91	47.163
501.26	48.459
501.60	47.935
501.95	47.754
502.29	48.219
502.64	47.858
502.98	48.387
503.33	47.349
503.67	46.729
504.02	47.287
504.36	47.871
504.71	46.947
505.06	47.325
505.40	47.448
505.75	46.625
506.09	46.744
506.44	47.706
506.78	47.686
507.13	47.552
507.47	48.131
507.82	47.974
508.16	47.771
508.51	47.793
508.85	47.269
509.19	46.990
509.54	47.704
509.88	46.832
510.23	46.941
510.57	47.162
510.92	46.919
511.26	46.557
511.61	45.954
511.95	45.929
512.30	47.137
512.64	46.427
512.98	45.981
513.33	47.323
513.67	45.518
514.02	46.916
514.36	47.078
514.70	46.873
515.05	47.295
515.39	46.775
515.74	46.453
516.08	46.898
516.42	46.948
516.77	47.882
517.11	46.837
517.46	45.937
517.80	47.387
518.14	46.381
518.49	46.674
518.83	46.080
519.17	46.420
519.52	47.029
519.86	46.606
520.20	47.052
520.55	47.098
520.89	47.384
521.23	45.838
521.58	46.759
521.92	47.765
522.26	44.661
522.61	46.168
522.95	46.716
523.29	46.379
523.64	46.402
523.98	46.580
524.32	46.019
524.66	45.580
525.01	46.385
525.35	45.663
525.69	45.443
526.04	45.545
526.38	45.577
526.72	44.540
527.06	45.574
527.41	44.121
527.75	45.852
528.09	45.729
528.43	46.272
528.78	46.958
529.12	44.667
529.46	44.948
529.80	45.545
530.15	46.480
530.49	44.246
530.83	45.506
531.17	47.650
531.51	46.757
531.86	45.742
532.20	45.502
532.54	45.163
532.88	45.507
533.22	44.535
533.57	45.432
533.91	45.214
534.25	45.443
534.59	45.210
534.93	45.925
535.27	45.383
535.62	44.872
535.96	45.888
536.30	45.518
536.64	44.881
536.98	44.526
537.32	44.766
537.66	44.533
538.01	45.227
538.35	44.990
538.69	45.373
539.03	44.509
539.37	44.026
539.71	42.515
540.05	46.078
540.39	44.252
540.73	44.825
541.07	45.685
541.42	45.466
541.76	45.097
542.10	43.920
542.44	43.907
542.78	45.652
543.12	43.890
543.46	44.525
543.80	44.828
544.14	43.325
544.48	44.635
544.82	44.259
545.16	43.461
545.50	43.509
545.84	43.952
546.18	44.242
546.52	44.873
546.86	44.605
547.20	44.100
547.54	45.558
547.88	45.089
548.22	43.088
548.56	44.277
548.90	44.302
549.24	43.098
549.58	43.452
549.92	43.544
550.26	44.886
550.60	43.292
550.94	44.366
551.28	42.502
551.62	44.716
551.96	43.439
552.30	43.276
552.64	43.611
552.98	43.051
553.32	43.965
553.66	43.695
554.00	43.377
554.34	42.236
554.68	42.990
555.02	42.313
555.36	42.519
555.69	43.640
556.03	43.203
556.37	41.678
556.71	42.087
557.05	41.737
557.39	43.037
557.73	42.272
558.07	42.277
558.41	42.113
558.75	42.689
559.08	43.028
559.42	43.462
559.76	42.500
560.10	40.828
560.44	41.789
560.78	41.251
561.12	41.161
561.45	41.656
561.79	40.672
562.13	41.247
562.47	41.393
562.81	41.841
563.15	42.341
563.48	41.512
563.82	42.205
564.16	41.269
564.50	41.732
564.84	40.771
565.17	42.471
565.51	42.364
565.85	40.863
566.19	40.889
566.52	41.735
566.86	40.325
567.20	42.925
567.54	42.009
567.88	41.336
568.21	41.587
568.55	41.102
568.89	41.634
569.23	41.310
569.56	40.648
569.90	40.906
570.24	40.474
570.57	40.564
570.91	39.916
571.25	40.673
571.59	39.794
571.92	40.467
572.26	40.757
572.60	40.390
572.93	40.300
573.27	40.698
573.61	40.173
573.95	40.491
574.28	40.101
574.62	39.966
574.96	39.618
575.29	39.961
575.63	39.914
575.97	40.276
576.30	40.069
576.64	40.384
576.98	39.572
577.31	39.972
577.65	40.065
577.98	40.692
578.32	39.277
578.66	40.063
578.99	39.740
579.33	39.700
579.67	39.479
580.00	39.559
580.34	39.915
580.67	39.636
581.01	40.117
581.35	40.151
581.68	40.320
582.02	39.741
582.35	39.928
582.69	39.265
583.02	39.674
583.36	39.797
583.70	39.810
584.03	39.237
584.37	40.079
584.70	40.152
585.04	39.066
585.37	39.515
585.71	38.863
586.04	39.237
586.38	40.125
586.72	40.072
587.05	38.848
587.39	39.340
587.72	40.196
588.06	39.088
588.39	39.863
588.73	40.012
589.06	39.794
589.40	39.596
589.73	40.197
590.07	39.110
590.40	39.569
590.73	39.930
591.07	40.578
591.40	38.971
591.74	40.606
592.07	39.223
592.41	39.644
592.74	38.390
593.08	39.207
593.41	39.291
593.75	38.570
594.08	38.954
594.41	38.600
594.75	39.298
595.08	38.475
595.42	39.194
595.75	38.960
596.09	39.467
596.42	39.136
596.75	38.962
597.09	38.831
597.42	38.153
597.75	38.853
598.09	38.739
598.42	37.715
598.76	38.103
599.09	38.198
599.42	38.100
599.76	38.653
600.09	38.579
600.42	37.911
600.76	37.750
601.09	37.996
601.42	38.204
601.76	38.558
602.09	37.549
602.42	38.455
602.76	37.848
603.09	37.608
603.42	37.876
603.76	38.034
604.09	37.883
604.42	38.198
604.76	37.706
605.09	38.183
605.42	37.495
605.75	38.328
606.09	37.902
606.42	37.393
606.75	37.744
607.09	37.380
607.42	37.142
607.75	37.131
608.08	37.169
608.42	38.279
608.75	36.700
609.08	37.928
609.41	37.887
609.75	37.113
610.08	37.795
610.41	36.825
610.74	37.512
611.07	37.698
611.41	37.144
611.74	37.054
612.07	38.199
612.40	37.566
612.73	36.895
613.07	37.177
613.40	37.072
613.73	36.550
614.06	37.204
614.39	36.654
614.72	36.789
615.06	37.500
615.39	37.367
615.72	36.656
616.05	36.470
616.38	37.187
616.71	37.233
617.05	38.163
617.38	37.222
617.71	36.697
618.04	37.921
618.37	36.251
618.70	38.208
619.03	37.500
619.36	37.407
619.69	36.338
620.03	37.294
620.36	37.500
620.69	37.877
621.02	37.316
621.35	37.431
621.68	36.059
622.01	36.687
622.34	38.729
622.67	37.871
623.00	36.244
623.33	36.097
623.66	36.455
623.99	36.303
624.32	36.519
624.65	35.805
624.99	35.694
625.32	36.423
625.65	37.641
625.98	36.434
626.31	36.625
626.64	36.898
626.97	36.991
627.30	36.409
627.63	36.833
627.96	36.669
628.29	35.608
628.62	36.322
628.95	37.170
629.28	35.766
629.61	35.747
629.94	36.381
630.26	35.748
630.59	37.560
