SpectraSuite Data File
++++++++++++++++++++++++++++++++++++
Date: Wed May 13 19:53:01 PDT 2015
User: schluterlab
Dark Spectrum Present: Yes
Reference Spectrum Present: Yes
Number of Sampled Component Spectra: 1
Spectrometers: USB2E3373
Integration Time (usec): 3000 (USB2E3373)
Spectra Averaged: 3 (USB2E3373)
Boxcar Smoothing: 0 (USB2E3373)
Correct for Electrical Dark: No (USB2E3373)
Strobe/Lamp Enabled: No (USB2E3373)
Correct for Detector Non-linearity: No (USB2E3373)
Correct for Stray Light: No (USB2E3373)
Number of Pixels in Processed Spectrum: 2048
>>>>>Begin Processed Spectral Data<<<<<
178.53	0.000
178.91	-1300.000
179.29	-1475.000
179.67	-238.889
180.04	-1375.000
180.42	2700.000
180.80	1340.000
181.18	-1300.000
181.56	771.429
181.94	0.000
182.31	-642.857
182.69	1900.000
183.07	-600.000
183.45	-666.667
183.83	572.727
184.20	-500.000
184.58	2700.000
184.96	5700.000
185.34	-1080.000
185.72	-687.500
186.09	-2600.000
186.47	3050.000
186.85	2400.000
187.23	5000.000
187.61	-1900.000
187.98	1425.000
188.36	581.818
188.74	545.455
189.12	-860.000
189.49	600.000
189.87	-5200.000
190.25	-1350.000
190.63	400.000
191.00	500.000
191.38	933.333
191.76	-1350.000
192.14	1550.000
192.51	637.500
192.89	950.000
193.27	587.500
193.65	-1275.000
194.02	540.000
194.40	1040.000
194.78	600.000
195.15	508.333
195.53	640.000
195.91	-2200.000
196.29	368.750
196.66	310.526
197.04	-350.000
197.42	0.000
197.79	640.000
198.17	-4900.000
198.55	728.571
198.92	600.000
199.30	960.000
199.68	0.000
200.05	361.111
200.43	857.143
200.81	5100.000
201.18	1800.000
201.56	-1566.667
201.94	600.000
202.31	666.667
202.69	508.333
203.07	660.000
203.44	0.000
203.82	1275.000
204.19	742.857
204.57	485.714
204.95	787.500
205.32	1933.333
205.70	563.636
206.08	414.286
206.45	2900.000
206.83	356.250
207.20	1033.333
207.58	920.000
207.96	366.667
208.33	837.500
208.71	-966.667
209.08	871.429
209.46	500.000
209.84	472.727
210.21	-1833.333
210.59	1200.000
210.96	-587.500
211.34	2600.000
211.71	670.000
212.09	933.333
212.46	0.000
212.84	1733.333
213.22	1350.000
213.59	-5400.000
213.97	800.000
214.34	800.000
214.72	481.818
215.09	1240.000
215.47	-2850.000
215.84	-2900.000
216.22	1833.333
216.59	421.429
216.97	1225.000
217.34	390.909
217.72	-900.000
218.09	0.000
218.47	-5000.000
218.84	644.444
219.22	785.714
219.59	2200.000
219.97	-714.286
220.34	960.000
220.72	-1700.000
221.09	457.143
221.47	1475.000
221.84	-966.667
222.22	0.000
222.59	1425.000
222.97	-2350.000
223.34	1140.000
223.72	492.308
224.09	1160.000
224.46	2550.000
224.84	-5700.000
225.21	-1220.000
225.59	-6300.000
225.96	660.000
226.34	325.000
226.71	2550.000
227.08	600.000
227.46	580.000
227.83	-1400.000
228.21	-2900.000
228.58	766.667
228.95	-2550.000
229.33	-2300.000
229.70	1933.333
230.08	757.143
230.45	-1000.000
230.82	508.333
231.20	883.333
231.57	671.429
231.95	425.000
232.32	263.636
232.69	490.909
233.07	657.143
233.44	307.692
233.81	-2066.667
234.19	321.053
234.56	483.333
234.93	366.667
235.31	445.455
235.68	361.538
236.05	464.286
236.43	166.667
236.80	236.842
237.17	6300.000
237.55	247.619
237.92	217.857
238.29	261.905
238.67	222.581
239.04	220.690
239.41	175.000
239.79	150.000
240.16	152.381
240.53	136.364
240.91	107.843
241.28	128.000
241.65	124.000
242.02	120.290
242.40	117.742
242.77	108.333
243.14	93.548
243.51	95.506
243.89	94.118
244.26	88.889
244.63	75.269
245.00	85.106
245.38	83.168
245.75	81.308
246.12	77.982
246.49	72.263
246.87	81.600
247.24	66.923
247.61	66.429
247.98	65.359
248.36	62.162
248.73	64.331
249.10	63.694
249.47	59.887
249.84	57.754
250.22	51.337
250.59	62.722
250.96	57.576
251.33	51.659
251.70	58.416
252.08	56.190
252.45	54.260
252.82	52.174
253.19	52.340
253.56	50.980
253.94	55.602
254.31	54.297
254.68	53.077
255.05	54.244
255.42	51.626
255.79	52.941
256.16	50.542
256.54	45.936
256.91	48.754
257.28	42.806
257.65	46.865
258.02	46.894
258.39	46.372
258.76	46.488
259.14	45.833
259.51	44.681
259.88	43.478
260.25	47.130
260.62	42.775
260.99	44.720
261.36	46.246
261.73	42.693
262.10	45.640
262.47	44.507
262.85	42.340
263.22	41.880
263.59	44.160
263.96	42.857
264.33	43.864
264.70	44.211
265.07	43.223
265.44	42.172
265.81	40.633
266.18	41.960
266.55	38.537
266.92	42.015
267.29	42.361
267.66	41.743
268.03	37.727
268.40	41.121
268.77	42.243
269.14	38.964
269.51	40.858
269.88	40.559
270.25	40.632
270.62	38.202
270.99	41.505
271.36	37.339
271.73	37.617
272.10	39.348
272.47	40.215
272.84	36.797
273.21	38.784
273.58	38.646
273.95	38.994
274.32	37.603
274.69	38.330
275.06	37.008
275.43	42.128
275.80	36.673
276.17	39.308
276.54	36.175
276.91	37.747
277.28	37.891
277.65	35.010
278.02	36.646
278.39	38.672
278.76	37.091
279.13	39.057
279.50	37.989
279.87	37.052
280.23	36.527
280.60	37.137
280.97	36.414
281.34	35.221
281.71	36.727
282.08	37.236
282.45	34.000
282.82	37.655
283.19	34.403
283.56	34.211
283.92	35.364
284.29	34.039
284.66	34.483
285.03	33.635
285.40	36.444
285.77	35.690
286.14	33.679
286.51	35.333
286.87	35.043
287.24	34.365
287.61	33.547
287.98	34.740
288.35	32.013
288.72	34.112
289.08	33.803
289.45	33.773
289.82	32.846
290.19	30.455
290.56	32.159
290.93	31.118
291.29	32.975
291.66	31.711
292.03	33.576
292.40	32.452
292.77	32.101
293.13	31.343
293.50	31.050
293.87	31.111
294.24	29.926
294.60	29.985
294.97	30.959
295.34	30.748
295.71	30.256
296.08	28.775
296.44	28.336
296.81	29.326
297.18	30.623
297.55	25.330
297.91	29.024
298.28	29.987
298.65	28.851
299.02	27.800
299.38	27.756
299.75	27.898
300.12	27.458
300.48	28.000
300.85	27.127
301.22	27.771
301.59	27.146
301.95	28.212
302.32	27.471
302.69	27.121
303.05	27.636
303.42	28.025
303.79	26.161
304.15	26.457
304.52	26.999
304.89	26.365
305.25	26.682
305.62	27.520
305.99	28.335
306.35	26.734
306.72	27.354
307.09	26.748
307.45	28.041
307.82	26.004
308.19	26.932
308.55	28.155
308.92	26.960
309.29	25.343
309.65	28.950
310.02	27.907
310.38	26.882
310.75	26.927
311.12	27.636
311.48	28.527
311.85	28.512
312.22	28.304
312.58	27.027
312.95	28.617
313.31	26.796
313.68	27.963
314.05	30.276
314.41	30.754
314.78	29.305
315.14	29.593
315.51	29.969
315.87	31.485
316.24	29.593
316.61	30.897
316.97	29.550
317.34	30.528
317.70	32.218
318.07	30.895
318.43	33.659
318.80	32.334
319.16	33.427
319.53	31.895
319.89	33.524
320.26	35.700
320.62	35.119
320.99	33.737
321.35	35.455
321.72	36.756
322.08	36.723
322.45	37.811
322.81	39.050
323.18	40.173
323.54	38.033
323.91	37.736
324.27	39.388
324.64	40.820
325.00	40.397
325.37	40.400
325.73	41.293
326.10	42.277
326.46	41.487
326.83	43.313
327.19	44.236
327.56	43.815
327.92	45.232
328.29	46.584
328.65	47.145
329.01	44.765
329.38	46.901
329.74	47.830
330.11	47.879
330.47	47.658
330.84	49.724
331.20	48.087
331.56	48.807
331.93	49.537
332.29	48.536
332.66	47.611
333.02	47.806
333.38	49.593
333.75	49.554
334.11	49.021
334.48	49.778
334.84	51.195
335.20	50.545
335.57	49.683
335.93	48.214
336.29	49.451
336.66	50.135
337.02	48.507
337.38	50.648
337.75	48.752
338.11	49.776
338.47	50.368
338.84	51.054
339.20	48.716
339.56	52.372
339.93	50.909
340.29	50.815
340.65	50.802
341.02	49.913
341.38	52.224
341.74	48.246
342.11	50.830
342.47	50.837
342.83	48.459
343.20	49.524
343.56	48.441
343.92	49.474
344.28	49.830
344.65	50.989
345.01	48.485
345.37	48.370
345.73	50.508
346.10	50.213
346.46	49.661
346.82	49.259
347.19	50.710
347.55	50.082
347.91	50.405
348.27	50.205
348.63	50.084
349.00	49.272
349.36	50.657
349.72	50.200
350.08	48.541
350.45	51.749
350.81	50.772
351.17	49.595
351.53	48.894
351.89	47.855
352.26	49.250
352.62	48.677
352.98	50.162
353.34	49.548
353.70	49.182
354.07	49.113
354.43	47.778
354.79	48.270
355.15	48.923
355.51	49.800
355.87	49.551
356.24	50.326
356.60	48.356
356.96	49.879
357.32	49.060
357.68	48.346
358.04	47.664
358.40	48.694
358.77	48.357
359.13	47.751
359.49	48.471
359.85	47.540
360.21	47.687
360.57	48.093
360.93	48.846
361.29	47.619
361.66	47.601
362.02	47.687
362.38	48.669
362.74	48.140
363.10	47.298
363.46	47.836
363.82	47.997
364.18	47.063
364.54	49.183
364.90	47.875
365.26	49.118
365.62	48.649
365.98	47.042
366.35	46.060
366.71	47.289
367.07	47.924
367.43	48.549
367.79	49.251
368.15	48.420
368.51	46.584
368.87	47.252
369.23	47.549
369.59	47.502
369.95	48.015
370.31	46.937
370.67	46.739
371.03	47.266
371.39	47.376
371.75	46.765
372.11	46.017
372.47	47.874
372.83	48.343
373.19	46.749
373.55	47.820
373.91	47.938
374.27	46.392
374.63	46.691
374.99	47.246
375.35	46.755
375.71	46.539
376.07	46.022
376.42	46.561
376.78	47.382
377.14	46.472
377.50	45.960
377.86	46.476
378.22	45.512
378.58	46.554
378.94	45.632
379.30	46.565
379.66	46.954
380.02	46.192
380.38	45.962
380.74	45.738
381.09	46.699
381.45	46.958
381.81	45.762
382.17	46.624
382.53	45.786
382.89	46.049
383.25	45.466
383.61	47.026
383.97	45.966
384.32	45.540
384.68	45.725
385.04	46.589
385.40	45.077
385.76	45.025
386.12	44.948
386.48	46.318
386.83	46.248
387.19	46.320
387.55	44.341
387.91	44.256
388.27	44.145
388.62	45.237
388.98	45.025
389.34	45.745
389.70	44.206
390.06	45.184
390.42	45.914
390.77	45.229
391.13	45.118
391.49	44.226
391.85	45.449
392.20	44.921
392.56	44.949
392.92	44.438
393.28	43.254
393.64	44.904
393.99	44.166
394.35	44.169
394.71	43.476
395.07	43.489
395.42	45.179
395.78	44.338
396.14	43.824
396.50	44.549
396.85	45.010
397.21	44.081
397.57	43.645
397.92	43.990
398.28	42.713
398.64	43.130
399.00	43.257
399.35	42.414
399.71	42.824
400.07	43.111
400.42	43.558
400.78	43.727
401.14	43.537
401.49	43.284
401.85	43.436
402.21	42.635
402.57	43.738
402.92	43.569
403.28	43.785
403.63	43.626
403.99	43.949
404.35	41.939
404.70	41.667
405.06	41.642
405.42	42.795
405.77	41.600
406.13	41.704
406.49	42.046
406.84	41.110
407.20	42.139
407.55	42.757
407.91	43.600
408.27	42.565
408.62	40.999
408.98	41.299
409.34	41.943
409.69	43.032
410.05	41.574
410.40	42.508
410.76	42.294
411.11	42.400
411.47	40.192
411.83	42.211
412.18	40.012
412.54	41.905
412.89	41.024
413.25	41.086
413.60	41.384
413.96	40.741
414.31	40.826
414.67	41.255
415.03	41.258
415.38	41.753
415.74	42.058
416.09	41.280
416.45	42.169
416.80	41.705
417.16	41.689
417.51	41.075
417.87	40.206
418.22	40.883
418.58	41.059
418.93	40.848
419.29	40.675
419.64	40.428
420.00	39.756
420.35	40.116
420.71	39.689
421.06	40.036
421.42	40.117
421.77	39.070
422.12	38.798
422.48	38.856
422.83	39.371
423.19	39.282
423.54	40.163
423.90	40.232
424.25	39.643
424.61	39.762
424.96	39.767
425.31	39.424
425.67	38.820
426.02	38.971
426.38	39.316
426.73	38.268
427.09	39.210
427.44	39.333
427.79	38.815
428.15	38.333
428.50	39.789
428.85	39.452
429.21	38.763
429.56	38.517
429.92	37.796
430.27	37.934
430.62	37.634
430.98	37.987
431.33	37.938
431.68	38.848
432.04	38.445
432.39	38.378
432.74	38.300
433.10	38.596
433.45	39.067
433.80	38.137
434.16	37.874
434.51	37.842
434.86	38.369
435.22	38.688
435.57	38.116
435.92	36.864
436.28	39.146
436.63	38.079
436.98	37.436
437.34	37.388
437.69	39.148
438.04	37.437
438.39	37.910
438.75	38.640
439.10	37.877
439.45	37.544
439.81	38.550
440.16	36.364
440.51	37.610
440.86	37.580
441.22	37.430
441.57	36.624
441.92	36.694
442.27	37.406
442.63	36.704
442.98	38.085
443.33	37.337
443.68	36.448
444.03	36.554
444.39	36.660
444.74	36.634
445.09	36.226
445.44	37.069
445.79	36.368
446.15	37.268
446.50	36.457
446.85	36.177
447.20	36.818
447.55	37.800
447.91	37.010
448.26	36.672
448.61	36.405
448.96	37.265
449.31	36.839
449.66	35.959
450.02	35.655
450.37	35.261
450.72	36.605
451.07	36.015
451.42	35.319
451.77	37.346
452.12	35.508
452.47	35.634
452.83	36.422
453.18	35.024
453.53	36.982
453.88	35.145
454.23	36.760
454.58	35.191
454.93	37.254
455.28	36.409
455.63	35.498
455.98	37.738
456.34	35.741
456.69	36.193
457.04	35.542
457.39	35.359
457.74	36.100
458.09	35.365
458.44	36.431
458.79	35.249
459.14	35.666
459.49	36.019
459.84	34.127
460.19	35.180
460.54	34.606
460.89	34.504
461.24	36.066
461.59	35.909
461.94	34.772
462.29	35.430
462.64	35.290
462.99	35.198
463.34	36.533
463.69	34.584
464.04	35.768
464.39	34.087
464.74	34.641
465.09	34.077
465.44	34.072
465.79	33.557
466.14	33.114
466.49	33.648
466.84	34.442
467.19	34.701
467.54	35.000
467.89	33.613
468.24	34.904
468.59	34.371
468.94	34.331
469.29	34.062
469.64	35.007
469.99	34.168
470.34	34.875
470.68	34.914
471.03	33.878
471.38	33.704
471.73	34.710
472.08	34.737
472.43	34.611
472.78	35.418
473.13	35.109
473.48	34.082
473.83	33.476
474.17	32.296
474.52	32.940
474.87	33.041
475.22	33.314
475.57	32.886
475.92	32.926
476.27	33.202
476.61	33.149
476.96	32.600
477.31	32.862
477.66	33.425
478.01	32.358
478.36	33.210
478.70	32.866
479.05	32.055
479.40	32.242
479.75	32.537
480.10	31.909
480.45	32.461
480.79	31.199
481.14	32.241
481.49	32.795
481.84	31.047
482.19	32.031
482.53	31.514
482.88	32.108
483.23	32.290
483.58	32.393
483.92	31.865
484.27	30.501
484.62	31.250
484.97	31.376
485.31	31.747
485.66	29.990
486.01	28.427
486.36	27.973
486.70	27.910
487.05	28.890
487.40	29.826
487.75	30.203
488.09	31.059
488.44	30.620
488.79	31.754
489.13	31.551
489.48	31.852
489.83	30.255
490.17	31.214
490.52	30.779
490.87	31.524
491.22	30.787
491.56	30.797
491.91	31.503
492.26	30.547
492.60	30.553
492.95	30.636
493.30	30.935
493.64	30.705
493.99	31.337
494.34	30.712
494.68	31.410
495.03	30.639
495.37	31.596
495.72	30.312
496.07	30.905
496.41	30.088
496.76	30.519
497.11	30.482
497.45	30.787
497.80	29.942
498.14	30.048
498.49	30.976
498.84	30.393
499.18	30.095
499.53	30.199
499.87	30.662
500.22	30.099
500.56	30.825
500.91	29.952
501.26	31.200
501.60	31.229
501.95	29.789
502.29	30.647
502.64	30.587
502.98	29.547
503.33	29.845
503.67	29.374
504.02	28.999
504.36	29.481
504.71	30.337
505.06	29.060
505.40	30.141
505.75	30.231
506.09	28.377
506.44	29.896
506.78	29.761
507.13	30.288
507.47	29.646
507.82	30.699
508.16	30.193
508.51	30.188
508.85	29.692
509.19	29.694
509.54	30.153
509.88	28.594
510.23	29.409
510.57	29.928
510.92	30.347
511.26	30.216
511.61	28.942
511.95	28.758
512.30	28.950
512.64	29.124
512.98	30.171
513.33	29.872
513.67	29.402
514.02	29.113
514.36	29.765
514.70	29.496
515.05	29.113
515.39	29.669
515.74	28.885
516.08	30.240
516.42	29.856
516.77	30.156
517.11	28.690
517.46	30.079
517.80	30.430
518.14	29.531
518.49	29.755
518.83	30.000
519.17	29.446
519.52	29.881
519.86	29.835
520.20	29.827
520.55	30.221
520.89	30.231
521.23	30.277
521.58	30.012
521.92	29.761
522.26	28.615
522.61	29.782
522.95	28.913
523.29	29.032
523.64	30.061
523.98	30.068
524.32	29.131
524.66	29.886
525.01	29.718
525.35	29.926
525.69	28.818
526.04	29.595
526.38	29.652
526.72	28.896
527.06	30.069
527.41	27.908
527.75	29.646
528.09	29.094
528.43	29.127
528.78	29.748
529.12	29.212
529.46	29.333
529.80	28.775
530.15	29.283
530.49	27.754
530.83	29.241
531.17	30.287
531.51	30.026
531.86	28.516
532.20	29.596
532.54	29.468
532.88	29.653
533.22	29.107
533.57	29.012
533.91	28.537
534.25	27.643
534.59	28.432
534.93	28.198
535.27	28.304
535.62	29.121
535.96	29.630
536.30	28.290
536.64	28.976
536.98	29.263
537.32	28.440
537.66	29.400
538.01	28.440
538.35	28.119
538.69	29.675
539.03	28.395
539.37	28.179
539.71	27.220
540.05	29.150
540.39	28.771
540.73	28.008
541.07	29.072
541.42	29.615
541.76	29.355
542.10	29.237
542.44	28.278
542.78	29.710
543.12	27.639
543.46	29.574
543.80	28.497
544.14	28.177
544.48	29.016
544.82	27.582
545.16	28.562
545.50	28.406
545.84	27.419
546.18	28.889
546.52	29.319
546.86	29.347
547.20	29.400
547.54	28.657
547.88	29.528
548.22	28.518
548.56	28.553
548.90	27.593
549.24	27.475
549.58	28.172
549.92	28.434
550.26	29.759
550.60	28.008
550.94	28.944
551.28	28.164
551.62	29.188
551.96	27.930
552.30	28.942
552.64	28.736
552.98	28.475
553.32	28.254
553.66	27.948
554.00	28.552
554.34	27.329
554.68	29.900
555.02	27.997
555.36	28.671
555.69	27.402
556.03	27.456
556.37	27.217
556.71	27.694
557.05	28.361
557.39	28.551
557.73	27.311
558.07	27.484
558.41	26.845
558.75	27.921
559.08	28.486
559.42	29.705
559.76	27.941
560.10	27.909
560.44	26.834
560.78	27.279
561.12	28.034
561.45	28.031
561.79	27.423
562.13	27.163
562.47	27.937
562.81	27.057
563.15	27.692
563.48	27.454
563.82	27.658
564.16	27.142
564.50	26.888
564.84	27.434
565.17	27.220
565.51	28.051
565.85	26.079
566.19	27.239
566.52	26.662
566.86	26.401
567.20	26.120
567.54	26.712
567.88	27.105
568.21	26.402
568.55	26.390
568.89	25.827
569.23	25.446
569.56	25.425
569.90	24.906
570.24	25.188
570.57	24.923
570.91	24.144
571.25	24.490
571.59	24.183
571.92	24.165
572.26	24.495
572.60	24.354
572.93	24.258
573.27	24.667
573.61	24.149
573.95	24.134
574.28	23.945
574.62	23.639
574.96	23.704
575.29	23.836
575.63	23.501
575.97	23.718
576.30	24.296
576.64	23.629
576.98	24.113
577.31	23.660
577.65	23.322
577.98	23.522
578.32	22.875
578.66	22.935
578.99	23.807
579.33	23.384
579.67	23.279
580.00	23.879
580.34	23.849
580.67	23.730
581.01	23.387
581.35	23.502
581.68	22.894
582.02	22.809
582.35	22.948
582.69	23.024
583.02	23.603
583.36	23.496
583.70	24.451
584.03	24.164
584.37	24.374
584.70	24.138
585.04	23.532
585.37	23.136
585.71	23.261
586.04	23.194
586.38	23.981
586.72	24.165
587.05	23.581
587.39	23.430
587.72	23.963
588.06	23.693
588.39	23.621
588.73	23.907
589.06	24.275
589.40	24.545
589.73	24.710
590.07	24.306
590.40	24.699
590.73	24.356
591.07	24.949
591.40	24.926
591.74	25.152
592.07	25.262
592.41	24.473
592.74	23.258
593.08	23.751
593.41	23.600
593.75	23.923
594.08	24.070
594.41	23.613
594.75	24.067
595.08	23.873
595.42	23.958
595.75	24.608
596.09	24.371
596.42	24.754
596.75	24.525
597.09	25.411
597.42	23.651
597.75	24.795
598.09	24.435
598.42	25.043
598.76	24.321
599.09	23.375
599.42	23.690
599.76	23.902
600.09	22.914
600.42	23.740
600.76	24.143
601.09	23.279
601.42	23.782
601.76	23.985
602.09	24.111
602.42	24.204
602.76	24.627
603.09	24.194
603.42	23.858
603.76	23.171
604.09	23.342
604.42	24.256
604.76	24.547
605.09	23.853
605.42	23.899
605.75	24.131
606.09	23.993
606.42	23.989
606.75	23.973
607.09	23.399
607.42	23.492
607.75	22.996
608.08	24.056
608.42	24.294
608.75	23.354
609.08	23.636
609.41	24.274
609.75	24.488
610.08	24.034
610.41	23.464
610.74	24.361
611.07	24.506
611.41	24.387
611.74	25.038
612.07	24.379
612.40	25.656
612.73	24.000
613.07	24.892
613.40	24.908
613.73	24.436
614.06	24.355
614.39	23.650
614.72	25.053
615.06	24.107
615.39	24.310
615.72	23.978
616.05	24.030
616.38	24.514
616.71	25.831
617.05	24.441
617.38	24.594
617.71	24.264
618.04	24.279
618.37	24.483
618.70	24.891
619.03	25.921
619.36	25.662
619.69	25.070
620.03	26.374
620.36	26.404
620.69	26.164
621.02	25.959
621.35	25.685
621.68	25.779
622.01	25.619
622.34	25.416
622.67	26.160
623.00	25.752
623.33	24.160
623.66	26.090
623.99	25.184
624.32	24.608
624.65	25.282
624.99	24.292
625.32	24.982
625.65	26.296
625.98	26.979
626.31	25.972
626.64	26.367
626.97	27.598
627.30	26.933
627.63	26.743
627.96	27.082
628.29	27.647
628.62	26.807
628.95	27.925
629.28	26.825
629.61	27.681
629.94	26.476
630.26	25.929
630.59	27.169
