SpectraSuite Data File
++++++++++++++++++++++++++++++++++++
Date: Wed May 13 19:52:32 PDT 2015
User: schluterlab
Dark Spectrum Present: Yes
Reference Spectrum Present: Yes
Number of Sampled Component Spectra: 1
Spectrometers: USB2E3373
Integration Time (usec): 3000 (USB2E3373)
Spectra Averaged: 3 (USB2E3373)
Boxcar Smoothing: 0 (USB2E3373)
Correct for Electrical Dark: No (USB2E3373)
Strobe/Lamp Enabled: No (USB2E3373)
Correct for Detector Non-linearity: No (USB2E3373)
Correct for Stray Light: No (USB2E3373)
Number of Pixels in Processed Spectrum: 2048
>>>>>Begin Processed Spectral Data<<<<<
178.53	0.000
178.91	-1400.000
179.29	-1300.000
179.67	-266.667
180.04	-1425.000
180.42	2600.000
180.80	1140.000
181.18	-1050.000
181.56	957.143
181.94	0.000
182.31	-657.143
182.69	1800.000
183.07	-625.000
183.45	-611.111
183.83	545.455
184.20	-450.000
184.58	2300.000
184.96	6300.000
185.34	-1060.000
185.72	-537.500
186.09	-2450.000
186.47	2750.000
186.85	2750.000
187.23	5800.000
187.61	-1633.333
187.98	1425.000
188.36	590.909
188.74	527.273
189.12	-900.000
189.49	660.000
189.87	-5600.000
190.25	-1125.000
190.63	450.000
191.00	492.308
191.38	966.667
191.76	-1200.000
192.14	1575.000
192.51	762.500
192.89	1133.333
193.27	687.500
193.65	-1125.000
194.02	530.000
194.40	1140.000
194.78	510.000
195.15	600.000
195.53	690.000
195.91	-2300.000
196.29	387.500
196.66	310.526
197.04	-390.000
197.42	0.000
197.79	680.000
198.17	-5700.000
198.55	700.000
198.92	787.500
199.30	880.000
199.68	0.000
200.05	366.667
200.43	828.571
200.81	3800.000
201.18	1533.333
201.56	-1766.667
201.94	533.333
202.31	722.222
202.69	508.333
203.07	570.000
203.44	0.000
203.82	1300.000
204.19	985.714
204.57	428.571
204.95	750.000
205.32	1733.333
205.70	509.091
206.08	357.143
206.45	3500.000
206.83	431.250
207.20	900.000
207.58	840.000
207.96	300.000
208.33	725.000
208.71	-750.000
209.08	857.143
209.46	644.444
209.84	490.909
210.21	-1766.667
210.59	1375.000
210.96	-487.500
211.34	2250.000
211.71	530.000
212.09	850.000
212.46	0.000
212.84	1866.667
213.22	1150.000
213.59	-4500.000
213.97	900.000
214.34	857.143
214.72	654.545
215.09	1140.000
215.47	-2350.000
215.84	-2650.000
216.22	1566.667
216.59	421.429
216.97	1525.000
217.34	490.909
217.72	-866.667
218.09	0.000
218.47	-6100.000
218.84	733.333
219.22	771.429
219.59	1433.333
219.97	-714.286
220.34	1240.000
220.72	-1666.667
221.09	371.429
221.47	1750.000
221.84	-933.333
222.22	0.000
222.59	1650.000
222.97	-2450.000
223.34	1080.000
223.72	484.615
224.09	1040.000
224.46	2200.000
224.84	-5100.000
225.21	-980.000
225.59	-5000.000
225.96	670.000
226.34	315.000
226.71	3150.000
227.08	750.000
227.46	620.000
227.83	-1200.000
228.21	-2800.000
228.58	644.444
228.95	-1900.000
229.33	-2600.000
229.70	1833.333
230.08	985.714
230.45	-880.000
230.82	491.667
231.20	866.667
231.57	828.571
231.95	466.667
232.32	259.091
232.69	372.727
233.07	742.857
233.44	376.923
233.81	-1700.000
234.19	336.842
234.56	416.667
234.93	441.667
235.31	463.636
235.68	353.846
236.05	335.714
236.43	187.879
236.80	221.053
237.17	4000.000
237.55	252.381
237.92	182.143
238.29	214.286
238.67	183.871
239.04	165.517
239.41	155.556
239.79	121.739
240.16	116.667
240.53	109.091
240.91	103.922
241.28	108.000
241.65	102.000
242.02	86.957
242.40	91.935
242.77	80.000
243.14	62.366
243.51	74.157
243.89	68.235
244.26	65.556
244.63	52.688
245.00	58.511
245.38	51.485
245.75	56.075
246.12	48.624
246.49	56.934
246.87	52.800
247.24	53.846
247.61	46.429
247.98	37.908
248.36	33.784
248.73	37.580
249.10	38.217
249.47	35.593
249.84	38.503
250.22	31.016
250.59	37.278
250.96	37.879
251.33	30.806
251.70	38.119
252.08	29.048
252.45	27.803
252.82	26.957
253.19	29.362
253.56	29.412
253.94	24.896
254.31	30.078
254.68	30.000
255.05	27.306
255.42	30.488
255.79	25.735
256.16	24.910
256.54	22.615
256.91	22.776
257.28	22.302
257.65	21.122
258.02	23.292
258.39	28.391
258.76	20.067
259.14	24.405
259.51	21.884
259.88	18.012
260.25	20.544
260.62	21.098
260.99	22.981
261.36	21.321
261.73	20.057
262.10	19.767
262.47	18.873
262.85	20.613
263.22	16.809
263.59	23.077
263.96	20.055
264.33	19.321
264.70	19.474
265.07	18.670
265.44	19.697
265.81	16.058
266.18	18.844
266.55	18.780
266.92	19.165
267.29	14.815
267.66	15.826
268.03	17.727
268.40	15.654
268.77	13.842
269.14	18.243
269.51	19.865
269.88	17.716
270.25	15.576
270.62	14.831
270.99	19.570
271.36	17.382
271.73	16.589
272.10	16.304
272.47	19.570
272.84	16.234
273.21	14.465
273.58	15.939
273.95	11.950
274.32	14.876
274.69	16.060
275.06	15.354
275.43	15.745
275.80	15.631
276.17	13.849
276.54	16.632
276.91	15.613
277.28	14.062
277.65	15.280
278.02	13.872
278.39	14.062
278.76	16.182
279.13	15.660
279.50	14.898
279.87	16.534
280.23	15.569
280.60	15.474
280.97	13.309
281.34	15.044
281.71	14.182
282.08	14.203
282.45	13.455
282.82	15.808
283.19	11.586
283.56	14.912
283.92	14.213
284.29	13.404
284.66	14.156
285.03	12.116
285.40	13.908
285.77	13.468
286.14	13.126
286.51	13.167
286.87	13.162
287.24	14.332
287.61	14.767
287.98	14.610
288.35	12.995
288.72	14.174
289.08	12.207
289.45	12.026
289.82	12.033
290.19	12.402
290.56	11.485
290.93	11.782
291.29	11.350
291.66	11.357
292.03	14.826
292.40	14.684
292.77	11.391
293.13	11.194
293.50	11.808
293.87	13.185
294.24	11.704
294.60	12.373
294.97	11.337
295.34	12.271
295.71	13.210
296.08	10.541
296.44	10.316
296.81	9.643
297.18	11.789
297.55	9.367
297.91	10.554
298.28	11.914
298.65	10.705
299.02	10.935
299.38	11.155
299.75	9.569
300.12	9.579
300.48	10.875
300.85	10.974
301.22	10.955
301.59	10.480
301.95	10.076
302.32	9.756
302.69	10.633
303.05	11.394
303.42	8.642
303.79	10.985
304.15	8.159
304.52	9.502
304.89	9.292
305.25	10.209
305.62	10.193
305.99	9.445
306.35	9.284
306.72	10.987
307.09	11.210
307.45	10.923
307.82	8.817
308.19	9.603
308.55	10.787
308.92	8.485
309.29	9.187
309.65	9.544
310.02	10.782
310.38	10.645
310.75	8.025
311.12	10.133
311.48	9.091
311.85	9.958
312.22	10.198
312.58	9.875
312.95	10.348
313.31	8.835
313.68	9.979
314.05	11.341
314.41	11.357
314.78	9.768
315.14	8.838
315.51	8.754
315.87	9.505
316.24	9.732
316.61	8.772
316.97	9.002
317.34	7.828
317.70	9.560
318.07	9.143
318.43	10.078
318.80	9.466
319.16	11.394
319.53	8.630
319.89	9.048
320.26	10.200
320.62	9.921
320.99	9.091
321.35	9.192
321.72	10.370
322.08	9.576
322.45	10.249
322.81	9.012
323.18	10.405
323.54	9.276
323.91	9.434
324.27	8.891
324.64	8.015
325.00	9.017
325.37	9.463
325.73	9.605
326.10	8.650
326.46	8.781
326.83	10.009
327.19	9.394
327.56	8.275
327.92	9.624
328.29	9.583
328.65	10.037
329.01	8.755
329.38	9.158
329.74	9.049
330.11	9.048
330.47	9.826
330.84	9.743
331.20	9.016
331.56	10.000
331.93	8.519
332.29	9.849
332.66	10.177
333.02	9.506
333.38	9.666
333.75	9.180
334.11	8.897
334.48	9.672
334.84	9.559
335.20	9.000
335.57	8.341
335.93	8.304
336.29	8.791
336.66	9.919
337.02	7.783
337.38	9.074
337.75	8.021
338.11	9.400
338.47	7.919
338.84	8.983
339.20	8.899
339.56	10.584
339.93	7.818
340.29	9.149
340.65	8.913
341.02	9.686
341.38	8.986
341.74	7.982
342.11	8.908
342.47	9.604
342.83	9.418
343.20	8.918
343.56	8.425
343.92	8.860
344.28	7.653
344.65	9.372
345.01	8.165
345.37	7.890
345.73	8.883
346.10	8.525
346.46	9.153
346.82	8.814
347.19	9.023
347.55	8.292
347.91	8.495
348.27	9.778
348.63	8.612
349.00	9.142
349.36	8.128
349.72	7.779
350.08	8.752
350.45	8.137
350.81	8.773
351.17	9.157
351.53	7.862
351.89	7.838
352.26	8.603
352.62	9.062
352.98	8.671
353.34	8.628
353.70	7.938
354.07	8.548
354.43	8.016
354.79	7.884
355.15	8.460
355.51	9.432
355.87	8.571
356.24	8.225
356.60	6.576
356.96	8.447
357.32	7.850
357.68	9.134
358.04	8.393
358.40	7.522
358.77	8.216
359.13	6.867
359.49	7.765
359.85	6.667
360.21	7.895
360.57	8.872
360.93	7.615
361.29	7.861
361.66	7.198
362.02	8.657
362.38	8.365
362.74	7.440
363.10	6.958
363.46	7.557
363.82	7.332
364.18	7.930
364.54	8.247
364.90	8.003
365.26	7.500
365.62	7.524
365.98	7.524
366.35	7.163
366.71	8.243
367.07	8.012
367.43	7.475
367.79	7.994
368.15	8.118
368.51	7.340
368.87	7.780
369.23	6.584
369.59	8.689
369.95	6.691
370.31	7.692
370.67	8.116
371.03	7.940
371.39	7.872
371.75	7.500
372.11	7.255
372.47	8.138
372.83	8.213
373.19	7.659
373.55	6.948
373.91	8.616
374.27	6.873
374.63	7.418
374.99	7.062
375.35	7.258
375.71	7.265
376.07	7.750
376.42	7.290
376.78	8.482
377.14	6.920
377.50	7.020
377.86	6.715
378.22	7.522
378.58	5.827
378.94	6.600
379.30	6.807
379.66	6.853
380.02	6.880
380.38	6.861
380.74	6.903
381.09	7.152
381.45	7.068
381.81	7.678
382.17	6.943
382.53	6.541
382.89	7.346
383.25	6.442
383.61	6.815
383.97	6.629
384.32	6.987
384.68	6.568
385.04	6.331
385.40	6.749
385.76	6.941
386.12	6.801
386.48	7.048
386.83	6.543
387.19	7.978
387.55	6.617
387.91	6.892
388.27	7.051
388.62	7.191
388.98	6.757
389.34	7.384
389.70	7.357
390.06	7.224
390.42	7.134
390.77	7.188
391.13	6.445
391.49	7.360
391.85	6.556
392.20	5.804
392.56	6.629
392.92	6.298
393.28	6.095
393.64	6.535
393.99	7.025
394.35	7.072
394.71	7.026
395.07	6.542
395.42	6.057
395.78	7.188
396.14	6.828
396.50	7.206
396.85	7.247
397.21	6.165
397.57	6.262
397.92	6.310
398.28	5.157
398.64	6.631
399.00	5.316
399.35	5.753
399.71	6.076
400.07	6.328
400.42	7.055
400.78	6.936
401.14	6.463
401.49	6.090
401.85	6.171
402.21	7.126
402.57	5.984
402.92	6.116
403.28	7.245
403.63	6.498
403.99	6.752
404.35	6.788
404.70	5.516
405.06	6.174
405.42	6.987
405.77	6.057
406.13	6.151
406.49	6.564
406.84	6.438
407.20	5.024
407.55	6.126
407.91	6.733
408.27	6.063
408.62	6.020
408.98	6.556
409.34	6.888
409.69	6.129
410.05	6.568
410.40	6.422
410.76	6.033
411.11	6.574
411.47	6.390
411.83	6.353
412.18	5.628
412.54	5.915
412.89	6.446
413.25	6.553
413.60	6.918
413.96	6.557
414.31	6.136
414.67	6.844
415.03	6.358
415.38	6.443
415.74	6.752
416.09	6.466
416.45	5.689
416.80	6.477
417.16	6.434
417.51	6.636
417.87	6.358
418.22	7.508
418.58	6.908
418.93	6.327
419.29	6.238
419.64	6.801
420.00	6.463
420.35	7.188
420.71	6.814
421.06	6.683
421.42	6.667
421.77	6.783
422.12	6.064
422.48	5.181
422.83	6.115
423.19	6.796
423.54	6.094
423.90	6.551
424.25	6.086
424.61	6.488
424.96	6.647
425.31	6.589
425.67	6.404
426.02	5.829
426.38	6.288
426.73	6.437
427.09	6.261
427.44	7.016
427.79	5.750
428.15	7.083
428.50	7.022
428.85	7.151
429.21	5.853
429.56	6.013
429.92	6.593
430.27	6.107
430.62	6.093
430.98	5.968
431.33	5.928
431.68	6.073
432.04	6.177
432.39	6.168
432.74	6.583
433.10	6.395
433.45	6.822
433.80	6.208
434.16	6.090
434.51	6.421
434.86	6.556
435.22	6.003
435.57	6.383
435.92	5.383
436.28	6.584
436.63	7.395
436.98	6.583
437.34	6.977
437.69	6.476
438.04	6.464
438.39	7.104
438.75	6.101
439.10	7.039
439.45	6.789
439.81	6.042
440.16	6.324
440.51	6.444
440.86	6.601
441.22	5.562
441.57	6.423
441.92	6.653
442.27	6.889
442.63	6.108
442.98	6.423
443.33	6.630
443.68	6.866
444.03	6.296
444.39	5.842
444.74	6.223
445.09	7.170
445.44	7.053
445.79	6.482
446.15	7.464
446.50	5.977
446.85	6.526
447.20	5.813
447.55	5.807
447.91	6.895
448.26	6.066
448.61	6.218
448.96	6.921
449.31	6.749
449.66	6.866
450.02	5.905
450.37	5.896
450.72	6.430
451.07	6.520
451.42	5.836
451.77	7.634
452.12	6.755
452.47	6.965
452.83	6.760
453.18	7.274
453.53	7.112
453.88	6.793
454.23	6.515
454.58	6.723
454.93	7.756
455.28	6.110
455.63	7.100
455.98	8.036
456.34	6.721
456.69	7.264
457.04	7.554
457.39	7.189
457.74	6.732
458.09	7.073
458.44	6.271
458.79	5.694
459.14	7.223
459.49	7.005
459.84	6.925
460.19	6.836
460.54	7.118
460.89	6.637
461.24	6.861
461.59	7.902
461.94	6.782
462.29	7.181
462.64	6.956
462.99	6.766
463.34	7.133
463.69	6.942
464.04	7.014
464.39	7.826
464.74	6.892
465.09	6.152
465.44	6.870
465.79	6.544
466.14	7.170
466.49	6.785
466.84	7.531
467.19	7.182
467.54	7.438
467.89	6.843
468.24	7.621
468.59	7.570
468.94	7.025
469.29	7.005
469.64	7.831
469.99	7.104
470.34	7.662
470.68	7.471
471.03	7.007
471.38	7.158
471.73	7.795
472.08	8.092
472.43	7.224
472.78	6.978
473.13	7.445
473.48	7.428
473.83	7.317
474.17	6.970
474.52	7.196
474.87	7.414
475.22	7.661
475.57	6.341
475.92	6.001
476.27	6.539
476.61	6.895
476.96	6.707
477.31	6.489
477.66	6.510
478.01	6.377
478.36	6.399
478.70	6.646
479.05	6.390
479.40	6.704
479.75	6.660
480.10	6.113
480.45	6.188
480.79	6.402
481.14	6.409
481.49	6.455
481.84	6.401
482.19	6.361
482.53	6.835
482.88	6.515
483.23	6.776
483.58	6.733
483.92	6.795
484.27	5.577
484.62	6.509
484.97	5.597
485.31	5.959
485.66	4.990
486.01	4.366
486.36	4.302
486.70	4.557
487.05	4.894
487.40	5.133
487.75	5.531
488.09	5.399
488.44	5.470
488.79	6.076
489.13	5.959
489.48	5.750
489.83	6.129
490.17	6.664
490.52	6.510
490.87	6.332
491.22	5.912
491.56	6.105
491.91	6.468
492.26	5.972
492.60	6.406
492.95	6.501
493.30	6.121
493.64	6.673
493.99	6.685
494.34	6.568
494.68	7.234
495.03	7.425
495.37	6.747
495.72	6.725
496.07	6.868
496.41	6.195
496.76	6.596
497.11	5.988
497.45	6.288
497.80	6.478
498.14	5.942
498.49	6.537
498.84	6.472
499.18	6.571
499.53	6.600
499.87	6.477
500.22	6.500
500.56	6.699
500.91	6.731
501.26	6.164
501.60	7.167
501.95	6.462
502.29	5.951
502.64	5.866
502.98	6.452
503.33	6.536
503.67	6.914
504.02	6.548
504.36	6.598
504.71	6.253
505.06	6.940
505.40	6.806
505.75	6.220
506.09	6.997
506.44	7.005
506.78	6.722
507.13	6.916
507.47	7.222
507.82	6.636
508.16	6.940
508.51	6.646
508.85	7.200
509.19	6.327
509.54	6.480
509.88	7.316
510.23	6.735
510.57	7.534
510.92	6.732
511.26	7.400
511.61	7.158
511.95	7.411
512.30	6.522
512.64	6.609
512.98	7.288
513.33	7.869
513.67	6.670
514.02	6.981
514.36	7.537
514.70	7.526
515.05	7.250
515.39	7.740
515.74	6.700
516.08	8.105
516.42	7.381
516.77	7.860
517.11	7.214
517.46	7.788
517.80	8.130
518.14	6.717
518.49	7.993
518.83	8.352
519.17	7.448
519.52	7.810
519.86	8.329
520.20	7.861
520.55	8.139
520.89	7.482
521.23	8.685
521.58	7.923
521.92	8.389
522.26	7.505
522.61	7.850
522.95	7.060
523.29	7.851
523.64	8.110
523.98	8.256
524.32	7.841
524.66	8.839
525.01	8.272
525.35	8.302
525.69	7.697
526.04	7.664
526.38	7.749
526.72	8.834
527.06	8.223
527.41	6.993
527.75	8.103
528.09	7.964
528.43	8.222
528.78	8.482
529.12	7.818
529.46	7.593
529.80	8.478
530.15	8.411
530.49	8.185
530.83	8.101
531.17	8.616
531.51	9.209
531.86	8.645
532.20	8.931
532.54	9.097
532.88	8.665
533.22	8.370
533.57	8.642
533.91	8.730
534.25	7.776
534.59	8.054
534.93	7.674
535.27	8.509
535.62	7.631
535.96	8.286
536.30	7.756
536.64	8.886
536.98	8.162
537.32	8.427
537.66	8.667
538.01	8.756
538.35	9.050
538.69	8.743
539.03	8.512
539.37	8.179
539.71	7.388
540.05	8.366
540.39	8.439
540.73	8.215
541.07	9.085
541.42	8.611
541.76	8.452
542.10	8.797
542.44	7.815
542.78	8.630
543.12	7.869
543.46	8.262
543.80	8.588
544.14	7.959
544.48	8.000
544.82	8.467
545.16	8.393
545.50	8.483
545.84	8.468
546.18	8.418
546.52	8.259
546.86	8.316
547.20	8.833
547.54	8.751
547.88	9.056
548.22	8.593
548.56	7.987
548.90	8.003
549.24	7.811
549.58	9.141
549.92	8.654
550.26	8.310
550.60	8.022
550.94	8.592
551.28	8.339
551.62	8.555
551.96	9.544
552.30	8.669
552.64	8.046
552.98	8.881
553.32	9.103
553.66	9.407
554.00	9.266
554.34	8.972
554.68	9.514
555.02	8.815
555.36	9.116
555.69	9.202
556.03	9.017
556.37	9.004
556.71	7.913
557.05	8.824
557.39	8.957
557.73	9.033
558.07	8.412
558.41	8.394
558.75	8.964
559.08	10.067
559.42	8.692
559.76	9.265
560.10	9.350
560.44	9.015
560.78	7.851
561.12	8.707
561.45	8.931
561.79	8.965
562.13	8.853
562.47	8.607
562.81	9.275
563.15	8.963
563.48	8.820
563.82	8.089
564.16	9.418
564.50	7.422
564.84	8.660
565.17	8.366
565.51	7.923
565.85	8.376
566.19	7.952
566.52	8.550
566.86	8.017
567.20	8.373
567.54	7.877
567.88	7.876
568.21	7.937
568.55	7.937
568.89	7.053
569.23	7.130
569.56	6.923
569.90	6.981
570.24	6.817
570.57	6.358
570.91	6.044
571.25	6.022
571.59	6.510
571.92	5.818
572.26	6.384
572.60	6.517
572.93	5.907
573.27	6.448
573.61	6.198
573.95	6.176
574.28	5.628
574.62	5.709
574.96	5.663
575.29	5.674
575.63	5.691
575.97	5.754
576.30	6.107
576.64	5.812
576.98	5.980
577.31	5.707
577.65	5.668
577.98	5.489
578.32	5.600
578.66	5.535
578.99	5.706
579.33	5.422
579.67	5.595
580.00	5.682
580.34	6.265
580.67	5.412
581.01	6.004
581.35	5.870
581.68	5.635
582.02	5.020
582.35	5.118
582.69	5.458
583.02	5.608
583.36	5.580
583.70	6.119
584.03	5.904
584.37	6.798
584.70	5.930
585.04	6.311
585.37	6.058
585.71	6.133
586.04	5.823
586.38	6.270
586.72	6.241
587.05	6.303
587.39	6.069
587.72	6.210
588.06	6.190
588.39	6.283
588.73	6.571
589.06	6.326
589.40	6.667
589.73	6.758
590.07	6.797
590.40	6.723
590.73	6.792
591.07	7.204
591.40	7.170
591.74	7.792
592.07	7.330
592.41	7.152
592.74	6.779
593.08	6.662
593.41	6.770
593.75	6.777
594.08	6.973
594.41	6.858
594.75	6.654
595.08	6.586
595.42	7.110
595.75	6.481
596.09	6.572
596.42	7.623
596.75	7.387
597.09	7.619
597.42	7.083
597.75	7.417
598.09	7.609
598.42	7.002
598.76	7.134
599.09	6.956
599.42	6.732
599.76	6.918
600.09	6.485
600.42	6.866
600.76	7.000
601.09	6.849
601.42	7.230
601.76	7.249
602.09	7.036
602.42	7.365
602.76	7.336
603.09	7.081
603.42	7.185
603.76	7.088
604.09	7.173
604.42	7.053
604.76	7.760
605.09	7.558
605.42	7.696
605.75	6.954
606.09	6.954
606.42	6.825
606.75	7.092
607.09	7.367
607.42	7.060
607.75	6.414
608.08	7.382
608.42	7.978
608.75	7.259
609.08	8.002
609.41	7.139
609.75	7.718
610.08	7.917
610.41	6.750
610.74	7.048
611.07	7.312
611.41	7.655
611.74	8.245
612.07	7.712
612.40	8.290
612.73	7.474
613.07	8.728
613.40	8.004
613.73	7.132
614.06	7.796
614.39	8.180
614.72	8.421
615.06	8.246
615.39	7.166
615.72	7.669
616.05	8.293
616.38	7.449
616.71	8.907
617.05	8.422
617.38	8.839
617.71	8.108
618.04	8.353
618.37	8.338
618.70	8.339
619.03	9.211
619.36	8.079
619.69	8.944
620.03	9.615
620.36	8.222
620.69	9.521
621.02	9.218
621.35	9.475
621.68	8.956
622.01	9.133
622.34	9.682
622.67	8.289
623.00	9.538
623.33	8.363
623.66	9.149
623.99	8.321
624.32	9.486
624.65	8.333
624.99	7.649
625.32	8.689
625.65	9.016
625.98	9.301
626.31	10.187
626.64	10.204
626.97	9.559
627.30	9.061
627.63	10.911
627.96	9.336
628.29	9.799
628.62	11.528
628.95	10.566
629.28	11.131
629.61	10.816
629.94	10.286
630.26	8.484
630.59	10.296
630.92	10.249
631.25	10.267
631.58	10.210
631.91	10.446
632.24	10.338
632.57	11.228
632.90	11.404
633.23	10.850
633.56	11.186
633.89	13.137
634.22	12.826
634.55	12.308
634.88	9.820
635.20	12.425
635.53	12.169
635.86	11.634
636.19	11.059
636.52	11.995
636.85	11.569
637.18	11.175
637.51	12.766
637.83	9.618
638.16	11.893
638.49	12.091
638.82	12.263
639.15	11.750
639.48	13.217
639.81	12.198
640.13	12.760
640.46	13.423
640.79	14.003
641.12	11.554
641.45	13.128
641.77	13.108
642.10	12.573
642.43	13.964
642.76	12.848
643.09	12.883
643.41	13.354
643.74	15.741
644.07	12.500
644.40	14.877
644.73	14.961
645.05	14.897
645.38	13.270
645.71	14.171
646.04	14.452
646.36	17.028
646.69	13.211
647.02	13.435
647.35	15.292
647.67	15.575
648.00	13.984
648.33	14.686
648.66	13.636
648.98	12.444
649.31	11.809
649.64	12.556
649.96	13.711
650.29	13.902
650.62	13.754
