SpectraSuite Data File
++++++++++++++++++++++++++++++++++++
Date: Wed May 13 19:43:30 PDT 2015
User: schluterlab
Dark Spectrum Present: Yes
Reference Spectrum Present: Yes
Number of Sampled Component Spectra: 1
Spectrometers: USB2E3373
Integration Time (usec): 3000 (USB2E3373)
Spectra Averaged: 3 (USB2E3373)
Boxcar Smoothing: 0 (USB2E3373)
Correct for Electrical Dark: No (USB2E3373)
Strobe/Lamp Enabled: No (USB2E3373)
Correct for Detector Non-linearity: No (USB2E3373)
Correct for Stray Light: No (USB2E3373)
Number of Pixels in Processed Spectrum: 2048
>>>>>Begin Processed Spectral Data<<<<<
178.53	0.000
178.91	-1250.000
179.29	-1600.000
179.67	-233.333
180.04	-1150.000
180.42	2300.000
180.80	1140.000
181.18	-1250.000
181.56	728.571
181.94	0.000
182.31	-700.000
182.69	1500.000
183.07	-637.500
183.45	-522.222
183.83	618.182
184.20	-420.000
184.58	2250.000
184.96	6200.000
185.34	-920.000
185.72	-625.000
186.09	-2650.000
186.47	3050.000
186.85	2900.000
187.23	4800.000
187.61	-1666.667
187.98	1275.000
188.36	636.364
188.74	545.455
189.12	-940.000
189.49	530.000
189.87	-4100.000
190.25	-1500.000
190.63	392.857
191.00	461.538
191.38	733.333
191.76	-1175.000
192.14	1325.000
192.51	700.000
192.89	1016.667
193.27	687.500
193.65	-1275.000
194.02	490.000
194.40	1000.000
194.78	600.000
195.15	541.667
195.53	600.000
195.91	-2150.000
196.29	350.000
196.66	268.421
197.04	-370.000
197.42	0.000
197.79	630.000
198.17	-5600.000
198.55	714.286
198.92	825.000
199.30	960.000
199.68	0.000
200.05	300.000
200.43	1028.571
200.81	5300.000
201.18	1533.333
201.56	-1666.667
201.94	600.000
202.31	644.444
202.69	366.667
203.07	550.000
203.44	0.000
203.82	1050.000
204.19	728.571
204.57	428.571
204.95	675.000
205.32	1500.000
205.70	554.545
206.08	357.143
206.45	2800.000
206.83	437.500
207.20	883.333
207.58	760.000
207.96	322.222
208.33	850.000
208.71	-733.333
209.08	857.143
209.46	588.889
209.84	490.909
210.21	-1433.333
210.59	1225.000
210.96	-550.000
211.34	2700.000
211.71	540.000
212.09	850.000
212.46	0.000
212.84	1800.000
213.22	1450.000
213.59	-5300.000
213.97	850.000
214.34	628.571
214.72	645.455
215.09	1000.000
215.47	-2050.000
215.84	-1900.000
216.22	1700.000
216.59	357.143
216.97	1200.000
217.34	436.364
217.72	-816.667
218.09	0.000
218.47	-4300.000
218.84	666.667
219.22	785.714
219.59	1566.667
219.97	-785.714
220.34	1120.000
220.72	-1466.667
221.09	442.857
221.47	1400.000
221.84	-916.667
222.22	0.000
222.59	1300.000
222.97	-2400.000
223.34	1140.000
223.72	400.000
224.09	1080.000
224.46	2650.000
224.84	-4900.000
225.21	-1060.000
225.59	-5100.000
225.96	630.000
226.34	290.000
226.71	3000.000
227.08	762.500
227.46	470.000
227.83	-1050.000
228.21	-2250.000
228.58	522.222
228.95	-2700.000
229.33	-2500.000
229.70	1533.333
230.08	885.714
230.45	-1020.000
230.82	425.000
231.20	966.667
231.57	685.714
231.95	508.333
232.32	272.727
232.69	381.818
233.07	700.000
233.44	415.385
233.81	-1600.000
234.19	321.053
234.56	483.333
234.93	391.667
235.31	509.091
235.68	407.692
236.05	307.143
236.43	200.000
236.80	210.526
237.17	4100.000
237.55	228.571
237.92	242.857
238.29	252.381
238.67	145.161
239.04	186.207
239.41	197.222
239.79	106.522
240.16	154.762
240.53	138.636
240.91	115.686
241.28	124.000
241.65	116.000
242.02	94.203
242.40	85.484
242.77	103.333
243.14	83.871
243.51	85.393
243.89	80.000
244.26	78.889
244.63	77.419
245.00	72.340
245.38	73.267
245.75	63.551
246.12	63.303
246.49	67.883
246.87	70.400
247.24	61.538
247.61	53.571
247.98	54.248
248.36	52.027
248.73	59.236
249.10	52.866
249.47	50.847
249.84	47.594
250.22	45.989
250.59	53.846
250.96	49.495
251.33	49.289
251.70	49.010
252.08	47.143
252.45	43.946
252.82	48.261
253.19	47.234
253.56	42.745
253.94	45.228
254.31	42.187
254.68	43.846
255.05	43.173
255.42	41.463
255.79	40.074
256.16	43.682
256.54	38.516
256.91	44.128
257.28	35.252
257.65	41.584
258.02	39.441
258.39	35.647
258.76	36.120
259.14	36.310
259.51	37.994
259.88	35.093
260.25	42.900
260.62	36.127
260.99	38.820
261.36	36.637
261.73	37.536
262.10	33.721
262.47	38.873
262.85	36.769
263.22	36.182
263.59	39.316
263.96	33.791
264.33	33.159
264.70	36.053
265.07	35.294
265.44	36.616
265.81	31.873
266.18	35.176
266.55	36.341
266.92	34.152
267.29	36.111
267.66	34.404
268.03	34.545
268.40	32.710
268.77	31.981
269.14	31.982
269.51	36.343
269.88	34.266
270.25	33.634
270.62	34.157
270.99	36.129
271.36	33.047
271.73	31.542
272.10	34.783
272.47	35.484
272.84	34.199
273.21	32.495
273.58	29.258
273.95	33.543
274.32	30.579
274.69	33.833
275.06	30.709
275.43	34.255
275.80	33.467
276.17	34.216
276.54	33.680
276.91	30.632
277.28	31.641
277.65	29.014
278.02	30.228
278.39	32.812
278.76	29.818
279.13	31.509
279.50	29.795
279.87	29.880
280.23	31.138
280.60	32.689
280.97	29.390
281.34	31.150
281.71	31.818
282.08	30.134
282.45	29.636
282.82	31.972
283.19	28.699
283.56	28.772
283.92	30.118
284.29	29.806
284.66	29.583
285.03	27.667
285.40	29.401
285.77	29.966
286.14	28.325
286.51	30.333
286.87	28.547
287.24	28.664
287.61	28.732
287.98	28.247
288.35	27.100
288.72	26.947
289.08	26.917
289.45	27.348
289.82	26.667
290.19	25.275
290.56	25.574
290.93	25.982
291.29	25.460
291.66	26.696
292.03	28.052
292.40	27.313
292.77	25.888
293.13	25.522
293.50	25.510
293.87	25.481
294.24	24.000
294.60	22.853
294.97	26.017
295.34	24.824
295.71	25.284
296.08	23.362
296.44	24.897
296.81	22.589
297.18	23.984
297.55	20.976
297.91	22.823
298.28	22.624
298.65	22.454
299.02	24.506
299.38	20.584
299.75	20.755
300.12	22.095
300.48	21.000
300.85	22.318
301.22	21.529
301.59	22.348
301.95	20.907
302.32	22.208
302.69	20.550
303.05	20.848
303.42	21.728
303.79	20.612
304.15	19.231
304.52	20.510
304.89	19.977
305.25	19.954
305.62	20.385
305.99	20.425
306.35	20.470
306.72	18.946
307.09	20.311
307.45	21.622
307.82	19.866
308.19	21.082
308.55	20.280
308.92	20.086
309.29	19.324
309.65	19.936
310.02	19.662
310.38	20.538
310.75	19.958
311.12	20.164
311.48	19.227
311.85	20.545
312.22	20.604
312.58	19.335
312.95	20.380
313.31	19.320
313.68	20.270
314.05	22.189
314.41	21.709
314.78	21.249
315.14	21.152
315.51	20.803
315.87	21.287
316.24	20.357
316.61	22.125
316.97	21.526
317.34	23.190
317.70	21.224
318.07	22.329
318.43	23.288
318.80	23.336
319.16	22.693
319.53	23.265
319.89	24.952
320.26	23.300
320.62	25.595
320.99	27.273
321.35	25.556
321.72	28.029
322.08	28.825
322.45	28.856
322.81	27.713
323.18	29.769
323.54	30.241
323.91	30.755
324.27	29.924
324.64	30.289
325.00	31.289
325.37	31.847
325.73	33.842
326.10	33.539
326.46	33.961
326.83	35.289
327.19	35.781
327.56	36.237
327.92	37.970
328.29	39.042
328.65	39.042
329.01	38.899
329.38	39.685
329.74	39.243
330.11	41.376
330.47	40.680
330.84	41.728
331.20	42.168
331.56	40.367
331.93	42.778
332.29	41.260
332.66	42.478
333.02	42.596
333.38	43.993
333.75	42.959
334.11	44.484
334.48	42.768
334.84	44.853
335.20	45.636
335.57	44.787
335.93	43.393
336.29	44.505
336.66	43.372
337.02	43.982
337.38	44.722
337.75	43.761
338.11	45.568
338.47	44.936
338.84	45.371
339.20	46.055
339.56	45.985
339.93	45.273
340.29	45.199
340.65	45.544
341.02	45.375
341.38	46.975
341.74	44.737
342.11	45.764
342.47	44.934
342.83	45.976
343.20	44.848
343.56	45.156
343.92	45.175
344.28	45.663
344.65	46.432
345.01	43.771
345.37	45.197
345.73	45.347
346.10	46.633
346.46	45.593
346.82	44.975
347.19	45.948
347.55	44.089
347.91	43.608
348.27	44.782
348.63	44.900
349.00	44.013
349.36	43.924
349.72	43.785
350.08	43.436
350.45	43.938
350.81	42.892
351.17	43.112
351.53	44.554
351.89	43.482
352.26	44.041
352.62	44.667
352.98	44.165
353.34	44.700
353.70	43.535
354.07	45.081
354.43	43.095
354.79	43.443
355.15	43.496
355.51	44.764
355.87	44.816
356.24	44.137
356.60	42.903
356.96	44.248
357.32	43.254
357.68	44.803
358.04	44.101
358.40	44.418
358.77	44.366
359.13	42.463
359.49	44.078
359.85	42.619
360.21	44.019
360.57	45.214
360.93	44.308
361.29	44.067
361.66	44.195
362.02	44.552
362.38	44.106
362.74	43.080
363.10	42.265
363.46	43.434
363.82	43.915
364.18	43.025
364.54	44.799
364.90	43.130
365.26	42.353
365.62	42.951
365.98	43.243
366.35	42.693
366.71	43.962
367.07	43.263
367.43	43.614
367.79	43.469
368.15	44.612
368.51	43.023
368.87	43.897
369.23	43.307
369.59	43.881
369.95	43.235
370.31	41.809
370.67	42.609
371.03	44.120
371.39	43.222
371.75	43.456
372.11	43.883
372.47	44.062
372.83	44.092
373.19	43.136
373.55	43.607
373.91	44.183
374.27	42.131
374.63	42.545
374.99	43.150
375.35	43.475
375.71	42.975
376.07	43.553
376.42	43.191
376.78	42.876
377.14	43.284
377.50	43.245
377.86	42.287
378.22	43.489
378.58	41.792
378.94	42.426
379.30	43.575
379.66	44.797
380.02	44.226
380.38	42.016
380.74	42.497
381.09	43.032
381.45	44.069
381.81	44.042
382.17	43.439
382.53	43.145
382.89	43.519
383.25	43.340
383.61	43.680
383.97	42.714
384.32	43.294
384.68	42.317
385.04	42.225
385.40	42.663
385.76	42.936
386.12	43.718
386.48	42.983
386.83	43.682
387.19	43.970
387.55	42.733
387.91	42.684
388.27	43.470
388.62	42.717
388.98	41.892
389.34	42.053
389.70	43.041
390.06	43.726
390.42	42.931
390.77	43.575
391.13	43.395
391.49	43.274
391.85	42.839
392.20	42.839
392.56	42.172
392.92	42.084
393.28	41.361
393.64	43.465
393.99	42.700
394.35	42.990
394.71	41.970
395.07	41.869
395.42	43.140
395.78	41.539
396.14	41.341
396.50	42.481
396.85	42.403
397.21	41.800
397.57	42.405
397.92	42.368
398.28	41.480
398.64	41.338
399.00	41.914
399.35	42.301
399.71	42.361
400.07	42.224
400.42	42.515
400.78	42.943
401.14	42.256
401.49	42.149
401.85	41.621
402.21	42.096
402.57	41.641
402.92	42.560
403.28	42.473
403.63	41.955
403.99	41.847
404.35	42.242
404.70	41.127
405.06	40.711
405.42	41.921
405.77	40.800
406.13	40.971
406.49	41.336
406.84	40.933
407.20	40.780
407.55	41.289
407.91	41.667
408.27	41.991
408.62	40.397
408.98	41.299
409.34	41.882
409.69	41.419
410.05	41.202
410.40	41.713
410.76	41.338
411.11	41.616
411.47	41.981
411.83	41.539
412.18	40.878
412.54	41.220
412.89	41.506
413.25	40.909
413.60	41.137
413.96	40.498
414.31	41.373
414.67	40.938
415.03	41.722
415.38	40.915
415.74	41.736
416.09	42.325
416.45	41.499
416.80	41.904
417.16	41.488
417.51	41.274
417.87	40.270
418.22	40.694
418.58	41.059
418.93	41.462
419.29	40.802
419.64	41.562
420.00	41.829
420.35	40.986
420.71	41.721
421.06	41.289
421.42	41.287
421.77	40.863
422.12	40.595
422.48	40.205
422.83	40.885
423.19	40.221
423.54	40.975
423.90	41.507
424.25	42.434
424.61	40.833
424.96	41.691
425.31	40.310
425.67	40.506
426.02	39.486
426.38	42.002
426.73	41.252
427.09	40.669
427.44	41.288
427.79	40.713
428.15	40.417
428.50	41.018
428.85	41.299
429.21	41.027
429.56	40.798
429.92	40.111
430.27	39.772
430.62	40.911
430.98	41.048
431.33	40.670
431.68	40.733
432.04	39.350
432.39	40.777
432.74	41.712
433.10	41.030
433.45	42.274
433.80	42.129
434.16	41.132
434.51	41.526
434.86	41.106
435.22	41.245
435.57	40.729
435.92	41.545
436.28	42.645
436.63	41.777
436.98	42.587
437.34	41.562
437.69	41.132
438.04	41.653
438.39	41.075
438.75	41.952
439.10	41.899
439.45	41.204
439.81	42.900
440.16	41.050
440.51	41.183
440.86	41.575
441.22	41.157
441.57	42.304
441.92	42.375
442.27	42.196
442.63	41.548
442.98	42.817
443.33	41.141
443.68	41.972
444.03	42.069
444.39	40.214
444.74	41.342
445.09	41.132
445.44	41.607
445.79	41.118
446.15	41.292
446.50	41.088
446.85	41.418
447.20	40.694
447.55	41.485
447.91	41.754
448.26	42.126
448.61	42.397
448.96	41.639
449.31	42.238
449.66	41.418
450.02	41.226
450.37	41.327
450.72	41.624
451.07	41.560
451.42	40.547
451.77	42.396
452.12	41.917
452.47	42.848
452.83	41.958
453.18	42.359
453.53	42.301
453.88	41.819
454.23	41.363
454.58	42.277
454.93	42.912
455.28	42.394
455.63	41.444
455.98	43.929
456.34	41.960
456.69	42.830
457.04	42.539
457.39	43.483
457.74	41.555
458.09	41.576
458.44	41.106
458.79	41.377
459.14	42.043
459.49	42.207
459.84	41.274
460.19	40.660
460.54	40.625
460.89	41.470
461.24	42.016
461.59	42.010
461.94	42.109
462.29	43.323
462.64	41.289
462.99	40.013
463.34	42.467
463.69	42.402
464.04	42.029
464.39	41.159
464.74	41.414
465.09	42.400
465.44	40.166
465.79	40.940
466.14	41.544
466.49	41.435
466.84	42.090
467.19	41.460
467.54	41.125
467.89	42.437
468.24	41.652
468.59	42.186
468.94	40.379
469.29	42.224
469.64	41.767
469.99	41.746
470.34	42.338
470.68	41.523
471.03	41.497
471.38	42.321
471.73	41.106
472.08	43.092
472.43	40.892
472.78	41.277
473.13	41.656
473.48	41.136
473.83	42.561
474.17	41.070
474.52	41.501
474.87	41.973
475.22	40.859
475.57	40.408
475.92	40.998
476.27	40.474
476.61	40.651
476.96	40.957
477.31	40.136
477.66	40.536
478.01	39.676
478.36	41.195
478.70	40.291
479.05	41.161
479.40	41.453
479.75	40.315
480.10	39.662
480.45	38.934
480.79	39.990
481.14	40.313
481.49	40.389
481.84	39.369
482.19	40.709
482.53	39.450
482.88	39.879
483.23	40.187
483.58	40.537
483.92	40.253
484.27	38.519
484.62	39.397
484.97	38.392
485.31	39.041
485.66	37.906
486.01	36.717
486.36	35.514
486.70	35.450
487.05	35.949
487.40	36.951
487.75	37.404
488.09	38.126
488.44	37.658
488.79	39.458
489.13	39.190
489.48	38.418
489.83	39.318
490.17	39.281
490.52	38.663
490.87	39.258
491.22	38.427
491.56	39.271
491.91	39.460
492.26	38.401
492.60	38.525
492.95	38.447
493.30	39.486
493.64	39.011
493.99	38.394
494.34	39.130
494.68	39.103
495.03	39.427
495.37	39.507
495.72	39.035
496.07	40.093
496.41	37.965
496.76	38.434
497.11	37.731
497.45	38.472
497.80	38.484
498.14	39.517
498.49	39.024
498.84	39.406
499.18	38.286
499.53	39.411
499.87	38.071
500.22	39.378
500.56	39.272
500.91	38.702
501.26	38.644
501.60	39.677
501.95	37.489
502.29	39.363
502.64	38.641
502.98	38.102
503.33	37.843
503.67	38.608
504.02	38.962
504.36	38.746
504.71	38.105
505.06	38.651
505.40	38.065
505.75	37.994
506.09	37.318
506.44	38.431
506.78	38.188
507.13	38.718
507.47	39.091
507.82	38.703
508.16	38.349
508.51	39.016
508.85	38.183
509.19	38.673
509.54	37.041
509.88	37.919
510.23	39.075
510.57	39.216
510.92	37.545
511.26	37.205
511.61	38.589
511.95	37.004
512.30	37.699
512.64	38.581
512.98	38.585
513.33	38.437
513.67	38.047
514.02	37.229
514.36	38.449
514.70	38.296
515.05	37.981
515.39	37.465
515.74	38.457
516.08	37.563
516.42	38.735
516.77	39.353
517.11	37.403
517.46	37.867
517.80	38.153
518.14	38.796
518.49	38.448
518.83	38.466
519.17	38.279
519.52	37.804
519.86	37.593
520.20	39.133
520.55	38.300
520.89	38.504
521.23	38.963
521.58	39.016
521.92	38.334
522.26	38.011
522.61	38.505
522.95	37.753
523.29	38.649
523.64	38.598
523.98	38.879
524.32	38.963
524.66	37.402
525.01	37.377
525.35	38.166
525.69	37.993
526.04	38.380
526.38	38.255
526.72	36.135
527.06	38.544
527.41	36.819
527.75	38.521
528.09	38.150
528.43	37.476
528.78	38.291
529.12	36.848
529.46	38.028
529.80	37.129
530.15	36.698
530.49	36.738
530.83	36.962
531.17	39.426
531.51	38.781
531.86	38.323
532.20	38.070
532.54	37.348
532.88	38.254
533.22	36.602
533.57	37.099
533.91	36.303
534.25	36.270
534.59	35.998
534.93	36.347
535.27	35.788
535.62	37.607
535.96	37.476
536.30	37.254
536.64	37.862
536.98	37.160
537.32	37.327
537.66	36.733
538.01	37.854
538.35	36.134
538.69	37.460
539.03	36.192
539.37	35.911
539.71	35.515
540.05	36.209
540.39	36.811
540.73	35.511
541.07	37.184
541.42	37.443
541.76	36.000
542.10	36.223
542.44	37.351
542.78	37.813
543.12	35.701
543.46	35.672
543.80	36.174
544.14	36.136
544.48	36.762
544.82	35.087
545.16	36.825
545.50	36.504
545.84	36.828
546.18	36.498
546.52	38.059
546.86	37.526
547.20	37.424
547.54	35.738
547.88	36.097
548.22	36.052
548.56	35.220
548.90	34.571
549.24	35.017
549.58	35.334
549.92	36.813
550.26	37.287
550.60	36.445
550.94	35.282
551.28	35.040
551.62	35.370
551.96	36.421
552.30	35.427
552.64	35.970
552.98	36.203
553.32	35.131
553.66	36.333
554.00	35.553
554.34	35.749
554.68	36.910
555.02	35.472
555.36	34.516
555.69	34.235
556.03	35.195
556.37	35.471
556.71	35.130
557.05	35.434
557.39	34.850
557.73	35.498
558.07	36.331
558.41	35.601
558.75	35.636
559.08	36.167
559.42	35.601
559.76	34.853
560.10	35.403
560.44	34.941
560.78	34.531
561.12	35.092
561.45	34.941
561.79	34.740
562.13	34.474
562.47	34.836
562.81	34.728
563.15	33.846
563.48	34.151
563.82	33.790
564.16	33.944
564.50	33.529
564.84	34.134
565.17	33.848
565.51	33.482
565.85	34.454
566.19	33.688
566.52	34.642
566.86	32.972
567.20	33.844
567.54	32.934
567.88	32.700
568.21	33.333
568.55	32.002
568.89	33.220
569.23	31.551
569.56	31.174
569.90	31.019
570.24	30.283
570.57	30.160
570.91	29.767
571.25	30.111
571.59	29.043
571.92	29.493
572.26	29.318
572.60	29.730
572.93	29.295
573.27	29.252
573.61	29.453
573.95	29.457
574.28	29.121
574.62	28.936
574.96	28.244
575.29	28.274
575.63	28.506
575.97	28.300
576.30	28.571
576.64	28.153
576.98	28.488
577.31	28.535
577.65	27.970
577.98	28.187
578.32	27.482
578.66	28.071
578.99	27.962
579.33	28.274
579.67	27.560
580.00	28.051
580.34	28.263
580.67	28.102
581.01	27.861
581.35	28.145
581.68	27.692
582.02	27.007
582.35	27.884
582.69	27.933
583.02	27.872
583.36	28.084
583.70	28.447
584.03	28.422
584.37	28.722
584.70	28.945
585.04	28.156
585.37	27.423
585.71	28.148
586.04	28.074
586.38	28.553
586.72	28.445
587.05	28.145
587.39	27.810
587.72	27.854
588.06	28.602
588.39	28.587
588.73	28.161
589.06	29.137
589.40	28.990
589.73	28.898
590.07	29.217
590.40	28.498
590.73	29.742
591.07	30.362
591.40	29.861
591.74	30.606
592.07	30.017
592.41	29.723
592.74	28.876
593.08	28.847
593.41	28.599
593.75	27.514
594.08	28.059
594.41	27.854
594.75	29.131
595.08	28.346
595.42	28.897
595.75	28.419
596.09	29.478
596.42	30.609
596.75	29.844
597.09	29.784
597.42	29.132
597.75	29.409
598.09	30.000
598.42	28.909
598.76	28.537
599.09	28.316
599.42	28.530
599.76	28.294
600.09	28.415
600.42	28.305
600.76	27.607
601.09	28.270
601.42	28.881
601.76	28.653
602.09	28.182
602.42	29.220
602.76	28.900
603.09	28.285
603.42	28.934
603.76	28.430
604.09	28.112
604.42	28.781
604.76	29.523
605.09	28.834
605.42	28.046
605.75	28.311
606.09	27.979
606.42	28.647
606.75	28.494
607.09	28.129
607.42	28.412
607.75	28.608
608.08	27.920
608.42	28.373
608.75	28.269
609.08	28.446
609.41	28.843
609.75	28.442
610.08	28.841
610.41	29.143
610.74	29.376
611.07	29.545
611.41	29.980
611.74	30.015
612.07	29.762
612.40	29.958
612.73	29.579
613.07	29.634
613.40	30.068
613.73	28.841
614.06	30.484
614.39	28.736
614.72	29.263
615.06	29.622
615.39	29.459
615.72	28.885
616.05	28.549
616.38	29.350
616.71	29.929
617.05	29.623
617.38	29.224
617.71	28.769
618.04	30.108
618.37	30.041
618.70	29.869
619.03	32.171
619.36	29.667
619.69	30.000
620.03	30.495
620.36	30.882
620.69	30.890
621.02	30.678
621.35	30.775
621.68	29.829
622.01	30.805
622.34	32.148
622.67	30.875
623.00	30.741
623.33	29.664
623.66	31.022
623.99	29.529
624.32	30.956
624.65	30.297
624.99	29.603
625.32	29.399
625.65	30.654
625.98	30.515
626.31	31.571
626.64	32.163
626.97	32.003
627.30	31.754
627.63	31.009
627.96	32.296
628.29	32.108
628.62	32.022
628.95	32.736
629.28	32.299
629.61	32.906
629.94	31.619
630.26	31.745
630.59	32.698
