SpectraSuite Data File
++++++++++++++++++++++++++++++++++++
Date: Wed May 13 19:30:35 PDT 2015
User: schluterlab
Dark Spectrum Present: Yes
Reference Spectrum Present: Yes
Number of Sampled Component Spectra: 1
Spectrometers: USB2E3373
Integration Time (usec): 3000 (USB2E3373)
Spectra Averaged: 3 (USB2E3373)
Boxcar Smoothing: 0 (USB2E3373)
Correct for Electrical Dark: No (USB2E3373)
Strobe/Lamp Enabled: No (USB2E3373)
Correct for Detector Non-linearity: No (USB2E3373)
Correct for Stray Light: No (USB2E3373)
Number of Pixels in Processed Spectrum: 2048
>>>>>Begin Processed Spectral Data<<<<<
178.53	0.000
178.91	-1325.000
179.29	-1225.000
179.67	-250.000
180.04	-1400.000
180.42	2550.000
180.80	1160.000
181.18	-975.000
181.56	557.143
181.94	0.000
182.31	-785.714
182.69	1833.333
183.07	-562.500
183.45	-588.889
183.83	463.636
184.20	-450.000
184.58	2650.000
184.96	5800.000
185.34	-1020.000
185.72	-575.000
186.09	-2150.000
186.47	3150.000
186.85	2550.000
187.23	5500.000
187.61	-1633.333
187.98	1475.000
188.36	618.182
188.74	481.818
189.12	-800.000
189.49	630.000
189.87	-5100.000
190.25	-1250.000
190.63	421.429
191.00	407.692
191.38	866.667
191.76	-1000.000
192.14	1525.000
192.51	750.000
192.89	916.667
193.27	712.500
193.65	-1500.000
194.02	650.000
194.40	1080.000
194.78	690.000
195.15	516.667
195.53	690.000
195.91	-2200.000
196.29	331.250
196.66	289.474
197.04	-370.000
197.42	0.000
197.79	670.000
198.17	-4900.000
198.55	685.714
198.92	687.500
199.30	1180.000
199.68	0.000
200.05	333.333
200.43	714.286
200.81	5400.000
201.18	1466.667
201.56	-1866.667
201.94	566.667
202.31	622.222
202.69	475.000
203.07	580.000
203.44	0.000
203.82	1425.000
204.19	828.571
204.57	435.714
204.95	687.500
205.32	1466.667
205.70	545.455
206.08	342.857
206.45	2750.000
206.83	381.250
207.20	950.000
207.58	1000.000
207.96	316.667
208.33	737.500
208.71	-783.333
209.08	857.143
209.46	588.889
209.84	472.727
210.21	-1666.667
210.59	1725.000
210.96	-612.500
211.34	2500.000
211.71	640.000
212.09	800.000
212.46	0.000
212.84	2066.667
213.22	1500.000
213.59	-5300.000
213.97	900.000
214.34	900.000
214.72	563.636
215.09	1080.000
215.47	-2850.000
215.84	-2300.000
216.22	1766.667
216.59	421.429
216.97	1450.000
217.34	490.909
217.72	-816.667
218.09	0.000
218.47	-5200.000
218.84	722.222
219.22	814.286
219.59	1766.667
219.97	-685.714
220.34	940.000
220.72	-1433.333
221.09	485.714
221.47	1550.000
221.84	-1100.000
222.22	0.000
222.59	1425.000
222.97	-3000.000
223.34	1100.000
223.72	369.231
224.09	1100.000
224.46	2400.000
224.84	-5100.000
225.21	-1000.000
225.59	-5100.000
225.96	670.000
226.34	340.000
226.71	3300.000
227.08	812.500
227.46	510.000
227.83	-1000.000
228.21	-2650.000
228.58	655.556
228.95	-2500.000
229.33	-2250.000
229.70	1866.667
230.08	757.143
230.45	-960.000
230.82	341.667
231.20	750.000
231.57	757.143
231.95	516.667
232.32	272.727
232.69	445.455
233.07	771.429
233.44	400.000
233.81	-1733.333
234.19	373.684
234.56	541.667
234.93	491.667
235.31	481.818
235.68	376.923
236.05	392.857
236.43	166.667
236.80	305.263
237.17	5900.000
237.55	271.429
237.92	239.286
238.29	304.762
238.67	200.000
239.04	231.034
239.41	152.778
239.79	128.261
240.16	200.000
240.53	156.818
240.91	133.333
241.28	146.000
241.65	130.000
242.02	113.043
242.40	132.258
242.77	120.000
243.14	104.301
243.51	106.742
243.89	111.765
244.26	93.333
244.63	88.172
245.00	100.000
245.38	90.099
245.75	75.701
246.12	81.651
246.49	83.942
246.87	89.600
247.24	83.846
247.61	85.714
247.98	78.431
248.36	71.622
248.73	66.879
249.10	78.344
249.47	66.102
249.84	71.123
250.22	63.636
250.59	72.189
250.96	68.687
251.33	66.825
251.70	73.267
252.08	64.762
252.45	62.780
252.82	62.609
253.19	59.149
253.56	61.961
253.94	59.336
254.31	66.797
254.68	61.154
255.05	57.565
255.42	62.195
255.79	66.912
256.16	64.260
256.54	55.124
256.91	60.498
257.28	56.475
257.65	57.096
258.02	53.727
258.39	58.044
258.76	59.532
259.14	59.524
259.51	57.447
259.88	54.037
260.25	57.402
260.62	50.000
260.99	54.658
261.36	53.754
261.73	56.160
262.10	54.651
262.47	57.183
262.85	52.089
263.22	50.427
263.59	55.556
263.96	51.923
264.33	52.219
264.70	54.474
265.07	54.220
265.44	53.030
265.81	50.122
266.18	50.754
266.55	50.488
266.92	49.631
267.29	52.546
267.66	47.248
268.03	51.818
268.40	50.935
268.77	51.551
269.14	51.126
269.51	52.144
269.88	55.711
270.25	48.758
270.62	47.865
270.99	51.828
271.36	48.498
271.73	52.336
272.10	47.609
272.47	49.032
272.84	50.000
273.21	46.541
273.58	48.035
273.95	48.428
274.32	47.727
274.69	49.036
275.06	46.260
275.43	48.936
275.80	48.497
276.17	49.898
276.54	49.272
276.91	49.802
277.28	47.266
277.65	49.323
278.02	46.791
278.39	48.437
278.76	45.273
279.13	48.491
279.50	46.741
279.87	48.606
280.23	48.104
280.60	44.681
280.97	45.841
281.34	46.195
281.71	47.636
282.08	48.177
282.45	45.273
282.82	45.471
283.19	45.276
283.56	46.316
283.92	46.531
284.29	45.855
284.66	45.009
285.03	43.580
285.40	44.366
285.77	43.939
286.14	44.214
286.51	43.667
286.87	42.393
287.24	44.951
287.61	42.536
287.98	43.506
288.35	41.521
288.72	40.343
289.08	42.879
289.45	40.362
289.82	41.789
290.19	41.444
290.56	39.051
290.93	39.728
291.29	40.644
291.66	39.233
292.03	39.680
292.40	41.410
292.77	37.574
293.13	39.104
293.50	41.399
293.87	39.259
294.24	36.741
294.60	36.536
294.97	37.791
295.34	38.646
295.71	37.784
296.08	36.467
296.44	36.314
296.81	36.592
297.18	37.805
297.55	34.169
297.91	36.675
298.28	36.948
298.65	35.901
299.02	35.837
299.38	34.794
299.75	33.558
300.12	35.377
300.48	34.875
300.85	33.662
301.22	35.159
301.59	32.323
301.95	33.627
302.32	34.403
302.69	34.409
303.05	33.697
303.42	32.963
303.79	32.843
304.15	31.002
304.52	33.835
304.89	32.288
305.25	32.599
305.62	32.616
305.99	32.940
306.35	32.215
306.72	32.399
307.09	32.630
307.45	32.095
307.82	31.920
308.19	32.781
308.55	30.852
308.92	32.760
309.29	31.151
309.65	32.768
310.02	30.761
310.38	31.828
310.75	31.573
311.12	31.525
311.48	32.393
311.85	33.229
312.22	31.946
312.58	31.393
312.95	32.735
313.31	31.845
313.68	32.328
314.05	33.037
314.41	31.256
314.78	32.729
315.14	31.778
315.51	32.853
315.87	33.168
316.24	31.678
316.61	31.579
316.97	31.213
317.34	31.605
317.70	31.931
318.07	32.435
318.43	33.170
318.80	32.334
319.16	31.356
319.53	31.332
319.89	33.238
320.26	34.200
320.62	32.837
320.99	32.121
321.35	32.424
321.72	32.546
322.08	31.885
322.45	33.532
322.81	32.461
323.18	33.911
323.54	32.746
323.91	33.774
324.27	34.512
324.64	32.526
325.00	32.101
325.37	35.214
325.73	33.752
326.10	32.480
326.46	32.885
326.83	33.563
327.19	32.792
327.56	32.666
327.92	33.158
328.29	34.073
328.65	34.254
329.01	34.296
329.38	32.562
329.74	32.595
330.11	34.025
330.47	32.782
330.84	33.640
331.20	33.971
331.56	32.752
331.93	33.426
332.29	33.008
332.66	32.920
333.02	32.176
333.38	33.153
333.75	32.531
334.11	32.651
334.48	32.564
334.84	34.375
335.20	33.182
335.57	31.732
335.93	32.054
336.29	32.418
336.66	32.101
337.02	31.222
337.38	32.407
337.75	32.264
338.11	31.603
338.47	33.978
338.84	33.547
339.20	31.651
339.56	33.668
339.93	31.182
340.29	32.971
340.65	31.996
341.02	32.461
341.38	32.918
341.74	32.018
342.11	33.188
342.47	31.894
342.83	31.507
343.20	32.121
343.56	31.340
343.92	30.965
344.28	31.207
344.65	31.384
345.01	32.071
345.37	31.647
345.73	31.810
346.10	32.396
346.46	31.525
346.82	31.054
347.19	32.080
347.55	29.885
347.91	32.120
348.27	31.471
348.63	31.773
349.00	31.068
349.36	32.020
349.72	30.874
350.08	30.875
350.45	32.059
350.81	31.113
351.17	30.389
351.53	31.122
351.89	31.518
352.26	32.676
352.62	32.237
352.98	30.956
353.34	31.717
353.70	29.869
354.07	31.613
354.43	30.317
354.79	29.767
355.15	30.646
355.51	31.575
355.87	31.184
356.24	32.085
356.60	29.671
356.96	32.019
357.32	30.090
357.68	30.787
358.04	30.087
358.40	30.879
358.77	30.829
359.13	30.387
359.49	30.667
359.85	29.365
360.21	30.223
360.57	30.272
360.93	31.077
361.29	30.612
361.66	29.489
362.02	30.075
362.38	31.255
362.74	30.134
363.10	28.645
363.46	29.787
363.82	29.781
364.18	29.883
364.54	31.204
364.90	30.099
365.26	29.706
365.62	30.022
365.98	27.831
366.35	29.155
366.71	30.586
367.07	29.862
367.43	30.261
367.79	30.193
368.15	30.244
368.51	29.288
368.87	29.550
369.23	29.920
369.59	30.775
369.95	30.074
370.31	30.128
370.67	28.841
371.03	31.985
371.39	29.810
371.75	28.235
372.11	29.872
372.47	31.598
372.83	30.043
373.19	29.263
373.55	30.081
373.91	31.370
374.27	30.241
374.63	28.873
374.99	29.237
375.35	29.937
375.71	29.609
376.07	30.041
376.42	29.298
376.78	30.086
377.14	29.104
377.50	30.265
377.86	29.255
378.22	29.456
378.58	28.321
378.94	29.793
379.30	29.135
379.66	29.886
380.02	29.300
380.38	28.294
380.74	28.691
381.09	29.279
381.45	30.793
381.81	29.361
382.17	30.000
382.53	29.686
382.89	30.247
383.25	29.706
383.61	29.306
383.97	29.644
384.32	29.070
384.68	29.058
385.04	30.240
385.40	28.916
385.76	29.361
386.12	28.821
386.48	29.767
386.83	30.661
387.19	29.623
387.55	28.942
387.91	29.807
388.27	29.614
388.62	28.888
388.98	28.931
389.34	30.038
389.70	29.920
390.06	30.355
390.42	30.026
390.77	30.344
391.13	30.249
391.49	30.013
391.85	28.899
392.20	29.842
392.56	29.419
392.92	29.429
393.28	28.817
393.64	30.156
393.99	29.505
394.35	30.025
394.71	29.109
395.07	29.408
395.42	29.481
395.78	30.789
396.14	30.106
396.50	30.702
396.85	30.833
397.21	29.840
397.57	30.316
397.92	30.889
398.28	28.531
398.64	30.287
399.00	30.386
399.35	29.554
399.71	29.745
400.07	30.869
400.42	30.613
400.78	30.338
401.14	30.976
401.49	31.104
401.85	29.764
402.21	30.120
402.57	29.858
402.92	30.832
403.28	30.981
403.63	29.579
403.99	29.873
404.35	30.970
404.70	30.695
405.06	30.693
405.42	31.254
405.77	30.629
406.13	30.756
406.49	29.982
406.84	30.656
407.20	30.319
407.55	31.972
407.91	31.333
408.27	30.887
408.62	30.945
408.98	31.066
409.34	31.427
409.69	31.097
410.05	31.041
410.40	30.887
410.76	31.422
411.11	31.182
411.47	31.374
411.83	31.765
412.18	31.664
412.54	32.814
412.89	31.024
413.25	32.113
413.60	31.624
413.96	30.905
414.31	31.470
414.67	32.510
415.03	32.252
415.38	31.379
415.74	32.476
416.09	32.266
416.45	31.727
416.80	31.857
417.16	33.177
417.51	32.913
417.87	30.829
418.22	32.303
418.58	33.054
418.93	32.494
419.29	33.164
419.64	32.242
420.00	31.585
420.35	31.884
420.71	33.174
421.06	32.160
421.42	32.398
421.77	31.839
422.12	32.341
422.48	30.977
422.83	32.324
423.19	31.602
423.54	32.443
423.90	32.116
424.25	32.663
424.61	32.917
424.96	33.061
425.31	32.226
425.67	32.135
426.02	32.000
426.38	32.967
426.73	32.651
427.09	32.097
427.44	32.432
427.79	32.950
428.15	32.619
428.50	33.294
428.85	32.420
429.21	32.744
429.56	32.659
429.92	31.857
430.27	31.778
430.62	31.644
430.98	32.382
431.33	32.423
431.68	32.408
432.04	31.949
432.39	31.982
432.74	33.214
433.10	33.107
433.45	32.945
433.80	33.093
434.16	32.479
434.51	32.316
434.86	33.067
435.22	32.796
435.57	32.462
435.92	32.300
436.28	33.749
436.63	32.837
436.98	32.799
437.34	33.095
437.69	33.139
438.04	33.165
438.39	33.194
438.75	33.701
439.10	32.961
439.45	33.825
439.81	33.897
440.16	31.959
440.51	32.982
440.86	33.990
441.22	31.758
441.57	33.280
441.92	33.521
442.27	33.208
442.63	32.491
442.98	34.535
443.33	33.152
443.68	33.092
444.03	32.016
444.39	32.181
444.74	32.955
445.09	33.046
445.44	33.297
445.79	33.300
446.15	32.822
446.50	33.118
446.85	32.837
447.20	33.503
447.55	33.892
447.91	33.370
448.26	33.556
448.61	33.126
448.96	33.610
449.31	33.352
449.66	33.033
450.02	32.813
450.37	33.277
450.72	33.446
451.07	33.699
451.42	33.070
451.77	33.999
452.12	33.661
452.47	34.826
452.83	33.800
453.18	34.291
453.53	33.704
453.88	33.904
454.23	34.369
454.58	34.403
454.93	35.601
455.28	33.728
455.63	33.252
455.98	35.298
456.34	33.920
456.69	34.502
457.04	34.861
457.39	34.132
457.74	33.836
458.09	33.295
458.44	32.953
458.79	33.460
459.14	33.973
459.49	33.859
459.84	33.130
460.19	34.237
460.54	32.870
460.89	34.504
461.24	33.698
461.59	34.166
461.94	33.970
462.29	34.184
462.64	33.886
462.99	33.572
463.34	36.067
463.69	34.209
464.04	33.739
464.39	34.493
464.74	32.917
465.09	33.233
465.44	33.352
465.79	33.837
466.14	33.552
466.49	33.537
466.84	34.442
467.19	33.555
467.54	35.375
467.89	33.974
468.24	34.846
468.59	34.921
468.94	34.270
469.29	35.733
469.64	35.676
469.99	34.303
470.34	34.875
470.68	35.129
471.03	34.558
471.38	35.511
471.73	34.577
472.08	35.789
472.43	34.171
472.78	34.299
473.13	34.981
473.48	34.831
473.83	35.061
474.17	33.479
474.52	34.243
474.87	35.377
475.22	34.185
475.57	33.745
475.92	34.201
476.27	33.653
476.61	34.859
476.96	34.195
477.31	33.333
477.66	33.862
478.01	33.769
478.36	34.056
478.70	34.164
479.05	34.505
479.40	34.493
479.75	34.113
480.10	34.294
480.45	33.746
480.79	33.301
481.14	33.219
481.49	33.982
481.84	33.196
482.19	33.621
482.53	33.578
482.88	33.597
483.23	33.271
483.58	33.485
483.92	34.489
484.27	32.723
484.62	33.190
484.97	32.203
485.31	32.945
485.66	31.268
486.01	30.122
486.36	28.924
486.70	29.411
487.05	30.041
487.40	31.333
487.75	31.161
488.09	33.182
488.44	32.388
488.79	33.707
489.13	33.193
489.48	33.972
489.83	33.060
490.17	33.406
490.52	33.260
490.87	33.514
491.22	34.015
491.56	33.257
491.91	33.830
492.26	33.395
492.60	33.594
492.95	33.302
493.30	32.897
493.64	34.298
493.99	33.798
494.34	33.858
494.68	34.753
495.03	34.211
495.37	33.644
495.72	33.723
496.07	34.292
496.41	32.788
496.76	33.289
497.11	32.598
497.45	33.349
497.80	33.349
498.14	34.300
498.49	34.098
498.84	33.605
499.18	33.524
499.53	33.428
499.87	33.924
500.22	33.349
500.56	34.272
500.91	32.885
501.26	33.950
501.60	34.646
501.95	33.272
502.29	34.161
502.64	33.985
502.98	33.146
503.33	32.861
503.67	33.735
504.02	33.630
504.36	33.177
504.71	34.441
505.06	33.928
505.40	34.419
505.75	33.462
506.09	34.208
506.44	34.139
506.78	34.973
507.13	34.578
507.47	33.889
507.82	35.157
508.16	34.245
508.51	34.855
508.85	33.813
509.19	34.592
509.54	33.418
509.88	34.158
510.23	33.059
510.57	35.036
510.92	34.076
511.26	34.430
511.61	34.803
511.95	34.238
512.30	34.464
512.64	34.014
512.98	35.691
513.33	35.171
513.67	35.005
514.02	34.037
514.36	34.298
514.70	35.861
515.05	33.965
515.39	35.614
515.74	35.360
516.08	34.824
516.42	35.794
516.77	35.284
517.11	34.129
517.46	35.045
517.80	37.050
518.14	34.221
518.49	35.473
518.83	35.682
519.17	35.739
519.52	35.427
519.86	35.368
520.20	35.838
520.55	35.428
520.89	36.010
521.23	35.223
521.58	35.894
521.92	36.007
522.26	35.204
522.61	34.829
522.95	35.912
523.29	35.240
523.64	36.341
523.98	35.120
524.32	34.138
524.66	36.621
525.01	35.355
525.35	35.626
525.69	34.914
526.04	35.514
526.38	35.937
526.72	35.767
527.06	35.907
527.41	34.530
527.75	36.013
528.09	36.480
528.43	35.437
528.78	36.386
529.12	34.848
529.46	36.558
529.80	36.696
530.15	36.012
530.49	35.692
530.83	36.203
531.17	36.945
531.51	36.835
531.86	36.387
532.20	36.180
532.54	35.874
532.88	36.650
533.22	35.978
533.57	36.790
533.91	35.400
534.25	35.784
534.59	35.448
534.93	36.169
535.27	35.244
535.62	35.287
535.96	36.095
536.30	35.664
536.64	36.768
536.98	36.430
537.32	34.891
537.66	35.600
538.01	36.406
538.35	36.522
538.69	36.631
539.03	35.608
539.37	34.505
539.71	34.543
540.05	35.817
540.39	35.947
540.73	34.541
541.07	36.665
541.42	36.008
541.76	35.935
542.10	36.934
542.44	36.225
542.78	37.747
543.12	35.061
543.46	36.262
543.80	35.914
544.14	34.917
544.48	35.746
544.82	35.600
545.16	35.784
545.50	34.897
545.84	36.492
546.18	36.431
546.52	36.132
546.86	36.151
547.20	36.345
547.54	35.738
547.88	35.842
548.22	35.554
548.56	35.723
548.90	34.955
549.24	35.084
549.58	36.221
549.92	36.195
550.26	36.861
550.60	35.823
550.94	37.042
551.28	34.894
551.62	36.233
551.96	35.719
552.30	35.768
552.64	35.497
552.98	36.678
553.32	35.806
553.66	35.446
554.00	36.582
554.34	36.370
554.68	36.695
555.02	36.460
555.36	35.699
555.69	35.792
556.03	36.003
556.37	36.221
556.71	34.789
557.05	36.765
557.39	35.969
557.73	35.780
558.07	35.896
558.41	36.758
558.75	36.517
559.08	35.048
559.42	38.020
559.76	36.618
560.10	35.189
560.44	35.570
560.78	34.797
561.12	34.631
561.45	36.050
561.79	35.860
562.13	35.345
562.47	36.270
562.81	35.146
563.15	35.117
563.48	35.676
563.82	36.008
564.16	34.598
564.50	34.701
564.84	34.893
565.17	35.393
565.51	35.016
565.85	34.518
566.19	33.626
566.52	35.782
566.86	34.057
567.20	35.259
567.54	34.475
567.88	33.569
568.21	33.651
568.55	33.367
568.89	33.025
569.23	32.442
569.56	31.336
569.90	32.038
570.24	31.790
570.57	31.112
570.91	30.608
571.25	30.019
571.59	29.779
571.92	30.415
572.26	30.820
572.60	30.841
572.93	30.945
573.27	30.967
573.61	30.821
573.95	30.258
574.28	29.950
574.62	29.786
574.96	29.654
575.29	29.704
575.63	29.700
575.97	30.018
576.30	29.979
576.64	29.694
576.98	30.019
577.31	29.875
577.65	28.708
577.98	28.850
578.32	29.011
578.66	29.015
578.99	29.468
579.33	29.436
579.67	29.287
580.00	29.369
580.34	29.544
580.67	29.402
581.01	29.548
581.35	29.597
581.68	28.455
582.02	28.284
582.35	28.807
582.69	29.051
583.02	29.190
583.36	29.836
583.70	29.770
584.03	30.460
584.37	30.540
584.70	29.650
585.04	29.746
585.37	29.124
585.71	29.276
586.04	29.307
586.38	29.807
586.72	30.268
587.05	28.797
587.39	29.235
587.72	29.348
588.06	29.562
588.39	29.959
588.73	30.331
589.06	30.383
589.40	30.741
589.73	31.327
590.07	30.783
590.40	30.617
590.73	31.421
591.07	31.420
591.40	32.307
591.74	31.948
592.07	32.112
592.41	30.881
592.74	29.850
593.08	29.514
593.41	29.927
593.75	29.013
594.08	30.372
594.41	29.728
594.75	30.277
595.08	29.742
595.42	29.702
595.75	30.306
596.09	30.792
596.42	31.081
596.75	31.575
597.09	32.035
597.42	29.890
597.75	31.393
598.09	30.870
598.42	30.155
598.76	30.361
599.09	29.685
599.42	29.039
599.76	29.978
600.09	29.071
600.42	29.511
600.76	28.607
601.09	29.545
601.42	30.023
601.76	30.133
602.09	30.988
602.42	30.175
602.76	30.834
603.09	30.527
603.42	30.379
603.76	29.345
604.09	29.391
604.42	30.371
604.76	30.873
605.09	30.887
605.42	30.611
605.75	30.298
606.09	29.972
606.42	30.405
606.75	29.946
607.09	29.971
607.42	30.167
607.75	28.734
608.08	30.352
608.42	30.121
608.75	29.576
609.08	29.001
609.41	30.414
609.75	30.491
610.08	30.396
610.41	30.214
610.74	30.937
611.07	30.385
611.41	30.913
611.74	31.171
612.07	30.952
612.40	31.742
612.73	30.263
613.07	31.843
613.40	31.964
613.73	30.047
614.06	31.075
614.39	31.463
614.72	30.211
615.06	30.882
615.39	30.149
615.72	30.010
616.05	30.409
616.38	31.128
616.71	32.304
617.05	31.920
617.38	31.449
617.71	30.991
618.04	31.370
618.37	31.106
618.70	32.918
619.03	31.711
619.36	32.315
619.69	32.113
620.03	32.486
620.36	32.353
620.69	33.219
621.02	33.186
621.35	32.733
621.68	32.243
622.01	33.127
622.34	32.526
622.67	33.080
623.00	31.768
623.33	31.451
623.66	32.094
623.99	32.327
624.32	31.384
624.65	31.427
624.99	31.657
625.32	32.078
625.65	32.156
625.98	32.667
626.31	33.359
626.64	32.735
626.97	34.165
627.30	33.001
627.63	32.896
627.96	33.305
628.29	34.208
628.62	33.852
628.95	34.528
629.28	34.580
629.61	36.114
629.94	35.238
630.26	34.509
630.59	33.842
