SpectraSuite Data File
++++++++++++++++++++++++++++++++++++
Date: Wed May 13 19:43:45 PDT 2015
User: schluterlab
Dark Spectrum Present: Yes
Reference Spectrum Present: Yes
Number of Sampled Component Spectra: 1
Spectrometers: USB2E3373
Integration Time (usec): 3000 (USB2E3373)
Spectra Averaged: 3 (USB2E3373)
Boxcar Smoothing: 0 (USB2E3373)
Correct for Electrical Dark: No (USB2E3373)
Strobe/Lamp Enabled: No (USB2E3373)
Correct for Detector Non-linearity: No (USB2E3373)
Correct for Stray Light: No (USB2E3373)
Number of Pixels in Processed Spectrum: 2048
>>>>>Begin Processed Spectral Data<<<<<
178.53	0.000
178.91	-1175.000
179.29	-1300.000
179.67	-200.000
180.04	-1150.000
180.42	2800.000
180.80	980.000
181.18	-975.000
181.56	700.000
181.94	0.000
182.31	-542.857
182.69	1733.333
183.07	-562.500
183.45	-500.000
183.83	563.636
184.20	-440.000
184.58	2350.000
184.96	6300.000
185.34	-880.000
185.72	-612.500
186.09	-2250.000
186.47	2750.000
186.85	1950.000
187.23	4500.000
187.61	-1433.333
187.98	1375.000
188.36	500.000
188.74	509.091
189.12	-940.000
189.49	540.000
189.87	-5100.000
190.25	-1300.000
190.63	392.857
191.00	438.462
191.38	766.667
191.76	-1225.000
192.14	1225.000
192.51	712.500
192.89	866.667
193.27	662.500
193.65	-1250.000
194.02	500.000
194.40	1200.000
194.78	490.000
195.15	483.333
195.53	630.000
195.91	-2250.000
196.29	356.250
196.66	342.105
197.04	-390.000
197.42	0.000
197.79	570.000
198.17	-5500.000
198.55	614.286
198.92	650.000
199.30	820.000
199.68	0.000
200.05	311.111
200.43	742.857
200.81	4300.000
201.18	1500.000
201.56	-1766.667
201.94	655.556
202.31	566.667
202.69	441.667
203.07	500.000
203.44	0.000
203.82	1075.000
204.19	771.429
204.57	407.143
204.95	587.500
205.32	1800.000
205.70	518.182
206.08	407.143
206.45	2750.000
206.83	425.000
207.20	1016.667
207.58	960.000
207.96	361.111
208.33	825.000
208.71	-766.667
209.08	842.857
209.46	544.444
209.84	427.273
210.21	-1733.333
210.59	1350.000
210.96	-525.000
211.34	2800.000
211.71	550.000
212.09	783.333
212.46	0.000
212.84	1466.667
213.22	1325.000
213.59	-4900.000
213.97	816.667
214.34	785.714
214.72	590.909
215.09	1180.000
215.47	-2150.000
215.84	-2400.000
216.22	1600.000
216.59	421.429
216.97	1400.000
217.34	518.182
217.72	-766.667
218.09	0.000
218.47	-5200.000
218.84	700.000
219.22	685.714
219.59	1700.000
219.97	-614.286
220.34	980.000
220.72	-1766.667
221.09	378.571
221.47	1425.000
221.84	-950.000
222.22	0.000
222.59	1275.000
222.97	-2050.000
223.34	960.000
223.72	461.538
224.09	900.000
224.46	2200.000
224.84	-4000.000
225.21	-1020.000
225.59	-4800.000
225.96	460.000
226.34	330.000
226.71	2800.000
227.08	625.000
227.46	580.000
227.83	-1150.000
228.21	-1800.000
228.58	611.111
228.95	-2050.000
229.33	-2150.000
229.70	1766.667
230.08	800.000
230.45	-960.000
230.82	466.667
231.20	983.333
231.57	671.429
231.95	516.667
232.32	245.455
232.69	354.545
233.07	628.571
233.44	284.615
233.81	-1800.000
234.19	300.000
234.56	466.667
234.93	383.333
235.31	463.636
235.68	307.692
236.05	300.000
236.43	209.091
236.80	226.316
237.17	4300.000
237.55	190.476
237.92	200.000
238.29	233.333
238.67	138.710
239.04	203.448
239.41	111.111
239.79	117.391
240.16	109.524
240.53	115.909
240.91	70.588
241.28	100.000
241.65	90.000
242.02	91.304
242.40	79.032
242.77	70.000
243.14	65.591
243.51	67.416
243.89	64.706
244.26	63.333
244.63	43.011
245.00	42.553
245.38	53.465
245.75	42.991
246.12	42.202
246.49	51.095
246.87	50.400
247.24	50.000
247.61	32.857
247.98	43.791
248.36	37.838
248.73	36.306
249.10	43.949
249.47	32.768
249.84	36.898
250.22	32.620
250.59	34.911
250.96	30.808
251.33	35.071
251.70	31.188
252.08	28.095
252.45	28.251
252.82	26.522
253.19	24.255
253.56	26.275
253.94	26.971
254.31	25.000
254.68	28.077
255.05	28.044
255.42	28.049
255.79	22.794
256.16	25.271
256.54	22.968
256.91	22.420
257.28	15.468
257.65	23.102
258.02	17.081
258.39	19.558
258.76	21.070
259.14	21.726
259.51	17.629
259.88	17.391
260.25	20.242
260.62	19.942
260.99	19.876
261.36	21.021
261.73	16.619
262.10	15.116
262.47	16.338
262.85	18.663
263.22	15.670
263.59	20.228
263.96	15.934
264.33	16.188
264.70	18.684
265.07	18.926
265.44	16.162
265.81	14.842
266.18	18.593
266.55	15.610
266.92	14.742
267.29	18.981
267.66	16.284
268.03	15.455
268.40	14.953
268.77	14.558
269.14	15.766
269.51	16.704
269.88	15.385
270.25	13.318
270.62	16.629
270.99	19.570
271.36	14.592
271.73	13.318
272.10	16.739
272.47	14.839
272.84	13.853
273.21	15.094
273.58	13.537
273.95	14.675
274.32	12.810
274.69	16.488
275.06	15.354
275.43	16.383
275.80	13.427
276.17	13.646
276.54	15.385
276.91	14.427
277.28	13.672
277.65	15.280
278.02	12.008
278.39	13.867
278.76	13.818
279.13	13.962
279.50	13.035
279.87	13.546
280.23	10.778
280.60	12.379
280.97	12.015
281.34	13.805
281.71	14.727
282.08	13.436
282.45	12.727
282.82	11.545
283.19	11.052
283.56	13.684
283.92	11.168
284.29	11.464
284.66	11.978
285.03	12.477
285.40	11.796
285.77	11.111
286.14	11.572
286.51	12.833
286.87	11.282
287.24	11.726
287.61	12.520
287.98	11.526
288.35	10.935
288.72	11.215
289.08	12.520
289.45	10.544
289.82	11.057
290.19	11.303
290.56	10.720
290.93	11.329
291.29	11.043
291.66	11.062
292.03	13.081
292.40	12.922
292.77	8.728
293.13	10.299
293.50	10.787
293.87	11.259
294.24	10.074
294.60	11.063
294.97	10.174
295.34	11.989
295.71	9.943
296.08	9.687
296.44	7.565
296.81	9.379
297.18	11.789
297.55	8.575
297.91	9.894
298.28	10.040
298.65	10.313
299.02	8.696
299.38	9.429
299.75	7.008
300.12	9.068
300.48	8.500
300.85	9.494
301.22	8.662
301.59	9.217
301.95	9.068
302.32	8.601
302.69	10.036
303.05	8.485
303.42	8.272
303.79	9.287
304.15	8.392
304.52	9.618
304.89	7.085
305.25	8.353
305.62	8.607
305.99	8.146
306.35	8.501
306.72	7.735
307.09	8.324
307.45	9.685
307.82	7.031
308.19	8.168
308.55	9.277
308.92	8.485
309.29	9.715
309.65	8.696
310.02	8.985
310.38	7.742
310.75	8.553
311.12	9.212
311.48	8.568
311.85	9.224
312.22	9.886
312.58	8.108
312.95	10.032
313.31	8.641
313.68	9.252
314.05	11.736
314.41	9.246
314.78	8.459
315.14	8.739
315.51	9.990
315.87	9.307
316.24	9.434
316.61	8.480
316.97	9.980
317.34	8.904
317.70	10.612
318.07	9.432
318.43	10.078
318.80	10.965
319.16	10.829
319.53	11.257
319.89	10.952
320.26	11.600
320.62	12.500
320.99	11.313
321.35	11.515
321.72	12.731
322.08	13.425
322.45	13.831
322.81	13.566
323.18	13.391
323.54	12.245
323.91	13.019
324.27	13.384
324.64	13.700
325.00	13.616
325.37	13.740
325.73	14.632
326.10	13.945
326.46	14.427
326.83	14.927
327.19	14.518
327.56	15.505
327.92	14.436
328.29	14.374
328.65	15.285
329.01	14.170
329.38	15.079
329.74	15.420
330.11	15.551
330.47	16.162
330.84	16.636
331.20	16.211
331.56	16.789
331.93	16.667
332.29	16.415
332.66	16.814
333.02	15.996
333.38	16.079
333.75	15.954
334.11	16.459
334.48	16.770
334.84	17.279
335.20	16.545
335.57	16.138
335.93	14.464
336.29	16.300
336.66	16.141
337.02	15.475
337.38	17.222
337.75	15.865
338.11	16.115
338.47	16.298
338.84	16.315
339.20	15.505
339.56	16.058
339.93	15.273
340.29	16.214
340.65	16.488
341.02	16.230
341.38	17.260
341.74	15.439
342.11	15.983
342.47	16.476
342.83	15.839
343.20	15.671
343.56	15.501
343.92	15.263
344.28	15.901
344.65	16.853
345.01	16.246
345.37	15.609
345.73	16.413
346.10	15.772
346.46	16.356
346.82	16.145
347.19	16.876
347.55	15.928
347.91	16.262
348.27	16.845
348.63	15.719
349.00	15.777
349.36	15.681
349.72	15.718
350.08	15.235
350.45	17.087
350.81	16.409
351.17	15.883
351.53	15.643
351.89	15.759
352.26	16.338
352.62	17.322
352.98	15.802
353.34	17.338
353.70	16.121
354.07	16.532
354.43	16.190
354.79	16.331
355.15	16.600
355.51	16.547
355.87	16.571
356.24	15.798
356.60	15.557
356.96	16.331
357.32	16.271
357.68	16.929
358.04	17.023
358.40	16.310
358.77	16.980
359.13	16.022
359.49	15.608
359.85	15.079
360.21	15.630
360.57	16.654
360.93	16.154
361.29	16.931
361.66	16.409
362.02	16.269
362.38	16.806
362.74	15.476
363.10	15.692
363.46	16.434
363.82	15.873
364.18	16.300
364.54	17.831
364.90	16.572
365.26	16.250
365.62	16.581
365.98	16.362
366.35	16.834
366.71	16.775
367.07	16.897
367.43	16.981
367.79	17.273
368.15	17.672
368.51	15.988
368.87	17.273
369.23	16.825
369.59	16.872
369.95	15.735
370.31	17.236
370.67	16.014
371.03	16.629
371.39	17.055
371.75	16.912
372.11	17.141
372.47	17.375
372.83	17.291
373.19	16.329
373.55	16.704
373.91	17.673
374.27	17.113
374.63	16.873
374.99	16.949
375.35	16.678
375.71	16.655
376.07	17.627
376.42	16.850
376.78	17.097
377.14	17.300
377.50	18.278
377.86	16.955
378.22	17.762
378.58	16.103
378.94	16.782
379.30	16.858
379.66	17.195
380.02	17.015
380.38	17.183
380.74	16.927
381.09	17.237
381.45	17.578
381.81	17.383
382.17	18.217
382.53	17.044
382.89	17.346
383.25	16.823
383.61	18.030
383.97	17.386
384.32	17.530
384.68	17.286
385.04	16.841
385.40	17.461
385.76	17.260
386.12	17.228
386.48	17.306
386.83	18.345
387.19	18.553
387.55	17.687
387.91	16.808
388.27	16.983
388.62	17.394
388.98	17.076
389.34	17.710
389.70	17.106
390.06	18.314
390.42	17.964
390.77	17.621
391.13	18.060
391.49	18.211
391.85	17.123
392.20	16.845
392.56	17.677
392.92	17.187
393.28	16.746
393.64	17.926
393.99	18.143
394.35	17.990
394.71	17.503
395.07	16.199
395.42	18.850
395.78	17.812
396.14	17.753
396.50	18.108
396.85	18.118
397.21	17.879
397.57	17.793
397.92	17.608
398.28	17.209
398.64	17.443
399.00	18.131
399.35	16.751
399.71	16.956
400.07	18.155
400.42	17.362
400.78	17.250
401.14	17.805
401.49	17.672
401.85	17.725
402.21	16.946
402.57	17.027
402.92	17.907
403.28	18.426
403.63	18.502
403.99	17.134
404.35	18.061
404.70	17.566
405.06	17.298
405.42	17.904
405.77	16.400
406.13	17.099
406.49	17.741
406.84	17.543
407.20	17.080
407.55	17.741
407.91	17.733
408.27	16.975
408.62	17.941
408.98	17.096
409.34	17.159
409.69	17.677
410.05	17.410
410.40	17.248
410.76	17.264
411.11	18.034
411.47	17.252
411.83	17.593
412.18	18.120
412.54	17.559
412.89	17.470
413.25	17.473
413.60	17.789
413.96	16.636
414.31	16.950
414.67	17.934
415.03	17.351
415.38	17.848
415.74	17.106
416.09	18.223
416.45	17.269
416.80	17.052
417.16	17.627
417.51	18.447
417.87	17.020
418.22	18.170
418.58	17.624
418.93	17.445
419.29	17.696
419.64	17.569
420.00	17.439
420.35	16.986
420.71	17.872
421.06	18.198
421.42	17.778
421.77	16.760
422.12	17.069
422.48	16.892
422.83	17.880
423.19	16.851
423.54	17.237
423.90	17.971
424.25	17.197
424.61	17.381
424.96	16.501
425.31	16.334
425.67	15.562
426.02	16.686
426.38	17.338
426.73	16.735
427.09	17.812
427.44	17.424
427.79	17.251
428.15	16.845
428.50	17.086
428.85	17.282
429.21	16.179
429.56	16.122
429.92	16.105
430.27	16.683
430.62	15.463
430.98	16.087
431.33	15.979
431.68	16.859
432.04	16.400
432.39	15.991
432.74	16.996
433.10	17.261
433.45	17.259
433.80	16.186
434.16	16.613
434.51	15.895
434.86	16.648
435.22	16.342
435.57	16.049
435.92	16.267
436.28	16.963
436.63	17.384
436.98	17.172
437.34	16.875
437.69	17.970
438.04	15.964
438.39	16.896
438.75	16.444
439.10	16.145
439.45	16.352
439.81	15.468
440.16	16.488
440.51	16.169
440.86	16.561
441.22	15.517
441.57	15.711
441.92	15.967
442.27	15.823
442.63	15.903
442.98	16.620
443.33	16.522
443.68	16.262
444.03	15.910
444.39	15.385
444.74	15.422
445.09	16.388
445.44	15.637
445.79	15.834
446.15	15.723
446.50	16.047
446.85	16.341
447.20	16.012
447.55	16.750
447.91	15.223
448.26	15.971
448.61	15.998
448.96	17.054
449.31	16.423
449.66	16.488
450.02	15.097
450.37	15.816
450.72	15.454
451.07	15.113
451.42	15.380
451.77	16.089
452.12	16.339
452.47	16.294
452.83	14.627
453.18	15.709
453.53	16.079
453.88	15.535
454.23	15.959
454.58	15.990
454.93	16.211
455.28	15.461
455.63	16.262
455.98	16.012
456.34	15.766
456.69	16.155
457.04	16.037
457.39	15.137
457.74	15.148
458.09	15.526
458.44	15.450
458.79	14.100
459.14	15.688
459.49	14.478
459.84	15.623
460.19	15.085
460.54	14.468
460.89	15.195
461.24	15.604
461.59	16.328
461.94	15.290
462.29	15.964
462.64	15.061
462.99	15.485
463.34	15.933
463.69	15.322
464.04	15.014
464.39	14.783
464.74	15.152
465.09	14.294
465.44	14.737
465.79	14.989
466.14	14.122
466.49	15.350
466.84	14.594
467.19	14.967
467.54	14.812
467.89	14.286
468.24	14.892
468.59	15.324
468.94	14.844
469.29	14.974
469.64	15.060
469.99	15.223
470.34	14.795
470.68	14.368
471.03	14.694
471.38	15.288
471.73	14.857
472.08	15.263
472.43	15.201
472.78	13.957
473.13	14.442
473.48	14.856
473.83	14.756
474.17	14.624
474.52	14.640
474.87	14.419
475.22	14.452
475.57	13.272
475.92	14.020
476.27	14.149
476.61	13.900
476.96	13.469
477.31	13.187
477.66	13.512
478.01	13.643
478.36	14.014
478.70	13.603
479.05	13.206
479.40	13.971
479.75	13.625
480.10	13.171
480.45	13.279
480.79	13.043
481.14	13.552
481.49	13.431
481.84	13.443
482.19	13.267
482.53	13.073
482.88	13.448
483.23	12.804
483.58	13.421
483.92	13.308
484.27	12.593
484.62	12.543
484.97	12.298
485.31	12.123
485.66	11.529
486.01	10.833
486.36	10.780
486.70	10.816
487.05	11.592
487.40	11.772
487.75	11.692
488.09	12.284
488.44	12.308
488.79	12.839
489.13	12.834
489.48	12.643
489.83	12.775
490.17	12.144
490.52	12.533
490.87	12.483
491.22	12.688
491.56	11.845
491.91	11.819
492.26	11.989
492.60	12.396
492.95	11.880
493.30	11.589
493.64	12.086
493.99	11.513
494.34	12.488
494.68	12.363
495.03	12.406
495.37	11.913
495.72	12.086
496.07	12.204
496.41	12.168
496.76	11.434
497.11	12.157
497.45	11.970
497.80	11.996
498.14	11.498
498.49	12.098
498.84	11.745
499.18	11.619
499.53	11.966
499.87	11.789
500.22	12.058
500.56	12.573
500.91	11.346
501.26	11.996
501.60	11.628
501.95	11.412
502.29	11.856
502.64	11.639
502.98	11.641
503.33	11.517
503.67	11.694
504.02	11.646
504.36	11.699
504.71	11.578
505.06	11.904
505.40	11.424
505.75	11.716
506.09	11.953
506.44	11.445
506.78	11.593
507.13	12.014
507.47	12.273
507.82	12.310
508.16	11.297
508.51	11.669
508.85	10.824
509.19	11.480
509.54	11.837
509.88	12.056
510.23	10.643
510.57	12.436
510.92	11.600
511.26	11.768
511.61	11.774
511.95	10.908
512.30	10.870
512.64	11.499
512.98	11.522
513.33	11.617
513.67	10.939
514.02	11.418
514.36	12.288
514.70	11.566
515.05	10.987
515.39	11.610
515.74	11.205
516.08	12.856
516.42	12.042
516.77	12.876
517.11	11.654
517.46	11.738
517.80	11.324
518.14	11.175
518.49	11.902
518.83	11.818
519.17	10.970
519.52	12.111
519.86	11.523
520.20	11.676
520.55	12.926
520.89	11.740
521.23	12.364
521.58	11.044
521.92	11.758
522.26	11.104
522.61	11.277
522.95	12.155
523.29	12.234
523.64	11.890
523.98	10.967
524.32	11.098
524.66	11.666
525.01	12.071
525.35	11.090
525.69	11.761
526.04	11.963
526.38	11.287
526.72	11.166
527.06	11.990
527.41	10.644
527.75	11.833
528.09	12.075
528.43	12.046
528.78	11.616
529.12	10.424
529.46	12.309
529.80	11.881
530.15	11.900
530.49	11.754
530.83	11.899
531.17	12.272
531.51	12.646
531.86	11.548
532.20	12.060
532.54	12.172
532.88	11.553
533.22	11.805
533.57	12.284
533.91	11.318
534.25	11.239
534.59	11.897
534.93	11.184
535.27	11.285
535.62	11.966
535.96	10.860
536.30	11.507
536.64	11.912
536.98	12.077
537.32	11.652
537.66	11.800
538.01	10.862
538.35	11.635
538.69	11.997
539.03	11.436
539.37	11.374
539.71	10.045
540.05	11.438
540.39	11.362
540.73	10.996
541.07	11.291
541.42	11.350
541.76	12.323
542.10	12.354
542.44	11.060
542.78	12.121
543.12	12.028
543.46	12.131
543.80	11.516
544.14	10.334
544.48	11.810
544.82	11.995
545.16	11.646
545.50	10.733
545.84	11.492
546.18	11.515
546.52	12.182
546.86	10.790
547.20	12.947
547.54	11.757
547.88	11.224
548.22	11.457
548.56	11.572
548.90	10.627
549.24	10.168
549.58	11.255
549.92	11.813
550.26	11.932
550.60	10.788
550.94	11.197
551.28	10.534
551.62	11.143
551.96	11.158
552.30	11.468
552.64	11.224
552.98	11.254
553.32	12.205
553.66	11.588
554.00	11.050
554.34	10.973
554.68	11.660
555.02	11.566
555.36	10.508
555.69	10.825
556.03	11.373
556.37	11.460
556.71	11.392
557.05	10.574
557.39	11.686
557.73	11.362
558.07	11.313
558.41	11.071
558.75	11.168
559.08	12.155
559.42	10.506
559.76	11.324
560.10	11.206
560.44	11.391
560.78	10.047
561.12	10.818
561.45	10.235
561.79	10.745
562.13	10.865
562.47	10.656
562.81	11.994
563.15	10.502
563.48	11.870
563.82	10.437
564.16	10.072
564.50	10.091
564.84	10.936
565.17	10.553
565.51	10.607
565.85	11.168
566.19	10.269
566.52	10.703
566.86	10.127
567.20	10.908
567.54	9.817
567.88	9.234
568.21	10.212
568.55	9.909
568.89	9.971
569.23	9.581
569.56	9.028
569.90	9.132
570.24	9.078
570.57	8.875
570.91	8.274
571.25	8.555
571.59	8.954
571.92	8.669
572.26	8.694
572.60	8.949
572.93	8.486
573.27	8.814
573.61	8.766
573.95	8.656
574.28	8.568
574.62	8.285
574.96	8.315
575.29	8.099
575.63	8.486
575.97	8.539
576.30	8.869
576.64	8.213
576.98	8.046
577.31	8.064
577.65	7.904
577.98	8.162
578.32	7.943
578.66	8.050
578.99	8.172
579.33	7.964
579.67	8.100
580.00	8.439
580.34	8.258
580.67	8.201
581.01	8.568
581.35	8.386
581.68	7.662
582.02	7.731
582.35	7.631
582.69	8.111
583.02	8.035
583.36	8.231
583.70	8.117
584.03	8.830
584.37	8.801
584.70	8.412
585.04	8.293
585.37	8.434
585.71	8.341
586.04	8.190
586.38	8.464
586.72	8.589
587.05	7.987
587.39	8.179
587.72	8.683
588.06	8.084
588.39	8.724
588.73	8.478
589.06	9.224
589.40	8.889
589.73	8.694
590.07	8.897
590.40	8.769
590.73	9.290
591.07	9.768
591.40	9.152
591.74	9.524
592.07	9.162
592.41	9.260
592.74	8.539
593.08	8.827
593.41	8.447
593.75	8.557
594.08	8.280
594.41	8.943
594.75	9.094
595.08	8.590
595.42	8.932
595.75	8.476
596.09	9.163
596.42	9.037
596.75	9.455
597.09	9.610
597.42	9.022
597.75	9.185
598.09	9.739
598.42	8.720
598.76	8.472
599.09	8.324
599.42	8.261
599.76	8.382
600.09	8.051
600.42	8.437
600.76	8.179
601.09	7.905
601.42	8.980
601.76	8.767
602.09	8.854
602.42	8.798
602.76	9.190
603.09	8.851
603.42	8.825
603.76	8.727
604.09	8.879
604.42	8.683
604.76	9.237
605.09	9.611
605.42	8.722
605.75	8.858
606.09	8.662
606.42	8.255
606.75	9.125
607.09	9.000
607.42	8.815
607.75	8.186
608.08	8.728
608.42	9.682
608.75	9.197
609.08	9.204
609.41	9.614
609.75	9.052
610.08	9.661
610.41	8.845
610.74	8.420
611.07	9.783
611.41	9.274
611.74	9.754
612.07	9.161
612.40	9.129
612.73	9.263
613.07	9.483
613.40	9.479
613.73	8.967
614.06	9.624
614.39	9.858
614.72	10.211
615.06	9.611
615.39	8.439
615.72	8.845
616.05	9.463
616.38	9.561
616.71	10.036
617.05	9.953
617.38	8.900
617.71	8.589
618.04	9.736
618.37	10.231
618.70	10.081
619.03	10.395
619.36	10.930
619.69	9.507
620.03	9.959
620.36	10.628
620.69	10.685
621.02	10.619
621.35	10.415
621.68	9.657
622.01	10.372
622.34	10.666
622.67	9.734
623.00	9.831
623.33	10.079
623.66	10.365
623.99	9.720
624.32	9.272
624.65	11.088
624.99	9.348
625.32	9.993
625.65	10.143
625.98	10.838
626.31	11.275
626.64	11.020
626.97	10.141
627.30	9.476
627.63	10.829
627.96	11.438
628.29	11.549
628.62	12.351
628.95	12.358
629.28	11.953
629.61	12.191
629.94	11.429
630.26	11.249
630.59	11.249
630.92	11.015
631.25	10.563
631.58	12.012
631.91	10.041
632.24	10.759
632.57	12.277
632.90	12.829
633.23	12.528
633.56	13.559
633.89	12.118
634.22	12.940
634.55	13.728
634.88	12.096
635.20	12.306
635.53	13.976
