SpectraSuite Data File
++++++++++++++++++++++++++++++++++++
Date: Wed May 13 19:31:41 PDT 2015
User: schluterlab
Dark Spectrum Present: Yes
Reference Spectrum Present: Yes
Number of Sampled Component Spectra: 1
Spectrometers: USB2E3373
Integration Time (usec): 3000 (USB2E3373)
Spectra Averaged: 3 (USB2E3373)
Boxcar Smoothing: 0 (USB2E3373)
Correct for Electrical Dark: No (USB2E3373)
Strobe/Lamp Enabled: No (USB2E3373)
Correct for Detector Non-linearity: No (USB2E3373)
Correct for Stray Light: No (USB2E3373)
Number of Pixels in Processed Spectrum: 2048
>>>>>Begin Processed Spectral Data<<<<<
178.53	0.000
178.91	-1400.000
179.29	-1425.000
179.67	-255.556
180.04	-1650.000
180.42	2500.000
180.80	1080.000
181.18	-1125.000
181.56	728.571
181.94	0.000
182.31	-714.286
182.69	1866.667
183.07	-587.500
183.45	-511.111
183.83	545.455
184.20	-490.000
184.58	2500.000
184.96	5500.000
185.34	-960.000
185.72	-625.000
186.09	-2800.000
186.47	3050.000
186.85	2750.000
187.23	5100.000
187.61	-1533.333
187.98	1350.000
188.36	581.818
188.74	490.909
189.12	-920.000
189.49	610.000
189.87	-3900.000
190.25	-1125.000
190.63	478.571
191.00	461.538
191.38	866.667
191.76	-1225.000
192.14	1250.000
192.51	712.500
192.89	1033.333
193.27	712.500
193.65	-1425.000
194.02	630.000
194.40	820.000
194.78	650.000
195.15	616.667
195.53	600.000
195.91	-2600.000
196.29	393.750
196.66	289.474
197.04	-390.000
197.42	0.000
197.79	640.000
198.17	-4300.000
198.55	714.286
198.92	725.000
199.30	880.000
199.68	0.000
200.05	366.667
200.43	800.000
200.81	4600.000
201.18	1800.000
201.56	-1866.667
201.94	455.556
202.31	700.000
202.69	433.333
203.07	620.000
203.44	0.000
203.82	1575.000
204.19	828.571
204.57	485.714
204.95	712.500
205.32	1700.000
205.70	463.636
206.08	407.143
206.45	2600.000
206.83	375.000
207.20	866.667
207.58	960.000
207.96	294.444
208.33	662.500
208.71	-983.333
209.08	714.286
209.46	666.667
209.84	554.545
210.21	-1466.667
210.59	1300.000
210.96	-550.000
211.34	2700.000
211.71	570.000
212.09	783.333
212.46	0.000
212.84	1800.000
213.22	1275.000
213.59	-5100.000
213.97	983.333
214.34	857.143
214.72	554.545
215.09	1080.000
215.47	-2950.000
215.84	-2300.000
216.22	1566.667
216.59	514.286
216.97	1225.000
217.34	509.091
217.72	-866.667
218.09	0.000
218.47	-5800.000
218.84	700.000
219.22	785.714
219.59	1566.667
219.97	-600.000
220.34	1000.000
220.72	-1900.000
221.09	392.857
221.47	1600.000
221.84	-1016.667
222.22	0.000
222.59	1425.000
222.97	-2500.000
223.34	900.000
223.72	507.692
224.09	1260.000
224.46	2500.000
224.84	-5800.000
225.21	-980.000
225.59	-5500.000
225.96	560.000
226.34	365.000
226.71	2550.000
227.08	825.000
227.46	650.000
227.83	-1250.000
228.21	-2150.000
228.58	644.444
228.95	-3050.000
229.33	-2500.000
229.70	1600.000
230.08	800.000
230.45	-860.000
230.82	491.667
231.20	800.000
231.57	757.143
231.95	516.667
232.32	295.455
232.69	445.455
233.07	685.714
233.44	315.385
233.81	-1700.000
234.19	294.737
234.56	441.667
234.93	516.667
235.31	490.909
235.68	453.846
236.05	385.714
236.43	172.727
236.80	321.053
237.17	5000.000
237.55	261.905
237.92	221.429
238.29	300.000
238.67	190.323
239.04	162.069
239.41	155.556
239.79	141.304
240.16	157.143
240.53	122.727
240.91	121.569
241.28	140.000
241.65	130.000
242.02	107.246
242.40	100.000
242.77	110.000
243.14	66.667
243.51	85.393
243.89	80.000
244.26	74.444
244.63	84.946
245.00	70.213
245.38	79.208
245.75	67.290
246.12	75.229
246.49	65.693
246.87	69.600
247.24	66.154
247.61	70.000
247.98	60.784
248.36	53.378
248.73	49.682
249.10	60.510
249.47	52.542
249.84	49.733
250.22	48.128
250.59	55.030
250.96	47.980
251.33	49.763
251.70	52.970
252.08	47.143
252.45	47.982
252.82	40.000
253.19	47.234
253.56	44.706
253.94	47.718
254.31	42.969
254.68	45.385
255.05	38.745
255.42	45.122
255.79	41.176
256.16	41.516
256.54	38.163
256.91	44.484
257.28	36.331
257.65	42.904
258.02	40.373
258.39	37.539
258.76	36.455
259.14	37.202
259.51	40.426
259.88	37.267
260.25	38.369
260.62	37.572
260.99	38.199
261.36	40.841
261.73	38.682
262.10	36.919
262.47	36.338
262.85	40.111
263.22	36.182
263.59	37.607
263.96	33.791
264.33	36.292
264.70	37.368
265.07	39.386
265.44	37.374
265.81	33.820
266.18	36.432
266.55	34.146
266.92	36.364
267.29	35.880
267.66	34.404
268.03	34.318
268.40	34.112
268.77	33.652
269.14	31.306
269.51	34.537
269.88	34.499
270.25	36.569
270.62	33.708
270.99	33.763
271.36	30.687
271.73	33.879
272.10	32.174
272.47	33.548
272.84	33.766
273.21	33.124
273.58	31.441
273.95	29.769
274.32	32.025
274.69	34.904
275.06	29.921
275.43	30.851
275.80	34.068
276.17	30.143
276.54	32.017
276.91	33.004
277.28	30.469
277.65	32.108
278.02	32.298
278.39	31.641
278.76	31.273
279.13	29.623
279.50	28.119
279.87	31.873
280.23	31.337
280.60	30.754
280.97	31.423
281.34	32.743
281.71	30.909
282.08	32.630
282.45	29.636
282.82	28.242
283.19	27.094
283.56	29.825
283.92	30.964
284.29	29.630
284.66	29.401
285.03	29.295
285.40	28.697
285.77	28.620
286.14	28.152
286.51	28.000
286.87	28.889
287.24	30.619
287.61	27.127
287.98	28.571
288.35	27.258
288.72	27.259
289.08	28.169
289.45	26.359
289.82	27.967
290.19	25.432
290.56	26.340
290.93	25.227
291.29	27.454
291.66	26.106
292.03	26.453
292.40	26.432
292.77	25.000
293.13	25.970
293.50	26.093
293.87	24.741
294.24	24.000
294.60	23.581
294.97	23.983
295.34	26.657
295.71	24.006
296.08	23.789
296.44	23.246
296.81	22.589
297.18	25.339
297.55	22.032
297.91	23.087
298.28	22.758
298.65	23.890
299.02	23.320
299.38	22.444
299.75	21.294
300.12	21.711
300.48	21.375
300.85	22.318
301.22	21.783
301.59	20.707
301.95	21.411
302.32	21.309
302.69	20.072
303.05	20.970
303.42	20.247
303.79	21.291
304.15	19.697
304.52	21.784
304.89	20.441
305.25	19.374
305.62	21.291
305.99	20.425
306.35	19.687
306.72	20.740
307.09	19.978
307.45	20.721
307.82	20.759
308.19	19.536
308.55	20.280
308.92	20.838
309.29	19.324
309.65	19.300
310.02	19.979
310.38	19.355
310.75	18.691
311.12	19.243
311.48	19.645
311.85	20.860
312.22	19.771
312.58	19.439
312.95	20.486
313.31	19.126
313.68	19.751
314.05	21.006
314.41	19.598
314.78	18.429
315.14	18.769
315.51	18.641
315.87	20.000
316.24	18.868
316.61	18.031
316.97	18.591
317.34	18.395
317.70	18.642
318.07	19.442
318.43	19.667
318.80	19.400
319.16	18.362
319.53	18.293
319.89	20.571
320.26	18.600
320.62	19.246
320.99	19.899
321.35	19.697
321.72	20.226
322.08	18.855
322.45	19.701
322.81	18.605
323.18	19.364
323.54	18.553
323.91	18.208
324.27	18.929
324.64	18.360
325.00	18.124
325.37	18.926
325.73	19.479
326.10	17.829
326.46	19.892
326.83	18.809
327.19	19.385
327.56	17.944
327.92	17.673
328.29	18.900
328.65	19.705
329.01	17.780
329.38	17.854
329.74	18.283
330.11	18.473
330.47	19.008
330.84	20.221
331.20	17.031
331.56	19.083
331.93	17.963
332.29	18.634
332.66	18.496
333.02	18.739
333.38	17.796
333.75	18.806
334.11	18.149
334.48	18.367
334.84	18.658
335.20	18.364
335.57	17.770
335.93	17.768
336.29	18.223
336.66	18.305
337.02	17.828
337.38	17.778
337.75	17.112
338.11	17.368
338.47	17.680
338.84	18.790
339.20	16.972
339.56	19.069
339.93	16.909
340.29	17.482
340.65	18.271
341.02	17.714
341.38	17.972
341.74	17.281
342.11	17.991
342.47	17.709
342.83	17.038
343.20	17.835
343.56	16.765
343.92	16.930
344.28	17.942
344.65	17.971
345.01	17.340
345.37	16.895
345.73	17.682
346.10	18.414
346.46	17.881
346.82	17.957
347.19	16.040
347.55	17.406
347.91	16.990
348.27	17.173
348.63	17.308
349.00	17.961
349.36	17.077
349.72	16.680
350.08	15.397
350.45	16.843
350.81	16.734
351.17	17.180
351.53	16.871
351.89	16.089
352.26	17.285
352.62	16.520
352.98	16.613
353.34	17.009
353.70	15.139
354.07	16.532
354.43	15.317
354.79	16.653
355.15	16.361
355.51	17.506
355.87	17.061
356.24	16.938
356.60	16.359
356.96	16.895
357.32	16.190
357.68	16.535
358.04	15.756
358.40	16.785
358.77	16.432
359.13	15.627
359.49	16.157
359.85	14.921
360.21	16.348
360.57	16.109
360.93	16.538
361.29	16.402
361.66	15.712
362.02	16.791
362.38	16.122
362.74	15.699
363.10	15.396
363.46	15.481
363.82	15.722
364.18	15.639
364.54	16.939
364.90	16.431
365.26	16.691
365.62	16.216
365.98	15.705
366.35	15.115
366.71	15.691
367.07	15.950
367.43	15.602
367.79	15.917
368.15	16.739
368.51	15.552
368.87	16.560
369.23	15.874
369.59	15.713
369.95	15.074
370.31	15.812
370.67	15.435
371.03	17.154
371.39	15.525
371.75	14.926
372.11	15.647
372.47	15.396
372.83	16.282
373.19	14.957
373.55	15.743
373.91	15.979
374.27	14.777
374.63	14.836
374.99	15.537
375.35	15.352
375.71	14.942
376.07	16.392
376.42	16.025
376.78	15.639
377.14	15.061
377.50	15.166
377.86	15.758
378.22	15.107
378.58	14.850
378.94	14.896
379.30	14.377
379.66	15.038
380.02	15.418
380.38	13.722
380.74	15.546
381.09	15.403
381.45	15.857
381.81	14.803
382.17	15.159
382.53	15.220
382.89	15.556
383.25	13.696
383.61	14.746
383.97	15.322
384.32	14.348
384.68	14.684
385.04	13.768
385.40	14.118
385.76	14.496
386.12	15.155
386.48	14.789
386.83	15.266
387.19	16.079
387.55	15.337
387.91	14.450
388.27	14.899
388.62	15.489
388.98	14.619
389.34	15.394
389.70	14.776
390.06	14.702
390.42	15.759
390.77	15.267
391.13	15.061
391.49	15.736
391.85	14.513
392.20	14.132
392.56	15.088
392.92	14.479
393.28	14.379
393.64	14.269
393.99	15.211
394.35	13.834
394.71	14.555
395.07	15.265
395.42	15.389
395.78	14.949
396.14	15.208
396.50	15.226
396.85	14.812
397.21	14.242
397.57	14.879
397.92	14.844
398.28	14.238
398.64	15.233
399.00	14.773
399.35	13.536
399.71	15.220
400.07	14.962
400.42	15.153
400.78	15.259
401.14	14.268
401.49	15.284
401.85	14.398
402.21	14.431
402.57	14.374
402.92	15.385
403.28	15.303
403.63	14.295
403.99	13.694
404.35	14.485
404.70	14.388
405.06	14.502
405.42	14.598
405.77	14.286
406.13	14.786
406.49	14.015
406.84	14.353
407.20	14.007
407.55	14.805
407.91	14.333
408.27	14.550
408.62	14.630
408.98	14.461
409.34	15.068
409.69	14.903
410.05	14.560
410.40	14.740
410.76	15.114
411.11	14.897
411.47	13.994
411.83	14.966
412.18	13.544
412.54	15.816
412.89	14.578
413.25	14.168
413.60	15.689
413.96	15.118
414.31	14.763
414.67	15.209
415.03	15.033
415.38	15.335
415.74	14.662
416.09	15.153
416.45	15.060
416.80	14.871
417.16	15.416
417.51	14.997
417.87	14.644
418.22	15.016
418.58	15.429
418.93	15.725
419.29	15.150
419.64	15.554
420.00	15.549
420.35	15.362
420.71	15.302
421.06	14.558
421.42	14.678
421.77	14.854
422.12	14.374
422.48	13.923
422.83	14.560
423.19	14.641
423.54	15.032
423.90	14.957
424.25	15.410
424.61	15.298
424.96	14.461
425.31	14.563
425.67	14.944
426.02	14.914
426.38	15.140
426.73	14.453
427.09	14.833
427.44	15.181
427.79	14.204
428.15	15.000
428.50	14.277
428.85	15.077
429.21	14.191
429.56	13.790
429.92	14.494
430.27	14.399
430.62	13.876
430.98	14.997
431.33	14.845
431.68	14.869
432.04	14.856
432.39	15.077
432.74	15.560
433.10	15.507
433.45	15.102
433.80	14.191
434.16	15.118
434.51	14.789
434.86	15.165
435.22	15.064
435.57	15.502
435.92	15.331
436.28	14.769
436.63	15.784
436.98	14.425
437.34	15.564
437.69	16.219
438.04	14.784
438.39	15.045
438.75	15.340
439.10	15.698
439.45	15.348
439.81	14.743
440.16	14.512
440.51	14.411
440.86	14.939
441.22	14.961
441.57	14.862
441.92	15.609
442.27	14.316
442.63	14.639
442.98	15.662
443.33	14.783
443.68	14.507
444.03	14.837
444.39	14.070
444.74	15.097
445.09	15.040
445.44	15.473
445.79	14.151
446.15	14.505
446.50	14.324
446.85	14.183
447.20	15.196
447.55	14.294
447.91	14.837
448.26	15.804
448.61	14.698
448.96	15.282
449.31	15.523
449.66	15.644
450.02	14.986
450.37	16.043
450.72	14.946
451.07	15.113
451.42	14.711
451.77	15.796
452.12	14.954
452.47	15.983
452.83	15.909
453.18	15.465
453.53	16.821
453.88	15.535
454.23	16.378
454.58	16.111
454.93	16.020
455.28	15.337
455.63	15.352
455.98	16.190
456.34	15.829
456.69	16.030
457.04	16.780
457.39	15.313
457.74	16.019
458.09	15.699
458.44	15.964
458.79	14.967
459.14	16.253
459.49	15.003
459.84	15.568
460.19	15.027
460.54	15.220
460.89	15.688
461.24	15.301
461.59	16.851
461.94	15.475
462.29	16.617
462.64	15.890
462.99	16.200
463.34	15.733
463.69	16.385
464.04	16.290
464.39	16.000
464.74	16.993
465.09	15.259
465.44	15.069
465.79	15.772
466.14	15.271
466.49	16.129
466.84	15.879
467.19	16.657
467.54	16.625
467.89	15.546
468.24	17.103
468.59	17.155
468.94	16.249
469.29	17.031
469.64	16.533
469.99	17.862
470.34	17.107
470.68	16.595
471.03	17.007
471.38	17.582
471.73	17.588
472.08	17.566
472.43	16.646
472.78	16.261
473.13	17.266
473.48	17.041
473.83	17.622
474.17	16.988
474.52	17.680
474.87	16.871
475.22	16.889
475.57	16.550
475.92	16.516
476.27	16.516
476.61	15.885
476.96	16.108
477.31	16.797
477.66	17.177
478.01	16.989
478.36	16.764
478.70	15.940
479.05	16.613
479.40	16.786
479.75	16.980
480.10	16.799
480.45	16.278
480.79	16.149
481.14	16.634
481.49	17.276
481.84	16.644
482.19	16.765
482.53	16.009
482.88	16.426
483.23	16.355
483.58	16.652
483.92	16.589
484.27	15.556
484.62	15.603
484.97	15.806
485.31	15.788
485.66	14.012
486.01	13.136
486.36	12.536
486.70	12.665
487.05	12.855
487.40	13.611
487.75	13.417
488.09	14.255
488.44	14.176
488.79	15.154
489.13	15.432
489.48	15.987
489.83	16.487
490.17	17.098
490.52	16.918
490.87	17.142
491.22	16.644
491.56	16.811
491.91	16.659
492.26	16.674
492.60	16.866
492.95	16.791
493.30	17.243
493.64	17.079
493.99	16.342
494.34	17.391
494.68	17.628
495.03	17.904
495.37	17.450
495.72	18.031
496.07	17.865
496.41	16.726
496.76	16.755
497.11	17.335
497.45	17.373
497.80	17.418
498.14	17.681
498.49	17.659
498.84	17.354
499.18	17.571
499.53	18.091
499.87	17.521
500.22	17.664
500.56	18.204
500.91	17.837
501.26	17.022
501.60	18.272
501.95	17.140
502.29	17.901
502.64	17.784
502.98	16.456
503.33	17.779
503.67	16.845
504.02	17.680
504.36	17.735
504.71	17.782
505.06	17.928
505.40	18.182
505.75	17.840
506.09	17.736
506.44	17.908
506.78	18.315
507.13	18.778
507.47	18.687
507.82	18.693
508.16	18.541
508.51	19.178
508.85	19.067
509.19	18.469
509.54	19.388
509.88	18.496
510.23	18.149
510.57	19.608
510.92	19.472
511.26	18.397
511.61	19.502
511.95	18.580
512.30	18.770
512.64	19.130
512.98	19.829
513.33	19.861
513.67	19.317
514.02	20.076
514.36	20.317
514.70	20.642
515.05	20.134
515.39	20.808
515.74	20.552
516.08	21.409
516.42	20.533
516.77	21.460
517.11	20.144
517.46	20.880
517.80	21.196
518.14	20.672
518.49	20.945
518.83	21.193
519.17	21.189
519.52	20.883
519.86	21.392
520.20	21.214
520.55	21.604
520.89	21.776
521.23	22.678
521.58	21.369
521.92	21.249
522.26	21.843
522.61	21.807
522.95	21.854
523.29	21.911
523.64	21.951
523.98	21.503
524.32	22.256
524.66	22.309
525.01	22.488
525.35	21.623
525.69	21.367
526.04	22.243
526.38	21.599
526.72	22.454
527.06	23.101
527.41	21.040
527.75	21.994
528.09	24.085
528.43	23.327
528.78	22.311
529.12	21.515
529.46	22.045
529.80	22.958
530.15	22.555
530.49	22.769
530.83	23.165
531.17	23.303
531.51	23.930
531.86	22.516
532.20	22.229
532.54	24.087
532.88	23.363
533.22	22.174
533.57	22.531
533.91	22.155
534.25	21.993
534.59	21.415
534.93	22.011
535.27	21.786
535.62	22.527
535.96	22.599
536.30	22.123
536.64	22.730
536.98	22.362
537.32	22.383
537.66	22.800
538.01	22.317
538.35	22.560
538.69	22.846
539.03	22.222
539.37	22.173
539.71	21.322
540.05	22.810
540.39	22.060
540.73	21.475
541.07	22.842
541.42	23.092
541.76	22.645
542.10	22.316
542.44	22.252
542.78	23.847
543.12	21.945
543.46	21.836
543.80	22.251
544.14	21.759
544.48	22.286
544.82	22.001
545.16	22.251
545.50	21.722
545.84	23.051
546.18	23.434
546.52	23.262
546.86	23.024
547.20	22.387
547.54	22.779
547.88	22.704
548.22	22.291
548.56	22.264
548.90	21.639
549.24	22.290
549.58	22.647
549.92	22.734
550.26	23.437
550.60	22.960
550.94	22.958
551.28	22.604
551.62	23.652
551.96	22.947
552.30	23.549
552.64	24.341
552.98	22.983
553.32	23.196
553.66	24.199
554.00	23.267
554.34	23.188
554.68	24.320
555.02	23.695
555.36	22.965
555.69	22.936
556.03	23.755
556.37	22.101
556.71	22.442
557.05	23.319
557.39	23.933
557.73	23.641
558.07	23.930
558.41	24.096
558.75	24.320
559.08	24.609
559.42	24.717
559.76	23.897
560.10	23.483
560.44	22.362
560.78	22.888
561.12	22.757
561.45	23.990
561.79	22.544
562.13	22.938
562.47	23.770
562.81	24.128
563.15	23.144
563.48	24.138
563.82	22.701
564.16	22.760
564.50	22.331
564.84	21.555
565.17	22.329
565.51	23.514
565.85	22.589
566.19	21.102
566.52	21.533
566.86	22.905
567.20	22.818
567.54	21.518
567.88	20.913
568.21	20.741
568.55	20.020
568.89	19.796
569.23	18.449
569.56	18.381
569.90	18.113
570.24	17.510
570.57	16.899
570.91	16.257
571.25	16.306
571.59	16.230
571.92	15.380
572.26	15.511
572.60	15.886
572.93	15.622
573.27	16.149
573.61	15.355
573.95	15.607
574.28	15.377
574.62	15.282
574.96	14.958
575.29	14.549
575.63	14.787
575.97	14.606
576.30	15.268
576.64	15.062
576.98	14.244
577.31	14.325
577.65	14.484
577.98	14.013
578.32	13.761
578.66	14.298
578.99	14.266
579.33	14.694
579.67	14.352
580.00	14.457
580.34	14.357
580.67	14.276
581.01	14.617
581.35	14.072
581.68	14.041
582.02	13.556
582.35	13.490
582.69	13.720
583.02	14.103
583.36	14.111
583.70	14.785
584.03	14.655
584.37	15.336
584.70	15.282
585.04	15.166
585.37	14.655
585.71	14.638
586.04	14.641
586.38	15.204
586.72	15.162
587.05	15.431
587.39	14.908
587.72	15.305
588.06	14.674
588.39	15.473
588.73	15.371
589.06	16.080
589.40	16.195
589.73	16.579
590.07	16.477
590.40	16.770
590.73	17.174
591.07	17.582
591.40	17.925
591.74	17.965
592.07	18.106
592.41	17.611
592.74	16.966
593.08	15.889
593.41	15.660
593.75	15.615
594.08	16.225
594.41	16.614
594.75	16.451
595.08	16.392
595.42	16.602
595.75	16.061
596.09	17.199
596.42	17.132
596.75	18.024
597.09	18.571
597.42	17.580
597.75	17.853
598.09	18.261
598.42	17.826
598.76	17.471
599.09	16.648
599.42	16.812
599.76	16.874
600.09	16.503
600.42	16.837
600.76	16.143
601.09	16.794
601.42	17.161
601.76	16.926
602.09	16.482
602.42	17.834
602.76	17.332
603.09	17.113
603.42	17.025
603.76	16.463
604.09	16.673
604.42	17.856
604.76	17.883
605.09	17.868
605.42	17.657
605.75	17.839
606.09	17.161
606.42	16.837
606.75	17.545
607.09	17.999
607.42	17.587
607.75	17.468
608.08	17.586
608.42	18.153
608.75	17.899
609.08	18.455
609.41	18.325
609.75	18.723
610.08	18.332
610.41	17.644
610.74	17.975
611.07	18.577
611.41	18.449
611.74	18.803
612.07	19.565
612.40	19.203
612.73	19.368
613.07	19.558
613.40	19.326
613.73	19.192
614.06	18.656
614.39	19.507
614.72	19.421
615.06	19.643
615.39	19.427
615.72	18.916
616.05	19.086
616.38	19.900
616.71	19.834
617.05	19.906
617.38	20.084
617.71	20.180
618.04	21.575
618.37	21.112
618.70	21.344
619.03	21.711
619.36	23.014
619.69	22.535
620.03	22.390
620.36	21.791
620.69	22.534
621.02	23.156
621.35	23.493
621.68	22.741
622.01	23.916
622.34	23.298
622.67	23.346
623.00	22.671
623.33	23.302
623.66	21.944
623.99	23.564
624.32	22.967
624.65	21.822
624.99	22.521
625.32	21.651
625.65	23.742
625.98	24.596
626.31	24.650
626.64	24.327
626.97	25.270
627.30	23.441
627.63	24.856
627.96	24.811
628.29	26.247
628.62	25.526
628.95	27.547
629.28	25.730
629.61	27.223
629.94	26.857
630.26	26.406
630.59	27.073
630.92	26.916
