SpectraSuite Data File
++++++++++++++++++++++++++++++++++++
Date: Wed May 13 19:55:38 PDT 2015
User: schluterlab
Dark Spectrum Present: Yes
Reference Spectrum Present: Yes
Number of Sampled Component Spectra: 1
Spectrometers: USB2E3373
Integration Time (usec): 3000 (USB2E3373)
Spectra Averaged: 3 (USB2E3373)
Boxcar Smoothing: 0 (USB2E3373)
Correct for Electrical Dark: No (USB2E3373)
Strobe/Lamp Enabled: No (USB2E3373)
Correct for Detector Non-linearity: No (USB2E3373)
Correct for Stray Light: No (USB2E3373)
Number of Pixels in Processed Spectrum: 2048
>>>>>Begin Processed Spectral Data<<<<<
178.53	0.000
178.91	-1175.000
179.29	-1350.000
179.67	-288.889
180.04	-1525.000
180.42	2700.000
180.80	1000.000
181.18	-1275.000
181.56	800.000
181.94	0.000
182.31	-728.571
182.69	1633.333
183.07	-537.500
183.45	-566.667
183.83	509.091
184.20	-400.000
184.58	2000.000
184.96	6100.000
185.34	-920.000
185.72	-650.000
186.09	-2400.000
186.47	2950.000
186.85	3100.000
187.23	6500.000
187.61	-1700.000
187.98	1275.000
188.36	509.091
188.74	527.273
189.12	-1020.000
189.49	600.000
189.87	-4800.000
190.25	-1425.000
190.63	407.143
191.00	484.615
191.38	733.333
191.76	-1175.000
192.14	1575.000
192.51	712.500
192.89	1016.667
193.27	675.000
193.65	-1250.000
194.02	450.000
194.40	1000.000
194.78	600.000
195.15	566.667
195.53	760.000
195.91	-1750.000
196.29	381.250
196.66	310.526
197.04	-380.000
197.42	0.000
197.79	660.000
198.17	-4500.000
198.55	700.000
198.92	687.500
199.30	940.000
199.68	0.000
200.05	372.222
200.43	871.429
200.81	5100.000
201.18	1733.333
201.56	-1500.000
201.94	588.889
202.31	588.889
202.69	491.667
203.07	700.000
203.44	0.000
203.82	1225.000
204.19	771.429
204.57	457.143
204.95	637.500
205.32	1433.333
205.70	618.182
206.08	407.143
206.45	2750.000
206.83	400.000
207.20	933.333
207.58	880.000
207.96	316.667
208.33	850.000
208.71	-1116.667
209.08	814.286
209.46	588.889
209.84	490.909
210.21	-1466.667
210.59	1550.000
210.96	-512.500
211.34	2600.000
211.71	620.000
212.09	866.667
212.46	0.000
212.84	2133.333
213.22	1225.000
213.59	-4500.000
213.97	850.000
214.34	957.143
214.72	572.727
215.09	1220.000
215.47	-2300.000
215.84	-2800.000
216.22	1800.000
216.59	400.000
216.97	1475.000
217.34	472.727
217.72	-883.333
218.09	0.000
218.47	-5300.000
218.84	644.444
219.22	828.571
219.59	1633.333
219.97	-542.857
220.34	1140.000
220.72	-1833.333
221.09	421.429
221.47	1650.000
221.84	-950.000
222.22	0.000
222.59	1225.000
222.97	-2750.000
223.34	1140.000
223.72	461.538
224.09	1160.000
224.46	2100.000
224.84	-4100.000
225.21	-1300.000
225.59	-5100.000
225.96	640.000
226.34	295.000
226.71	2650.000
227.08	675.000
227.46	580.000
227.83	-1225.000
228.21	-2700.000
228.58	588.889
228.95	-2750.000
229.33	-2800.000
229.70	1766.667
230.08	671.429
230.45	-800.000
230.82	458.333
231.20	933.333
231.57	614.286
231.95	500.000
232.32	231.818
232.69	409.091
233.07	685.714
233.44	346.154
233.81	-1800.000
234.19	373.684
234.56	566.667
234.93	475.000
235.31	445.455
235.68	384.615
236.05	357.143
236.43	178.788
236.80	284.211
237.17	4100.000
237.55	304.762
237.92	217.857
238.29	300.000
238.67	180.645
239.04	231.034
239.41	161.111
239.79	143.478
240.16	173.810
240.53	181.818
240.91	143.137
241.28	132.000
241.65	138.000
242.02	120.290
242.40	112.903
242.77	125.000
243.14	97.849
243.51	100.000
243.89	97.647
244.26	92.222
244.63	84.946
245.00	85.106
245.38	87.129
245.75	74.766
246.12	77.064
246.49	78.102
246.87	84.000
247.24	75.385
247.61	72.857
247.98	64.052
248.36	70.946
248.73	67.516
249.10	66.879
249.47	63.842
249.84	65.241
250.22	63.636
250.59	65.680
250.96	64.141
251.33	64.929
251.70	65.842
252.08	61.905
252.45	57.848
252.82	56.522
253.19	60.426
253.56	59.608
253.94	56.432
254.31	57.812
254.68	56.154
255.05	51.292
255.42	52.846
255.79	57.721
256.16	54.874
256.54	49.823
256.91	53.025
257.28	52.518
257.65	50.825
258.02	52.174
258.39	48.580
258.76	50.502
259.14	47.619
259.51	48.632
259.88	49.689
260.25	48.338
260.62	48.844
260.99	52.174
261.36	50.751
261.73	49.284
262.10	46.512
262.47	52.394
262.85	48.747
263.22	45.584
263.59	48.148
263.96	46.703
264.33	44.386
264.70	48.158
265.07	46.036
265.44	47.222
265.81	45.985
266.18	47.739
266.55	49.268
266.92	46.683
267.29	43.981
267.66	43.807
268.03	45.000
268.40	46.028
268.77	44.153
269.14	44.144
269.51	46.501
269.88	45.921
270.25	43.567
270.62	43.820
270.99	43.441
271.36	45.064
271.73	44.860
272.10	45.000
272.47	44.946
272.84	41.775
273.21	43.396
273.58	39.083
273.95	39.203
274.32	42.769
274.69	43.469
275.06	38.780
275.43	45.106
275.80	40.681
276.17	40.937
276.54	44.283
276.91	42.292
277.28	40.625
277.65	41.199
278.02	42.029
278.39	39.258
278.76	42.000
279.13	39.434
279.50	43.389
279.87	39.442
280.23	41.717
280.60	39.458
280.97	40.296
281.34	40.354
281.71	40.545
282.08	40.499
282.45	39.091
282.82	40.320
283.19	39.216
283.56	39.825
283.92	41.794
284.29	38.272
284.66	40.653
285.03	39.421
285.40	39.789
285.77	40.741
286.14	38.515
286.51	39.833
286.87	39.658
287.24	40.228
287.61	39.005
287.98	38.799
288.35	37.084
288.72	36.137
289.08	38.498
289.45	37.562
289.82	36.098
290.19	36.107
290.56	35.681
290.93	35.801
291.29	35.736
291.66	35.398
292.03	36.047
292.40	36.858
292.77	34.467
293.13	34.776
293.50	34.548
293.87	35.704
294.24	36.148
294.60	35.517
294.97	34.593
295.34	34.838
295.71	34.517
296.08	33.048
296.44	34.801
296.81	33.686
297.18	35.637
297.55	32.586
297.91	33.509
298.28	34.940
298.65	33.551
299.02	33.070
299.38	32.669
299.75	33.423
300.12	32.056
300.48	34.375
300.85	32.306
301.22	32.611
301.59	32.449
301.95	31.612
302.32	33.376
302.69	34.767
303.05	32.121
303.42	33.457
303.79	31.370
304.15	31.352
304.52	30.591
304.89	32.520
305.25	32.599
305.62	32.276
305.99	34.475
306.35	31.320
306.72	33.408
307.09	32.963
307.45	34.685
307.82	33.036
308.19	31.898
308.55	33.549
308.92	33.405
309.29	32.629
309.65	33.722
310.02	33.298
310.38	33.118
310.75	34.952
311.12	34.391
311.48	35.110
311.85	35.430
312.22	35.068
312.58	35.031
312.95	36.959
313.31	35.049
313.68	37.318
314.05	37.475
314.41	36.985
314.78	37.865
315.14	38.133
315.51	38.517
315.87	39.307
316.24	37.339
316.61	36.940
316.97	38.160
317.34	39.335
317.70	40.153
318.07	40.135
318.43	42.172
318.80	41.425
319.16	41.902
319.53	42.308
319.89	43.143
320.26	43.700
320.62	43.155
320.99	44.040
321.35	46.061
321.72	45.688
322.08	47.088
322.45	47.861
322.81	47.578
323.18	48.748
323.54	48.980
323.91	49.717
324.27	50.191
324.64	50.979
325.00	50.225
325.37	53.321
325.73	52.693
326.10	53.222
326.46	54.480
326.83	55.134
327.19	55.252
327.56	57.143
327.92	57.218
328.29	57.675
328.65	58.195
329.01	58.755
329.38	60.222
329.74	59.649
330.11	59.472
330.47	60.239
330.84	59.375
331.20	60.656
331.56	58.532
331.93	61.759
332.29	60.337
332.66	60.265
333.02	58.867
333.38	62.150
333.75	61.586
334.11	60.943
334.48	61.224
334.84	62.776
335.20	62.818
335.57	61.469
335.93	59.375
336.29	62.271
336.66	63.841
337.02	61.538
337.38	62.222
337.75	60.695
338.11	62.041
338.47	62.523
338.84	63.703
339.20	64.220
339.56	64.142
339.93	63.000
340.29	62.500
340.65	61.943
341.02	63.264
341.38	63.167
341.74	61.754
342.11	64.105
342.47	65.022
342.83	62.072
343.20	62.424
343.56	62.005
343.92	61.930
344.28	63.605
344.65	65.348
345.01	62.374
345.37	62.521
345.73	62.437
346.10	63.853
346.46	62.627
346.82	62.521
347.19	61.571
347.55	61.330
347.91	62.783
348.27	63.681
348.63	64.214
349.00	61.650
349.36	62.562
349.72	62.149
350.08	62.966
350.45	64.036
350.81	62.713
351.17	61.994
351.53	62.654
351.89	61.469
352.26	62.194
352.62	63.111
352.98	61.669
353.34	62.202
353.70	61.047
354.07	63.226
354.43	60.238
354.79	62.188
355.15	61.532
355.51	61.471
355.87	63.429
356.24	61.889
356.60	61.828
356.96	65.084
357.32	62.224
357.68	62.126
358.04	61.916
358.40	59.857
358.77	63.224
359.13	61.010
359.49	62.745
359.85	60.556
360.21	61.005
360.57	62.023
360.93	61.846
361.29	61.300
361.66	60.294
362.02	60.896
362.38	61.901
362.74	61.458
363.10	61.436
363.46	61.702
363.82	62.207
364.18	61.601
364.54	62.927
364.90	60.907
365.26	61.544
365.62	60.628
365.98	61.359
366.35	59.742
366.71	61.678
367.07	60.743
367.43	61.103
367.79	59.957
368.15	61.638
368.51	60.247
368.87	60.742
369.23	61.448
369.59	61.622
369.95	59.559
370.31	61.111
370.67	58.986
371.03	61.049
371.39	60.204
371.75	60.441
372.11	60.028
372.47	61.364
372.83	63.040
373.19	59.754
373.55	61.936
373.91	61.708
374.27	60.000
374.63	59.200
374.99	60.805
375.35	59.735
375.71	59.698
376.07	60.288
376.42	59.766
376.78	60.040
377.14	59.159
377.50	60.066
377.86	59.176
378.22	58.660
378.58	57.080
378.94	58.831
379.30	60.178
379.66	59.391
380.02	58.354
380.38	57.438
380.74	58.824
381.09	59.108
381.45	59.496
381.81	59.152
382.17	58.854
382.53	56.918
382.89	60.123
383.25	58.161
383.61	60.223
383.97	58.161
384.32	58.079
384.68	58.364
385.04	57.714
385.40	58.452
385.76	56.941
386.12	58.096
386.48	58.527
386.83	58.884
387.19	58.380
387.55	58.071
387.91	57.316
388.27	57.020
388.62	57.775
388.98	56.511
389.34	57.071
389.70	57.695
390.06	58.428
390.42	58.106
390.77	56.934
391.13	56.477
391.49	56.345
391.85	57.034
392.20	56.909
392.56	56.250
392.92	57.034
393.28	55.562
393.64	55.875
393.99	55.956
394.35	55.955
394.71	55.521
395.07	54.766
395.42	56.799
395.78	55.598
396.14	55.431
396.50	55.952
396.85	56.707
397.21	55.795
397.57	53.999
397.92	56.070
398.28	54.036
398.64	55.914
399.00	55.176
399.35	53.864
399.71	54.167
400.07	53.814
400.42	54.847
400.78	55.308
401.14	54.756
401.49	55.164
401.85	54.688
402.21	53.713
402.57	53.856
402.92	54.729
403.28	55.715
403.63	54.394
403.99	55.096
404.35	54.606
404.70	53.417
405.06	53.116
405.42	54.211
405.77	53.029
406.13	52.878
406.49	52.336
406.84	53.337
407.20	52.778
407.55	52.840
407.91	52.733
408.27	52.904
408.62	52.860
408.98	51.900
409.34	52.583
409.69	52.000
410.05	52.602
410.40	52.232
410.76	51.912
411.11	51.267
411.47	51.757
411.83	53.207
412.18	52.134
412.54	51.308
412.89	51.446
413.25	51.476
413.60	51.575
413.96	50.030
414.31	49.878
414.67	51.584
415.03	51.921
415.38	51.224
415.74	50.675
416.09	51.535
416.45	50.937
416.80	51.223
417.16	52.614
417.51	52.157
417.87	49.583
418.22	50.915
418.58	50.291
418.93	50.430
419.29	50.095
419.64	50.756
420.00	49.878
420.35	49.275
420.71	49.074
421.06	48.150
421.42	49.708
421.77	49.720
422.12	48.400
422.48	47.976
422.83	48.573
423.19	49.006
423.54	49.275
423.90	48.638
424.25	48.576
424.61	48.869
424.96	49.155
425.31	47.951
425.67	48.371
426.02	47.486
426.38	48.657
426.73	48.449
427.09	48.389
427.44	46.751
427.79	47.211
428.15	48.333
428.50	47.864
428.85	46.901
429.21	47.432
429.56	46.812
429.92	47.056
430.27	46.326
430.62	45.776
430.98	47.379
431.33	46.134
431.68	46.702
432.04	45.580
432.39	47.002
432.74	47.696
433.10	47.821
433.45	47.172
433.80	45.011
434.16	46.314
434.51	45.895
434.86	46.351
435.22	47.971
435.57	46.201
435.92	46.752
436.28	46.085
436.63	46.468
436.98	46.079
437.34	45.558
437.69	46.091
438.04	46.768
438.39	45.433
438.75	47.066
439.10	46.034
439.45	45.396
439.81	45.740
440.16	46.019
440.51	45.284
440.86	46.091
441.22	44.939
441.57	45.488
441.92	44.319
442.27	45.102
442.63	44.550
442.98	46.085
443.33	45.598
443.68	44.915
444.03	44.217
444.39	43.963
444.74	45.400
445.09	44.151
445.44	44.833
445.79	43.840
446.15	44.521
446.50	44.696
446.85	44.142
447.20	44.008
447.55	45.059
447.91	44.346
448.26	44.296
448.61	43.754
448.96	44.850
449.31	44.938
449.66	44.007
450.02	43.900
450.37	44.161
450.72	43.260
451.07	44.607
451.42	43.222
451.77	43.981
452.12	43.649
452.47	44.279
452.83	44.580
453.18	43.521
453.53	43.847
453.88	45.481
454.23	44.531
454.58	42.762
454.93	44.183
455.28	43.641
455.63	43.447
455.98	45.238
456.34	43.907
456.69	44.458
457.04	43.715
457.39	42.724
457.74	42.948
458.09	43.128
458.44	43.387
458.79	42.570
459.14	43.059
459.49	42.148
459.84	42.715
460.19	42.251
460.54	41.262
460.89	42.128
461.24	43.412
461.59	42.882
461.94	42.602
462.29	42.671
462.64	41.927
462.99	40.989
463.34	42.067
463.69	42.402
464.04	41.739
464.39	41.507
464.74	43.494
465.09	41.858
465.44	40.886
465.79	41.051
466.14	40.668
466.49	41.435
466.84	41.623
467.19	40.857
467.54	43.500
467.89	40.996
468.24	41.070
468.59	41.941
468.94	39.462
469.29	41.902
469.64	42.102
469.99	41.137
470.34	41.149
470.68	41.523
471.03	41.837
471.38	43.224
471.73	41.239
472.08	41.513
472.43	41.080
472.78	40.487
473.13	41.078
473.48	41.573
473.83	41.159
474.17	38.830
474.52	41.005
474.87	40.572
475.22	41.033
475.57	39.387
475.92	39.883
476.27	39.797
476.61	40.265
476.96	39.967
477.31	40.084
477.66	40.098
478.01	39.310
478.36	39.979
478.70	38.993
479.05	40.096
479.40	40.020
479.75	40.112
480.10	38.767
480.45	38.553
480.79	38.844
481.14	39.188
481.49	39.535
481.84	38.134
482.19	39.073
482.53	38.349
482.88	39.088
483.23	38.692
483.58	38.308
483.92	38.472
484.27	36.906
484.62	37.414
484.97	36.973
485.31	37.123
485.66	36.283
486.01	35.520
486.36	34.048
486.70	33.986
487.05	34.980
487.40	35.087
487.75	35.542
488.09	36.366
488.44	37.058
488.79	37.794
489.13	37.395
489.48	37.235
489.83	37.592
490.17	37.790
490.52	37.245
490.87	37.178
491.22	37.244
491.56	36.492
491.91	37.087
492.26	36.977
492.60	36.866
492.95	36.109
493.30	37.430
493.64	37.844
493.99	36.955
494.34	36.910
494.68	37.729
495.03	37.124
495.37	36.994
495.72	37.573
496.07	37.633
496.41	36.018
496.76	36.368
497.11	36.515
497.45	37.122
497.80	36.804
498.14	37.053
498.49	37.610
498.84	37.009
499.18	37.048
499.53	36.895
499.87	36.486
500.22	35.610
500.56	37.184
500.91	36.346
501.26	35.657
501.60	37.162
501.95	35.472
502.29	36.692
502.64	36.546
502.98	36.232
503.33	35.512
503.67	36.102
504.02	35.921
504.36	35.330
504.71	36.150
505.06	35.470
505.40	36.461
505.75	35.101
506.09	35.617
506.44	35.915
506.78	37.068
507.13	36.396
507.47	35.707
507.82	36.677
508.16	36.221
508.51	36.073
508.85	34.955
509.19	35.102
509.54	35.612
509.88	35.909
510.23	36.041
510.57	36.687
510.92	36.354
511.26	36.125
511.61	35.373
511.95	35.230
512.30	35.684
512.64	35.411
512.98	36.013
513.33	36.510
513.67	34.845
514.02	34.957
514.36	35.554
514.70	36.082
515.05	35.917
515.39	35.670
515.74	35.191
516.08	35.774
516.42	36.737
516.77	35.284
517.11	34.129
517.46	36.512
517.80	36.469
518.14	34.916
518.49	36.114
518.83	35.739
519.17	34.758
519.52	36.446
519.86	35.881
520.20	35.434
520.55	36.326
520.89	35.706
521.23	36.671
521.58	35.894
521.92	35.762
522.26	35.204
522.61	35.763
522.95	35.421
523.29	35.423
523.64	36.463
523.98	35.675
524.32	36.188
524.66	35.719
525.01	35.662
525.35	35.254
525.69	34.667
526.04	35.265
526.38	35.509
526.72	34.969
527.06	35.970
527.41	34.158
527.75	35.113
528.09	35.902
528.43	35.692
528.78	34.726
529.12	34.667
529.46	34.721
529.80	35.334
530.15	35.078
530.49	34.462
530.83	34.810
531.17	36.358
531.51	35.538
531.86	34.645
532.20	35.137
532.54	34.785
532.88	35.366
533.22	33.354
533.57	34.877
533.91	33.293
534.25	34.690
534.59	33.984
534.93	33.076
535.27	34.641
535.62	33.883
535.96	34.903
536.30	34.711
536.64	34.643
536.98	35.368
537.32	33.970
537.66	34.267
538.01	34.891
538.35	34.066
538.69	35.418
539.03	33.853
539.37	34.377
539.71	33.052
540.05	34.248
540.39	33.821
540.73	33.959
541.07	35.042
541.42	34.312
541.76	35.290
542.10	34.476
542.44	34.371
542.78	34.914
543.12	33.653
543.46	35.016
543.80	33.572
544.14	32.798
544.48	35.492
544.82	33.098
545.16	34.092
545.50	33.290
545.84	33.737
546.18	34.276
546.52	34.825
546.86	34.227
547.20	34.322
547.54	33.734
547.88	33.673
548.22	33.313
548.56	33.333
548.90	33.483
549.24	32.795
549.58	34.175
549.92	34.615
550.26	33.949
550.60	33.748
550.94	33.803
551.28	33.285
551.62	34.292
551.96	34.035
552.30	32.491
552.64	34.483
552.98	34.169
553.32	33.648
553.66	34.219
554.00	34.111
554.34	33.195
554.68	34.263
555.02	33.568
555.36	33.473
555.69	33.221
556.03	33.378
556.37	33.902
556.71	33.356
557.05	33.123
557.39	33.030
557.73	33.028
558.07	32.922
558.41	33.936
558.75	33.578
559.08	34.079
559.42	34.240
559.76	34.779
560.10	32.905
560.44	33.333
560.78	32.335
561.12	33.311
561.45	33.246
561.79	32.762
562.13	32.864
562.47	32.377
562.81	33.961
563.15	32.241
563.48	32.427
563.82	32.290
564.16	32.178
564.50	32.682
564.84	32.427
565.17	32.625
565.51	32.971
565.85	32.360
566.19	32.498
566.52	32.679
566.86	32.610
567.20	32.134
567.54	32.021
567.88	30.798
568.21	32.222
568.55	31.598
568.89	31.323
569.23	30.570
569.56	30.000
569.90	30.226
570.24	29.386
570.57	28.936
570.91	28.668
571.25	29.216
571.59	28.483
571.92	28.917
572.26	28.481
572.60	28.889
572.93	28.096
573.27	29.074
573.61	28.504
573.95	28.424
574.28	28.367
574.62	27.964
574.96	27.742
575.29	28.104
575.63	27.998
575.97	27.675
576.30	28.040
576.64	27.824
576.98	27.856
577.31	27.934
577.65	27.166
577.98	27.764
578.32	27.025
578.66	27.547
578.99	27.482
579.33	27.838
579.67	27.901
580.00	27.787
580.34	27.860
580.67	27.417
581.01	27.682
581.35	27.388
581.68	27.283
582.02	26.885
582.35	26.835
582.69	27.610
583.02	27.370
583.36	27.531
583.70	27.897
584.03	27.586
584.37	28.221
584.70	27.978
585.04	27.960
585.37	27.446
585.71	27.467
586.04	27.156
586.38	28.265
586.72	28.141
587.05	27.628
587.39	27.599
587.72	28.008
588.06	27.375
588.39	27.929
588.73	28.425
589.06	28.576
589.40	28.114
589.73	29.004
590.07	29.039
590.40	28.681
590.73	29.040
591.07	28.978
591.40	29.355
591.74	29.264
592.07	28.578
592.41	29.475
592.74	28.352
593.08	28.015
593.41	27.713
593.75	27.264
594.08	27.891
594.41	28.137
594.75	28.835
595.08	28.060
595.42	29.457
595.75	27.920
596.09	28.952
596.42	28.880
596.75	28.746
597.09	29.048
597.42	28.035
597.75	28.288
598.09	28.826
598.42	29.081
598.76	28.618
599.09	28.544
599.42	27.584
599.76	28.331
600.09	27.104
600.42	27.283
600.76	27.429
601.09	27.577
601.42	28.082
601.76	27.628
602.09	28.419
602.42	28.742
602.76	28.577
603.09	28.521
603.42	28.426
603.76	27.744
604.09	28.150
604.42	28.781
604.76	28.764
605.09	28.222
605.42	28.260
605.75	28.518
606.09	27.979
606.42	28.075
606.75	28.702
607.09	28.338
607.42	27.942
607.75	27.384
608.08	28.875
608.42	28.014
608.75	27.908
609.08	28.446
609.41	28.415
609.75	28.156
610.08	27.851
610.41	28.166
610.74	28.288
611.07	28.557
611.41	28.312
611.74	29.010
612.07	29.141
612.40	29.276
612.73	29.421
613.07	30.119
613.40	29.279
613.73	28.369
614.06	28.978
614.39	28.631
614.72	29.000
615.06	28.466
615.39	28.291
615.72	27.965
616.05	28.761
616.38	29.183
616.71	28.682
617.05	30.035
617.38	29.044
617.71	29.009
618.04	29.087
618.37	29.391
618.70	29.683
619.03	29.803
619.36	30.007
619.69	29.085
620.03	29.670
620.36	29.412
620.69	30.137
621.02	30.088
621.35	30.854
621.68	30.140
622.01	30.495
622.34	31.241
622.67	29.886
623.00	29.200
623.33	29.235
623.66	30.093
623.99	29.602
624.32	28.673
624.65	29.449
624.99	28.754
625.32	29.544
625.65	30.353
625.98	31.360
626.31	30.482
626.64	31.510
626.97	30.590
627.30	29.925
627.63	30.763
627.96	31.119
628.29	31.321
628.62	32.205
628.95	33.208
629.28	31.387
629.61	29.881
629.94	31.333
630.26	30.791
630.59	30.791
