SpectraSuite Data File
++++++++++++++++++++++++++++++++++++
Date: Wed May 13 19:51:12 PDT 2015
User: schluterlab
Dark Spectrum Present: Yes
Reference Spectrum Present: Yes
Number of Sampled Component Spectra: 1
Spectrometers: USB2E3373
Integration Time (usec): 3000 (USB2E3373)
Spectra Averaged: 3 (USB2E3373)
Boxcar Smoothing: 0 (USB2E3373)
Correct for Electrical Dark: No (USB2E3373)
Strobe/Lamp Enabled: No (USB2E3373)
Correct for Detector Non-linearity: No (USB2E3373)
Correct for Stray Light: No (USB2E3373)
Number of Pixels in Processed Spectrum: 2048
>>>>>Begin Processed Spectral Data<<<<<
178.53	0.000
178.91	-1075.000
179.29	-1450.000
179.67	-233.333
180.04	-1425.000
180.42	2700.000
180.80	1280.000
181.18	-1250.000
181.56	742.857
181.94	0.000
182.31	-700.000
182.69	1900.000
183.07	-562.500
183.45	-488.889
183.83	545.455
184.20	-420.000
184.58	2550.000
184.96	5200.000
185.34	-840.000
185.72	-687.500
186.09	-2200.000
186.47	2500.000
186.85	2600.000
187.23	4700.000
187.61	-1700.000
187.98	1475.000
188.36	590.909
188.74	627.273
189.12	-1100.000
189.49	640.000
189.87	-5600.000
190.25	-1475.000
190.63	414.286
191.00	392.308
191.38	866.667
191.76	-1225.000
192.14	1525.000
192.51	625.000
192.89	1133.333
193.27	512.500
193.65	-1200.000
194.02	560.000
194.40	940.000
194.78	590.000
195.15	491.667
195.53	620.000
195.91	-2450.000
196.29	393.750
196.66	342.105
197.04	-310.000
197.42	0.000
197.79	640.000
198.17	-4800.000
198.55	814.286
198.92	750.000
199.30	1060.000
199.68	0.000
200.05	372.222
200.43	814.286
200.81	5200.000
201.18	1700.000
201.56	-1466.667
201.94	577.778
202.31	655.556
202.69	458.333
203.07	570.000
203.44	0.000
203.82	1325.000
204.19	871.429
204.57	442.857
204.95	662.500
205.32	1500.000
205.70	490.909
206.08	392.857
206.45	2900.000
206.83	393.750
207.20	1033.333
207.58	840.000
207.96	372.222
208.33	775.000
208.71	-783.333
209.08	757.143
209.46	600.000
209.84	581.818
210.21	-1766.667
210.59	1450.000
210.96	-550.000
211.34	3000.000
211.71	660.000
212.09	700.000
212.46	0.000
212.84	1666.667
213.22	1350.000
213.59	-4600.000
213.97	1000.000
214.34	771.429
214.72	609.091
215.09	960.000
215.47	-2450.000
215.84	-2400.000
216.22	1866.667
216.59	414.286
216.97	1400.000
217.34	463.636
217.72	-766.667
218.09	0.000
218.47	-5300.000
218.84	655.556
219.22	871.429
219.59	1766.667
219.97	-642.857
220.34	1020.000
220.72	-1700.000
221.09	414.286
221.47	1550.000
221.84	-916.667
222.22	0.000
222.59	1375.000
222.97	-3000.000
223.34	1320.000
223.72	530.769
224.09	1160.000
224.46	2450.000
224.84	-5200.000
225.21	-1000.000
225.59	-4300.000
225.96	630.000
226.34	310.000
226.71	2700.000
227.08	712.500
227.46	620.000
227.83	-1300.000
228.21	-1900.000
228.58	611.111
228.95	-2800.000
229.33	-2600.000
229.70	1633.333
230.08	914.286
230.45	-900.000
230.82	350.000
231.20	883.333
231.57	700.000
231.95	525.000
232.32	290.909
232.69	518.182
233.07	757.143
233.44	400.000
233.81	-1700.000
234.19	305.263
234.56	466.667
234.93	475.000
235.31	409.091
235.68	315.385
236.05	350.000
236.43	169.697
236.80	278.947
237.17	4600.000
237.55	285.714
237.92	232.143
238.29	247.619
238.67	187.097
239.04	217.241
239.41	147.222
239.79	119.565
240.16	145.238
240.53	147.727
240.91	98.039
241.28	96.000
241.65	106.000
242.02	97.101
242.40	90.323
242.77	88.333
243.14	74.194
243.51	82.022
243.89	76.471
244.26	65.556
244.63	65.591
245.00	64.894
245.38	60.396
245.75	62.617
246.12	51.376
246.49	54.745
246.87	66.400
247.24	55.385
247.61	53.571
247.98	49.020
248.36	46.622
248.73	50.318
249.10	49.045
249.47	48.588
249.84	48.128
250.22	39.572
250.59	40.828
250.96	43.434
251.33	40.758
251.70	41.584
252.08	36.190
252.45	36.771
252.82	33.478
253.19	37.021
253.56	33.725
253.94	34.025
254.31	32.422
254.68	33.846
255.05	33.579
255.42	34.553
255.79	33.088
256.16	32.491
256.54	31.095
256.91	35.587
257.28	24.101
257.65	29.043
258.02	28.882
258.39	29.338
258.76	30.769
259.14	29.167
259.51	29.787
259.88	28.571
260.25	29.003
260.62	28.902
260.99	30.124
261.36	28.529
261.73	26.361
262.10	26.453
262.47	27.324
262.85	28.134
263.22	24.786
263.59	28.775
263.96	23.901
264.33	28.460
264.70	28.947
265.07	27.877
265.44	27.020
265.81	21.655
266.18	24.623
266.55	25.366
266.92	27.764
267.29	25.926
267.66	23.624
268.03	25.000
268.40	23.131
268.77	23.628
269.14	24.775
269.51	24.379
269.88	25.175
270.25	25.959
270.62	24.045
270.99	24.301
271.36	25.322
271.73	26.869
272.10	20.870
272.47	25.161
272.84	23.377
273.21	24.948
273.58	21.616
273.95	21.174
274.32	22.107
274.69	21.627
275.06	22.441
275.43	22.340
275.80	22.445
276.17	21.792
276.54	23.493
276.91	21.146
277.28	19.141
277.65	23.404
278.02	19.462
278.39	23.438
278.76	22.182
279.13	25.283
279.50	22.346
279.87	22.311
280.23	21.956
280.60	22.050
280.97	20.148
281.34	23.186
281.71	23.273
282.08	21.497
282.45	19.636
282.82	19.005
283.19	18.360
283.56	21.579
283.92	19.628
284.29	19.577
284.66	19.056
285.03	19.349
285.40	19.718
285.77	21.212
286.14	17.789
286.51	21.167
286.87	19.829
287.24	19.218
287.61	18.620
287.98	19.156
288.35	19.334
288.72	17.601
289.08	17.840
289.45	20.593
289.82	20.488
290.19	17.739
290.56	18.377
290.93	17.976
291.29	18.098
291.66	16.962
292.03	21.076
292.40	19.236
292.77	18.639
293.13	18.657
293.50	18.076
293.87	16.741
294.24	17.037
294.60	15.138
294.97	18.314
295.34	18.336
295.71	18.466
296.08	15.954
296.44	15.818
296.81	13.871
297.18	18.022
297.55	14.116
297.91	14.908
298.28	17.403
298.65	16.188
299.02	17.260
299.38	15.936
299.75	13.612
300.12	14.815
300.48	14.750
300.85	14.550
301.22	17.197
301.59	14.646
301.95	15.869
302.32	15.148
302.69	16.129
303.05	17.212
303.42	14.938
303.79	14.383
304.15	12.937
304.52	14.137
304.89	12.892
305.25	14.617
305.62	14.609
305.99	14.758
306.35	14.541
306.72	16.368
307.09	15.538
307.45	14.977
307.82	14.174
308.19	14.128
308.55	16.073
308.92	14.071
309.29	13.411
309.65	13.892
310.02	14.905
310.38	14.086
310.75	15.839
311.12	16.684
311.48	15.361
311.85	15.933
312.22	16.129
312.58	14.345
312.95	15.206
313.31	15.437
313.68	15.904
314.05	18.047
314.41	15.578
314.78	16.818
315.14	17.577
315.51	15.963
315.87	17.624
316.24	16.683
316.61	17.349
316.97	18.885
317.34	17.417
317.70	19.025
318.07	18.961
318.43	19.472
318.80	19.963
319.16	20.904
319.53	19.512
319.89	22.095
320.26	22.300
320.62	22.123
320.99	23.434
321.35	23.333
321.72	24.127
322.08	23.791
322.45	24.975
322.81	25.388
323.18	26.108
323.54	25.046
323.91	25.943
324.27	26.577
324.64	27.120
325.00	25.879
325.37	28.298
325.73	29.354
326.10	29.921
326.46	30.108
326.83	31.838
327.19	31.768
327.56	31.010
327.92	31.321
328.29	32.742
328.65	32.689
329.01	32.130
329.38	34.135
329.74	32.133
330.11	34.025
330.47	33.058
330.84	34.559
331.20	34.882
331.56	34.679
331.93	34.722
332.29	33.895
332.66	34.602
333.02	35.832
333.38	35.863
333.75	36.453
334.11	36.032
334.48	36.291
334.84	35.754
335.20	36.909
335.57	36.174
335.93	35.268
336.29	36.722
336.66	36.429
337.02	36.561
337.38	37.222
337.75	36.631
338.11	36.885
338.47	36.648
338.84	38.497
339.20	36.881
339.56	38.321
339.93	35.545
340.29	36.957
340.65	37.077
341.02	38.569
341.38	37.811
341.74	37.544
342.11	38.777
342.47	37.709
342.83	37.586
343.20	38.009
343.56	37.911
343.92	38.772
344.28	38.520
344.65	38.607
345.01	37.121
345.37	37.221
345.73	37.817
346.10	39.557
346.46	38.220
346.82	38.386
347.19	37.845
347.55	38.424
347.91	39.159
348.27	38.702
348.63	38.629
349.00	38.430
349.36	39.245
349.72	39.134
350.08	38.979
350.45	39.788
350.81	39.805
351.17	40.519
351.53	39.312
351.89	39.026
352.26	39.779
352.62	40.417
352.98	40.032
353.34	40.263
353.70	39.771
354.07	41.290
354.43	38.889
354.79	40.628
355.15	39.505
355.51	40.128
355.87	41.796
356.24	41.368
356.60	40.417
356.96	40.467
357.32	41.864
357.68	42.205
358.04	41.884
358.40	42.439
358.77	42.879
359.13	41.673
359.49	42.275
359.85	42.143
360.21	42.903
360.57	42.646
360.93	43.385
361.29	42.404
361.66	41.950
362.02	42.836
362.38	43.574
362.74	42.113
363.10	44.115
363.46	43.580
363.82	44.142
364.18	43.392
364.54	45.097
364.90	45.609
365.26	44.706
365.62	46.384
365.98	45.142
366.35	44.269
366.71	45.842
367.07	44.574
367.43	46.589
367.79	45.182
368.15	46.911
368.51	47.166
368.87	46.253
369.23	47.110
369.59	47.791
369.95	47.279
370.31	47.293
370.67	47.101
371.03	47.790
371.39	47.522
371.75	48.309
372.11	46.942
372.47	48.534
372.83	49.135
373.19	49.350
373.55	49.372
373.91	50.589
374.27	48.247
374.63	49.018
374.99	50.494
375.35	49.058
375.71	49.692
376.07	49.863
376.42	50.894
376.78	50.298
377.14	50.407
377.50	50.927
377.86	50.598
378.22	51.138
378.58	51.692
378.94	50.660
379.30	51.845
379.66	52.348
380.02	52.457
380.38	50.941
380.74	52.701
381.09	52.506
381.45	53.780
381.81	53.133
382.17	54.459
382.53	53.962
382.89	54.074
383.25	52.658
383.61	55.514
383.97	54.722
384.32	53.774
384.68	54.585
385.04	54.763
385.40	55.108
385.76	55.221
386.12	55.181
386.48	55.884
386.83	57.152
387.19	57.328
387.55	57.019
387.91	55.985
388.27	57.143
388.62	57.037
388.98	55.897
389.34	56.884
389.70	55.794
390.06	57.161
390.42	56.680
390.77	58.015
391.13	58.775
391.49	57.043
391.85	57.607
392.20	58.297
392.56	60.038
392.92	58.270
393.28	58.935
393.64	58.333
393.99	58.400
394.35	59.119
394.71	58.281
395.07	58.879
395.42	59.703
395.78	59.542
396.14	58.845
396.50	61.090
396.85	60.331
397.21	58.755
397.57	59.640
397.92	60.937
398.28	60.314
398.64	60.514
399.00	60.045
399.35	59.334
399.71	60.938
400.07	59.965
400.42	60.798
400.78	61.098
401.14	60.610
401.49	61.851
401.85	60.557
402.21	60.838
402.57	61.875
402.92	61.665
403.28	61.774
403.63	61.881
403.99	61.975
404.35	60.909
404.70	61.151
405.06	61.095
405.42	62.633
405.77	61.371
406.13	60.779
406.49	62.448
406.84	62.020
407.20	61.348
407.55	62.923
407.91	63.267
408.27	62.285
408.62	61.288
408.98	62.071
409.34	62.792
409.69	62.323
410.05	62.206
410.40	63.058
410.76	61.768
411.11	61.701
411.47	62.109
411.83	63.103
412.18	61.286
412.54	62.453
412.89	62.108
413.25	63.341
413.60	63.434
413.96	63.267
414.31	62.880
414.67	63.245
415.03	64.040
415.38	63.531
415.74	62.379
416.09	64.533
416.45	63.655
416.80	64.111
417.16	63.673
417.51	63.968
417.87	61.914
418.22	62.208
418.58	62.944
418.93	62.592
419.29	63.208
419.64	64.043
420.00	62.561
420.35	62.667
420.71	63.837
421.06	62.232
421.42	62.515
421.77	63.677
422.12	62.718
422.48	62.547
422.83	63.366
423.19	63.039
423.54	63.320
423.90	63.072
424.25	62.479
424.61	64.226
424.96	65.190
425.31	62.348
425.67	61.011
426.02	62.514
426.38	64.835
426.73	62.961
427.09	63.891
427.44	63.427
427.79	63.830
428.15	63.393
428.50	62.083
428.85	63.588
429.21	62.838
429.56	62.934
429.92	62.355
430.27	63.059
430.62	61.802
430.98	62.636
431.33	61.598
431.68	63.351
432.04	61.022
432.39	63.449
432.74	63.136
433.10	64.233
433.45	64.723
433.80	63.082
434.16	62.821
434.51	63.000
434.86	62.600
435.22	61.979
435.57	62.857
435.92	64.482
436.28	64.294
436.63	63.300
436.98	62.450
437.34	62.493
437.69	63.127
438.04	63.069
438.39	63.343
438.75	63.393
439.10	63.240
439.45	63.636
439.81	62.417
440.16	61.434
440.51	62.507
440.86	63.289
441.22	61.846
441.57	61.624
441.92	62.180
442.27	62.217
442.63	61.401
442.98	63.380
443.33	61.957
443.68	61.022
444.03	62.665
444.39	61.052
444.74	61.310
445.09	62.588
445.44	60.908
445.79	59.772
446.15	61.567
446.50	61.712
446.85	61.151
447.20	61.397
447.55	62.479
447.91	61.666
448.26	60.712
448.61	61.391
448.96	62.016
449.31	62.542
449.66	61.564
450.02	60.724
450.37	60.488
450.72	60.575
451.07	60.878
451.42	58.723
451.77	60.364
452.12	59.411
452.47	61.505
452.83	59.907
453.18	60.941
453.53	61.967
453.88	60.012
454.23	59.414
454.58	59.661
454.93	60.458
455.28	58.915
455.63	59.769
455.98	61.250
456.34	59.736
456.69	60.676
457.04	60.124
457.39	59.439
457.74	59.141
458.09	58.597
458.44	59.179
458.79	57.430
459.14	59.255
459.49	58.435
459.84	57.452
460.19	58.220
460.54	58.449
460.89	57.817
461.24	59.199
461.59	58.571
461.94	57.891
462.29	58.398
462.64	58.583
462.99	57.385
463.34	58.333
463.69	57.911
464.04	58.087
464.39	56.986
464.74	58.111
465.09	57.720
465.44	57.119
465.79	55.928
466.14	55.556
466.49	55.784
466.84	55.925
467.19	54.617
467.54	57.500
467.89	55.102
468.24	56.777
468.59	57.448
468.94	56.017
469.29	56.362
469.64	56.292
469.99	57.307
470.34	55.812
470.68	56.609
471.03	56.122
471.38	56.915
471.73	55.496
472.08	56.184
472.43	55.151
472.78	54.312
473.13	55.199
473.48	54.494
473.83	55.915
474.17	54.512
474.52	55.583
474.87	54.116
475.22	53.511
475.57	53.358
475.92	53.744
476.27	52.706
476.61	53.006
476.96	53.271
477.31	52.800
477.66	54.158
478.01	52.535
478.36	53.411
478.70	52.025
479.05	51.970
479.40	52.303
479.75	53.686
480.10	51.640
480.45	50.024
480.79	50.836
481.14	51.468
481.49	52.112
481.84	50.709
482.19	51.249
482.53	51.284
482.88	50.535
483.23	51.262
483.58	50.136
483.92	51.172
484.27	49.063
484.62	50.000
484.97	49.192
485.31	49.007
485.66	48.009
486.01	47.052
486.36	45.295
486.70	44.400
487.05	44.610
487.40	45.557
487.75	46.687
488.09	47.619
488.44	47.265
488.79	48.174
489.13	48.892
489.48	48.246
489.83	48.123
490.17	49.233
490.52	48.140
490.87	47.897
491.22	47.704
491.56	47.016
491.91	48.115
492.26	47.129
492.60	47.143
492.95	46.024
493.30	47.196
493.64	48.437
493.99	46.054
494.34	46.253
494.68	46.749
495.03	47.415
495.37	46.068
495.72	47.417
496.07	47.471
496.41	44.513
496.76	45.295
497.11	44.890
497.45	46.530
497.80	45.969
498.14	45.459
498.49	45.951
498.84	45.542
499.18	44.714
499.53	45.157
499.87	44.455
500.22	45.455
500.56	46.019
500.91	44.615
501.26	45.092
501.60	45.183
501.95	43.355
502.29	44.424
502.64	44.227
502.98	43.619
503.33	43.419
503.67	44.084
504.02	43.639
504.36	42.723
504.71	43.087
505.06	43.373
505.40	43.364
505.75	42.768
506.09	43.003
506.44	43.069
506.78	42.815
507.13	43.614
507.47	42.727
507.82	43.212
508.16	43.414
508.51	43.480
508.85	43.198
509.19	42.704
509.54	41.990
509.88	42.452
510.23	42.879
510.57	43.189
510.92	43.035
511.26	41.778
511.61	41.701
511.95	41.493
512.30	43.054
512.64	42.504
512.98	42.069
513.33	41.649
513.67	40.928
514.02	41.396
514.36	41.180
514.70	40.952
515.05	40.993
515.39	41.559
515.74	41.047
516.08	40.693
516.42	41.731
516.77	41.416
517.11	40.622
517.46	41.084
517.80	41.580
518.14	40.591
518.49	41.540
518.83	40.284
519.17	39.838
519.52	41.256
519.86	39.475
520.20	40.809
520.55	41.652
520.89	40.633
521.23	40.350
521.58	39.796
521.92	40.784
522.26	39.109
522.61	41.495
522.95	40.393
523.29	40.475
523.64	39.207
523.98	41.035
524.32	39.626
524.66	39.327
525.01	39.277
525.35	39.777
525.69	40.271
526.04	39.626
526.38	39.658
526.72	39.448
527.06	39.360
527.41	37.438
527.75	39.743
528.09	39.499
528.43	39.516
528.78	38.476
529.12	37.697
529.46	39.559
529.80	38.243
530.15	38.318
530.49	36.923
530.83	38.418
531.17	40.209
531.51	39.429
531.86	38.258
532.20	39.113
532.54	38.053
532.88	37.420
533.22	36.914
533.57	37.531
533.91	36.183
534.25	36.938
534.59	36.852
534.93	36.585
535.27	36.331
535.62	37.363
535.96	37.037
536.30	36.427
536.64	37.798
536.98	37.558
537.32	35.089
537.66	36.467
538.01	36.669
538.35	36.264
538.69	38.098
539.03	35.997
539.37	35.591
539.71	34.738
540.05	36.732
540.39	36.213
540.73	36.223
541.07	36.600
541.42	35.356
541.76	36.387
542.10	35.511
542.44	35.298
542.78	36.100
543.12	34.613
543.46	35.672
543.80	35.068
544.14	34.981
544.48	34.095
544.82	34.958
545.16	35.459
545.50	34.190
545.84	35.349
546.18	35.017
546.52	35.650
546.86	35.533
547.20	35.469
547.54	33.467
547.88	34.821
548.22	33.686
548.56	32.893
548.90	32.586
549.24	33.737
549.58	33.970
549.92	34.409
550.26	34.446
550.60	33.887
550.94	33.521
551.28	32.919
551.62	34.436
551.96	33.404
552.30	33.720
552.64	33.874
552.98	33.153
553.32	33.648
553.66	34.151
554.00	33.699
554.34	32.712
554.68	34.621
555.02	33.357
555.36	33.542
555.69	33.085
556.03	32.974
556.37	33.834
556.71	32.538
557.05	34.244
557.39	33.240
557.73	32.957
558.07	33.648
558.41	33.285
558.75	33.872
559.08	33.408
559.42	32.653
559.76	32.941
560.10	33.547
560.44	32.635
560.78	31.537
561.12	31.728
561.45	31.943
561.79	31.905
562.13	31.254
562.47	31.421
562.81	32.287
563.15	31.639
563.48	31.300
563.82	31.963
564.16	31.131
564.50	30.534
564.84	30.721
565.17	30.759
565.51	30.735
565.85	30.964
566.19	29.931
566.52	31.096
566.86	29.777
567.20	31.368
567.54	29.623
567.88	29.603
568.21	29.101
568.55	28.665
568.89	29.280
569.23	27.941
569.56	28.097
569.90	27.925
570.24	27.305
570.57	27.066
570.91	26.438
571.25	26.127
571.59	26.804
571.92	26.210
572.26	26.314
572.60	26.306
572.93	25.997
573.27	25.762
573.61	26.047
573.95	25.556
574.28	25.452
574.62	25.073
574.96	24.540
575.29	24.952
575.63	25.102
575.97	25.358
576.30	24.801
576.64	25.044
576.98	24.550
577.31	24.538
577.65	24.343
577.98	24.789
578.32	24.166
578.66	24.214
578.99	24.515
579.33	24.716
579.67	24.495
580.00	24.718
580.34	24.371
580.67	24.486
581.01	24.601
581.35	23.849
581.68	23.972
582.02	23.089
582.35	23.834
582.69	23.745
583.02	23.875
583.36	24.003
583.70	24.351
584.03	24.007
584.37	24.690
584.70	24.869
585.04	24.144
585.37	23.928
585.71	23.919
586.04	23.919
586.38	24.478
586.72	24.220
587.05	24.015
587.39	23.562
587.72	23.937
588.06	23.746
588.39	24.527
588.73	24.435
589.06	24.307
589.40	24.579
589.73	24.534
590.07	24.840
590.40	24.626
590.73	25.566
591.07	25.315
591.40	25.390
591.74	25.844
592.07	25.044
592.41	25.589
592.74	24.419
593.08	24.017
593.41	23.758
593.75	23.017
594.08	23.667
594.41	24.037
594.75	24.104
595.08	24.159
595.42	24.308
595.75	24.181
596.09	24.371
596.42	24.401
596.75	24.778
597.09	25.411
597.42	24.030
597.75	24.666
598.09	25.174
598.42	24.055
598.76	23.591
599.09	23.489
599.42	23.071
599.76	23.865
600.09	23.169
600.42	22.973
600.76	23.000
601.09	23.388
601.42	23.820
601.76	23.529
602.09	23.715
602.42	23.686
602.76	23.660
603.09	23.879
603.42	23.350
603.76	23.666
604.09	23.769
604.42	23.971
604.76	24.336
605.09	23.678
605.42	22.830
605.75	23.510
606.09	22.977
606.42	23.662
606.75	23.725
607.09	23.859
607.42	23.534
607.75	23.249
608.08	22.883
608.42	23.442
608.75	23.490
609.08	23.127
609.41	23.608
609.75	23.583
610.08	23.751
610.41	22.905
610.74	23.132
611.07	24.457
611.41	23.749
611.74	24.786
612.07	24.172
612.40	24.554
612.73	23.632
613.07	23.976
613.40	24.065
613.73	23.440
614.06	24.624
614.39	24.069
614.72	23.947
615.06	23.739
615.39	23.567
615.72	23.466
616.05	23.339
616.38	23.291
616.71	25.178
617.05	24.735
617.38	24.233
617.71	23.544
618.04	24.038
618.37	23.536
618.70	24.331
619.03	25.000
619.36	25.187
619.69	25.070
620.03	25.412
620.36	25.201
620.69	25.411
621.02	24.853
621.35	25.529
621.68	25.701
622.01	25.000
622.34	25.416
622.67	24.563
623.00	24.945
623.33	23.731
623.66	25.304
623.99	24.448
624.32	24.536
624.65	24.153
624.99	24.150
625.32	24.692
625.65	25.545
625.98	24.366
626.31	26.516
626.64	25.224
626.97	25.686
627.30	24.771
627.63	25.923
627.96	26.325
628.29	25.197
628.62	28.088
628.95	27.830
629.28	26.551
629.61	27.956
629.94	25.714
630.26	26.311
630.59	27.359
630.92	25.383
