SpectraSuite Data File
++++++++++++++++++++++++++++++++++++
Date: Wed May 13 19:29:13 PDT 2015
User: schluterlab
Dark Spectrum Present: Yes
Reference Spectrum Present: Yes
Number of Sampled Component Spectra: 1
Spectrometers: USB2E3373
Integration Time (usec): 3000 (USB2E3373)
Spectra Averaged: 3 (USB2E3373)
Boxcar Smoothing: 0 (USB2E3373)
Correct for Electrical Dark: No (USB2E3373)
Strobe/Lamp Enabled: No (USB2E3373)
Correct for Detector Non-linearity: No (USB2E3373)
Correct for Stray Light: No (USB2E3373)
Number of Pixels in Processed Spectrum: 2048
>>>>>Begin Processed Spectral Data<<<<<
178.53	0.000
178.91	-1225.000
179.29	-1250.000
179.67	-222.222
180.04	-1375.000
180.42	2650.000
180.80	1120.000
181.18	-1025.000
181.56	671.429
181.94	0.000
182.31	-628.571
182.69	1600.000
183.07	-687.500
183.45	-622.222
183.83	590.909
184.20	-430.000
184.58	2500.000
184.96	5100.000
185.34	-920.000
185.72	-575.000
186.09	-2400.000
186.47	2550.000
186.85	2000.000
187.23	4900.000
187.61	-1466.667
187.98	1425.000
188.36	581.818
188.74	454.545
189.12	-880.000
189.49	590.000
189.87	-4400.000
190.25	-1300.000
190.63	364.286
191.00	476.923
191.38	716.667
191.76	-1050.000
192.14	1225.000
192.51	612.500
192.89	1016.667
193.27	712.500
193.65	-1175.000
194.02	570.000
194.40	1120.000
194.78	520.000
195.15	558.333
195.53	640.000
195.91	-3050.000
196.29	362.500
196.66	368.421
197.04	-390.000
197.42	0.000
197.79	700.000
198.17	-4500.000
198.55	828.571
198.92	825.000
199.30	1200.000
199.68	0.000
200.05	355.556
200.43	771.429
200.81	4100.000
201.18	2033.333
201.56	-1700.000
201.94	677.778
202.31	633.333
202.69	450.000
203.07	590.000
203.44	0.000
203.82	1350.000
204.19	814.286
204.57	407.143
204.95	675.000
205.32	1733.333
205.70	518.182
206.08	371.429
206.45	3000.000
206.83	450.000
207.20	1000.000
207.58	940.000
207.96	322.222
208.33	700.000
208.71	-883.333
209.08	771.429
209.46	677.778
209.84	518.182
210.21	-1366.667
210.59	1550.000
210.96	-487.500
211.34	2600.000
211.71	670.000
212.09	766.667
212.46	0.000
212.84	1900.000
213.22	1575.000
213.59	-4700.000
213.97	800.000
214.34	771.429
214.72	554.545
215.09	1160.000
215.47	-2200.000
215.84	-2600.000
216.22	1666.667
216.59	457.143
216.97	1450.000
217.34	536.364
217.72	-866.667
218.09	0.000
218.47	-5300.000
218.84	655.556
219.22	814.286
219.59	1633.333
219.97	-600.000
220.34	1060.000
220.72	-2000.000
221.09	335.714
221.47	1575.000
221.84	-1016.667
222.22	0.000
222.59	1400.000
222.97	-2750.000
223.34	1120.000
223.72	446.154
224.09	1200.000
224.46	2850.000
224.84	-4900.000
225.21	-1040.000
225.59	-4600.000
225.96	610.000
226.34	305.000
226.71	2850.000
227.08	537.500
227.46	690.000
227.83	-1100.000
228.21	-2150.000
228.58	600.000
228.95	-2700.000
229.33	-2500.000
229.70	1700.000
230.08	728.571
230.45	-900.000
230.82	466.667
231.20	916.667
231.57	742.857
231.95	583.333
232.32	286.364
232.69	445.455
233.07	842.857
233.44	415.385
233.81	-2100.000
234.19	363.158
234.56	525.000
234.93	450.000
235.31	518.182
235.68	415.385
236.05	457.143
236.43	212.121
236.80	326.316
237.17	7200.000
237.55	261.905
237.92	235.714
238.29	314.286
238.67	212.903
239.04	227.586
239.41	205.556
239.79	165.217
240.16	195.238
240.53	184.091
240.91	170.588
241.28	160.000
241.65	166.000
242.02	121.739
242.40	143.548
242.77	125.000
243.14	107.527
243.51	108.989
243.89	115.294
244.26	115.556
244.63	98.925
245.00	103.191
245.38	106.931
245.75	101.869
246.12	91.743
246.49	91.241
246.87	103.200
247.24	93.846
247.61	90.000
247.98	90.196
248.36	79.054
248.73	89.172
249.10	91.083
249.47	78.531
249.84	81.283
250.22	78.075
250.59	86.391
250.96	78.283
251.33	83.412
251.70	81.188
252.08	82.857
252.45	76.682
252.82	76.522
253.19	74.043
253.56	74.902
253.94	80.083
254.31	73.047
254.68	75.000
255.05	72.325
255.42	69.919
255.79	75.368
256.16	70.758
256.54	66.078
256.91	70.107
257.28	61.151
257.65	67.987
258.02	66.460
258.39	65.615
258.76	73.579
259.14	67.262
259.51	64.438
259.88	66.149
260.25	67.069
260.62	64.162
260.99	69.876
261.36	67.267
261.73	67.335
262.10	64.826
262.47	64.507
262.85	66.852
263.22	64.672
263.59	68.946
263.96	65.385
264.33	64.752
264.70	62.105
265.07	66.752
265.44	63.384
265.81	58.637
266.18	63.065
266.55	61.951
266.92	61.916
267.29	62.731
267.66	61.468
268.03	61.818
268.40	60.280
268.77	57.041
269.14	59.009
269.51	60.045
269.88	64.103
270.25	62.077
270.62	60.449
270.99	61.290
271.36	60.515
271.73	62.150
272.10	58.913
272.47	58.925
272.84	58.874
273.21	59.539
273.58	57.642
273.95	58.281
274.32	58.471
274.69	58.887
275.06	57.677
275.43	61.489
275.80	58.517
276.17	60.489
276.54	60.291
276.91	58.103
277.28	56.836
277.65	58.027
278.02	57.143
278.39	59.570
278.76	56.000
279.13	56.226
279.50	56.797
279.87	58.765
280.23	59.082
280.60	56.480
280.97	55.453
281.34	56.283
281.71	56.909
282.08	57.965
282.45	55.818
282.82	55.773
283.19	54.545
283.56	55.614
283.92	56.514
284.29	54.321
284.66	54.446
285.03	53.707
285.40	54.577
285.77	54.545
286.14	51.813
286.51	52.833
286.87	51.453
287.24	55.212
287.61	52.327
287.98	51.948
288.35	51.823
288.72	52.336
289.08	49.922
289.45	51.400
289.82	51.057
290.19	49.137
290.56	49.464
290.93	46.073
291.29	48.926
291.66	47.050
292.03	51.017
292.40	46.549
292.77	44.970
293.13	47.015
293.50	47.959
293.87	46.370
294.24	46.519
294.60	44.396
294.97	45.349
295.34	45.275
295.71	44.744
296.08	44.017
296.44	45.117
296.81	43.065
297.18	43.496
297.55	42.348
297.91	42.744
298.28	44.980
298.65	42.428
299.02	42.292
299.38	41.169
299.75	38.005
300.12	40.868
300.48	41.250
300.85	40.691
301.22	41.146
301.59	40.152
301.95	41.310
302.32	41.720
302.69	39.785
303.05	40.485
303.42	39.630
303.79	38.505
304.15	39.860
304.52	38.702
304.89	38.792
305.25	38.515
305.62	38.732
305.99	40.614
306.35	38.591
306.72	39.238
307.09	38.513
307.45	40.203
307.82	38.616
308.19	38.411
308.55	38.727
308.92	39.313
309.29	37.276
309.65	37.964
310.02	37.949
310.38	37.419
310.75	37.909
311.12	39.509
311.48	37.618
311.85	39.203
312.22	38.085
312.58	39.293
312.95	38.015
313.31	37.184
313.68	38.565
314.05	38.757
314.41	39.799
314.78	37.764
315.14	38.530
315.51	38.620
315.87	38.713
316.24	39.623
316.61	37.914
316.97	38.552
317.34	36.399
317.70	39.866
318.07	38.691
318.43	40.900
318.80	41.050
319.16	39.266
319.53	38.743
319.89	40.762
320.26	40.400
320.62	41.865
320.99	41.010
321.35	42.020
321.72	43.737
322.08	42.942
322.45	46.965
322.81	47.481
323.18	47.206
323.54	47.032
323.91	47.264
324.27	47.228
324.64	47.903
325.00	46.078
325.37	48.590
325.73	47.935
326.10	48.102
326.46	49.552
326.83	50.043
327.19	50.811
327.56	51.829
327.92	51.706
328.29	51.908
328.65	53.407
329.01	51.986
329.38	54.949
329.74	53.463
330.11	54.477
330.47	53.903
330.84	54.871
331.20	53.734
331.56	54.495
331.93	54.630
332.29	55.368
332.66	54.248
333.02	55.210
333.38	56.278
333.75	54.724
334.11	55.427
334.48	56.167
334.84	56.801
335.20	55.727
335.57	57.389
335.93	55.446
336.29	56.685
336.66	57.259
337.02	55.294
337.38	57.037
337.75	55.169
338.11	55.237
338.47	56.722
338.84	56.737
339.20	56.422
339.56	56.569
339.93	55.727
340.29	56.159
340.65	55.169
341.02	56.370
341.38	56.851
341.74	54.737
342.11	56.856
342.47	55.154
342.83	54.366
343.20	55.671
343.56	53.580
343.92	55.789
344.28	56.378
344.65	56.148
345.01	53.451
345.37	54.545
345.73	56.261
346.10	56.692
346.46	56.780
346.82	55.519
347.19	54.804
347.55	55.172
347.91	54.612
348.27	55.546
348.63	54.599
349.00	55.583
349.36	55.911
349.72	53.970
350.08	53.241
350.45	54.923
350.81	53.290
351.17	55.024
351.53	54.218
351.89	55.116
352.26	55.880
352.62	54.932
352.98	54.538
353.34	55.957
353.70	54.419
354.07	56.210
354.43	54.286
354.79	55.511
355.15	54.749
355.51	56.195
355.87	56.000
356.24	56.026
356.60	54.852
356.96	56.235
357.32	56.419
357.68	56.063
358.04	55.028
358.40	55.899
358.77	54.069
359.13	54.144
359.49	55.137
359.85	55.635
360.21	54.864
360.57	57.121
360.93	55.462
361.29	54.497
361.66	54.876
362.02	55.448
362.38	55.589
362.74	56.473
363.10	54.922
363.46	54.585
363.82	55.631
364.18	55.360
364.54	55.349
364.90	55.382
365.26	54.926
365.62	55.223
365.98	56.172
366.35	55.086
366.71	56.327
367.07	55.936
367.43	57.039
367.79	57.459
368.15	57.902
368.51	56.686
368.87	57.173
369.23	55.889
369.59	56.988
369.95	57.206
370.31	56.766
370.67	55.652
371.03	57.903
371.39	57.143
371.75	57.206
372.11	57.183
372.47	56.158
372.83	57.853
373.19	56.286
373.55	57.502
373.91	57.732
374.27	54.914
374.63	58.764
374.99	57.556
375.35	56.734
375.71	56.820
376.07	59.053
376.42	59.422
376.78	57.256
377.14	59.566
377.50	57.682
377.86	57.713
378.22	57.775
378.58	57.957
378.94	58.391
379.30	59.224
379.66	59.327
380.02	59.951
380.38	58.531
380.74	58.884
381.09	59.352
381.45	59.926
381.81	59.459
382.17	60.955
382.53	59.937
382.89	60.000
383.25	61.664
383.61	61.214
383.97	61.664
384.32	59.950
384.68	60.223
385.04	61.033
385.40	61.548
385.76	60.074
386.12	62.241
386.48	62.681
386.83	62.797
387.19	63.142
387.55	62.771
387.91	61.548
388.27	61.251
388.62	62.262
388.98	61.486
389.34	62.891
389.70	62.293
390.06	64.005
390.42	64.591
390.77	63.995
391.13	64.582
391.49	63.452
391.85	63.208
392.20	63.849
392.56	64.773
392.92	64.509
393.28	63.728
393.64	64.808
393.99	64.203
394.35	64.330
394.71	64.806
395.07	64.798
395.42	65.698
395.78	65.013
396.14	66.356
396.50	67.168
396.85	67.006
397.21	65.721
397.57	66.708
397.92	66.346
398.28	66.031
398.64	65.950
399.00	66.480
399.35	66.497
399.71	67.130
400.07	67.711
400.42	68.712
400.78	67.913
401.14	68.841
401.49	69.015
401.85	67.877
402.21	67.186
402.57	68.353
402.92	69.609
403.28	70.144
403.63	70.173
403.99	71.210
404.35	69.333
404.70	69.904
405.06	69.423
405.42	70.930
405.77	69.200
406.13	68.849
406.49	70.254
406.84	69.226
407.20	68.676
407.55	71.410
407.91	72.000
408.27	73.006
408.62	70.680
408.98	72.243
409.34	72.571
409.69	72.387
410.05	72.491
410.40	74.251
410.76	72.521
411.11	71.532
411.47	72.843
411.83	73.060
412.18	72.975
412.54	72.790
412.89	73.133
413.25	73.672
413.60	73.935
413.96	73.649
414.31	73.998
414.67	73.828
415.03	74.636
415.38	75.644
415.74	74.920
416.09	76.878
416.45	76.238
416.80	76.338
417.16	76.005
417.51	77.173
417.87	74.888
418.22	77.729
418.58	77.017
418.93	76.474
419.29	79.058
419.64	77.393
420.00	76.402
420.35	76.406
420.71	78.721
421.06	77.446
421.42	76.901
421.77	79.596
422.12	77.597
422.48	78.305
422.83	80.606
423.19	78.453
423.54	80.325
423.90	79.130
424.25	78.224
424.61	78.869
424.96	79.825
425.31	79.402
425.67	77.865
426.02	79.657
426.38	80.586
426.73	81.159
427.09	82.006
427.44	81.369
427.79	80.276
428.15	80.774
428.50	81.919
428.85	80.572
429.21	81.336
429.56	82.530
429.92	82.587
430.27	80.288
430.62	81.362
430.98	82.719
431.33	80.464
431.68	84.660
432.04	81.949
432.39	82.981
432.74	84.081
433.10	84.154
433.45	84.373
433.80	84.146
434.16	82.372
434.51	82.947
434.86	83.124
435.22	84.158
435.57	85.167
435.92	83.909
436.28	86.121
436.63	85.596
436.98	85.518
437.34	85.629
437.69	85.181
438.04	86.228
438.39	85.194
438.75	85.009
439.10	85.754
439.45	86.718
439.81	86.647
440.16	84.359
440.51	86.878
440.86	86.161
441.22	86.874
441.57	85.616
441.92	86.745
442.27	86.222
442.63	86.098
442.98	87.944
443.33	86.957
443.68	87.816
444.03	87.311
444.39	86.855
444.74	87.879
445.09	86.361
445.44	87.479
445.79	85.750
446.15	85.760
446.50	86.753
446.85	86.434
447.20	87.404
447.55	90.341
447.91	87.590
448.26	86.923
448.61	88.977
448.96	87.818
449.31	88.133
449.66	87.394
450.02	88.301
450.37	87.585
450.72	90.468
451.07	88.239
451.42	87.538
451.77	87.962
452.12	87.240
452.47	88.184
452.83	90.501
453.18	86.491
453.53	88.930
453.88	88.600
454.23	87.268
454.58	89.522
454.93	91.672
455.28	89.713
455.63	88.714
455.98	88.333
456.34	88.819
456.69	89.480
457.04	89.226
457.39	87.843
457.74	88.276
458.09	88.729
458.44	88.826
458.79	87.636
459.14	89.560
459.49	87.799
459.84	87.867
460.19	89.570
460.54	87.616
460.89	89.084
461.24	89.375
461.59	89.367
461.94	90.321
462.29	90.089
462.64	89.598
462.99	89.070
463.34	90.000
463.69	88.993
464.04	88.464
464.39	86.551
464.74	87.819
465.09	89.505
465.44	88.144
465.79	88.311
466.14	86.426
466.49	86.596
466.84	88.383
467.19	89.077
467.54	90.062
467.89	87.575
468.24	86.853
468.59	88.278
468.94	86.744
469.29	89.524
469.64	90.094
469.99	92.084
470.34	89.300
470.68	89.440
471.03	87.619
471.38	88.117
471.73	87.808
472.08	90.197
472.43	88.128
472.78	88.611
473.13	87.356
473.48	89.139
473.83	90.488
474.17	89.297
474.52	88.586
474.87	89.083
475.22	88.566
475.57	87.587
475.92	87.467
476.27	87.148
476.61	87.645
476.96	87.521
477.31	87.127
477.66	88.403
478.01	86.932
478.36	87.203
478.70	87.954
479.05	87.220
479.40	88.485
479.75	88.002
480.10	89.165
480.45	86.007
480.79	86.240
481.14	88.063
481.49	87.423
481.84	87.197
482.19	87.824
482.53	86.239
482.88	87.296
483.23	87.757
483.58	86.533
483.92	87.957
484.27	84.749
484.62	87.284
484.97	87.032
485.31	87.945
485.66	85.374
486.01	84.193
486.36	82.597
486.70	81.881
487.05	83.514
487.40	85.189
487.75	86.364
488.09	88.596
488.44	87.925
488.79	89.693
489.13	88.579
489.48	88.907
489.83	86.232
490.17	88.908
490.52	86.847
490.87	86.703
491.22	86.357
491.56	85.968
491.91	85.668
492.26	85.347
492.60	85.484
492.95	84.565
493.30	85.280
493.64	85.908
493.99	84.494
494.34	87.188
494.68	86.172
495.03	86.513
495.37	84.691
495.72	86.209
496.07	87.285
496.41	83.407
496.76	85.092
497.11	84.016
497.45	85.049
497.80	86.612
498.14	85.266
498.49	85.756
498.84	85.762
499.18	84.524
499.53	85.755
499.87	84.856
500.22	84.644
500.56	85.631
500.91	84.279
501.26	84.732
501.60	86.664
501.95	84.601
502.29	86.129
502.64	85.708
502.98	85.835
503.33	84.872
503.67	84.176
504.02	84.191
504.36	84.558
504.71	83.830
505.06	85.157
505.40	84.249
505.75	83.124
506.09	84.888
506.44	85.298
506.78	84.608
507.13	85.462
507.47	83.636
507.82	85.360
508.16	85.714
508.51	85.084
508.85	82.671
509.19	85.816
509.54	83.418
509.88	84.647
510.23	85.398
510.57	85.965
510.92	84.464
511.26	82.837
511.61	83.454
511.95	83.351
512.30	84.146
512.64	83.611
512.98	85.638
513.33	84.690
513.67	83.244
514.02	82.684
514.36	83.670
514.70	82.844
515.05	82.934
515.39	83.623
515.74	82.939
516.08	83.399
516.42	83.407
516.77	85.061
517.11	82.686
517.46	85.384
517.80	84.262
518.14	83.439
518.49	84.539
518.83	83.409
519.17	82.564
519.52	83.362
519.86	84.027
520.20	83.988
520.55	83.363
520.89	84.915
521.23	85.223
521.58	84.814
521.92	84.936
522.26	82.672
522.61	84.798
522.95	82.873
523.29	83.262
523.64	84.024
523.98	84.288
524.32	85.163
524.66	82.922
525.01	83.517
525.35	82.838
525.69	82.143
526.04	83.053
526.38	82.794
526.72	80.859
527.06	82.800
527.41	79.455
527.75	82.765
528.09	83.430
528.43	83.493
528.78	82.667
529.12	81.939
529.46	83.282
529.80	84.035
530.15	82.928
530.49	81.169
530.83	82.152
531.17	85.444
531.51	83.722
531.86	83.032
532.20	82.595
532.54	82.896
532.88	83.376
533.22	81.074
533.57	82.037
533.91	80.915
534.25	81.106
534.59	82.245
534.93	79.893
535.27	81.593
535.62	82.295
535.96	82.298
536.30	82.772
536.64	83.194
536.98	81.752
537.32	81.369
537.66	83.267
538.01	81.633
538.35	81.836
538.69	81.621
539.03	80.962
539.37	81.278
539.71	80.817
540.05	82.157
540.39	81.993
540.73	79.884
541.07	81.700
541.42	82.127
541.76	81.419
542.10	81.501
542.44	80.728
542.78	81.752
543.12	80.166
543.46	80.131
543.80	81.588
544.14	80.359
544.48	80.698
544.82	81.013
545.16	81.653
545.50	80.463
545.84	82.258
546.18	80.269
546.52	81.555
546.86	80.756
547.20	80.243
547.54	80.828
547.88	80.421
548.22	79.078
548.56	78.113
548.90	79.257
549.24	80.135
549.58	80.014
549.92	80.632
550.26	82.173
550.60	80.221
550.94	80.211
551.28	80.907
551.62	80.014
551.96	79.088
552.30	79.795
552.64	79.581
552.98	80.000
553.32	80.310
553.66	79.277
554.00	79.753
554.34	78.054
554.68	79.900
555.02	78.914
555.36	79.054
555.69	77.876
556.03	78.197
556.37	77.694
556.71	77.353
557.05	78.221
557.39	77.257
557.73	76.923
558.07	79.043
558.41	78.582
558.75	77.590
559.08	80.164
559.42	80.121
559.76	78.162
560.10	75.946
560.44	77.987
560.78	77.379
561.12	77.968
561.45	76.206
561.79	76.071
562.13	77.331
562.47	77.186
562.81	77.057
563.15	76.656
563.48	76.658
563.82	77.691
564.16	74.886
564.50	76.107
564.84	76.233
565.17	76.898
565.51	77.827
565.85	76.079
566.19	76.205
566.52	77.137
566.86	75.588
567.20	75.767
567.54	76.941
567.88	75.014
568.21	75.979
568.55	74.469
568.89	74.660
569.23	74.510
569.56	72.429
569.90	72.566
570.24	72.874
570.57	72.492
570.91	71.687
571.25	71.618
571.59	71.399
571.92	72.350
572.26	72.270
572.60	72.523
572.93	71.634
573.27	71.399
573.61	72.725
573.95	71.886
574.28	71.734
574.62	70.773
574.96	70.633
575.29	70.902
575.63	70.757
575.97	70.450
576.30	70.473
576.64	70.533
576.98	70.540
577.31	71.372
577.65	71.401
577.98	70.165
578.32	69.718
578.66	70.042
578.99	70.326
579.33	70.758
579.67	70.153
580.00	70.343
580.34	70.503
580.67	70.267
581.01	69.553
581.35	70.055
581.68	69.146
582.02	68.655
582.35	69.711
582.69	69.964
583.02	69.743
583.36	70.371
583.70	71.079
584.03	71.630
584.37	70.935
584.70	71.447
585.04	69.569
585.37	69.525
585.71	69.408
586.04	68.978
586.38	70.219
586.72	70.257
587.05	69.220
587.39	68.470
587.72	69.389
588.06	70.331
588.39	68.587
588.73	70.666
589.06	69.741
589.40	70.370
589.73	71.419
590.07	69.609
590.40	69.090
590.73	70.453
591.07	71.551
591.40	69.633
591.74	70.519
592.07	69.154
592.41	68.086
592.74	68.240
593.08	67.155
593.41	68.016
593.75	66.271
594.08	67.382
594.41	69.035
594.75	69.057
595.08	67.037
595.42	68.967
595.75	68.056
596.09	69.057
596.42	67.741
596.75	68.468
597.09	68.831
597.42	67.538
597.75	67.702
598.09	67.870
598.42	66.924
598.76	66.315
599.09	64.956
599.42	65.575
599.76	68.009
600.09	66.776
600.42	65.376
600.76	66.179
601.09	65.574
601.42	65.982
601.76	66.565
602.09	66.008
602.42	67.396
602.76	67.513
603.09	66.680
603.42	66.497
603.76	66.120
604.09	65.878
604.42	66.653
604.76	66.259
605.09	66.667
605.42	65.498
605.75	65.066
606.09	66.287
606.42	65.713
606.75	65.574
607.09	66.220
607.42	65.982
607.75	64.684
608.08	65.002
608.42	66.203
608.75	64.968
609.08	64.616
609.41	65.207
609.75	65.079
610.08	65.127
610.41	65.177
610.74	65.941
611.07	66.206
611.41	65.064
611.74	65.963
612.07	67.236
612.40	65.950
612.73	64.895
613.07	64.709
613.40	63.928
613.73	63.922
614.06	66.075
614.39	63.870
614.72	63.842
615.06	64.548
615.39	64.650
615.72	62.679
616.05	62.998
616.38	65.870
616.71	66.271
617.05	65.371
617.38	64.762
617.71	64.144
618.04	65.204
618.37	63.040
618.70	65.464
619.03	65.987
619.36	64.969
619.69	65.704
620.03	64.766
620.36	64.773
620.69	64.932
621.02	66.224
621.35	65.701
621.68	63.707
622.01	64.861
622.34	65.280
622.67	64.411
623.00	63.169
623.33	61.973
623.66	63.831
623.99	63.918
624.32	62.767
624.65	62.359
624.99	62.819
625.32	64.084
625.65	64.989
625.98	63.720
626.31	63.997
626.64	64.571
626.97	64.422
627.30	65.170
627.63	63.084
627.96	64.676
628.29	63.780
628.62	64.410
628.95	65.094
629.28	64.051
629.61	63.520
629.94	63.524
630.26	63.489
630.59	63.489
