SpectraSuite Data File
++++++++++++++++++++++++++++++++++++
Date: Wed May 13 19:38:58 PDT 2015
User: schluterlab
Dark Spectrum Present: Yes
Reference Spectrum Present: Yes
Number of Sampled Component Spectra: 1
Spectrometers: USB2E3373
Integration Time (usec): 3000 (USB2E3373)
Spectra Averaged: 3 (USB2E3373)
Boxcar Smoothing: 0 (USB2E3373)
Correct for Electrical Dark: No (USB2E3373)
Strobe/Lamp Enabled: No (USB2E3373)
Correct for Detector Non-linearity: No (USB2E3373)
Correct for Stray Light: No (USB2E3373)
Number of Pixels in Processed Spectrum: 2048
>>>>>Begin Processed Spectral Data<<<<<
178.53	0.000
178.91	-1375.000
179.29	-1250.000
179.67	-338.889
180.04	-1475.000
180.42	2500.000
180.80	1040.000
181.18	-1150.000
181.56	857.143
181.94	0.000
182.31	-785.714
182.69	1800.000
183.07	-662.500
183.45	-611.111
183.83	509.091
184.20	-520.000
184.58	2300.000
184.96	5700.000
185.34	-880.000
185.72	-750.000
186.09	-2450.000
186.47	2750.000
186.85	2750.000
187.23	5600.000
187.61	-1833.333
187.98	1325.000
188.36	609.091
188.74	600.000
189.12	-1060.000
189.49	600.000
189.87	-5100.000
190.25	-1275.000
190.63	507.143
191.00	407.692
191.38	883.333
191.76	-1100.000
192.14	1475.000
192.51	762.500
192.89	983.333
193.27	675.000
193.65	-1175.000
194.02	460.000
194.40	920.000
194.78	560.000
195.15	516.667
195.53	730.000
195.91	-2850.000
196.29	412.500
196.66	326.316
197.04	-380.000
197.42	0.000
197.79	610.000
198.17	-5300.000
198.55	657.143
198.92	787.500
199.30	1120.000
199.68	0.000
200.05	377.778
200.43	928.571
200.81	4700.000
201.18	1900.000
201.56	-1733.333
201.94	566.667
202.31	588.889
202.69	508.333
203.07	540.000
203.44	0.000
203.82	1250.000
204.19	714.286
204.57	514.286
204.95	737.500
205.32	1800.000
205.70	581.818
206.08	364.286
206.45	2600.000
206.83	406.250
207.20	1216.667
207.58	780.000
207.96	350.000
208.33	762.500
208.71	-933.333
209.08	942.857
209.46	600.000
209.84	500.000
210.21	-1766.667
210.59	1400.000
210.96	-462.500
211.34	3100.000
211.71	720.000
212.09	1016.667
212.46	0.000
212.84	1733.333
213.22	1350.000
213.59	-4800.000
213.97	650.000
214.34	728.571
214.72	709.091
215.09	1100.000
215.47	-2650.000
215.84	-2850.000
216.22	1700.000
216.59	421.429
216.97	1575.000
217.34	490.909
217.72	-650.000
218.09	0.000
218.47	-5400.000
218.84	711.111
219.22	671.429
219.59	1766.667
219.97	-771.429
220.34	1200.000
220.72	-1900.000
221.09	471.429
221.47	1475.000
221.84	-916.667
222.22	0.000
222.59	1525.000
222.97	-3050.000
223.34	1220.000
223.72	469.231
224.09	1200.000
224.46	2050.000
224.84	-4800.000
225.21	-1180.000
225.59	-4800.000
225.96	640.000
226.34	315.000
226.71	2900.000
227.08	725.000
227.46	630.000
227.83	-1225.000
228.21	-2750.000
228.58	566.667
228.95	-2500.000
229.33	-2250.000
229.70	2033.333
230.08	871.429
230.45	-1040.000
230.82	491.667
231.20	983.333
231.57	728.571
231.95	541.667
232.32	227.273
232.69	400.000
233.07	742.857
233.44	338.462
233.81	-1900.000
234.19	310.526
234.56	550.000
234.93	458.333
235.31	445.455
235.68	346.154
236.05	464.286
236.43	227.273
236.80	300.000
237.17	5900.000
237.55	304.762
237.92	221.429
238.29	295.238
238.67	225.806
239.04	234.483
239.41	191.667
239.79	154.348
240.16	185.714
240.53	188.636
240.91	133.333
241.28	150.000
241.65	148.000
242.02	144.928
242.40	140.323
242.77	135.000
243.14	106.452
243.51	107.865
243.89	101.176
244.26	113.333
244.63	103.226
245.00	96.809
245.38	96.040
245.75	95.327
246.12	88.073
246.49	91.971
246.87	91.200
247.24	91.538
247.61	86.429
247.98	81.699
248.36	81.757
248.73	83.439
249.10	87.261
249.47	86.441
249.84	78.610
250.22	75.936
250.59	78.107
250.96	80.808
251.33	77.251
251.70	73.762
252.08	74.762
252.45	71.749
252.82	69.565
253.19	71.915
253.56	70.196
253.94	68.465
254.31	69.531
254.68	73.077
255.05	64.576
255.42	67.886
255.79	65.441
256.16	68.953
256.54	70.671
256.91	66.192
257.28	61.871
257.65	62.706
258.02	65.839
258.39	64.038
258.76	64.214
259.14	64.286
259.51	63.222
259.88	62.422
260.25	65.559
260.62	60.405
260.99	64.596
261.36	65.766
261.73	62.178
262.10	61.628
262.47	63.380
262.85	60.167
263.22	58.974
263.59	60.684
263.96	60.989
264.33	61.880
264.70	60.526
265.07	61.637
265.44	56.313
265.81	59.611
266.18	57.538
266.55	58.780
266.92	60.688
267.29	58.102
267.66	58.716
268.03	56.818
268.40	58.411
268.77	57.518
269.14	55.856
269.51	57.111
269.88	59.441
270.25	59.819
270.62	58.652
270.99	57.204
271.36	57.511
271.73	59.813
272.10	59.348
272.47	60.000
272.84	55.844
273.21	55.975
273.58	51.965
273.95	51.782
274.32	55.992
274.69	59.743
275.06	55.315
275.43	54.255
275.80	55.311
276.17	55.397
276.54	56.549
276.91	55.731
277.28	52.344
277.65	55.319
278.02	55.901
278.39	55.273
278.76	52.000
279.13	55.094
279.50	53.445
279.87	53.586
280.23	53.493
280.60	53.965
280.97	52.311
281.34	53.805
281.71	56.545
282.08	55.662
282.45	51.636
282.82	53.286
283.19	49.376
283.56	53.333
283.92	51.777
284.29	51.499
284.66	52.087
285.03	51.175
285.40	51.585
285.77	52.189
286.14	51.813
286.51	49.833
286.87	50.769
287.24	51.629
287.61	51.204
287.98	48.377
288.35	48.336
288.72	47.819
289.08	47.261
289.45	49.259
289.82	46.341
290.19	48.038
290.56	46.861
290.93	45.921
291.29	46.472
291.66	47.640
292.03	48.256
292.40	48.458
292.77	43.935
293.13	46.418
293.50	45.190
293.87	45.630
294.24	44.889
294.60	43.377
294.97	43.605
295.34	44.147
295.71	42.330
296.08	43.447
296.44	41.403
296.81	41.083
297.18	43.360
297.55	39.446
297.91	39.974
298.28	42.972
298.65	40.862
299.02	42.029
299.38	39.442
299.75	40.162
300.12	39.719
300.48	40.375
300.85	38.101
301.22	39.745
301.59	40.278
301.95	40.050
302.32	40.565
302.69	38.590
303.05	38.667
303.42	39.506
303.79	36.353
304.15	37.296
304.52	37.196
304.89	38.792
305.25	36.543
305.62	38.279
305.99	39.079
306.35	37.248
306.72	37.668
307.09	38.180
307.45	37.613
307.82	36.049
308.19	37.748
308.55	37.648
308.92	36.842
309.29	36.959
309.65	36.373
310.02	36.681
310.38	36.774
310.75	37.698
311.12	36.540
311.48	38.140
311.85	39.099
312.22	37.669
312.58	38.358
312.95	39.282
313.31	37.379
313.68	38.669
314.05	39.448
314.41	38.894
314.78	39.376
315.14	39.921
315.51	39.650
315.87	39.208
316.24	39.523
316.61	39.669
316.97	38.258
317.34	40.215
317.70	41.491
318.07	41.001
318.43	42.466
318.80	42.455
319.16	43.032
319.53	42.214
319.89	43.429
320.26	45.900
320.62	46.329
320.99	43.838
321.35	45.354
321.72	46.612
322.08	48.075
322.45	50.050
322.81	48.934
323.18	49.229
323.54	50.093
323.91	50.377
324.27	50.574
324.64	50.233
325.00	51.127
325.37	53.048
325.73	52.873
326.10	52.604
326.46	54.211
326.83	56.342
327.19	56.020
327.56	56.359
327.92	57.743
328.29	57.675
328.65	59.024
329.01	57.130
329.38	58.927
329.74	58.818
330.11	60.697
330.47	60.882
330.84	59.467
331.20	59.836
331.56	60.092
331.93	60.556
332.29	59.272
332.66	61.593
333.02	60.786
333.38	61.608
333.75	61.943
334.11	60.854
334.48	60.781
334.84	61.765
335.20	61.818
335.57	62.647
335.93	59.911
336.29	62.729
336.66	62.128
337.02	61.538
337.38	62.130
337.75	62.745
338.11	61.862
338.47	63.444
338.84	63.428
339.20	62.202
339.56	62.956
339.93	61.091
340.29	64.130
340.65	61.497
341.02	63.264
341.38	63.790
341.74	62.895
342.11	62.271
342.47	62.379
342.83	62.329
343.20	62.597
343.56	61.837
343.92	63.158
344.28	63.350
344.65	63.801
345.01	61.953
345.37	63.293
345.73	62.944
346.10	64.450
346.46	64.068
346.82	62.273
347.19	62.490
347.55	63.218
347.91	62.055
348.27	62.120
348.63	61.455
349.00	61.812
349.36	62.562
349.72	62.630
350.08	61.426
350.45	62.897
350.81	62.226
351.17	62.966
351.53	61.998
351.89	62.624
352.26	62.431
352.62	63.272
352.98	62.399
353.34	63.024
353.70	63.666
354.07	61.855
354.43	60.952
354.79	61.625
355.15	62.091
355.51	63.709
355.87	63.510
356.24	62.378
356.60	61.508
356.96	64.200
357.32	63.123
357.68	64.724
358.04	63.658
358.40	63.025
358.77	63.380
359.13	61.563
359.49	63.686
359.85	63.651
360.21	62.998
360.57	63.891
360.93	64.538
361.29	63.190
361.66	61.842
362.02	63.806
362.38	65.323
362.74	64.658
363.10	63.138
363.46	63.463
363.82	62.963
364.18	65.345
364.54	64.487
364.90	64.164
365.26	65.368
365.62	63.550
365.98	64.719
366.35	64.255
366.71	63.774
367.07	64.166
367.43	65.239
367.79	64.811
368.15	64.799
368.51	64.317
368.87	64.168
369.23	66.277
369.59	65.098
369.95	65.000
370.31	64.530
370.67	64.855
371.03	65.468
371.39	63.630
371.75	66.176
372.11	63.727
372.47	68.255
372.83	67.291
373.19	65.607
373.55	65.632
373.91	67.526
374.27	64.536
374.63	65.018
374.99	66.102
375.35	65.946
375.71	64.907
376.07	65.226
376.42	66.850
376.78	66.004
377.14	65.807
377.50	66.821
377.86	66.157
378.22	66.119
378.58	64.536
378.94	65.871
379.30	65.458
379.66	66.371
380.02	66.339
380.38	65.270
380.74	66.026
381.09	66.137
381.45	66.749
381.81	66.830
382.17	65.860
382.53	66.101
382.89	65.988
383.25	66.041
383.61	66.976
383.97	65.353
384.32	66.500
384.68	66.419
385.04	66.994
385.40	64.211
385.76	67.199
386.12	66.839
386.48	67.464
386.83	67.415
387.19	68.646
387.55	66.110
387.91	65.961
388.27	64.929
388.62	65.888
388.98	66.830
389.34	65.707
389.70	64.991
390.06	67.427
390.42	67.510
390.77	65.776
391.13	67.262
391.49	66.751
391.85	65.563
392.20	66.120
392.56	66.035
392.92	66.804
393.28	66.391
393.64	65.108
393.99	65.669
394.35	66.935
394.71	66.186
395.07	65.358
395.42	66.316
395.78	66.031
396.14	64.618
396.50	67.356
396.85	67.006
397.21	65.290
397.57	65.840
397.92	65.144
398.28	64.686
398.64	65.591
399.00	65.081
399.35	65.708
399.71	65.741
400.07	66.115
400.42	66.196
400.78	65.621
401.14	65.671
401.49	65.731
401.85	65.699
402.21	64.311
402.57	65.330
402.92	66.330
403.28	66.084
403.63	64.604
403.99	65.478
404.35	65.091
404.70	64.448
405.06	63.949
405.42	66.625
405.77	64.171
406.13	63.770
406.49	64.518
406.84	62.906
407.20	62.766
407.55	64.773
407.91	65.867
408.27	65.220
408.62	64.419
408.98	64.032
409.34	65.375
409.69	64.323
410.05	64.808
410.40	65.505
410.76	64.516
411.11	63.812
411.47	63.898
411.83	64.692
412.18	62.832
412.54	64.695
412.89	63.253
413.25	63.282
413.60	64.299
413.96	62.113
414.31	63.670
414.67	63.688
415.03	63.642
415.38	63.660
415.74	62.958
416.09	64.533
416.45	63.655
416.80	64.177
417.16	64.812
417.51	64.366
417.87	62.171
418.22	64.543
418.58	64.493
418.93	63.268
419.29	62.763
419.64	64.547
420.00	63.598
420.35	62.377
420.71	63.837
421.06	62.530
421.42	62.749
421.77	62.612
422.12	62.549
422.48	62.115
422.83	63.658
423.19	61.436
423.54	62.681
423.90	63.246
424.25	62.702
424.61	61.369
424.96	63.265
425.31	61.074
425.67	60.899
426.02	61.943
426.38	63.248
426.73	61.556
427.09	63.647
427.44	62.622
427.79	63.025
428.15	62.381
428.50	62.610
428.85	62.872
429.21	61.458
429.56	61.172
429.92	61.600
430.27	61.668
430.62	61.188
430.98	61.183
431.33	60.000
431.68	61.361
432.04	60.809
432.39	62.364
432.74	61.101
433.10	61.460
433.45	61.283
433.80	62.140
434.16	61.752
434.51	61.000
434.86	60.718
435.22	61.923
435.57	61.702
435.92	62.142
436.28	62.040
436.63	61.534
436.98	61.649
437.34	63.029
437.69	61.727
438.04	61.214
438.39	61.970
438.75	61.883
439.10	61.061
439.45	61.098
439.81	61.692
440.16	60.870
440.51	62.214
440.86	61.146
441.22	61.235
441.57	60.138
441.92	61.208
442.27	59.634
442.63	60.506
442.98	62.197
443.33	60.870
443.68	60.764
444.03	60.273
444.39	60.662
444.74	60.606
445.09	60.108
445.44	60.087
445.79	60.168
446.15	59.555
446.50	60.905
446.85	60.586
447.20	59.969
447.55	60.916
447.91	59.404
448.26	59.822
448.61	60.995
448.96	60.687
449.31	61.924
449.66	59.932
450.02	59.944
450.37	60.317
450.72	60.180
451.07	58.806
451.42	58.419
451.77	60.893
452.12	59.180
452.47	59.701
452.83	59.965
453.18	59.169
453.53	61.163
453.88	59.362
454.23	60.490
454.58	59.964
454.93	61.157
455.28	58.791
455.63	59.345
455.98	60.060
456.34	60.992
456.69	61.240
457.04	60.062
457.39	58.504
457.74	58.445
458.09	58.999
458.44	59.863
458.79	58.297
459.14	59.029
459.49	58.727
459.84	58.338
460.19	58.456
460.54	57.697
460.89	58.859
461.24	59.502
461.59	58.048
461.94	58.138
462.29	60.237
462.64	58.456
462.99	58.230
463.34	59.267
463.69	60.475
464.04	58.377
464.39	57.565
464.74	58.170
465.09	57.298
465.44	57.507
465.79	57.662
466.14	58.511
466.49	56.785
466.84	59.078
467.19	57.453
467.54	57.500
467.89	57.203
468.24	57.708
468.59	58.791
468.94	57.911
469.29	58.098
469.64	58.701
469.99	58.999
470.34	58.124
470.68	59.986
471.03	58.095
471.38	60.737
471.73	57.828
472.08	59.408
472.43	58.166
472.78	57.275
473.13	57.831
473.48	57.241
473.83	58.171
474.17	56.752
474.52	57.692
474.87	58.377
475.22	57.690
475.57	56.905
475.92	56.559
476.27	56.032
476.61	56.867
476.96	56.515
477.31	55.782
477.66	57.057
478.01	55.149
478.36	56.214
478.70	56.334
479.05	56.177
479.40	55.476
479.75	55.618
480.10	55.368
480.45	55.640
480.79	54.276
481.14	56.458
481.49	54.865
481.84	55.281
482.19	56.247
482.53	55.321
482.88	55.282
483.23	56.121
483.58	54.413
483.92	55.951
484.27	53.246
484.62	54.397
484.97	54.001
485.31	55.308
485.66	52.999
486.01	51.842
486.36	50.177
486.70	50.037
487.05	50.744
487.40	51.634
487.75	52.273
488.09	53.048
488.44	52.935
488.79	54.430
489.13	54.202
489.48	54.608
489.83	54.596
490.17	54.669
490.52	52.746
490.87	53.008
491.22	53.752
491.56	52.893
491.91	53.560
492.26	53.514
492.60	53.226
492.95	52.947
493.30	52.664
493.64	53.243
493.99	52.228
494.34	52.960
494.68	53.892
495.03	53.102
495.37	53.094
495.72	53.704
496.07	53.086
496.41	51.814
496.76	52.067
497.11	51.688
497.45	53.703
497.80	52.879
498.14	51.498
498.49	51.902
498.84	52.972
499.18	52.333
499.53	51.852
499.87	52.423
500.22	51.578
500.56	53.252
500.91	51.635
501.26	52.205
501.60	53.299
501.95	51.971
502.29	51.593
502.64	51.071
502.98	51.052
503.33	50.320
503.67	50.858
504.02	50.514
504.36	50.725
504.71	51.979
505.06	51.663
505.40	51.823
505.75	50.820
506.09	51.263
506.44	51.554
506.78	51.680
507.13	51.893
507.47	50.909
507.82	51.368
508.16	51.368
508.51	51.801
508.85	51.688
509.19	51.531
509.54	50.816
509.88	50.438
510.23	51.054
510.57	52.528
510.92	52.046
511.26	51.285
511.61	50.674
511.95	49.948
512.30	50.318
512.64	51.693
512.98	51.018
513.33	52.034
513.67	50.534
514.02	50.216
514.36	51.065
514.70	50.692
515.05	50.307
515.39	51.262
515.74	50.563
516.08	50.755
516.42	50.943
516.77	51.839
517.11	50.721
517.46	52.032
517.80	51.858
518.14	51.013
518.49	51.925
518.83	50.852
519.17	49.423
519.52	50.990
519.86	49.800
520.20	51.214
520.55	50.389
520.89	50.365
521.23	51.628
521.58	51.921
521.92	51.010
522.26	49.969
522.61	51.340
522.95	50.153
523.29	51.004
523.64	51.707
523.98	51.756
524.32	50.724
524.66	50.932
525.01	51.593
525.35	50.496
525.69	49.569
526.04	49.657
526.38	50.275
526.72	49.202
527.06	50.596
527.41	48.082
527.75	50.611
528.09	49.904
528.43	50.478
528.78	49.969
529.12	48.727
529.46	50.276
529.80	50.619
530.15	49.720
530.49	48.492
530.83	50.190
531.17	51.567
531.51	51.556
531.86	50.000
532.20	49.739
532.54	49.391
532.88	48.395
533.22	48.782
533.57	48.765
533.91	48.465
534.25	47.691
534.59	48.627
534.93	48.126
535.27	47.495
535.62	48.901
535.96	48.085
536.30	48.379
536.64	47.778
536.98	49.900
537.32	48.980
537.66	47.267
538.01	48.058
538.35	48.416
538.69	48.245
539.03	47.238
539.37	48.307
539.71	47.375
540.05	49.346
540.39	48.173
540.73	47.219
541.07	48.540
541.42	48.271
541.76	48.645
542.10	48.577
542.44	48.543
542.78	48.946
543.12	46.257
543.46	48.066
543.80	48.211
544.14	47.047
544.48	47.429
544.82	47.851
545.16	46.845
545.50	46.658
545.84	48.118
546.18	46.667
546.52	47.694
546.86	47.629
547.20	47.943
547.54	47.695
547.88	47.321
548.22	46.575
548.56	46.352
548.90	45.903
549.24	46.128
549.58	47.544
549.92	45.948
550.26	47.656
550.60	46.196
550.94	45.986
551.28	47.110
551.62	46.585
551.96	46.035
552.30	46.416
552.64	46.924
552.98	46.508
553.32	45.988
553.66	47.785
554.00	45.642
554.34	46.170
554.68	47.711
555.02	46.051
555.36	45.790
555.69	45.399
556.03	45.357
556.37	46.453
556.71	45.975
557.05	46.008
557.39	45.976
557.73	45.942
558.07	46.410
558.41	45.224
558.75	46.877
559.08	45.563
559.42	46.183
559.76	45.882
560.10	45.468
560.44	45.213
560.78	44.777
561.12	44.261
561.45	44.720
561.79	44.628
562.13	44.936
562.47	44.945
562.81	45.328
563.15	44.749
563.48	44.894
563.82	45.075
564.16	44.277
564.50	43.555
564.84	43.489
565.17	45.560
565.51	44.281
565.85	44.416
566.19	43.081
566.52	43.572
566.86	42.676
567.20	44.104
567.54	43.322
567.88	43.618
568.21	43.175
568.55	43.377
568.89	42.169
569.23	41.399
569.56	40.810
569.90	41.434
570.24	41.227
570.57	40.156
570.91	39.916
571.25	39.531
571.59	40.236
571.92	39.775
572.26	38.995
572.60	40.000
572.93	39.670
573.27	39.249
573.61	40.369
573.95	39.561
574.28	38.769
574.62	38.800
574.96	38.160
575.29	38.191
575.63	38.720
575.97	38.766
576.30	38.980
576.64	38.969
576.98	38.551
577.31	38.424
577.65	39.001
577.98	38.138
578.32	38.046
578.66	38.113
578.99	37.845
579.33	38.514
579.67	38.069
580.00	38.648
580.34	38.491
580.67	38.620
581.01	37.823
581.35	37.840
581.68	37.977
582.02	37.467
582.35	37.794
582.69	37.862
583.02	37.979
583.36	38.229
583.70	38.387
584.03	38.271
584.37	38.814
584.70	38.036
585.04	37.427
585.37	37.768
585.71	37.758
586.04	37.424
586.38	38.375
586.72	38.912
587.05	37.137
587.39	37.467
587.72	38.289
588.06	37.727
588.39	38.601
588.73	38.222
589.06	38.330
589.40	38.721
589.73	38.965
590.07	38.577
590.40	38.327
590.73	39.266
591.07	40.171
591.40	39.730
591.74	39.913
592.07	39.180
592.41	38.694
592.74	38.127
593.08	37.109
593.41	37.773
593.75	37.227
594.08	37.345
594.41	37.964
594.75	37.338
595.08	38.296
595.42	38.774
595.75	38.105
596.09	38.077
596.42	38.703
596.75	38.328
597.09	39.134
597.42	37.605
597.75	38.637
598.09	38.304
598.42	37.973
598.76	38.143
599.09	37.058
599.42	37.154
599.76	36.969
600.09	36.976
600.42	37.034
600.76	36.321
601.09	37.559
601.42	36.910
601.76	37.002
602.09	36.759
602.42	37.739
602.76	38.210
603.09	37.608
603.42	37.524
603.76	37.271
604.09	37.224
604.42	37.342
604.76	38.085
605.09	37.746
605.42	38.093
605.75	38.493
606.09	37.129
606.42	37.107
606.75	37.122
607.09	37.170
607.42	37.484
607.75	36.498
608.08	37.343
608.42	38.010
608.75	37.196
609.08	36.448
609.41	36.840
609.75	36.779
610.08	38.313
610.41	36.918
610.74	37.701
611.07	37.549
611.41	37.586
611.74	37.355
612.07	38.354
612.40	39.035
612.73	37.053
613.07	38.039
613.40	39.126
613.73	37.126
614.06	37.258
614.39	37.546
614.72	36.947
615.06	37.395
615.39	36.571
615.72	37.219
616.05	35.991
616.38	37.799
616.71	38.836
617.05	38.280
617.38	37.402
617.71	37.658
618.04	39.002
618.37	37.493
618.70	38.457
619.03	39.408
619.36	38.221
619.69	37.676
620.03	38.255
620.36	39.639
620.69	38.425
621.02	39.233
621.35	39.937
621.68	38.785
622.01	39.319
622.34	41.301
622.67	39.468
623.00	37.711
623.33	38.885
623.66	38.885
623.99	39.470
624.32	38.944
624.65	37.924
624.99	37.535
625.32	38.161
625.65	39.068
625.98	39.739
626.31	39.191
626.64	38.367
626.97	38.736
627.30	38.903
627.63	39.623
627.96	38.688
628.29	39.545
628.62	39.250
628.95	41.321
629.28	40.420
629.61	40.972
629.94	40.571
630.26	39.561
630.59	40.705
