SpectraSuite Data File
++++++++++++++++++++++++++++++++++++
Date: Wed May 13 19:17:35 PDT 2015
User: schluterlab
Dark Spectrum Present: Yes
Reference Spectrum Present: Yes
Number of Sampled Component Spectra: 1
Spectrometers: USB2E3373
Integration Time (usec): 3000 (USB2E3373)
Spectra Averaged: 3 (USB2E3373)
Boxcar Smoothing: 0 (USB2E3373)
Correct for Electrical Dark: No (USB2E3373)
Strobe/Lamp Enabled: No (USB2E3373)
Correct for Detector Non-linearity: No (USB2E3373)
Correct for Stray Light: No (USB2E3373)
Number of Pixels in Processed Spectrum: 2048
>>>>>Begin Processed Spectral Data<<<<<
178.53	0.000
178.91	-1200.000
179.29	-1350.000
179.67	-288.889
180.04	-1425.000
180.42	2600.000
180.80	1240.000
181.18	-1325.000
181.56	842.857
181.94	0.000
182.31	-900.000
182.69	1833.333
183.07	-612.500
183.45	-655.556
183.83	600.000
184.20	-420.000
184.58	2800.000
184.96	5400.000
185.34	-900.000
185.72	-687.500
186.09	-2450.000
186.47	2650.000
186.85	2550.000
187.23	5000.000
187.61	-2000.000
187.98	1275.000
188.36	554.545
188.74	572.727
189.12	-1020.000
189.49	690.000
189.87	-5100.000
190.25	-1450.000
190.63	435.714
191.00	415.385
191.38	1016.667
191.76	-1300.000
192.14	1475.000
192.51	587.500
192.89	1066.667
193.27	712.500
193.65	-1400.000
194.02	640.000
194.40	1040.000
194.78	580.000
195.15	558.333
195.53	710.000
195.91	-2400.000
196.29	356.250
196.66	368.421
197.04	-440.000
197.42	0.000
197.79	620.000
198.17	-5000.000
198.55	757.143
198.92	837.500
199.30	940.000
199.68	0.000
200.05	388.889
200.43	942.857
200.81	5800.000
201.18	1666.667
201.56	-1933.333
201.94	633.333
202.31	633.333
202.69	466.667
203.07	580.000
203.44	0.000
203.82	1400.000
204.19	1014.286
204.57	485.714
204.95	775.000
205.32	2033.333
205.70	754.545
206.08	450.000
206.45	3100.000
206.83	375.000
207.20	1150.000
207.58	1020.000
207.96	366.667
208.33	862.500
208.71	-966.667
209.08	971.429
209.46	766.667
209.84	527.273
210.21	-1666.667
210.59	1675.000
210.96	-562.500
211.34	2750.000
211.71	610.000
212.09	1150.000
212.46	0.000
212.84	2133.333
213.22	1675.000
213.59	-6000.000
213.97	883.333
214.34	928.571
214.72	636.364
215.09	1260.000
215.47	-3550.000
215.84	-2550.000
216.22	2200.000
216.59	514.286
216.97	1550.000
217.34	536.364
217.72	-883.333
218.09	0.000
218.47	-6100.000
218.84	688.889
219.22	928.571
219.59	1733.333
219.97	-714.286
220.34	1160.000
220.72	-2100.000
221.09	485.714
221.47	1750.000
221.84	-1100.000
222.22	0.000
222.59	1500.000
222.97	-3250.000
223.34	1380.000
223.72	461.538
224.09	1140.000
224.46	2500.000
224.84	-5700.000
225.21	-1140.000
225.59	-6000.000
225.96	610.000
226.34	305.000
226.71	2900.000
227.08	800.000
227.46	650.000
227.83	-1175.000
228.21	-2850.000
228.58	744.444
228.95	-2850.000
229.33	-2350.000
229.70	2366.667
230.08	871.429
230.45	-1020.000
230.82	516.667
231.20	833.333
231.57	885.714
231.95	533.333
232.32	277.273
232.69	472.727
233.07	971.429
233.44	400.000
233.81	-2066.667
234.19	310.526
234.56	608.333
234.93	500.000
235.31	527.273
235.68	446.154
236.05	478.571
236.43	215.152
236.80	289.474
237.17	6800.000
237.55	338.095
237.92	264.286
238.29	300.000
238.67	219.355
239.04	275.862
239.41	200.000
239.79	169.565
240.16	185.714
240.53	170.455
240.91	137.255
241.28	156.000
241.65	162.000
242.02	137.681
242.40	135.484
242.77	136.667
243.14	107.527
243.51	117.978
243.89	121.176
244.26	100.000
244.63	108.602
245.00	111.702
245.38	122.772
245.75	95.327
246.12	96.330
246.49	87.591
246.87	108.000
247.24	92.308
247.61	90.000
247.98	92.810
248.36	85.135
248.73	88.535
249.10	87.261
249.47	83.051
249.84	84.492
250.22	75.936
250.59	85.799
250.96	83.838
251.33	81.991
251.70	84.653
252.08	81.905
252.45	76.682
252.82	77.826
253.19	73.617
253.56	72.549
253.94	75.519
254.31	71.094
254.68	73.846
255.05	73.063
255.42	76.829
255.79	70.221
256.16	74.729
256.54	67.138
256.91	69.039
257.28	66.906
257.65	70.297
258.02	67.391
258.39	68.454
258.76	68.562
259.14	69.643
259.51	65.957
259.88	64.596
260.25	69.486
260.62	67.341
260.99	68.944
261.36	69.069
261.73	68.481
262.10	66.860
262.47	66.479
262.85	67.688
263.22	60.399
263.59	65.527
263.96	62.912
264.33	61.619
264.70	62.632
265.07	66.496
265.44	64.899
265.81	58.881
266.18	67.839
266.55	64.634
266.92	63.391
267.29	65.509
267.66	62.156
268.03	58.636
268.40	62.617
268.77	59.189
269.14	61.036
269.51	60.045
269.88	63.403
270.25	62.980
270.62	59.326
270.99	59.140
271.36	58.798
271.73	60.280
272.10	60.870
272.47	62.796
272.84	56.277
273.21	59.748
273.58	61.135
273.95	56.813
274.32	56.198
274.69	59.529
275.06	57.874
275.43	59.574
275.80	59.118
276.17	60.285
276.54	60.291
276.91	58.893
277.28	55.078
277.65	56.093
278.02	59.213
278.39	58.398
278.76	58.909
279.13	58.113
279.50	56.052
279.87	58.167
280.23	56.886
280.60	58.607
280.97	57.856
281.34	57.699
281.71	55.455
282.08	60.845
282.45	55.091
282.82	54.707
283.19	53.476
283.56	54.912
283.92	53.976
284.29	55.908
284.66	56.624
285.03	52.803
285.40	55.810
285.77	56.397
286.14	53.541
286.51	53.333
286.87	52.308
287.24	55.212
287.61	53.933
287.98	55.357
288.35	53.090
288.72	51.869
289.08	51.956
289.45	52.224
289.82	51.382
290.19	49.922
290.56	49.617
290.93	50.755
291.29	52.454
291.66	50.885
292.03	50.872
292.40	50.220
292.77	48.817
293.13	49.552
293.50	50.729
293.87	49.778
294.24	48.593
294.60	48.326
294.97	47.384
295.34	48.519
295.71	48.011
296.08	48.006
296.44	47.318
296.81	46.235
297.18	47.696
297.55	46.042
297.91	45.910
298.28	48.327
298.65	46.606
299.02	47.167
299.38	45.950
299.75	45.822
300.12	46.105
300.48	45.000
300.85	45.376
301.22	46.624
301.59	45.328
301.95	45.844
302.32	44.801
302.69	44.564
303.05	43.636
303.42	44.444
303.79	43.828
304.15	43.357
304.52	43.801
304.89	45.296
305.25	43.852
305.62	42.922
305.99	44.864
306.35	43.400
306.72	45.291
307.09	43.285
307.45	44.820
307.82	42.746
308.19	43.267
308.55	44.121
308.92	42.965
309.29	41.816
309.65	42.206
310.02	42.812
310.38	43.441
310.75	44.773
311.12	43.501
311.48	44.932
311.85	44.549
312.22	43.913
312.58	43.867
312.95	45.090
313.31	44.951
313.68	45.842
314.05	45.661
314.41	45.930
314.78	45.720
315.14	44.786
315.51	46.550
315.87	46.535
316.24	45.978
316.61	45.517
316.97	46.086
317.34	46.967
317.70	48.184
318.07	48.893
318.43	48.532
318.80	49.766
319.16	49.247
319.53	47.936
319.89	51.333
320.26	52.300
320.62	51.290
320.99	52.323
321.35	51.212
321.72	52.259
322.08	53.307
322.45	53.930
322.81	55.523
323.18	54.721
323.54	54.545
323.91	55.943
324.27	56.023
324.64	57.316
325.00	56.808
325.37	59.145
325.73	59.964
326.10	58.429
326.46	60.036
326.83	62.468
327.19	61.998
327.56	63.066
327.92	62.380
328.29	63.620
328.65	67.127
329.01	66.155
329.38	65.865
329.74	67.036
330.11	66.635
330.47	67.401
330.84	66.544
331.20	66.211
331.56	67.798
331.93	69.074
332.29	66.016
332.66	66.460
333.02	66.088
333.38	67.389
333.75	69.964
334.11	68.683
334.48	67.169
334.84	68.842
335.20	68.000
335.57	68.450
335.93	66.250
336.29	67.949
336.66	68.079
337.02	68.326
337.38	69.352
337.75	68.538
338.11	68.039
338.47	69.705
338.84	68.836
339.20	68.532
339.56	69.891
339.93	70.091
340.29	69.475
340.65	69.073
341.02	68.935
341.38	69.128
341.74	69.561
342.11	69.170
342.47	70.220
342.83	69.692
343.20	69.351
343.56	68.324
343.92	69.912
344.28	68.963
344.65	70.077
345.01	68.350
345.37	67.324
345.73	70.135
346.10	70.247
346.46	70.932
346.82	69.440
347.19	69.758
347.55	67.734
347.91	69.417
348.27	69.515
348.63	69.732
349.00	68.447
349.36	70.361
349.72	69.046
350.08	68.882
350.45	71.440
350.81	69.374
351.17	69.773
351.53	69.697
351.89	69.472
352.26	70.245
352.62	70.810
352.98	69.449
353.34	70.173
353.70	69.640
354.07	69.758
354.43	69.921
354.79	68.222
355.15	70.870
355.51	70.903
355.87	71.510
356.24	70.928
356.60	68.885
356.96	72.003
357.32	70.809
357.68	70.236
358.04	69.517
358.40	70.230
358.77	68.545
359.13	70.087
359.49	69.412
359.85	70.714
360.21	70.973
360.57	71.907
360.93	71.615
361.29	70.068
361.66	70.046
362.02	68.582
362.38	71.559
362.74	69.717
363.10	69.578
363.46	70.066
363.82	71.429
364.18	72.173
364.54	71.768
364.90	71.176
365.26	71.912
365.62	71.731
365.98	70.343
366.35	70.559
366.71	72.017
367.07	72.688
367.43	73.512
367.79	73.519
368.15	72.989
368.51	71.148
368.87	73.305
369.23	72.568
369.59	73.570
369.95	73.162
370.31	71.937
370.67	73.188
371.03	74.157
371.39	73.688
371.75	74.485
372.11	72.831
372.47	76.026
372.83	75.216
373.19	74.133
373.55	75.979
373.91	76.436
374.27	73.471
374.63	76.218
374.99	74.364
375.35	74.669
375.71	74.297
376.07	75.309
376.42	75.378
376.78	76.474
377.14	76.459
377.50	76.755
377.86	74.867
378.22	76.422
378.58	75.063
378.94	75.927
379.30	76.081
379.66	78.553
380.02	76.290
380.38	75.956
380.74	77.431
381.09	76.650
381.45	78.427
381.81	77.580
382.17	78.726
382.53	78.176
382.89	79.321
383.25	78.737
383.61	79.368
383.97	78.799
384.32	77.792
384.68	77.819
385.04	78.980
385.40	78.452
385.76	79.054
386.12	79.275
386.48	80.680
386.83	81.334
387.19	81.385
387.55	79.901
387.91	81.016
388.27	78.847
388.62	80.824
388.98	80.590
389.34	80.413
389.70	80.441
390.06	80.862
390.42	80.674
390.77	80.089
391.13	83.216
391.49	81.091
391.85	80.840
392.20	80.883
392.56	82.260
392.92	80.989
393.28	79.527
393.64	82.194
393.99	79.902
394.35	81.824
394.71	81.870
395.07	80.062
395.42	82.386
395.78	81.616
396.14	80.944
396.50	81.266
396.85	83.026
397.21	81.751
397.57	80.471
397.92	82.212
398.28	81.334
398.64	81.004
399.00	80.582
399.35	80.147
399.71	81.250
400.07	80.071
400.42	81.472
400.78	81.604
401.14	81.768
401.49	81.612
401.85	81.186
402.21	80.599
402.57	81.123
402.92	83.102
403.28	81.886
403.63	81.188
403.99	82.357
404.35	80.242
404.70	81.775
405.06	80.547
405.42	81.285
405.77	81.086
406.13	80.079
406.49	81.076
406.84	80.449
407.20	81.028
407.55	82.004
407.91	84.133
408.27	81.940
408.62	81.397
408.98	81.189
409.34	81.304
409.69	82.323
410.05	80.173
410.40	80.000
410.76	79.749
411.11	79.373
411.47	79.681
411.83	81.307
412.18	80.210
412.54	81.569
412.89	80.181
413.25	80.342
413.60	80.976
413.96	78.992
414.31	79.587
414.67	80.608
415.03	80.199
415.38	80.219
415.74	79.743
416.09	82.364
416.45	80.120
416.80	80.767
417.16	81.635
417.51	82.216
417.87	79.769
418.22	81.009
418.58	80.116
418.93	80.835
419.29	80.395
419.64	81.297
420.00	79.573
420.35	79.536
420.71	79.916
421.06	79.654
421.42	80.526
421.77	79.765
422.12	79.057
422.48	79.169
422.83	79.965
423.19	80.773
423.54	81.254
423.90	79.420
424.25	79.509
424.61	79.107
424.96	80.583
425.31	78.848
425.67	77.865
426.02	78.800
426.38	81.197
426.73	78.935
427.09	81.459
427.44	80.679
427.79	80.104
428.15	79.881
428.50	79.462
428.85	80.215
429.21	80.342
429.56	79.108
429.92	78.007
430.27	77.905
430.62	77.778
430.98	78.412
431.33	77.938
431.68	78.325
432.04	76.092
432.39	79.555
432.74	80.371
433.10	80.419
433.45	79.417
433.80	78.492
434.16	78.739
434.51	78.263
434.86	80.274
435.22	79.989
435.57	80.486
435.92	80.690
436.28	81.020
436.63	80.353
436.98	77.962
437.34	80.441
437.69	80.397
438.04	81.225
438.39	81.373
438.75	80.767
439.10	80.894
439.45	79.103
439.81	79.577
440.16	79.277
440.51	80.434
440.86	80.718
441.22	80.367
441.57	78.822
441.92	79.376
442.27	80.409
442.63	78.989
442.98	81.070
443.33	79.348
443.68	79.608
444.03	79.697
444.39	79.163
444.74	80.249
445.09	79.191
445.44	79.278
445.79	79.416
446.15	78.613
446.50	80.129
446.85	79.291
447.20	80.010
447.55	81.184
447.91	81.908
448.26	79.521
448.61	79.650
448.96	79.623
449.31	81.665
449.66	80.191
450.02	80.836
450.37	80.612
450.72	81.275
451.07	80.134
451.42	77.143
451.77	79.213
452.12	79.619
452.47	80.908
452.83	82.226
453.18	80.196
453.53	81.200
453.88	80.981
454.23	79.976
454.58	80.194
454.93	81.310
455.28	79.925
455.63	81.311
455.98	83.214
456.34	80.025
456.69	81.152
457.04	80.186
457.39	79.719
457.74	79.106
458.09	78.723
458.44	79.932
458.79	78.471
459.14	81.208
459.49	79.276
459.84	79.778
460.19	79.670
460.54	77.141
460.89	80.307
461.24	80.631
461.59	79.779
461.94	79.716
462.29	80.178
462.64	79.706
462.99	78.399
463.34	79.733
463.69	79.425
464.04	79.130
464.39	79.072
464.74	77.600
465.09	77.925
465.44	77.507
465.79	77.293
466.14	76.902
466.49	78.420
466.84	77.817
467.19	76.765
467.54	79.125
467.89	78.151
468.24	78.243
468.59	79.182
468.94	77.520
469.29	78.599
469.64	80.054
469.99	79.635
470.34	79.194
470.68	80.244
471.03	77.891
471.38	80.125
471.73	79.280
472.08	79.737
472.43	77.010
472.78	78.341
473.13	76.637
473.48	76.592
473.83	78.415
474.17	77.847
474.52	77.109
474.87	77.350
475.22	77.771
475.57	76.303
475.92	77.058
476.27	76.494
476.61	75.676
476.96	76.581
477.31	76.714
477.66	76.149
478.01	76.006
478.36	77.790
478.70	76.999
479.05	76.358
479.40	77.789
479.75	77.428
480.10	75.447
480.45	75.964
480.79	74.534
481.14	75.783
481.49	75.225
481.84	76.223
482.19	75.284
482.53	74.817
482.88	74.826
483.23	75.935
483.58	75.705
483.92	76.101
484.27	73.813
484.62	74.267
484.97	73.906
485.31	74.110
485.66	72.419
486.01	68.976
486.36	66.194
486.70	66.270
487.05	67.366
487.40	70.072
487.75	72.207
488.09	72.429
488.44	73.049
488.79	74.684
489.13	75.134
489.48	76.223
489.83	74.968
490.17	74.836
490.52	72.808
490.87	73.994
491.22	73.352
491.56	73.257
491.91	73.941
492.26	72.347
492.60	73.502
492.95	71.890
493.30	72.991
493.64	74.148
493.99	73.166
494.34	73.636
494.68	74.130
495.03	73.872
495.37	72.545
495.72	74.415
496.07	73.735
496.41	71.991
496.76	72.647
497.11	71.860
497.45	72.054
497.80	71.833
498.14	73.043
498.49	73.415
498.84	72.483
499.18	72.952
499.53	72.412
499.87	71.295
500.22	71.503
500.56	74.029
500.91	71.683
501.26	71.456
501.60	73.469
501.95	70.715
502.29	72.071
502.64	72.160
502.98	71.201
503.33	70.795
503.67	71.183
504.02	71.515
504.36	70.426
504.71	71.324
505.06	71.807
505.40	71.512
505.75	69.672
506.09	70.311
506.44	72.669
506.78	71.895
507.13	71.630
507.47	70.808
507.82	72.239
508.16	71.682
508.51	72.095
508.85	69.960
509.19	71.633
509.54	71.071
509.88	71.303
510.23	70.334
510.57	71.878
510.92	70.999
511.26	70.144
511.61	70.228
511.95	68.528
512.30	71.951
512.64	70.768
512.98	70.954
513.33	70.557
513.67	68.997
514.02	69.751
514.36	71.600
514.70	70.725
515.05	70.887
515.39	71.957
515.74	70.608
516.08	70.319
516.42	70.866
516.77	71.405
517.11	70.311
517.46	70.260
517.80	71.661
518.14	70.990
518.49	70.828
518.83	69.943
519.17	70.439
519.52	69.383
519.86	69.652
520.20	71.561
520.55	71.694
520.89	71.350
521.23	71.592
521.58	71.969
521.92	71.770
522.26	69.067
522.61	70.592
522.95	70.227
523.29	70.968
523.64	69.695
523.98	70.302
524.32	69.903
524.66	70.295
525.01	69.056
525.35	69.517
525.69	69.212
526.04	68.536
526.38	69.067
526.72	69.509
527.06	71.500
527.41	67.946
527.75	70.225
528.09	69.236
528.43	71.128
528.78	69.392
529.12	67.636
529.46	68.585
529.80	69.245
530.15	68.287
530.49	67.015
530.83	69.114
531.17	69.974
531.51	69.909
531.86	69.548
532.20	69.622
532.54	70.083
532.88	69.384
533.22	67.146
533.57	67.716
533.91	67.911
534.25	66.950
534.59	67.358
534.93	66.686
535.27	66.626
535.62	66.545
535.96	67.043
536.30	67.896
536.64	67.160
536.98	68.281
537.32	67.215
537.66	67.000
538.01	67.874
538.35	68.843
538.69	68.028
539.03	67.771
539.37	65.240
539.71	65.911
540.05	67.843
540.39	66.844
540.73	65.718
541.07	66.775
541.42	66.928
541.76	66.516
542.10	66.688
542.44	66.887
542.78	67.260
543.12	65.515
543.46	65.639
543.80	66.623
544.14	64.827
544.48	65.651
544.82	64.593
545.16	66.168
545.50	63.882
545.84	66.734
546.18	67.003
546.52	65.795
546.86	66.598
547.20	66.082
547.54	65.464
547.88	64.031
548.22	64.197
548.56	64.025
548.90	64.085
549.24	65.051
549.58	66.098
549.92	64.835
550.26	66.761
550.60	65.145
550.94	64.296
551.28	65.545
551.62	66.858
551.96	65.825
552.30	65.188
552.64	64.165
552.98	65.492
553.32	63.857
553.66	64.145
554.00	64.791
554.34	63.768
554.68	65.451
555.02	65.233
555.36	64.857
555.69	63.261
556.03	63.930
556.37	64.393
556.71	63.165
557.05	63.515
557.39	63.471
557.73	62.879
558.07	65.990
558.41	64.978
558.75	65.026
559.08	64.653
559.42	65.306
559.76	65.441
560.10	63.169
560.44	63.312
560.78	63.007
561.12	62.665
561.45	61.604
561.79	61.701
562.13	63.716
562.47	62.500
562.81	64.296
563.15	60.602
563.48	62.798
563.82	62.948
564.16	61.086
564.50	63.021
564.84	61.315
565.17	62.355
565.51	61.214
565.85	61.865
566.19	60.739
566.52	62.255
566.86	60.639
567.20	61.203
567.54	60.103
567.88	58.881
568.21	59.735
568.55	59.302
568.89	58.317
569.23	57.175
569.56	55.749
569.90	56.415
570.24	55.185
570.57	54.539
570.91	53.717
571.25	53.860
571.59	53.667
571.92	54.263
572.26	54.391
572.60	54.384
572.93	53.973
573.27	54.037
573.61	54.076
573.95	53.979
574.28	53.317
574.62	52.454
574.96	52.378
575.29	52.352
575.63	52.617
575.97	52.721
576.30	52.177
576.64	52.691
576.98	52.333
577.31	52.472
577.65	52.269
577.98	52.493
578.32	50.655
578.66	51.656
578.99	51.746
579.33	52.263
579.67	51.666
580.00	52.314
580.34	52.824
580.67	51.974
581.01	52.170
581.35	51.381
581.68	50.679
582.02	50.411
582.35	50.778
582.69	50.616
583.02	51.036
583.36	51.833
583.70	52.423
584.03	53.292
584.37	53.360
584.70	53.056
585.04	51.150
585.37	52.307
585.71	51.480
586.04	50.978
586.38	52.247
586.72	52.389
587.05	51.182
587.39	51.055
587.72	51.817
588.06	51.334
588.39	52.263
588.73	51.481
589.06	53.038
589.40	53.603
589.73	53.784
590.07	52.633
590.40	53.672
590.73	53.513
591.07	54.579
591.40	54.323
591.74	55.022
592.07	54.450
592.41	53.493
592.74	53.109
593.08	51.066
593.41	52.040
593.75	50.125
594.08	51.861
594.41	52.492
594.75	52.311
595.08	52.255
595.42	52.294
595.75	52.172
596.09	52.572
596.42	53.281
596.75	53.651
597.09	53.983
597.42	52.825
597.75	53.385
598.09	52.739
598.42	52.921
598.76	52.128
599.09	51.007
599.42	50.873
599.76	51.647
600.09	50.419
600.42	50.292
600.76	50.357
601.09	50.565
601.42	51.865
601.76	52.030
602.09	52.332
602.42	52.229
602.76	52.439
603.09	51.888
603.42	52.753
603.76	51.601
604.09	50.795
604.42	52.426
604.76	52.594
605.09	51.944
605.42	51.389
605.75	51.076
606.09	51.281
606.42	52.636
606.75	51.721
607.09	51.612
607.42	51.220
607.75	50.591
608.08	51.541
608.42	51.367
608.75	50.947
609.08	51.526
609.41	51.975
609.75	51.882
610.08	51.649
610.41	52.374
610.74	52.886
611.07	52.866
611.41	51.865
611.74	52.539
612.07	52.329
612.40	52.833
612.73	53.105
613.07	54.256
613.40	52.975
613.73	51.966
614.06	52.312
614.39	52.334
614.72	51.737
615.06	51.996
615.39	52.017
615.72	50.562
616.05	51.462
616.38	52.029
616.71	53.563
617.05	54.535
617.38	53.157
617.71	53.874
618.04	54.026
618.37	52.336
618.70	55.072
619.03	54.408
619.36	54.175
619.69	55.282
620.03	54.327
620.36	54.880
620.69	55.274
621.02	55.973
621.35	55.208
621.68	53.427
622.01	55.650
622.34	55.976
622.67	54.905
623.00	53.925
623.33	54.039
623.66	54.182
623.99	55.228
624.32	54.208
624.65	51.836
624.99	53.329
625.32	53.584
625.65	55.297
625.98	55.880
626.31	55.365
626.64	55.510
626.97	55.445
627.30	55.694
627.63	55.455
627.96	57.864
628.29	56.780
628.62	57.182
628.95	56.604
629.28	57.208
629.61	58.478
629.94	58.571
630.26	57.388
