SpectraSuite Data File
++++++++++++++++++++++++++++++++++++
Date: Wed May 13 19:17:47 PDT 2015
User: schluterlab
Dark Spectrum Present: Yes
Reference Spectrum Present: Yes
Number of Sampled Component Spectra: 1
Spectrometers: USB2E3373
Integration Time (usec): 3000 (USB2E3373)
Spectra Averaged: 3 (USB2E3373)
Boxcar Smoothing: 0 (USB2E3373)
Correct for Electrical Dark: No (USB2E3373)
Strobe/Lamp Enabled: No (USB2E3373)
Correct for Detector Non-linearity: No (USB2E3373)
Correct for Stray Light: No (USB2E3373)
Number of Pixels in Processed Spectrum: 2048
>>>>>Begin Processed Spectral Data<<<<<
178.53	0.000
178.91	-1325.000
179.29	-1500.000
179.67	-261.111
180.04	-1400.000
180.42	3050.000
180.80	1240.000
181.18	-1375.000
181.56	814.286
181.94	0.000
182.31	-714.286
182.69	2066.667
183.07	-537.500
183.45	-555.556
183.83	609.091
184.20	-500.000
184.58	2550.000
184.96	5400.000
185.34	-1040.000
185.72	-712.500
186.09	-2300.000
186.47	3100.000
186.85	2450.000
187.23	5700.000
187.61	-1966.667
187.98	1500.000
188.36	600.000
188.74	554.545
189.12	-940.000
189.49	600.000
189.87	-5100.000
190.25	-1325.000
190.63	478.571
191.00	584.615
191.38	933.333
191.76	-1250.000
192.14	1925.000
192.51	775.000
192.89	1116.667
193.27	712.500
193.65	-1350.000
194.02	610.000
194.40	1080.000
194.78	590.000
195.15	575.000
195.53	710.000
195.91	-2450.000
196.29	375.000
196.66	284.211
197.04	-470.000
197.42	0.000
197.79	670.000
198.17	-5800.000
198.55	828.571
198.92	825.000
199.30	1080.000
199.68	0.000
200.05	383.333
200.43	757.143
200.81	5200.000
201.18	2000.000
201.56	-1733.333
201.94	711.111
202.31	677.778
202.69	591.667
203.07	590.000
203.44	0.000
203.82	1375.000
204.19	900.000
204.57	514.286
204.95	775.000
205.32	1833.333
205.70	672.727
206.08	350.000
206.45	3050.000
206.83	412.500
207.20	1083.333
207.58	1020.000
207.96	366.667
208.33	912.500
208.71	-866.667
209.08	857.143
209.46	688.889
209.84	518.182
210.21	-1800.000
210.59	1300.000
210.96	-637.500
211.34	3000.000
211.71	670.000
212.09	850.000
212.46	0.000
212.84	1666.667
213.22	1550.000
213.59	-5400.000
213.97	966.667
214.34	942.857
214.72	709.091
215.09	1080.000
215.47	-2300.000
215.84	-2800.000
216.22	1933.333
216.59	435.714
216.97	1350.000
217.34	518.182
217.72	-883.333
218.09	0.000
218.47	-6200.000
218.84	733.333
219.22	785.714
219.59	2000.000
219.97	-800.000
220.34	1060.000
220.72	-1766.667
221.09	421.429
221.47	1875.000
221.84	-1150.000
222.22	0.000
222.59	1675.000
222.97	-3350.000
223.34	1440.000
223.72	546.154
224.09	1040.000
224.46	2350.000
224.84	-5700.000
225.21	-1160.000
225.59	-6200.000
225.96	720.000
226.34	360.000
226.71	3050.000
227.08	712.500
227.46	560.000
227.83	-1375.000
228.21	-3050.000
228.58	744.444
228.95	-2500.000
229.33	-2900.000
229.70	2100.000
230.08	900.000
230.45	-960.000
230.82	483.333
231.20	966.667
231.57	785.714
231.95	575.000
232.32	340.909
232.69	509.091
233.07	871.429
233.44	461.538
233.81	-2166.667
234.19	357.895
234.56	466.667
234.93	483.333
235.31	581.818
235.68	461.538
236.05	478.571
236.43	221.212
236.80	326.316
237.17	6300.000
237.55	309.524
237.92	232.143
238.29	314.286
238.67	229.032
239.04	268.966
239.41	191.667
239.79	152.174
240.16	176.190
240.53	161.364
240.91	111.765
241.28	150.000
241.65	142.000
242.02	121.739
242.40	124.194
242.77	126.667
243.14	113.978
243.51	112.360
243.89	98.824
244.26	96.667
244.63	97.849
245.00	106.383
245.38	89.109
245.75	86.916
246.12	85.321
246.49	82.482
246.87	92.000
247.24	77.692
247.61	83.571
247.98	69.281
248.36	78.378
248.73	71.975
249.10	78.344
249.47	66.667
249.84	65.775
250.22	69.519
250.59	67.456
250.96	68.687
251.33	63.507
251.70	67.327
252.08	60.476
252.45	62.332
252.82	64.783
253.19	64.255
253.56	58.824
253.94	60.996
254.31	60.547
254.68	59.231
255.05	53.137
255.42	61.382
255.79	56.618
256.16	59.928
256.54	55.477
256.91	56.940
257.28	53.957
257.65	55.776
258.02	59.627
258.39	48.580
258.76	51.839
259.14	54.762
259.51	55.927
259.88	51.863
260.25	54.985
260.62	52.601
260.99	54.658
261.36	57.958
261.73	55.014
262.10	49.709
262.47	51.549
262.85	49.304
263.22	52.422
263.59	54.131
263.96	49.451
264.33	50.914
264.70	50.263
265.07	51.407
265.44	52.273
265.81	48.418
266.18	50.000
266.55	50.000
266.92	49.631
267.29	50.694
267.66	48.165
268.03	47.500
268.40	47.664
268.77	46.778
269.14	46.622
269.51	50.790
269.88	48.019
270.25	45.824
270.62	45.843
270.99	49.462
271.36	48.927
271.73	46.729
272.10	45.435
272.47	48.602
272.84	50.216
273.21	45.283
273.58	47.817
273.95	44.864
274.32	47.107
274.69	47.752
275.06	44.291
275.43	47.660
275.80	46.092
276.17	45.621
276.54	47.193
276.91	47.036
277.28	43.359
277.65	46.035
278.02	44.928
278.39	47.070
278.76	41.273
279.13	44.340
279.50	44.134
279.87	45.219
280.23	44.511
280.60	44.101
280.97	44.547
281.34	41.593
281.71	44.909
282.08	45.298
282.45	45.636
282.82	43.162
283.19	43.494
283.56	41.754
283.92	43.316
284.29	42.504
284.66	41.561
285.03	43.761
285.40	40.317
285.77	42.761
286.14	41.451
286.51	41.000
286.87	41.197
287.24	40.717
287.61	40.128
287.98	40.422
288.35	41.838
288.72	39.252
289.08	38.654
289.45	40.857
289.82	40.813
290.19	38.932
290.56	38.438
290.93	36.858
291.29	38.037
291.66	39.528
292.03	38.808
292.40	38.767
292.77	36.391
293.13	36.866
293.50	36.152
293.87	35.259
294.24	35.111
294.60	34.643
294.97	35.756
295.34	37.236
295.71	35.653
296.08	36.182
296.44	32.875
296.81	34.478
297.18	34.011
297.55	33.113
297.91	33.773
298.28	34.003
298.65	33.420
299.02	33.070
299.38	32.802
299.75	31.402
300.12	30.651
300.48	33.250
300.85	32.552
301.22	32.994
301.59	32.323
301.95	33.249
302.32	31.579
302.69	30.824
303.05	31.394
303.42	31.358
303.79	30.011
304.15	28.904
304.52	28.737
304.89	30.894
305.25	29.930
305.62	30.917
305.99	31.995
306.35	28.747
306.72	30.493
307.09	30.411
307.45	31.081
307.82	29.799
308.19	30.022
308.55	29.450
308.92	29.538
309.29	29.567
309.65	29.162
310.02	27.484
310.38	29.892
310.75	30.095
311.12	29.171
311.48	29.885
311.85	30.189
312.22	29.865
312.58	29.314
312.95	31.468
313.31	28.350
313.68	30.873
314.05	31.854
314.41	30.754
314.78	30.312
315.14	30.288
315.51	31.720
315.87	30.297
316.24	32.075
316.61	30.312
316.97	31.213
317.34	31.800
317.70	32.409
318.07	31.858
318.43	32.192
318.80	32.334
319.16	33.333
319.53	32.833
319.89	32.667
320.26	34.300
320.62	34.325
320.99	34.646
321.35	35.455
321.72	36.140
322.08	35.735
322.45	38.308
322.81	37.984
323.18	38.439
323.54	37.570
323.91	38.113
324.27	38.719
324.64	38.304
325.00	38.413
325.37	40.218
325.73	41.023
326.10	39.806
326.46	41.398
326.83	41.760
327.19	40.564
327.56	43.118
327.92	43.745
328.29	44.277
328.65	44.383
329.01	46.119
329.38	45.236
329.74	44.229
330.11	45.429
330.47	46.740
330.84	47.059
331.20	44.809
331.56	45.963
331.93	48.981
332.29	46.229
332.66	48.407
333.02	46.527
333.38	48.690
333.75	47.772
334.11	48.310
334.48	46.939
334.84	47.794
335.20	48.545
335.57	48.867
335.93	47.054
336.29	47.985
336.66	49.053
337.02	48.054
337.38	49.815
337.75	48.485
338.11	49.418
338.47	49.724
338.84	50.321
339.20	49.725
339.56	51.277
339.93	50.364
340.29	50.725
340.65	50.891
341.02	49.302
341.38	51.068
341.74	50.175
342.11	51.790
342.47	50.661
342.83	50.000
343.20	51.429
343.56	51.053
343.92	50.789
344.28	52.891
344.65	52.365
345.01	49.916
345.37	48.714
345.73	51.269
346.10	53.453
346.46	51.017
346.82	52.389
347.19	52.464
347.55	50.328
347.91	51.375
348.27	53.164
348.63	53.595
349.00	52.751
349.36	52.956
349.72	52.285
350.08	52.026
350.45	53.865
350.81	52.559
351.17	52.107
351.53	52.580
351.89	52.145
352.26	54.854
352.62	52.526
352.98	53.485
353.34	55.053
353.70	54.583
354.07	54.597
354.43	53.730
354.79	54.224
355.15	54.828
355.51	56.755
355.87	54.857
356.24	56.515
356.60	55.253
356.96	56.396
357.32	56.092
357.68	56.378
358.04	55.424
358.40	55.978
358.77	55.399
359.13	55.801
359.49	57.255
359.85	55.873
360.21	57.177
360.57	57.354
360.93	57.846
361.29	56.916
361.66	57.043
362.02	57.463
362.38	58.555
362.74	57.664
363.10	56.403
363.46	57.520
363.82	58.579
364.18	58.443
364.54	59.212
364.90	58.003
365.26	59.265
365.62	59.167
365.98	58.437
366.35	59.026
366.71	59.364
367.07	60.087
367.43	60.450
367.79	61.599
368.15	60.632
368.51	60.828
368.87	60.956
369.23	60.278
369.59	61.839
369.95	61.471
370.31	61.111
370.67	61.159
371.03	63.446
371.39	62.682
371.75	62.059
372.11	61.735
372.47	63.196
372.83	63.761
373.19	62.139
373.55	64.302
373.91	66.200
374.27	62.887
374.63	63.927
374.99	63.842
375.35	63.573
375.71	62.783
376.07	63.306
376.42	65.956
376.78	65.010
377.14	65.197
377.50	65.828
377.86	65.027
378.22	64.096
378.58	64.662
378.94	64.865
379.30	66.349
379.66	67.893
380.02	64.926
380.38	63.631
380.74	67.167
381.09	66.748
381.45	67.548
381.81	65.971
382.17	68.408
382.53	67.044
382.89	67.901
383.25	67.667
383.61	68.154
383.97	66.979
384.32	66.999
384.68	67.286
385.04	68.101
385.40	67.864
385.76	68.305
386.12	68.977
386.48	68.722
386.83	71.071
387.19	70.501
387.55	69.450
387.91	70.798
388.27	69.160
388.62	69.576
388.98	68.796
389.34	69.462
389.70	68.853
390.06	69.582
390.42	70.752
390.77	70.293
391.13	71.027
391.49	69.099
391.85	69.892
392.20	69.842
392.56	70.707
392.92	71.042
393.28	68.462
393.64	70.743
393.99	70.373
394.35	70.720
394.71	70.263
395.07	69.346
395.42	72.435
395.78	71.374
396.14	69.894
396.50	72.744
396.85	71.647
397.21	70.284
397.57	72.102
397.92	70.433
398.28	70.067
398.64	70.550
399.00	70.845
399.35	69.882
399.71	70.312
400.07	70.373
400.42	71.104
400.78	71.894
401.14	71.524
401.49	72.597
401.85	71.264
402.21	71.198
402.57	72.671
402.92	73.140
403.28	72.892
403.63	71.163
403.99	71.720
404.35	69.273
404.70	71.283
405.06	70.996
405.42	71.304
405.77	70.514
406.13	70.767
406.49	70.787
406.84	70.467
407.20	70.567
407.55	71.538
407.91	72.933
408.27	71.666
408.62	70.801
408.98	69.240
409.34	71.894
409.69	72.710
410.05	71.128
410.40	70.336
410.76	70.251
411.11	69.119
411.47	69.457
411.83	69.823
412.18	70.563
412.54	69.738
412.89	69.759
413.25	70.366
413.60	69.920
413.96	68.549
414.31	70.474
414.67	69.708
415.03	69.735
415.38	69.459
415.74	71.190
416.09	70.803
416.45	70.147
416.80	69.663
417.16	70.509
417.51	70.936
417.87	69.171
418.22	70.032
418.58	69.787
418.93	71.253
419.29	70.210
419.64	69.836
420.00	70.061
420.35	68.406
420.71	69.934
421.06	68.616
421.42	69.181
421.77	68.105
422.12	69.399
422.48	68.591
422.83	69.016
423.19	68.398
423.54	69.240
423.90	68.812
424.25	68.230
424.61	68.810
424.96	68.630
425.31	67.220
425.67	66.517
426.02	67.771
426.38	69.353
426.73	68.286
427.09	67.964
427.44	68.258
427.79	67.740
428.15	67.917
428.50	66.355
428.85	67.759
429.21	66.814
429.56	67.963
429.92	66.281
430.27	66.236
430.62	66.564
430.98	67.047
431.33	65.619
431.68	66.597
432.04	65.655
432.39	68.704
432.74	68.821
433.10	68.138
433.45	68.163
433.80	66.463
434.16	66.827
434.51	65.947
434.86	67.161
435.22	65.814
435.57	67.781
435.92	67.466
436.28	68.090
436.63	66.004
436.98	66.056
437.34	66.369
437.69	67.503
438.04	66.498
438.39	66.746
438.75	67.635
439.10	66.313
439.45	65.880
439.81	66.405
440.16	65.782
440.51	66.901
440.86	66.474
441.22	65.740
441.57	65.074
441.92	65.660
442.27	65.770
442.63	64.982
442.98	66.141
443.33	64.402
443.68	65.049
444.03	65.593
444.39	64.362
444.74	64.827
445.09	64.528
445.44	63.805
445.79	64.671
446.15	64.161
446.50	64.890
446.85	63.464
447.20	63.488
447.55	66.387
447.91	65.030
448.26	65.164
448.61	64.613
448.96	64.839
449.31	64.342
449.66	64.097
450.02	63.064
450.37	63.605
450.72	62.493
451.07	63.924
451.42	62.796
451.77	64.768
452.12	62.009
452.47	63.060
452.83	63.578
453.18	63.998
453.53	63.946
453.88	63.260
454.23	63.359
454.58	62.932
454.93	66.116
455.28	63.092
455.63	63.653
455.98	62.738
456.34	62.563
456.69	62.179
457.04	63.220
457.39	61.777
457.74	60.998
458.09	62.105
458.44	61.973
458.79	60.954
459.14	61.625
459.49	61.296
459.84	61.607
460.19	60.577
460.54	59.375
460.89	60.834
461.24	62.538
461.59	60.837
461.94	60.419
462.29	61.246
462.64	61.264
462.99	60.507
463.34	62.200
463.69	60.350
464.04	59.710
464.39	60.174
464.74	59.418
465.09	59.168
465.44	58.670
465.79	58.781
466.14	57.800
466.49	58.621
466.84	59.194
467.19	58.057
467.54	58.750
467.89	57.383
468.24	58.755
468.59	59.219
468.94	57.666
469.29	58.676
469.64	58.835
469.99	58.593
470.34	58.587
470.68	58.980
471.03	58.503
471.38	58.999
471.73	57.362
472.08	58.355
472.43	56.156
472.78	56.748
473.13	56.354
473.48	57.428
473.83	56.951
474.17	56.503
474.52	57.072
474.87	57.268
475.22	55.833
475.57	56.099
475.92	55.125
476.27	54.961
476.61	54.937
476.96	55.910
477.31	54.474
477.66	56.182
478.01	54.208
478.36	55.209
478.70	53.011
479.05	54.153
479.40	55.271
479.75	55.313
480.10	53.479
480.45	51.690
480.79	52.222
481.14	53.474
481.49	52.966
481.84	52.766
482.19	52.930
482.53	52.064
482.88	51.978
483.23	53.551
483.58	52.047
483.92	52.202
484.27	50.980
484.62	51.638
484.97	51.163
485.31	52.226
485.66	49.730
486.01	48.213
486.36	46.487
486.70	46.999
487.05	47.700
487.40	48.902
487.75	50.055
488.09	51.410
488.44	52.635
488.79	52.839
489.13	52.406
489.48	51.958
489.83	51.403
490.17	51.074
490.52	50.709
490.87	50.249
491.22	49.977
491.56	49.339
491.91	49.884
492.26	48.966
492.60	49.124
492.95	48.316
493.30	49.112
493.64	49.650
493.99	47.493
494.34	48.705
494.68	48.489
495.03	47.838
495.37	49.279
495.72	49.074
496.07	47.749
496.41	46.947
496.76	47.230
497.11	47.546
497.45	48.207
497.80	47.985
498.14	47.729
498.49	47.512
498.84	47.267
499.18	46.429
499.53	47.293
499.87	46.272
500.22	47.103
500.56	48.155
500.91	46.923
501.26	46.373
501.60	47.698
501.95	45.967
502.29	47.423
502.64	45.577
502.98	46.470
503.33	46.344
503.67	45.661
504.02	45.697
504.36	45.999
504.71	45.970
505.06	46.169
505.40	45.892
505.75	45.082
506.09	45.724
506.44	46.078
506.78	44.618
507.13	46.593
507.47	44.798
507.82	46.049
508.16	46.505
508.51	44.495
508.85	44.439
509.19	44.592
509.54	44.796
509.88	44.616
510.23	44.576
510.57	45.408
510.92	45.262
511.26	44.193
511.61	44.191
511.95	43.894
512.30	44.645
512.64	44.116
512.98	44.373
513.33	44.647
513.67	42.316
514.02	42.803
514.36	43.965
514.70	43.774
515.05	42.722
515.39	44.307
515.74	44.876
516.08	44.326
516.42	43.507
516.77	43.534
517.11	43.396
517.46	43.397
517.80	45.470
518.14	42.501
518.49	43.932
518.83	43.750
519.17	42.610
519.52	42.671
519.86	43.297
520.20	43.121
520.55	44.285
520.89	43.248
521.23	43.426
521.58	43.037
521.92	43.050
522.26	42.343
522.61	43.614
522.95	42.848
523.29	42.970
523.64	42.134
523.98	42.514
524.32	41.797
524.66	41.612
525.01	42.953
525.35	42.813
525.69	41.749
526.04	41.994
526.38	41.733
526.72	41.288
527.06	43.377
527.41	41.275
527.75	42.315
528.09	42.582
528.43	41.428
528.78	42.409
529.12	40.606
529.46	40.906
529.80	42.389
530.15	42.243
530.49	40.431
530.83	40.316
531.17	43.930
531.51	43.320
531.86	41.548
532.20	41.721
532.54	40.871
532.88	41.078
533.22	40.162
533.57	40.062
533.91	39.193
534.25	39.672
534.59	39.841
534.93	40.095
535.27	40.797
535.62	39.744
535.96	40.552
536.30	39.924
536.64	39.858
536.98	40.876
537.32	39.039
537.66	40.133
538.01	40.816
538.35	40.013
538.69	40.587
539.03	39.896
539.37	39.744
539.71	37.654
540.05	40.654
540.39	39.136
540.73	39.780
541.07	40.363
541.42	40.183
541.76	39.677
542.10	39.845
542.44	39.404
542.78	39.921
543.12	37.940
543.46	39.344
543.80	40.143
544.14	39.923
544.48	39.429
544.82	38.743
545.16	39.753
545.50	38.303
545.84	39.046
546.18	39.663
546.52	39.917
546.86	38.488
547.20	39.110
547.54	38.343
547.88	38.138
548.22	37.858
548.56	38.239
548.90	37.004
549.24	37.643
549.58	38.404
549.92	37.912
550.26	39.276
550.60	38.313
550.94	38.944
551.28	37.820
551.62	39.540
551.96	37.333
552.30	38.498
552.64	37.999
552.98	38.780
553.32	37.087
553.66	37.900
554.00	38.161
554.34	37.198
554.68	37.697
555.02	38.082
555.36	37.648
555.69	37.077
556.03	36.743
556.37	38.199
556.71	37.653
557.05	38.025
557.39	37.929
557.73	37.191
558.07	36.693
558.41	36.903
558.75	36.885
559.08	37.808
559.42	36.961
559.76	35.221
560.10	36.902
560.44	36.548
560.78	35.862
561.12	36.148
561.45	35.984
561.79	35.860
562.13	36.351
562.47	36.407
562.81	37.029
563.15	35.452
563.48	36.074
563.82	35.943
564.16	36.952
564.50	35.937
564.84	35.272
565.17	35.714
565.51	36.038
565.85	35.470
566.19	34.001
566.52	36.415
566.86	35.564
567.20	35.790
567.54	35.388
567.88	34.492
568.21	35.132
568.55	34.580
568.89	34.436
569.23	33.645
569.56	32.713
569.90	33.472
570.24	33.262
570.57	33.322
570.91	32.256
571.25	32.551
571.59	32.018
571.92	32.114
572.26	32.842
572.60	33.183
572.93	32.654
573.27	32.919
573.61	32.105
573.95	32.610
574.28	32.136
574.62	31.778
574.96	31.661
575.29	31.305
575.63	32.139
575.97	32.387
576.30	31.970
576.64	32.146
576.98	32.158
577.31	31.862
577.65	31.466
577.98	31.082
578.32	31.056
578.66	31.866
578.99	32.253
579.33	32.171
579.67	31.841
580.00	31.719
580.34	32.273
580.67	32.640
581.01	31.842
581.35	31.417
581.68	31.151
582.02	30.750
582.35	31.031
582.69	31.476
583.02	31.366
583.36	32.465
583.70	32.418
584.03	32.706
584.37	33.123
584.70	32.706
585.04	31.727
585.37	31.500
585.71	32.143
586.04	31.312
586.38	31.452
586.72	32.008
587.05	30.590
587.39	31.029
587.72	31.951
588.06	31.350
588.39	32.291
588.73	31.681
589.06	32.347
589.40	32.492
589.73	32.911
590.07	31.601
590.40	32.042
590.73	32.045
591.07	33.171
591.40	32.813
591.74	33.203
592.07	32.679
592.41	32.575
592.74	30.899
593.08	31.113
593.41	30.560
593.75	30.700
594.08	31.043
594.41	30.541
594.75	31.682
595.08	31.675
595.42	31.313
595.75	31.766
596.09	32.107
596.42	32.456
596.75	31.743
597.09	32.597
597.42	31.872
597.75	31.565
598.09	31.913
598.42	31.529
598.76	30.807
599.09	29.799
599.42	30.277
599.76	30.783
600.09	30.091
600.42	30.862
600.76	29.964
601.09	30.601
601.42	30.670
601.76	31.271
602.09	31.542
602.42	30.892
602.76	31.157
603.09	31.353
603.42	31.472
603.76	30.107
604.09	30.516
604.42	31.431
604.76	32.138
605.09	31.280
605.42	30.526
605.75	30.215
606.09	30.256
606.42	31.181
606.75	30.568
607.09	31.436
607.42	30.466
607.75	29.958
608.08	30.091
608.42	30.749
608.75	30.478
609.08	30.944
609.41	30.890
609.75	30.014
610.08	31.338
610.41	30.261
610.74	31.410
611.07	30.731
611.41	31.747
611.74	31.674
612.07	32.402
612.40	31.427
612.73	30.947
613.07	31.627
613.40	31.596
613.73	29.995
614.06	30.645
614.39	30.414
614.72	29.684
615.06	31.303
615.39	29.724
615.72	30.573
616.05	30.356
616.38	31.684
616.71	31.888
617.05	31.920
617.38	31.810
617.71	30.390
618.04	31.370
618.37	30.219
618.70	32.172
619.03	31.382
619.36	31.908
619.69	32.676
620.03	31.799
620.36	31.618
620.69	31.370
621.02	31.858
621.35	31.637
621.68	32.632
622.01	31.889
622.34	32.073
622.67	32.319
623.00	30.741
623.33	30.665
623.66	31.022
623.99	31.959
624.32	30.884
624.65	29.873
624.99	30.170
625.32	30.196
625.65	31.931
625.98	32.437
626.31	32.426
626.64	31.510
626.97	31.172
627.30	31.338
627.63	32.650
627.96	32.464
628.29	32.721
628.62	31.656
628.95	32.547
629.28	31.843
629.61	32.722
629.94	32.476
630.26	33.079
630.59	32.888
