SpectraSuite Data File
++++++++++++++++++++++++++++++++++++
Date: Wed May 13 19:49:57 PDT 2015
User: schluterlab
Dark Spectrum Present: Yes
Reference Spectrum Present: Yes
Number of Sampled Component Spectra: 1
Spectrometers: USB2E3373
Integration Time (usec): 3000 (USB2E3373)
Spectra Averaged: 3 (USB2E3373)
Boxcar Smoothing: 0 (USB2E3373)
Correct for Electrical Dark: No (USB2E3373)
Strobe/Lamp Enabled: No (USB2E3373)
Correct for Detector Non-linearity: No (USB2E3373)
Correct for Stray Light: No (USB2E3373)
Number of Pixels in Processed Spectrum: 2048
>>>>>Begin Processed Spectral Data<<<<<
178.53	0.000
178.91	-1250.000
179.29	-1525.000
179.67	-194.444
180.04	-1425.000
180.42	2600.000
180.80	1260.000
181.18	-1150.000
181.56	742.857
181.94	0.000
182.31	-742.857
182.69	1800.000
183.07	-562.500
183.45	-511.111
183.83	509.091
184.20	-370.000
184.58	2600.000
184.96	7200.000
185.34	-920.000
185.72	-725.000
186.09	-2700.000
186.47	2700.000
186.85	2850.000
187.23	5200.000
187.61	-1866.667
187.98	1225.000
188.36	618.182
188.74	527.273
189.12	-920.000
189.49	710.000
189.87	-5200.000
190.25	-1350.000
190.63	392.857
191.00	415.385
191.38	933.333
191.76	-1250.000
192.14	1500.000
192.51	600.000
192.89	933.333
193.27	625.000
193.65	-975.000
194.02	550.000
194.40	840.000
194.78	550.000
195.15	566.667
195.53	700.000
195.91	-2050.000
196.29	362.500
196.66	394.737
197.04	-420.000
197.42	0.000
197.79	630.000
198.17	-4300.000
198.55	714.286
198.92	800.000
199.30	960.000
199.68	0.000
200.05	294.444
200.43	642.857
200.81	5700.000
201.18	1666.667
201.56	-1966.667
201.94	588.889
202.31	655.556
202.69	450.000
203.07	610.000
203.44	0.000
203.82	1100.000
204.19	814.286
204.57	457.143
204.95	725.000
205.32	1533.333
205.70	490.909
206.08	428.571
206.45	2500.000
206.83	356.250
207.20	1050.000
207.58	980.000
207.96	322.222
208.33	737.500
208.71	-966.667
209.08	785.714
209.46	600.000
209.84	554.545
210.21	-1666.667
210.59	1375.000
210.96	-500.000
211.34	2750.000
211.71	630.000
212.09	833.333
212.46	0.000
212.84	2066.667
213.22	1600.000
213.59	-5200.000
213.97	900.000
214.34	871.429
214.72	590.909
215.09	1180.000
215.47	-2200.000
215.84	-2850.000
216.22	1966.667
216.59	378.571
216.97	1300.000
217.34	509.091
217.72	-666.667
218.09	0.000
218.47	-4600.000
218.84	722.222
219.22	714.286
219.59	1966.667
219.97	-714.286
220.34	1060.000
220.72	-1666.667
221.09	421.429
221.47	1650.000
221.84	-1033.333
222.22	0.000
222.59	1500.000
222.97	-2250.000
223.34	1360.000
223.72	469.231
224.09	1100.000
224.46	2300.000
224.84	-5100.000
225.21	-1040.000
225.59	-5400.000
225.96	660.000
226.34	300.000
226.71	2350.000
227.08	725.000
227.46	530.000
227.83	-1325.000
228.21	-2650.000
228.58	700.000
228.95	-2500.000
229.33	-2550.000
229.70	1866.667
230.08	785.714
230.45	-800.000
230.82	441.667
231.20	916.667
231.57	700.000
231.95	533.333
232.32	222.727
232.69	481.818
233.07	771.429
233.44	400.000
233.81	-1666.667
234.19	357.895
234.56	425.000
234.93	400.000
235.31	527.273
235.68	438.462
236.05	414.286
236.43	212.121
236.80	315.789
237.17	5100.000
237.55	280.952
237.92	253.571
238.29	319.048
238.67	206.452
239.04	244.828
239.41	191.667
239.79	136.957
240.16	164.286
240.53	175.000
240.91	137.255
241.28	138.000
241.65	140.000
242.02	131.884
242.40	109.677
242.77	131.667
243.14	95.699
243.51	97.753
243.89	103.529
244.26	87.778
244.63	89.247
245.00	87.234
245.38	102.970
245.75	89.720
246.12	85.321
246.49	93.431
246.87	92.800
247.24	92.308
247.61	80.000
247.98	83.007
248.36	75.000
248.73	73.885
249.10	82.803
249.47	67.232
249.84	71.123
250.22	66.310
250.59	80.473
250.96	68.687
251.33	71.090
251.70	67.822
252.08	63.810
252.45	66.816
252.82	63.478
253.19	65.957
253.56	64.314
253.94	64.315
254.31	64.453
254.68	63.462
255.05	57.934
255.42	71.138
255.79	65.809
256.16	61.372
256.54	62.898
256.91	58.719
257.28	58.993
257.65	59.736
258.02	56.522
258.39	61.199
258.76	59.197
259.14	60.119
259.51	54.103
259.88	55.590
260.25	57.704
260.62	58.671
260.99	57.453
261.36	58.559
261.73	56.734
262.10	58.721
262.47	55.211
262.85	56.546
263.22	52.422
263.59	57.265
263.96	57.143
264.33	53.525
264.70	56.842
265.07	57.545
265.44	54.798
265.81	51.582
266.18	57.286
266.55	52.439
266.92	56.757
267.29	53.009
267.66	51.835
268.03	52.273
268.40	53.738
268.77	52.745
269.14	50.000
269.51	51.693
269.88	54.545
270.25	53.950
270.62	53.933
270.99	55.914
271.36	50.429
271.73	52.570
272.10	51.739
272.47	54.194
272.84	51.082
273.21	52.830
273.58	50.437
273.95	50.524
274.32	48.347
274.69	52.677
275.06	47.835
275.43	49.574
275.80	48.898
276.17	49.695
276.54	49.896
276.91	49.407
277.28	46.484
277.65	51.257
278.02	50.104
278.39	50.000
278.76	48.909
279.13	48.868
279.50	47.672
279.87	50.996
280.23	48.703
280.60	48.356
280.97	48.429
281.34	47.434
281.71	49.091
282.08	49.136
282.45	46.364
282.82	49.378
283.19	47.772
283.56	46.842
283.92	49.069
284.29	46.737
284.66	46.461
285.03	46.655
285.40	48.415
285.77	49.663
286.14	47.496
286.51	47.667
286.87	47.009
287.24	47.557
287.61	44.944
287.98	45.292
288.35	43.106
288.72	44.237
289.08	44.601
289.45	44.481
289.82	43.252
290.19	42.229
290.56	43.798
290.93	41.692
291.29	41.718
291.66	39.676
292.03	42.442
292.40	43.319
292.77	40.385
293.13	40.746
293.50	41.837
293.87	39.852
294.24	39.111
294.60	39.884
294.97	38.953
295.34	40.339
295.71	38.920
296.08	39.031
296.44	38.514
296.81	36.724
297.18	40.650
297.55	36.675
297.91	38.654
298.28	38.286
298.65	36.162
299.02	38.076
299.38	39.309
299.75	35.714
300.12	34.738
300.48	35.500
300.85	34.895
301.22	37.452
301.59	34.722
301.95	36.524
302.32	37.227
302.69	35.723
303.05	35.879
303.42	34.815
303.79	33.635
304.15	34.033
304.52	33.720
304.89	32.869
305.25	33.411
305.62	34.088
305.99	36.364
306.35	34.452
306.72	35.762
307.09	34.406
307.45	35.698
307.82	33.371
308.19	34.658
308.55	34.628
308.92	34.694
309.29	33.052
309.65	32.556
310.02	33.404
310.38	33.226
310.75	33.263
311.12	34.698
311.48	33.438
311.85	34.277
312.22	34.339
312.58	32.640
312.95	34.636
313.31	34.078
313.68	34.304
314.05	34.813
314.41	35.075
314.78	34.844
315.14	35.253
315.51	35.633
315.87	35.743
316.24	35.750
316.61	36.160
316.97	35.812
317.34	35.127
317.70	36.520
318.07	36.381
318.43	35.910
318.80	37.863
319.16	38.230
319.53	37.242
319.89	39.143
320.26	37.700
320.62	39.087
320.99	39.293
321.35	41.111
321.72	40.965
322.08	40.869
322.45	42.488
322.81	40.698
323.18	41.618
323.54	41.558
323.91	42.358
324.27	42.639
324.64	42.125
325.00	41.749
325.37	44.677
325.73	44.434
326.10	45.102
326.46	44.265
326.83	45.384
327.19	45.517
327.56	46.080
327.92	46.894
328.29	46.761
328.65	46.317
329.01	46.751
329.38	46.716
329.74	47.645
330.11	49.953
330.47	48.944
330.84	47.794
331.20	46.995
331.56	47.706
331.93	48.889
332.29	47.471
332.66	46.726
333.02	48.629
333.38	48.509
333.75	49.287
334.11	49.199
334.48	48.270
334.84	48.989
335.20	50.182
335.57	46.872
335.93	47.143
336.29	48.901
336.66	48.963
337.02	47.964
337.38	49.907
337.75	49.554
338.11	47.001
338.47	48.987
338.84	49.496
339.20	49.358
339.56	50.547
339.93	47.818
340.29	47.554
340.65	49.911
341.02	50.000
341.38	50.089
341.74	49.123
342.11	48.908
342.47	50.573
342.83	49.743
343.20	49.351
343.56	49.537
343.92	49.825
344.28	49.490
344.65	49.527
345.01	48.401
345.37	50.000
345.73	49.323
346.10	50.639
346.46	49.746
346.82	49.588
347.19	50.459
347.55	50.000
347.91	49.919
348.27	51.191
348.63	50.753
349.00	47.816
349.36	49.015
349.72	48.917
350.08	49.514
350.45	50.366
350.81	49.553
351.17	50.405
351.53	51.679
351.89	50.083
352.26	50.829
352.62	51.564
352.98	50.243
353.34	50.698
353.70	49.673
354.07	50.806
354.43	49.603
354.79	50.603
355.15	50.758
355.51	52.118
355.87	51.347
356.24	51.873
356.60	50.521
356.96	52.293
357.32	51.758
357.68	52.677
358.04	51.623
358.40	52.098
358.77	51.095
359.13	51.302
359.49	52.314
359.85	52.302
360.21	51.994
360.57	53.385
360.93	53.769
361.29	52.079
361.66	53.096
362.02	52.910
362.38	53.232
362.74	52.902
363.10	54.182
363.46	53.045
363.82	53.590
364.18	54.332
364.54	54.978
364.90	53.966
365.26	54.926
365.62	54.638
365.98	54.785
366.35	53.009
366.71	54.447
367.07	55.863
367.43	56.241
367.79	56.531
368.15	55.316
368.51	55.814
368.87	57.031
369.23	55.230
369.59	57.495
369.95	57.426
370.31	56.553
370.67	54.928
371.03	58.352
371.39	58.382
371.75	58.162
372.11	57.966
372.47	56.452
372.83	58.501
373.19	57.514
373.55	59.497
373.91	60.530
374.27	57.732
374.63	59.564
374.99	58.757
375.35	59.037
375.71	59.219
376.07	59.945
376.42	59.285
376.78	58.913
377.14	59.294
377.50	60.596
377.86	58.311
378.22	60.303
378.58	59.461
378.94	59.962
379.30	60.751
379.66	62.627
380.02	60.811
380.38	60.959
380.74	61.044
381.09	61.736
381.45	61.832
381.81	61.302
382.17	62.166
382.53	62.327
382.89	63.210
383.25	64.415
383.61	63.073
383.97	62.914
384.32	63.943
384.68	63.507
385.04	63.675
385.40	63.839
385.76	63.206
386.12	63.990
386.48	64.254
386.83	66.774
387.19	66.667
387.55	65.059
387.91	63.724
388.27	64.868
388.62	64.597
388.98	64.803
389.34	65.582
389.70	64.071
390.06	65.336
390.42	66.602
390.77	66.031
391.13	66.752
391.49	66.434
391.85	66.582
392.20	66.625
392.56	66.351
392.92	66.627
393.28	66.095
393.64	66.007
393.99	66.219
394.35	66.377
394.71	65.056
395.07	66.480
395.42	67.553
395.78	67.176
396.14	67.474
396.50	69.048
396.85	67.451
397.21	66.523
397.57	66.832
397.92	68.149
398.28	66.424
398.64	66.069
399.00	66.144
399.35	66.667
399.71	67.650
400.07	67.061
400.42	67.546
400.78	67.793
401.14	67.195
401.49	68.299
401.85	68.179
402.21	67.605
402.57	66.811
402.92	69.420
403.28	67.520
403.63	68.193
403.99	68.344
404.35	68.364
404.70	68.345
405.06	67.385
405.42	69.245
405.77	67.657
406.13	67.833
406.49	67.297
406.84	68.458
407.20	67.612
407.55	68.028
407.91	69.000
408.27	67.581
408.62	67.790
408.98	66.850
409.34	67.589
409.69	68.258
410.05	67.782
410.40	69.541
410.76	67.145
411.11	66.466
411.47	66.581
411.83	67.929
412.18	67.842
412.54	68.742
412.89	67.952
413.25	68.123
413.60	68.437
413.96	67.577
414.31	66.464
414.67	67.490
415.03	67.682
415.38	67.784
415.74	68.617
416.09	68.583
416.45	69.545
416.80	67.614
417.16	69.839
417.51	70.073
417.87	66.859
418.22	69.338
418.58	68.625
418.93	67.076
419.29	67.218
419.64	69.458
420.00	67.439
420.35	67.594
420.71	69.337
421.06	67.184
421.42	67.018
421.77	67.321
422.12	67.434
422.48	67.890
422.83	67.676
423.19	67.293
423.54	68.659
423.90	68.464
424.25	66.443
424.61	67.976
424.96	67.697
425.31	67.940
425.67	67.022
426.02	66.400
426.38	68.681
426.73	67.525
427.09	67.416
427.44	66.763
427.79	67.510
428.15	67.202
428.50	67.934
428.85	67.938
429.21	66.759
429.56	66.252
429.92	67.539
430.27	65.889
430.62	66.206
430.98	65.594
431.33	65.979
431.68	66.963
432.04	64.856
432.39	67.047
432.74	67.564
433.10	67.063
433.45	67.872
433.80	66.186
434.16	66.560
434.51	65.684
434.86	68.016
435.22	66.982
435.57	67.599
435.92	66.004
436.28	67.319
436.63	66.391
436.98	66.857
437.34	67.680
437.69	67.911
438.04	67.173
438.39	67.701
438.75	68.332
439.10	66.201
439.45	67.355
439.81	67.432
440.16	66.968
440.51	66.842
440.86	67.574
441.22	66.407
441.57	66.879
441.92	66.940
442.27	67.976
442.63	66.193
442.98	68.225
443.33	66.467
443.68	66.598
444.03	66.911
444.39	66.845
444.74	68.452
445.09	66.900
445.44	66.812
445.79	66.353
446.15	65.749
446.50	66.990
446.85	67.112
447.20	67.211
447.55	69.123
447.91	67.568
448.26	67.223
448.61	66.535
448.96	67.940
449.31	67.998
449.66	67.079
450.02	66.964
450.37	65.249
450.72	67.625
451.07	66.423
451.42	65.410
451.77	67.176
452.12	65.069
452.47	66.729
452.83	67.191
453.18	66.809
453.53	67.965
453.88	66.391
454.23	67.364
454.58	66.445
454.93	68.849
455.28	66.646
455.63	67.840
455.98	68.155
456.34	66.080
456.69	67.502
457.04	67.554
457.39	64.933
457.74	64.945
458.09	65.900
458.44	65.964
458.79	66.215
459.14	66.084
459.49	66.200
459.84	65.208
460.19	65.115
460.54	63.600
460.89	63.961
461.24	65.817
461.59	66.705
461.94	65.228
462.29	65.104
462.64	65.412
462.99	64.086
463.34	66.000
463.69	64.978
464.04	65.043
464.39	63.884
464.74	64.765
465.09	64.656
465.44	64.211
465.79	64.038
466.14	61.357
466.49	62.848
466.84	64.040
467.19	62.402
467.54	64.375
467.89	63.505
468.24	62.827
468.59	64.652
468.94	63.592
469.29	64.910
469.64	63.989
469.99	65.832
470.34	64.663
470.68	63.649
471.03	63.537
471.38	65.462
471.73	64.757
472.08	64.145
472.43	62.500
472.78	63.792
473.13	64.121
473.48	63.546
473.83	63.780
474.17	60.983
474.52	63.524
474.87	63.222
475.22	61.346
475.57	60.828
475.92	62.454
476.27	61.894
476.61	61.666
476.96	61.078
477.31	60.230
477.66	61.488
478.01	60.899
478.36	61.502
478.70	59.917
479.05	62.247
479.40	61.003
479.75	61.108
480.10	60.835
480.45	58.829
480.79	59.293
481.14	60.225
481.49	60.038
481.84	59.762
482.19	59.700
482.53	58.394
482.88	58.678
483.23	59.206
483.58	59.008
483.92	59.513
484.27	57.211
484.62	58.060
484.97	58.100
485.31	59.178
485.66	58.210
486.01	55.472
486.36	53.996
486.70	53.184
487.05	53.834
487.40	54.903
487.75	55.066
488.09	55.869
488.44	55.871
488.79	56.564
489.13	56.990
489.48	57.667
489.83	56.970
490.17	57.957
490.52	57.086
490.87	56.943
491.22	56.162
491.56	55.399
491.91	56.957
492.26	55.397
492.60	55.714
492.95	56.361
493.30	55.327
493.64	55.296
493.99	54.968
494.34	55.643
494.68	56.364
495.03	55.921
495.37	54.072
495.72	56.043
496.07	56.288
496.41	54.602
496.76	54.529
497.11	54.705
497.45	54.821
497.80	54.607
498.14	54.010
498.49	55.268
498.84	54.938
499.18	54.857
499.53	54.891
499.87	53.541
500.22	54.216
500.56	54.515
500.91	53.413
501.26	53.912
501.60	54.817
501.95	53.391
502.29	54.686
502.64	53.399
502.98	53.249
503.33	52.879
503.67	53.457
504.02	52.292
504.36	52.036
504.71	52.516
505.06	53.108
505.40	52.698
505.75	53.086
506.09	51.944
506.44	52.935
506.78	52.849
507.13	52.650
507.47	52.929
507.82	53.242
508.16	52.685
508.51	54.033
508.85	51.539
509.19	51.531
509.54	51.276
509.88	52.653
510.23	52.853
510.57	53.044
510.92	52.667
511.26	52.467
511.61	51.815
511.95	51.566
512.30	51.750
512.64	52.552
512.98	52.519
513.33	52.195
513.67	51.227
514.02	50.703
514.36	52.157
514.70	52.075
515.05	51.366
515.39	52.832
515.74	51.014
516.08	52.152
516.42	52.497
516.77	51.895
517.11	51.498
517.46	50.564
517.80	52.323
518.14	51.187
518.49	51.867
518.83	51.364
519.17	51.212
519.52	50.877
519.86	52.539
520.20	51.561
520.55	50.808
520.89	51.886
521.23	51.448
521.58	51.921
521.92	51.500
522.26	50.031
522.61	52.025
522.95	50.952
523.29	51.309
523.64	51.829
523.98	51.571
524.32	51.568
524.66	50.752
525.01	50.735
525.35	50.372
525.69	49.261
526.04	50.654
526.38	49.725
526.72	49.632
527.06	51.099
527.41	49.196
527.75	50.675
528.09	51.830
528.43	50.797
528.78	50.584
529.12	49.818
529.46	49.663
529.80	49.752
530.15	49.221
530.49	47.631
530.83	48.987
531.17	51.762
531.51	50.454
531.86	50.258
532.20	50.196
532.54	49.712
532.88	49.166
533.22	49.032
533.57	48.580
533.91	47.682
534.25	48.846
534.59	49.420
534.93	47.888
535.27	48.401
535.62	48.046
535.96	48.650
536.30	49.205
536.64	47.650
536.98	48.839
537.32	48.190
537.66	49.200
538.01	49.177
538.35	47.059
538.69	48.756
539.03	47.758
539.37	46.709
539.71	46.079
540.05	47.190
540.39	47.243
540.73	46.636
541.07	46.788
541.42	47.162
541.76	47.613
542.10	46.960
542.44	46.159
542.78	47.365
543.12	45.681
543.46	48.262
543.80	46.975
544.14	45.443
544.48	46.095
544.82	45.542
545.16	46.584
545.50	44.794
545.84	45.901
546.18	46.667
546.52	46.662
546.86	45.773
547.20	46.392
547.54	46.493
547.88	46.875
548.22	44.396
548.56	45.597
548.90	44.366
549.24	44.714
549.58	46.999
549.92	46.085
550.26	46.094
550.60	44.882
550.94	45.775
551.28	45.501
551.62	46.082
551.96	45.333
552.30	46.485
552.64	44.828
552.98	44.949
553.32	44.639
553.66	45.058
554.00	44.475
554.34	44.030
554.68	44.421
555.02	44.711
555.36	44.955
555.69	44.452
556.03	44.751
556.37	44.270
556.71	43.452
557.05	44.258
557.39	44.787
557.73	45.166
558.07	42.930
558.41	45.297
558.75	43.571
559.08	43.699
559.42	45.049
559.76	43.382
560.10	42.612
560.44	43.955
560.78	42.848
561.12	42.876
561.45	43.807
561.79	43.375
562.13	43.595
562.47	44.126
562.81	44.282
563.15	42.943
563.48	43.966
563.82	43.118
564.16	42.708
564.50	42.773
564.84	42.351
565.17	42.600
565.51	42.173
565.85	42.069
566.19	41.390
566.52	43.445
566.86	41.712
567.20	42.099
567.54	40.925
567.88	41.445
568.21	41.376
568.55	41.658
568.89	41.732
569.23	40.374
569.56	39.514
569.90	39.623
570.24	40.079
570.57	38.932
570.91	38.235
571.25	38.357
571.59	37.850
571.92	38.537
572.26	38.042
572.60	37.928
572.93	37.751
573.27	37.947
573.61	37.996
573.95	38.088
574.28	37.638
574.62	37.099
574.96	37.682
575.29	37.342
575.63	37.043
575.97	36.787
576.30	36.883
576.64	37.124
576.98	36.704
577.31	36.645
577.65	37.372
577.98	36.530
578.32	36.001
578.66	36.604
578.99	36.453
579.33	36.819
579.67	35.977
580.00	35.963
580.34	37.019
580.67	35.925
581.01	36.609
581.35	36.347
581.68	36.824
582.02	35.858
582.35	36.184
582.69	35.645
583.02	35.907
583.36	36.039
583.70	36.239
584.03	36.390
584.37	36.232
584.70	36.259
585.04	35.739
585.37	36.067
585.71	35.926
586.04	35.661
586.38	36.259
586.72	36.620
587.05	36.050
587.39	35.831
587.72	35.893
588.06	35.592
588.39	36.049
588.73	35.641
589.06	36.273
589.40	36.768
589.73	36.677
590.07	36.690
590.40	36.281
590.73	37.198
591.07	37.322
591.40	37.832
591.74	37.879
592.07	37.696
592.41	37.040
592.74	36.667
593.08	36.243
593.41	35.811
593.75	35.134
594.08	35.401
594.41	36.903
594.75	36.340
595.08	35.684
595.42	35.727
595.75	35.933
596.09	36.162
596.42	37.014
596.75	36.176
597.09	36.753
597.42	35.371
597.75	37.085
598.09	36.261
598.42	35.567
598.76	35.347
599.09	35.272
599.42	35.189
599.76	34.956
600.09	34.754
600.42	34.989
600.76	35.107
601.09	34.572
601.42	34.779
601.76	34.991
602.09	34.427
602.42	34.475
602.76	36.195
603.09	35.287
603.42	36.197
603.76	34.832
604.09	34.587
604.42	34.488
604.76	35.555
605.09	35.081
605.42	35.785
605.75	35.430
606.09	34.526
606.42	35.758
606.75	34.716
607.09	34.450
607.42	35.173
607.75	34.262
608.08	34.694
608.42	35.724
608.75	34.265
609.08	34.413
609.41	35.507
609.75	35.017
610.08	35.250
610.41	34.870
610.74	34.484
611.07	35.375
611.41	34.838
611.74	35.445
612.07	35.973
612.40	35.677
612.73	35.316
613.07	36.638
613.40	36.019
613.73	35.239
614.06	35.000
614.39	33.980
614.72	34.421
615.06	35.294
615.39	34.395
615.72	34.254
616.05	34.237
616.38	34.352
616.71	35.570
617.05	36.749
617.38	35.598
617.71	35.796
618.04	35.877
618.37	35.009
618.70	35.594
619.03	36.250
619.36	35.506
619.69	35.423
620.03	37.019
620.36	35.896
620.69	37.123
621.02	36.283
621.35	36.648
621.68	35.125
622.01	34.907
622.34	36.536
622.67	36.122
623.00	35.216
623.33	35.454
623.66	36.312
623.99	36.377
624.32	34.665
624.65	34.393
624.99	35.907
625.32	35.771
625.65	35.687
625.98	36.895
626.31	35.692
626.64	36.816
626.97	36.741
627.30	36.908
627.63	36.833
627.96	36.838
628.29	36.833
628.62	37.054
628.95	38.019
629.28	36.770
629.61	36.480
629.94	37.238
630.26	36.511
630.59	37.178
