SpectraSuite Data File
++++++++++++++++++++++++++++++++++++
Date: Wed May 13 19:49:21 PDT 2015
User: schluterlab
Dark Spectrum Present: Yes
Reference Spectrum Present: Yes
Number of Sampled Component Spectra: 1
Spectrometers: USB2E3373
Integration Time (usec): 3000 (USB2E3373)
Spectra Averaged: 3 (USB2E3373)
Boxcar Smoothing: 0 (USB2E3373)
Correct for Electrical Dark: No (USB2E3373)
Strobe/Lamp Enabled: No (USB2E3373)
Correct for Detector Non-linearity: No (USB2E3373)
Correct for Stray Light: No (USB2E3373)
Number of Pixels in Processed Spectrum: 2048
>>>>>Begin Processed Spectral Data<<<<<
178.53	0.000
178.91	-1450.000
179.29	-1200.000
179.67	-227.778
180.04	-1275.000
180.42	3000.000
180.80	1040.000
181.18	-1350.000
181.56	771.429
181.94	0.000
182.31	-814.286
182.69	2066.667
183.07	-612.500
183.45	-600.000
183.83	554.545
184.20	-420.000
184.58	2400.000
184.96	5500.000
185.34	-900.000
185.72	-575.000
186.09	-2150.000
186.47	2900.000
186.85	2300.000
187.23	5200.000
187.61	-1733.333
187.98	1475.000
188.36	609.091
188.74	518.182
189.12	-920.000
189.49	520.000
189.87	-5000.000
190.25	-1400.000
190.63	428.571
191.00	438.462
191.38	966.667
191.76	-1150.000
192.14	1275.000
192.51	700.000
192.89	1133.333
193.27	600.000
193.65	-1350.000
194.02	600.000
194.40	900.000
194.78	530.000
195.15	583.333
195.53	700.000
195.91	-2500.000
196.29	406.250
196.66	315.789
197.04	-370.000
197.42	0.000
197.79	580.000
198.17	-3800.000
198.55	657.143
198.92	687.500
199.30	860.000
199.68	0.000
200.05	316.667
200.43	800.000
200.81	5000.000
201.18	2066.667
201.56	-1766.667
201.94	577.778
202.31	644.444
202.69	416.667
203.07	580.000
203.44	0.000
203.82	1350.000
204.19	800.000
204.57	428.571
204.95	750.000
205.32	1600.000
205.70	536.364
206.08	414.286
206.45	3250.000
206.83	406.250
207.20	850.000
207.58	760.000
207.96	361.111
208.33	812.500
208.71	-933.333
209.08	757.143
209.46	555.556
209.84	518.182
210.21	-1433.333
210.59	1375.000
210.96	-500.000
211.34	2450.000
211.71	650.000
212.09	866.667
212.46	0.000
212.84	1800.000
213.22	1575.000
213.59	-5300.000
213.97	916.667
214.34	728.571
214.72	600.000
215.09	1200.000
215.47	-2600.000
215.84	-2700.000
216.22	1600.000
216.59	492.857
216.97	1500.000
217.34	481.818
217.72	-816.667
218.09	0.000
218.47	-4500.000
218.84	633.333
219.22	685.714
219.59	1900.000
219.97	-728.571
220.34	900.000
220.72	-2133.333
221.09	428.571
221.47	1375.000
221.84	-766.667
222.22	0.000
222.59	1500.000
222.97	-2600.000
223.34	1260.000
223.72	476.923
224.09	1160.000
224.46	2950.000
224.84	-5300.000
225.21	-1100.000
225.59	-5400.000
225.96	610.000
226.34	280.000
226.71	2850.000
227.08	700.000
227.46	520.000
227.83	-1050.000
228.21	-2500.000
228.58	711.111
228.95	-2700.000
229.33	-2350.000
229.70	1800.000
230.08	785.714
230.45	-760.000
230.82	483.333
231.20	733.333
231.57	685.714
231.95	550.000
232.32	277.273
232.69	509.091
233.07	657.143
233.44	392.308
233.81	-1666.667
234.19	342.105
234.56	508.333
234.93	408.333
235.31	554.545
235.68	415.385
236.05	442.857
236.43	218.182
236.80	321.053
237.17	5600.000
237.55	266.667
237.92	235.714
238.29	319.048
238.67	196.774
239.04	275.862
239.41	186.111
239.79	150.000
240.16	176.190
240.53	168.182
240.91	125.490
241.28	138.000
241.65	146.000
242.02	117.391
242.40	109.677
242.77	125.000
243.14	108.602
243.51	103.371
243.89	105.882
244.26	98.889
244.63	97.849
245.00	98.936
245.38	88.119
245.75	83.178
246.12	87.156
246.49	81.752
246.87	96.800
247.24	78.462
247.61	77.857
247.98	84.967
248.36	75.000
248.73	76.433
249.10	87.261
249.47	72.316
249.84	71.123
250.22	66.310
250.59	74.556
250.96	77.273
251.33	68.720
251.70	71.287
252.08	68.095
252.45	62.332
252.82	63.913
253.19	62.128
253.56	65.490
253.94	66.805
254.31	63.672
254.68	65.769
255.05	64.207
255.42	65.041
255.79	60.662
256.16	64.982
256.54	56.537
256.91	63.345
257.28	61.511
257.65	60.066
258.02	57.143
258.39	57.413
258.76	63.211
259.14	58.929
259.51	57.143
259.88	58.385
260.25	57.704
260.62	59.827
260.99	61.180
261.36	58.258
261.73	58.453
262.10	55.523
262.47	58.028
262.85	54.039
263.22	57.835
263.59	55.556
263.96	57.143
264.33	58.225
264.70	53.947
265.07	54.987
265.44	55.556
265.81	51.582
266.18	56.533
266.55	54.634
266.92	55.037
267.29	55.556
267.66	53.670
268.03	52.727
268.40	54.907
268.77	51.551
269.14	51.126
269.51	52.596
269.88	54.079
270.25	53.950
270.62	52.360
270.99	51.613
271.36	52.790
271.73	54.673
272.10	52.826
272.47	52.903
272.84	52.165
273.21	51.363
273.58	51.092
273.95	47.799
274.32	48.760
274.69	55.032
275.06	49.409
275.43	53.617
275.80	52.906
276.17	50.713
276.54	50.520
276.91	51.186
277.28	49.414
277.65	47.582
278.02	50.932
278.39	50.000
278.76	50.909
279.13	52.075
279.50	47.672
279.87	50.398
280.23	51.697
280.60	51.064
280.97	47.505
281.34	50.265
281.71	48.364
282.08	49.904
282.45	48.727
282.82	48.668
283.19	48.663
283.56	49.825
283.92	47.885
284.29	47.443
284.66	48.276
285.03	47.016
285.40	46.655
285.77	48.485
286.14	46.632
286.51	47.333
286.87	46.667
287.24	45.277
287.61	45.746
287.98	43.831
288.35	44.374
288.72	44.704
289.08	44.288
289.45	43.657
289.82	43.740
290.19	41.915
290.56	41.960
290.93	41.088
291.29	44.632
291.66	40.413
292.03	44.331
292.40	41.997
292.77	40.089
293.13	39.851
293.50	39.942
293.87	40.593
294.24	38.963
294.60	39.738
294.97	39.244
295.34	40.197
295.71	39.489
296.08	37.749
296.44	38.927
296.81	39.234
297.18	39.431
297.55	35.620
297.91	37.071
298.28	38.822
298.65	36.684
299.02	37.418
299.38	36.786
299.75	37.466
300.12	35.377
300.48	35.000
300.85	36.252
301.22	36.561
301.59	34.343
301.95	37.280
302.32	36.842
302.69	33.931
303.05	35.152
303.42	34.198
303.79	35.108
304.15	33.800
304.52	33.140
304.89	31.940
305.25	32.715
305.62	33.296
305.99	36.009
306.35	34.340
306.72	33.969
307.09	34.628
307.45	34.347
307.82	33.036
308.19	34.106
308.55	33.981
308.92	33.298
309.29	30.834
309.65	31.919
310.02	33.192
310.38	33.226
310.75	32.946
311.12	33.367
311.48	33.020
311.85	32.180
312.22	32.362
312.58	30.665
312.95	32.207
313.31	31.165
313.68	32.952
314.05	34.221
314.41	32.261
314.78	30.614
315.14	31.082
315.51	32.544
315.87	31.386
316.24	31.480
316.61	30.994
316.97	30.431
317.34	30.626
317.70	32.122
318.07	31.184
318.43	30.431
318.80	31.584
319.16	30.508
319.53	30.769
319.89	30.667
320.26	32.200
320.62	31.448
320.99	30.404
321.35	30.909
321.72	31.930
322.08	31.293
322.45	32.239
322.81	29.845
323.18	30.154
323.54	30.983
323.91	31.226
324.27	30.115
324.64	29.450
325.00	29.576
325.37	30.755
325.73	31.777
326.10	30.891
326.46	30.556
326.83	30.716
327.19	29.974
327.56	29.878
327.92	30.096
328.29	30.612
328.65	31.860
329.01	30.957
329.38	29.695
329.74	29.271
330.11	30.160
330.47	31.497
330.84	31.066
331.20	31.421
331.56	30.459
331.93	29.537
332.29	30.257
332.66	30.619
333.02	30.804
333.38	30.714
333.75	29.857
334.11	30.961
334.48	29.636
334.84	30.331
335.20	29.545
335.57	29.918
335.93	28.661
336.29	30.128
336.66	29.216
337.02	29.321
337.38	28.796
337.75	30.125
338.11	29.722
338.47	29.374
338.84	30.247
339.20	29.358
339.56	29.380
339.93	30.182
340.29	30.344
340.65	29.590
341.02	30.628
341.38	30.427
341.74	28.860
342.11	29.345
342.47	28.899
342.83	28.253
343.20	29.697
343.56	28.307
343.92	29.386
344.28	29.592
344.65	28.977
345.01	27.778
345.37	28.302
345.73	28.849
346.10	28.474
346.46	28.898
346.82	28.748
347.19	28.404
347.55	27.997
347.91	28.803
348.27	29.745
348.63	28.846
349.00	27.670
349.36	28.079
349.72	28.067
350.08	27.634
350.45	28.316
350.81	28.838
351.17	28.201
351.53	27.846
351.89	28.053
352.26	28.571
352.62	27.185
352.98	27.066
353.34	28.102
353.70	27.741
354.07	27.742
354.43	26.508
354.79	26.388
355.15	27.135
355.51	28.537
355.87	28.000
356.24	27.524
356.60	27.907
356.96	26.790
357.32	26.983
357.68	28.346
358.04	27.553
358.40	27.395
358.77	26.995
359.13	26.283
359.49	27.608
359.85	26.746
360.21	26.715
360.57	26.615
360.93	26.769
361.29	26.002
361.66	26.393
362.02	27.090
362.38	27.376
362.74	27.083
363.10	25.981
363.46	26.926
363.82	26.077
364.18	25.698
364.54	26.597
364.90	26.629
365.26	26.544
365.62	26.808
365.98	25.931
366.35	26.218
366.71	26.103
367.07	26.293
367.43	25.544
367.79	26.124
368.15	26.724
368.51	26.235
368.87	26.552
369.23	27.286
369.59	26.140
369.95	25.809
370.31	25.000
370.67	26.014
371.03	26.517
371.39	26.312
371.75	25.588
372.11	25.391
372.47	27.566
372.83	26.657
373.19	26.517
373.55	26.312
373.91	27.099
374.27	25.842
374.63	25.527
374.99	25.636
375.35	25.820
375.71	25.634
376.07	26.337
376.42	26.204
376.78	25.646
377.14	25.441
377.50	25.629
377.86	24.867
378.22	25.917
378.58	24.687
378.94	25.016
379.30	25.573
379.66	25.825
380.02	25.369
380.38	24.651
380.74	25.090
381.09	25.489
381.45	24.339
381.81	25.123
382.17	25.732
382.53	24.340
382.89	25.432
383.25	24.453
383.61	24.907
383.97	25.016
384.32	24.828
384.68	24.226
385.04	24.954
385.40	24.644
385.76	23.710
386.12	24.288
386.48	25.047
386.83	25.208
387.19	25.974
387.55	24.181
387.91	24.547
388.27	23.728
388.62	24.093
388.98	23.956
389.34	24.406
389.70	24.280
390.06	23.828
390.42	24.708
390.77	24.936
391.13	25.335
391.49	25.444
391.85	24.889
392.20	24.543
392.56	23.801
392.92	24.308
393.28	23.787
393.64	24.281
393.99	24.618
394.35	24.007
394.71	24.404
395.07	23.676
395.42	24.969
395.78	24.873
396.14	24.519
396.50	25.063
396.85	24.921
397.21	23.798
397.57	23.931
397.92	24.279
398.28	23.262
398.64	24.074
399.00	24.231
399.35	24.083
399.71	24.248
400.07	24.187
400.42	24.172
400.78	24.608
401.14	23.659
401.49	24.299
401.85	23.654
402.21	23.353
402.57	24.244
402.92	23.834
403.28	23.985
403.63	24.196
403.99	23.121
404.35	24.606
404.70	24.281
405.06	23.588
405.42	23.019
405.77	23.257
406.13	23.025
406.49	23.418
406.84	23.449
407.20	23.050
407.55	23.676
407.91	24.133
408.27	23.484
408.62	23.961
408.98	23.897
409.34	24.170
409.69	23.935
410.05	23.358
410.40	24.404
410.76	22.939
411.11	23.221
411.47	23.195
411.83	23.152
412.18	23.315
412.54	24.720
412.89	23.976
413.25	22.845
413.60	23.471
413.96	22.526
414.31	22.539
414.67	23.638
415.03	23.709
415.38	23.647
415.74	23.923
416.09	24.233
416.45	23.159
416.80	23.133
417.16	24.531
417.51	24.154
417.87	23.250
418.22	24.290
418.58	24.274
418.93	23.771
419.29	23.552
419.64	23.866
420.00	23.780
420.35	22.957
420.71	23.252
421.06	23.329
421.42	24.094
421.77	23.599
422.12	22.796
422.48	22.234
422.83	22.481
423.19	23.260
423.54	23.506
423.90	23.420
424.25	23.004
424.61	23.155
424.96	23.090
425.31	23.311
425.67	22.528
426.02	23.143
426.38	22.955
426.73	23.113
427.09	23.647
427.44	22.542
427.79	22.082
428.15	23.036
428.50	23.171
428.85	23.063
429.21	22.308
429.56	22.913
429.92	22.396
430.27	22.790
430.62	21.608
430.98	22.833
431.33	23.196
431.68	22.618
432.04	22.630
432.39	22.159
432.74	22.741
433.10	22.807
433.45	23.207
433.80	22.838
434.16	22.810
434.51	22.316
434.86	22.121
435.22	22.679
435.57	23.161
435.92	22.528
436.28	23.369
436.63	23.068
436.98	23.354
437.34	22.182
437.69	23.454
438.04	22.485
438.39	22.866
438.75	22.719
439.10	22.346
439.45	22.550
439.81	22.719
440.16	23.094
440.51	22.378
440.86	22.235
441.22	23.137
441.57	22.665
441.92	23.030
442.27	22.443
442.63	22.380
442.98	22.873
443.33	23.152
443.68	22.509
444.03	22.889
444.39	21.519
444.74	23.539
445.09	22.102
445.44	22.799
445.79	22.415
446.15	22.446
446.50	22.079
446.85	22.713
447.20	22.743
447.55	22.111
447.91	22.890
448.26	22.259
448.61	22.442
448.96	22.591
449.31	21.935
449.66	23.016
450.02	22.117
450.37	22.562
450.72	22.617
451.07	21.999
451.42	23.040
451.77	23.194
452.12	21.709
452.47	22.512
452.83	22.960
453.18	22.555
453.53	23.129
453.88	21.914
454.23	22.654
454.58	23.016
454.93	22.632
455.28	22.070
455.63	22.148
455.98	23.155
456.34	22.236
456.69	21.728
457.04	22.848
457.39	22.092
457.74	22.577
458.09	22.139
458.44	22.235
458.79	21.638
459.14	22.630
459.49	22.534
459.84	21.994
460.19	20.978
460.54	22.106
460.89	22.161
461.24	22.587
461.59	22.371
461.94	21.825
462.29	22.730
462.64	23.293
462.99	22.251
463.34	24.000
463.69	22.702
464.04	22.377
464.39	22.319
464.74	22.816
465.09	22.497
465.44	21.994
465.79	21.812
466.14	21.839
466.49	21.580
466.84	22.592
467.19	21.847
467.54	23.125
467.89	21.669
468.24	22.862
468.59	22.222
468.94	21.747
469.29	21.979
469.64	23.360
469.99	22.869
470.34	23.052
470.68	22.557
471.03	21.020
471.38	22.446
471.73	22.518
472.08	23.224
472.43	22.236
472.78	21.988
473.13	23.042
473.48	23.221
473.83	22.561
474.17	22.153
474.52	22.333
474.87	22.709
475.22	22.809
475.57	21.924
475.92	22.358
476.27	21.082
476.61	21.677
476.96	22.320
477.31	21.978
477.66	22.374
478.01	20.910
478.36	22.052
478.70	21.391
479.05	22.630
479.40	22.160
479.75	21.098
480.10	21.372
480.45	21.799
480.79	21.309
481.14	21.575
481.49	21.642
481.84	21.811
482.19	21.899
482.53	21.468
482.88	21.778
483.23	20.794
483.58	22.111
483.92	22.118
484.27	20.436
484.62	20.948
484.97	21.009
485.31	21.747
485.66	21.559
486.01	21.242
486.36	20.448
486.70	19.583
487.05	20.162
487.40	21.118
487.75	20.290
488.09	20.412
488.44	20.080
488.79	20.723
489.13	20.397
489.48	20.840
489.83	20.932
490.17	21.701
490.52	21.036
490.87	21.076
491.22	20.009
491.56	20.228
491.91	20.568
492.26	20.671
492.60	20.968
492.95	20.159
493.30	20.093
493.64	20.672
493.99	20.706
494.34	21.277
494.68	20.467
495.03	21.100
495.37	20.568
495.72	20.517
496.07	21.253
496.41	20.354
496.76	21.108
497.11	20.666
497.45	20.121
497.80	20.441
498.14	20.580
498.49	20.927
498.84	21.093
499.18	20.810
499.53	21.083
499.87	20.969
500.22	20.160
500.56	20.874
500.91	21.058
501.26	20.721
501.60	21.120
501.95	20.257
502.29	22.071
502.64	20.717
502.98	20.757
503.33	20.795
503.67	20.742
504.02	21.422
504.36	21.151
504.71	20.518
505.06	21.253
505.40	20.856
505.75	20.829
506.09	20.214
506.44	20.720
506.78	21.140
507.13	21.403
507.47	20.404
507.82	21.023
508.16	21.479
508.51	20.903
508.85	20.407
509.19	20.816
509.54	20.357
509.88	20.402
510.23	21.131
510.57	21.878
510.92	21.543
511.26	20.298
511.61	20.954
511.95	21.033
512.30	21.050
512.64	21.279
512.98	20.954
513.33	21.306
513.67	20.864
514.02	20.455
514.36	20.754
514.70	20.642
515.05	20.301
515.39	21.312
515.74	20.833
516.08	20.906
516.42	21.976
516.77	20.847
517.11	21.088
517.46	21.840
517.80	21.545
518.14	20.382
518.49	22.462
518.83	21.023
519.17	20.843
519.52	21.166
519.86	21.563
520.20	21.618
520.55	22.142
520.89	21.229
521.23	22.135
521.58	20.708
521.92	21.800
522.26	20.195
522.61	20.436
522.95	21.486
523.29	20.511
523.64	21.280
523.98	20.641
524.32	21.411
524.66	20.746
525.01	21.324
525.35	21.004
525.69	20.443
526.04	21.184
526.38	20.866
526.72	20.920
527.06	21.343
527.41	20.606
527.75	21.543
528.09	21.387
528.43	21.224
528.78	22.250
529.12	21.152
529.46	21.310
529.80	21.163
530.15	21.869
530.49	21.846
530.83	21.582
531.17	21.345
531.51	23.217
531.86	22.194
532.20	21.969
532.54	22.486
532.88	21.502
533.22	21.799
533.57	21.481
533.91	21.252
534.25	21.567
534.59	21.538
534.93	21.773
535.27	21.123
535.62	22.222
535.96	21.406
536.30	21.742
536.64	22.151
536.98	21.831
537.32	21.725
537.66	22.667
538.01	22.120
538.35	22.107
538.69	22.017
539.03	20.923
539.37	21.150
539.71	20.933
540.05	21.634
540.39	21.595
540.73	22.316
541.07	21.220
541.42	21.918
541.76	23.161
542.10	22.445
542.44	21.457
542.78	21.871
543.12	21.753
543.46	21.443
543.80	21.796
544.14	21.566
544.48	22.032
544.82	20.783
545.16	23.162
545.50	21.337
545.84	21.976
546.18	21.953
546.52	22.712
546.86	21.924
547.20	21.578
547.54	21.910
547.88	23.023
548.22	21.731
548.56	22.579
548.90	22.023
549.24	21.549
549.58	21.828
549.92	21.841
550.26	21.733
550.60	21.231
550.94	20.915
551.28	21.434
551.62	21.711
551.96	21.333
552.30	21.502
552.64	22.312
552.98	21.356
553.32	22.050
553.66	22.154
554.00	21.826
554.34	22.084
554.68	22.031
555.02	20.945
555.36	20.807
555.69	21.313
556.03	21.938
556.37	21.623
556.71	21.896
557.05	22.479
557.39	21.763
557.73	21.171
558.07	22.553
558.41	21.346
558.75	21.969
559.08	22.446
559.42	21.240
559.76	21.838
560.10	22.270
560.44	22.572
560.78	21.490
561.12	21.768
561.45	21.186
561.79	21.556
562.13	20.926
562.47	21.653
562.81	22.176
563.15	21.538
563.48	22.347
563.82	22.244
564.16	21.975
564.50	21.745
564.84	21.997
565.17	21.622
565.51	21.981
565.85	21.891
566.19	21.165
566.52	22.673
566.86	21.157
567.20	22.052
567.54	21.747
567.88	21.890
568.21	22.275
568.55	21.992
568.89	21.936
569.23	22.059
569.56	21.538
569.90	21.585
570.24	21.708
570.57	21.761
570.91	21.396
571.25	21.618
571.59	21.414
571.92	21.774
572.26	21.115
572.60	21.622
572.93	20.960
573.27	21.325
573.61	21.692
573.95	21.602
574.28	21.382
574.62	21.380
574.96	21.004
575.29	20.587
575.63	20.910
575.97	20.828
576.30	20.951
576.64	20.950
576.98	21.050
577.31	20.933
577.65	21.564
577.98	21.190
578.32	21.207
578.66	20.860
578.99	21.616
579.33	20.963
579.67	20.725
580.00	20.834
580.34	20.764
580.67	20.657
581.01	21.048
581.35	21.313
581.68	21.350
582.02	21.043
582.35	20.922
582.69	20.959
583.02	21.030
583.36	21.121
583.70	20.954
584.03	20.716
584.37	20.817
584.70	21.578
585.04	20.988
585.37	21.412
585.71	21.852
586.04	21.044
586.38	21.735
586.72	20.933
587.05	21.054
587.39	21.135
587.72	21.103
588.06	21.265
588.39	21.838
588.73	21.414
589.06	21.564
589.40	21.549
589.73	22.210
590.07	21.637
590.40	21.191
590.73	21.429
591.07	21.815
591.40	21.468
591.74	22.987
592.07	21.684
592.41	22.241
592.74	21.910
593.08	21.752
593.41	21.923
593.75	21.049
594.08	21.388
594.41	21.774
594.75	21.257
595.08	22.047
595.42	21.716
595.75	21.652
596.09	22.005
596.42	21.965
596.75	21.655
597.09	22.165
597.42	21.206
597.75	21.000
598.09	21.783
598.42	21.478
598.76	21.686
599.09	21.095
599.42	21.834
599.76	21.962
600.09	21.421
600.42	21.256
600.76	20.964
601.09	21.530
601.42	21.385
601.76	21.328
602.09	20.830
602.42	21.935
602.76	21.765
603.09	22.266
603.42	22.062
603.76	21.380
604.09	20.706
604.42	21.525
604.76	21.679
605.09	21.713
605.42	21.248
605.75	21.689
606.09	21.797
606.42	21.700
606.75	21.734
607.09	21.850
607.42	21.609
607.75	20.717
608.08	21.320
608.42	22.277
608.75	21.461
609.08	21.924
609.41	21.704
609.75	21.343
610.08	22.196
610.41	20.810
610.74	21.192
611.07	21.492
611.41	22.080
611.74	22.272
612.07	21.273
612.40	22.455
612.73	21.842
613.07	22.198
613.40	22.538
613.73	21.028
614.06	21.129
614.39	21.185
614.72	22.368
615.06	22.111
615.39	21.550
615.72	21.472
616.05	21.903
616.38	22.123
616.71	22.506
617.05	22.850
617.38	22.189
617.71	21.261
618.04	22.716
618.37	22.117
618.70	21.904
619.03	23.026
619.36	21.860
619.69	21.972
620.03	22.665
620.36	22.326
620.69	23.151
621.02	22.935
621.35	21.300
621.68	21.885
622.01	21.207
622.34	22.920
622.67	22.357
623.00	21.864
623.33	20.372
623.66	23.159
623.99	21.208
624.32	22.896
624.65	21.893
624.99	21.459
625.32	21.506
625.65	22.014
625.98	21.829
626.31	21.928
626.64	23.102
626.97	22.943
627.30	22.111
627.63	22.970
627.96	22.876
628.29	22.660
628.62	22.873
628.95	22.547
629.28	23.175
629.61	23.098
629.94	23.238
630.26	21.354
630.59	22.593
