SpectraSuite Data File
++++++++++++++++++++++++++++++++++++
Date: Wed May 13 19:16:01 PDT 2015
User: schluterlab
Dark Spectrum Present: Yes
Reference Spectrum Present: Yes
Number of Sampled Component Spectra: 1
Spectrometers: USB2E3373
Integration Time (usec): 3000 (USB2E3373)
Spectra Averaged: 3 (USB2E3373)
Boxcar Smoothing: 0 (USB2E3373)
Correct for Electrical Dark: No (USB2E3373)
Strobe/Lamp Enabled: No (USB2E3373)
Correct for Detector Non-linearity: No (USB2E3373)
Correct for Stray Light: No (USB2E3373)
Number of Pixels in Processed Spectrum: 2048
>>>>>Begin Processed Spectral Data<<<<<
178.53	0.000
178.91	-1075.000
179.29	-1225.000
179.67	-233.333
180.04	-1300.000
180.42	2600.000
180.80	1140.000
181.18	-1000.000
181.56	685.714
181.94	0.000
182.31	-642.857
182.69	2033.333
183.07	-650.000
183.45	-500.000
183.83	563.636
184.20	-540.000
184.58	2550.000
184.96	5500.000
185.34	-980.000
185.72	-787.500
186.09	-2850.000
186.47	3150.000
186.85	3200.000
187.23	5700.000
187.61	-2000.000
187.98	1450.000
188.36	627.273
188.74	581.818
189.12	-860.000
189.49	590.000
189.87	-5300.000
190.25	-1500.000
190.63	457.143
191.00	446.154
191.38	966.667
191.76	-1350.000
192.14	1600.000
192.51	800.000
192.89	1100.000
193.27	750.000
193.65	-1450.000
194.02	480.000
194.40	1160.000
194.78	710.000
195.15	516.667
195.53	700.000
195.91	-2300.000
196.29	362.500
196.66	300.000
197.04	-480.000
197.42	0.000
197.79	690.000
198.17	-5300.000
198.55	785.714
198.92	812.500
199.30	1120.000
199.68	0.000
200.05	388.889
200.43	914.286
200.81	5400.000
201.18	2000.000
201.56	-1966.667
201.94	666.667
202.31	555.556
202.69	433.333
203.07	570.000
203.44	0.000
203.82	1275.000
204.19	885.714
204.57	485.714
204.95	837.500
205.32	1633.333
205.70	545.455
206.08	421.429
206.45	2950.000
206.83	450.000
207.20	983.333
207.58	880.000
207.96	377.778
208.33	787.500
208.71	-966.667
209.08	957.143
209.46	677.778
209.84	472.727
210.21	-1833.333
210.59	1500.000
210.96	-612.500
211.34	3000.000
211.71	540.000
212.09	816.667
212.46	0.000
212.84	1266.667
213.22	1700.000
213.59	-5700.000
213.97	933.333
214.34	928.571
214.72	672.727
215.09	1220.000
215.47	-2750.000
215.84	-2850.000
216.22	1900.000
216.59	414.286
216.97	1325.000
217.34	500.000
217.72	-850.000
218.09	0.000
218.47	-5300.000
218.84	611.111
219.22	728.571
219.59	1966.667
219.97	-757.143
220.34	1080.000
220.72	-2033.333
221.09	442.857
221.47	1650.000
221.84	-983.333
222.22	0.000
222.59	1500.000
222.97	-2850.000
223.34	1100.000
223.72	515.385
224.09	1140.000
224.46	2950.000
224.84	-6300.000
225.21	-1020.000
225.59	-5000.000
225.96	780.000
226.34	290.000
226.71	2950.000
227.08	700.000
227.46	630.000
227.83	-950.000
228.21	-2150.000
228.58	755.556
228.95	-2500.000
229.33	-2600.000
229.70	1866.667
230.08	985.714
230.45	-1160.000
230.82	433.333
231.20	966.667
231.57	685.714
231.95	550.000
232.32	295.455
232.69	463.636
233.07	885.714
233.44	423.077
233.81	-2200.000
234.19	342.105
234.56	533.333
234.93	433.333
235.31	672.727
235.68	407.692
236.05	364.286
236.43	193.939
236.80	321.053
237.17	5700.000
237.55	261.905
237.92	221.429
238.29	361.905
238.67	212.903
239.04	251.724
239.41	200.000
239.79	134.783
240.16	180.952
240.53	145.455
240.91	141.176
241.28	150.000
241.65	154.000
242.02	126.087
242.40	135.484
242.77	120.000
243.14	94.624
243.51	106.742
243.89	103.529
244.26	100.000
244.63	94.624
245.00	88.298
245.38	95.050
245.75	88.785
246.12	77.982
246.49	80.292
246.87	88.000
247.24	83.077
247.61	70.714
247.98	66.667
248.36	68.243
248.73	75.159
249.10	74.522
249.47	61.017
249.84	70.053
250.22	66.310
250.59	68.047
250.96	65.152
251.33	61.611
251.70	72.772
252.08	60.000
252.45	59.193
252.82	56.957
253.19	59.574
253.56	55.686
253.94	58.091
254.31	55.859
254.68	56.154
255.05	53.506
255.42	55.691
255.79	58.088
256.16	56.318
256.54	51.943
256.91	55.872
257.28	50.719
257.65	55.116
258.02	53.106
258.39	54.890
258.76	49.164
259.14	51.488
259.51	50.760
259.88	49.689
260.25	51.360
260.62	50.578
260.99	50.932
261.36	51.351
261.73	51.862
262.10	52.035
262.47	53.521
262.85	49.861
263.22	49.003
263.59	50.712
263.96	49.451
264.33	48.303
264.70	47.895
265.07	51.662
265.44	49.747
265.81	45.012
266.18	47.487
266.55	48.537
266.92	50.123
267.29	48.148
267.66	45.183
268.03	45.909
268.40	47.196
268.77	44.869
269.14	45.946
269.51	46.501
269.88	48.485
270.25	44.921
270.62	45.843
270.99	47.097
271.36	47.425
271.73	46.729
272.10	46.739
272.47	46.022
272.84	45.238
273.21	45.702
273.58	43.668
273.95	42.138
274.32	45.041
274.69	44.540
275.06	42.913
275.43	45.745
275.80	43.888
276.17	41.548
276.54	43.451
276.91	45.652
277.28	43.555
277.65	43.133
278.02	44.099
278.39	45.508
278.76	41.455
279.13	45.283
279.50	43.762
279.87	43.625
280.23	42.315
280.60	42.166
280.97	41.405
281.34	42.124
281.71	43.636
282.08	43.954
282.45	42.182
282.82	41.741
283.19	41.176
283.56	40.175
283.92	42.640
284.29	42.504
284.66	40.835
285.03	39.060
285.40	40.493
285.77	41.414
286.14	40.760
286.51	42.000
286.87	38.803
287.24	41.042
287.61	40.128
287.98	38.961
288.35	39.461
288.72	38.162
289.08	40.219
289.45	36.738
289.82	37.236
290.19	37.520
290.56	36.907
290.93	36.707
291.29	38.650
291.66	36.283
292.03	39.099
292.40	37.298
292.77	35.651
293.13	36.119
293.50	36.880
293.87	36.296
294.24	34.963
294.60	33.770
294.97	34.593
295.34	37.800
295.71	34.943
296.08	31.766
296.44	34.938
296.81	32.893
297.18	32.249
297.55	29.683
297.91	32.586
298.28	34.404
298.65	31.984
299.02	33.729
299.38	32.005
299.75	30.189
300.12	32.439
300.48	31.375
300.85	30.333
301.22	31.592
301.59	31.187
301.95	32.242
302.32	31.065
302.69	30.227
303.05	29.939
303.42	30.000
303.79	31.144
304.15	29.021
304.52	29.780
304.89	29.268
305.25	29.582
305.62	28.992
305.99	31.523
306.35	29.306
306.72	29.596
307.09	31.188
307.45	30.856
307.82	27.902
308.19	29.470
308.55	31.392
308.92	30.397
309.29	27.878
309.65	27.890
310.02	28.330
310.38	27.527
310.75	27.878
311.12	27.840
311.48	30.721
311.85	29.140
312.22	29.240
312.58	28.067
312.95	28.722
313.31	27.670
313.68	28.378
314.05	30.178
314.41	28.844
314.78	29.305
315.14	28.798
315.51	29.866
315.87	29.307
316.24	30.189
316.61	27.875
316.97	28.865
317.34	30.039
317.70	29.541
318.07	30.895
318.43	30.431
318.80	31.209
319.16	31.733
319.53	30.019
319.89	31.619
320.26	31.400
320.62	32.837
320.99	32.020
321.35	33.737
321.72	33.573
322.08	34.255
322.45	35.224
322.81	32.946
323.18	34.104
323.54	33.210
323.91	33.585
324.27	34.608
324.64	34.949
325.00	34.445
325.37	34.031
325.73	36.715
326.10	36.452
326.46	36.290
326.83	36.411
327.19	36.465
327.56	36.237
327.92	37.095
328.29	37.711
328.65	37.109
329.01	37.545
329.38	38.113
329.74	38.135
330.11	39.303
330.47	38.017
330.84	38.235
331.20	37.796
331.56	38.991
331.93	38.611
332.29	37.799
332.66	39.292
333.02	38.391
333.38	37.218
333.75	37.611
334.11	38.968
334.48	37.977
334.84	37.868
335.20	38.364
335.57	38.622
335.93	38.036
336.29	38.736
336.66	39.495
337.02	37.557
337.38	39.815
337.75	39.305
338.11	38.048
338.47	38.950
338.84	38.497
339.20	36.972
339.56	39.325
339.93	37.636
340.29	38.406
340.65	38.324
341.02	38.220
341.38	38.434
341.74	38.158
342.11	38.952
342.47	38.326
342.83	37.757
343.20	38.095
343.56	37.068
343.92	37.982
344.28	37.925
344.65	38.263
345.01	38.636
345.37	36.707
345.73	37.648
346.10	37.852
346.46	36.356
346.82	35.914
347.19	37.594
347.55	36.864
347.91	36.570
348.27	37.141
348.63	37.375
349.00	35.922
349.36	35.714
349.72	36.327
350.08	36.143
350.45	36.615
350.81	36.962
351.17	36.710
351.53	36.527
351.89	36.304
352.26	36.938
352.62	35.365
352.98	36.710
353.34	36.154
353.70	35.679
354.07	35.887
354.43	35.635
354.79	35.398
355.15	35.754
355.51	35.891
355.87	36.082
356.24	37.541
356.60	35.285
356.96	35.800
357.32	34.832
357.68	36.142
358.04	35.313
358.40	35.154
358.77	35.837
359.13	36.464
359.49	36.235
359.85	34.286
360.21	35.247
360.57	35.564
360.93	34.692
361.29	34.996
361.66	34.907
362.02	35.373
362.38	35.437
362.74	34.821
363.10	34.493
363.46	34.703
363.82	36.281
364.18	35.389
364.54	36.181
364.90	35.623
365.26	34.853
365.62	35.793
365.98	35.354
366.35	34.384
366.71	35.719
367.07	35.251
367.43	35.196
367.79	35.760
368.15	36.351
368.51	35.029
368.87	35.261
369.23	35.479
369.59	35.844
369.95	36.176
370.31	34.544
370.67	34.783
371.03	36.704
371.39	35.350
371.75	35.441
372.11	34.922
372.47	35.850
372.83	35.879
373.19	35.043
373.55	35.625
373.91	36.009
374.27	34.227
374.63	34.400
374.99	35.523
375.35	34.054
375.71	34.613
376.07	36.351
376.42	34.732
376.78	34.858
377.14	34.261
377.50	34.901
377.86	33.777
378.22	35.398
378.58	34.085
378.94	34.444
379.30	34.542
379.66	35.089
380.02	34.644
380.38	34.244
380.74	34.754
381.09	34.108
381.45	35.710
381.81	35.381
382.17	34.650
382.53	34.591
382.89	35.247
383.25	33.646
383.61	35.068
383.97	35.022
384.32	34.435
384.68	34.634
385.04	36.202
385.40	35.294
385.76	34.459
386.12	35.751
386.48	35.809
386.83	36.241
387.19	36.054
387.55	35.498
387.91	34.099
388.27	34.580
388.62	36.017
388.98	34.337
389.34	35.106
389.70	34.335
390.06	35.044
390.42	34.955
390.77	35.369
391.13	36.184
391.49	35.089
391.85	35.010
392.20	33.817
392.56	35.985
392.92	35.433
393.28	33.964
393.64	34.353
393.99	34.942
394.35	34.801
394.71	34.630
395.07	34.206
395.42	35.229
395.78	34.669
396.14	34.823
396.50	35.714
396.85	35.919
397.21	34.525
397.57	35.214
397.92	35.216
398.28	34.417
398.64	35.185
399.00	34.359
399.35	34.913
399.71	34.491
400.07	34.122
400.42	35.399
400.78	34.379
401.14	34.695
401.49	34.388
401.85	34.241
402.21	34.371
402.57	34.917
402.92	35.687
403.28	35.041
403.63	34.901
403.99	35.541
404.35	34.303
404.70	33.993
405.06	33.722
405.42	34.373
405.77	33.714
406.13	33.296
406.49	34.122
406.84	34.318
407.20	33.038
407.55	33.759
407.91	35.067
408.27	34.780
408.62	34.317
408.98	34.191
409.34	33.702
409.69	35.161
410.05	34.449
410.40	34.740
410.76	34.050
411.11	33.655
411.47	33.802
411.83	33.415
412.18	33.271
412.54	34.060
412.89	34.036
413.25	33.058
413.60	34.466
413.96	33.212
414.31	33.050
414.67	34.030
415.03	34.040
415.38	34.601
415.74	34.277
416.09	33.899
416.45	33.133
416.80	34.765
417.16	34.182
417.51	34.638
417.87	32.370
418.22	33.691
418.58	35.313
418.93	33.661
419.29	33.673
419.64	35.013
420.00	34.451
420.35	33.159
420.71	33.891
421.06	34.069
421.42	34.094
421.77	33.632
422.12	32.903
422.48	33.297
422.83	33.780
423.19	32.762
423.54	33.604
423.90	33.913
424.25	33.948
424.61	33.571
424.96	34.169
425.31	33.167
425.67	32.303
426.02	33.086
426.38	33.516
426.73	32.651
427.09	33.313
427.44	33.468
427.79	33.007
428.15	33.274
428.50	33.879
428.85	32.896
429.21	32.744
429.56	32.970
429.92	32.763
430.27	32.324
430.62	32.616
430.98	33.108
431.33	32.577
431.68	33.770
432.04	32.961
432.39	33.524
432.74	33.633
433.10	33.050
433.45	34.227
433.80	33.647
434.16	33.173
434.51	33.158
434.86	32.896
435.22	33.241
435.57	33.252
435.92	33.177
436.28	32.918
436.63	33.499
436.98	33.371
437.34	33.691
437.69	33.489
438.04	32.940
438.39	33.672
438.75	33.411
439.10	33.240
439.45	33.943
439.81	32.931
440.16	32.919
440.51	33.392
440.86	34.105
441.22	33.426
441.57	33.333
441.92	34.596
442.27	33.961
442.63	33.386
442.98	34.479
443.33	33.478
443.68	33.041
444.03	32.650
444.39	32.619
444.74	33.333
445.09	33.046
445.44	33.516
445.79	33.201
446.15	33.192
446.50	33.710
446.85	34.378
447.20	34.013
447.55	34.003
447.91	32.819
448.26	33.055
448.61	33.070
448.96	33.776
449.31	34.533
449.66	33.427
450.02	33.036
450.37	33.503
450.72	33.672
451.07	33.577
451.42	33.374
451.77	34.058
452.12	34.931
452.47	34.080
452.83	33.625
453.18	33.680
453.53	34.694
453.88	33.550
454.23	34.967
454.58	34.525
454.93	34.901
455.28	34.414
455.63	33.131
455.98	33.512
456.34	34.736
456.69	33.876
457.04	34.613
457.39	32.905
457.74	34.127
458.09	33.755
458.44	33.694
458.79	33.297
459.14	33.578
459.49	34.618
459.84	33.186
460.19	32.999
460.54	32.292
460.89	33.900
461.24	34.001
461.59	33.818
461.94	33.662
462.29	34.718
462.64	33.504
462.99	34.027
463.34	33.800
463.69	33.458
464.04	32.754
464.39	32.812
464.74	33.036
465.09	32.992
465.44	32.853
465.79	33.054
466.14	32.403
466.49	32.981
466.84	32.925
467.19	32.649
467.54	33.875
467.89	32.713
468.24	32.868
468.59	33.455
468.94	33.720
469.29	32.198
469.64	33.601
469.99	33.559
470.34	32.431
470.68	33.405
471.03	33.401
471.38	33.912
471.73	33.045
472.08	33.092
472.43	33.103
472.78	32.785
473.13	32.670
473.48	33.271
473.83	32.500
474.17	32.234
474.52	33.623
474.87	33.508
475.22	32.676
475.57	31.381
475.92	31.758
476.27	32.582
476.61	33.039
476.96	32.710
477.31	31.816
477.66	32.823
478.01	31.312
478.36	32.311
478.70	31.776
479.05	32.215
479.40	32.344
479.75	31.927
480.10	31.461
480.45	31.033
480.79	31.056
481.14	32.045
481.49	31.894
481.84	31.596
482.19	32.303
482.53	31.468
482.88	31.782
483.23	31.262
483.58	31.392
483.92	31.350
484.27	30.763
484.62	31.207
484.97	30.469
485.31	31.747
485.66	30.924
486.01	30.508
486.36	28.682
486.70	28.459
487.05	28.890
487.40	29.341
487.75	29.244
488.09	29.269
488.44	29.787
488.79	30.344
489.13	30.825
489.48	30.139
489.83	30.600
490.17	30.951
490.52	30.071
490.87	30.303
491.22	30.059
491.56	29.567
491.91	30.433
492.26	30.363
492.60	29.401
492.95	29.794
493.30	30.607
493.64	29.538
493.99	30.223
494.34	30.204
494.68	30.266
495.03	30.122
495.37	30.433
495.72	30.556
496.07	30.534
496.41	29.690
496.76	29.464
497.11	29.986
497.45	29.809
497.80	29.463
498.14	29.614
498.49	29.610
498.84	29.291
499.18	29.810
499.53	29.582
499.87	29.963
500.22	29.392
500.56	30.000
500.91	29.327
501.26	29.967
501.60	29.473
501.95	29.010
502.29	30.272
502.64	29.981
502.98	29.547
503.33	28.931
503.67	29.281
504.02	28.906
504.36	29.761
504.71	29.849
505.06	29.205
505.40	29.558
505.75	29.026
506.09	29.009
506.44	29.354
506.78	29.031
507.13	29.177
507.47	28.838
507.82	29.433
508.16	29.179
508.51	29.021
508.85	28.798
509.19	28.929
509.54	29.439
509.88	29.006
510.23	28.843
510.57	29.773
510.92	29.777
511.26	28.880
511.61	30.342
511.95	28.445
512.30	29.374
512.64	29.178
512.98	28.349
513.33	28.640
513.67	28.228
514.02	27.814
514.36	29.164
514.70	28.334
515.05	28.500
515.39	29.108
515.74	28.491
516.08	29.514
516.42	28.968
516.77	29.710
517.11	28.746
517.46	28.837
517.80	29.384
518.14	28.315
518.49	29.872
518.83	28.920
519.17	28.695
519.52	28.693
519.86	28.637
520.20	28.844
520.55	29.264
520.89	29.927
521.23	28.649
521.58	29.292
521.92	30.006
522.26	27.944
522.61	28.723
522.95	28.484
523.29	29.215
523.64	29.817
523.98	29.328
524.32	28.347
524.66	29.405
525.01	28.186
525.35	28.067
525.69	27.278
526.04	29.283
526.38	28.676
526.72	28.405
527.06	28.751
527.41	26.980
527.75	28.682
528.09	29.287
528.43	28.681
528.78	28.765
529.12	28.424
529.46	28.904
529.80	29.208
530.15	28.474
530.49	28.615
530.83	28.544
531.17	28.916
531.51	29.767
531.86	28.516
532.20	29.400
532.54	29.084
532.88	28.691
533.22	28.545
533.57	28.086
533.91	28.116
534.25	28.433
534.59	28.249
534.93	28.079
535.27	28.063
535.62	28.266
535.96	28.688
536.30	27.972
536.64	28.590
536.98	28.069
537.32	28.176
537.66	27.867
538.01	29.559
538.35	28.895
538.69	28.653
539.03	27.031
539.37	27.540
539.71	26.442
540.05	28.235
540.39	28.439
540.73	26.779
541.07	28.358
541.42	28.767
541.76	27.548
542.10	28.849
542.44	27.285
542.78	28.854
543.12	26.935
543.46	27.738
543.80	28.367
544.14	27.022
544.48	28.000
544.82	28.287
545.16	28.107
545.50	26.350
545.84	26.747
546.18	28.283
546.52	28.217
546.86	27.560
547.20	28.456
547.54	27.321
547.88	27.360
548.22	27.522
548.56	27.358
548.90	27.081
549.24	26.599
549.58	27.763
549.92	27.129
550.26	28.835
550.60	26.902
550.94	27.746
551.28	27.213
551.62	27.318
551.96	27.509
552.30	28.874
552.64	27.924
552.98	28.203
553.32	27.579
553.66	27.539
554.00	28.483
554.34	26.570
554.68	27.611
555.02	27.786
555.36	26.374
555.69	26.522
556.03	27.322
556.37	27.217
556.71	26.944
557.05	27.311
557.39	26.942
557.73	27.241
558.07	27.484
558.41	27.496
558.75	27.259
559.08	26.473
559.42	28.042
559.76	27.132
560.10	26.838
560.44	27.603
560.78	26.880
561.12	26.715
561.45	26.728
561.79	26.961
562.13	26.492
562.47	27.186
562.81	27.406
563.15	26.355
563.48	26.326
563.82	26.810
564.16	26.553
564.50	25.326
564.84	26.612
565.17	26.384
565.51	27.093
565.85	26.777
566.19	26.550
566.52	26.282
566.86	26.522
567.20	27.005
567.54	25.913
567.88	25.530
568.21	25.873
568.55	26.491
568.89	25.340
569.23	25.446
569.56	25.061
569.90	25.585
570.24	25.368
570.57	24.617
570.91	24.919
571.25	24.892
571.59	24.742
571.92	24.395
572.26	24.321
572.60	24.174
572.93	24.438
573.27	24.549
573.61	24.484
573.95	25.039
574.28	24.548
574.62	23.980
574.96	23.967
575.29	24.588
575.63	23.857
575.97	23.718
576.30	24.509
576.64	24.059
576.98	23.967
577.31	23.637
577.65	23.974
577.98	23.703
578.32	23.531
578.66	24.109
578.99	23.967
579.33	23.771
579.67	23.547
580.00	24.071
580.34	24.158
580.67	23.919
581.01	23.679
581.35	23.829
581.68	24.158
582.02	23.824
582.35	24.141
582.69	23.782
583.02	23.813
583.36	23.980
583.70	24.151
584.03	23.929
584.37	24.506
584.70	24.295
585.04	23.704
585.37	24.138
585.71	24.178
586.04	23.556
586.38	24.582
586.72	24.165
587.05	24.341
587.39	23.826
587.72	24.117
588.06	24.093
588.39	24.691
588.73	24.553
589.06	24.868
589.40	24.512
589.73	24.498
590.07	24.698
590.40	24.516
590.73	24.005
591.07	25.315
591.40	25.306
591.74	25.108
592.07	24.738
592.41	25.093
592.74	24.457
593.08	24.650
593.41	24.549
593.75	24.235
594.08	24.137
594.41	23.966
594.75	24.658
595.08	24.839
595.42	25.324
595.75	24.395
596.09	24.859
596.42	24.597
596.75	24.863
597.09	25.584
597.42	24.157
597.75	23.933
598.09	25.348
598.42	23.969
598.76	24.321
599.09	24.363
599.42	24.090
599.76	25.037
600.09	23.752
600.42	23.813
600.76	23.679
601.09	23.898
601.42	24.163
601.76	24.554
602.09	24.348
602.42	24.642
602.76	25.272
603.09	24.351
603.42	24.951
603.76	24.505
604.09	24.777
604.42	24.052
604.76	24.884
605.09	24.771
605.42	24.583
605.75	24.917
606.09	24.319
606.42	24.642
606.75	24.471
607.09	23.943
607.42	24.733
607.75	24.219
608.08	24.577
608.42	24.653
608.75	24.256
609.08	23.867
609.41	24.512
609.75	24.297
610.08	25.024
610.41	24.767
610.74	24.456
611.07	25.099
611.41	24.387
611.74	25.390
612.07	25.466
612.40	25.446
612.73	24.474
613.07	25.216
613.40	25.276
613.73	24.331
614.06	24.892
614.39	24.541
614.72	25.211
615.06	24.212
615.39	25.000
615.72	24.233
616.05	24.189
616.38	25.459
616.71	25.950
617.05	25.442
617.38	25.977
617.71	25.826
618.04	26.022
618.37	24.897
618.70	25.078
619.03	25.658
619.36	25.322
619.69	25.493
620.03	26.305
620.36	26.136
620.69	26.918
621.02	25.959
621.35	25.529
621.68	24.844
622.01	25.542
622.34	26.853
622.67	25.627
623.00	25.899
623.33	24.375
623.66	26.376
623.99	25.994
624.32	25.963
624.65	25.494
624.99	25.071
625.32	25.489
625.65	25.770
625.98	26.364
626.31	25.661
626.64	26.612
626.97	24.938
627.30	26.600
627.63	26.333
627.96	26.997
628.29	25.722
628.62	27.173
628.95	27.264
629.28	26.916
629.61	28.048
629.94	27.333
630.26	26.025
630.59	26.692
