SpectraSuite Data File
++++++++++++++++++++++++++++++++++++
Date: Wed May 13 19:54:34 PDT 2015
User: schluterlab
Dark Spectrum Present: Yes
Reference Spectrum Present: Yes
Number of Sampled Component Spectra: 1
Spectrometers: USB2E3373
Integration Time (usec): 3000 (USB2E3373)
Spectra Averaged: 3 (USB2E3373)
Boxcar Smoothing: 0 (USB2E3373)
Correct for Electrical Dark: No (USB2E3373)
Strobe/Lamp Enabled: No (USB2E3373)
Correct for Detector Non-linearity: No (USB2E3373)
Correct for Stray Light: No (USB2E3373)
Number of Pixels in Processed Spectrum: 2048
>>>>>Begin Processed Spectral Data<<<<<
178.53	0.000
178.91	-950.000
179.29	-1175.000
179.67	-266.667
180.04	-1200.000
180.42	2550.000
180.80	1060.000
181.18	-1075.000
181.56	642.857
181.94	0.000
182.31	-785.714
182.69	1866.667
183.07	-575.000
183.45	-655.556
183.83	536.364
184.20	-340.000
184.58	2850.000
184.96	5000.000
185.34	-940.000
185.72	-537.500
186.09	-2750.000
186.47	2850.000
186.85	2600.000
187.23	5600.000
187.61	-1833.333
187.98	1425.000
188.36	609.091
188.74	554.545
189.12	-700.000
189.49	610.000
189.87	-4100.000
190.25	-1275.000
190.63	478.571
191.00	423.077
191.38	783.333
191.76	-1300.000
192.14	1425.000
192.51	612.500
192.89	1200.000
193.27	575.000
193.65	-1225.000
194.02	600.000
194.40	1000.000
194.78	660.000
195.15	475.000
195.53	650.000
195.91	-2200.000
196.29	362.500
196.66	289.474
197.04	-290.000
197.42	0.000
197.79	630.000
198.17	-5200.000
198.55	642.857
198.92	662.500
199.30	1020.000
199.68	0.000
200.05	350.000
200.43	885.714
200.81	5800.000
201.18	1966.667
201.56	-1766.667
201.94	466.667
202.31	622.222
202.69	466.667
203.07	540.000
203.44	0.000
203.82	1250.000
204.19	885.714
204.57	521.429
204.95	537.500
205.32	1733.333
205.70	500.000
206.08	407.143
206.45	2700.000
206.83	287.500
207.20	933.333
207.58	900.000
207.96	327.778
208.33	700.000
208.71	-916.667
209.08	1000.000
209.46	633.333
209.84	527.273
210.21	-2066.667
210.59	1425.000
210.96	-637.500
211.34	2550.000
211.71	630.000
212.09	850.000
212.46	0.000
212.84	1666.667
213.22	1450.000
213.59	-5400.000
213.97	816.667
214.34	842.857
214.72	590.909
215.09	1260.000
215.47	-2250.000
215.84	-2400.000
216.22	1400.000
216.59	421.429
216.97	1325.000
217.34	545.455
217.72	-733.333
218.09	0.000
218.47	-5600.000
218.84	711.111
219.22	800.000
219.59	1600.000
219.97	-657.143
220.34	880.000
220.72	-1766.667
221.09	471.429
221.47	1500.000
221.84	-983.333
222.22	0.000
222.59	1350.000
222.97	-2850.000
223.34	1200.000
223.72	469.231
224.09	1260.000
224.46	2600.000
224.84	-4400.000
225.21	-940.000
225.59	-5000.000
225.96	630.000
226.34	345.000
226.71	2500.000
227.08	650.000
227.46	590.000
227.83	-1175.000
228.21	-2600.000
228.58	488.889
228.95	-2700.000
229.33	-2600.000
229.70	1900.000
230.08	785.714
230.45	-1020.000
230.82	483.333
231.20	816.667
231.57	728.571
231.95	483.333
232.32	254.545
232.69	500.000
233.07	785.714
233.44	384.615
233.81	-2000.000
234.19	315.789
234.56	516.667
234.93	408.333
235.31	527.273
235.68	330.769
236.05	435.714
236.43	203.030
236.80	352.632
237.17	4500.000
237.55	247.619
237.92	232.143
238.29	309.524
238.67	232.258
239.04	234.483
239.41	188.889
239.79	150.000
240.16	195.238
240.53	159.091
240.91	131.373
241.28	148.000
241.65	140.000
242.02	108.696
242.40	135.484
242.77	130.000
243.14	93.548
243.51	105.618
243.89	102.353
244.26	93.333
244.63	86.022
245.00	88.298
245.38	95.050
245.75	79.439
246.12	88.991
246.49	86.861
246.87	91.200
247.24	93.077
247.61	77.857
247.98	75.817
248.36	79.730
248.73	78.344
249.10	80.892
249.47	71.186
249.84	73.262
250.22	64.706
250.59	71.598
250.96	71.212
251.33	65.877
251.70	65.842
252.08	69.048
252.45	62.780
252.82	65.217
253.19	63.830
253.56	68.235
253.94	65.560
254.31	62.891
254.68	60.769
255.05	63.100
255.42	62.195
255.79	61.029
256.16	63.538
256.54	57.597
256.91	55.872
257.28	56.115
257.65	60.066
258.02	56.522
258.39	53.628
258.76	54.515
259.14	61.012
259.51	53.799
259.88	51.242
260.25	54.079
260.62	54.046
260.99	51.553
261.36	54.655
261.73	55.874
262.10	54.942
262.47	59.718
262.85	53.760
263.22	50.712
263.59	57.550
263.96	56.319
264.33	52.480
264.70	54.474
265.07	54.731
265.44	52.020
265.81	51.338
266.18	53.769
266.55	52.195
266.92	53.563
267.29	52.546
267.66	51.835
268.03	48.864
268.40	54.206
268.77	49.403
269.14	50.901
269.51	52.370
269.88	55.012
270.25	49.436
270.62	48.090
270.99	50.323
271.36	49.571
271.73	53.972
272.10	51.522
272.47	47.097
272.84	50.649
273.21	49.057
273.58	51.747
273.95	47.379
274.32	47.521
274.69	49.679
275.06	44.488
275.43	51.064
275.80	47.695
276.17	48.880
276.54	51.143
276.91	48.024
277.28	49.414
277.65	47.582
278.02	49.896
278.39	48.242
278.76	45.818
279.13	49.811
279.50	47.486
279.87	49.402
280.23	49.301
280.60	50.677
280.97	46.950
281.34	45.841
281.71	46.364
282.08	47.409
282.45	46.909
282.82	45.293
283.19	45.098
283.56	46.491
283.92	47.208
284.29	45.150
284.66	45.191
285.03	42.676
285.40	45.951
285.77	45.623
286.14	45.423
286.51	46.667
286.87	44.957
287.24	43.974
287.61	45.104
287.98	43.506
288.35	44.691
288.72	43.146
289.08	40.063
289.45	43.822
289.82	42.602
290.19	39.246
290.56	40.276
290.93	39.577
291.29	41.104
291.66	38.643
292.03	40.843
292.40	41.263
292.77	40.089
293.13	39.552
293.50	39.504
293.87	39.852
294.24	38.815
294.60	38.428
294.97	36.773
295.34	38.364
295.71	37.926
296.08	37.749
296.44	37.001
296.81	37.252
297.18	37.398
297.55	34.037
297.91	34.565
298.28	38.019
298.65	35.509
299.02	36.891
299.38	33.466
299.75	33.962
300.12	35.121
300.48	34.375
300.85	34.402
301.22	35.159
301.59	33.965
301.95	36.020
302.32	34.403
302.69	32.616
303.05	33.818
303.42	32.222
303.79	32.163
304.15	31.585
304.52	31.634
304.89	32.753
305.25	33.063
305.62	31.823
305.99	34.593
306.35	31.879
306.72	32.399
307.09	33.185
307.45	32.207
307.82	33.036
308.19	31.236
308.55	32.470
308.92	32.546
309.29	30.834
309.65	30.541
310.02	31.395
310.38	31.613
310.75	32.101
311.12	31.934
311.48	32.288
311.85	31.971
312.22	31.217
312.58	31.497
312.95	30.729
313.31	29.417
313.68	32.121
314.05	33.136
314.41	32.663
314.78	31.823
315.14	30.189
315.51	31.823
315.87	32.178
316.24	31.380
316.61	30.799
316.97	30.920
317.34	31.409
317.70	31.740
318.07	32.531
318.43	32.387
318.80	32.146
319.16	33.333
319.53	31.895
319.89	33.048
320.26	35.200
320.62	32.738
320.99	34.141
321.35	35.152
321.72	34.600
322.08	34.255
322.45	35.920
322.81	36.240
323.18	36.898
323.54	35.807
323.91	36.321
324.27	37.667
324.64	37.372
325.00	36.970
325.37	40.491
325.73	39.228
326.10	39.806
326.46	40.412
326.83	41.588
327.19	40.820
327.56	41.812
327.92	41.820
328.29	42.768
328.65	42.541
329.01	42.690
329.38	44.773
329.74	43.398
330.11	43.921
330.47	45.363
330.84	43.658
331.20	44.809
331.56	45.505
331.93	44.722
332.29	44.809
332.66	46.106
333.02	46.252
333.38	46.522
333.75	46.791
334.11	45.819
334.48	47.116
334.84	47.426
335.20	48.000
335.57	46.238
335.93	45.089
336.29	48.443
336.66	48.242
337.02	45.701
337.38	48.981
337.75	47.415
338.11	49.776
338.47	49.816
338.84	49.313
339.20	48.991
339.56	49.544
339.93	49.455
340.29	49.275
340.65	51.248
341.02	49.913
341.38	50.356
341.74	48.947
342.11	50.568
342.47	50.661
342.83	50.171
343.20	49.437
343.56	50.463
343.92	49.649
344.28	50.255
344.65	50.817
345.01	48.990
345.37	49.485
345.73	51.100
346.10	52.003
346.46	50.593
346.82	52.471
347.19	50.209
347.55	50.082
347.91	50.971
348.27	52.588
348.63	52.425
349.00	50.971
349.36	50.657
349.72	50.682
350.08	51.297
350.45	51.587
350.81	52.396
351.17	51.783
351.53	52.826
351.89	51.650
352.26	52.249
352.62	53.408
352.98	52.431
353.34	53.492
353.70	51.800
354.07	53.790
354.43	52.381
354.79	53.660
355.15	53.232
355.51	53.397
355.87	53.306
356.24	53.176
356.60	52.285
356.96	53.982
357.32	52.984
357.68	52.598
358.04	52.811
358.40	54.078
358.77	53.991
359.13	53.433
359.49	52.784
359.85	53.413
360.21	55.024
360.57	53.696
360.93	53.615
361.29	54.573
361.66	52.012
362.02	53.134
362.38	54.144
362.74	53.348
363.10	52.702
363.46	54.952
363.82	54.497
364.18	54.258
364.54	55.944
364.90	53.754
365.26	55.441
365.62	54.565
365.98	54.054
366.35	53.438
366.71	54.808
367.07	54.698
367.43	55.515
367.79	55.603
368.15	55.101
368.51	54.070
368.87	56.031
369.23	55.304
369.59	54.960
369.95	55.074
370.31	53.063
370.67	54.420
371.03	55.056
371.39	54.665
371.75	55.882
372.11	54.339
372.47	55.938
372.83	56.340
373.19	55.347
373.55	55.950
373.91	57.511
374.27	54.639
374.63	56.291
374.99	56.144
375.35	55.478
375.71	55.106
376.07	55.281
376.42	55.433
376.78	56.395
377.14	56.309
377.50	57.616
377.86	55.253
378.22	56.890
378.58	55.138
378.94	56.128
379.30	56.298
379.66	57.360
380.02	55.037
380.38	56.284
380.74	55.882
381.09	55.501
381.45	56.177
381.81	55.344
382.17	56.051
382.53	57.107
382.89	57.284
383.25	58.099
383.61	57.497
383.97	55.972
384.32	56.082
384.68	56.196
385.04	55.194
385.40	56.347
385.76	57.064
386.12	56.671
386.48	56.639
386.83	57.601
387.19	57.205
387.55	57.205
387.91	57.557
388.27	57.817
388.62	57.099
388.98	56.634
389.34	57.635
389.70	57.572
390.06	57.414
390.42	58.301
390.77	57.252
391.13	58.711
391.49	58.439
391.85	57.734
392.20	56.782
392.56	57.639
392.92	57.799
393.28	56.923
393.64	57.134
393.99	57.422
394.35	56.576
394.71	58.971
395.07	55.389
395.42	57.355
395.78	55.916
396.14	57.169
396.50	57.143
396.85	56.898
397.21	57.275
397.57	56.541
397.92	57.512
398.28	56.670
398.64	57.945
399.00	56.351
399.35	57.304
399.71	55.382
400.07	56.712
400.42	57.301
400.78	56.634
401.14	57.683
401.49	57.134
401.85	56.140
402.21	55.269
402.57	56.878
402.92	57.314
403.28	57.277
403.63	57.983
403.99	57.325
404.35	57.212
404.70	56.894
405.06	56.028
405.42	56.457
405.77	56.057
406.13	55.023
406.49	56.653
406.84	54.755
407.20	56.087
407.55	55.584
407.91	57.333
408.27	56.286
408.62	56.773
408.98	56.311
409.34	56.458
409.69	57.355
410.05	56.506
410.40	54.985
410.76	55.018
411.11	54.704
411.47	54.313
411.83	55.589
412.18	55.411
412.54	55.729
412.89	54.518
413.25	55.254
413.60	56.208
413.96	54.098
414.31	55.346
414.67	55.133
415.03	55.430
415.38	54.317
415.74	55.498
416.09	56.434
416.45	55.221
416.80	55.453
417.16	55.429
417.51	55.143
417.87	55.042
418.22	54.574
418.58	55.520
418.93	56.204
419.29	54.297
419.64	55.856
420.00	55.122
420.35	54.493
420.71	55.290
421.06	54.594
421.42	53.977
421.77	54.372
422.12	54.015
422.48	54.830
422.83	55.329
423.19	53.094
423.54	55.194
423.90	54.725
424.25	52.987
424.61	54.464
424.96	54.694
425.31	53.212
425.67	53.933
426.02	53.486
426.38	54.396
426.73	53.482
427.09	53.252
427.44	54.284
427.79	54.457
428.15	54.643
428.50	51.960
428.85	51.669
429.21	53.285
429.56	52.100
429.92	53.749
430.27	53.128
430.62	52.586
430.98	53.243
431.33	53.351
431.68	53.037
432.04	51.810
432.39	52.827
432.74	53.680
433.10	52.745
433.45	52.945
433.80	53.825
434.16	52.137
434.51	52.053
434.86	52.395
435.22	52.752
435.57	53.131
435.92	52.253
436.28	53.144
436.63	52.815
436.98	51.631
437.34	51.640
437.69	52.800
438.04	51.939
438.39	51.224
438.75	53.051
439.10	52.402
439.45	51.830
439.81	51.601
440.16	52.400
440.51	51.963
440.86	52.229
441.22	51.669
441.57	51.858
441.92	51.740
442.27	52.045
442.63	51.764
442.98	52.338
443.33	51.413
443.68	51.575
444.03	51.342
444.39	50.487
444.74	51.407
445.09	50.674
445.44	50.137
445.79	51.113
446.15	50.926
446.50	50.135
446.85	51.028
447.20	50.637
447.55	51.089
447.91	50.303
448.26	50.807
448.61	51.272
448.96	50.997
449.31	50.844
449.66	50.422
450.02	51.365
450.37	50.510
450.72	50.367
451.07	49.726
451.42	49.058
451.77	49.501
452.12	49.018
452.47	49.627
452.83	50.117
453.18	48.655
453.53	50.711
453.88	49.911
454.23	49.552
454.58	49.546
454.93	49.968
455.28	48.504
455.63	50.061
455.98	50.238
456.34	48.807
456.69	48.591
457.04	49.845
457.39	47.750
457.74	49.565
458.09	48.246
458.44	48.119
458.79	47.505
459.14	48.871
459.49	47.636
459.84	47.590
460.19	47.024
460.54	46.238
460.89	47.394
461.24	47.784
461.59	47.240
461.94	46.609
462.29	47.537
462.64	49.138
462.99	45.999
463.34	47.267
463.69	47.342
464.04	46.493
464.39	46.725
464.74	46.940
465.09	45.657
465.44	45.762
465.79	45.190
466.14	45.211
466.49	45.606
466.84	45.476
467.19	46.590
467.54	45.938
467.89	44.958
468.24	45.550
468.59	45.910
468.94	44.166
469.29	46.401
469.64	46.319
469.99	46.143
470.34	44.650
470.68	44.828
471.03	45.170
471.38	45.657
471.73	44.104
472.08	45.789
472.43	44.095
472.78	43.976
473.13	45.315
473.48	43.196
473.83	43.963
474.17	42.750
474.52	43.797
474.87	44.191
475.22	43.935
475.57	42.826
475.92	43.229
476.27	42.841
476.61	42.416
476.96	42.716
477.31	42.491
477.66	42.560
478.01	42.081
478.36	42.729
478.70	42.004
479.05	42.439
479.40	41.760
479.75	41.739
480.10	41.799
480.45	41.694
480.79	40.946
481.14	41.879
481.49	41.291
481.84	40.558
482.19	40.300
482.53	41.835
482.88	40.670
483.23	41.075
483.58	40.309
483.92	40.769
484.27	40.000
484.62	40.733
484.97	40.126
485.31	40.856
485.66	39.676
486.01	38.504
486.36	37.496
486.70	37.244
487.05	37.799
487.40	37.743
487.75	38.034
488.09	38.308
488.44	37.859
488.79	39.241
489.13	39.840
489.48	38.540
489.83	38.930
490.17	39.632
490.52	39.105
490.87	39.575
491.22	38.608
491.56	38.360
491.91	38.762
492.26	39.045
492.60	38.571
492.95	38.541
493.30	38.364
493.64	38.637
493.99	38.765
494.34	38.622
494.68	38.919
495.03	39.145
495.37	37.645
495.72	38.450
496.07	37.819
496.41	37.389
496.76	36.807
497.11	37.235
497.45	37.448
497.80	37.668
498.14	37.778
498.49	37.171
498.84	38.255
499.18	37.619
499.53	38.034
499.87	36.999
500.22	36.599
500.56	37.913
500.91	36.442
501.26	37.648
501.60	37.352
501.95	36.709
502.29	37.348
502.64	37.011
502.98	36.840
503.33	36.335
503.67	36.752
504.02	35.968
504.36	36.172
504.71	36.639
505.06	36.386
505.40	35.780
505.75	35.776
506.09	37.026
506.44	36.310
506.78	35.460
507.13	37.102
507.47	36.566
507.82	36.424
508.16	36.272
508.51	35.921
508.85	35.501
509.19	35.969
509.54	36.020
509.88	36.321
510.23	35.835
510.57	36.017
510.92	36.561
511.26	35.612
511.61	36.722
511.95	35.021
512.30	35.260
512.64	35.519
512.98	35.584
513.33	36.242
513.67	34.632
514.02	35.390
514.36	36.155
514.70	35.639
515.05	34.690
515.39	35.614
515.74	34.347
516.08	36.277
516.42	35.294
516.77	35.507
517.11	35.461
517.46	35.892
517.80	35.772
518.14	34.974
518.49	36.639
518.83	35.455
519.17	35.335
519.52	35.088
519.86	34.455
520.20	34.509
520.55	35.129
520.89	35.584
521.23	35.163
521.58	36.074
521.92	35.946
522.26	33.740
522.61	35.576
522.95	34.193
523.29	33.536
523.64	33.902
523.98	34.689
524.32	34.560
524.66	34.696
525.01	35.110
525.35	33.581
525.69	33.682
526.04	34.455
526.38	34.411
526.72	33.926
527.06	33.836
527.41	33.416
527.75	34.920
528.09	34.746
528.43	35.946
528.78	35.587
529.12	34.303
529.46	34.415
529.80	34.282
530.15	33.084
530.49	33.354
530.83	34.430
531.17	34.073
531.51	35.473
531.86	34.516
532.20	33.833
532.54	33.889
532.88	34.788
533.22	32.979
533.57	34.074
533.91	33.715
534.25	32.928
534.59	33.374
534.93	32.659
535.27	32.046
535.62	33.578
535.96	33.836
536.30	33.503
536.64	33.484
536.98	34.439
537.32	33.048
537.66	33.067
538.01	33.311
538.35	33.226
538.69	33.759
539.03	32.749
539.37	32.460
539.71	31.627
540.05	32.745
540.39	33.289
540.73	32.924
541.07	33.095
541.42	33.007
541.76	34.194
542.10	33.182
542.44	33.311
542.78	33.597
543.12	31.734
543.46	32.459
543.80	33.051
544.14	32.221
544.48	33.079
544.82	33.162
545.16	33.116
545.50	32.455
545.84	32.325
546.18	33.266
546.52	33.035
546.86	32.371
547.20	32.569
547.54	33.534
547.88	33.865
548.22	32.316
548.56	32.704
548.90	32.394
549.24	32.054
549.58	32.742
549.92	33.104
550.26	32.599
550.60	32.780
550.94	33.803
551.28	32.114
551.62	32.207
551.96	32.070
552.30	33.447
552.64	33.469
552.98	32.746
553.32	31.760
553.66	33.129
554.00	31.984
554.34	32.160
554.68	31.974
555.02	31.030
555.36	31.246
555.69	30.514
556.03	32.638
556.37	31.855
556.71	31.173
557.05	30.952
557.39	31.211
557.73	31.193
558.07	32.125
558.41	31.548
558.75	31.521
559.08	31.693
559.42	31.746
559.76	30.956
560.10	31.834
560.44	31.307
560.78	32.269
561.12	31.926
561.45	31.160
561.79	31.971
562.13	31.992
562.47	31.899
562.81	31.799
563.15	30.301
563.48	31.764
563.82	31.768
564.16	30.608
564.50	31.510
564.84	30.657
565.17	30.180
565.51	30.927
565.85	30.647
566.19	29.931
566.52	30.399
566.86	31.043
567.20	31.427
567.54	30.765
567.88	30.201
568.21	30.847
568.55	30.081
568.89	29.134
569.23	29.679
569.56	30.000
569.90	29.962
570.24	29.673
570.57	29.480
570.91	29.024
571.25	29.401
571.59	29.249
571.92	28.658
572.26	28.683
572.60	28.288
572.93	28.786
573.27	29.074
573.61	28.671
573.95	28.372
574.28	28.945
574.62	28.499
574.96	28.459
575.29	28.080
575.63	28.430
575.97	28.170
576.30	28.253
576.64	28.127
576.98	28.172
577.31	27.888
577.65	28.404
577.98	27.905
578.32	27.601
578.66	28.218
578.99	27.825
579.33	27.814
579.67	27.390
580.00	27.787
580.34	28.239
580.67	28.268
581.01	27.817
581.35	27.818
581.68	27.934
582.02	27.742
582.35	27.776
582.69	27.951
583.02	27.516
583.36	27.507
583.70	27.897
584.03	28.083
584.37	28.248
584.70	27.638
585.04	28.033
585.37	27.563
585.71	28.078
586.04	27.688
586.38	28.109
586.72	28.114
587.05	27.710
587.39	27.678
587.72	28.292
588.06	27.801
588.39	28.450
588.73	28.073
589.06	28.763
589.40	28.485
589.73	28.898
590.07	28.078
590.40	28.133
590.73	29.157
591.07	29.060
591.40	27.836
591.74	29.351
592.07	29.014
592.41	29.062
592.74	28.277
593.08	28.681
593.41	28.535
593.75	27.608
594.08	28.361
594.41	27.678
594.75	28.651
595.08	29.062
595.42	28.616
595.75	27.707
596.09	27.826
596.42	28.330
596.75	28.113
597.09	28.658
597.42	27.656
597.75	28.116
598.09	28.043
598.42	27.749
598.76	28.172
599.09	27.898
599.42	27.984
599.76	28.221
600.09	28.124
600.42	27.611
600.76	27.179
601.09	27.978
601.42	27.968
601.76	27.287
602.09	27.154
602.42	28.304
602.76	27.892
603.09	27.773
603.42	28.544
603.76	27.210
604.09	27.646
604.42	28.251
604.76	28.300
605.09	28.222
605.42	27.619
605.75	27.649
606.09	27.735
606.42	27.830
606.75	27.706
607.09	27.710
607.42	27.899
607.75	27.342
608.08	27.052
608.42	28.104
608.75	27.773
609.08	27.382
609.41	27.844
609.75	27.870
610.08	28.888
610.41	27.188
610.74	28.288
611.07	28.706
611.41	28.557
611.74	28.406
612.07	28.675
612.40	27.754
612.73	28.105
613.07	28.448
613.40	28.120
613.73	27.216
614.06	28.333
614.39	27.006
614.72	29.316
615.06	28.414
615.39	27.813
615.72	27.505
616.05	27.432
616.38	28.349
616.71	28.682
617.05	29.682
617.38	28.984
617.71	28.769
618.04	28.425
618.37	28.090
618.70	29.745
619.03	29.211
619.36	28.988
619.69	29.366
620.03	30.426
620.36	29.211
620.69	29.452
621.02	28.982
621.35	28.034
621.68	29.128
622.01	28.251
622.34	29.123
622.67	27.833
623.00	28.687
623.33	27.806
623.66	28.663
623.99	28.866
624.32	28.317
624.65	28.814
624.99	29.533
625.32	28.530
625.65	28.926
625.98	28.978
626.31	29.549
626.64	29.878
626.97	29.260
627.30	29.260
627.63	29.122
627.96	30.025
628.29	29.046
628.62	29.460
628.95	30.660
629.28	29.653
629.61	30.614
629.94	29.714
630.26	29.838
630.59	28.694
