SpectraSuite Data File
++++++++++++++++++++++++++++++++++++
Date: Wed May 13 19:35:58 PDT 2015
User: schluterlab
Dark Spectrum Present: Yes
Reference Spectrum Present: Yes
Number of Sampled Component Spectra: 1
Spectrometers: USB2E3373
Integration Time (usec): 3000 (USB2E3373)
Spectra Averaged: 3 (USB2E3373)
Boxcar Smoothing: 0 (USB2E3373)
Correct for Electrical Dark: No (USB2E3373)
Strobe/Lamp Enabled: No (USB2E3373)
Correct for Detector Non-linearity: No (USB2E3373)
Correct for Stray Light: No (USB2E3373)
Number of Pixels in Processed Spectrum: 2048
>>>>>Begin Processed Spectral Data<<<<<
178.53	0.000
178.91	-1525.000
179.29	-1300.000
179.67	-288.889
180.04	-1650.000
180.42	2850.000
180.80	1040.000
181.18	-1225.000
181.56	742.857
181.94	0.000
182.31	-814.286
182.69	1933.333
183.07	-625.000
183.45	-544.444
183.83	681.818
184.20	-460.000
184.58	2400.000
184.96	5800.000
185.34	-1000.000
185.72	-600.000
186.09	-2350.000
186.47	2950.000
186.85	2900.000
187.23	5400.000
187.61	-1833.333
187.98	1700.000
188.36	609.091
188.74	572.727
189.12	-1140.000
189.49	610.000
189.87	-5600.000
190.25	-1300.000
190.63	485.714
191.00	538.462
191.38	1133.333
191.76	-1300.000
192.14	1575.000
192.51	675.000
192.89	1016.667
193.27	700.000
193.65	-1200.000
194.02	470.000
194.40	1120.000
194.78	510.000
195.15	616.667
195.53	630.000
195.91	-2500.000
196.29	325.000
196.66	331.579
197.04	-420.000
197.42	0.000
197.79	710.000
198.17	-5600.000
198.55	1000.000
198.92	862.500
199.30	940.000
199.68	0.000
200.05	355.556
200.43	771.429
200.81	5500.000
201.18	1900.000
201.56	-1533.333
201.94	533.333
202.31	711.111
202.69	541.667
203.07	680.000
203.44	0.000
203.82	1300.000
204.19	900.000
204.57	457.143
204.95	662.500
205.32	1966.667
205.70	527.273
206.08	378.571
206.45	2800.000
206.83	337.500
207.20	933.333
207.58	780.000
207.96	305.556
208.33	687.500
208.71	-933.333
209.08	842.857
209.46	622.222
209.84	527.273
210.21	-1466.667
210.59	1625.000
210.96	-637.500
211.34	2900.000
211.71	640.000
212.09	883.333
212.46	0.000
212.84	1800.000
213.22	1475.000
213.59	-5100.000
213.97	933.333
214.34	814.286
214.72	572.727
215.09	1240.000
215.47	-2700.000
215.84	-2350.000
216.22	2000.000
216.59	435.714
216.97	1525.000
217.34	536.364
217.72	-833.333
218.09	0.000
218.47	-4900.000
218.84	777.778
219.22	871.429
219.59	1966.667
219.97	-714.286
220.34	1020.000
220.72	-1966.667
221.09	442.857
221.47	1450.000
221.84	-916.667
222.22	0.000
222.59	1675.000
222.97	-2850.000
223.34	1360.000
223.72	407.692
224.09	1200.000
224.46	2350.000
224.84	-6200.000
225.21	-1220.000
225.59	-5000.000
225.96	660.000
226.34	335.000
226.71	3050.000
227.08	787.500
227.46	520.000
227.83	-1050.000
228.21	-2400.000
228.58	777.778
228.95	-2550.000
229.33	-2450.000
229.70	1800.000
230.08	857.143
230.45	-800.000
230.82	425.000
231.20	816.667
231.57	742.857
231.95	533.333
232.32	263.636
232.69	400.000
233.07	842.857
233.44	369.231
233.81	-1800.000
234.19	331.579
234.56	416.667
234.93	441.667
235.31	481.818
235.68	369.231
236.05	400.000
236.43	209.091
236.80	247.368
237.17	4900.000
237.55	261.905
237.92	221.429
238.29	238.095
238.67	180.645
239.04	200.000
239.41	155.556
239.79	115.217
240.16	150.000
240.53	131.818
240.91	100.000
241.28	120.000
241.65	116.000
242.02	91.304
242.40	101.613
242.77	91.667
243.14	70.968
243.51	73.034
243.89	70.588
244.26	53.333
244.63	61.290
245.00	52.128
245.38	52.475
245.75	52.336
246.12	41.284
246.49	48.905
246.87	52.000
247.24	46.923
247.61	40.714
247.98	41.176
248.36	29.730
248.73	39.490
249.10	34.395
249.47	30.508
249.84	34.225
250.22	33.155
250.59	36.686
250.96	31.818
251.33	29.858
251.70	31.188
252.08	26.190
252.45	27.803
252.82	27.391
253.19	25.106
253.56	29.412
253.94	22.822
254.31	24.219
254.68	28.077
255.05	22.509
255.42	25.203
255.79	22.426
256.16	26.354
256.54	20.848
256.91	22.776
257.28	19.784
257.65	19.472
258.02	20.497
258.39	19.558
258.76	20.736
259.14	20.238
259.51	20.669
259.88	17.081
260.25	18.127
260.62	18.786
260.99	16.770
261.36	18.018
261.73	18.625
262.10	18.605
262.47	17.746
262.85	18.106
263.22	15.100
263.59	16.809
263.96	13.736
264.33	19.321
264.70	17.105
265.07	17.903
265.44	14.646
265.81	15.815
266.18	18.090
266.55	17.073
266.92	14.742
267.29	17.361
267.66	17.202
268.03	16.136
268.40	14.486
268.77	12.411
269.14	14.189
269.51	16.253
269.88	17.483
270.25	16.253
270.62	15.506
270.99	16.774
271.36	14.163
271.73	12.850
272.10	15.000
272.47	15.484
272.84	14.935
273.21	16.143
273.58	13.100
273.95	14.256
274.32	13.223
274.69	14.561
275.06	11.614
275.43	14.894
275.80	13.427
276.17	11.813
276.54	14.345
276.91	11.858
277.28	11.719
277.65	14.313
278.02	10.145
278.39	13.086
278.76	13.455
279.13	12.830
279.50	12.477
279.87	12.749
280.23	12.375
280.60	9.865
280.97	11.091
281.34	12.389
281.71	13.818
282.08	13.436
282.45	12.364
282.82	12.789
283.19	10.339
283.56	12.632
283.92	12.690
284.29	11.111
284.66	11.071
285.03	8.680
285.40	11.268
285.77	10.943
286.14	10.363
286.51	11.333
286.87	10.085
287.24	12.704
287.61	10.915
287.98	11.201
288.35	9.826
288.72	10.903
289.08	11.581
289.45	9.555
289.82	12.358
290.19	9.890
290.56	9.188
290.93	10.725
291.29	10.429
291.66	10.324
292.03	11.483
292.40	12.628
292.77	10.355
293.13	9.701
293.50	9.767
293.87	9.481
294.24	8.741
294.60	8.006
294.97	9.157
295.34	10.860
295.71	10.085
296.08	9.259
296.44	10.041
296.81	9.511
297.18	9.350
297.55	7.388
297.91	8.707
298.28	9.103
298.65	8.747
299.02	9.486
299.38	8.367
299.75	6.334
300.12	9.962
300.48	9.000
300.85	8.138
301.22	7.389
301.59	8.207
301.95	8.438
302.32	8.729
302.69	8.244
303.05	7.030
303.42	7.037
303.79	8.381
304.15	7.459
304.52	6.837
304.89	7.898
305.25	8.005
305.62	10.306
305.99	9.799
306.35	7.830
306.72	8.520
307.09	8.768
307.45	8.896
307.82	7.701
308.19	8.940
308.55	8.198
308.92	7.734
309.29	6.864
309.65	7.317
310.02	8.774
310.38	8.065
310.75	9.293
311.12	6.960
311.48	8.150
311.85	7.966
312.22	8.117
312.58	9.044
312.95	8.870
313.31	7.864
313.68	8.628
314.05	10.848
314.41	8.643
314.78	9.063
315.14	8.044
315.51	9.166
315.87	10.891
316.24	9.136
316.61	9.552
316.97	9.980
317.34	8.317
317.70	9.751
318.07	11.357
318.43	10.665
318.80	12.184
319.16	11.676
319.53	10.413
319.89	12.571
320.26	14.300
320.62	12.897
320.99	13.131
321.35	13.232
321.72	13.655
322.08	14.413
322.45	14.925
322.81	14.535
323.18	16.570
323.54	15.584
323.91	16.321
324.27	17.017
324.64	15.750
325.00	16.501
325.37	17.834
325.73	18.851
326.10	18.358
326.46	18.369
326.83	19.845
327.19	19.300
327.56	19.774
327.92	19.510
328.29	20.497
328.65	20.994
329.01	22.112
329.38	20.907
329.74	21.884
330.11	22.337
330.47	22.406
330.84	22.886
331.20	20.583
331.56	22.477
331.93	22.315
332.29	22.005
332.66	23.628
333.02	21.755
333.38	23.035
333.75	22.727
334.11	23.221
334.48	22.804
334.84	22.702
335.20	23.455
335.57	23.300
335.93	22.946
336.29	23.168
336.66	23.805
337.02	23.982
337.38	23.611
337.75	24.777
338.11	25.067
338.47	24.586
338.84	24.656
339.20	23.853
339.56	25.365
339.93	24.909
340.29	25.272
340.65	24.777
341.02	25.305
341.38	24.199
341.74	24.474
342.11	25.328
342.47	25.991
342.83	24.229
343.20	25.974
343.56	26.285
343.92	26.491
344.28	25.510
344.65	25.021
345.01	25.168
345.37	25.386
345.73	24.535
346.10	25.405
346.46	25.932
346.82	25.783
347.19	24.979
347.55	25.698
347.91	25.890
348.27	26.130
348.63	26.171
349.00	26.214
349.36	25.534
349.72	25.982
350.08	25.689
350.45	25.468
350.81	24.939
351.17	24.716
351.53	24.488
351.89	25.825
352.26	27.151
352.62	25.662
352.98	25.608
353.34	27.116
353.70	25.777
354.07	26.452
354.43	26.190
354.79	25.261
355.15	25.858
355.51	28.297
355.87	26.776
356.24	26.710
356.60	26.864
356.96	26.951
357.32	26.574
357.68	28.583
358.04	26.207
358.40	27.633
358.77	28.873
359.13	27.151
359.49	27.137
359.85	26.905
360.21	27.512
360.57	27.938
360.93	28.692
361.29	27.513
361.66	27.167
362.02	27.836
362.38	27.681
362.74	28.125
363.10	28.275
363.46	27.953
363.82	29.478
364.18	28.120
364.54	28.752
364.90	28.895
365.26	28.235
365.62	29.072
365.98	27.684
366.35	27.722
366.71	28.850
367.07	29.352
367.43	29.536
367.79	29.550
368.15	30.029
368.51	28.198
368.87	28.694
369.23	28.895
369.59	29.761
369.95	28.603
370.31	29.701
370.67	28.623
371.03	30.262
371.39	29.956
371.75	29.926
372.11	30.583
372.47	30.938
372.83	31.340
373.19	29.624
373.55	30.746
373.91	31.222
374.27	30.584
374.63	29.745
374.99	30.650
375.35	30.007
375.71	30.775
376.07	31.550
376.42	31.155
376.78	31.610
377.14	31.140
377.50	32.384
377.86	30.452
378.22	30.910
378.58	31.078
378.94	31.427
379.30	31.743
379.66	31.916
380.02	31.327
380.38	31.148
380.74	30.972
381.09	31.296
381.45	31.407
381.81	32.555
382.17	32.484
382.53	31.572
382.89	32.716
383.25	31.645
383.61	33.024
383.97	32.833
384.32	32.065
384.68	31.784
385.04	33.559
385.40	32.755
385.76	31.880
386.12	32.642
386.48	33.417
386.83	33.419
387.19	33.890
387.55	34.385
387.91	32.830
388.27	34.212
388.62	34.112
388.98	33.600
389.34	33.980
389.70	33.415
390.06	34.157
390.42	34.630
390.77	34.606
391.13	34.014
391.49	34.835
391.85	34.819
392.20	33.186
392.56	33.712
392.92	33.902
393.28	33.018
393.64	33.633
393.99	33.293
394.35	33.623
394.71	34.128
395.07	33.956
395.42	34.178
395.78	34.033
396.14	34.016
396.50	34.586
396.85	34.520
397.21	33.477
397.57	33.292
397.92	33.654
398.28	33.632
398.64	34.648
399.00	33.632
399.35	33.164
399.71	33.738
400.07	33.530
400.42	34.908
400.78	34.861
401.14	34.268
401.49	34.507
401.85	32.910
402.21	34.192
402.57	33.621
402.92	33.859
403.28	34.166
403.63	34.282
403.99	33.376
404.35	33.333
404.70	34.832
405.06	33.838
405.42	35.059
405.77	33.143
406.13	33.183
406.49	34.181
406.84	33.786
407.20	33.452
407.55	34.397
407.91	35.000
408.27	34.907
408.62	33.775
408.98	33.885
409.34	34.563
409.69	33.806
410.05	35.006
410.40	34.006
410.76	33.632
411.11	33.896
411.47	33.227
411.83	33.903
412.18	33.704
412.54	33.935
412.89	33.373
413.25	33.884
413.60	34.466
413.96	33.151
414.31	33.961
414.67	34.284
415.03	33.709
415.38	33.698
415.74	33.633
416.09	33.834
416.45	34.270
416.80	33.972
417.16	34.920
417.51	34.904
417.87	33.141
418.22	33.502
418.58	33.570
418.93	34.214
419.29	33.609
419.64	34.509
420.00	33.659
420.35	32.812
420.71	34.071
421.06	33.592
421.42	32.632
421.77	33.857
422.12	33.127
422.48	32.218
422.83	33.197
423.19	33.204
423.54	33.372
423.90	33.565
424.25	32.775
424.61	31.726
424.96	32.478
425.31	32.614
425.67	32.416
426.02	32.286
426.38	33.150
426.73	32.124
427.09	31.854
427.44	32.432
427.79	31.857
428.15	32.321
428.50	32.066
428.85	32.062
429.21	32.082
429.56	32.556
429.92	31.253
430.27	31.331
430.62	31.132
430.98	31.863
431.33	31.598
431.68	32.565
432.04	30.245
432.39	31.354
432.74	32.256
433.10	32.711
433.45	33.061
433.80	31.874
434.16	31.838
434.51	30.579
434.86	31.927
435.22	32.685
435.57	32.097
435.92	32.124
436.28	32.028
436.63	32.285
436.98	31.826
437.34	32.081
437.69	32.205
438.04	31.366
438.39	32.119
438.75	31.900
439.10	31.732
439.45	31.995
439.81	31.480
440.16	30.774
440.51	31.634
440.86	32.137
441.22	30.923
441.57	31.423
441.92	31.525
442.27	31.755
442.63	30.648
442.98	31.606
443.33	30.707
443.68	30.976
444.03	31.088
444.39	30.185
444.74	32.359
445.09	30.997
445.44	31.055
445.79	29.886
446.15	31.128
446.50	29.564
446.85	30.164
447.20	30.903
447.55	30.709
447.91	30.502
448.26	30.161
448.61	30.356
448.96	31.561
449.31	30.034
449.66	29.882
450.02	30.306
450.37	29.649
450.72	31.077
451.07	29.616
451.42	30.030
451.77	29.888
452.12	30.023
452.47	29.602
452.83	30.186
453.18	29.829
453.53	30.056
453.88	30.065
454.23	29.707
454.58	30.103
454.93	31.405
455.28	29.177
455.63	30.522
455.98	31.131
456.34	29.460
456.69	29.242
457.04	30.464
457.39	29.456
457.74	29.716
458.09	30.362
458.44	28.734
458.79	28.850
459.14	29.402
459.49	29.247
459.84	29.141
460.19	29.051
460.54	28.762
460.89	28.634
461.24	29.508
461.59	29.169
461.94	27.928
462.29	28.665
462.64	27.696
462.99	27.456
463.34	28.867
463.69	28.330
464.04	27.710
464.39	27.942
464.74	27.986
465.09	28.166
465.44	27.202
465.79	26.957
466.14	28.298
466.49	26.641
466.84	27.496
467.19	27.158
467.54	27.562
467.89	27.191
468.24	26.818
468.59	27.473
468.94	26.878
469.29	27.185
469.64	27.912
469.99	26.387
470.34	26.948
470.68	26.221
471.03	26.054
471.38	27.241
471.73	26.915
472.08	27.368
472.43	26.068
472.78	26.860
473.13	26.765
473.48	26.217
473.83	26.829
474.17	26.260
474.52	26.427
474.87	25.686
475.22	25.537
475.57	24.664
475.92	24.217
476.27	24.690
476.61	24.766
476.96	24.409
477.31	24.542
477.66	24.562
478.01	23.628
478.36	24.432
478.70	23.364
479.05	24.814
479.40	23.951
479.75	24.199
480.10	23.509
480.45	23.655
480.79	23.698
481.14	23.630
481.49	23.920
481.84	23.411
482.19	23.898
482.53	23.165
482.88	23.313
483.23	23.458
483.58	23.612
483.92	22.962
484.27	22.179
484.62	21.897
484.97	22.507
485.31	21.952
485.66	21.927
486.01	21.242
486.36	20.448
486.70	20.351
487.05	20.365
487.40	20.787
487.75	20.728
488.09	20.685
488.44	20.614
488.79	21.302
489.13	21.620
489.48	21.778
489.83	20.803
490.17	21.833
490.52	21.036
490.87	21.710
491.22	21.601
491.56	20.683
491.91	21.033
492.26	20.625
492.60	20.691
492.95	20.580
493.30	21.028
493.64	20.439
493.99	20.149
494.34	20.352
494.68	21.108
495.03	20.724
495.37	20.242
495.72	20.127
496.07	20.696
496.41	19.381
496.76	20.756
497.11	19.946
497.45	20.354
497.80	20.058
498.14	19.855
498.49	20.098
498.84	19.990
499.18	20.333
499.53	19.231
499.87	19.664
500.22	19.454
500.56	20.388
500.91	19.519
501.26	19.962
501.60	20.313
501.95	19.478
502.29	20.056
502.64	19.088
502.98	19.682
503.33	19.378
503.67	19.304
504.02	18.148
504.36	19.420
504.71	18.906
505.06	19.084
505.40	19.251
505.75	18.370
506.09	18.805
506.44	18.747
506.78	19.094
507.13	18.375
507.47	19.091
507.82	18.997
508.16	18.896
508.51	17.910
508.85	17.925
509.19	18.929
509.54	18.622
509.88	18.599
510.23	18.252
510.57	18.679
510.92	18.384
511.26	18.088
511.61	18.361
511.95	17.797
512.30	18.187
512.64	18.001
512.98	18.274
513.33	18.415
513.67	18.196
514.02	18.344
514.36	17.804
514.70	17.211
515.05	17.624
515.39	18.228
515.74	17.905
516.08	18.726
516.42	18.368
516.77	18.618
517.11	17.314
517.46	18.679
517.80	18.002
518.14	17.197
518.49	18.378
518.83	18.295
519.17	16.917
519.52	17.600
519.86	17.342
520.20	18.324
520.55	17.893
520.89	18.309
521.23	17.672
521.58	17.287
521.92	17.514
522.26	16.901
522.61	17.445
522.95	16.759
523.29	17.772
523.64	17.622
523.98	17.437
524.32	17.612
524.66	17.378
525.01	17.463
525.35	17.162
525.69	17.303
526.04	17.819
526.38	17.267
526.72	17.301
527.06	18.581
527.41	15.965
527.75	18.006
528.09	16.699
528.43	17.782
528.78	16.841
529.12	17.091
529.46	16.656
529.80	17.327
530.15	16.573
530.49	17.108
530.83	17.089
531.17	18.799
531.51	16.991
531.86	16.258
532.20	18.057
532.54	17.361
532.88	16.752
533.22	16.615
533.57	16.481
533.91	15.834
534.25	16.950
534.59	16.290
534.93	15.705
535.27	16.295
535.62	15.995
535.96	16.259
536.30	16.402
536.64	16.806
536.98	16.656
537.32	16.392
537.66	16.267
538.01	16.327
538.35	16.354
538.69	16.847
539.03	15.984
539.37	16.230
539.71	15.295
540.05	15.490
540.39	15.748
540.73	15.912
541.07	17.132
541.42	15.786
541.76	16.258
542.10	15.783
542.44	15.497
542.78	16.930
543.12	14.779
543.46	16.131
543.80	16.135
544.14	16.945
544.48	16.127
544.82	15.394
545.16	15.810
545.50	14.396
545.84	15.591
546.18	16.633
546.52	16.173
546.86	16.151
547.20	15.981
547.54	15.230
547.88	17.028
548.22	16.065
548.56	15.409
548.90	14.917
549.24	15.286
549.58	14.666
549.92	15.385
550.26	16.832
550.60	15.353
550.94	15.563
551.28	14.704
551.62	15.960
551.96	15.018
552.30	15.768
552.64	15.551
552.98	15.729
553.32	16.049
553.66	15.474
554.00	16.678
554.34	15.183
554.68	15.665
555.02	15.021
555.36	15.936
555.69	15.088
556.03	15.141
556.37	15.348
556.71	14.802
557.05	14.986
557.39	15.045
557.73	15.526
558.07	14.648
558.41	15.195
558.75	15.797
559.08	15.511
559.42	14.210
559.76	15.147
560.10	15.917
560.44	14.675
560.78	14.172
561.12	14.974
561.45	15.319
561.79	15.096
562.13	14.688
562.47	14.686
562.81	14.714
563.15	14.181
563.48	14.987
563.82	14.416
564.16	14.454
564.50	13.802
564.84	14.412
565.17	14.543
565.51	13.994
565.85	14.657
566.19	14.402
566.52	13.870
566.86	13.924
567.20	14.092
567.54	13.813
567.88	13.308
568.21	13.704
568.55	13.448
568.89	13.132
569.23	13.324
569.56	12.753
569.90	12.868
570.24	12.164
570.57	12.411
570.91	12.056
571.25	12.199
571.59	12.077
571.92	12.097
572.26	11.930
572.60	12.492
572.93	11.994
573.27	12.245
573.61	11.837
573.95	11.964
574.28	11.608
574.62	11.273
574.96	11.183
575.29	11.712
575.63	11.357
575.97	11.612
576.30	11.790
576.64	11.246
576.98	11.497
577.31	11.599
577.65	11.379
577.98	11.017
578.32	10.723
578.66	11.530
578.99	11.230
579.33	11.402
579.67	10.971
580.00	10.981
580.34	11.367
580.67	11.368
581.01	11.446
581.35	11.188
581.68	10.880
582.02	10.775
582.35	10.940
582.69	11.256
583.02	11.299
583.36	11.252
583.70	11.464
584.03	11.338
584.37	12.306
584.70	11.311
585.04	11.057
585.37	11.417
585.71	11.490
586.04	11.331
586.38	11.311
586.72	12.124
587.05	11.519
587.39	10.923
587.72	11.389
588.06	11.099
588.39	11.824
588.73	11.264
589.06	11.343
589.40	12.189
589.73	11.369
590.07	12.242
590.40	11.874
590.73	11.671
591.07	12.902
591.40	12.189
591.74	12.900
592.07	12.478
592.41	12.071
592.74	12.097
593.08	11.792
593.41	11.515
593.75	11.868
594.08	11.834
594.41	11.736
594.75	11.904
595.08	11.596
595.42	11.874
595.75	11.717
596.09	12.167
596.42	12.220
596.75	11.946
597.09	12.338
597.42	11.847
597.75	12.376
598.09	12.478
598.42	12.328
598.76	12.120
599.09	10.870
599.42	11.718
599.76	11.786
600.09	11.075
600.42	11.140
600.76	11.071
601.09	11.002
601.42	11.606
601.76	11.954
602.09	12.016
602.42	11.584
602.76	11.810
603.09	11.880
603.42	11.792
603.76	11.852
604.09	11.128
604.42	11.781
604.76	12.020
605.09	11.708
605.42	11.843
605.75	11.755
606.09	11.509
606.42	11.933
606.75	11.489
607.09	11.762
607.42	11.724
607.75	11.055
608.08	11.463
608.42	11.833
608.75	12.128
609.08	11.055
609.41	11.804
609.75	11.482
610.08	12.158
610.41	12.058
610.74	11.684
611.07	12.154
611.41	11.727
611.74	12.670
612.07	11.542
612.40	12.592
612.73	11.632
613.07	12.177
613.40	12.270
613.73	11.589
614.06	11.559
614.39	12.690
614.72	12.105
615.06	11.765
615.39	11.677
615.72	11.912
616.05	11.430
616.38	12.674
616.71	12.589
617.05	12.544
617.38	12.207
617.71	12.012
618.04	13.462
618.37	12.419
618.70	11.886
619.03	12.632
619.36	12.763
619.69	12.324
620.03	13.668
620.36	12.767
620.69	13.288
621.02	13.274
621.35	13.234
621.68	13.084
622.01	13.158
622.34	13.767
622.67	13.080
623.00	11.812
623.33	12.580
623.66	12.866
623.99	13.328
624.32	12.553
624.65	13.206
624.99	11.756
625.32	12.238
625.65	13.674
625.98	13.836
626.31	14.075
626.64	13.959
626.97	13.300
627.30	13.549
627.63	14.766
627.96	13.793
628.29	13.473
628.62	15.005
628.95	15.283
629.28	14.507
629.61	14.390
629.94	14.571
630.26	14.109
630.59	12.965
630.92	13.602
631.25	13.425
631.58	13.814
631.91	12.982
632.24	13.819
