SpectraSuite Data File
++++++++++++++++++++++++++++++++++++
Date: Wed May 13 19:13:33 PDT 2015
User: schluterlab
Dark Spectrum Present: Yes
Reference Spectrum Present: Yes
Number of Sampled Component Spectra: 1
Spectrometers: USB2E3373
Integration Time (usec): 3000 (USB2E3373)
Spectra Averaged: 3 (USB2E3373)
Boxcar Smoothing: 0 (USB2E3373)
Correct for Electrical Dark: No (USB2E3373)
Strobe/Lamp Enabled: No (USB2E3373)
Correct for Detector Non-linearity: No (USB2E3373)
Correct for Stray Light: No (USB2E3373)
Number of Pixels in Processed Spectrum: 2048
>>>>>Begin Processed Spectral Data<<<<<
178.53	0.000
178.91	-1325.000
179.29	-1450.000
179.67	-283.333
180.04	-1350.000
180.42	2350.000
180.80	1260.000
181.18	-1125.000
181.56	814.286
181.94	0.000
182.31	-728.571
182.69	2066.667
183.07	-675.000
183.45	-600.000
183.83	618.182
184.20	-530.000
184.58	3000.000
184.96	5300.000
185.34	-1040.000
185.72	-737.500
186.09	-2850.000
186.47	3250.000
186.85	2600.000
187.23	5200.000
187.61	-1933.333
187.98	1575.000
188.36	609.091
188.74	472.727
189.12	-1120.000
189.49	620.000
189.87	-5100.000
190.25	-1550.000
190.63	492.857
191.00	507.692
191.38	933.333
191.76	-1300.000
192.14	1600.000
192.51	862.500
192.89	1133.333
193.27	600.000
193.65	-1450.000
194.02	600.000
194.40	1120.000
194.78	650.000
195.15	516.667
195.53	740.000
195.91	-2450.000
196.29	368.750
196.66	352.632
197.04	-430.000
197.42	0.000
197.79	650.000
198.17	-4900.000
198.55	914.286
198.92	837.500
199.30	1140.000
199.68	0.000
200.05	338.889
200.43	771.429
200.81	5400.000
201.18	2033.333
201.56	-1700.000
201.94	566.667
202.31	611.111
202.69	441.667
203.07	650.000
203.44	0.000
203.82	1425.000
204.19	842.857
204.57	507.143
204.95	675.000
205.32	1766.667
205.70	572.727
206.08	421.429
206.45	3050.000
206.83	362.500
207.20	1083.333
207.58	1000.000
207.96	344.444
208.33	650.000
208.71	-1000.000
209.08	828.571
209.46	666.667
209.84	518.182
210.21	-1700.000
210.59	1650.000
210.96	-475.000
211.34	2900.000
211.71	690.000
212.09	983.333
212.46	0.000
212.84	1566.667
213.22	1550.000
213.59	-4500.000
213.97	750.000
214.34	914.286
214.72	681.818
215.09	1280.000
215.47	-2700.000
215.84	-2250.000
216.22	1666.667
216.59	450.000
216.97	1250.000
217.34	472.727
217.72	-833.333
218.09	0.000
218.47	-4700.000
218.84	744.444
219.22	757.143
219.59	2233.333
219.97	-757.143
220.34	1240.000
220.72	-1800.000
221.09	421.429
221.47	1550.000
221.84	-916.667
222.22	0.000
222.59	1600.000
222.97	-3150.000
223.34	1160.000
223.72	530.769
224.09	1200.000
224.46	2600.000
224.84	-6600.000
225.21	-1260.000
225.59	-5000.000
225.96	610.000
226.34	335.000
226.71	3600.000
227.08	737.500
227.46	560.000
227.83	-1350.000
228.21	-2550.000
228.58	700.000
228.95	-2800.000
229.33	-2400.000
229.70	1966.667
230.08	857.143
230.45	-1160.000
230.82	550.000
231.20	900.000
231.57	728.571
231.95	616.667
232.32	290.909
232.69	490.909
233.07	785.714
233.44	430.769
233.81	-2033.333
234.19	300.000
234.56	525.000
234.93	475.000
235.31	527.273
235.68	438.462
236.05	414.286
236.43	203.030
236.80	357.895
237.17	6100.000
237.55	290.476
237.92	253.571
238.29	266.667
238.67	212.903
239.04	289.655
239.41	200.000
239.79	152.174
240.16	176.190
240.53	165.909
240.91	119.608
241.28	140.000
241.65	156.000
242.02	124.638
242.40	135.484
242.77	133.333
243.14	110.753
243.51	111.236
243.89	115.294
244.26	100.000
244.63	108.602
245.00	95.745
245.38	97.030
245.75	98.131
246.12	88.073
246.49	97.080
246.87	94.400
247.24	91.538
247.61	83.571
247.98	78.431
248.36	80.405
248.73	79.618
249.10	84.713
249.47	75.706
249.84	78.610
250.22	73.262
250.59	71.598
250.96	67.677
251.33	75.355
251.70	73.762
252.08	67.619
252.45	65.471
252.82	68.696
253.19	69.787
253.56	66.667
253.94	70.124
254.31	64.453
254.68	66.923
255.05	63.100
255.42	66.667
255.79	64.338
256.16	68.231
256.54	60.777
256.91	64.413
257.28	59.712
257.65	62.376
258.02	60.559
258.39	60.568
258.76	60.535
259.14	60.417
259.51	58.359
259.88	60.248
260.25	59.517
260.62	59.538
260.99	57.453
261.36	60.360
261.73	57.880
262.10	60.465
262.47	62.254
262.85	58.496
263.22	55.271
263.59	60.114
263.96	57.692
264.33	57.180
264.70	57.895
265.07	59.847
265.44	55.808
265.81	52.068
266.18	55.528
266.55	56.341
266.92	57.248
267.29	56.250
267.66	54.358
268.03	54.318
268.40	57.243
268.77	52.029
269.14	55.631
269.51	53.950
269.88	56.643
270.25	53.047
270.62	53.483
270.99	56.344
271.36	52.361
271.73	56.308
272.10	54.348
272.47	52.043
272.84	52.597
273.21	52.201
273.58	51.747
273.95	51.153
274.32	50.620
274.69	53.961
275.06	52.756
275.43	55.745
275.80	51.904
276.17	51.120
276.54	54.470
276.91	53.953
277.28	51.367
277.65	51.644
278.02	53.002
278.39	51.562
278.76	50.364
279.13	47.925
279.50	50.466
279.87	52.988
280.23	51.697
280.60	51.451
280.97	49.908
281.34	51.504
281.71	51.091
282.08	51.823
282.45	50.545
282.82	49.023
283.19	47.415
283.56	47.544
283.92	50.085
284.29	49.559
284.66	49.002
285.03	48.644
285.40	48.239
285.77	48.822
286.14	48.532
286.51	46.833
286.87	45.470
287.24	45.440
287.61	45.907
287.98	45.130
288.35	46.434
288.72	46.573
289.08	45.696
289.45	45.140
289.82	45.366
290.19	42.386
290.56	44.104
290.93	41.390
291.29	43.865
291.66	40.855
292.03	43.314
292.40	43.759
292.77	41.864
293.13	41.940
293.50	42.420
293.87	41.630
294.24	39.704
294.60	39.738
294.97	39.680
295.34	40.197
295.71	42.330
296.08	41.168
296.44	40.990
296.81	38.177
297.18	40.515
297.55	36.939
297.91	35.884
298.28	40.830
298.65	40.078
299.02	38.735
299.38	37.317
299.75	37.062
300.12	37.420
300.48	36.000
300.85	35.142
301.22	37.452
301.59	35.480
301.95	35.894
302.32	36.714
302.69	35.006
303.05	34.667
303.42	36.173
303.79	35.447
304.15	35.548
304.52	32.677
304.89	35.192
305.25	33.179
305.62	34.428
305.99	35.655
306.35	34.676
306.72	35.090
307.09	34.739
307.45	36.486
307.82	32.924
308.19	34.879
308.55	34.196
308.92	34.264
309.29	31.362
309.65	32.662
310.02	32.664
310.38	34.086
310.75	33.685
311.12	33.572
311.48	32.079
311.85	32.914
312.22	31.426
312.58	33.160
312.95	31.573
313.31	30.971
313.68	33.264
314.05	33.826
314.41	32.965
314.78	31.621
315.14	32.473
315.51	32.750
315.87	32.475
316.24	31.182
316.61	30.312
316.97	30.724
317.34	30.528
317.70	32.792
318.07	32.435
318.43	31.703
318.80	31.771
319.16	31.638
319.53	30.863
319.89	31.524
320.26	31.600
320.62	30.853
320.99	31.414
321.35	30.505
321.72	32.033
322.08	32.577
322.45	32.537
322.81	31.880
323.18	32.177
323.54	31.911
323.91	31.887
324.27	29.637
324.64	28.984
325.00	30.027
325.37	30.937
325.73	31.508
326.10	30.009
326.46	29.659
326.83	30.112
327.19	28.352
327.56	30.401
327.92	31.059
328.29	30.612
328.65	30.663
329.01	31.137
329.38	29.880
329.74	30.656
330.11	30.066
330.47	30.487
330.84	31.893
331.20	29.872
331.56	30.000
331.93	30.000
332.29	29.902
332.66	30.885
333.02	29.068
333.38	29.991
333.75	30.125
334.11	29.004
334.48	30.257
334.84	29.596
335.20	29.909
335.57	29.918
335.93	28.929
336.29	29.670
336.66	29.757
337.02	28.778
337.38	30.278
337.75	28.877
338.11	28.827
338.47	30.018
338.84	30.156
339.20	29.083
339.56	30.566
339.93	29.727
340.29	28.714
340.65	30.214
341.02	30.105
341.38	30.783
341.74	29.035
342.11	29.869
342.47	29.427
342.83	28.938
343.20	29.524
343.56	29.486
343.92	28.860
344.28	29.422
344.65	30.095
345.01	28.872
345.37	27.444
345.73	30.034
346.10	28.730
346.46	28.390
346.82	27.348
347.19	27.736
347.55	26.519
347.91	27.589
348.27	29.170
348.63	28.261
349.00	27.913
349.36	28.325
349.72	29.110
350.08	27.796
350.45	28.560
350.81	28.107
351.17	28.687
351.53	27.518
351.89	27.393
352.26	27.861
352.62	28.949
352.98	27.391
353.34	28.266
353.70	26.923
354.07	28.548
354.43	27.937
354.79	26.629
355.15	27.773
355.51	28.058
355.87	28.408
356.24	27.769
356.60	27.506
356.96	27.273
357.32	27.065
357.68	27.244
358.04	27.158
358.40	28.345
358.77	27.387
359.13	26.677
359.49	27.294
359.85	25.635
360.21	26.396
360.57	27.393
360.93	28.385
361.29	26.909
361.66	26.316
362.02	27.612
362.38	26.388
362.74	25.893
363.10	26.425
363.46	26.266
363.82	26.153
364.18	25.404
364.54	26.895
364.90	26.912
365.26	25.294
365.62	27.027
365.98	25.274
366.35	25.143
366.71	26.537
367.07	25.564
367.43	27.068
367.79	26.410
368.15	26.365
368.51	26.163
368.87	26.695
369.23	26.554
369.59	25.923
369.95	25.368
370.31	25.285
370.67	25.870
371.03	26.217
371.39	26.239
371.75	26.250
372.11	26.600
372.47	26.393
372.83	26.153
373.19	25.434
373.55	26.829
373.91	26.362
374.27	24.811
374.63	25.964
374.99	26.271
375.35	25.122
375.71	25.428
376.07	25.446
376.42	26.547
376.78	26.044
377.14	26.119
377.50	25.695
377.86	24.668
378.22	25.221
378.58	24.248
378.94	24.639
379.30	23.919
379.66	24.810
380.02	24.693
380.38	24.529
380.74	26.110
381.09	25.000
381.45	25.630
381.81	25.491
382.17	24.395
382.53	24.843
382.89	25.000
383.25	24.203
383.61	25.341
383.97	25.078
384.32	24.953
384.68	24.783
385.04	24.339
385.40	24.087
385.76	24.140
386.12	24.806
386.48	24.858
386.83	24.567
387.19	24.985
387.55	24.985
387.91	23.821
388.27	24.770
388.62	24.770
388.98	24.079
389.34	24.969
389.70	24.647
390.06	25.729
390.42	24.384
390.77	24.618
391.13	24.186
391.49	24.429
391.85	24.825
392.20	23.912
392.56	23.548
392.92	23.720
393.28	23.550
393.64	24.880
393.99	24.374
394.35	24.380
394.71	24.279
395.07	23.738
395.42	24.598
395.78	24.746
396.14	24.829
396.50	24.875
396.85	25.429
397.21	23.736
397.57	24.241
397.92	23.978
398.28	22.926
398.64	24.313
399.00	24.342
399.35	23.801
399.71	23.785
400.07	24.246
400.42	25.031
400.78	24.246
401.14	23.598
401.49	24.119
401.85	23.109
402.21	23.892
402.57	23.442
402.92	23.392
403.28	24.047
403.63	24.010
403.99	24.268
404.35	24.061
404.70	23.681
405.06	23.180
405.42	23.830
405.77	23.314
406.13	23.025
406.49	24.364
406.84	23.686
407.20	23.759
407.55	23.803
407.91	24.133
408.27	23.676
408.62	24.022
408.98	24.326
409.34	23.985
409.69	24.774
410.05	24.349
410.40	23.853
410.76	23.178
411.11	23.522
411.47	24.473
411.83	23.335
412.18	23.129
412.54	23.661
412.89	23.373
413.25	23.259
413.60	24.583
413.96	24.044
414.31	23.572
414.67	24.398
415.03	23.377
415.38	24.162
415.74	23.601
416.09	24.494
416.45	24.029
416.80	23.860
417.16	24.933
417.51	24.419
417.87	24.149
418.22	23.722
418.58	24.015
418.93	24.324
419.29	23.616
419.64	24.055
420.00	23.598
420.35	24.464
420.71	24.148
421.06	23.747
421.42	23.977
421.77	24.439
422.12	22.684
422.48	22.828
422.83	23.995
423.19	23.425
423.54	23.970
423.90	23.304
424.25	23.674
424.61	23.095
424.96	23.965
425.31	23.643
425.67	22.921
426.02	23.086
426.38	24.359
426.73	22.937
427.09	23.526
427.44	23.807
427.79	23.404
428.15	24.167
428.50	23.581
428.85	24.076
429.21	23.136
429.56	23.276
429.92	22.446
430.27	23.039
430.62	22.376
430.98	23.819
431.33	23.041
431.68	23.979
432.04	23.482
432.39	23.073
432.74	24.177
433.10	23.713
433.45	23.207
433.80	22.727
434.16	23.024
434.51	23.000
434.86	23.603
435.22	22.846
435.57	23.283
435.92	23.288
436.28	23.428
436.63	24.062
436.98	23.755
437.34	24.031
437.69	24.446
438.04	23.553
438.39	23.642
438.75	23.300
439.10	23.184
439.45	24.085
439.81	24.048
440.16	23.715
440.51	24.253
440.86	23.509
441.22	22.970
441.57	23.355
441.92	23.030
442.27	23.305
442.63	22.907
442.98	23.718
443.33	23.098
443.68	22.974
444.03	22.938
444.39	23.126
444.74	23.052
445.09	23.073
445.44	22.909
445.79	23.701
446.15	23.081
446.50	23.209
446.85	23.176
447.20	22.947
447.55	23.618
447.91	23.442
448.26	23.372
448.61	23.573
448.96	23.865
449.31	23.735
449.66	23.635
450.02	23.120
450.37	23.526
450.72	23.068
451.07	23.035
451.42	23.100
451.77	23.958
452.12	23.037
452.47	24.005
452.83	23.019
453.18	23.166
453.53	25.294
453.88	22.623
454.23	23.311
454.58	23.380
454.93	25.111
455.28	23.317
455.63	24.029
455.98	24.643
456.34	23.555
456.69	23.669
457.04	23.467
457.39	23.787
457.74	23.331
458.09	23.174
458.44	22.919
458.79	22.343
459.14	23.871
459.49	23.176
459.84	23.989
460.19	22.510
460.54	23.264
460.89	24.191
461.24	23.679
461.59	24.114
461.94	24.229
462.29	24.214
462.64	24.186
462.99	23.422
463.34	24.733
463.69	24.265
464.04	23.942
464.39	23.362
464.74	23.827
465.09	24.367
465.44	22.881
465.79	22.931
466.14	23.645
466.49	23.582
466.84	24.343
467.19	23.838
467.54	24.000
467.89	23.589
468.24	23.618
468.59	23.932
468.94	23.091
469.29	23.907
469.64	23.896
469.99	25.304
470.34	24.306
470.68	23.779
471.03	23.741
471.38	25.226
471.73	24.517
472.08	24.211
472.43	23.807
472.78	24.029
473.13	24.840
473.48	24.282
473.83	25.000
474.17	24.207
474.52	23.945
474.87	24.343
475.22	23.854
475.57	22.676
475.92	21.933
476.27	23.168
476.61	23.773
476.96	24.134
477.31	22.920
477.66	23.523
478.01	22.635
478.36	23.744
478.70	23.780
479.05	23.855
479.40	23.490
479.75	23.081
480.10	22.614
480.45	22.703
480.79	22.551
481.14	22.798
481.49	23.398
481.84	21.948
482.19	23.035
482.53	23.532
482.88	23.127
483.23	22.710
483.58	22.702
483.92	23.899
484.27	21.961
484.62	22.543
484.97	22.192
485.31	22.192
485.66	20.305
486.01	19.584
486.36	19.401
486.70	19.967
487.05	20.275
487.40	21.323
487.75	22.043
488.09	23.173
488.44	23.249
488.79	24.485
489.13	24.064
489.48	23.613
489.83	23.306
490.17	23.542
490.52	23.472
490.87	23.293
491.22	23.374
491.56	22.005
491.91	22.150
492.26	22.278
492.60	22.765
492.95	22.919
493.30	22.757
493.64	22.678
493.99	22.145
494.34	22.248
494.68	22.985
495.03	23.543
495.37	22.569
495.72	22.320
496.07	23.109
496.41	22.168
496.76	23.307
497.11	23.233
497.45	23.381
497.80	23.081
498.14	22.802
498.49	23.024
498.84	23.202
499.18	22.762
499.53	22.555
499.87	22.833
500.22	23.033
500.56	23.447
500.91	22.644
501.26	23.471
501.60	23.730
501.95	22.319
502.29	23.618
502.64	23.277
502.98	22.955
503.33	22.532
503.67	23.109
504.02	23.059
504.36	22.976
504.71	23.400
505.06	22.410
505.40	23.043
505.75	23.047
506.09	22.595
506.44	23.187
506.78	23.234
507.13	23.372
507.47	23.788
507.82	23.252
508.16	23.455
508.51	23.338
508.85	22.939
509.19	23.571
509.54	23.878
509.88	22.669
510.23	22.931
510.57	24.149
510.92	22.941
511.26	23.176
511.61	23.755
511.95	22.390
512.30	22.216
512.64	23.482
512.98	23.526
513.33	23.555
513.67	22.785
514.02	23.377
514.36	23.921
514.70	23.852
515.05	23.480
515.39	24.509
515.74	23.649
516.08	23.700
516.42	23.751
516.77	24.136
517.11	23.973
517.46	24.153
517.80	23.868
518.14	23.162
518.49	24.212
518.83	24.205
519.17	24.018
519.52	23.826
519.86	24.073
520.20	24.335
520.55	25.015
520.89	25.182
521.23	24.910
521.58	23.950
521.92	24.311
522.26	22.697
522.61	24.361
522.95	24.125
523.29	23.981
523.64	24.268
523.98	23.660
524.32	24.186
524.66	23.572
525.01	23.468
525.35	23.916
525.69	24.323
526.04	24.361
526.38	23.551
526.72	24.233
527.06	24.670
527.41	23.391
527.75	24.309
528.09	24.599
528.43	25.048
528.78	24.155
529.12	22.909
529.46	24.495
529.80	24.938
530.15	24.424
530.49	23.446
530.83	25.127
531.17	24.608
531.51	24.773
531.86	24.258
532.20	24.837
532.54	25.240
532.88	24.904
533.22	24.047
533.57	23.272
533.91	23.600
534.25	23.086
534.59	25.076
534.93	23.795
535.27	24.140
535.62	23.748
535.96	25.612
536.30	24.539
536.64	25.113
536.98	24.287
537.32	24.490
537.66	24.400
538.01	25.082
538.35	24.887
538.69	25.144
539.03	24.042
539.37	23.578
539.71	23.202
540.05	23.922
540.39	24.651
540.73	23.545
541.07	25.438
541.42	24.462
541.76	25.032
542.10	24.127
542.44	24.371
542.78	25.231
543.12	24.056
543.46	24.590
543.80	24.073
544.14	23.556
544.48	25.270
544.82	23.605
545.16	25.114
545.50	23.201
545.84	24.126
546.18	24.916
546.52	25.602
546.86	25.017
547.20	25.489
547.54	25.184
547.88	24.809
548.22	24.720
548.56	24.654
548.90	23.752
549.24	24.512
549.58	24.966
549.92	25.412
550.26	25.284
550.60	25.173
550.94	25.282
551.28	24.287
551.62	24.012
551.96	24.702
552.30	25.119
552.64	24.882
552.98	24.610
553.32	24.275
553.66	25.426
554.00	24.640
554.34	24.845
554.68	26.252
555.02	25.176
555.36	25.191
555.69	26.049
556.03	24.630
556.37	25.034
556.71	25.784
557.05	25.210
557.39	24.913
557.73	25.053
558.07	25.816
558.41	24.819
558.75	25.129
559.08	25.503
559.42	25.775
559.76	25.441
560.10	24.054
560.44	24.458
560.78	23.819
561.12	24.274
561.45	24.772
561.79	24.918
562.13	25.620
562.47	24.863
562.81	24.895
563.15	24.816
563.48	23.873
563.82	24.331
564.16	23.806
564.50	24.089
564.84	23.704
565.17	23.810
565.51	24.089
565.85	24.683
566.19	24.170
566.52	25.016
566.86	24.051
567.20	23.998
567.54	23.516
567.88	23.303
568.21	23.016
568.55	23.104
568.89	22.228
569.23	22.326
569.56	21.822
569.90	21.925
570.24	21.600
570.57	21.421
570.91	21.558
571.25	21.062
571.59	20.972
571.92	21.025
572.26	21.057
572.60	21.742
572.93	22.159
573.27	21.503
573.61	21.329
573.95	21.240
574.28	21.231
574.62	20.627
574.96	20.669
575.29	20.805
575.63	21.443
575.97	21.557
576.30	21.136
576.64	21.051
576.98	20.953
577.31	21.049
577.65	20.673
577.98	20.185
578.32	20.036
578.66	20.734
578.99	21.319
579.33	21.012
579.67	21.430
580.00	21.242
580.34	21.144
580.67	21.390
581.01	21.767
581.35	21.006
581.68	20.365
582.02	20.045
582.35	20.416
582.69	20.675
583.02	20.820
583.36	21.605
583.70	22.053
584.03	22.362
584.37	22.292
584.70	21.708
585.04	21.624
585.37	21.156
585.71	21.570
586.04	21.020
586.38	21.317
586.72	21.872
587.05	21.163
587.39	20.712
587.72	21.103
588.06	21.505
588.39	22.030
588.73	21.443
589.06	22.156
589.40	22.727
589.73	22.598
590.07	22.384
590.40	22.178
590.73	22.912
591.07	22.914
591.40	22.944
591.74	23.593
592.07	22.949
592.41	22.282
592.74	21.610
593.08	20.953
593.41	21.544
593.75	21.299
594.08	22.159
594.41	22.022
594.75	21.848
595.08	22.727
595.42	22.382
595.75	22.329
596.09	23.019
596.42	23.065
596.75	23.005
597.09	23.593
597.42	22.175
597.75	23.846
598.09	22.391
598.42	22.723
598.76	22.456
599.09	21.665
599.42	21.434
599.76	21.852
600.09	21.202
600.42	21.877
600.76	21.750
601.09	21.967
601.42	22.070
601.76	22.353
602.09	22.372
602.42	22.492
602.76	22.773
603.09	22.738
603.42	22.179
603.76	21.951
604.09	21.946
604.42	22.381
604.76	23.113
605.09	22.805
605.42	22.103
605.75	22.351
606.09	22.204
606.42	22.068
606.75	23.227
607.09	22.938
607.42	22.465
607.75	21.899
608.08	22.015
608.42	22.994
608.75	23.264
609.08	22.525
609.41	22.703
609.75	22.249
610.08	23.610
610.41	22.858
610.74	23.226
611.07	23.172
611.41	22.964
611.74	24.334
612.07	23.602
612.40	24.082
612.73	23.632
613.07	23.922
613.40	22.591
613.73	22.391
614.06	23.118
614.39	23.125
614.72	23.263
615.06	23.004
615.39	22.718
615.72	23.057
616.05	23.445
616.38	23.735
616.71	23.931
617.05	23.616
617.38	22.850
617.71	23.784
618.04	23.798
618.37	23.418
618.70	24.642
619.03	25.395
619.36	24.915
619.69	24.859
620.03	25.343
620.36	24.198
620.69	25.753
621.02	25.000
621.35	25.215
621.68	24.922
622.01	25.000
622.34	24.962
622.67	25.475
623.00	22.817
623.33	24.232
623.66	24.232
623.99	24.080
624.32	23.680
624.65	24.506
624.99	23.371
625.32	24.837
625.65	25.470
625.98	24.904
626.31	25.194
626.64	26.204
626.97	26.101
627.30	25.021
627.63	26.169
627.96	26.072
628.29	25.722
628.62	28.362
628.95	27.547
629.28	25.821
629.61	26.489
629.94	26.000
630.26	26.883
630.59	26.120
