SpectraSuite Data File
++++++++++++++++++++++++++++++++++++
Date: Wed May 13 19:35:48 PDT 2015
User: schluterlab
Dark Spectrum Present: Yes
Reference Spectrum Present: Yes
Number of Sampled Component Spectra: 1
Spectrometers: USB2E3373
Integration Time (usec): 3000 (USB2E3373)
Spectra Averaged: 3 (USB2E3373)
Boxcar Smoothing: 0 (USB2E3373)
Correct for Electrical Dark: No (USB2E3373)
Strobe/Lamp Enabled: No (USB2E3373)
Correct for Detector Non-linearity: No (USB2E3373)
Correct for Stray Light: No (USB2E3373)
Number of Pixels in Processed Spectrum: 2048
>>>>>Begin Processed Spectral Data<<<<<
178.53	0.000
178.91	-1350.000
179.29	-1225.000
179.67	-277.778
180.04	-1500.000
180.42	2550.000
180.80	1060.000
181.18	-1225.000
181.56	657.143
181.94	0.000
182.31	-728.571
182.69	1866.667
183.07	-575.000
183.45	-544.444
183.83	545.455
184.20	-480.000
184.58	2250.000
184.96	7300.000
185.34	-840.000
185.72	-687.500
186.09	-2500.000
186.47	3250.000
186.85	3150.000
187.23	5500.000
187.61	-1600.000
187.98	1550.000
188.36	618.182
188.74	454.545
189.12	-1260.000
189.49	580.000
189.87	-4600.000
190.25	-1475.000
190.63	421.429
191.00	469.231
191.38	833.333
191.76	-1250.000
192.14	1550.000
192.51	737.500
192.89	950.000
193.27	687.500
193.65	-1225.000
194.02	600.000
194.40	1100.000
194.78	540.000
195.15	541.667
195.53	620.000
195.91	-2300.000
196.29	450.000
196.66	352.632
197.04	-490.000
197.42	0.000
197.79	710.000
198.17	-5200.000
198.55	757.143
198.92	725.000
199.30	1020.000
199.68	0.000
200.05	327.778
200.43	900.000
200.81	5500.000
201.18	2033.333
201.56	-1900.000
201.94	733.333
202.31	744.444
202.69	541.667
203.07	650.000
203.44	0.000
203.82	1450.000
204.19	842.857
204.57	507.143
204.95	800.000
205.32	1600.000
205.70	609.091
206.08	428.571
206.45	3150.000
206.83	343.750
207.20	1100.000
207.58	1000.000
207.96	344.444
208.33	662.500
208.71	-850.000
209.08	928.571
209.46	677.778
209.84	536.364
210.21	-1800.000
210.59	1475.000
210.96	-525.000
211.34	2550.000
211.71	610.000
212.09	966.667
212.46	0.000
212.84	2100.000
213.22	1525.000
213.59	-5500.000
213.97	1000.000
214.34	914.286
214.72	490.909
215.09	1200.000
215.47	-2500.000
215.84	-3000.000
216.22	2133.333
216.59	421.429
216.97	1650.000
217.34	518.182
217.72	-950.000
218.09	0.000
218.47	-5000.000
218.84	655.556
219.22	857.143
219.59	2000.000
219.97	-571.429
220.34	1040.000
220.72	-2200.000
221.09	457.143
221.47	1675.000
221.84	-900.000
222.22	0.000
222.59	1425.000
222.97	-2550.000
223.34	1220.000
223.72	407.692
224.09	1140.000
224.46	2200.000
224.84	-5200.000
225.21	-940.000
225.59	-5200.000
225.96	660.000
226.34	305.000
226.71	3000.000
227.08	800.000
227.46	610.000
227.83	-1100.000
228.21	-3000.000
228.58	666.667
228.95	-2600.000
229.33	-2550.000
229.70	2200.000
230.08	942.857
230.45	-860.000
230.82	433.333
231.20	833.333
231.57	757.143
231.95	558.333
232.32	250.000
232.69	472.727
233.07	785.714
233.44	376.923
233.81	-1700.000
234.19	278.947
234.56	600.000
234.93	433.333
235.31	490.909
235.68	446.154
236.05	407.143
236.43	209.091
236.80	294.737
237.17	5200.000
237.55	271.429
237.92	217.857
238.29	247.619
238.67	216.129
239.04	227.586
239.41	161.111
239.79	134.783
240.16	152.381
240.53	134.091
240.91	119.608
241.28	106.000
241.65	120.000
242.02	117.391
242.40	111.290
242.77	96.667
243.14	78.495
243.51	89.888
243.89	87.059
244.26	73.333
244.63	63.441
245.00	72.340
245.38	65.347
245.75	73.832
246.12	67.890
246.49	69.343
246.87	72.800
247.24	60.000
247.61	57.857
247.98	54.902
248.36	52.027
248.73	45.223
249.10	54.140
249.47	50.282
249.84	49.198
250.22	45.989
250.59	46.746
250.96	50.505
251.33	48.815
251.70	43.564
252.08	41.429
252.45	39.910
252.82	43.043
253.19	44.255
253.56	41.176
253.94	40.249
254.31	40.234
254.68	43.077
255.05	38.745
255.42	39.837
255.79	38.971
256.16	42.599
256.54	35.336
256.91	36.299
257.28	32.374
257.65	34.323
258.02	32.609
258.39	32.808
258.76	34.448
259.14	29.167
259.51	33.131
259.88	32.919
260.25	33.535
260.62	37.572
260.99	31.677
261.36	31.532
261.73	32.665
262.10	30.814
262.47	33.239
262.85	31.198
263.22	34.758
263.59	30.199
263.96	33.242
264.33	27.937
264.70	31.053
265.07	32.481
265.44	27.525
265.81	26.764
266.18	28.643
266.55	28.537
266.92	28.010
267.29	30.556
267.66	28.670
268.03	26.818
268.40	28.738
268.77	26.492
269.14	29.955
269.51	30.248
269.88	26.107
270.25	27.765
270.62	28.764
270.99	27.742
271.36	27.253
271.73	27.804
272.10	26.739
272.47	29.247
272.84	28.788
273.21	28.092
273.58	24.672
273.95	25.996
274.32	26.240
274.69	28.266
275.06	24.016
275.43	29.149
275.80	25.651
276.17	28.310
276.54	27.651
276.91	28.656
277.28	24.609
277.65	24.952
278.02	27.122
278.39	26.758
278.76	27.273
279.13	27.736
279.50	27.002
279.87	26.693
280.23	26.946
280.60	25.145
280.97	22.921
281.34	27.257
281.71	26.182
282.08	27.447
282.45	25.091
282.82	24.156
283.19	23.708
283.56	24.912
283.92	25.042
284.29	24.162
284.66	25.045
285.03	25.678
285.40	23.239
285.77	23.906
286.14	24.007
286.51	24.167
286.87	25.128
287.24	25.570
287.61	23.596
287.98	23.864
288.35	22.979
288.72	23.832
289.08	24.570
289.45	22.241
289.82	22.927
290.19	21.036
290.56	22.665
290.93	22.508
291.29	23.466
291.66	23.156
292.03	23.110
292.40	24.523
292.77	21.746
293.13	21.642
293.50	21.574
293.87	21.333
294.24	21.037
294.60	19.505
294.97	21.657
295.34	20.028
295.71	21.875
296.08	20.228
296.44	19.807
296.81	21.797
297.18	20.461
297.55	19.261
297.91	19.261
298.28	20.750
298.65	19.321
299.02	20.158
299.38	18.592
299.75	18.329
300.12	18.135
300.48	19.375
300.85	19.605
301.22	20.127
301.59	18.056
301.95	19.395
302.32	18.742
302.69	17.682
303.05	20.364
303.42	18.395
303.79	18.573
304.15	18.998
304.52	17.265
304.89	18.351
305.25	17.865
305.62	18.120
305.99	18.772
306.35	18.233
306.72	18.610
307.09	18.757
307.45	18.356
307.82	17.634
308.19	19.647
308.55	18.554
308.92	18.045
309.29	18.268
309.65	18.028
310.02	18.182
310.38	18.602
310.75	18.691
311.12	18.526
311.48	18.286
311.85	19.182
312.22	18.730
312.58	18.191
312.95	21.119
313.31	19.126
313.68	19.023
314.05	21.400
314.41	22.111
314.78	20.645
315.14	20.060
315.51	23.275
315.87	24.257
316.24	23.734
316.61	22.612
316.97	23.288
317.34	25.049
317.70	25.908
318.07	25.987
318.43	25.440
318.80	28.116
319.16	27.024
319.53	27.580
319.89	29.905
320.26	32.200
320.62	31.548
320.99	32.727
321.35	33.434
321.72	35.318
322.08	36.328
322.45	38.109
322.81	38.275
323.18	39.692
323.54	40.353
323.91	42.830
324.27	43.499
324.64	43.896
325.00	46.889
325.37	48.135
325.73	50.808
326.10	52.515
326.46	52.599
326.83	55.393
327.19	55.679
327.56	58.711
327.92	60.980
328.29	62.644
328.65	63.904
329.01	63.809
329.38	65.680
329.74	67.313
330.11	66.918
330.47	69.054
330.84	71.048
331.20	69.490
331.56	71.193
331.93	73.704
332.29	72.050
332.66	73.363
333.02	74.771
333.38	75.700
333.75	76.649
334.11	77.847
334.48	77.019
334.84	78.585
335.20	79.273
335.57	81.233
335.93	78.125
336.29	79.670
336.66	80.162
337.02	79.367
337.38	81.204
337.75	79.590
338.11	82.274
338.47	83.978
338.84	84.143
339.20	83.761
339.56	85.493
339.93	82.455
340.29	86.141
340.65	84.046
341.02	84.468
341.38	87.100
341.74	85.526
342.11	84.891
342.47	86.784
342.83	85.959
343.20	86.494
343.56	87.110
343.92	86.316
344.28	86.480
344.65	87.016
345.01	85.943
345.37	86.707
345.73	88.663
346.10	86.530
346.46	86.186
346.82	88.633
347.19	88.388
347.55	86.700
347.91	86.893
348.27	89.811
348.63	88.963
349.00	87.379
349.36	88.670
349.72	88.372
350.08	87.682
350.45	88.934
350.81	88.790
351.17	89.708
351.53	89.517
351.89	89.521
352.26	89.897
352.62	91.018
352.98	88.493
353.34	90.551
353.70	91.326
354.07	90.081
354.43	88.175
354.79	89.702
355.15	90.024
355.51	92.806
355.87	93.143
356.24	91.612
356.60	90.537
356.96	93.242
357.32	92.805
357.68	91.339
358.04	91.845
358.40	91.607
358.77	92.097
359.13	92.818
359.49	92.784
359.85	91.270
360.21	93.860
360.57	93.074
360.93	92.769
361.29	93.197
361.66	90.635
362.02	91.119
362.38	92.776
362.74	93.304
363.10	89.119
363.46	90.536
363.82	91.988
364.18	91.189
364.54	94.502
364.90	91.997
365.26	92.941
365.62	92.476
365.98	94.010
366.35	91.834
366.71	92.914
367.07	92.425
367.43	94.775
367.79	95.360
368.15	93.678
368.51	93.314
368.87	93.362
369.23	93.928
369.59	93.483
369.95	93.015
370.31	91.453
370.67	91.739
371.03	94.157
371.39	92.420
371.75	94.118
372.11	91.892
372.47	93.548
372.83	94.380
373.19	93.642
373.55	95.787
373.91	95.729
374.27	91.615
374.63	94.182
374.99	93.997
375.35	93.650
375.71	92.392
376.07	94.102
376.42	94.567
376.78	93.373
377.14	93.419
377.50	94.371
377.86	91.622
378.22	93.742
378.58	92.293
378.94	93.777
379.30	94.784
379.66	94.036
380.02	93.305
380.38	92.835
380.74	92.377
381.09	92.665
381.45	95.943
381.81	93.305
382.17	93.121
382.53	93.082
382.89	94.383
383.25	92.871
383.61	93.742
383.97	91.995
384.32	91.765
384.68	91.326
385.04	92.932
385.40	91.827
385.76	93.243
386.12	92.940
386.48	92.952
386.83	95.446
387.19	94.187
387.55	92.146
387.91	92.624
388.27	92.336
388.62	90.350
388.98	90.725
389.34	92.741
389.70	91.723
390.06	92.459
390.42	92.802
390.77	91.412
391.13	91.895
391.49	92.957
391.85	91.534
392.20	91.356
392.56	92.298
392.92	91.407
393.28	90.355
393.64	89.808
393.99	89.982
394.35	90.199
394.71	89.398
395.07	90.156
395.42	92.213
395.78	91.031
396.14	89.075
396.50	91.667
396.85	92.753
397.21	90.074
397.57	90.143
397.92	90.685
398.28	88.845
398.64	89.367
399.00	88.528
399.35	88.945
399.71	88.426
400.07	87.936
400.42	87.975
400.78	89.807
401.14	89.695
401.49	88.896
401.85	88.385
402.21	87.605
402.57	89.143
402.92	90.038
403.28	89.132
403.63	89.913
403.99	89.873
404.35	86.667
404.70	87.830
405.06	87.769
405.42	88.896
405.77	86.057
406.13	86.117
406.49	85.866
406.84	87.064
407.20	86.584
407.55	88.130
407.91	88.000
408.27	88.385
408.62	84.889
408.98	86.152
409.34	87.085
409.69	87.226
410.05	85.254
410.40	84.098
410.76	85.544
411.11	84.318
411.47	85.112
411.83	84.728
412.18	85.714
412.54	85.056
412.89	84.458
413.25	84.711
413.60	85.238
413.96	82.514
414.31	84.812
414.67	84.221
415.03	85.166
415.38	85.825
415.74	85.080
416.09	85.630
416.45	86.078
416.80	85.393
417.16	85.054
417.51	84.539
417.87	81.824
418.22	84.353
418.58	84.442
418.93	84.828
419.29	83.132
419.64	83.753
420.00	82.683
420.35	82.435
420.71	82.666
421.06	83.652
421.42	81.930
421.77	82.735
422.12	82.538
422.48	82.515
422.83	82.761
423.19	82.099
423.54	82.182
423.90	81.565
424.25	82.245
424.61	82.440
424.96	82.449
425.31	82.226
425.67	79.607
426.02	81.714
426.38	81.807
426.73	82.212
427.09	82.006
427.44	82.519
427.79	82.001
428.15	82.321
428.50	82.153
428.85	81.883
429.21	79.735
429.56	80.404
429.92	79.517
430.27	79.891
430.62	79.058
430.98	79.606
431.33	79.278
431.68	80.157
432.04	79.127
432.39	80.811
432.74	81.807
433.10	81.098
433.45	80.350
433.80	80.488
434.16	80.823
434.51	79.263
434.86	80.103
435.22	82.046
435.57	80.669
435.92	79.403
436.28	80.486
436.63	79.801
436.98	79.565
437.34	79.785
437.69	80.863
438.04	79.989
438.39	79.701
438.75	79.489
439.10	80.726
439.45	80.165
439.81	79.758
440.16	77.527
440.51	79.848
440.86	80.023
441.22	79.867
441.57	79.618
441.92	78.557
442.27	78.902
442.63	78.726
442.98	77.915
443.33	78.207
443.68	77.749
444.03	78.136
444.39	77.994
444.74	78.247
445.09	77.412
445.44	76.490
445.79	77.734
446.15	75.596
446.50	77.275
446.85	78.058
447.20	77.511
447.55	79.285
447.91	77.992
448.26	78.242
448.61	76.145
448.96	77.907
449.31	77.222
449.66	77.434
450.02	76.212
450.37	75.624
450.72	76.819
451.07	76.600
451.42	75.988
451.77	76.923
452.12	75.982
452.47	75.746
452.83	77.331
453.18	76.100
453.53	76.994
453.88	75.487
454.23	77.705
454.58	76.257
454.93	77.177
455.28	75.810
455.63	76.820
455.98	76.667
456.34	75.251
456.69	76.706
457.04	75.418
457.39	74.576
457.74	75.276
458.09	74.698
458.44	74.458
458.79	73.156
459.14	75.621
459.49	73.205
459.84	72.964
460.19	74.072
460.54	71.644
460.89	75.315
461.24	75.288
461.59	73.911
461.94	73.921
462.29	74.955
462.64	73.389
462.99	72.479
463.34	75.133
463.69	73.859
464.04	74.435
464.39	73.739
464.74	73.084
465.09	72.979
465.44	71.524
465.79	70.694
466.14	70.443
466.49	70.801
466.84	71.278
467.19	71.394
467.54	73.438
467.89	69.688
468.24	71.030
468.59	72.161
468.94	71.350
469.29	72.943
469.64	72.825
469.99	74.087
470.34	71.797
470.68	72.917
471.03	72.177
471.38	74.427
471.73	71.885
472.08	72.961
472.43	72.111
472.78	71.034
473.13	71.823
473.48	70.287
473.83	71.220
474.17	69.384
474.52	69.851
474.87	71.045
475.22	70.691
475.57	68.888
475.92	68.614
476.27	68.884
476.61	69.112
476.96	69.544
477.31	67.818
477.66	69.584
478.01	69.263
478.36	70.016
478.70	68.588
479.05	69.702
479.40	68.884
479.75	68.937
480.10	68.290
480.45	67.206
480.79	68.084
481.14	68.933
481.49	68.486
481.84	66.758
482.19	67.924
482.53	67.706
482.88	67.799
483.23	67.383
483.58	66.606
483.92	67.057
484.27	66.057
484.62	65.517
484.97	66.299
485.31	66.199
485.66	64.282
486.01	60.925
486.36	59.362
486.70	59.572
487.05	60.690
487.40	62.232
487.75	62.842
488.09	64.240
488.44	63.642
488.79	66.655
489.13	66.043
489.48	66.150
489.83	65.170
490.17	66.287
490.52	65.058
490.87	65.445
491.22	65.257
491.56	63.872
491.91	65.286
492.26	63.803
492.60	64.839
492.95	64.032
493.30	63.692
493.64	63.976
493.99	63.185
494.34	64.107
494.68	65.018
495.03	64.239
495.37	64.449
495.72	65.936
496.07	64.640
496.41	62.478
496.76	64.336
497.11	62.674
497.45	63.670
497.80	62.956
498.14	63.527
498.49	63.805
498.84	62.704
499.18	64.048
499.53	62.203
499.87	62.908
500.22	62.694
500.56	63.981
500.91	62.740
501.26	63.063
501.60	63.028
501.95	61.595
502.29	62.887
502.64	62.663
502.98	62.319
503.33	61.609
503.67	61.624
504.02	61.319
504.36	61.114
504.71	61.847
505.06	61.542
505.40	60.476
505.75	61.138
506.09	61.710
506.44	61.865
506.78	61.471
507.13	62.443
507.47	61.869
507.82	61.905
508.16	61.651
508.51	62.100
508.85	60.228
509.19	61.378
509.54	60.714
509.88	60.536
510.23	61.954
510.57	62.074
510.92	61.937
511.26	61.100
511.61	60.581
511.95	60.177
512.30	60.021
512.64	60.935
512.98	62.111
513.33	61.403
513.67	59.872
514.02	61.201
514.36	60.513
514.70	59.768
515.05	61.461
515.39	60.628
515.74	60.755
516.08	60.872
516.42	60.599
516.77	61.873
517.11	59.822
517.46	60.384
517.80	61.789
518.14	59.815
518.49	61.027
518.83	60.625
519.17	59.296
519.52	60.555
519.86	58.871
520.20	59.827
520.55	62.298
520.89	61.496
521.23	60.193
521.58	60.324
521.92	59.706
522.26	58.816
522.61	61.308
522.95	60.773
523.29	58.977
523.64	61.402
523.98	60.074
524.32	59.168
524.66	58.268
525.01	59.620
525.35	59.418
525.69	58.559
526.04	59.502
526.38	60.464
526.72	57.730
527.06	59.950
527.41	58.045
527.75	59.743
528.09	59.794
528.43	59.783
528.78	59.250
529.12	57.455
529.46	58.604
529.80	58.787
530.15	59.190
530.49	57.108
530.83	57.025
531.17	58.681
531.51	59.014
531.86	58.839
532.20	59.126
532.54	58.232
532.88	58.087
533.22	56.027
533.57	56.358
533.91	57.014
534.25	57.412
534.59	57.474
534.93	55.741
535.27	56.126
535.62	56.227
535.96	56.623
536.30	57.279
536.64	56.793
536.98	57.067
537.32	56.814
537.66	57.400
538.01	57.011
538.35	56.884
538.69	56.733
539.03	55.426
539.37	54.121
539.71	56.189
540.05	56.078
540.39	55.282
540.73	55.175
541.07	56.652
541.42	56.295
541.76	55.355
542.10	56.986
542.44	56.887
542.78	56.917
543.12	54.958
543.46	55.344
543.80	56.344
544.14	54.685
544.48	55.683
544.82	56.062
545.16	55.107
545.50	54.242
545.84	55.578
546.18	56.162
546.52	55.196
546.86	56.082
547.20	55.765
547.54	54.643
547.88	54.847
548.22	52.553
548.56	52.767
548.90	53.137
549.24	53.670
549.58	54.502
549.92	54.808
550.26	55.398
550.60	54.288
550.94	55.423
551.28	53.548
551.62	55.428
551.96	53.965
552.30	55.017
552.64	55.308
552.98	54.237
553.32	52.731
553.66	54.465
554.00	54.907
554.34	54.037
554.68	54.649
555.02	53.808
555.36	53.584
555.69	52.842
556.03	53.432
556.37	54.025
556.71	52.729
557.05	54.972
557.39	53.184
557.73	53.987
558.07	54.967
558.41	54.414
558.75	53.711
559.08	54.512
559.42	55.253
559.76	54.265
560.10	51.963
560.44	53.599
560.78	51.364
561.12	52.111
561.45	53.064
561.79	52.011
562.13	52.448
562.47	53.279
562.81	52.789
563.15	51.706
563.48	50.995
563.82	51.990
564.16	51.995
564.50	51.367
564.84	50.253
565.17	51.287
565.51	52.460
565.85	51.459
566.19	51.033
566.52	50.602
566.86	50.693
567.20	50.884
567.54	50.228
567.88	49.321
568.21	48.889
568.55	48.686
568.89	48.881
569.23	47.504
569.56	46.194
569.90	45.736
570.24	46.394
570.57	45.393
570.91	43.956
571.25	43.762
571.59	44.359
571.92	43.491
572.26	44.050
572.60	43.904
572.93	43.988
573.27	43.833
573.61	43.858
573.95	43.282
574.28	42.764
574.62	42.347
574.96	42.007
575.29	41.683
575.63	42.785
575.97	43.062
576.30	43.415
576.64	42.128
576.98	42.416
577.31	42.491
577.65	42.497
577.98	41.777
578.32	41.124
578.66	41.279
578.99	42.136
579.33	42.314
579.67	41.644
580.00	42.340
580.34	43.023
580.67	42.189
581.01	41.646
581.35	41.113
581.68	40.915
582.02	40.371
582.35	40.796
582.69	40.686
583.02	41.850
583.36	42.057
583.70	42.732
584.03	42.189
584.37	43.083
584.70	42.894
585.04	41.732
585.37	41.263
585.71	42.129
586.04	41.218
586.38	42.163
586.72	41.729
587.05	41.483
587.39	41.293
587.72	41.587
588.06	41.409
588.39	41.427
588.73	42.153
589.06	43.253
589.40	43.434
589.73	43.471
590.07	43.950
590.40	42.784
590.73	43.521
591.07	44.119
591.40	44.159
591.74	44.892
592.07	44.546
592.41	41.918
592.74	42.135
593.08	41.805
593.41	41.348
593.75	40.225
594.08	41.804
594.41	42.453
594.75	42.070
595.08	41.947
595.42	42.207
595.75	42.272
596.09	42.433
596.42	42.750
596.75	43.014
597.09	43.333
597.42	42.749
597.75	42.173
598.09	43.565
598.42	42.397
598.76	41.994
599.09	41.239
599.42	40.793
599.76	42.130
600.09	41.020
600.42	41.052
600.76	40.893
601.09	40.546
601.42	41.857
601.76	42.049
602.09	41.660
602.42	42.635
602.76	42.563
603.09	41.463
603.42	41.976
603.76	41.197
604.09	41.799
604.42	42.193
604.76	42.851
605.09	42.333
605.42	41.984
605.75	41.680
606.09	41.928
606.42	41.725
606.75	41.560
607.09	41.524
607.42	41.849
607.75	40.380
608.08	40.860
608.42	41.865
608.75	41.479
609.08	41.027
609.41	42.361
609.75	41.258
610.08	41.989
610.41	41.294
610.74	42.195
611.07	43.132
611.41	42.640
611.74	43.137
612.07	43.892
612.40	43.861
612.73	42.579
613.07	43.481
613.40	43.075
613.73	42.003
614.06	43.118
614.39	42.160
614.72	41.737
615.06	41.964
615.39	42.197
615.72	42.229
616.05	41.680
616.38	42.524
616.71	44.537
617.05	44.287
617.38	43.295
617.71	43.483
618.04	43.510
618.37	42.637
618.70	44.555
619.03	45.000
619.36	44.196
619.69	44.718
620.03	44.231
620.36	43.382
620.69	45.548
621.02	45.206
621.35	46.359
621.68	45.639
622.01	44.737
622.34	44.932
622.67	45.323
623.00	44.021
623.33	44.246
623.66	43.817
623.99	44.919
624.32	44.579
624.65	42.797
624.99	43.626
625.32	43.736
625.65	44.553
625.98	46.656
626.31	45.412
626.64	45.714
626.97	46.135
627.30	45.054
627.63	45.119
627.96	45.164
628.29	46.194
628.62	46.752
628.95	47.736
629.28	46.807
629.61	49.129
629.94	46.952
630.26	48.332
630.59	47.283
